title:الما عطش, start timestamp:1703405211.524598, stop timestamp:1703405222.330940, headset type:EPOCX, headset serial:E50206EF, headset firmware:720, channels:67, sampling rate:eeg_128;mot_32, samples:1385      , version:2.2, 
Timestamp,OriginalTimestamp,EEG.Counter,EEG.Interpolated,EEG.AF3,EEG.F7,EEG.F3,EEG.FC5,EEG.T7,EEG.P7,EEG.O1,EEG.O2,EEG.P8,EEG.T8,EEG.FC6,EEG.F4,EEG.F8,EEG.AF4,EEG.RawCq,EEG.Battery,EEG.BatteryPercent,MarkerIndex,MarkerType,MarkerValueInt,EEG.MarkerHardware,CQ.AF3,CQ.F7,CQ.F3,CQ.FC5,CQ.T7,CQ.P7,CQ.O1,CQ.O2,CQ.P8,CQ.T8,CQ.FC6,CQ.F4,CQ.F8,CQ.AF4,CQ.Overall,EQ.SampleRateQuality,EQ.OVERALL,EQ.AF3,EQ.F7,EQ.F3,EQ.FC5,EQ.T7,EQ.P7,EQ.O1,EQ.O2,EQ.P8,EQ.T8,EQ.FC6,EQ.F4,EQ.F8,EQ.AF4,MOT.CounterMems,MOT.InterpolatedMems,MOT.Q0,MOT.Q1,MOT.Q2,MOT.Q3,MOT.AccX,MOT.AccY,MOT.AccZ,MOT.MagX,MOT.MagY,MOT.MagZ
1703405211.524598,1703405211.525336,106.000000,0.000000,4227.179688,4196.282227,4284.487305,4251.410156,4181.922852,4090.897461,4296.794922,4146.922852,4151.153809,4153.333496,4621.025879,4462.820313,4383.974121,4526.666504,5945.000000,4.000000,82.000000,,,,0.000000,4.000000,4.000000,4.000000,4.000000,4.000000,4.000000,2.000000,4.000000,4.000000,4.000000,4.000000,4.000000,4.000000,4.000000,83.333336,,,,,,,,,,,,,,,,,,,,,,,,,,,,
1703405211.532406,1703405211.533244,107.000000,0.000000,4216.538574,4185.641113,4277.179688,4242.948730,4189.743652,4088.974365,4299.743652,4133.077148,4131.538574,4144.487305,4612.051270,4452.948730,4377.051270,4518.846191,6187.000000,4.000000,82.000000,,,,0.000000,4.000000,4.000000,4.000000,4.000000,4.000000,4.000000,2.000000,4.000000,4.000000,4.000000,4.000000,4.000000,4.000000,4.000000,83.333336,,,,,,,,,,,,,,,,,,,,,,,,,,,,
1703405211.540214,1703405211.541052,108.000000,0.000000,4224.871582,4186.538574,4279.102539,4248.589844,4199.615234,4093.846191,4298.205078,4137.948730,4133.461426,4150.897461,4610.000000,4462.948730,4381.666504,4523.717773,6654.000000,4.000000,82.000000,,,,0.000000,4.000000,4.000000,4.000000,4.000000,4.000000,4.000000,2.000000,4.000000,4.000000,4.000000,4.000000,4.000000,4.000000,4.000000,83.333336,,,,,,,,,,,,,,,,,27.000000,0.000000,0.696887,-0.090454,-0.708313,-0.066772,0.983518,-0.051276,-0.023440,-14.562298,-39.227104,62.714493
1703405211.548022,1703405211.548960,109.000000,0.000000,4220.769043,4188.077148,4278.205078,4248.717773,4194.358887,4091.538574,4293.589844,4142.563965,4140.512695,4146.538574,4601.153809,4460.384766,4375.000000,4516.282227,6584.000000,4.000000,82.000000,,,,0.000000,4.000000,4.000000,4.000000,4.000000,4.000000,4.000000,2.000000,4.000000,4.000000,4.000000,4.000000,4.000000,4.000000,4.000000,83.333336,,,,,,,,,,,,,,,,,,,,,,,,,,,,
1703405211.555830,1703405211.556769,110.000000,0.000000,4213.974121,4182.563965,4280.000000,4246.538574,4177.692383,4081.923096,4293.717773,4137.820313,4129.615234,4130.000000,4602.820313,4455.000000,4361.794922,4508.846191,5945.000000,4.000000,82.000000,,,,0.000000,4.000000,4.000000,4.000000,4.000000,4.000000,4.000000,2.000000,4.000000,4.000000,4.000000,4.000000,4.000000,4.000000,4.000000,83.333336,,,,,,,,,,,,,,,,,,,,,,,,,,,,
1703405211.563638,1703405211.564677,111.000000,0.000000,4231.282227,4188.205078,4294.487305,4258.717773,4174.871582,4078.589844,4293.461426,4139.358887,4129.743652,4137.948730,4618.589844,4467.436035,4371.922852,4525.256348,6187.000000,4.000000,82.000000,,,,0.000000,4.000000,4.000000,4.000000,4.000000,4.000000,4.000000,2.000000,4.000000,4.000000,4.000000,4.000000,4.000000,4.000000,4.000000,83.333336,,,,,,,,,,,,,,,,,,,,,,,,,,,,
1703405211.571446,1703405211.572485,112.000000,0.000000,4232.051270,4183.974121,4289.615234,4244.102539,4170.641113,4076.923096,4287.307617,4140.512695,4140.641113,4149.358887,4612.948730,4464.230957,4379.230957,4527.692383,6654.000000,4.000000,82.000000,,,,0.000000,4.000000,4.000000,4.000000,4.000000,4.000000,4.000000,2.000000,4.000000,4.000000,4.000000,4.000000,4.000000,4.000000,4.000000,83.333336,,,,,,,,,,,,,,,,,28.000000,0.000000,0.696877,-0.090576,-0.708313,-0.066711,0.986449,-0.062996,-0.025394,-14.556067,-39.304394,62.793045
1703405211.579254,1703405211.580293,113.000000,0.000000,4215.384766,4169.615234,4270.512695,4228.846191,4162.051270,4076.794922,4286.282227,4136.794922,4139.615234,4137.948730,4596.666504,4447.563965,4364.102539,4508.589844,6584.000000,4.000000,82.000000,,,,0.000000,4.000000,4.000000,4.000000,4.000000,4.000000,4.000000,2.000000,4.000000,4.000000,4.000000,4.000000,4.000000,4.000000,4.000000,83.333336,,,,,,,,,,,,,,,,,,,,,,,,,,,,
1703405211.587062,1703405211.588001,114.000000,0.000000,4222.307617,4184.487305,4276.282227,4254.871582,4179.358887,4086.538574,4291.282227,4147.051270,4142.307617,4133.077148,4607.436035,4454.615234,4367.692383,4513.589844,5945.000000,4.000000,82.000000,,,,0.000000,4.000000,4.000000,4.000000,4.000000,4.000000,4.000000,2.000000,4.000000,4.000000,4.000000,4.000000,4.000000,4.000000,4.000000,83.333336,,,,,,,,,,,,,,,,,,,,,,,,,,,,
1703405211.594870,1703405211.595908,115.000000,0.000000,4228.717773,4203.077148,4287.692383,4264.487305,4196.538574,4095.000000,4289.871582,4156.282227,4143.974121,4137.692383,4617.051270,4464.487305,4383.717773,4527.563965,6187.000000,4.000000,82.000000,,,,0.000000,4.000000,4.000000,4.000000,4.000000,4.000000,4.000000,2.000000,4.000000,4.000000,4.000000,4.000000,4.000000,4.000000,4.000000,83.333336,,,,,,,,,,,,,,,,,,,,,,,,,,,,
1703405211.602678,1703405211.603716,116.000000,0.000000,4222.051270,4196.794922,4283.974121,4245.256348,4188.461426,4091.923096,4285.256348,4147.307617,4136.538574,4142.820313,4606.794922,4463.846191,4380.512695,4522.179688,6654.000000,4.000000,82.000000,,,,0.000000,4.000000,4.000000,4.000000,4.000000,4.000000,4.000000,2.000000,4.000000,4.000000,4.000000,4.000000,4.000000,4.000000,4.000000,83.333336,,,,,,,,,,,,,,,,,29.000000,0.000000,0.696730,-0.090759,-0.708435,-0.066711,0.994750,-0.062508,-0.027835,-14.450461,-39.390621,62.847073
1703405211.610486,1703405211.611624,117.000000,0.000000,4226.282227,4192.307617,4289.615234,4246.794922,4185.641113,4084.487061,4285.256348,4140.128418,4137.820313,4152.820313,4612.820313,4471.153809,4380.128418,4522.692383,6584.000000,4.000000,82.000000,,,,0.000000,4.000000,4.000000,4.000000,4.000000,4.000000,4.000000,2.000000,4.000000,4.000000,4.000000,4.000000,4.000000,4.000000,4.000000,83.333336,,,,,,,,,,,,,,,,,,,,,,,,,,,,
1703405211.618294,1703405211.619432,118.000000,0.000000,4228.205078,4194.871582,4294.102539,4255.000000,4187.563965,4077.564209,4281.666504,4138.717773,4132.948730,4149.358887,4621.922852,4466.153809,4383.333496,4528.461426,5945.000000,4.000000,82.000000,,,,0.000000,4.000000,4.000000,4.000000,4.000000,4.000000,4.000000,2.000000,4.000000,4.000000,4.000000,4.000000,4.000000,4.000000,4.000000,83.333336,,,,,,,,,,,,,,,,,,,,,,,,,,,,
1703405211.626102,1703405211.627340,119.000000,0.000000,4214.743652,4188.077148,4278.846191,4245.897461,4174.487305,4072.564209,4276.282227,4132.820313,4116.410156,4127.436035,4596.538574,4441.922852,4363.333496,4514.615234,6187.000000,4.000000,82.000000,,,,0.000000,4.000000,4.000000,4.000000,4.000000,4.000000,4.000000,2.000000,4.000000,4.000000,4.000000,4.000000,4.000000,4.000000,4.000000,83.333336,,,,,,,,,,,,,,,,,,,,,,,,,,,,
1703405211.633911,1703405211.635148,120.000000,0.000000,4206.282227,4178.974121,4272.051270,4243.333496,4172.436035,4073.846191,4279.487305,4138.205078,4122.563965,4118.333496,4579.743652,4437.307617,4347.051270,4501.666504,6654.000000,4.000000,82.000000,,,,0.000000,4.000000,4.000000,4.000000,4.000000,4.000000,4.000000,2.000000,4.000000,4.000000,4.000000,4.000000,4.000000,4.000000,4.000000,83.333336,,,,,,,,,,,,,,,,,30.000000,0.000000,0.696683,-0.090820,-0.708496,-0.066467,0.993774,-0.051276,-0.023929,-14.572082,-39.334892,62.812366
1703405211.641719,1703405211.643056,121.000000,0.000000,4207.307617,4175.641113,4275.256348,4249.102539,4185.897461,4079.743652,4280.897461,4152.436035,4141.922852,4121.922852,4596.794922,4447.051270,4355.641113,4507.179688,6584.000000,4.000000,82.000000,,,,0.000000,4.000000,4.000000,4.000000,4.000000,4.000000,4.000000,2.000000,4.000000,4.000000,4.000000,4.000000,4.000000,4.000000,4.000000,83.333336,,,,,,,,,,,,,,,,,,,,,,,,,,,,
1703405211.649526,1703405211.650864,122.000000,0.000000,4210.897461,4179.102539,4272.436035,4244.743652,4188.589844,4088.589844,4278.333496,4153.077148,4146.410156,4127.179688,4603.333496,4445.256348,4362.179688,4512.307617,5945.000000,4.000000,82.000000,,,,0.000000,4.000000,4.000000,4.000000,4.000000,4.000000,4.000000,2.000000,4.000000,4.000000,4.000000,4.000000,4.000000,4.000000,4.000000,83.333336,,,,,,,,,,,,,,,,,,,,,,,,,,,,
1703405211.657335,1703405211.658772,123.000000,0.000000,4219.871582,4187.692383,4277.307617,4237.307617,4191.410156,4093.333252,4281.666504,4152.948730,4154.871582,4142.563965,4598.846191,4452.692383,4365.000000,4520.384766,6187.000000,4.000000,82.000000,,,,0.000000,4.000000,4.000000,4.000000,4.000000,4.000000,4.000000,2.000000,4.000000,4.000000,4.000000,4.000000,4.000000,4.000000,4.000000,83.333336,,,,,,,,,,,,,,,,,,,,,,,,,,,,
1703405211.665143,1703405211.666580,124.000000,0.000000,4212.948730,4180.769043,4281.538574,4237.179688,4185.897461,4078.974365,4278.333496,4150.897461,4157.307617,4147.051270,4601.282227,4456.666504,4365.128418,4519.230957,6654.000000,4.000000,82.000000,,,,0.000000,4.000000,4.000000,4.000000,4.000000,4.000000,4.000000,2.000000,4.000000,4.000000,4.000000,4.000000,4.000000,4.000000,4.000000,83.333336,,,,,,,,,,,,,,,,,31.000000,0.000000,0.696652,-0.090759,-0.708557,-0.066223,0.997192,-0.052252,-0.015139,-14.564874,-39.434734,62.831127
1703405211.672951,1703405211.674288,125.000000,0.000000,4205.897461,4173.717773,4277.051270,4245.769043,4173.077148,4064.743652,4270.384766,4140.769043,4134.871582,4135.641113,4602.307617,4447.307617,4358.333496,4509.871582,6584.000000,4.000000,82.000000,,,,0.000000,4.000000,4.000000,4.000000,4.000000,4.000000,4.000000,2.000000,4.000000,4.000000,4.000000,4.000000,4.000000,4.000000,4.000000,83.333336,,,,,,,,,,,,,,,,,,,,,,,,,,,,
1703405211.680759,1703405211.682096,126.000000,0.000000,4220.128418,4188.077148,4283.205078,4249.743652,4178.974121,4070.000000,4276.282227,4140.769043,4120.512695,4136.282227,4606.922852,4456.410156,4360.512695,4520.512695,5945.000000,4.000000,82.000000,,,,0.000000,4.000000,4.000000,4.000000,4.000000,4.000000,4.000000,2.000000,4.000000,4.000000,4.000000,4.000000,4.000000,4.000000,4.000000,83.333336,,,,,,,,,,,,,,,,,,,,,,,,,,,,
1703405211.688567,1703405211.689804,127.000000,0.000000,4228.589844,4196.794922,4294.102539,4247.948730,4186.922852,4078.461426,4281.153809,4146.153809,4120.897461,4141.922852,4616.538574,4468.846191,4372.051270,4534.871582,82.000000,4.000000,82.000000,,,,0.000000,4.000000,4.000000,4.000000,4.000000,4.000000,4.000000,2.000000,4.000000,4.000000,4.000000,4.000000,4.000000,4.000000,4.000000,83.333336,,,,,,,,,,,,,,,,,,,,,,,,,,,,
1703405211.696375,1703405211.697612,0.000000,0.000000,4216.922852,4184.487305,4290.256348,4246.922852,4175.384766,4074.871826,4271.410156,4144.615234,4120.897461,4136.282227,4616.922852,4458.589844,4373.205078,4524.615234,4746.000000,4.000000,82.000000,,,,0.000000,4.000000,4.000000,4.000000,4.000000,4.000000,4.000000,2.000000,4.000000,4.000000,4.000000,4.000000,4.000000,4.000000,4.000000,83.333336,,,,,,,,,,,,,,,,,0.000000,0.000000,0.696609,-0.090698,-0.708618,-0.066101,0.986937,-0.050787,-0.028812,-14.541719,-39.291264,62.831348
1703405211.704183,1703405211.705320,1.000000,0.000000,4209.230957,4174.871582,4286.153809,4242.820313,4174.743652,4072.692383,4268.974121,4150.512695,4126.538574,4135.512695,4606.666504,4452.563965,4366.282227,4512.692383,5352.000000,4.000000,82.000000,,,,0.000000,4.000000,4.000000,4.000000,4.000000,4.000000,4.000000,2.000000,4.000000,4.000000,4.000000,4.000000,4.000000,4.000000,4.000000,83.333336,,,,,,,,,,,,,,,,,,,,,,,,,,,,
1703405211.711991,1703405211.713128,2.000000,0.000000,4213.205078,4176.666504,4287.563965,4237.820313,4187.179688,4076.025635,4271.922852,4161.410156,4134.743652,4137.179688,4595.897461,4453.974121,4364.871582,4515.512695,5130.000000,4.000000,82.000000,,,,0.000000,4.000000,4.000000,4.000000,4.000000,4.000000,4.000000,2.000000,4.000000,4.000000,4.000000,4.000000,4.000000,4.000000,4.000000,83.333336,,,,,,,,,,,,,,,,,,,,,,,,,,,,
1703405211.719799,1703405211.720836,3.000000,0.000000,4204.102539,4170.769043,4270.897461,4229.358887,4176.282227,4071.410156,4269.102539,4151.922852,4132.051270,4124.615234,4580.512695,4432.436035,4354.871582,4503.205078,5332.000000,4.000000,82.000000,,,,0.000000,4.000000,4.000000,4.000000,4.000000,4.000000,4.000000,2.000000,4.000000,4.000000,4.000000,4.000000,4.000000,4.000000,4.000000,83.333336,,,,,,,,,,,,,,,,,,,,,,,,,,,,
1703405211.727607,1703405211.728644,4.000000,0.000000,4193.846191,4166.282227,4253.333496,4224.615234,4167.179688,4068.974365,4271.538574,4141.538574,4133.461426,4115.512695,4576.794922,4415.128418,4340.769043,4486.153809,5081.000000,4.000000,82.000000,,,,0.000000,4.000000,4.000000,4.000000,4.000000,4.000000,4.000000,2.000000,4.000000,4.000000,4.000000,4.000000,4.000000,4.000000,4.000000,83.333336,,,,,,,,,,,,,,,,,1.000000,0.000000,0.696596,-0.090759,-0.708618,-0.066162,0.985472,-0.058601,-0.025394,-14.370881,-39.278801,62.981548
1703405211.735415,1703405211.736352,5.000000,0.000000,4204.743652,4181.666504,4262.436035,4236.794922,4181.153809,4077.179443,4275.641113,4146.538574,4149.871582,4132.692383,4598.589844,4429.102539,4350.641113,4497.692383,4597.000000,4.000000,82.000000,,,,0.000000,4.000000,4.000000,4.000000,4.000000,4.000000,4.000000,2.000000,4.000000,4.000000,4.000000,4.000000,4.000000,4.000000,4.000000,83.333336,,,,,,,,,,,,,,,,,,,,,,,,,,,,
1703405211.743223,1703405211.744160,6.000000,0.000000,4220.384766,4196.666504,4277.307617,4249.358887,4188.205078,4074.743652,4271.538574,4145.000000,4152.820313,4152.179688,4608.333496,4440.897461,4368.717773,4516.282227,1608.000000,4.000000,82.000000,,,,0.000000,4.000000,4.000000,4.000000,4.000000,4.000000,4.000000,2.000000,4.000000,4.000000,4.000000,4.000000,4.000000,4.000000,4.000000,83.333336,,,,,,,,,,,,,,,,,,,,,,,,,,,,
1703405211.751031,1703405211.751868,7.000000,0.000000,4224.487305,4194.743652,4283.846191,4253.846191,4182.820313,4065.897461,4268.461426,4143.077148,4142.563965,4148.974121,4603.589844,4443.205078,4371.538574,4523.974121,5171.000000,4.000000,82.000000,,,,0.000000,4.000000,4.000000,4.000000,4.000000,4.000000,4.000000,2.000000,4.000000,4.000000,4.000000,4.000000,4.000000,4.000000,4.000000,83.333336,,,,,,,,,,,,,,,,,,,,,,,,,,,,
1703405211.758839,1703405211.759676,8.000000,0.000000,4217.820313,4188.974121,4283.461426,4251.922852,4181.794922,4069.871826,4266.794922,4149.743652,4136.794922,4138.846191,4609.743652,4449.615234,4367.820313,4519.871582,5041.000000,4.000000,82.000000,,,,0.000000,4.000000,4.000000,4.000000,4.000000,4.000000,4.000000,2.000000,4.000000,4.000000,4.000000,4.000000,4.000000,4.000000,4.000000,83.333336,,,,,,,,,,,,,,,,,2.000000,0.000000,0.696708,-0.090759,-0.708496,-0.066284,0.980588,-0.058601,-0.019534,-14.233792,-39.284256,62.966728
1703405211.766647,1703405211.767384,9.000000,0.000000,4212.307617,4186.922852,4277.692383,4239.615234,4183.333496,4074.487061,4263.717773,4150.384766,4133.717773,4135.769043,4606.666504,4452.307617,4365.641113,4511.666504,5110.000000,4.000000,82.000000,,,,0.000000,4.000000,4.000000,4.000000,4.000000,4.000000,4.000000,2.000000,4.000000,4.000000,4.000000,4.000000,4.000000,4.000000,4.000000,83.333336,1.000000,75.000000,4.000000,4.000000,4.000000,4.000000,4.000000,4.000000,1.000000,4.000000,4.000000,4.000000,4.000000,4.000000,4.000000,4.000000,,,,,,,,,,,,
1703405211.774455,1703405211.775192,10.000000,0.000000,4212.563965,4184.230957,4277.179688,4235.000000,4183.077148,4074.102539,4265.897461,4151.666504,4138.333496,4141.153809,4596.666504,4453.846191,4368.589844,4511.922852,5918.000000,4.000000,82.000000,,,,0.000000,4.000000,4.000000,4.000000,4.000000,4.000000,4.000000,2.000000,4.000000,4.000000,4.000000,4.000000,4.000000,4.000000,4.000000,83.333336,,,,,,,,,,,,,,,,,,,,,,,,,,,,
1703405211.782263,1703405211.782900,11.000000,0.000000,4218.205078,4188.077148,4284.487305,4249.743652,4191.666504,4082.435791,4268.974121,4171.666504,4153.974121,4147.692383,4616.538574,4466.538574,4377.051270,4526.666504,6163.000000,4.000000,82.000000,,,,0.000000,4.000000,4.000000,4.000000,4.000000,4.000000,4.000000,2.000000,4.000000,4.000000,4.000000,4.000000,4.000000,4.000000,4.000000,83.333336,,,,,,,,,,,,,,,,,,,,,,,,,,,,
1703405211.790071,1703405211.790808,12.000000,0.000000,4211.538574,4187.179688,4279.230957,4248.205078,4185.384766,4081.666748,4266.922852,4176.153809,4156.153809,4142.051270,4628.333496,4464.615234,4371.794922,4527.051270,6654.000000,4.000000,82.000000,,,,0.000000,4.000000,4.000000,4.000000,4.000000,4.000000,4.000000,2.000000,4.000000,4.000000,4.000000,4.000000,4.000000,4.000000,4.000000,83.333336,,,,,,,,,,,,,,,,,3.000000,0.000000,0.696873,-0.090881,-0.708313,-0.066345,0.984984,-0.044927,-0.022952,-14.260413,-39.222496,62.936722
1703405211.797880,1703405211.798616,13.000000,0.000000,4198.717773,4180.000000,4270.000000,4229.743652,4169.102539,4072.051270,4266.922852,4158.205078,4146.025879,4137.051270,4605.128418,4448.333496,4360.000000,4510.128418,6576.000000,4.000000,82.000000,,,,0.000000,4.000000,4.000000,4.000000,4.000000,4.000000,4.000000,2.000000,4.000000,4.000000,4.000000,4.000000,4.000000,4.000000,4.000000,83.333336,,,,,,,,,,,,,,,,,,,,,,,,,,,,
1703405211.805688,1703405211.806524,14.000000,0.000000,4206.538574,4183.205078,4274.615234,4228.589844,4169.358887,4076.025635,4264.102539,4154.615234,4148.077148,4139.871582,4597.820313,4446.410156,4360.769043,4506.025879,5918.000000,4.000000,82.000000,,,,0.000000,4.000000,4.000000,4.000000,4.000000,4.000000,4.000000,2.000000,4.000000,4.000000,4.000000,4.000000,4.000000,4.000000,4.000000,83.333336,,,,,,,,,,,,,,,,,,,,,,,,,,,,
1703405211.813496,1703405211.814332,15.000000,0.000000,4214.615234,4183.461426,4274.615234,4233.846191,4167.948730,4075.256348,4254.358887,4152.563965,4141.922852,4130.769043,4594.230957,4442.820313,4352.051270,4505.256348,6163.000000,4.000000,82.000000,,,,0.000000,4.000000,4.000000,4.000000,4.000000,4.000000,4.000000,2.000000,4.000000,4.000000,4.000000,4.000000,4.000000,4.000000,4.000000,83.333336,,,,,,,,,,,,,,,,,,,,,,,,,,,,
1703405211.821304,1703405211.822240,16.000000,0.000000,4214.230957,4187.436035,4278.333496,4246.282227,4171.794922,4072.692383,4253.461426,4148.205078,4137.948730,4131.922852,4592.307617,4448.846191,4355.256348,4511.794922,0.000000,4.000000,82.000000,,,,0.000000,4.000000,4.000000,4.000000,4.000000,4.000000,4.000000,2.000000,4.000000,4.000000,4.000000,4.000000,4.000000,4.000000,4.000000,83.333336,,,,,,,,,,,,,,,,,4.000000,0.000000,0.696917,-0.091064,-0.708252,-0.066284,0.986449,-0.051276,-0.020510,-14.417706,-39.250248,62.909714
1703405211.829112,1703405211.830048,17.000000,0.000000,4220.641113,4202.436035,4293.333496,4265.000000,4188.846191,4083.461426,4260.769043,4155.641113,4155.897461,4153.846191,4612.436035,4473.974121,4379.615234,4532.179688,0.000000,4.000000,82.000000,,,,0.000000,4.000000,4.000000,4.000000,4.000000,4.000000,4.000000,2.000000,4.000000,4.000000,4.000000,4.000000,4.000000,4.000000,4.000000,83.333336,,,,,,,,,,,,,,,,,,,,,,,,,,,,
1703405211.836920,1703405211.837956,18.000000,0.000000,4221.666504,4198.205078,4291.794922,4252.692383,4188.077148,4084.487061,4257.307617,4159.230957,4157.436035,4151.410156,4610.641113,4473.077148,4374.358887,4529.871582,0.000000,4.000000,82.000000,,,,0.000000,4.000000,4.000000,4.000000,4.000000,4.000000,4.000000,2.000000,4.000000,4.000000,4.000000,4.000000,4.000000,4.000000,4.000000,83.333336,,,,,,,,,,,,,,,,,,,,,,,,,,,,
1703405211.844728,1703405211.845763,19.000000,0.000000,4213.974121,4182.307617,4278.333496,4238.077148,4172.692383,4075.384521,4250.000000,4154.487305,4139.615234,4132.051270,4593.974121,4453.077148,4355.256348,4508.974121,0.000000,4.000000,82.000000,,,,0.000000,4.000000,4.000000,4.000000,4.000000,4.000000,4.000000,2.000000,4.000000,4.000000,4.000000,4.000000,4.000000,4.000000,4.000000,83.333336,,,,,,,,,,,,,,,,,,,,,,,,,,,,
1703405211.852536,1703405211.853671,20.000000,0.000000,4212.051270,4182.948730,4271.025879,4242.563965,4167.820313,4072.948730,4253.333496,4154.230957,4135.512695,4133.974121,4605.897461,4452.436035,4361.410156,4506.025879,0.000000,4.000000,82.000000,,,,0.000000,4.000000,4.000000,4.000000,4.000000,4.000000,4.000000,2.000000,4.000000,4.000000,4.000000,4.000000,4.000000,4.000000,4.000000,83.333336,,,,,,,,,,,,,,,,,5.000000,0.000000,0.696987,-0.091431,-0.708130,-0.066345,0.997680,-0.050299,-0.022952,-14.475935,-39.325222,62.885410
1703405211.860344,1703405211.861479,21.000000,0.000000,4217.820313,4193.717773,4274.358887,4241.025879,4173.077148,4076.410156,4253.461426,4155.128418,4139.358887,4141.153809,4620.769043,4462.948730,4371.922852,4523.717773,0.000000,4.000000,82.000000,,,,0.000000,4.000000,4.000000,4.000000,4.000000,4.000000,4.000000,2.000000,4.000000,4.000000,4.000000,4.000000,4.000000,4.000000,4.000000,83.333336,,,,,,,,,,,,,,,,,,,,,,,,,,,,
1703405211.868152,1703405211.869187,22.000000,0.000000,4217.436035,4197.307617,4281.922852,4238.077148,4181.410156,4079.615479,4246.153809,4152.179688,4135.512695,4134.615234,4609.615234,4459.487305,4368.717773,4525.000000,0.000000,4.000000,82.000000,,,,0.000000,4.000000,4.000000,4.000000,4.000000,4.000000,4.000000,2.000000,4.000000,4.000000,4.000000,4.000000,4.000000,4.000000,4.000000,83.333336,,,,,,,,,,,,,,,,,,,,,,,,,,,,
1703405211.875960,1703405211.876995,23.000000,0.000000,4203.717773,4189.102539,4275.384766,4237.563965,4177.820313,4078.461426,4248.205078,4151.922852,4133.077148,4124.871582,4585.000000,4438.717773,4350.769043,4503.717773,0.000000,4.000000,82.000000,,,,0.000000,4.000000,4.000000,4.000000,4.000000,4.000000,4.000000,2.000000,4.000000,4.000000,4.000000,4.000000,4.000000,4.000000,4.000000,83.333336,,,,,,,,,,,,,,,,,,,,,,,,,,,,
1703405211.883768,1703405211.884703,24.000000,0.000000,4187.948730,4177.307617,4254.871582,4225.641113,4164.615234,4077.179443,4250.512695,4151.153809,4134.102539,4118.333496,4566.794922,4422.820313,4325.256348,4480.641113,0.000000,4.000000,82.000000,,,,0.000000,4.000000,4.000000,4.000000,4.000000,4.000000,4.000000,2.000000,4.000000,4.000000,4.000000,4.000000,4.000000,4.000000,4.000000,83.333336,,,,,,,,,,,,,,,,,6.000000,0.000000,0.697091,-0.091675,-0.708008,-0.066223,0.974728,-0.052252,-0.017580,-14.478341,-39.259365,62.946869
1703405211.891576,1703405211.892511,25.000000,0.000000,4196.025879,4182.307617,4257.436035,4227.692383,4177.692383,4090.128174,4236.666504,4156.410156,4141.282227,4121.666504,4576.922852,4437.179688,4329.743652,4463.589844,0.000000,4.000000,82.000000,,,,0.000000,4.000000,4.000000,4.000000,4.000000,4.000000,4.000000,2.000000,4.000000,4.000000,4.000000,4.000000,4.000000,4.000000,4.000000,83.333336,,,,,,,,,,,,,,,,,,,,,,,,,,,,
1703405211.899384,1703405211.900219,26.000000,0.000000,4206.025879,4187.948730,4272.307617,4244.871582,4188.717773,4092.948730,4216.153809,4156.410156,4140.384766,4124.871582,4587.563965,4448.461426,4346.666504,4438.717773,0.000000,4.000000,82.000000,,,,0.000000,4.000000,4.000000,4.000000,4.000000,4.000000,4.000000,2.000000,4.000000,4.000000,4.000000,4.000000,4.000000,4.000000,4.000000,83.333336,,,,,,,,,,,,,,,,,,,,,,,,,,,,
1703405211.907192,1703405211.908027,27.000000,0.000000,4195.512695,4184.871582,4270.769043,4245.000000,4173.846191,4074.358887,4209.743652,4139.743652,4125.769043,4116.410156,4576.794922,4433.589844,4339.230957,4419.615234,0.000000,4.000000,82.000000,,,,0.000000,4.000000,4.000000,4.000000,4.000000,4.000000,4.000000,2.000000,4.000000,4.000000,4.000000,4.000000,4.000000,4.000000,4.000000,83.333336,,,,,,,,,,,,,,,,,,,,,,,,,,,,
1703405211.915000,1703405211.915736,28.000000,0.000000,4206.153809,4200.512695,4278.974121,4244.871582,4178.461426,4077.948730,4216.025879,4144.615234,4135.512695,4128.717773,4596.282227,4445.512695,4354.102539,4445.256348,0.000000,4.000000,82.000000,,,,0.000000,4.000000,4.000000,4.000000,4.000000,4.000000,4.000000,2.000000,4.000000,4.000000,4.000000,4.000000,4.000000,4.000000,4.000000,83.333336,,,,,,,,,,,,,,,,,7.000000,0.000000,0.697065,-0.091736,-0.708008,-0.066406,0.991820,-0.055671,-0.015139,-14.363841,-39.366764,62.952183
1703405211.922808,1703405211.923544,29.000000,0.000000,4230.128418,4211.410156,4295.641113,4250.769043,4193.205078,4095.256348,4218.077148,4167.692383,4154.743652,4152.563965,4624.615234,4476.282227,4381.153809,4474.358887,0.000000,4.000000,82.000000,,,,0.000000,4.000000,4.000000,4.000000,4.000000,4.000000,4.000000,2.000000,4.000000,4.000000,4.000000,4.000000,4.000000,4.000000,4.000000,83.333336,,,,,,,,,,,,,,,,,,,,,,,,,,,,
1703405211.930616,1703405211.931252,30.000000,0.000000,4224.743652,4199.871582,4291.794922,4249.487305,4185.512695,4092.307617,4212.820313,4166.025879,4146.666504,4148.333496,4612.179688,4475.128418,4369.615234,4463.461426,0.000000,4.000000,82.000000,,,,0.000000,4.000000,4.000000,4.000000,4.000000,4.000000,4.000000,2.000000,4.000000,4.000000,4.000000,4.000000,4.000000,4.000000,4.000000,83.333336,,,,,,,,,,,,,,,,,,,,,,,,,,,,
1703405211.938424,1703405211.939060,31.000000,0.000000,4213.846191,4198.205078,4281.282227,4249.743652,4178.846191,4088.461426,4213.077148,4152.436035,4134.743652,4135.641113,4599.487305,4462.692383,4356.025879,4453.205078,0.000000,4.000000,82.000000,,,,0.000000,4.000000,4.000000,4.000000,4.000000,4.000000,4.000000,2.000000,4.000000,4.000000,4.000000,4.000000,4.000000,4.000000,4.000000,83.333336,,,,,,,,,,,,,,,,,,,,,,,,,,,,
1703405211.946232,1703405211.946768,32.000000,0.000000,4213.077148,4200.256348,4277.820313,4245.256348,4175.897461,4090.000000,4214.743652,4153.205078,4133.717773,4136.538574,4607.563965,4459.615234,4365.000000,4459.871582,0.000000,4.000000,82.000000,,,,0.000000,4.000000,4.000000,4.000000,4.000000,4.000000,4.000000,2.000000,4.000000,4.000000,4.000000,4.000000,4.000000,4.000000,4.000000,83.333336,,,,,,,,,,,,,,,,,8.000000,0.000000,0.696997,-0.091736,-0.708069,-0.066467,0.985472,-0.056648,-0.024417,-14.427457,-39.180088,62.923630
1703405211.954040,1703405211.954576,33.000000,0.000000,4207.436035,4192.692383,4272.948730,4240.512695,4168.205078,4085.000000,4208.974121,4155.000000,4133.205078,4135.128418,4606.538574,4452.307617,4362.179688,4456.794922,0.000000,4.000000,82.000000,,,,0.000000,4.000000,4.000000,4.000000,4.000000,4.000000,4.000000,2.000000,4.000000,4.000000,4.000000,4.000000,4.000000,4.000000,4.000000,83.333336,,,,,,,,,,,,,,,,,,,,,,,,,,,,
1703405211.961849,1703405211.962284,34.000000,0.000000,4210.128418,4196.410156,4272.307617,4246.922852,4176.538574,4086.281982,4209.871582,4152.563965,4135.512695,4133.333496,4589.743652,4448.205078,4346.922852,4449.487305,0.000000,4.000000,82.000000,,,,0.000000,4.000000,4.000000,4.000000,4.000000,4.000000,4.000000,2.000000,4.000000,4.000000,4.000000,4.000000,4.000000,4.000000,4.000000,83.333336,,,,,,,,,,,,,,,,,,,,,,,,,,,,
1703405211.969657,1703405211.970092,35.000000,0.000000,4219.615234,4207.179688,4282.051270,4253.974121,4190.384766,4095.769287,4213.205078,4154.358887,4141.025879,4137.307617,4585.128418,4452.436035,4345.128418,4456.410156,0.000000,4.000000,82.000000,,,,0.000000,4.000000,4.000000,4.000000,4.000000,4.000000,4.000000,2.000000,4.000000,4.000000,4.000000,4.000000,4.000000,4.000000,4.000000,83.333336,,,,,,,,,,,,,,,,,,,,,,,,,,,,
1703405211.977465,1703405211.977800,36.000000,0.000000,4209.615234,4199.102539,4283.205078,4245.769043,4183.717773,4093.718018,4207.051270,4147.692383,4136.153809,4130.641113,4591.538574,4447.179688,4347.051270,4458.974121,0.000000,4.000000,82.000000,,,,0.000000,4.000000,4.000000,4.000000,4.000000,4.000000,4.000000,2.000000,4.000000,4.000000,4.000000,4.000000,4.000000,4.000000,4.000000,83.333336,,,,,,,,,,,,,,,,,9.000000,0.000000,0.696927,-0.091797,-0.708130,-0.066467,0.979612,-0.048834,-0.015627,-14.468044,-39.195412,62.881268
1703405211.985273,1703405211.985708,37.000000,0.000000,4202.948730,4193.974121,4278.077148,4244.487305,4179.230957,4090.512939,4203.205078,4139.358887,4129.102539,4125.769043,4594.871582,4447.692383,4346.538574,4458.077148,0.000000,4.000000,82.000000,,,,0.000000,4.000000,4.000000,4.000000,4.000000,4.000000,4.000000,2.000000,4.000000,4.000000,4.000000,4.000000,4.000000,4.000000,4.000000,83.333336,,,,,,,,,,,,,,,,,,,,,,,,,,,,
1703405211.993081,1703405211.993516,38.000000,0.000000,4214.487305,4203.205078,4282.948730,4254.102539,4186.025879,4093.205078,4207.948730,4140.641113,4124.102539,4130.256348,4597.436035,4457.179688,4348.205078,4462.563965,0.000000,4.000000,82.000000,,,,0.000000,4.000000,4.000000,4.000000,4.000000,4.000000,4.000000,2.000000,4.000000,4.000000,4.000000,4.000000,4.000000,4.000000,4.000000,83.333336,,,,,,,,,,,,,,,,,,,,,,,,,,,,
1703405212.000889,1703405212.001423,39.000000,0.000000,4215.769043,4197.179688,4283.205078,4244.743652,4176.538574,4089.871826,4207.820313,4136.922852,4117.307617,4123.589844,4593.461426,4449.871582,4343.974121,4460.384766,0.000000,4.000000,82.000000,,,,0.000000,4.000000,4.000000,4.000000,4.000000,4.000000,4.000000,2.000000,4.000000,4.000000,4.000000,4.000000,4.000000,4.000000,4.000000,83.333336,,,,,,,,,,,,,,,,,,,,,,,,,,,,
1703405212.008697,1703405212.009231,40.000000,0.000000,4212.179688,4189.615234,4278.205078,4235.000000,4169.102539,4092.179443,4201.922852,4135.000000,4125.384766,4124.102539,4590.769043,4446.794922,4345.512695,4460.256348,0.000000,4.000000,82.000000,,,,0.000000,4.000000,4.000000,4.000000,4.000000,4.000000,4.000000,2.000000,4.000000,4.000000,4.000000,4.000000,4.000000,4.000000,4.000000,83.333336,,,,,,,,,,,,,,,,,10.000000,0.000000,0.696943,-0.091675,-0.708130,-0.066467,0.981565,-0.062996,-0.023440,-14.437906,-39.309204,62.893143
1703405212.016505,1703405212.017139,41.000000,0.000000,4213.717773,4197.820313,4280.512695,4244.358887,4182.563965,4104.230957,4205.000000,4146.794922,4137.051270,4135.128418,4598.461426,4461.538574,4351.153809,4467.563965,0.000000,4.000000,82.000000,,,,0.000000,4.000000,4.000000,4.000000,4.000000,4.000000,4.000000,2.000000,4.000000,4.000000,4.000000,4.000000,4.000000,4.000000,4.000000,83.333336,,,,,,,,,,,,,,,,,,,,,,,,,,,,
1703405212.024313,1703405212.024947,42.000000,0.000000,4208.589844,4196.794922,4282.051270,4250.256348,4183.333496,4107.436035,4210.384766,4155.128418,4134.230957,4130.256348,4598.205078,4462.179688,4348.974121,4466.794922,0.000000,4.000000,82.000000,,,,0.000000,4.000000,4.000000,4.000000,4.000000,4.000000,4.000000,2.000000,4.000000,4.000000,4.000000,4.000000,4.000000,4.000000,4.000000,83.333336,,,,,,,,,,,,,,,,,,,,,,,,,,,,
1703405212.032121,1703405212.032855,43.000000,0.000000,4202.820313,4192.436035,4274.615234,4246.282227,4176.153809,4104.615234,4208.974121,4151.153809,4130.641113,4122.948730,4587.692383,4451.794922,4345.256348,4461.794922,0.000000,4.000000,82.000000,,,,0.000000,4.000000,4.000000,4.000000,4.000000,4.000000,4.000000,2.000000,4.000000,4.000000,4.000000,4.000000,4.000000,4.000000,4.000000,83.333336,,,,,,,,,,,,,,,,,,,,,,,,,,,,
1703405212.039929,1703405212.040663,44.000000,0.000000,4204.743652,4198.717773,4271.282227,4242.051270,4181.410156,4105.897461,4202.179688,4145.384766,4130.512695,4127.563965,4588.717773,4451.666504,4346.282227,4463.846191,0.000000,4.000000,82.000000,,,,0.000000,4.000000,4.000000,4.000000,4.000000,4.000000,4.000000,2.000000,4.000000,4.000000,4.000000,4.000000,4.000000,4.000000,4.000000,83.333336,,,,,,,,,,,,,,,,,11.000000,0.000000,0.696815,-0.091797,-0.708252,-0.066345,0.985472,-0.052252,-0.029789,-14.427449,-39.178284,63.187160
1703405212.047737,1703405212.048471,45.000000,0.000000,4203.333496,4194.102539,4269.615234,4235.512695,4176.025879,4104.487305,4197.948730,4137.436035,4121.666504,4122.563965,4588.205078,4447.820313,4339.871582,4460.384766,0.000000,4.000000,82.000000,,,,0.000000,4.000000,4.000000,4.000000,4.000000,4.000000,4.000000,2.000000,4.000000,4.000000,4.000000,4.000000,4.000000,4.000000,4.000000,83.333336,,,,,,,,,,,,,,,,,,,,,,,,,,,,
1703405212.055545,1703405212.056279,46.000000,0.000000,4200.256348,4188.077148,4266.282227,4235.512695,4167.179688,4104.102539,4202.948730,4140.384766,4127.563965,4120.384766,4582.436035,4442.820313,4336.794922,4453.461426,0.000000,4.000000,82.000000,,,,0.000000,4.000000,4.000000,4.000000,4.000000,4.000000,4.000000,2.000000,4.000000,4.000000,4.000000,4.000000,4.000000,4.000000,4.000000,83.333336,,,,,,,,,,,,,,,,,,,,,,,,,,,,
1703405212.063353,1703405212.063987,47.000000,0.000000,4206.794922,4201.025879,4273.846191,4249.358887,4180.128418,4109.102539,4208.205078,4157.436035,4150.769043,4135.769043,4603.589844,4452.948730,4355.769043,4466.538574,0.000000,4.000000,82.000000,,,,0.000000,4.000000,4.000000,4.000000,4.000000,4.000000,4.000000,2.000000,4.000000,4.000000,4.000000,4.000000,4.000000,4.000000,4.000000,83.333336,,,,,,,,,,,,,,,,,,,,,,,,,,,,
1703405212.071161,1703405212.071795,48.000000,0.000000,4210.512695,4200.256348,4275.512695,4253.717773,4188.846191,4108.846191,4206.282227,4155.256348,4142.820313,4138.461426,4611.538574,4455.641113,4358.589844,4475.641113,0.000000,4.000000,82.000000,,,,0.000000,4.000000,4.000000,4.000000,4.000000,4.000000,4.000000,2.000000,4.000000,4.000000,4.000000,4.000000,4.000000,4.000000,4.000000,83.333336,,,,,,,,,,,,,,,,,12.000000,0.000000,0.696774,-0.092102,-0.708252,-0.066345,0.992309,-0.054694,-0.018069,-14.501371,-39.110455,63.235111
1703405212.078969,1703405212.079503,49.000000,0.000000,4198.333496,4178.589844,4266.025879,4240.769043,4179.358887,4111.153809,4202.179688,4138.846191,4120.000000,4128.846191,4585.128418,4442.307617,4332.563965,4457.948730,0.000000,4.000000,82.000000,,,,0.000000,4.000000,4.000000,4.000000,4.000000,4.000000,4.000000,2.000000,4.000000,4.000000,4.000000,4.000000,4.000000,4.000000,4.000000,83.333336,,,,,,,,,,,,,,,,,,,,,,,,,,,,
1703405212.086777,1703405212.087311,50.000000,0.000000,4195.256348,4176.410156,4273.077148,4234.871582,4178.461426,4119.871582,4207.051270,4148.589844,4132.307617,4135.512695,4588.461426,4450.384766,4336.538574,4457.948730,0.000000,4.000000,82.000000,,,,0.000000,4.000000,4.000000,4.000000,4.000000,4.000000,4.000000,2.000000,4.000000,4.000000,4.000000,4.000000,4.000000,4.000000,4.000000,83.333336,,,,,,,,,,,,,,,,,,,,,,,,,,,,
1703405212.094586,1703405212.095019,51.000000,0.000000,4211.922852,4185.769043,4283.974121,4243.589844,4176.538574,4118.589844,4208.717773,4161.282227,4148.205078,4144.358887,4607.563965,4466.410156,4370.897461,4482.307617,0.000000,4.000000,82.000000,,,,0.000000,4.000000,4.000000,4.000000,4.000000,4.000000,4.000000,2.000000,4.000000,4.000000,4.000000,4.000000,4.000000,4.000000,4.000000,83.333336,,,,,,,,,,,,,,,,,,,,,,,,,,,,
1703405212.102394,1703405212.102827,52.000000,0.000000,4228.205078,4183.846191,4280.256348,4249.871582,4167.563965,4107.436035,4199.487305,4147.179688,4132.307617,4137.179688,4600.769043,4459.487305,4382.051270,4493.717773,0.000000,4.000000,82.000000,,,,0.000000,4.000000,4.000000,4.000000,4.000000,4.000000,4.000000,2.000000,4.000000,4.000000,4.000000,4.000000,4.000000,4.000000,4.000000,83.333336,,,,,,,,,,,,,,,,,13.000000,0.000000,0.696766,-0.092163,-0.708252,-0.066345,1.006471,-0.058601,-0.011720,-14.417900,-39.032742,63.294933
1703405212.110201,1703405212.110535,53.000000,0.000000,4241.666504,4189.615234,4284.230957,4248.077148,4173.974121,4106.025879,4198.333496,4141.153809,4121.153809,4132.563965,4608.974121,4460.512695,4381.666504,4499.615234,0.000000,4.000000,82.000000,,,,0.000000,4.000000,4.000000,4.000000,4.000000,4.000000,4.000000,2.000000,4.000000,4.000000,4.000000,4.000000,4.000000,4.000000,4.000000,83.333336,,,,,,,,,,,,,,,,,,,,,,,,,,,,
1703405212.118010,1703405212.118443,54.000000,0.000000,4254.358887,4202.948730,4298.205078,4246.410156,4187.436035,4115.128418,4202.436035,4155.256348,4133.461426,4140.384766,4631.282227,4476.153809,4396.153809,4514.230957,0.000000,4.000000,82.000000,,,,0.000000,4.000000,4.000000,4.000000,4.000000,4.000000,4.000000,2.000000,4.000000,4.000000,4.000000,4.000000,4.000000,4.000000,4.000000,83.333336,,,,,,,,,,,,,,,,,,,,,,,,,,,,
1703405212.125818,1703405212.126251,55.000000,0.000000,4248.589844,4198.717773,4292.692383,4248.205078,4186.410156,4121.666504,4199.487305,4159.102539,4140.256348,4145.256348,4623.717773,4470.769043,4397.436035,4516.153809,0.000000,4.000000,82.000000,,,,0.000000,4.000000,4.000000,4.000000,4.000000,4.000000,4.000000,2.000000,4.000000,4.000000,4.000000,4.000000,4.000000,4.000000,4.000000,83.333336,,,,,,,,,,,,,,,,,,,,,,,,,,,,
1703405212.133626,1703405212.134159,56.000000,0.000000,4231.922852,4183.461426,4275.512695,4247.820313,4179.102539,4123.077148,4197.692383,4149.871582,4135.897461,4139.487305,4605.000000,4449.615234,4379.615234,4498.589844,0.000000,4.000000,82.000000,,,,0.000000,4.000000,4.000000,4.000000,4.000000,4.000000,4.000000,2.000000,4.000000,4.000000,4.000000,4.000000,4.000000,4.000000,4.000000,83.333336,,,,,,,,,,,,,,,,,14.000000,0.000000,0.696761,-0.092163,-0.708252,-0.066406,0.987425,-0.048346,-0.026859,-14.242777,-38.812801,63.382107
1703405212.141434,1703405212.141967,57.000000,0.000000,4231.538574,4184.615234,4276.282227,4248.205078,4185.641113,4125.512695,4201.794922,4151.282227,4142.820313,4138.461426,4615.641113,4449.871582,4379.358887,4493.461426,0.000000,4.000000,82.000000,,,,0.000000,4.000000,4.000000,4.000000,4.000000,4.000000,4.000000,2.000000,4.000000,4.000000,4.000000,4.000000,4.000000,4.000000,4.000000,83.333336,,,,,,,,,,,,,,,,,,,,,,,,,,,,
1703405212.149242,1703405212.149775,58.000000,0.000000,4237.179688,4189.230957,4287.307617,4249.615234,4186.538574,4128.077148,4200.256348,4152.436035,4145.641113,4142.820313,4618.974121,4463.077148,4386.410156,4501.922852,0.000000,4.000000,82.000000,,,,0.000000,4.000000,4.000000,4.000000,4.000000,4.000000,4.000000,2.000000,4.000000,4.000000,4.000000,4.000000,4.000000,4.000000,4.000000,83.333336,,,,,,,,,,,,,,,,,,,,,,,,,,,,
1703405212.157050,1703405212.157483,59.000000,0.000000,4229.487305,4180.769043,4284.358887,4245.000000,4170.769043,4123.717773,4192.307617,4138.589844,4125.641113,4133.205078,4594.358887,4456.538574,4371.794922,4496.794922,0.000000,4.000000,82.000000,,,,0.000000,4.000000,4.000000,4.000000,4.000000,4.000000,4.000000,2.000000,4.000000,4.000000,4.000000,4.000000,4.000000,4.000000,4.000000,83.333336,,,,,,,,,,,,,,,,,,,,,,,,,,,,
1703405212.164858,1703405212.165291,60.000000,0.000000,4229.871582,4185.512695,4283.846191,4244.230957,4174.743652,4124.102539,4194.615234,4137.948730,4119.615234,4130.769043,4600.384766,4452.179688,4371.282227,4495.512695,0.000000,4.000000,82.000000,,,,0.000000,4.000000,4.000000,4.000000,4.000000,4.000000,4.000000,2.000000,4.000000,4.000000,4.000000,4.000000,4.000000,4.000000,4.000000,83.333336,,,,,,,,,,,,,,,,,15.000000,0.000000,0.696880,-0.092285,-0.708130,-0.066284,0.993774,-0.051276,-0.020022,-14.218499,-38.864857,63.293896
1703405212.172666,1703405212.172999,61.000000,0.000000,4244.230957,4201.153809,4294.615234,4254.871582,4191.794922,4129.487305,4202.436035,4157.307617,4137.563965,4147.692383,4632.563965,4468.077148,4393.461426,4513.717773,0.000000,4.000000,82.000000,,,,0.000000,4.000000,4.000000,4.000000,4.000000,4.000000,4.000000,2.000000,4.000000,4.000000,4.000000,4.000000,4.000000,4.000000,4.000000,83.333336,,,,,,,,,,,,,,,,,,,,,,,,,,,,
1703405212.180474,1703405212.180907,62.000000,0.000000,4249.358887,4202.436035,4298.717773,4261.153809,4182.948730,4124.102539,4200.128418,4168.205078,4147.179688,4157.563965,4640.512695,4481.666504,4401.025879,4528.461426,0.000000,4.000000,82.000000,,,,0.000000,4.000000,4.000000,4.000000,4.000000,4.000000,4.000000,2.000000,4.000000,4.000000,4.000000,4.000000,4.000000,4.000000,4.000000,83.333336,,,,,,,,,,,,,,,,,,,,,,,,,,,,
1703405212.188282,1703405212.188715,63.000000,0.000000,4245.128418,4196.410156,4297.692383,4255.641113,4169.358887,4119.102539,4195.512695,4160.256348,4142.563965,4155.128418,4630.000000,4480.769043,4396.922852,4528.461426,0.000000,4.000000,82.000000,,,,0.000000,4.000000,4.000000,4.000000,4.000000,4.000000,4.000000,2.000000,4.000000,4.000000,4.000000,4.000000,4.000000,4.000000,4.000000,83.333336,,,,,,,,,,,,,,,,,,,,,,,,,,,,
1703405212.196090,1703405212.196623,64.000000,0.000000,4253.717773,4202.179688,4305.384766,4260.512695,4184.487305,4127.051270,4198.846191,4156.922852,4143.846191,4152.179688,4627.563965,4484.743652,4401.025879,4532.692383,4752.000000,4.000000,82.000000,,,,0.000000,4.000000,4.000000,4.000000,4.000000,4.000000,4.000000,2.000000,4.000000,4.000000,4.000000,4.000000,4.000000,4.000000,4.000000,83.333336,,,,,,,,,,,,,,,,,16.000000,0.000000,0.696779,-0.092712,-0.708191,-0.066101,0.996704,-0.065926,-0.026859,-14.163316,-38.845036,63.231174
1703405212.203898,1703405212.204431,65.000000,0.000000,4252.051270,4197.307617,4301.666504,4255.256348,4183.333496,4128.333496,4200.000000,4154.358887,4140.384766,4142.436035,4616.538574,4479.230957,4391.282227,4528.205078,5385.000000,4.000000,82.000000,,,,0.000000,4.000000,4.000000,4.000000,4.000000,4.000000,4.000000,2.000000,4.000000,4.000000,4.000000,4.000000,4.000000,4.000000,4.000000,83.333336,,,,,,,,,,,,,,,,,,,,,,,,,,,,
1703405212.211706,1703405212.212338,66.000000,0.000000,4233.461426,4183.461426,4288.717773,4233.846191,4164.358887,4125.641113,4197.436035,4152.820313,4135.897461,4140.512695,4610.384766,4467.436035,4379.102539,4516.538574,5141.000000,4.000000,82.000000,,,,0.000000,4.000000,4.000000,4.000000,4.000000,4.000000,4.000000,2.000000,4.000000,4.000000,4.000000,4.000000,4.000000,4.000000,4.000000,83.333336,,,,,,,,,,,,,,,,,,,,,,,,,,,,
1703405212.219514,1703405212.220146,67.000000,0.000000,4233.717773,4188.717773,4291.282227,4238.846191,4176.922852,4135.384766,4200.128418,4162.436035,4148.589844,4157.179688,4624.871582,4475.897461,4394.615234,4522.692383,5347.000000,4.000000,82.000000,,,,0.000000,4.000000,4.000000,4.000000,4.000000,4.000000,4.000000,2.000000,4.000000,4.000000,4.000000,4.000000,4.000000,4.000000,4.000000,83.333336,,,,,,,,,,,,,,,,,,,,,,,,,,,,
1703405212.227322,1703405212.228054,68.000000,0.000000,4242.563965,4193.974121,4293.974121,4255.512695,4192.820313,4143.461426,4199.743652,4163.589844,4153.974121,4159.358887,4625.384766,4478.974121,4407.179688,4528.717773,5098.000000,4.000000,82.000000,,,,0.000000,4.000000,4.000000,4.000000,4.000000,4.000000,4.000000,2.000000,4.000000,4.000000,4.000000,4.000000,4.000000,4.000000,4.000000,83.333336,,,,,,,,,,,,,,,,,17.000000,0.000000,0.696600,-0.093079,-0.708313,-0.066162,0.980100,-0.051276,-0.023929,-14.146984,-38.927200,63.324722
1703405212.235130,1703405212.235862,69.000000,0.000000,4232.307617,4187.436035,4283.461426,4247.307617,4182.692383,4138.846191,4195.769043,4153.205078,4140.641113,4140.641113,4615.897461,4458.589844,4394.358887,4517.692383,4614.000000,4.000000,82.000000,,,,0.000000,4.000000,4.000000,4.000000,4.000000,4.000000,4.000000,2.000000,4.000000,4.000000,4.000000,4.000000,4.000000,4.000000,4.000000,83.333336,,,,,,,,,,,,,,,,,,,,,,,,,,,,
1703405212.242938,1703405212.243770,70.000000,0.000000,4227.948730,4193.077148,4280.000000,4243.846191,4179.487305,4133.974121,4193.205078,4142.820313,4130.897461,4131.922852,4612.820313,4447.692383,4380.384766,4512.692383,1621.000000,4.000000,82.000000,,,,0.000000,4.000000,4.000000,4.000000,4.000000,4.000000,4.000000,2.000000,4.000000,4.000000,4.000000,4.000000,4.000000,4.000000,4.000000,83.333336,,,,,,,,,,,,,,,,,,,,,,,,,,,,
1703405212.250746,1703405212.251678,71.000000,0.000000,4244.487305,4207.820313,4290.897461,4256.666504,4190.512695,4138.461426,4190.128418,4142.563965,4138.333496,4145.512695,4615.512695,4458.333496,4388.205078,4521.794922,5182.000000,4.000000,82.000000,,,,0.000000,4.000000,4.000000,4.000000,4.000000,4.000000,4.000000,2.000000,4.000000,4.000000,4.000000,4.000000,4.000000,4.000000,4.000000,83.333336,,,,,,,,,,,,,,,,,,,,,,,,,,,,
1703405212.258555,1703405212.259486,72.000000,0.000000,4237.307617,4195.384766,4286.282227,4243.205078,4178.333496,4136.922852,4191.410156,4145.769043,4138.077148,4150.256348,4612.692383,4452.692383,4389.230957,4512.563965,5045.000000,4.000000,82.000000,,,,0.000000,4.000000,4.000000,4.000000,4.000000,4.000000,4.000000,2.000000,4.000000,4.000000,4.000000,4.000000,4.000000,4.000000,4.000000,83.333336,,,,,,,,,,,,,,,,,18.000000,0.000000,0.696527,-0.093201,-0.708374,-0.066101,0.979612,-0.049322,-0.007325,-14.215619,-38.834480,63.192249
1703405212.266363,1703405212.267295,73.000000,0.000000,4219.615234,4178.846191,4269.230957,4232.179688,4163.333496,4128.846191,4193.846191,4153.205078,4133.205078,4141.153809,4607.051270,4442.179688,4375.384766,4499.102539,5125.000000,4.000000,82.000000,,,,0.000000,4.000000,4.000000,4.000000,4.000000,4.000000,4.000000,2.000000,4.000000,4.000000,4.000000,4.000000,4.000000,4.000000,4.000000,83.333336,1.000000,75.000000,4.000000,4.000000,4.000000,4.000000,4.000000,3.000000,2.000000,4.000000,4.000000,4.000000,4.000000,4.000000,4.000000,4.000000,,,,,,,,,,,,
1703405212.274171,1703405212.275003,74.000000,0.000000,4231.666504,4192.820313,4276.153809,4250.256348,4177.563965,4133.589844,4195.128418,4162.051270,4144.615234,4149.358887,4613.589844,4462.948730,4380.384766,4517.820313,5948.000000,4.000000,82.000000,,,,0.000000,4.000000,4.000000,4.000000,4.000000,4.000000,4.000000,2.000000,4.000000,4.000000,4.000000,4.000000,4.000000,4.000000,4.000000,83.333336,,,,,,,,,,,,,,,,,,,,,,,,,,,,
1703405212.281979,1703405212.282811,75.000000,0.000000,4244.102539,4207.436035,4294.102539,4260.128418,4190.384766,4149.102539,4199.230957,4160.128418,4149.743652,4162.436035,4623.717773,4482.563965,4397.820313,4533.077148,6197.000000,4.000000,82.000000,,,,0.000000,4.000000,4.000000,4.000000,4.000000,4.000000,4.000000,2.000000,4.000000,4.000000,4.000000,4.000000,4.000000,4.000000,4.000000,83.333336,,,,,,,,,,,,,,,,,,,,,,,,,,,,
1703405212.289787,1703405212.290519,76.000000,0.000000,4235.512695,4201.153809,4290.641113,4252.179688,4185.897461,4153.077148,4198.717773,4153.077148,4135.384766,4147.179688,4619.230957,4470.000000,4393.077148,4525.128418,6706.000000,4.000000,82.000000,,,,0.000000,4.000000,4.000000,4.000000,4.000000,4.000000,4.000000,2.000000,4.000000,4.000000,4.000000,4.000000,4.000000,4.000000,4.000000,83.333336,,,,,,,,,,,,,,,,,19.000000,0.000000,0.696515,-0.093384,-0.708374,-0.065979,0.999145,-0.053717,-0.017092,-14.227391,-38.834366,62.956360
1703405212.297595,1703405212.298327,77.000000,0.000000,4231.153809,4194.615234,4281.794922,4240.000000,4181.538574,4148.333496,4195.128418,4151.538574,4130.769043,4128.077148,4610.641113,4458.589844,4379.487305,4528.461426,6603.000000,4.000000,82.000000,,,,0.000000,4.000000,4.000000,4.000000,4.000000,4.000000,4.000000,2.000000,4.000000,4.000000,4.000000,4.000000,4.000000,4.000000,4.000000,83.333336,,,,,,,,,,,,,,,,,,,,,,,,,,,,
1703405212.305403,1703405212.306035,78.000000,0.000000,4240.897461,4198.974121,4288.205078,4236.922852,4177.563965,4151.922852,4195.384766,4157.692383,4150.512695,4142.179688,4614.487305,4469.230957,4387.436035,4540.128418,5948.000000,4.000000,82.000000,,,,0.000000,4.000000,4.000000,4.000000,4.000000,4.000000,4.000000,2.000000,4.000000,4.000000,4.000000,4.000000,4.000000,4.000000,4.000000,83.333336,,,,,,,,,,,,,,,,,,,,,,,,,,,,
1703405212.313211,1703405212.313843,79.000000,0.000000,4250.641113,4203.846191,4291.666504,4248.077148,4175.000000,4152.179688,4195.384766,4159.743652,4159.615234,4168.846191,4625.384766,4474.102539,4402.436035,4540.897461,6197.000000,4.000000,82.000000,,,,0.000000,4.000000,4.000000,4.000000,4.000000,4.000000,4.000000,2.000000,4.000000,4.000000,4.000000,4.000000,4.000000,4.000000,4.000000,83.333336,,,,,,,,,,,,,,,,,,,,,,,,,,,,
1703405212.321019,1703405212.321551,80.000000,0.000000,4249.871582,4198.589844,4285.000000,4252.307617,4175.128418,4142.307617,4188.077148,4152.820313,4145.641113,4169.102539,4628.205078,4462.436035,4400.128418,4536.153809,6706.000000,4.000000,82.000000,,,,0.000000,4.000000,4.000000,4.000000,4.000000,4.000000,4.000000,2.000000,4.000000,4.000000,4.000000,4.000000,4.000000,4.000000,4.000000,83.333336,,,,,,,,,,,,,,,,,20.000000,0.000000,0.696498,-0.093506,-0.708374,-0.065979,0.992797,-0.052252,-0.019045,-14.154652,-38.800930,62.827389
1703405212.328827,1703405212.329359,81.000000,0.000000,4235.128418,4187.051270,4281.922852,4240.512695,4169.615234,4140.769043,4183.717773,4150.512695,4136.282227,4155.000000,4618.589844,4453.461426,4388.333496,4526.153809,6603.000000,4.000000,82.000000,,,,0.000000,4.000000,4.000000,4.000000,4.000000,4.000000,4.000000,2.000000,4.000000,4.000000,4.000000,4.000000,4.000000,4.000000,4.000000,83.333336,,,,,,,,,,,,,,,,,,,,,,,,,,,,
1703405212.336635,1703405212.337067,82.000000,0.000000,4228.077148,4189.102539,4286.153809,4242.436035,4174.102539,4152.948730,4191.922852,4160.512695,4141.410156,4151.410156,4616.282227,4459.743652,4390.128418,4521.025879,5948.000000,4.000000,82.000000,,,,0.000000,4.000000,4.000000,4.000000,4.000000,4.000000,4.000000,2.000000,4.000000,4.000000,4.000000,4.000000,4.000000,4.000000,4.000000,83.333336,,,,,,,,,,,,,,,,,,,,,,,,,,,,
1703405212.344443,1703405212.344875,83.000000,0.000000,4237.179688,4199.743652,4288.077148,4249.358887,4185.641113,4159.615234,4198.589844,4165.128418,4142.051270,4138.077148,4616.282227,4462.563965,4392.051270,4526.666504,6197.000000,4.000000,82.000000,,,,0.000000,4.000000,4.000000,4.000000,4.000000,4.000000,4.000000,2.000000,4.000000,4.000000,4.000000,4.000000,4.000000,4.000000,4.000000,83.333336,,,,,,,,,,,,,,,,,,,,,,,,,,,,
1703405212.352251,1703405212.352583,84.000000,0.000000,4233.974121,4197.179688,4282.820313,4238.717773,4176.025879,4153.717773,4190.897461,4153.974121,4133.461426,4111.666504,4600.128418,4449.487305,4373.461426,4521.794922,6706.000000,4.000000,82.000000,,,,0.000000,4.000000,4.000000,4.000000,4.000000,4.000000,4.000000,2.000000,4.000000,4.000000,4.000000,4.000000,4.000000,4.000000,4.000000,83.333336,,,,,,,,,,,,,,,,,21.000000,0.000000,0.696428,-0.093567,-0.708435,-0.065979,0.995239,-0.056159,-0.020999,-14.089187,-38.854168,62.744652
1703405212.360059,1703405212.360391,85.000000,0.000000,4226.794922,4193.589844,4282.692383,4239.358887,4162.948730,4150.384766,4187.948730,4156.282227,4136.922852,4115.000000,4593.589844,4451.410156,4366.666504,4516.153809,6603.000000,4.000000,82.000000,,,,0.000000,4.000000,4.000000,4.000000,4.000000,4.000000,4.000000,2.000000,4.000000,4.000000,4.000000,4.000000,4.000000,4.000000,4.000000,83.333336,,,,,,,,,,,,,,,,,,,,,,,,,,,,
1703405212.367867,1703405212.368099,86.000000,0.000000,4241.025879,4203.717773,4294.615234,4255.128418,4171.282227,4155.769043,4196.794922,4172.307617,4147.820313,4146.282227,4615.000000,4474.871582,4387.179688,4534.358887,5948.000000,4.000000,82.000000,,,,0.000000,4.000000,4.000000,4.000000,4.000000,4.000000,4.000000,2.000000,4.000000,4.000000,4.000000,4.000000,4.000000,4.000000,4.000000,83.333336,,,,,,,,,,,,,,,,,,,,,,,,,,,,
1703405212.375675,1703405212.376007,87.000000,0.000000,4246.794922,4203.589844,4297.179688,4249.487305,4172.563965,4154.871582,4195.384766,4169.102539,4145.641113,4158.205078,4623.205078,4480.000000,4393.333496,4545.128418,6197.000000,4.000000,82.000000,,,,0.000000,4.000000,4.000000,4.000000,4.000000,4.000000,4.000000,2.000000,4.000000,4.000000,4.000000,4.000000,4.000000,4.000000,4.000000,83.333336,,,,,,,,,,,,,,,,,,,,,,,,,,,,
1703405212.383483,1703405212.383815,88.000000,0.000000,4231.666504,4191.282227,4285.769043,4229.743652,4164.615234,4152.051270,4189.487305,4158.846191,4140.256348,4156.538574,4612.051270,4468.333496,4384.230957,4535.256348,6706.000000,4.000000,82.000000,,,,0.000000,4.000000,4.000000,4.000000,4.000000,4.000000,4.000000,2.000000,4.000000,4.000000,4.000000,4.000000,4.000000,4.000000,4.000000,83.333336,,,,,,,,,,,,,,,,,22.000000,0.000000,0.696442,-0.093506,-0.708435,-0.065918,0.993285,-0.059089,-0.025394,-14.080268,-38.818752,62.836853
1703405212.391292,1703405212.391723,89.000000,0.000000,4236.025879,4193.974121,4286.666504,4234.102539,4176.410156,4162.820313,4193.205078,4172.179688,4154.230957,4174.358887,4633.461426,4475.000000,4398.461426,4538.461426,6603.000000,4.000000,82.000000,,,,0.000000,4.000000,4.000000,4.000000,4.000000,4.000000,4.000000,2.000000,4.000000,4.000000,4.000000,4.000000,4.000000,4.000000,4.000000,83.333336,,,,,,,,,,,,,,,,,,,,,,,,,,,,
1703405212.399099,1703405212.399531,90.000000,0.000000,4252.820313,4208.333496,4299.230957,4255.897461,4191.922852,4175.000000,4197.563965,4188.461426,4173.589844,4190.256348,4664.230957,4490.769043,4417.179688,4552.820313,5948.000000,4.000000,82.000000,,,,0.000000,4.000000,4.000000,4.000000,4.000000,4.000000,4.000000,2.000000,4.000000,4.000000,4.000000,4.000000,4.000000,4.000000,4.000000,83.333336,,,,,,,,,,,,,,,,,,,,,,,,,,,,
1703405212.406907,1703405212.407439,91.000000,0.000000,4244.615234,4205.256348,4292.692383,4251.410156,4183.333496,4166.794922,4194.102539,4180.512695,4170.256348,4171.794922,4645.128418,4478.974121,4404.871582,4543.205078,6197.000000,4.000000,82.000000,,,,0.000000,4.000000,4.000000,4.000000,4.000000,4.000000,4.000000,2.000000,4.000000,4.000000,4.000000,4.000000,4.000000,4.000000,4.000000,83.333336,,,,,,,,,,,,,,,,,,,,,,,,,,,,
1703405212.414716,1703405212.415247,92.000000,0.000000,4222.179688,4187.692383,4270.000000,4231.025879,4167.051270,4156.025879,4190.000000,4160.897461,4148.717773,4137.179688,4602.692383,4446.410156,4373.333496,4514.230957,6706.000000,4.000000,82.000000,,,,0.000000,4.000000,4.000000,4.000000,4.000000,4.000000,4.000000,2.000000,4.000000,4.000000,4.000000,4.000000,4.000000,4.000000,4.000000,83.333336,,,,,,,,,,,,,,,,,23.000000,0.000000,0.696417,-0.093689,-0.708435,-0.065918,0.984495,-0.061043,-0.029789,-14.072241,-38.820210,62.886501
1703405212.422524,1703405212.423154,93.000000,0.000000,4215.128418,4184.102539,4261.666504,4232.820313,4172.820313,4163.717773,4191.025879,4153.974121,4136.794922,4127.563965,4590.641113,4432.051270,4358.589844,4502.820313,6603.000000,4.000000,82.000000,,,,0.000000,4.000000,4.000000,4.000000,4.000000,4.000000,4.000000,2.000000,4.000000,4.000000,4.000000,4.000000,4.000000,4.000000,4.000000,83.333336,,,,,,,,,,,,,,,,,,,,,,,,,,,,
1703405212.430332,1703405212.430962,94.000000,0.000000,4213.589844,4183.589844,4265.512695,4228.461426,4173.846191,4163.717773,4191.025879,4154.102539,4138.205078,4133.205078,4590.769043,4435.256348,4353.461426,4500.641113,5948.000000,4.000000,82.000000,,,,0.000000,4.000000,4.000000,4.000000,4.000000,4.000000,4.000000,2.000000,4.000000,4.000000,4.000000,4.000000,4.000000,4.000000,4.000000,83.333336,,,,,,,,,,,,,,,,,,,,,,,,,,,,
1703405212.438140,1703405212.438870,95.000000,0.000000,4211.410156,4177.692383,4267.436035,4221.666504,4163.333496,4156.922852,4189.615234,4155.384766,4138.589844,4137.436035,4591.282227,4442.436035,4354.102539,4498.461426,6197.000000,4.000000,82.000000,,,,0.000000,4.000000,4.000000,4.000000,4.000000,4.000000,4.000000,2.000000,4.000000,4.000000,4.000000,4.000000,4.000000,4.000000,4.000000,83.333336,,,,,,,,,,,,,,,,,,,,,,,,,,,,
1703405212.445948,1703405212.446678,96.000000,0.000000,4214.871582,4185.000000,4274.615234,4241.410156,4173.077148,4165.000000,4190.641113,4162.051270,4135.897461,4145.128418,4607.051270,4452.436035,4371.025879,4510.384766,6706.000000,4.000000,82.000000,,,,0.000000,4.000000,4.000000,4.000000,4.000000,4.000000,4.000000,2.000000,4.000000,4.000000,4.000000,4.000000,4.000000,4.000000,4.000000,83.333336,,,,,,,,,,,,,,,,,24.000000,0.000000,0.696325,-0.093872,-0.708496,-0.065979,0.987425,-0.059089,-0.031742,-14.165017,-38.971523,62.814518
1703405212.453756,1703405212.454586,97.000000,0.000000,4219.743652,4201.282227,4286.922852,4255.000000,4190.384766,4175.128418,4192.563965,4170.128418,4144.871582,4153.077148,4627.436035,4464.102539,4386.922852,4527.820313,6603.000000,4.000000,82.000000,,,,0.000000,4.000000,4.000000,4.000000,4.000000,4.000000,4.000000,2.000000,4.000000,4.000000,4.000000,4.000000,4.000000,4.000000,4.000000,83.333336,,,,,,,,,,,,,,,,,,,,,,,,,,,,
1703405212.461564,1703405212.462394,98.000000,0.000000,4220.000000,4198.333496,4286.794922,4244.871582,4181.538574,4171.794922,4191.538574,4175.384766,4160.897461,4156.025879,4634.487305,4465.897461,4386.153809,4527.179688,5948.000000,4.000000,82.000000,,,,0.000000,4.000000,4.000000,4.000000,4.000000,4.000000,4.000000,2.000000,4.000000,4.000000,4.000000,4.000000,4.000000,4.000000,4.000000,83.333336,,,,,,,,,,,,,,,,,,,,,,,,,,,,
1703405212.469372,1703405212.470102,99.000000,0.000000,4216.794922,4185.769043,4274.871582,4243.333496,4165.128418,4167.051270,4189.102539,4171.538574,4158.589844,4150.769043,4626.282227,4455.769043,4380.769043,4520.384766,6197.000000,4.000000,82.000000,,,,0.000000,4.000000,4.000000,4.000000,4.000000,4.000000,4.000000,2.000000,4.000000,4.000000,4.000000,4.000000,4.000000,4.000000,4.000000,83.333336,,,,,,,,,,,,,,,,,,,,,,,,,,,,
1703405212.477180,1703405212.477910,100.000000,0.000000,4221.282227,4191.282227,4276.025879,4250.512695,4176.794922,4172.179688,4189.615234,4161.538574,4150.641113,4145.769043,4619.615234,4457.692383,4385.769043,4530.256348,6706.000000,4.000000,82.000000,,,,0.000000,4.000000,4.000000,4.000000,4.000000,4.000000,4.000000,2.000000,4.000000,4.000000,4.000000,4.000000,4.000000,4.000000,4.000000,83.333336,,,,,,,,,,,,,,,,,25.000000,0.000000,0.696373,-0.093933,-0.708435,-0.066040,0.990355,-0.058113,-0.024417,-14.198515,-38.941036,62.999733
1703405212.484988,1703405212.485618,101.000000,0.000000,4213.333496,4189.871582,4274.102539,4237.820313,4181.666504,4171.794922,4190.897461,4153.461426,4149.743652,4138.333496,4608.589844,4453.974121,4372.948730,4518.974121,6603.000000,4.000000,82.000000,,,,0.000000,4.000000,4.000000,4.000000,4.000000,4.000000,4.000000,2.000000,4.000000,4.000000,4.000000,4.000000,4.000000,4.000000,4.000000,83.333336,,,,,,,,,,,,,,,,,,,,,,,,,,,,
1703405212.492796,1703405212.493426,102.000000,0.000000,4195.384766,4178.461426,4261.922852,4229.487305,4166.922852,4167.692383,4190.897461,4152.692383,4145.384766,4132.179688,4593.846191,4437.051270,4351.410156,4493.077148,5948.000000,4.000000,82.000000,,,,0.000000,4.000000,4.000000,4.000000,4.000000,4.000000,4.000000,2.000000,4.000000,4.000000,4.000000,4.000000,4.000000,4.000000,4.000000,83.333336,,,,,,,,,,,,,,,,,,,,,,,,,,,,
1703405212.500604,1703405212.501134,103.000000,0.000000,4206.282227,4184.743652,4268.333496,4241.410156,4174.102539,4168.589844,4185.897461,4154.743652,4139.102539,4136.410156,4599.871582,4442.307617,4363.846191,4506.922852,6197.000000,4.000000,82.000000,,,,0.000000,4.000000,4.000000,4.000000,4.000000,4.000000,4.000000,2.000000,4.000000,4.000000,4.000000,4.000000,4.000000,4.000000,4.000000,83.333336,,,,,,,,,,,,,,,,,,,,,,,,,,,,
1703405212.508412,1703405212.508942,104.000000,0.000000,4221.538574,4194.871582,4280.128418,4252.820313,4190.128418,4171.410156,4184.358887,4153.333496,4139.871582,4143.333496,4619.102539,4460.384766,4382.692383,4529.102539,6706.000000,4.000000,82.000000,,,,0.000000,4.000000,4.000000,4.000000,4.000000,4.000000,4.000000,2.000000,4.000000,4.000000,4.000000,4.000000,4.000000,4.000000,4.000000,83.333336,,,,,,,,,,,,,,,,,26.000000,0.000000,0.696376,-0.093994,-0.708435,-0.065918,0.992309,-0.058113,-0.027347,-14.211997,-39.013599,63.116425
1703405212.516220,1703405212.516650,105.000000,0.000000,4203.205078,4185.256348,4270.897461,4245.384766,4178.205078,4168.333496,4187.948730,4152.051270,4139.615234,4141.025879,4615.000000,4451.794922,4371.794922,4513.717773,6603.000000,4.000000,82.000000,,,,0.000000,4.000000,4.000000,4.000000,4.000000,4.000000,4.000000,2.000000,4.000000,4.000000,4.000000,4.000000,4.000000,4.000000,4.000000,83.333336,,,,,,,,,,,,,,,,,,,,,,,,,,,,
1703405212.524028,1703405212.524458,106.000000,0.000000,4193.205078,4178.589844,4271.025879,4233.974121,4161.922852,4165.641113,4189.102539,4151.666504,4134.615234,4138.461426,4605.769043,4444.871582,4364.102539,4502.820313,5948.000000,4.000000,82.000000,,,,0.000000,4.000000,4.000000,4.000000,4.000000,4.000000,4.000000,2.000000,4.000000,4.000000,4.000000,4.000000,4.000000,4.000000,4.000000,83.333336,,,,,,,,,,,,,,,,,,,,,,,,,,,,
1703405212.531836,1703405212.532166,107.000000,0.000000,4216.922852,4189.102539,4289.358887,4241.538574,4170.897461,4169.358887,4188.717773,4154.871582,4138.077148,4148.333496,4620.000000,4465.512695,4378.717773,4523.846191,6197.000000,4.000000,82.000000,,,,0.000000,4.000000,4.000000,4.000000,4.000000,4.000000,4.000000,2.000000,4.000000,4.000000,4.000000,4.000000,4.000000,4.000000,4.000000,83.333336,,,,,,,,,,,,,,,,,,,,,,,,,,,,
1703405212.539644,1703405212.539974,108.000000,0.000000,4223.846191,4191.538574,4291.538574,4253.205078,4177.948730,4170.384766,4186.666504,4158.205078,4142.820313,4151.922852,4626.282227,4473.974121,4377.948730,4532.563965,6706.000000,4.000000,82.000000,,,,0.000000,4.000000,4.000000,4.000000,4.000000,4.000000,4.000000,2.000000,4.000000,4.000000,4.000000,4.000000,4.000000,4.000000,4.000000,83.333336,,,,,,,,,,,,,,,,,27.000000,0.000000,0.696272,-0.093933,-0.708557,-0.065796,0.989867,-0.060066,-0.021975,-14.190798,-39.078907,63.221451
1703405212.547452,1703405212.547682,109.000000,0.000000,4201.666504,4179.871582,4278.461426,4246.282227,4168.461426,4165.512695,4185.641113,4149.487305,4133.974121,4142.051270,4613.461426,4455.256348,4366.410156,4517.307617,6603.000000,4.000000,82.000000,,,,0.000000,4.000000,4.000000,4.000000,4.000000,4.000000,4.000000,2.000000,4.000000,4.000000,4.000000,4.000000,4.000000,4.000000,4.000000,83.333336,,,,,,,,,,,,,,,,,,,,,,,,,,,,
1703405212.555261,1703405212.555590,110.000000,0.000000,4200.000000,4177.563965,4278.974121,4243.846191,4168.461426,4167.179688,4185.641113,4140.897461,4128.205078,4141.666504,4611.538574,4447.563965,4384.230957,4518.077148,5948.000000,4.000000,82.000000,,,,0.000000,4.000000,4.000000,4.000000,4.000000,4.000000,4.000000,2.000000,4.000000,4.000000,4.000000,4.000000,4.000000,4.000000,4.000000,83.333336,,,,,,,,,,,,,,,,,,,,,,,,,,,,
1703405212.563069,1703405212.563398,111.000000,0.000000,4228.205078,4193.205078,4292.307617,4255.128418,4184.487305,4179.102539,4186.410156,4154.615234,4145.128418,4160.000000,4631.794922,4470.769043,4419.615234,4548.205078,6197.000000,4.000000,82.000000,,,,0.000000,4.000000,4.000000,4.000000,4.000000,4.000000,4.000000,2.000000,4.000000,4.000000,4.000000,4.000000,4.000000,4.000000,4.000000,83.333336,,,,,,,,,,,,,,,,,,,,,,,,,,,,
1703405212.570876,1703405212.571306,112.000000,0.000000,4246.666504,4198.461426,4301.153809,4253.846191,4192.436035,4182.051270,4189.615234,4169.487305,4162.948730,4172.692383,4654.487305,4488.205078,4434.102539,4569.102539,6706.000000,4.000000,82.000000,,,,0.000000,4.000000,4.000000,4.000000,4.000000,4.000000,4.000000,2.000000,4.000000,4.000000,4.000000,4.000000,4.000000,4.000000,4.000000,83.333336,,,,,,,,,,,,,,,,,28.000000,0.000000,0.696186,-0.093689,-0.708679,-0.065735,0.989867,-0.066414,-0.017580,-14.071717,-38.971016,63.182636
1703405212.578685,1703405212.579114,113.000000,0.000000,4246.922852,4193.461426,4298.589844,4253.717773,4184.615234,4171.025879,4187.307617,4160.384766,4158.205078,4168.974121,4659.871582,4478.589844,4436.025879,4565.384766,6603.000000,4.000000,82.000000,,,,0.000000,4.000000,4.000000,4.000000,4.000000,4.000000,4.000000,2.000000,4.000000,4.000000,4.000000,4.000000,4.000000,4.000000,4.000000,83.333336,,,,,,,,,,,,,,,,,,,,,,,,,,,,
1703405212.586493,1703405212.587022,114.000000,0.000000,4244.487305,4196.410156,4296.025879,4262.179688,4180.000000,4167.948730,4183.205078,4151.153809,4146.794922,4169.230957,4650.384766,4476.025879,4441.282227,4565.384766,5948.000000,4.000000,82.000000,,,,0.000000,4.000000,4.000000,4.000000,4.000000,4.000000,4.000000,2.000000,4.000000,4.000000,4.000000,4.000000,4.000000,4.000000,4.000000,83.333336,,,,,,,,,,,,,,,,,,,,,,,,,,,,
1703405212.594301,1703405212.594830,115.000000,0.000000,4233.717773,4190.769043,4294.358887,4257.948730,4182.948730,4175.384766,4185.512695,4158.717773,4143.974121,4169.615234,4646.666504,4481.666504,4437.563965,4565.000000,6197.000000,4.000000,82.000000,,,,0.000000,4.000000,4.000000,4.000000,4.000000,4.000000,4.000000,2.000000,4.000000,4.000000,4.000000,4.000000,4.000000,4.000000,4.000000,83.333336,,,,,,,,,,,,,,,,,,,,,,,,,,,,
1703405212.602109,1703405212.602738,116.000000,0.000000,4214.871582,4170.897461,4280.897461,4242.436035,4175.769043,4170.897461,4186.410156,4153.333496,4139.743652,4157.436035,4643.846191,4460.128418,4420.256348,4540.897461,6706.000000,4.000000,82.000000,,,,0.000000,4.000000,4.000000,4.000000,4.000000,4.000000,4.000000,2.000000,4.000000,4.000000,4.000000,4.000000,4.000000,4.000000,4.000000,83.333336,,,,,,,,,,,,,,,,,29.000000,0.000000,0.696104,-0.093750,-0.708740,-0.065857,0.989379,-0.061043,-0.032719,-14.097879,-39.040581,63.114372
1703405212.609917,1703405212.610546,117.000000,0.000000,4207.820313,4168.589844,4271.922852,4233.205078,4173.333496,4167.307617,4184.615234,4138.461426,4133.717773,4150.000000,4625.897461,4440.641113,4409.230957,4524.487305,6603.000000,4.000000,82.000000,,,,0.000000,4.000000,4.000000,4.000000,4.000000,4.000000,4.000000,2.000000,4.000000,4.000000,4.000000,4.000000,4.000000,4.000000,4.000000,83.333336,,,,,,,,,,,,,,,,,,,,,,,,,,,,
1703405212.617725,1703405212.618454,118.000000,0.000000,4216.153809,4182.051270,4280.897461,4238.717773,4185.128418,4176.538574,4185.769043,4143.846191,4138.846191,4160.641113,4616.282227,4454.743652,4411.282227,4534.230957,5948.000000,4.000000,82.000000,,,,0.000000,4.000000,4.000000,4.000000,4.000000,4.000000,4.000000,2.000000,4.000000,4.000000,4.000000,4.000000,4.000000,4.000000,4.000000,83.333336,,,,,,,,,,,,,,,,,,,,,,,,,,,,
1703405212.625533,1703405212.626262,119.000000,0.000000,4226.153809,4186.025879,4288.589844,4248.974121,4185.897461,4176.538574,4186.922852,4157.179688,4155.384766,4169.487305,4633.974121,4470.256348,4418.077148,4545.641113,6197.000000,4.000000,82.000000,,,,0.000000,4.000000,4.000000,4.000000,4.000000,4.000000,4.000000,2.000000,4.000000,4.000000,4.000000,4.000000,4.000000,4.000000,4.000000,83.333336,,,,,,,,,,,,,,,,,,,,,,,,,,,,
1703405212.633341,1703405212.634169,120.000000,0.000000,4227.692383,4182.563965,4286.538574,4248.717773,4176.538574,4169.743652,4186.538574,4156.153809,4156.666504,4170.641113,4651.410156,4469.487305,4425.897461,4550.897461,6706.000000,4.000000,82.000000,,,,0.000000,4.000000,4.000000,4.000000,4.000000,4.000000,4.000000,2.000000,4.000000,4.000000,4.000000,4.000000,4.000000,4.000000,4.000000,83.333336,,,,,,,,,,,,,,,,,30.000000,0.000000,0.696161,-0.093750,-0.708679,-0.065918,0.992309,-0.059578,-0.023440,-13.971425,-39.003189,63.069603
1703405212.641149,1703405212.641977,121.000000,0.000000,4224.487305,4182.563965,4287.948730,4245.512695,4179.487305,4169.487305,4186.153809,4148.846191,4138.461426,4165.256348,4643.461426,4466.153809,4423.205078,4552.692383,6603.000000,4.000000,82.000000,,,,0.000000,4.000000,4.000000,4.000000,4.000000,4.000000,4.000000,2.000000,4.000000,4.000000,4.000000,4.000000,4.000000,4.000000,4.000000,83.333336,,,,,,,,,,,,,,,,,,,,,,,,,,,,
1703405212.648957,1703405212.649685,122.000000,0.000000,4228.077148,4193.717773,4296.922852,4259.230957,4187.051270,4170.769043,4186.282227,4150.641113,4137.692383,4156.282227,4633.461426,4470.128418,4416.025879,4551.922852,5948.000000,4.000000,82.000000,,,,0.000000,4.000000,4.000000,4.000000,4.000000,4.000000,4.000000,2.000000,4.000000,4.000000,4.000000,4.000000,4.000000,4.000000,4.000000,83.333336,,,,,,,,,,,,,,,,,,,,,,,,,,,,
1703405212.656765,1703405212.657493,123.000000,0.000000,4238.205078,4202.307617,4304.358887,4266.538574,4186.282227,4170.256348,4185.512695,4156.282227,4156.282227,4160.769043,4640.769043,4477.307617,4417.948730,4556.538574,6197.000000,4.000000,82.000000,,,,0.000000,4.000000,4.000000,4.000000,4.000000,4.000000,4.000000,2.000000,4.000000,4.000000,4.000000,4.000000,4.000000,4.000000,4.000000,83.333336,,,,,,,,,,,,,,,,,,,,,,,,,,,,
1703405212.664573,1703405212.665201,124.000000,0.000000,4234.358887,4189.487305,4303.461426,4250.897461,4179.743652,4170.384766,4184.230957,4153.461426,4154.102539,4164.871582,4634.487305,4471.794922,4414.358887,4555.128418,6706.000000,4.000000,82.000000,,,,0.000000,4.000000,4.000000,4.000000,4.000000,4.000000,4.000000,2.000000,4.000000,4.000000,4.000000,4.000000,4.000000,4.000000,4.000000,83.333336,,,,,,,,,,,,,,,,,31.000000,0.000000,0.696098,-0.093750,-0.708740,-0.065918,1.000610,-0.059578,-0.028324,-14.074282,-39.052872,62.895977
1703405212.672381,1703405212.673009,125.000000,0.000000,4220.641113,4175.000000,4296.025879,4244.743652,4171.282227,4168.333496,4184.230957,4145.128418,4138.461426,4153.205078,4615.512695,4458.974121,4402.179688,4541.666504,6603.000000,4.000000,82.000000,,,,0.000000,4.000000,4.000000,4.000000,4.000000,4.000000,4.000000,2.000000,4.000000,4.000000,4.000000,4.000000,4.000000,4.000000,4.000000,83.333336,,,,,,,,,,,,,,,,,,,,,,,,,,,,
1703405212.680189,1703405212.680718,126.000000,0.000000,4222.179688,4181.025879,4294.487305,4255.897461,4175.128418,4170.384766,4184.743652,4146.282227,4142.436035,4156.922852,4626.538574,4463.589844,4405.000000,4541.153809,5948.000000,4.000000,82.000000,,,,0.000000,4.000000,4.000000,4.000000,4.000000,4.000000,4.000000,2.000000,4.000000,4.000000,4.000000,4.000000,4.000000,4.000000,4.000000,83.333336,,,,,,,,,,,,,,,,,,,,,,,,,,,,
1703405212.687997,1703405212.688626,127.000000,0.000000,4232.051270,4191.153809,4299.230957,4259.743652,4188.205078,4176.153809,4185.384766,4155.384766,4149.230957,4173.077148,4645.256348,4474.871582,4420.512695,4554.102539,82.000000,4.000000,82.000000,,,,0.000000,4.000000,4.000000,4.000000,4.000000,4.000000,4.000000,2.000000,4.000000,4.000000,4.000000,4.000000,4.000000,4.000000,4.000000,83.333336,,,,,,,,,,,,,,,,,,,,,,,,,,,,
1703405212.695805,1703405212.696434,0.000000,0.000000,4227.692383,4184.615234,4296.282227,4249.743652,4185.512695,4172.051270,4185.128418,4151.538574,4137.179688,4160.897461,4629.358887,4464.358887,4414.358887,4550.384766,4766.000000,4.000000,82.000000,,,,0.000000,4.000000,4.000000,4.000000,4.000000,4.000000,4.000000,2.000000,4.000000,4.000000,4.000000,4.000000,4.000000,4.000000,4.000000,83.333336,,,,,,,,,,,,,,,,,0.000000,0.000000,0.696158,-0.093811,-0.708679,-0.065857,1.006471,-0.057624,-0.023929,-14.166854,-39.180916,62.873047
1703405212.703613,1703405212.704342,1.000000,0.000000,4223.974121,4180.897461,4294.102539,4246.025879,4176.282227,4169.230957,4185.512695,4147.307617,4133.589844,4145.000000,4617.948730,4458.846191,4403.461426,4544.230957,5389.000000,4.000000,82.000000,,,,0.000000,4.000000,4.000000,4.000000,4.000000,4.000000,4.000000,2.000000,4.000000,4.000000,4.000000,4.000000,4.000000,4.000000,4.000000,83.333336,,,,,,,,,,,,,,,,,,,,,,,,,,,,
1703405212.711421,1703405212.712150,2.000000,0.000000,4235.512695,4189.615234,4302.436035,4255.512695,4178.717773,4174.743652,4187.307617,4155.897461,4145.512695,4156.666504,4635.769043,4476.282227,4414.743652,4556.794922,5151.000000,4.000000,82.000000,,,,0.000000,4.000000,4.000000,4.000000,4.000000,4.000000,4.000000,2.000000,4.000000,4.000000,4.000000,4.000000,4.000000,4.000000,4.000000,83.333336,,,,,,,,,,,,,,,,,,,,,,,,,,,,
1703405212.719230,1703405212.719958,3.000000,0.000000,4225.769043,4179.487305,4294.102539,4248.974121,4170.769043,4170.897461,4187.692383,4149.743652,4138.461426,4157.820313,4634.615234,4470.128418,4410.256348,4545.897461,5352.000000,4.000000,82.000000,,,,0.000000,4.000000,4.000000,4.000000,4.000000,4.000000,4.000000,2.000000,4.000000,4.000000,4.000000,4.000000,4.000000,4.000000,4.000000,83.333336,,,,,,,,,,,,,,,,,,,,,,,,,,,,
1703405212.727038,1703405212.727666,4.000000,0.000000,4202.051270,4157.307617,4273.333496,4229.743652,4158.205078,4163.846191,4184.358887,4138.589844,4126.666504,4146.153809,4610.384766,4446.410156,4387.563965,4518.846191,5103.000000,4.000000,82.000000,,,,0.000000,4.000000,4.000000,4.000000,4.000000,4.000000,4.000000,2.000000,4.000000,4.000000,4.000000,4.000000,4.000000,4.000000,4.000000,83.333336,,,,,,,,,,,,,,,,,1.000000,0.000000,0.696102,-0.093811,-0.708740,-0.065796,0.986449,-0.053229,-0.027347,-14.033502,-39.212826,62.852406
1703405212.734846,1703405212.735474,5.000000,0.000000,4211.922852,4167.948730,4280.128418,4238.077148,4172.436035,4173.589844,4188.974121,4156.794922,4142.692383,4157.563965,4618.974121,4456.922852,4394.743652,4533.333496,4595.000000,4.000000,82.000000,,,,0.000000,4.000000,4.000000,4.000000,4.000000,4.000000,4.000000,2.000000,4.000000,4.000000,4.000000,4.000000,4.000000,4.000000,4.000000,83.333336,,,,,,,,,,,,,,,,,,,,,,,,,,,,
1703405212.742654,1703405212.743182,6.000000,0.000000,4232.692383,4188.589844,4301.153809,4257.179688,4185.641113,4180.128418,4197.179688,4178.205078,4159.615234,4173.205078,4650.641113,4481.282227,4419.871582,4558.974121,1629.000000,4.000000,82.000000,,,,0.000000,4.000000,4.000000,4.000000,4.000000,4.000000,4.000000,2.000000,4.000000,4.000000,4.000000,4.000000,4.000000,4.000000,4.000000,83.333336,,,,,,,,,,,,,,,,,,,,,,,,,,,,
1703405212.750462,1703405212.751090,7.000000,0.000000,4234.487305,4187.307617,4306.410156,4249.743652,4177.436035,4170.897461,4191.025879,4171.538574,4156.538574,4170.897461,4657.820313,4485.384766,4425.641113,4557.948730,5202.000000,4.000000,82.000000,,,,0.000000,4.000000,4.000000,4.000000,4.000000,4.000000,4.000000,2.000000,4.000000,4.000000,4.000000,4.000000,4.000000,4.000000,4.000000,83.333336,,,,,,,,,,,,,,,,,,,,,,,,,,,,
1703405212.758270,1703405212.758898,8.000000,0.000000,4234.230957,4191.025879,4308.333496,4246.025879,4176.922852,4166.666504,4187.948730,4159.358887,4154.230957,4170.897461,4653.717773,4483.205078,4428.974121,4562.820313,5073.000000,4.000000,82.000000,,,,0.000000,4.000000,4.000000,4.000000,4.000000,4.000000,4.000000,2.000000,4.000000,4.000000,4.000000,4.000000,4.000000,4.000000,4.000000,83.333336,,,,,,,,,,,,,,,,,2.000000,0.000000,0.696109,-0.093628,-0.708740,-0.065979,0.992797,-0.057624,-0.021975,-14.030151,-39.091541,62.900501
1703405212.766078,1703405212.766806,9.000000,0.000000,4235.769043,4196.922852,4308.333496,4263.205078,4181.922852,4169.487305,4194.743652,4149.743652,4151.794922,4172.051270,4650.512695,4477.307617,4429.743652,4565.256348,5165.000000,4.000000,82.000000,,,,0.000000,4.000000,4.000000,4.000000,4.000000,4.000000,4.000000,2.000000,4.000000,4.000000,4.000000,4.000000,4.000000,4.000000,4.000000,83.333336,1.000000,75.000000,4.000000,4.000000,4.000000,4.000000,4.000000,3.000000,2.000000,4.000000,4.000000,4.000000,4.000000,4.000000,4.000000,4.000000,,,,,,,,,,,,
1703405212.773886,1703405212.774614,10.000000,0.000000,4231.794922,4183.974121,4299.871582,4266.282227,4174.743652,4167.820313,4192.051270,4134.487305,4140.128418,4161.922852,4631.282227,4465.897461,4412.436035,4544.358887,5955.000000,4.000000,82.000000,,,,0.000000,4.000000,4.000000,4.000000,4.000000,4.000000,4.000000,2.000000,4.000000,4.000000,4.000000,4.000000,4.000000,4.000000,4.000000,83.333336,,,,,,,,,,,,,,,,,,,,,,,,,,,,
1703405212.781694,1703405212.782522,11.000000,0.000000,4229.615234,4179.871582,4297.692383,4256.538574,4168.205078,4166.153809,4183.589844,4126.153809,4130.256348,4151.538574,4615.512695,4459.230957,4400.000000,4537.436035,6217.000000,4.000000,82.000000,,,,0.000000,4.000000,4.000000,4.000000,4.000000,4.000000,4.000000,2.000000,4.000000,4.000000,4.000000,4.000000,4.000000,4.000000,4.000000,83.333336,,,,,,,,,,,,,,,,,,,,,,,,,,,,
1703405212.789502,1703405212.790330,12.000000,0.000000,4224.358887,4187.179688,4297.307617,4252.436035,4174.230957,4169.230957,4184.615234,4134.230957,4135.769043,4153.589844,4625.000000,4458.333496,4405.256348,4544.871582,6705.000000,4.000000,82.000000,,,,0.000000,4.000000,4.000000,4.000000,4.000000,4.000000,4.000000,2.000000,4.000000,4.000000,4.000000,4.000000,4.000000,4.000000,4.000000,83.333336,,,,,,,,,,,,,,,,,3.000000,0.000000,0.696355,-0.093689,-0.708496,-0.065918,0.990355,-0.065438,-0.023929,-14.077137,-39.015720,62.993782
1703405212.797310,1703405212.798238,13.000000,0.000000,4210.512695,4181.153809,4288.077148,4245.512695,4176.025879,4170.769043,4194.615234,4156.410156,4157.692383,4161.666504,4633.589844,4464.743652,4409.102539,4538.846191,6633.000000,4.000000,82.000000,,,,0.000000,4.000000,4.000000,4.000000,4.000000,4.000000,4.000000,2.000000,4.000000,4.000000,4.000000,4.000000,4.000000,4.000000,4.000000,83.333336,,,,,,,,,,,,,,,,,,,,,,,,,,,,
1703405212.805118,1703405212.806046,14.000000,0.000000,4212.051270,4180.512695,4291.410156,4247.051270,4174.487305,4172.563965,4200.897461,4176.153809,4170.897461,4169.487305,4638.077148,4477.051270,4411.410156,4541.282227,5955.000000,4.000000,82.000000,,,,0.000000,4.000000,4.000000,4.000000,4.000000,4.000000,4.000000,2.000000,4.000000,4.000000,4.000000,4.000000,4.000000,4.000000,4.000000,83.333336,,,,,,,,,,,,,,,,,,,,,,,,,,,,
1703405212.812926,1703405212.813954,15.000000,0.000000,4228.589844,4191.794922,4305.512695,4254.487305,4177.051270,4172.692383,4197.436035,4172.436035,4159.230957,4171.282227,4646.922852,4482.051270,4422.051270,4557.948730,6217.000000,4.000000,82.000000,,,,0.000000,4.000000,4.000000,4.000000,4.000000,4.000000,4.000000,2.000000,4.000000,4.000000,4.000000,4.000000,4.000000,4.000000,4.000000,83.333336,,,,,,,,,,,,,,,,,,,,,,,,,,,,
1703405212.820734,1703405212.821762,16.000000,0.000000,4232.307617,4189.743652,4302.307617,4247.563965,4176.666504,4170.897461,4193.589844,4155.897461,4146.922852,4169.615234,4642.307617,4476.025879,4423.974121,4555.641113,0.000000,4.000000,82.000000,,,,0.000000,4.000000,4.000000,4.000000,4.000000,4.000000,4.000000,2.000000,4.000000,4.000000,4.000000,4.000000,4.000000,4.000000,4.000000,83.333336,,,,,,,,,,,,,,,,,4.000000,0.000000,0.696325,-0.093872,-0.708496,-0.065979,0.994262,-0.068856,-0.021975,-14.169423,-39.064148,62.827740
1703405212.828542,1703405212.829470,17.000000,0.000000,4227.307617,4184.487305,4290.641113,4247.692383,4180.128418,4171.666504,4196.153809,4148.333496,4150.384766,4172.820313,4635.384766,4467.948730,4418.205078,4543.846191,0.000000,4.000000,82.000000,,,,0.000000,4.000000,4.000000,4.000000,4.000000,4.000000,4.000000,2.000000,4.000000,4.000000,4.000000,4.000000,4.000000,4.000000,4.000000,83.333336,,,,,,,,,,,,,,,,,,,,,,,,,,,,
1703405212.836350,1703405212.837278,18.000000,0.000000,4226.922852,4191.922852,4288.974121,4261.538574,4185.641113,4172.179688,4196.538574,4147.179688,4151.666504,4170.641113,4637.051270,4464.230957,4412.307617,4542.307617,0.000000,4.000000,82.000000,,,,0.000000,4.000000,4.000000,4.000000,4.000000,4.000000,4.000000,2.000000,4.000000,4.000000,4.000000,4.000000,4.000000,4.000000,4.000000,83.333336,,,,,,,,,,,,,,,,,,,,,,,,,,,,
1703405212.844158,1703405212.844986,19.000000,0.000000,4213.717773,4185.128418,4283.077148,4247.692383,4177.436035,4168.589844,4195.897461,4138.461426,4138.461426,4152.436035,4622.692383,4456.153809,4392.820313,4531.282227,0.000000,4.000000,82.000000,,,,0.000000,4.000000,4.000000,4.000000,4.000000,4.000000,4.000000,2.000000,4.000000,4.000000,4.000000,4.000000,4.000000,4.000000,4.000000,83.333336,,,,,,,,,,,,,,,,,,,,,,,,,,,,
1703405212.851967,1703405212.852794,20.000000,0.000000,4205.256348,4176.666504,4277.436035,4233.077148,4172.436035,4171.025879,4200.000000,4138.461426,4137.436035,4151.922852,4613.077148,4451.666504,4395.256348,4527.563965,0.000000,4.000000,82.000000,,,,0.000000,4.000000,4.000000,4.000000,4.000000,4.000000,4.000000,2.000000,4.000000,4.000000,4.000000,4.000000,4.000000,4.000000,4.000000,83.333336,,,,,,,,,,,,,,,,,5.000000,0.000000,0.696307,-0.093872,-0.708496,-0.066162,0.970333,-0.046881,-0.021487,-14.152480,-39.041069,62.794964
1703405212.859774,1703405212.860502,21.000000,0.000000,4221.922852,4193.846191,4285.769043,4255.641113,4191.282227,4186.153809,4203.846191,4155.384766,4159.871582,4182.051270,4646.922852,4466.410156,4435.512695,4551.025879,0.000000,4.000000,82.000000,,,,0.000000,4.000000,4.000000,4.000000,4.000000,4.000000,4.000000,2.000000,4.000000,4.000000,4.000000,4.000000,4.000000,4.000000,4.000000,83.333336,,,,,,,,,,,,,,,,,,,,,,,,,,,,
1703405212.867582,1703405212.868310,22.000000,0.000000,4227.563965,4199.102539,4287.692383,4266.794922,4201.922852,4189.358887,4203.846191,4162.563965,4170.897461,4198.205078,4680.641113,4474.102539,4459.615234,4563.077148,0.000000,4.000000,82.000000,,,,0.000000,4.000000,4.000000,4.000000,4.000000,4.000000,4.000000,2.000000,4.000000,4.000000,4.000000,4.000000,4.000000,4.000000,4.000000,83.333336,,,,,,,,,,,,,,,,,,,,,,,,,,,,
1703405212.875391,1703405212.876018,23.000000,0.000000,4212.563965,4177.051270,4277.563965,4245.256348,4181.282227,4175.000000,4204.358887,4158.461426,4163.461426,4187.820313,4669.871582,4460.512695,4453.077148,4550.256348,0.000000,4.000000,82.000000,,,,0.000000,4.000000,4.000000,4.000000,4.000000,4.000000,4.000000,2.000000,4.000000,4.000000,4.000000,4.000000,4.000000,4.000000,4.000000,83.333336,,,,,,,,,,,,,,,,,,,,,,,,,,,,
1703405212.883199,1703405212.883826,24.000000,0.000000,4216.282227,4172.436035,4284.871582,4237.820313,4171.794922,4172.051270,4209.230957,4168.846191,4167.563965,4183.077148,4659.615234,4467.179688,4457.436035,4553.974121,0.000000,4.000000,82.000000,,,,0.000000,4.000000,4.000000,4.000000,4.000000,4.000000,4.000000,2.000000,4.000000,4.000000,4.000000,4.000000,4.000000,4.000000,4.000000,83.333336,,,,,,,,,,,,,,,,,6.000000,0.000000,0.696330,-0.093750,-0.708496,-0.066101,0.977658,-0.050787,-0.022464,-14.170566,-39.070293,62.798801
1703405212.891007,1703405212.891534,25.000000,0.000000,4213.974121,4169.230957,4289.358887,4239.487305,4168.461426,4168.077148,4207.436035,4163.974121,4158.717773,4174.871582,4658.846191,4474.615234,4446.922852,4553.846191,0.000000,4.000000,82.000000,,,,0.000000,4.000000,4.000000,4.000000,4.000000,4.000000,4.000000,2.000000,4.000000,4.000000,4.000000,4.000000,4.000000,4.000000,4.000000,83.333336,,,,,,,,,,,,,,,,,,,,,,,,,,,,
1703405212.898815,1703405212.899342,26.000000,0.000000,4199.358887,4153.077148,4281.794922,4233.717773,4159.871582,4158.333496,4201.025879,4139.102539,4132.051270,4161.922852,4645.769043,4462.692383,4418.846191,4539.230957,0.000000,4.000000,82.000000,,,,0.000000,4.000000,4.000000,4.000000,4.000000,4.000000,4.000000,2.000000,4.000000,4.000000,4.000000,4.000000,4.000000,4.000000,4.000000,83.333336,,,,,,,,,,,,,,,,,,,,,,,,,,,,
1703405212.906623,1703405212.907050,27.000000,0.000000,4211.282227,4160.000000,4292.820313,4242.307617,4169.487305,4166.282227,4205.256348,4142.563965,4138.077148,4167.692383,4644.230957,4471.410156,4425.769043,4551.282227,0.000000,4.000000,82.000000,,,,0.000000,4.000000,4.000000,4.000000,4.000000,4.000000,4.000000,2.000000,4.000000,4.000000,4.000000,4.000000,4.000000,4.000000,4.000000,83.333336,,,,,,,,,,,,,,,,,,,,,,,,,,,,
1703405212.914431,1703405212.914858,28.000000,0.000000,4218.205078,4171.666504,4300.512695,4250.769043,4180.256348,4176.282227,4208.846191,4153.333496,4153.846191,4174.230957,4652.436035,4479.615234,4441.410156,4559.871582,0.000000,4.000000,82.000000,,,,0.000000,4.000000,4.000000,4.000000,4.000000,4.000000,4.000000,2.000000,4.000000,4.000000,4.000000,4.000000,4.000000,4.000000,4.000000,83.333336,,,,,,,,,,,,,,,,,7.000000,0.000000,0.696349,-0.093689,-0.708496,-0.065979,0.992797,-0.048834,-0.017580,-14.120176,-38.996597,62.818920
1703405212.922239,1703405212.922566,29.000000,0.000000,4203.333496,4166.410156,4291.282227,4244.102539,4173.589844,4167.692383,4201.794922,4146.153809,4149.358887,4167.948730,4642.948730,4464.615234,4428.205078,4545.000000,0.000000,4.000000,82.000000,,,,0.000000,4.000000,4.000000,4.000000,4.000000,4.000000,4.000000,2.000000,4.000000,4.000000,4.000000,4.000000,4.000000,4.000000,4.000000,83.333336,,,,,,,,,,,,,,,,,,,,,,,,,,,,
1703405212.930047,1703405212.930474,30.000000,0.000000,4206.025879,4167.179688,4291.922852,4239.743652,4165.256348,4162.692383,4199.102539,4148.077148,4149.358887,4165.384766,4634.358887,4464.743652,4416.025879,4543.205078,0.000000,4.000000,82.000000,,,,0.000000,4.000000,4.000000,4.000000,4.000000,4.000000,4.000000,2.000000,4.000000,4.000000,4.000000,4.000000,4.000000,4.000000,4.000000,83.333336,,,,,,,,,,,,,,,,,,,,,,,,,,,,
1703405212.937855,1703405212.938282,31.000000,0.000000,4223.077148,4173.846191,4305.769043,4245.641113,4172.563965,4171.410156,4205.641113,4161.922852,4158.461426,4172.051270,4646.794922,4482.820313,4428.717773,4560.769043,0.000000,4.000000,82.000000,,,,0.000000,4.000000,4.000000,4.000000,4.000000,4.000000,4.000000,2.000000,4.000000,4.000000,4.000000,4.000000,4.000000,4.000000,4.000000,83.333336,,,,,,,,,,,,,,,,,,,,,,,,,,,,
1703405212.945663,1703405212.946091,32.000000,0.000000,4216.922852,4169.230957,4306.282227,4248.461426,4170.769043,4167.307617,4207.948730,4161.794922,4156.666504,4171.666504,4646.153809,4477.948730,4430.769043,4560.000000,0.000000,4.000000,82.000000,,,,0.000000,4.000000,4.000000,4.000000,4.000000,4.000000,4.000000,2.000000,4.000000,4.000000,4.000000,4.000000,4.000000,4.000000,4.000000,83.333336,,,,,,,,,,,,,,,,,8.000000,0.000000,0.696363,-0.093628,-0.708496,-0.065918,0.995727,-0.073251,-0.017092,-14.141492,-39.196938,62.987030
1703405212.953471,1703405212.953899,33.000000,0.000000,4198.846191,4163.077148,4292.563965,4240.641113,4154.358887,4154.487305,4203.205078,4146.794922,4144.230957,4154.743652,4626.282227,4458.461426,4409.615234,4540.384766,0.000000,4.000000,82.000000,,,,0.000000,4.000000,4.000000,4.000000,4.000000,4.000000,4.000000,2.000000,4.000000,4.000000,4.000000,4.000000,4.000000,4.000000,4.000000,83.333336,,,,,,,,,,,,,,,,,,,,,,,,,,,,
1703405212.961279,1703405212.961807,34.000000,0.000000,4206.794922,4174.230957,4291.025879,4243.077148,4164.743652,4160.384766,4206.410156,4142.051270,4141.538574,4146.282227,4626.153809,4460.641113,4411.538574,4541.410156,0.000000,4.000000,82.000000,,,,0.000000,4.000000,4.000000,4.000000,4.000000,4.000000,4.000000,2.000000,4.000000,4.000000,4.000000,4.000000,4.000000,4.000000,4.000000,83.333336,,,,,,,,,,,,,,,,,,,,,,,,,,,,
1703405212.969087,1703405212.969615,35.000000,0.000000,4220.000000,4185.769043,4302.692383,4254.487305,4186.410156,4176.282227,4212.820313,4151.922852,4151.282227,4156.922852,4632.948730,4474.358887,4425.384766,4558.077148,0.000000,4.000000,82.000000,,,,0.000000,4.000000,4.000000,4.000000,4.000000,4.000000,4.000000,2.000000,4.000000,4.000000,4.000000,4.000000,4.000000,4.000000,4.000000,83.333336,,,,,,,,,,,,,,,,,,,,,,,,,,,,
1703405212.976895,1703405212.977522,36.000000,0.000000,4211.282227,4178.077148,4303.333496,4246.025879,4176.410156,4174.102539,4212.179688,4157.307617,4154.102539,4159.487305,4628.717773,4473.461426,4416.410156,4558.589844,0.000000,4.000000,82.000000,,,,0.000000,4.000000,4.000000,4.000000,4.000000,4.000000,4.000000,2.000000,4.000000,4.000000,4.000000,4.000000,4.000000,4.000000,4.000000,83.333336,,,,,,,,,,,,,,,,,9.000000,0.000000,0.696422,-0.093567,-0.708435,-0.066040,0.991332,-0.058601,-0.020022,-14.094009,-39.110577,62.904991
1703405212.984703,1703405212.985330,37.000000,0.000000,4202.179688,4167.051270,4291.282227,4235.384766,4159.102539,4163.333496,4209.102539,4147.436035,4137.563965,4150.897461,4631.922852,4461.538574,4407.051270,4547.051270,0.000000,4.000000,82.000000,,,,0.000000,4.000000,4.000000,4.000000,4.000000,4.000000,4.000000,2.000000,4.000000,4.000000,4.000000,4.000000,4.000000,4.000000,4.000000,83.333336,,,,,,,,,,,,,,,,,,,,,,,,,,,,
1703405212.992511,1703405212.993238,38.000000,0.000000,4214.102539,4171.538574,4294.358887,4250.641113,4167.948730,4164.743652,4208.333496,4142.179688,4128.077148,4156.410156,4639.743652,4462.051270,4415.384766,4549.615234,0.000000,4.000000,82.000000,,,,0.000000,4.000000,4.000000,4.000000,4.000000,4.000000,4.000000,2.000000,4.000000,4.000000,4.000000,4.000000,4.000000,4.000000,4.000000,83.333336,,,,,,,,,,,,,,,,,,,,,,,,,,,,
1703405213.000319,1703405213.001046,39.000000,0.000000,4218.461426,4172.436035,4299.487305,4254.230957,4174.358887,4167.820313,4207.948730,4144.230957,4136.410156,4162.563965,4634.487305,4466.153809,4416.922852,4554.871582,0.000000,4.000000,82.000000,,,,0.000000,4.000000,4.000000,4.000000,4.000000,4.000000,4.000000,2.000000,4.000000,4.000000,4.000000,4.000000,4.000000,4.000000,4.000000,83.333336,,,,,,,,,,,,,,,,,,,,,,,,,,,,
1703405213.008127,1703405213.008954,40.000000,0.000000,4204.487305,4161.025879,4286.282227,4231.538574,4162.051270,4162.948730,4207.692383,4135.256348,4134.743652,4154.487305,4625.384766,4458.974121,4408.846191,4547.820313,0.000000,4.000000,82.000000,,,,0.000000,4.000000,4.000000,4.000000,4.000000,4.000000,4.000000,2.000000,4.000000,4.000000,4.000000,4.000000,4.000000,4.000000,4.000000,83.333336,,,,,,,,,,,,,,,,,10.000000,0.000000,0.696545,-0.093445,-0.708313,-0.066223,0.994750,-0.070321,-0.022952,-14.201275,-39.166187,63.147827
1703405213.015936,1703405213.016762,41.000000,0.000000,4205.000000,4167.692383,4286.153809,4232.820313,4164.358887,4166.794922,4210.256348,4138.461426,4135.897461,4158.077148,4634.102539,4461.153809,4414.871582,4551.538574,0.000000,4.000000,82.000000,,,,0.000000,4.000000,4.000000,4.000000,4.000000,4.000000,4.000000,2.000000,4.000000,4.000000,4.000000,4.000000,4.000000,4.000000,4.000000,83.333336,,,,,,,,,,,,,,,,,,,,,,,,,,,,
1703405213.023744,1703405213.024470,42.000000,0.000000,4215.512695,4183.205078,4301.794922,4251.410156,4177.307617,4180.000000,4213.589844,4159.871582,4156.282227,4170.256348,4643.461426,4473.205078,4427.436035,4559.230957,0.000000,4.000000,82.000000,,,,0.000000,4.000000,4.000000,4.000000,4.000000,4.000000,4.000000,2.000000,4.000000,4.000000,4.000000,4.000000,4.000000,4.000000,4.000000,83.333336,,,,,,,,,,,,,,,,,,,,,,,,,,,,
1703405213.031551,1703405213.032278,43.000000,0.000000,4216.025879,4181.922852,4305.128418,4250.128418,4181.282227,4181.025879,4216.666504,4168.717773,4168.333496,4173.717773,4637.948730,4478.333496,4429.615234,4556.410156,0.000000,4.000000,82.000000,,,,0.000000,4.000000,4.000000,4.000000,4.000000,4.000000,4.000000,2.000000,4.000000,4.000000,4.000000,4.000000,4.000000,4.000000,4.000000,83.333336,,,,,,,,,,,,,,,,,,,,,,,,,,,,
1703405213.039360,1703405213.039986,44.000000,0.000000,4212.307617,4179.230957,4298.461426,4246.410156,4175.256348,4169.487305,4216.666504,4158.077148,4157.692383,4173.717773,4637.948730,4474.230957,4423.846191,4557.948730,0.000000,4.000000,82.000000,,,,0.000000,4.000000,4.000000,4.000000,4.000000,4.000000,4.000000,2.000000,4.000000,4.000000,4.000000,4.000000,4.000000,4.000000,4.000000,83.333336,,,,,,,,,,,,,,,,,11.000000,0.000000,0.696602,-0.093445,-0.708252,-0.066284,0.980100,-0.065926,-0.019534,-14.181148,-39.216236,63.083046
1703405213.047168,1703405213.047794,45.000000,0.000000,4220.641113,4185.128418,4299.230957,4255.769043,4176.025879,4170.256348,4214.871582,4158.846191,4160.000000,4180.256348,4655.128418,4475.512695,4431.922852,4569.487305,0.000000,4.000000,82.000000,,,,0.000000,4.000000,4.000000,4.000000,4.000000,4.000000,4.000000,2.000000,4.000000,4.000000,4.000000,4.000000,4.000000,4.000000,4.000000,83.333336,,,,,,,,,,,,,,,,,,,,,,,,,,,,
1703405213.054976,1703405213.055502,46.000000,0.000000,4217.051270,4177.820313,4289.615234,4248.461426,4173.846191,4170.256348,4208.333496,4160.128418,4161.410156,4173.717773,4649.871582,4465.512695,4431.794922,4559.615234,0.000000,4.000000,82.000000,,,,0.000000,4.000000,4.000000,4.000000,4.000000,4.000000,4.000000,2.000000,4.000000,4.000000,4.000000,4.000000,4.000000,4.000000,4.000000,83.333336,,,,,,,,,,,,,,,,,,,,,,,,,,,,
1703405213.062784,1703405213.063410,47.000000,0.000000,4194.102539,4162.307617,4272.051270,4228.205078,4157.692383,4155.384766,4201.794922,4137.563965,4129.615234,4148.974121,4614.487305,4439.743652,4399.487305,4546.666504,0.000000,4.000000,82.000000,,,,0.000000,4.000000,4.000000,4.000000,4.000000,4.000000,4.000000,2.000000,4.000000,4.000000,4.000000,4.000000,4.000000,4.000000,4.000000,83.333336,,,,,,,,,,,,,,,,,,,,,,,,,,,,
1703405213.070592,1703405213.071219,48.000000,0.000000,4197.820313,4166.410156,4282.563965,4232.563965,4156.025879,4156.666504,4214.871582,4130.897461,4119.615234,4145.897461,4609.487305,4443.077148,4389.102539,4580.384766,0.000000,4.000000,82.000000,,,,0.000000,4.000000,4.000000,4.000000,4.000000,4.000000,4.000000,2.000000,4.000000,4.000000,4.000000,4.000000,4.000000,4.000000,4.000000,83.333336,,,,,,,,,,,,,,,,,12.000000,0.000000,0.696571,-0.093628,-0.708252,-0.066345,0.999145,-0.049811,-0.026370,-14.379700,-39.261276,62.858074
1703405213.078400,1703405213.079027,49.000000,0.000000,4219.487305,4176.025879,4304.230957,4248.333496,4166.025879,4170.384766,4213.717773,4151.025879,4144.230957,4164.230957,4635.769043,4466.282227,4414.743652,4619.487305,0.000000,4.000000,82.000000,,,,0.000000,4.000000,4.000000,4.000000,4.000000,4.000000,4.000000,2.000000,4.000000,4.000000,4.000000,4.000000,4.000000,4.000000,4.000000,83.333336,,,,,,,,,,,,,,,,,,,,,,,,,,,,
1703405213.086208,1703405213.086735,50.000000,0.000000,4219.487305,4175.769043,4305.512695,4250.641113,4169.615234,4170.128418,4181.538574,4158.717773,4149.230957,4165.128418,4639.743652,4471.922852,4420.000000,4616.025879,0.000000,4.000000,82.000000,,,,0.000000,4.000000,4.000000,4.000000,4.000000,4.000000,4.000000,2.000000,4.000000,4.000000,4.000000,4.000000,4.000000,4.000000,4.000000,83.333336,,,,,,,,,,,,,,,,,,,,,,,,,,,,
1703405213.094016,1703405213.094643,51.000000,0.000000,4210.769043,4175.897461,4296.410156,4247.051270,4166.922852,4165.897461,4162.179688,4150.256348,4141.410156,4148.461426,4618.974121,4467.307617,4401.666504,4606.794922,0.000000,4.000000,82.000000,,,,0.000000,4.000000,4.000000,4.000000,4.000000,4.000000,4.000000,2.000000,4.000000,4.000000,4.000000,4.000000,4.000000,4.000000,4.000000,83.333336,,,,,,,,,,,,,,,,,,,,,,,,,,,,
1703405213.101824,1703405213.102451,52.000000,0.000000,4225.000000,4183.461426,4300.769043,4249.102539,4166.538574,4169.743652,4166.282227,4153.077148,4153.333496,4155.769043,4624.615234,4475.512695,4411.538574,4621.666504,0.000000,4.000000,82.000000,,,,0.000000,4.000000,4.000000,4.000000,4.000000,4.000000,4.000000,2.000000,4.000000,4.000000,4.000000,4.000000,4.000000,4.000000,4.000000,83.333336,,,,,,,,,,,,,,,,,13.000000,0.000000,0.696627,-0.093628,-0.708191,-0.066406,0.995727,-0.050787,-0.020999,-14.308396,-39.285149,62.872265
1703405213.109632,1703405213.110259,53.000000,0.000000,4237.179688,4192.948730,4311.538574,4252.692383,4173.846191,4174.743652,4169.615234,4164.230957,4164.230957,4175.897461,4654.230957,4489.615234,4431.666504,4633.717773,0.000000,4.000000,82.000000,,,,0.000000,4.000000,4.000000,4.000000,4.000000,4.000000,4.000000,2.000000,4.000000,4.000000,4.000000,4.000000,4.000000,4.000000,4.000000,83.333336,,,,,,,,,,,,,,,,,,,,,,,,,,,,
1703405213.117440,1703405213.117967,54.000000,0.000000,4221.794922,4182.692383,4303.333496,4245.384766,4166.410156,4172.307617,4166.666504,4155.641113,4152.563965,4165.256348,4642.948730,4480.769043,4415.256348,4618.589844,0.000000,4.000000,82.000000,,,,0.000000,4.000000,4.000000,4.000000,4.000000,4.000000,4.000000,2.000000,4.000000,4.000000,4.000000,4.000000,4.000000,4.000000,4.000000,83.333336,,,,,,,,,,,,,,,,,,,,,,,,,,,,
1703405213.125248,1703405213.125875,55.000000,0.000000,4218.589844,4173.717773,4297.179688,4242.179688,4159.743652,4168.974121,4166.153809,4151.538574,4150.000000,4153.846191,4622.563965,4471.538574,4406.538574,4613.589844,0.000000,4.000000,82.000000,,,,0.000000,4.000000,4.000000,4.000000,4.000000,4.000000,4.000000,2.000000,4.000000,4.000000,4.000000,4.000000,4.000000,4.000000,4.000000,83.333336,,,,,,,,,,,,,,,,,,,,,,,,,,,,
1703405213.133056,1703405213.133683,56.000000,0.000000,4232.692383,4186.025879,4307.948730,4251.282227,4171.153809,4170.384766,4169.615234,4170.128418,4164.230957,4169.487305,4638.974121,4484.871582,4423.846191,4628.974121,0.000000,4.000000,82.000000,,,,0.000000,4.000000,4.000000,4.000000,4.000000,4.000000,4.000000,2.000000,4.000000,4.000000,4.000000,4.000000,4.000000,4.000000,4.000000,83.333336,,,,,,,,,,,,,,,,,14.000000,0.000000,0.696569,-0.093689,-0.708252,-0.066284,0.988402,-0.053229,-0.034184,-14.244224,-39.306637,62.851707
1703405213.140864,1703405213.141590,57.000000,0.000000,4226.153809,4185.897461,4305.897461,4250.897461,4178.717773,4173.589844,4171.538574,4175.000000,4164.743652,4175.128418,4643.461426,4489.743652,4419.358887,4623.846191,0.000000,4.000000,82.000000,,,,0.000000,4.000000,4.000000,4.000000,4.000000,4.000000,4.000000,2.000000,4.000000,4.000000,4.000000,4.000000,4.000000,4.000000,4.000000,83.333336,,,,,,,,,,,,,,,,,,,,,,,,,,,,
1703405213.148672,1703405213.149398,58.000000,0.000000,4204.615234,4167.051270,4286.794922,4235.641113,4167.692383,4170.512695,4170.384766,4154.615234,4144.487305,4156.410156,4618.589844,4467.692383,4394.102539,4596.153809,0.000000,4.000000,82.000000,,,,0.000000,4.000000,4.000000,4.000000,4.000000,4.000000,4.000000,2.000000,4.000000,4.000000,4.000000,4.000000,4.000000,4.000000,4.000000,83.333336,,,,,,,,,,,,,,,,,,,,,,,,,,,,
1703405213.156480,1703405213.157306,59.000000,0.000000,4198.205078,4163.077148,4278.205078,4226.794922,4163.077148,4166.922852,4168.846191,4146.794922,4133.077148,4149.358887,4607.820313,4455.000000,4387.051270,4583.077148,0.000000,4.000000,82.000000,,,,0.000000,4.000000,4.000000,4.000000,4.000000,4.000000,4.000000,2.000000,4.000000,4.000000,4.000000,4.000000,4.000000,4.000000,4.000000,83.333336,,,,,,,,,,,,,,,,,,,,,,,,,,,,
1703405213.164288,1703405213.165114,60.000000,0.000000,4197.307617,4170.769043,4278.846191,4232.307617,4172.692383,4171.153809,4170.384766,4157.692383,4146.922852,4160.897461,4616.666504,4462.051270,4393.846191,4585.769043,0.000000,4.000000,82.000000,,,,0.000000,4.000000,4.000000,4.000000,4.000000,4.000000,4.000000,2.000000,4.000000,4.000000,4.000000,4.000000,4.000000,4.000000,4.000000,83.333336,,,,,,,,,,,,,,,,,15.000000,0.000000,0.696583,-0.093628,-0.708252,-0.066223,0.992797,-0.062508,-0.027347,-14.169801,-39.342640,62.899868
1703405213.172097,1703405213.173022,61.000000,0.000000,4191.153809,4165.769043,4273.589844,4233.333496,4168.333496,4173.205078,4169.615234,4152.948730,4151.025879,4159.871582,4617.051270,4456.282227,4389.743652,4580.000000,0.000000,4.000000,82.000000,,,,0.000000,4.000000,4.000000,4.000000,4.000000,4.000000,4.000000,2.000000,4.000000,4.000000,4.000000,4.000000,4.000000,4.000000,4.000000,83.333336,,,,,,,,,,,,,,,,,,,,,,,,,,,,
1703405213.179905,1703405213.180830,62.000000,0.000000,4197.179688,4164.871582,4275.384766,4231.282227,4160.512695,4170.128418,4166.794922,4141.410156,4140.384766,4150.000000,4612.563965,4449.615234,4384.871582,4579.743652,0.000000,4.000000,82.000000,,,,0.000000,4.000000,4.000000,4.000000,4.000000,4.000000,4.000000,2.000000,4.000000,4.000000,4.000000,4.000000,4.000000,4.000000,4.000000,83.333336,,,,,,,,,,,,,,,,,,,,,,,,,,,,
1703405213.187713,1703405213.188738,63.000000,0.000000,4209.871582,4177.820313,4285.769043,4243.333496,4167.563965,4170.641113,4166.922852,4150.512695,4147.948730,4153.589844,4620.128418,4463.077148,4389.487305,4593.077148,0.000000,4.000000,82.000000,,,,0.000000,4.000000,4.000000,4.000000,4.000000,4.000000,4.000000,2.000000,4.000000,4.000000,4.000000,4.000000,4.000000,4.000000,4.000000,83.333336,,,,,,,,,,,,,,,,,,,,,,,,,,,,
1703405213.195521,1703405213.196546,64.000000,0.000000,4212.692383,4187.948730,4288.974121,4255.769043,4174.743652,4173.846191,4170.256348,4162.436035,4158.333496,4163.461426,4636.025879,4475.128418,4401.025879,4601.794922,4747.000000,4.000000,82.000000,,,,0.000000,4.000000,4.000000,4.000000,4.000000,4.000000,4.000000,2.000000,4.000000,4.000000,4.000000,4.000000,4.000000,4.000000,4.000000,83.333336,,,,,,,,,,,,,,,,,16.000000,0.000000,0.696478,-0.093567,-0.708374,-0.066101,0.980100,-0.058113,-0.020510,-14.269487,-39.258373,62.726547
1703405213.203329,1703405213.204254,65.000000,0.000000,4211.538574,4188.717773,4289.358887,4245.128418,4170.769043,4174.230957,4172.436035,4156.410156,4146.922852,4156.666504,4635.897461,4471.666504,4402.436035,4597.436035,5354.000000,4.000000,82.000000,,,,0.000000,4.000000,4.000000,4.000000,4.000000,4.000000,4.000000,2.000000,4.000000,4.000000,4.000000,4.000000,4.000000,4.000000,4.000000,83.333336,,,,,,,,,,,,,,,,,,,,,,,,,,,,
1703405213.211137,1703405213.212062,66.000000,0.000000,4215.384766,4182.307617,4298.461426,4240.769043,4170.512695,4174.230957,4171.153809,4158.461426,4144.615234,4152.436035,4626.282227,4474.871582,4393.974121,4594.743652,5131.000000,4.000000,82.000000,,,,0.000000,4.000000,4.000000,4.000000,4.000000,4.000000,4.000000,2.000000,4.000000,4.000000,4.000000,4.000000,4.000000,4.000000,4.000000,83.333336,,,,,,,,,,,,,,,,,,,,,,,,,,,,
1703405213.218945,1703405213.219770,67.000000,0.000000,4211.410156,4173.205078,4295.641113,4250.641113,4171.025879,4171.666504,4169.230957,4168.333496,4158.974121,4162.563965,4628.205078,4478.077148,4399.487305,4596.410156,5323.000000,4.000000,82.000000,,,,0.000000,4.000000,4.000000,4.000000,4.000000,4.000000,4.000000,2.000000,4.000000,4.000000,4.000000,4.000000,4.000000,4.000000,4.000000,83.333336,,,,,,,,,,,,,,,,,,,,,,,,,,,,
1703405213.226753,1703405213.227578,68.000000,0.000000,4198.846191,4166.025879,4275.128418,4241.282227,4162.436035,4165.512695,4168.333496,4156.025879,4151.025879,4158.974121,4629.743652,4460.769043,4412.948730,4588.077148,5091.000000,4.000000,82.000000,,,,0.000000,4.000000,4.000000,4.000000,4.000000,4.000000,4.000000,2.000000,4.000000,4.000000,4.000000,4.000000,4.000000,4.000000,4.000000,83.333336,,,,,,,,,,,,,,,,,17.000000,0.000000,0.696359,-0.093445,-0.708496,-0.066223,0.988890,-0.063484,-0.033696,-14.392539,-39.332539,62.470562
1703405213.234561,1703405213.235286,69.000000,0.000000,4199.487305,4173.717773,4272.051270,4239.102539,4170.512695,4167.692383,4168.717773,4145.512695,4137.436035,4156.538574,4637.307617,4449.871582,4424.358887,4583.205078,4589.000000,4.000000,82.000000,,,,0.000000,4.000000,4.000000,4.000000,4.000000,4.000000,4.000000,2.000000,4.000000,4.000000,4.000000,4.000000,4.000000,4.000000,4.000000,83.333336,,,,,,,,,,,,,,,,,,,,,,,,,,,,
1703405213.242369,1703405213.243194,70.000000,0.000000,4203.333496,4175.512695,4284.615234,4248.974121,4181.025879,4173.974121,4171.025879,4150.769043,4140.769043,4166.025879,4646.410156,4456.282227,4430.256348,4585.000000,1643.000000,4.000000,82.000000,,,,0.000000,4.000000,4.000000,4.000000,4.000000,4.000000,4.000000,2.000000,4.000000,4.000000,4.000000,4.000000,4.000000,4.000000,4.000000,83.333336,,,,,,,,,,,,,,,,,,,,,,,,,,,,
1703405213.250177,1703405213.251002,71.000000,0.000000,4197.692383,4157.948730,4285.000000,4236.025879,4168.589844,4172.948730,4171.666504,4148.717773,4145.128418,4163.205078,4637.692383,4456.153809,4427.563965,4580.128418,5187.000000,4.000000,82.000000,,,,0.000000,4.000000,4.000000,4.000000,4.000000,4.000000,4.000000,2.000000,4.000000,4.000000,4.000000,4.000000,4.000000,4.000000,4.000000,83.333336,,,,,,,,,,,,,,,,,,,,,,,,,,,,
1703405213.257985,1703405213.258910,72.000000,0.000000,4198.846191,4155.897461,4283.717773,4231.025879,4161.666504,4171.025879,4169.871582,4147.563965,4148.077148,4160.256348,4635.384766,4456.922852,4427.563965,4578.205078,5055.000000,4.000000,82.000000,,,,0.000000,4.000000,4.000000,4.000000,4.000000,4.000000,4.000000,2.000000,4.000000,4.000000,4.000000,4.000000,4.000000,4.000000,4.000000,83.333336,,,,,,,,,,,,,,,,,18.000000,0.000000,0.696305,-0.093384,-0.708557,-0.066223,0.990355,-0.049811,-0.028812,-14.303285,-39.332615,62.423504
1703405213.265793,1703405213.266719,73.000000,0.000000,4205.384766,4170.897461,4289.743652,4247.179688,4170.641113,4170.512695,4171.153809,4157.820313,4156.282227,4171.025879,4646.153809,4467.179688,4428.846191,4587.051270,5123.000000,4.000000,82.000000,,,,0.000000,4.000000,4.000000,4.000000,4.000000,4.000000,4.000000,2.000000,4.000000,4.000000,4.000000,4.000000,4.000000,4.000000,4.000000,83.333336,1.000000,66.666664,4.000000,4.000000,4.000000,4.000000,3.000000,3.000000,2.000000,4.000000,4.000000,4.000000,4.000000,4.000000,4.000000,4.000000,,,,,,,,,,,,
1703405213.273601,1703405213.274627,74.000000,0.000000,4204.102539,4171.538574,4290.384766,4241.025879,4171.410156,4169.743652,4172.692383,4154.230957,4154.871582,4167.820313,4641.538574,4463.589844,4421.025879,4589.871582,5915.000000,4.000000,82.000000,,,,0.000000,4.000000,4.000000,4.000000,4.000000,4.000000,4.000000,2.000000,4.000000,4.000000,4.000000,4.000000,4.000000,4.000000,4.000000,83.333336,,,,,,,,,,,,,,,,,,,,,,,,,,,,
1703405213.281409,1703405213.282435,75.000000,0.000000,4199.230957,4162.179688,4283.846191,4230.000000,4166.025879,4168.974121,4170.384766,4137.948730,4138.077148,4151.025879,4628.846191,4451.025879,4411.922852,4577.692383,6170.000000,4.000000,82.000000,,,,0.000000,4.000000,4.000000,4.000000,4.000000,4.000000,4.000000,2.000000,4.000000,4.000000,4.000000,4.000000,4.000000,4.000000,4.000000,83.333336,,,,,,,,,,,,,,,,,,,,,,,,,,,,
1703405213.289217,1703405213.290242,76.000000,0.000000,4207.179688,4168.333496,4286.794922,4242.820313,4171.410156,4168.974121,4171.922852,4139.615234,4137.179688,4159.230957,4636.153809,4459.871582,4422.436035,4577.563965,6659.000000,4.000000,82.000000,,,,0.000000,4.000000,4.000000,4.000000,4.000000,4.000000,4.000000,2.000000,4.000000,4.000000,4.000000,4.000000,4.000000,4.000000,4.000000,83.333336,,,,,,,,,,,,,,,,,19.000000,0.000000,0.696251,-0.093323,-0.708618,-0.066223,0.989867,-0.042974,-0.026859,-14.206289,-39.232689,62.531155
1703405213.297025,1703405213.297951,77.000000,0.000000,4217.179688,4175.256348,4296.153809,4243.461426,4175.769043,4171.153809,4182.692383,4154.871582,4151.922852,4174.102539,4646.410156,4473.589844,4429.743652,4589.487305,6589.000000,4.000000,82.000000,,,,0.000000,4.000000,4.000000,4.000000,4.000000,4.000000,4.000000,2.000000,4.000000,4.000000,4.000000,4.000000,4.000000,4.000000,4.000000,83.333336,,,,,,,,,,,,,,,,,,,,,,,,,,,,
1703405213.304833,1703405213.305759,78.000000,0.000000,4210.897461,4170.256348,4294.358887,4236.410156,4171.666504,4172.179688,4186.410156,4158.846191,4149.102539,4166.538574,4637.563965,4464.358887,4416.666504,4586.282227,5915.000000,4.000000,82.000000,,,,0.000000,4.000000,4.000000,4.000000,4.000000,4.000000,4.000000,2.000000,4.000000,4.000000,4.000000,4.000000,4.000000,4.000000,4.000000,83.333336,,,,,,,,,,,,,,,,,,,,,,,,,,,,
1703405213.312642,1703405213.313467,79.000000,0.000000,4197.820313,4166.922852,4281.922852,4241.666504,4166.922852,4167.820313,4177.563965,4143.461426,4134.102539,4152.436035,4624.102539,4448.589844,4407.051270,4570.897461,6170.000000,4.000000,82.000000,,,,0.000000,4.000000,4.000000,4.000000,4.000000,4.000000,4.000000,2.000000,4.000000,4.000000,4.000000,4.000000,4.000000,4.000000,4.000000,83.333336,,,,,,,,,,,,,,,,,,,,,,,,,,,,
1703405213.320449,1703405213.321275,80.000000,0.000000,4199.487305,4170.897461,4282.051270,4245.000000,4164.358887,4166.153809,4177.179688,4139.230957,4142.179688,4153.717773,4625.128418,4455.256348,4413.589844,4570.384766,6659.000000,4.000000,82.000000,,,,0.000000,4.000000,4.000000,4.000000,4.000000,4.000000,4.000000,2.000000,4.000000,4.000000,4.000000,4.000000,4.000000,4.000000,4.000000,83.333336,,,,,,,,,,,,,,,,,20.000000,0.000000,0.696237,-0.093384,-0.708618,-0.066284,1.009889,-0.052741,-0.017092,-14.052327,-39.242752,62.528038
1703405213.328257,1703405213.328983,81.000000,0.000000,4205.256348,4171.153809,4287.307617,4237.692383,4163.333496,4168.974121,4184.487305,4151.794922,4155.897461,4157.436035,4632.307617,4460.256348,4416.410156,4573.077148,6589.000000,4.000000,82.000000,,,,0.000000,4.000000,4.000000,4.000000,4.000000,4.000000,4.000000,2.000000,4.000000,4.000000,4.000000,4.000000,4.000000,4.000000,4.000000,83.333336,,,,,,,,,,,,,,,,,,,,,,,,,,,,
1703405213.336066,1703405213.336891,82.000000,0.000000,4192.820313,4157.820313,4281.794922,4223.846191,4161.538574,4167.307617,4187.563965,4153.589844,4149.358887,4151.153809,4627.692383,4448.846191,4408.717773,4559.230957,5915.000000,4.000000,82.000000,,,,0.000000,4.000000,4.000000,4.000000,4.000000,4.000000,4.000000,2.000000,4.000000,4.000000,4.000000,4.000000,4.000000,4.000000,4.000000,83.333336,,,,,,,,,,,,,,,,,,,,,,,,,,,,
1703405213.343874,1703405213.344698,83.000000,0.000000,4190.384766,4157.051270,4285.641113,4228.717773,4168.461426,4168.077148,4188.077148,4156.922852,4149.871582,4157.820313,4627.692383,4460.256348,4415.256348,4567.179688,6170.000000,4.000000,82.000000,,,,0.000000,4.000000,4.000000,4.000000,4.000000,4.000000,4.000000,2.000000,4.000000,4.000000,4.000000,4.000000,4.000000,4.000000,4.000000,83.333336,,,,,,,,,,,,,,,,,,,,,,,,,,,,
1703405213.351682,1703405213.352606,84.000000,0.000000,4212.051270,4179.102539,4302.563965,4255.000000,4177.820313,4173.589844,4187.179688,4167.692383,4159.487305,4175.000000,4648.846191,4491.282227,4434.102539,4596.410156,6659.000000,4.000000,82.000000,,,,0.000000,4.000000,4.000000,4.000000,4.000000,4.000000,4.000000,2.000000,4.000000,4.000000,4.000000,4.000000,4.000000,4.000000,4.000000,83.333336,,,,,,,,,,,,,,,,,21.000000,0.000000,0.696299,-0.093384,-0.708557,-0.066284,0.992309,-0.047369,-0.028812,-14.063762,-39.185143,62.658569
1703405213.359490,1703405213.360414,85.000000,0.000000,4227.307617,4188.077148,4310.256348,4263.846191,4176.666504,4167.692383,4189.358887,4163.717773,4153.846191,4169.487305,4661.794922,4495.384766,4436.922852,4599.743652,6589.000000,4.000000,82.000000,,,,0.000000,4.000000,4.000000,4.000000,4.000000,4.000000,4.000000,2.000000,4.000000,4.000000,4.000000,4.000000,4.000000,4.000000,4.000000,83.333336,,,,,,,,,,,,,,,,,,,,,,,,,,,,
1703405213.367298,1703405213.368322,86.000000,0.000000,4212.948730,4173.846191,4303.974121,4247.436035,4168.077148,4159.230957,4189.615234,4149.487305,4143.846191,4151.153809,4644.358887,4475.769043,4422.436035,4582.563965,5915.000000,4.000000,82.000000,,,,0.000000,4.000000,4.000000,4.000000,4.000000,4.000000,4.000000,2.000000,4.000000,4.000000,4.000000,4.000000,4.000000,4.000000,4.000000,83.333336,,,,,,,,,,,,,,,,,,,,,,,,,,,,
1703405213.375106,1703405213.376130,87.000000,0.000000,4202.692383,4172.307617,4300.897461,4244.615234,4168.205078,4167.692383,4190.384766,4157.692383,4155.769043,4157.948730,4634.743652,4476.794922,4420.769043,4583.205078,6170.000000,4.000000,82.000000,,,,0.000000,4.000000,4.000000,4.000000,4.000000,4.000000,4.000000,2.000000,4.000000,4.000000,4.000000,4.000000,4.000000,4.000000,4.000000,83.333336,,,,,,,,,,,,,,,,,,,,,,,,,,,,
1703405213.382914,1703405213.383838,88.000000,0.000000,4213.589844,4181.794922,4298.461426,4248.589844,4175.256348,4170.000000,4195.128418,4172.436035,4171.410156,4176.153809,4649.743652,4485.384766,4432.051270,4588.077148,6659.000000,4.000000,82.000000,,,,0.000000,4.000000,4.000000,4.000000,4.000000,4.000000,4.000000,2.000000,4.000000,4.000000,4.000000,4.000000,4.000000,4.000000,4.000000,83.333336,,,,,,,,,,,,,,,,,22.000000,0.000000,0.696177,-0.093323,-0.708679,-0.066345,1.009401,-0.067391,-0.025394,-14.090718,-39.283295,62.759377
1703405213.390722,1703405213.391746,89.000000,0.000000,4209.743652,4175.000000,4285.769043,4238.846191,4170.256348,4155.512695,4193.717773,4165.128418,4163.974121,4168.205078,4647.563965,4471.666504,4425.128418,4577.692383,6589.000000,4.000000,82.000000,,,,0.000000,4.000000,4.000000,4.000000,4.000000,4.000000,4.000000,2.000000,4.000000,4.000000,4.000000,4.000000,4.000000,4.000000,4.000000,83.333336,,,,,,,,,,,,,,,,,,,,,,,,,,,,
1703405213.398530,1703405213.399555,90.000000,0.000000,4199.102539,4169.358887,4281.025879,4240.256348,4166.794922,4161.282227,4192.436035,4158.333496,4155.000000,4157.692383,4629.102539,4461.153809,4408.846191,4567.563965,5915.000000,4.000000,82.000000,,,,0.000000,4.000000,4.000000,4.000000,4.000000,4.000000,4.000000,2.000000,4.000000,4.000000,4.000000,4.000000,4.000000,4.000000,4.000000,83.333336,,,,,,,,,,,,,,,,,,,,,,,,,,,,
1703405213.406338,1703405213.407363,91.000000,0.000000,4195.000000,4172.051270,4279.743652,4243.846191,4171.025879,4173.077148,4198.077148,4153.205078,4151.153809,4155.641113,4618.974121,4453.846191,4395.769043,4555.256348,6170.000000,4.000000,82.000000,,,,0.000000,4.000000,4.000000,4.000000,4.000000,4.000000,4.000000,2.000000,4.000000,4.000000,4.000000,4.000000,4.000000,4.000000,4.000000,83.333336,,,,,,,,,,,,,,,,,,,,,,,,,,,,
1703405213.414146,1703405213.415071,92.000000,0.000000,4190.769043,4171.153809,4271.153809,4235.641113,4170.897461,4161.025879,4196.410156,4141.282227,4141.922852,4145.384766,4606.666504,4440.897461,4386.538574,4542.820313,6659.000000,4.000000,82.000000,,,,0.000000,4.000000,4.000000,4.000000,4.000000,4.000000,4.000000,2.000000,4.000000,4.000000,4.000000,4.000000,4.000000,4.000000,4.000000,83.333336,,,,,,,,,,,,,,,,,23.000000,0.000000,0.696251,-0.093323,-0.708618,-0.066223,0.978147,-0.056648,-0.012697,-14.298313,-39.288300,62.733440
1703405213.421954,1703405213.422879,93.000000,0.000000,4190.128418,4168.846191,4273.077148,4232.692383,4169.871582,4156.153809,4190.897461,4142.307617,4140.384766,4142.563965,4603.205078,4442.051270,4390.897461,4548.461426,6589.000000,4.000000,82.000000,,,,0.000000,4.000000,4.000000,4.000000,4.000000,4.000000,4.000000,2.000000,4.000000,4.000000,4.000000,4.000000,4.000000,4.000000,4.000000,83.333336,,,,,,,,,,,,,,,,,,,,,,,,,,,,
1703405213.429762,1703405213.430587,94.000000,0.000000,4194.743652,4168.461426,4287.307617,4231.282227,4170.769043,4164.487305,4197.179688,4155.641113,4150.897461,4153.717773,4622.948730,4455.000000,4404.487305,4561.282227,5915.000000,4.000000,82.000000,,,,0.000000,4.000000,4.000000,4.000000,4.000000,4.000000,4.000000,2.000000,4.000000,4.000000,4.000000,4.000000,4.000000,4.000000,4.000000,83.333336,,,,,,,,,,,,,,,,,,,,,,,,,,,,
1703405213.437570,1703405213.438395,95.000000,0.000000,4203.461426,4177.563965,4297.692383,4240.384766,4175.256348,4162.179688,4203.333496,4158.077148,4156.410156,4165.641113,4643.461426,4469.102539,4415.256348,4570.000000,6170.000000,4.000000,82.000000,,,,0.000000,4.000000,4.000000,4.000000,4.000000,4.000000,4.000000,2.000000,4.000000,4.000000,4.000000,4.000000,4.000000,4.000000,4.000000,83.333336,,,,,,,,,,,,,,,,,,,,,,,,,,,,
1703405213.445378,1703405213.446103,96.000000,0.000000,4212.820313,4192.179688,4302.051270,4262.563965,4178.846191,4158.077148,4200.512695,4150.897461,4151.153809,4171.666504,4646.025879,4482.307617,4423.077148,4577.436035,6659.000000,4.000000,82.000000,,,,0.000000,4.000000,4.000000,4.000000,4.000000,4.000000,4.000000,2.000000,4.000000,4.000000,4.000000,4.000000,4.000000,4.000000,4.000000,83.333336,,,,,,,,,,,,,,,,,24.000000,0.000000,0.696276,-0.093689,-0.708557,-0.066101,1.001099,-0.055671,-0.020022,-14.301815,-39.126137,62.743431
1703405213.453186,1703405213.453911,97.000000,0.000000,4204.743652,4181.794922,4294.102539,4252.307617,4165.384766,4155.641113,4198.589844,4141.922852,4139.743652,4159.358887,4625.897461,4471.538574,4410.128418,4566.410156,6589.000000,4.000000,82.000000,,,,0.000000,4.000000,4.000000,4.000000,4.000000,4.000000,4.000000,2.000000,4.000000,4.000000,4.000000,4.000000,4.000000,4.000000,4.000000,83.333336,,,,,,,,,,,,,,,,,,,,,,,,,,,,
1703405213.460994,1703405213.461619,98.000000,0.000000,4182.307617,4160.897461,4281.922852,4226.153809,4156.282227,4154.358887,4204.743652,4135.128418,4132.051270,4140.512695,4605.512695,4451.794922,4388.333496,4548.717773,5915.000000,4.000000,82.000000,,,,0.000000,4.000000,4.000000,4.000000,4.000000,4.000000,4.000000,2.000000,4.000000,4.000000,4.000000,4.000000,4.000000,4.000000,4.000000,83.333336,,,,,,,,,,,,,,,,,,,,,,,,,,,,
1703405213.468802,1703405213.469427,99.000000,0.000000,4187.948730,4173.205078,4287.307617,4241.666504,4174.615234,4162.563965,4210.897461,4145.641113,4142.307617,4148.974121,4621.666504,4463.205078,4399.871582,4559.615234,6170.000000,4.000000,82.000000,,,,0.000000,4.000000,4.000000,4.000000,4.000000,4.000000,4.000000,2.000000,4.000000,4.000000,4.000000,4.000000,4.000000,4.000000,4.000000,83.333336,,,,,,,,,,,,,,,,,,,,,,,,,,,,
1703405213.476611,1703405213.477135,100.000000,0.000000,4207.820313,4187.179688,4294.871582,4251.025879,4182.948730,4163.333496,4207.179688,4156.538574,4153.333496,4163.974121,4640.000000,4475.512695,4415.512695,4571.025879,6659.000000,4.000000,82.000000,,,,0.000000,4.000000,4.000000,4.000000,4.000000,4.000000,4.000000,2.000000,4.000000,4.000000,4.000000,4.000000,4.000000,4.000000,4.000000,83.333336,,,,,,,,,,,,,,,,,25.000000,0.000000,0.696075,-0.093750,-0.708740,-0.066162,0.995727,-0.053229,-0.027347,-14.388301,-39.180191,62.635754
1703405213.484419,1703405213.484943,101.000000,0.000000,4200.000000,4173.846191,4287.051270,4229.102539,4165.256348,4153.333496,4203.333496,4150.128418,4150.256348,4157.179688,4620.128418,4462.179688,4399.102539,4556.794922,6589.000000,4.000000,82.000000,,,,0.000000,4.000000,4.000000,4.000000,4.000000,4.000000,4.000000,2.000000,4.000000,4.000000,4.000000,4.000000,4.000000,4.000000,4.000000,83.333336,,,,,,,,,,,,,,,,,,,,,,,,,,,,
1703405213.492226,1703405213.492651,102.000000,0.000000,4184.743652,4163.589844,4278.333496,4231.153809,4158.205078,4152.563965,4206.153809,4147.307617,4148.077148,4149.871582,4603.077148,4452.179688,4382.436035,4539.871582,5915.000000,4.000000,82.000000,,,,0.000000,4.000000,4.000000,4.000000,4.000000,4.000000,4.000000,2.000000,4.000000,4.000000,4.000000,4.000000,4.000000,4.000000,4.000000,83.333336,,,,,,,,,,,,,,,,,,,,,,,,,,,,
1703405213.500035,1703405213.500559,103.000000,0.000000,4184.743652,4170.256348,4281.025879,4250.641113,4170.641113,4158.717773,4207.820313,4152.563965,4147.436035,4153.717773,4618.717773,4456.153809,4385.384766,4542.820313,6170.000000,4.000000,82.000000,,,,0.000000,4.000000,4.000000,4.000000,4.000000,4.000000,4.000000,2.000000,4.000000,4.000000,4.000000,4.000000,4.000000,4.000000,4.000000,83.333336,,,,,,,,,,,,,,,,,,,,,,,,,,,,
1703405213.507843,1703405213.508367,104.000000,0.000000,4186.410156,4171.538574,4283.846191,4245.000000,4170.000000,4157.051270,4205.000000,4145.769043,4138.589844,4154.615234,4620.897461,4454.102539,4383.461426,4548.077148,6659.000000,4.000000,82.000000,,,,0.000000,4.000000,4.000000,4.000000,4.000000,4.000000,4.000000,2.000000,4.000000,4.000000,4.000000,4.000000,4.000000,4.000000,4.000000,83.333336,,,,,,,,,,,,,,,,,26.000000,0.000000,0.696030,-0.093750,-0.708801,-0.065979,0.988402,-0.048834,-0.019045,-14.449471,-39.095505,62.805511
1703405213.515651,1703405213.516275,105.000000,0.000000,4179.743652,4159.230957,4283.077148,4227.179688,4154.358887,4149.358887,4202.820313,4132.948730,4132.307617,4147.179688,4597.436035,4448.205078,4372.948730,4539.487305,6589.000000,4.000000,82.000000,,,,0.000000,4.000000,4.000000,4.000000,4.000000,4.000000,4.000000,2.000000,4.000000,4.000000,4.000000,4.000000,4.000000,4.000000,4.000000,83.333336,,,,,,,,,,,,,,,,,,,,,,,,,,,,
1703405213.523459,1703405213.524083,106.000000,0.000000,4181.666504,4159.487305,4292.307617,4231.025879,4155.000000,4150.128418,4206.538574,4146.666504,4145.128418,4146.666504,4605.384766,4461.666504,4379.358887,4546.282227,5915.000000,4.000000,82.000000,,,,0.000000,4.000000,4.000000,4.000000,4.000000,4.000000,4.000000,2.000000,4.000000,4.000000,4.000000,4.000000,4.000000,4.000000,4.000000,83.333336,,,,,,,,,,,,,,,,,,,,,,,,,,,,
1703405213.531267,1703405213.531991,107.000000,0.000000,4199.615234,4175.769043,4306.538574,4251.410156,4171.025879,4157.436035,4216.410156,4167.051270,4158.589844,4152.563965,4634.487305,4483.077148,4396.794922,4569.487305,6170.000000,4.000000,82.000000,,,,0.000000,4.000000,4.000000,4.000000,4.000000,4.000000,4.000000,2.000000,4.000000,4.000000,4.000000,4.000000,4.000000,4.000000,4.000000,83.333336,,,,,,,,,,,,,,,,,,,,,,,,,,,,
1703405213.539075,1703405213.539799,108.000000,0.000000,4204.743652,4179.871582,4304.230957,4253.077148,4172.948730,4158.333496,4218.846191,4167.692383,4156.666504,4158.077148,4631.922852,4482.948730,4400.769043,4569.871582,6659.000000,4.000000,82.000000,,,,0.000000,4.000000,4.000000,4.000000,4.000000,4.000000,4.000000,2.000000,4.000000,4.000000,4.000000,4.000000,4.000000,4.000000,4.000000,83.333336,,,,,,,,,,,,,,,,,27.000000,0.000000,0.696005,-0.093689,-0.708862,-0.065674,1.000610,-0.059578,-0.033207,-14.354524,-38.902622,62.974960
1703405213.546883,1703405213.547706,109.000000,0.000000,4189.358887,4167.820313,4288.846191,4232.692383,4163.589844,4158.717773,4213.717773,4161.922852,4153.205078,4165.512695,4619.487305,4469.615234,4395.256348,4552.563965,6589.000000,4.000000,82.000000,,,,0.000000,4.000000,4.000000,4.000000,4.000000,4.000000,4.000000,2.000000,4.000000,4.000000,4.000000,4.000000,4.000000,4.000000,4.000000,83.333336,,,,,,,,,,,,,,,,,,,,,,,,,,,,
