title:aya عطش, start timestamp:1702803680.077603, stop timestamp:1702803691.126035, headset type:EPOCX, headset serial:E50206EF, headset firmware:720, channels:67, sampling rate:eeg_128;mot_32, samples:1416      , version:2.2, 
Timestamp,OriginalTimestamp,EEG.Counter,EEG.Interpolated,EEG.AF3,EEG.F7,EEG.F3,EEG.FC5,EEG.T7,EEG.P7,EEG.O1,EEG.O2,EEG.P8,EEG.T8,EEG.FC6,EEG.F4,EEG.F8,EEG.AF4,EEG.RawCq,EEG.Battery,EEG.BatteryPercent,MarkerIndex,MarkerType,MarkerValueInt,EEG.MarkerHardware,CQ.AF3,CQ.F7,CQ.F3,CQ.FC5,CQ.T7,CQ.P7,CQ.O1,CQ.O2,CQ.P8,CQ.T8,CQ.FC6,CQ.F4,CQ.F8,CQ.AF4,CQ.Overall,EQ.SampleRateQuality,EQ.OVERALL,EQ.AF3,EQ.F7,EQ.F3,EQ.FC5,EQ.T7,EQ.P7,EQ.O1,EQ.O2,EQ.P8,EQ.T8,EQ.FC6,EQ.F4,EQ.F8,EQ.AF4,MOT.CounterMems,MOT.InterpolatedMems,MOT.Q0,MOT.Q1,MOT.Q2,MOT.Q3,MOT.AccX,MOT.AccY,MOT.AccZ,MOT.MagX,MOT.MagY,MOT.MagZ
1702803680.077603,1702803680.429150,70.000000,0.000000,4196.666504,4024.358887,4289.871582,4259.358887,4149.102539,4128.589844,4242.563965,4149.358887,4143.589844,4155.769043,4670.256348,4463.846191,4404.358887,4554.615234,1232.000000,3.000000,72.000000,,,,0.000000,4.000000,4.000000,4.000000,4.000000,4.000000,4.000000,2.000000,4.000000,4.000000,4.000000,4.000000,4.000000,4.000000,4.000000,83.333336,,,,,,,,,,,,,,,,,,,,,,,,,,,,
1702803680.085411,1702803680.437058,71.000000,0.000000,4187.179688,4020.384521,4275.897461,4234.743652,4142.948730,4126.410156,4237.563965,4126.282227,4126.794922,4147.051270,4658.589844,4447.820313,4389.871582,4544.102539,4903.000000,3.000000,72.000000,,,,0.000000,4.000000,4.000000,4.000000,4.000000,4.000000,4.000000,2.000000,4.000000,4.000000,4.000000,4.000000,4.000000,4.000000,4.000000,83.333336,,,,,,,,,,,,,,,,,,,,,,,,,,,,
1702803680.093220,1702803680.444866,72.000000,0.000000,4181.666504,4018.974365,4269.743652,4220.641113,4145.897461,4137.692383,4237.179688,4115.769043,4117.820313,4135.384766,4633.846191,4437.307617,4382.051270,4540.641113,5125.000000,3.000000,72.000000,,,,0.000000,4.000000,4.000000,4.000000,4.000000,4.000000,4.000000,2.000000,4.000000,4.000000,4.000000,4.000000,4.000000,4.000000,4.000000,83.333336,,,,,,,,,,,,,,,,,18.000000,0.000000,0.674738,0.174316,-0.695068,0.176697,0.990355,-0.014162,-0.028324,-8.352715,14.523749,94.351364
1702803680.101028,1702803680.452675,73.000000,0.000000,4190.384766,4026.666748,4283.717773,4246.153809,4154.743652,4149.615234,4242.692383,4134.487305,4131.794922,4147.692383,4648.461426,4452.436035,4397.948730,4553.846191,5203.000000,3.000000,72.000000,,,,0.000000,4.000000,4.000000,4.000000,4.000000,4.000000,4.000000,2.000000,4.000000,4.000000,4.000000,4.000000,4.000000,4.000000,4.000000,83.333336,,,,,,,,,,,,,,,,,,,,,,,,,,,,
1702803680.108836,1702803680.460383,74.000000,0.000000,4187.692383,4025.128174,4285.000000,4249.487305,4151.282227,4147.820313,4246.410156,4146.538574,4140.384766,4149.615234,4654.743652,4455.128418,4393.974121,4549.743652,5779.000000,3.000000,72.000000,,,,0.000000,4.000000,4.000000,4.000000,4.000000,4.000000,4.000000,2.000000,4.000000,4.000000,4.000000,4.000000,4.000000,4.000000,4.000000,83.333336,,,,,,,,,,,,,,,,,,,,,,,,,,,,
1702803680.116644,1702803680.468291,75.000000,0.000000,4172.436035,4012.179443,4267.948730,4216.794922,4138.077148,4143.717773,4246.153809,4141.538574,4137.563965,4131.153809,4629.871582,4437.179688,4372.307617,4531.794922,5850.000000,3.000000,72.000000,,,,0.000000,4.000000,4.000000,4.000000,4.000000,4.000000,4.000000,2.000000,4.000000,4.000000,4.000000,4.000000,4.000000,4.000000,4.000000,83.333336,,,,,,,,,,,,,,,,,,,,,,,,,,,,
1702803680.124452,1702803680.476099,76.000000,0.000000,4161.666504,3999.743652,4255.897461,4202.692383,4131.794922,4137.436035,4246.794922,4136.538574,4129.102539,4119.230957,4620.128418,4424.487305,4366.153809,4522.179688,6761.000000,3.000000,72.000000,,,,0.000000,4.000000,4.000000,4.000000,4.000000,4.000000,4.000000,2.000000,4.000000,4.000000,4.000000,4.000000,4.000000,4.000000,4.000000,83.333336,,,,,,,,,,,,,,,,,19.000000,0.000000,0.674722,0.174316,-0.695068,0.176758,0.999145,-0.018557,-0.035161,-8.450777,14.504708,94.416229
1702803680.132260,1702803680.484007,77.000000,0.000000,4164.871582,3997.820557,4262.436035,4219.615234,4131.794922,4132.692383,4249.358887,4140.641113,4123.717773,4117.948730,4625.641113,4431.794922,4363.589844,4518.461426,6920.000000,3.000000,72.000000,,,,0.000000,4.000000,4.000000,4.000000,4.000000,4.000000,4.000000,2.000000,4.000000,4.000000,4.000000,4.000000,4.000000,4.000000,4.000000,83.333336,,,,,,,,,,,,,,,,,,,,,,,,,,,,
1702803680.140068,1702803680.491815,78.000000,0.000000,4174.230957,4001.153809,4271.282227,4229.358887,4127.820313,4130.512695,4249.358887,4145.256348,4120.384766,4115.000000,4621.666504,4444.358887,4356.666504,4520.000000,5779.000000,3.000000,72.000000,,,,0.000000,4.000000,4.000000,4.000000,4.000000,4.000000,4.000000,2.000000,4.000000,4.000000,4.000000,4.000000,4.000000,4.000000,4.000000,83.333336,,,,,,,,,,,,,,,,,,,,,,,,,,,,
1702803680.147876,1702803680.499723,79.000000,0.000000,4186.922852,4009.102539,4276.922852,4226.282227,4124.615234,4126.794922,4245.897461,4147.307617,4120.897461,4123.846191,4635.128418,4454.487305,4380.256348,4538.077148,5850.000000,3.000000,72.000000,,,,0.000000,4.000000,4.000000,4.000000,4.000000,4.000000,4.000000,2.000000,4.000000,4.000000,4.000000,4.000000,4.000000,4.000000,4.000000,83.333336,,,,,,,,,,,,,,,,,,,,,,,,,,,,
1702803680.155684,1702803680.507532,80.000000,0.000000,4193.717773,4012.948730,4282.820313,4235.897461,4126.666504,4124.487305,4242.948730,4149.871582,4130.641113,4139.743652,4662.820313,4465.897461,4412.563965,4556.410156,6761.000000,3.000000,72.000000,,,,0.000000,4.000000,4.000000,4.000000,4.000000,4.000000,4.000000,2.000000,4.000000,4.000000,4.000000,4.000000,4.000000,4.000000,4.000000,83.333336,,,,,,,,,,,,,,,,,20.000000,0.000000,0.674754,0.174255,-0.695068,0.176697,0.989379,-0.017092,-0.024905,-8.455699,14.487571,94.424606
1702803680.163492,1702803680.515440,81.000000,0.000000,4186.922852,4004.743652,4281.794922,4225.256348,4130.897461,4125.384766,4239.487305,4144.102539,4135.769043,4136.666504,4657.051270,4466.153809,4407.563965,4550.384766,6920.000000,3.000000,72.000000,,,,0.000000,4.000000,4.000000,4.000000,4.000000,4.000000,4.000000,2.000000,4.000000,4.000000,4.000000,4.000000,4.000000,4.000000,4.000000,83.333336,,,,,,,,,,,,,,,,,,,,,,,,,,,,
1702803680.171300,1702803680.523248,82.000000,0.000000,4192.563965,4013.461426,4290.128418,4214.743652,4135.256348,4138.077148,4237.820313,4142.563965,4143.333496,4143.974121,4648.205078,4474.102539,4407.948730,4555.384766,5779.000000,3.000000,72.000000,,,,0.000000,4.000000,4.000000,4.000000,4.000000,4.000000,4.000000,2.000000,4.000000,4.000000,4.000000,4.000000,4.000000,4.000000,4.000000,83.333336,,,,,,,,,,,,,,,,,,,,,,,,,,,,
1702803680.179109,1702803680.530956,83.000000,0.000000,4199.743652,4024.615479,4296.282227,4240.641113,4136.282227,4141.794922,4239.230957,4147.179688,4151.538574,4162.307617,4662.948730,4484.358887,4418.974121,4565.641113,5850.000000,3.000000,72.000000,,,,0.000000,4.000000,4.000000,4.000000,4.000000,4.000000,4.000000,2.000000,4.000000,4.000000,4.000000,4.000000,4.000000,4.000000,4.000000,83.333336,,,,,,,,,,,,,,,,,,,,,,,,,,,,
1702803680.186916,1702803680.538864,84.000000,0.000000,4191.922852,4015.769287,4288.717773,4250.384766,4137.436035,4130.384766,4238.846191,4147.179688,4153.205078,4158.846191,4670.641113,4480.256348,4409.615234,4555.384766,6761.000000,3.000000,72.000000,,,,0.000000,4.000000,4.000000,4.000000,4.000000,4.000000,4.000000,2.000000,4.000000,4.000000,4.000000,4.000000,4.000000,4.000000,4.000000,83.333336,,,,,,,,,,,,,,,,,21.000000,0.000000,0.674675,0.174194,-0.695129,0.176819,0.992797,-0.016604,-0.026370,-8.426796,14.505480,94.498810
1702803680.194725,1702803680.546673,85.000000,0.000000,4185.128418,4008.846191,4282.051270,4226.282227,4134.743652,4132.436035,4244.743652,4147.051270,4153.717773,4143.333496,4658.846191,4470.384766,4400.128418,4545.897461,6920.000000,3.000000,72.000000,,,,0.000000,4.000000,4.000000,4.000000,4.000000,4.000000,4.000000,2.000000,4.000000,4.000000,4.000000,4.000000,4.000000,4.000000,4.000000,83.333336,,,,,,,,,,,,,,,,,,,,,,,,,,,,
1702803680.202533,1702803680.554581,86.000000,0.000000,4175.641113,4000.128174,4268.589844,4216.538574,4127.563965,4139.743652,4258.077148,4145.128418,4143.461426,4128.461426,4636.794922,4445.384766,4387.820313,4534.871582,5779.000000,3.000000,72.000000,,,,0.000000,4.000000,4.000000,4.000000,4.000000,4.000000,4.000000,2.000000,4.000000,4.000000,4.000000,4.000000,4.000000,4.000000,4.000000,83.333336,,,,,,,,,,,,,,,,,,,,,,,,,,,,
1702803680.210341,1702803680.562389,87.000000,0.000000,4168.717773,3991.153809,4258.589844,4220.128418,4127.948730,4144.358887,4263.333496,4144.871582,4130.384766,4125.000000,4622.692383,4433.333496,4376.794922,4528.333496,5850.000000,3.000000,72.000000,,,,0.000000,4.000000,4.000000,4.000000,4.000000,4.000000,4.000000,2.000000,4.000000,4.000000,4.000000,4.000000,4.000000,4.000000,4.000000,83.333336,,,,,,,,,,,,,,,,,,,,,,,,,,,,
1702803680.218149,1702803680.570297,88.000000,0.000000,4166.922852,3990.384521,4258.589844,4201.153809,4125.384766,4141.666504,4259.871582,4140.256348,4120.897461,4124.743652,4615.512695,4436.282227,4377.051270,4523.461426,6761.000000,3.000000,72.000000,,,,0.000000,4.000000,4.000000,4.000000,4.000000,4.000000,4.000000,2.000000,4.000000,4.000000,4.000000,4.000000,4.000000,4.000000,4.000000,83.333336,,,,,,,,,,,,,,,,,22.000000,0.000000,0.674691,0.174133,-0.695129,0.176819,0.980100,-0.021975,-0.023929,-8.450783,14.604932,94.348930
1702803680.225957,1702803680.578105,89.000000,0.000000,4170.512695,3994.743652,4261.153809,4200.512695,4119.230957,4124.230957,4256.410156,4131.794922,4115.128418,4124.358887,4617.179688,4431.794922,4379.102539,4518.461426,6920.000000,3.000000,72.000000,,,,0.000000,4.000000,4.000000,4.000000,4.000000,4.000000,4.000000,2.000000,4.000000,4.000000,4.000000,4.000000,4.000000,4.000000,4.000000,83.333336,,,,,,,,,,,,,,,,,,,,,,,,,,,,
1702803680.233765,1702803680.585913,90.000000,0.000000,4183.717773,4004.102539,4274.230957,4240.512695,4121.282227,4113.205078,4253.717773,4136.153809,4122.307617,4136.410156,4646.410156,4442.692383,4390.256348,4539.358887,5779.000000,3.000000,72.000000,,,,0.000000,4.000000,4.000000,4.000000,4.000000,4.000000,4.000000,2.000000,4.000000,4.000000,4.000000,4.000000,4.000000,4.000000,4.000000,83.333336,1.000000,66.666664,4.000000,3.000000,4.000000,3.000000,4.000000,4.000000,2.000000,4.000000,4.000000,4.000000,4.000000,4.000000,4.000000,4.000000,,,,,,,,,,,,
1702803680.241573,1702803680.593622,91.000000,0.000000,4187.436035,4003.076904,4283.589844,4243.333496,4123.333496,4117.820313,4250.897461,4142.820313,4128.077148,4141.410156,4652.563965,4459.230957,4398.846191,4557.051270,5850.000000,3.000000,72.000000,,,,0.000000,4.000000,4.000000,4.000000,4.000000,4.000000,4.000000,2.000000,4.000000,4.000000,4.000000,4.000000,4.000000,4.000000,4.000000,83.333336,,,,,,,,,,,,,,,,,,,,,,,,,,,,
1702803680.249381,1702803680.601430,92.000000,0.000000,4185.128418,4000.256348,4282.820313,4223.589844,4126.153809,4130.641113,4249.743652,4144.230957,4131.153809,4144.615234,4635.000000,4462.179688,4402.051270,4554.615234,6761.000000,3.000000,72.000000,,,,0.000000,4.000000,4.000000,4.000000,4.000000,4.000000,4.000000,2.000000,4.000000,4.000000,4.000000,4.000000,4.000000,4.000000,4.000000,83.333336,,,,,,,,,,,,,,,,,23.000000,0.000000,0.674596,0.174133,-0.695190,0.176941,1.006471,-0.018069,-0.030765,-8.472371,14.561106,94.347366
1702803680.257189,1702803680.609138,93.000000,0.000000,4188.846191,4007.307617,4280.512695,4234.102539,4130.256348,4136.410156,4248.589844,4140.128418,4132.436035,4152.948730,4647.692383,4457.307617,4406.666504,4551.922852,6920.000000,3.000000,72.000000,,,,0.000000,4.000000,4.000000,4.000000,4.000000,4.000000,4.000000,2.000000,4.000000,4.000000,4.000000,4.000000,4.000000,4.000000,4.000000,83.333336,,,,,,,,,,,,,,,,,,,,,,,,,,,,
1702803680.264997,1702803680.616946,94.000000,0.000000,4187.179688,4009.358887,4274.871582,4226.410156,4129.743652,4132.051270,4246.666504,4131.794922,4131.153809,4150.000000,4663.846191,4453.333496,4410.000000,4552.179688,5779.000000,3.000000,72.000000,,,,0.000000,4.000000,4.000000,4.000000,4.000000,4.000000,4.000000,2.000000,4.000000,4.000000,4.000000,4.000000,4.000000,4.000000,4.000000,83.333336,,,,,,,,,,,,,,,,,,,,,,,,,,,,
1702803680.272805,1702803680.624654,95.000000,0.000000,4186.666504,4006.281982,4278.333496,4209.230957,4129.358887,4130.769043,4246.410156,4139.230957,4144.230957,4156.922852,4667.820313,4463.205078,4417.436035,4559.358887,5850.000000,3.000000,72.000000,,,,0.000000,4.000000,4.000000,4.000000,4.000000,4.000000,4.000000,2.000000,4.000000,4.000000,4.000000,4.000000,4.000000,4.000000,4.000000,83.333336,,,,,,,,,,,,,,,,,,,,,,,,,,,,
1702803680.280614,1702803680.632462,96.000000,0.000000,4192.563965,4005.769287,4289.615234,4233.717773,4131.666504,4130.769043,4247.948730,4157.436035,4162.179688,4169.230957,4669.743652,4474.358887,4417.820313,4566.410156,6761.000000,3.000000,72.000000,,,,0.000000,4.000000,4.000000,4.000000,4.000000,4.000000,4.000000,2.000000,4.000000,4.000000,4.000000,4.000000,4.000000,4.000000,4.000000,83.333336,,,,,,,,,,,,,,,,,24.000000,0.000000,0.674485,0.174133,-0.695251,0.177124,0.995239,-0.022952,-0.020510,-8.425134,14.621661,94.362633
1702803680.288422,1702803680.640170,97.000000,0.000000,4188.333496,4002.692383,4283.846191,4245.384766,4129.615234,4131.025879,4249.102539,4160.897461,4158.205078,4150.641113,4653.846191,4463.717773,4398.846191,4556.538574,6920.000000,3.000000,72.000000,,,,0.000000,4.000000,4.000000,4.000000,4.000000,4.000000,4.000000,2.000000,4.000000,4.000000,4.000000,4.000000,4.000000,4.000000,4.000000,83.333336,,,,,,,,,,,,,,,,,,,,,,,,,,,,
1702803680.296230,1702803680.648078,98.000000,0.000000,4172.307617,3993.076904,4264.871582,4222.179688,4124.615234,4133.461426,4250.769043,4145.256348,4133.974121,4120.512695,4631.538574,4437.563965,4380.512695,4530.641113,5779.000000,3.000000,72.000000,,,,0.000000,4.000000,4.000000,4.000000,4.000000,4.000000,4.000000,2.000000,4.000000,4.000000,4.000000,4.000000,4.000000,4.000000,4.000000,83.333336,,,,,,,,,,,,,,,,,,,,,,,,,,,,
1702803680.304038,1702803680.655886,99.000000,0.000000,4165.769043,3984.102539,4258.846191,4210.641113,4122.948730,4136.025879,4253.461426,4130.384766,4111.666504,4115.512695,4626.025879,4425.641113,4376.794922,4516.282227,5850.000000,3.000000,72.000000,,,,0.000000,4.000000,4.000000,4.000000,4.000000,4.000000,4.000000,2.000000,4.000000,4.000000,4.000000,4.000000,4.000000,4.000000,4.000000,83.333336,,,,,,,,,,,,,,,,,,,,,,,,,,,,
1702803680.311846,1702803680.663794,100.000000,0.000000,4173.846191,3986.923096,4266.153809,4221.666504,4123.333496,4137.179688,4255.000000,4130.128418,4107.307617,4121.922852,4629.743652,4434.487305,4381.153809,4525.641113,6761.000000,3.000000,72.000000,,,,0.000000,4.000000,4.000000,4.000000,4.000000,4.000000,4.000000,2.000000,4.000000,4.000000,4.000000,4.000000,4.000000,4.000000,4.000000,83.333336,,,,,,,,,,,,,,,,,25.000000,0.000000,0.674580,0.174072,-0.695190,0.177063,0.990355,-0.009278,-0.027347,-8.315954,14.576162,94.359703
1702803680.319654,1702803680.671602,101.000000,0.000000,4178.461426,3993.974365,4268.974121,4217.820313,4124.743652,4134.102539,4253.717773,4133.461426,4116.153809,4119.487305,4624.743652,4441.410156,4382.820313,4532.051270,6920.000000,3.000000,72.000000,,,,0.000000,4.000000,4.000000,4.000000,4.000000,4.000000,4.000000,2.000000,4.000000,4.000000,4.000000,4.000000,4.000000,4.000000,4.000000,83.333336,,,,,,,,,,,,,,,,,,,,,,,,,,,,
1702803680.327462,1702803680.679510,102.000000,0.000000,4182.307617,3998.333252,4275.384766,4208.717773,4126.538574,4130.128418,4250.000000,4136.538574,4127.051270,4126.410156,4632.307617,4447.307617,4390.897461,4534.871582,5779.000000,3.000000,72.000000,,,,0.000000,4.000000,4.000000,4.000000,4.000000,4.000000,4.000000,2.000000,4.000000,4.000000,4.000000,4.000000,4.000000,4.000000,4.000000,83.333336,,,,,,,,,,,,,,,,,,,,,,,,,,,,
1702803680.335270,1702803680.687319,103.000000,0.000000,4190.641113,4008.076904,4287.820313,4230.000000,4126.410156,4129.102539,4247.948730,4143.974121,4130.641113,4145.128418,4656.538574,4460.000000,4410.256348,4546.538574,5850.000000,3.000000,72.000000,,,,0.000000,4.000000,4.000000,4.000000,4.000000,4.000000,4.000000,2.000000,4.000000,4.000000,4.000000,4.000000,4.000000,4.000000,4.000000,83.333336,,,,,,,,,,,,,,,,,,,,,,,,,,,,
1702803680.343078,1702803680.695227,104.000000,0.000000,4194.102539,4016.538574,4292.820313,4256.410156,4128.974121,4126.922852,4246.538574,4146.410156,4124.743652,4149.743652,4670.641113,4465.384766,4417.948730,4553.846191,6761.000000,3.000000,72.000000,,,,0.000000,4.000000,4.000000,4.000000,4.000000,4.000000,4.000000,2.000000,4.000000,4.000000,4.000000,4.000000,4.000000,4.000000,4.000000,83.333336,,,,,,,,,,,,,,,,,26.000000,0.000000,0.674643,0.174133,-0.695129,0.177002,0.973752,-0.016115,-0.025882,-8.267692,14.585213,94.273735
1702803680.350886,1702803680.703035,105.000000,0.000000,4193.461426,4015.641113,4291.025879,4252.179688,4132.307617,4124.102539,4245.384766,4145.512695,4127.948730,4144.487305,4657.820313,4465.769043,4412.692383,4554.358887,6920.000000,3.000000,72.000000,,,,0.000000,4.000000,4.000000,4.000000,4.000000,4.000000,4.000000,2.000000,4.000000,4.000000,4.000000,4.000000,4.000000,4.000000,4.000000,83.333336,,,,,,,,,,,,,,,,,,,,,,,,,,,,
1702803680.358694,1702803680.710743,106.000000,0.000000,4192.820313,4015.128174,4289.230957,4237.436035,4132.051270,4124.871582,4244.487305,4151.794922,4149.487305,4153.077148,4644.230957,4472.051270,4418.846191,4559.358887,5779.000000,3.000000,72.000000,,,,0.000000,4.000000,4.000000,4.000000,4.000000,4.000000,4.000000,2.000000,4.000000,4.000000,4.000000,4.000000,4.000000,4.000000,4.000000,83.333336,,,,,,,,,,,,,,,,,,,,,,,,,,,,
1702803680.366502,1702803680.718551,107.000000,0.000000,4195.000000,4021.025635,4286.794922,4245.384766,4134.358887,4133.589844,4243.846191,4155.641113,4165.641113,4163.717773,4663.077148,4475.641113,4427.563965,4565.000000,5850.000000,3.000000,72.000000,,,,0.000000,4.000000,4.000000,4.000000,4.000000,4.000000,4.000000,2.000000,4.000000,4.000000,4.000000,4.000000,4.000000,4.000000,4.000000,83.333336,,,,,,,,,,,,,,,,,,,,,,,,,,,,
1702803680.374310,1702803680.726260,108.000000,0.000000,4190.000000,4014.615479,4276.025879,4240.128418,4131.538574,4141.410156,4246.282227,4146.922852,4154.358887,4148.717773,4664.230957,4459.230957,4408.717773,4551.794922,6761.000000,3.000000,72.000000,,,,0.000000,4.000000,4.000000,4.000000,4.000000,4.000000,4.000000,2.000000,4.000000,4.000000,4.000000,4.000000,4.000000,4.000000,4.000000,83.333336,,,,,,,,,,,,,,,,,27.000000,0.000000,0.674659,0.174194,-0.695129,0.176880,0.989867,-0.018069,-0.030277,-8.290923,14.610024,94.429695
1702803680.382119,1702803680.734068,109.000000,0.000000,4176.794922,3995.384521,4262.692383,4224.102539,4121.922852,4137.436035,4250.512695,4136.282227,4127.179688,4121.410156,4622.948730,4429.487305,4378.461426,4526.025879,6920.000000,3.000000,72.000000,,,,0.000000,4.000000,4.000000,4.000000,4.000000,4.000000,4.000000,2.000000,4.000000,4.000000,4.000000,4.000000,4.000000,4.000000,4.000000,83.333336,,,,,,,,,,,,,,,,,,,,,,,,,,,,
1702803680.389927,1702803680.741776,110.000000,0.000000,4175.384766,3991.538574,4262.179688,4225.641113,4116.666504,4130.897461,4253.717773,4133.974121,4107.307617,4112.051270,4604.358887,4424.871582,4375.769043,4519.487305,5779.000000,3.000000,72.000000,,,,0.000000,4.000000,4.000000,4.000000,4.000000,4.000000,4.000000,2.000000,4.000000,4.000000,4.000000,4.000000,4.000000,4.000000,4.000000,83.333336,,,,,,,,,,,,,,,,,,,,,,,,,,,,
1702803680.397735,1702803680.749584,111.000000,0.000000,4181.922852,3993.718018,4267.948730,4209.230957,4113.974121,4126.410156,4253.461426,4135.000000,4095.641113,4117.051270,4610.384766,4440.128418,4383.461426,4531.282227,5850.000000,3.000000,72.000000,,,,0.000000,4.000000,4.000000,4.000000,4.000000,4.000000,4.000000,2.000000,4.000000,4.000000,4.000000,4.000000,4.000000,4.000000,4.000000,83.333336,,,,,,,,,,,,,,,,,,,,,,,,,,,,
1702803680.405543,1702803680.757292,112.000000,0.000000,4183.717773,3986.794922,4267.820313,4208.461426,4114.487305,4125.000000,4250.128418,4133.333496,4089.487061,4118.205078,4606.922852,4443.077148,4380.256348,4537.436035,6761.000000,3.000000,72.000000,,,,0.000000,4.000000,4.000000,4.000000,4.000000,4.000000,4.000000,2.000000,4.000000,4.000000,4.000000,4.000000,4.000000,4.000000,4.000000,83.333336,,,,,,,,,,,,,,,,,28.000000,0.000000,0.674723,0.174438,-0.695068,0.176636,0.983518,-0.019045,-0.030765,-8.178497,14.715689,94.436722
1702803680.413351,1702803680.765100,113.000000,0.000000,4182.563965,3986.923096,4264.615234,4233.974121,4120.897461,4130.897461,4248.461426,4126.282227,4095.512939,4118.077148,4614.615234,4435.128418,4380.512695,4533.205078,6920.000000,3.000000,72.000000,,,,0.000000,4.000000,4.000000,4.000000,4.000000,4.000000,4.000000,2.000000,4.000000,4.000000,4.000000,4.000000,4.000000,4.000000,4.000000,83.333336,,,,,,,,,,,,,,,,,,,,,,,,,,,,
1702803680.421159,1702803680.772808,114.000000,0.000000,4181.538574,3994.358887,4262.436035,4233.589844,4125.128418,4133.461426,4246.794922,4117.436035,4108.974121,4122.820313,4629.487305,4428.589844,4385.128418,4528.974121,5779.000000,3.000000,72.000000,,,,0.000000,4.000000,4.000000,4.000000,4.000000,4.000000,4.000000,2.000000,4.000000,4.000000,4.000000,4.000000,4.000000,4.000000,4.000000,83.333336,,,,,,,,,,,,,,,,,,,,,,,,,,,,
1702803680.428967,1702803680.780616,115.000000,0.000000,4187.436035,4001.410156,4269.615234,4227.436035,4125.000000,4130.128418,4244.615234,4123.974121,4130.000000,4137.436035,4633.461426,4438.717773,4395.897461,4541.282227,5850.000000,3.000000,72.000000,,,,0.000000,4.000000,4.000000,4.000000,4.000000,4.000000,4.000000,2.000000,4.000000,4.000000,4.000000,4.000000,4.000000,4.000000,4.000000,83.333336,,,,,,,,,,,,,,,,,,,,,,,,,,,,
1702803680.436775,1702803680.788324,116.000000,0.000000,4199.871582,4006.794922,4287.179688,4242.051270,4124.615234,4127.948730,4245.128418,4150.897461,4156.794922,4156.410156,4656.666504,4466.922852,4417.563965,4562.948730,6761.000000,3.000000,72.000000,,,,0.000000,4.000000,4.000000,4.000000,4.000000,4.000000,4.000000,2.000000,4.000000,4.000000,4.000000,4.000000,4.000000,4.000000,4.000000,83.333336,,,,,,,,,,,,,,,,,29.000000,0.000000,0.674849,0.174561,-0.694946,0.176514,1.000610,-0.015139,-0.031742,-8.060647,14.827454,94.593048
1702803680.444583,1702803680.796132,117.000000,0.000000,4203.333496,4009.358887,4297.179688,4247.692383,4124.230957,4123.205078,4247.563965,4169.615234,4169.871582,4162.436035,4681.538574,4487.179688,4428.717773,4571.282227,6920.000000,3.000000,72.000000,,,,0.000000,4.000000,4.000000,4.000000,4.000000,4.000000,4.000000,2.000000,4.000000,4.000000,4.000000,4.000000,4.000000,4.000000,4.000000,83.333336,,,,,,,,,,,,,,,,,,,,,,,,,,,,
1702803680.452391,1702803680.803840,118.000000,0.000000,4193.461426,4004.615479,4289.615234,4241.922852,4121.666504,4116.666504,4246.538574,4161.025879,4155.897461,4151.410156,4666.282227,4476.538574,4414.487305,4561.153809,5779.000000,3.000000,72.000000,,,,0.000000,4.000000,4.000000,4.000000,4.000000,4.000000,4.000000,2.000000,4.000000,4.000000,4.000000,4.000000,4.000000,4.000000,4.000000,83.333336,,,,,,,,,,,,,,,,,,,,,,,,,,,,
1702803680.460199,1702803680.811648,119.000000,0.000000,4178.974121,3991.923096,4274.230957,4223.717773,4118.205078,4121.538574,4246.025879,4146.282227,4131.025879,4133.717773,4635.256348,4447.948730,4392.820313,4541.282227,5850.000000,3.000000,72.000000,,,,0.000000,4.000000,4.000000,4.000000,4.000000,4.000000,4.000000,2.000000,4.000000,4.000000,4.000000,4.000000,4.000000,4.000000,4.000000,83.333336,,,,,,,,,,,,,,,,,,,,,,,,,,,,
1702803680.468007,1702803680.819356,120.000000,0.000000,4173.205078,3983.461426,4267.820313,4204.102539,4120.769043,4136.410156,4248.717773,4149.743652,4122.436035,4127.820313,4623.974121,4436.153809,4386.153809,4529.743652,6761.000000,3.000000,72.000000,,,,0.000000,4.000000,4.000000,4.000000,4.000000,4.000000,4.000000,2.000000,4.000000,4.000000,4.000000,4.000000,4.000000,4.000000,4.000000,83.333336,,,,,,,,,,,,,,,,,30.000000,0.000000,0.674927,0.174622,-0.694824,0.176636,0.988402,-0.008790,-0.028324,-8.004582,14.778041,94.550415
1702803680.475815,1702803680.827264,121.000000,0.000000,4179.230957,3988.076904,4271.153809,4224.615234,4129.230957,4142.820313,4249.230957,4153.589844,4125.256348,4132.563965,4633.974121,4439.871582,4388.974121,4532.692383,6920.000000,3.000000,72.000000,,,,0.000000,4.000000,4.000000,4.000000,4.000000,4.000000,4.000000,2.000000,4.000000,4.000000,4.000000,4.000000,4.000000,4.000000,4.000000,83.333336,,,,,,,,,,,,,,,,,,,,,,,,,,,,
1702803680.483624,1702803680.835073,122.000000,0.000000,4185.512695,3998.718018,4273.974121,4250.641113,4133.974121,4138.846191,4249.102539,4140.897461,4123.461426,4135.769043,4644.871582,4439.102539,4394.487305,4536.410156,5779.000000,3.000000,72.000000,,,,0.000000,4.000000,4.000000,4.000000,4.000000,4.000000,4.000000,2.000000,4.000000,4.000000,4.000000,4.000000,4.000000,4.000000,4.000000,83.333336,,,,,,,,,,,,,,,,,,,,,,,,,,,,
1702803680.491432,1702803680.842981,123.000000,0.000000,4185.384766,4003.974365,4275.641113,4241.538574,4132.307617,4131.538574,4247.436035,4122.563965,4116.282227,4135.384766,4637.436035,4432.820313,4396.922852,4533.333496,5850.000000,3.000000,72.000000,,,,0.000000,4.000000,4.000000,4.000000,4.000000,4.000000,4.000000,2.000000,4.000000,4.000000,4.000000,4.000000,4.000000,4.000000,4.000000,83.333336,,,,,,,,,,,,,,,,,,,,,,,,,,,,
1702803680.499240,1702803680.850789,124.000000,0.000000,4190.256348,4007.564209,4281.538574,4233.077148,4132.948730,4124.102539,4241.794922,4109.871582,4107.948730,4135.512695,4632.692383,4437.820313,4400.384766,4536.794922,6761.000000,3.000000,72.000000,,,,0.000000,4.000000,4.000000,4.000000,4.000000,4.000000,4.000000,2.000000,4.000000,4.000000,4.000000,4.000000,4.000000,4.000000,4.000000,83.333336,,,,,,,,,,,,,,,,,31.000000,0.000000,0.674912,0.174683,-0.694885,0.176392,0.993285,-0.010743,-0.029300,-7.954124,14.866904,94.595375
1702803680.507048,1702803680.858697,125.000000,0.000000,4199.487305,4012.179443,4289.871582,4241.410156,4134.871582,4122.436035,4241.410156,4111.922852,4108.333496,4143.974121,4640.256348,4454.102539,4410.512695,4550.128418,6920.000000,3.000000,72.000000,,,,0.000000,4.000000,4.000000,4.000000,4.000000,4.000000,4.000000,2.000000,4.000000,4.000000,4.000000,4.000000,4.000000,4.000000,4.000000,83.333336,,,,,,,,,,,,,,,,,,,,,,,,,,,,
1702803680.514856,1702803680.866505,126.000000,0.000000,4201.025879,4016.281982,4292.820313,4252.563965,4135.641113,4124.871582,4245.897461,4130.641113,4125.769043,4153.461426,4648.846191,4465.512695,4417.179688,4558.846191,5779.000000,3.000000,72.000000,,,,0.000000,4.000000,4.000000,4.000000,4.000000,4.000000,4.000000,2.000000,4.000000,4.000000,4.000000,4.000000,4.000000,4.000000,4.000000,83.333336,,,,,,,,,,,,,,,,,,,,,,,,,,,,
1702803680.522664,1702803680.874413,127.000000,0.000000,4201.538574,4026.666748,4292.948730,4243.461426,4138.717773,4130.384766,4246.666504,4149.871582,4151.922852,4158.077148,4672.179688,4471.666504,4423.717773,4561.922852,72.000000,3.000000,72.000000,,,,0.000000,4.000000,4.000000,4.000000,4.000000,4.000000,4.000000,2.000000,4.000000,4.000000,4.000000,4.000000,4.000000,4.000000,4.000000,83.333336,,,,,,,,,,,,,,,,,,,,,,,,,,,,
1702803680.530472,1702803680.882222,0.000000,0.000000,4202.692383,4026.923096,4291.025879,4226.922852,4140.128418,4132.051270,4245.000000,4157.820313,4165.384766,4159.102539,4686.794922,4469.230957,4428.333496,4559.487305,5210.000000,3.000000,72.000000,,,,0.000000,4.000000,4.000000,4.000000,4.000000,4.000000,4.000000,2.000000,4.000000,4.000000,4.000000,4.000000,4.000000,4.000000,4.000000,83.333336,,,,,,,,,,,,,,,,,0.000000,0.000000,0.674991,0.174744,-0.694824,0.176270,0.989379,0.000488,-0.029789,-7.975379,14.930213,94.685837
1702803680.538280,1702803680.890130,1.000000,0.000000,4196.794922,4013.461426,4284.230957,4242.692383,4141.538574,4129.743652,4243.461426,4162.051270,4164.230957,4158.589844,4672.820313,4462.948730,4421.922852,4554.230957,5394.000000,3.000000,72.000000,,,,0.000000,4.000000,4.000000,4.000000,4.000000,4.000000,4.000000,2.000000,4.000000,4.000000,4.000000,4.000000,4.000000,4.000000,4.000000,83.333336,,,,,,,,,,,,,,,,,,,,,,,,,,,,
1702803680.546088,1702803680.897938,2.000000,0.000000,4187.307617,4010.128174,4277.692383,4261.282227,4144.358887,4133.717773,4242.948730,4159.358887,4153.717773,4155.000000,4656.666504,4459.487305,4411.025879,4550.128418,4747.000000,3.000000,72.000000,,,,0.000000,4.000000,4.000000,4.000000,4.000000,4.000000,4.000000,2.000000,4.000000,4.000000,4.000000,4.000000,4.000000,4.000000,4.000000,83.333336,,,,,,,,,,,,,,,,,,,,,,,,,,,,
1702803680.553896,1702803680.905646,3.000000,0.000000,4179.358887,4007.948730,4272.820313,4238.205078,4139.871582,4134.743652,4246.794922,4141.922852,4130.256348,4138.589844,4640.769043,4446.025879,4399.615234,4538.077148,5232.000000,3.000000,72.000000,,,,0.000000,4.000000,4.000000,4.000000,4.000000,4.000000,4.000000,2.000000,4.000000,4.000000,4.000000,4.000000,4.000000,4.000000,4.000000,83.333336,,,,,,,,,,,,,,,,,,,,,,,,,,,,
1702803680.561704,1702803680.913454,4.000000,0.000000,4178.205078,3999.230713,4268.974121,4223.717773,4133.589844,4133.589844,4251.922852,4133.333496,4109.102539,4121.794922,4624.230957,4431.922852,4388.846191,4524.358887,5103.000000,3.000000,72.000000,,,,0.000000,4.000000,4.000000,4.000000,4.000000,4.000000,4.000000,2.000000,4.000000,4.000000,4.000000,4.000000,4.000000,4.000000,4.000000,83.333336,,,,,,,,,,,,,,,,,1.000000,0.000000,0.675039,0.174927,-0.694824,0.175903,0.995239,-0.014162,-0.021975,-7.894507,14.920526,94.667252
1702803680.569512,1702803680.921163,5.000000,0.000000,4179.487305,3995.897461,4271.025879,4228.846191,4130.000000,4135.128418,4252.307617,4134.871582,4096.538574,4114.358887,4618.589844,4429.102539,4379.615234,4519.230957,5091.000000,3.000000,72.000000,,,,0.000000,4.000000,4.000000,4.000000,4.000000,4.000000,4.000000,2.000000,4.000000,4.000000,4.000000,4.000000,4.000000,4.000000,4.000000,83.333336,,,,,,,,,,,,,,,,,,,,,,,,,,,,
1702803680.577320,1702803680.928971,6.000000,0.000000,4180.512695,3995.384521,4275.512695,4224.358887,4125.641113,4130.128418,4248.205078,4121.282227,4086.025635,4109.358887,4615.641113,4427.948730,4372.307617,4518.589844,1230.000000,3.000000,72.000000,,,,0.000000,4.000000,4.000000,4.000000,4.000000,4.000000,4.000000,2.000000,4.000000,4.000000,4.000000,4.000000,4.000000,4.000000,4.000000,83.333336,,,,,,,,,,,,,,,,,,,,,,,,,,,,
1702803680.585129,1702803680.936679,7.000000,0.000000,4186.282227,3995.384521,4278.333496,4230.769043,4123.974121,4123.974121,4246.025879,4106.025879,4085.384521,4111.025879,4616.922852,4429.743652,4375.000000,4523.205078,4903.000000,3.000000,72.000000,,,,0.000000,4.000000,4.000000,4.000000,4.000000,4.000000,4.000000,2.000000,4.000000,4.000000,4.000000,4.000000,4.000000,4.000000,4.000000,83.333336,,,,,,,,,,,,,,,,,,,,,,,,,,,,
1702803680.592937,1702803680.944487,8.000000,0.000000,4190.512695,3998.461426,4281.025879,4225.769043,4124.230957,4122.820313,4244.230957,4107.051270,4098.205078,4121.538574,4622.692383,4437.692383,4383.846191,4532.436035,5141.000000,3.000000,72.000000,,,,0.000000,4.000000,4.000000,4.000000,4.000000,4.000000,4.000000,2.000000,4.000000,4.000000,4.000000,4.000000,4.000000,4.000000,4.000000,83.333336,,,,,,,,,,,,,,,,,2.000000,0.000000,0.675118,0.175232,-0.694763,0.175537,0.992797,-0.005372,-0.030765,-7.921723,15.011806,94.633858
1702803680.600745,1702803680.952195,9.000000,0.000000,4192.563965,4001.025635,4285.128418,4219.230957,4122.563965,4120.000000,4240.384766,4114.230957,4114.358887,4132.563965,4626.666504,4443.974121,4386.794922,4537.051270,5235.000000,3.000000,72.000000,,,,0.000000,4.000000,4.000000,4.000000,4.000000,4.000000,4.000000,2.000000,4.000000,4.000000,4.000000,4.000000,4.000000,4.000000,4.000000,83.333336,,,,,,,,,,,,,,,,,,,,,,,,,,,,
1702803680.608553,1702803680.960003,10.000000,0.000000,4192.436035,3999.743652,4285.256348,4246.410156,4122.436035,4114.230957,4239.487305,4122.436035,4127.948730,4135.128418,4638.333496,4443.974121,4388.077148,4537.692383,5808.000000,3.000000,72.000000,,,,0.000000,4.000000,4.000000,4.000000,4.000000,4.000000,4.000000,2.000000,4.000000,4.000000,4.000000,4.000000,4.000000,4.000000,4.000000,83.333336,,,,,,,,,,,,,,,,,,,,,,,,,,,,
1702803680.616361,1702803680.967711,11.000000,0.000000,4187.051270,4000.641113,4276.410156,4252.563965,4127.307617,4114.615234,4242.692383,4136.282227,4139.102539,4133.846191,4641.794922,4444.102539,4393.461426,4540.256348,5860.000000,3.000000,72.000000,,,,0.000000,4.000000,4.000000,4.000000,4.000000,4.000000,4.000000,2.000000,4.000000,4.000000,4.000000,4.000000,4.000000,4.000000,4.000000,83.333336,,,,,,,,,,,,,,,,,,,,,,,,,,,,
1702803680.624169,1702803680.975519,12.000000,0.000000,4183.333496,4002.307617,4271.025879,4230.256348,4132.051270,4122.820313,4242.820313,4150.256348,4143.333496,4136.025879,4634.358887,4448.846191,4396.666504,4541.282227,6815.000000,3.000000,72.000000,,,,0.000000,4.000000,4.000000,4.000000,4.000000,4.000000,4.000000,2.000000,4.000000,4.000000,4.000000,4.000000,4.000000,4.000000,4.000000,83.333336,,,,,,,,,,,,,,,,,3.000000,0.000000,0.675102,0.175598,-0.694763,0.175232,0.996215,-0.002442,-0.029300,-7.996218,14.977292,94.553810
1702803680.631977,1702803680.983227,13.000000,0.000000,4177.307617,3994.871826,4269.487305,4223.974121,4130.512695,4126.666504,4241.410156,4148.717773,4130.769043,4131.922852,4634.358887,4443.846191,4387.563965,4533.333496,6932.000000,3.000000,72.000000,,,,0.000000,4.000000,4.000000,4.000000,4.000000,4.000000,4.000000,2.000000,4.000000,4.000000,4.000000,4.000000,4.000000,4.000000,4.000000,83.333336,,,,,,,,,,,,,,,,,,,,,,,,,,,,
1702803680.639785,1702803680.991135,14.000000,0.000000,4172.307617,3992.820557,4270.000000,4230.897461,4128.461426,4125.897461,4244.487305,4143.333496,4113.205078,4125.769043,4632.820313,4433.846191,4379.743652,4530.641113,5808.000000,3.000000,72.000000,,,,0.000000,4.000000,4.000000,4.000000,4.000000,4.000000,4.000000,2.000000,4.000000,4.000000,4.000000,4.000000,4.000000,4.000000,4.000000,83.333336,,,,,,,,,,,,,,,,,,,,,,,,,,,,
1702803680.647593,1702803680.998943,15.000000,0.000000,4176.538574,3999.743652,4272.948730,4235.769043,4130.128418,4128.333496,4249.102539,4148.717773,4110.769043,4129.102539,4631.153809,4436.666504,4385.641113,4537.563965,5860.000000,3.000000,72.000000,,,,0.000000,4.000000,4.000000,4.000000,4.000000,4.000000,4.000000,2.000000,4.000000,4.000000,4.000000,4.000000,4.000000,4.000000,4.000000,83.333336,,,,,,,,,,,,,,,,,,,,,,,,,,,,
1702803680.655401,1702803681.006752,16.000000,0.000000,4178.846191,3991.923096,4268.333496,4225.769043,4130.641113,4129.615234,4250.384766,4144.871582,4114.487305,4125.384766,4631.025879,4436.666504,4383.461426,4533.205078,0.000000,3.000000,72.000000,,,,0.000000,4.000000,4.000000,4.000000,4.000000,4.000000,4.000000,2.000000,4.000000,4.000000,4.000000,4.000000,4.000000,4.000000,4.000000,83.333336,,,,,,,,,,,,,,,,,4.000000,0.000000,0.675023,0.175903,-0.694763,0.175232,0.999634,-0.009278,-0.021487,-8.046596,15.162896,94.548424
1702803680.663209,1702803681.014460,17.000000,0.000000,4178.974121,3984.102539,4269.871582,4209.615234,4127.820313,4129.743652,4248.205078,4131.282227,4115.769043,4118.974121,4629.871582,4435.384766,4374.743652,4533.205078,0.000000,3.000000,72.000000,,,,0.000000,4.000000,4.000000,4.000000,4.000000,4.000000,4.000000,2.000000,4.000000,4.000000,4.000000,4.000000,4.000000,4.000000,4.000000,83.333336,,,,,,,,,,,,,,,,,,,,,,,,,,,,
1702803680.671018,1702803681.022268,18.000000,0.000000,4185.128418,3997.179443,4281.153809,4224.230957,4125.384766,4126.153809,4244.102539,4123.974121,4114.615234,4125.128418,4635.512695,4444.487305,4380.897461,4543.205078,0.000000,3.000000,72.000000,,,,0.000000,4.000000,4.000000,4.000000,4.000000,4.000000,4.000000,2.000000,4.000000,4.000000,4.000000,4.000000,4.000000,4.000000,4.000000,83.333336,,,,,,,,,,,,,,,,,,,,,,,,,,,,
1702803680.678826,1702803681.029976,19.000000,0.000000,4197.563965,4014.230713,4295.769043,4259.871582,4131.025879,4122.307617,4239.871582,4123.974121,4114.358887,4135.897461,4644.358887,4461.410156,4399.102539,4552.436035,0.000000,3.000000,72.000000,,,,0.000000,4.000000,4.000000,4.000000,4.000000,4.000000,4.000000,2.000000,4.000000,4.000000,4.000000,4.000000,4.000000,4.000000,4.000000,83.333336,,,,,,,,,,,,,,,,,,,,,,,,,,,,
1702803680.686634,1702803681.037884,20.000000,0.000000,4209.358887,4019.871826,4310.897461,4266.410156,4131.794922,4121.153809,4236.666504,4130.000000,4118.461426,4140.769043,4647.307617,4480.897461,4409.487305,4565.512695,0.000000,3.000000,72.000000,,,,0.000000,4.000000,4.000000,4.000000,4.000000,4.000000,4.000000,2.000000,4.000000,4.000000,4.000000,4.000000,4.000000,4.000000,4.000000,83.333336,,,,,,,,,,,,,,,,,5.000000,0.000000,0.674960,0.175903,-0.694824,0.175232,0.984007,-0.004883,-0.029789,-7.991936,14.996607,94.510246
1702803680.694442,1702803681.045692,21.000000,0.000000,4207.179688,4015.000000,4309.487305,4246.794922,4120.384766,4113.461426,4235.512695,4135.256348,4112.948730,4131.922852,4651.153809,4481.153809,4400.512695,4567.179688,0.000000,3.000000,72.000000,,,,0.000000,4.000000,4.000000,4.000000,4.000000,4.000000,4.000000,2.000000,4.000000,4.000000,4.000000,4.000000,4.000000,4.000000,4.000000,83.333336,,,,,,,,,,,,,,,,,,,,,,,,,,,,
1702803680.702250,1702803681.053600,22.000000,0.000000,4188.589844,4005.000000,4290.384766,4228.461426,4115.769043,4112.563965,4237.179688,4136.666504,4106.410156,4124.743652,4652.051270,4460.256348,4388.077148,4547.179688,0.000000,3.000000,72.000000,,,,0.000000,4.000000,4.000000,4.000000,4.000000,4.000000,4.000000,2.000000,4.000000,4.000000,4.000000,4.000000,4.000000,4.000000,4.000000,83.333336,,,,,,,,,,,,,,,,,,,,,,,,,,,,
1702803680.710058,1702803681.061408,23.000000,0.000000,4171.538574,3994.230713,4274.487305,4226.922852,4122.436035,4125.000000,4240.128418,4142.436035,4116.794922,4124.230957,4635.897461,4444.230957,4381.153809,4527.692383,0.000000,3.000000,72.000000,,,,0.000000,4.000000,4.000000,4.000000,4.000000,4.000000,4.000000,2.000000,4.000000,4.000000,4.000000,4.000000,4.000000,4.000000,4.000000,83.333336,,,,,,,,,,,,,,,,,,,,,,,,,,,,
1702803680.717866,1702803681.069316,24.000000,0.000000,4170.256348,3992.948730,4272.307617,4228.077148,4125.384766,4131.666504,4243.333496,4154.358887,4136.153809,4121.922852,4629.871582,4446.922852,4378.333496,4528.589844,0.000000,3.000000,72.000000,,,,0.000000,4.000000,4.000000,4.000000,4.000000,4.000000,4.000000,2.000000,4.000000,4.000000,4.000000,4.000000,4.000000,4.000000,4.000000,83.333336,,,,,,,,,,,,,,,,,6.000000,0.000000,0.674913,0.175720,-0.694885,0.175354,0.988890,-0.013674,-0.024905,-7.926076,14.963613,94.442558
1702803680.725674,1702803681.077125,25.000000,0.000000,4176.922852,3996.025635,4273.589844,4211.538574,4117.051270,4126.025879,4245.000000,4161.410156,4145.897461,4123.846191,4643.589844,4452.820313,4380.128418,4531.410156,0.000000,3.000000,72.000000,,,,0.000000,4.000000,4.000000,4.000000,4.000000,4.000000,4.000000,2.000000,4.000000,4.000000,4.000000,4.000000,4.000000,4.000000,4.000000,83.333336,,,,,,,,,,,,,,,,,,,,,,,,,,,,
1702803680.733482,1702803681.085033,26.000000,0.000000,4175.128418,3988.846191,4269.487305,4207.179688,4111.282227,4118.333496,4243.205078,4155.769043,4132.692383,4127.307617,4637.179688,4443.205078,4375.000000,4520.769043,0.000000,3.000000,72.000000,,,,0.000000,4.000000,4.000000,4.000000,4.000000,4.000000,4.000000,2.000000,4.000000,4.000000,4.000000,4.000000,4.000000,4.000000,4.000000,83.333336,1.000000,66.666664,4.000000,3.000000,4.000000,3.000000,4.000000,4.000000,2.000000,4.000000,4.000000,3.000000,4.000000,4.000000,4.000000,4.000000,,,,,,,,,,,,
1702803680.741290,1702803681.092841,27.000000,0.000000,4173.333496,3989.230713,4268.333496,4231.794922,4119.358887,4120.769043,4243.077148,4143.974121,4113.974121,4128.846191,4622.948730,4433.717773,4372.820313,4518.333496,0.000000,3.000000,72.000000,,,,0.000000,4.000000,4.000000,4.000000,4.000000,4.000000,4.000000,2.000000,4.000000,4.000000,4.000000,4.000000,4.000000,4.000000,4.000000,83.333336,,,,,,,,,,,,,,,,,,,,,,,,,,,,
1702803680.749098,1702803681.100749,28.000000,0.000000,4180.641113,4005.000000,4272.307617,4238.846191,4127.179688,4127.179688,4245.000000,4133.717773,4108.205078,4128.461426,4629.230957,4434.871582,4379.102539,4526.025879,0.000000,3.000000,72.000000,,,,0.000000,4.000000,4.000000,4.000000,4.000000,4.000000,4.000000,2.000000,4.000000,4.000000,4.000000,4.000000,4.000000,4.000000,4.000000,83.333336,,,,,,,,,,,,,,,,,7.000000,0.000000,0.674866,0.175537,-0.694946,0.175476,0.988890,-0.005372,-0.024417,-8.066802,14.867251,94.414970
1702803680.756906,1702803681.108557,29.000000,0.000000,4184.230957,4012.435791,4275.128418,4221.410156,4126.153809,4126.666504,4238.717773,4117.179688,4099.871582,4125.641113,4632.179688,4432.692383,4378.077148,4525.769043,0.000000,3.000000,72.000000,,,,0.000000,4.000000,4.000000,4.000000,4.000000,4.000000,4.000000,2.000000,4.000000,4.000000,4.000000,4.000000,4.000000,4.000000,4.000000,83.333336,,,,,,,,,,,,,,,,,,,,,,,,,,,,
1702803680.764714,1702803681.116266,30.000000,0.000000,4186.538574,4012.820557,4277.692383,4233.333496,4125.512695,4121.153809,4231.282227,4101.922852,4092.564209,4129.102539,4630.256348,4434.487305,4381.538574,4527.948730,0.000000,3.000000,72.000000,,,,0.000000,4.000000,4.000000,4.000000,4.000000,4.000000,4.000000,2.000000,4.000000,4.000000,4.000000,4.000000,4.000000,4.000000,4.000000,83.333336,,,,,,,,,,,,,,,,,,,,,,,,,,,,
1702803680.772523,1702803681.124174,31.000000,0.000000,4189.743652,4012.307617,4276.282227,4243.333496,4130.000000,4117.051270,4232.692383,4102.307617,4099.871582,4135.641113,4633.717773,4439.615234,4388.333496,4535.128418,0.000000,3.000000,72.000000,,,,0.000000,4.000000,4.000000,4.000000,4.000000,4.000000,4.000000,2.000000,4.000000,4.000000,4.000000,4.000000,4.000000,4.000000,4.000000,83.333336,,,,,,,,,,,,,,,,,,,,,,,,,,,,
1702803680.780331,1702803681.131982,32.000000,0.000000,4186.794922,4007.820557,4272.051270,4213.461426,4126.025879,4120.256348,4234.102539,4114.743652,4113.589844,4133.077148,4628.589844,4437.179688,4384.871582,4533.717773,0.000000,3.000000,72.000000,,,,0.000000,4.000000,4.000000,4.000000,4.000000,4.000000,4.000000,2.000000,4.000000,4.000000,4.000000,4.000000,4.000000,4.000000,4.000000,83.333336,,,,,,,,,,,,,,,,,8.000000,0.000000,0.674961,0.175354,-0.694885,0.175537,0.984495,-0.007325,-0.019534,-8.060122,14.947193,94.390137
1702803680.788139,1702803681.139790,33.000000,0.000000,4182.051270,4004.102539,4272.820313,4211.794922,4115.641113,4124.358887,4232.307617,4125.512695,4122.820313,4130.641113,4623.974121,4438.205078,4379.358887,4529.743652,0.000000,3.000000,72.000000,,,,0.000000,4.000000,4.000000,4.000000,4.000000,4.000000,4.000000,2.000000,4.000000,4.000000,4.000000,4.000000,4.000000,4.000000,4.000000,83.333336,,,,,,,,,,,,,,,,,,,,,,,,,,,,
1702803680.795947,1702803681.147498,34.000000,0.000000,4182.948730,4000.897461,4273.846191,4244.871582,4117.179688,4122.179688,4233.846191,4130.512695,4126.025879,4135.897461,4634.102539,4446.538574,4380.641113,4534.102539,0.000000,3.000000,72.000000,,,,0.000000,4.000000,4.000000,4.000000,4.000000,4.000000,4.000000,2.000000,4.000000,4.000000,4.000000,4.000000,4.000000,4.000000,4.000000,83.333336,,,,,,,,,,,,,,,,,,,,,,,,,,,,
1702803680.803755,1702803681.155306,35.000000,0.000000,4188.846191,4004.358887,4274.358887,4251.922852,4124.615234,4124.615234,4239.358887,4140.897461,4130.000000,4142.307617,4646.153809,4451.538574,4387.820313,4544.615234,0.000000,3.000000,72.000000,,,,0.000000,4.000000,4.000000,4.000000,4.000000,4.000000,4.000000,2.000000,4.000000,4.000000,4.000000,4.000000,4.000000,4.000000,4.000000,83.333336,,,,,,,,,,,,,,,,,,,,,,,,,,,,
1702803680.811563,1702803681.163014,36.000000,0.000000,4178.461426,4003.974365,4266.282227,4219.743652,4120.641113,4123.846191,4241.794922,4144.230957,4124.230957,4134.871582,4638.077148,4437.948730,4381.538574,4535.897461,0.000000,3.000000,72.000000,,,,0.000000,4.000000,4.000000,4.000000,4.000000,4.000000,4.000000,2.000000,4.000000,4.000000,4.000000,4.000000,4.000000,4.000000,4.000000,83.333336,,,,,,,,,,,,,,,,,9.000000,0.000000,0.675024,0.175232,-0.694824,0.175659,0.990355,-0.008302,-0.021487,-8.187443,14.935807,94.401123
1702803680.819371,1702803681.170822,37.000000,0.000000,4166.922852,3993.589844,4256.538574,4211.794922,4118.205078,4119.230957,4241.666504,4137.307617,4111.410156,4123.846191,4624.102539,4425.897461,4368.846191,4520.000000,0.000000,3.000000,72.000000,,,,0.000000,4.000000,4.000000,4.000000,4.000000,4.000000,4.000000,2.000000,4.000000,4.000000,4.000000,4.000000,4.000000,4.000000,4.000000,83.333336,,,,,,,,,,,,,,,,,,,,,,,,,,,,
1702803680.827179,1702803681.178530,38.000000,0.000000,4177.563965,4000.384521,4258.974121,4234.871582,4125.512695,4125.897461,4241.410156,4136.153809,4108.333496,4128.461426,4629.358887,4435.384766,4370.000000,4527.307617,0.000000,3.000000,72.000000,,,,0.000000,4.000000,4.000000,4.000000,4.000000,4.000000,4.000000,2.000000,4.000000,4.000000,4.000000,4.000000,4.000000,4.000000,4.000000,83.333336,,,,,,,,,,,,,,,,,,,,,,,,,,,,
1702803680.834987,1702803681.186338,39.000000,0.000000,4187.820313,4013.333252,4265.641113,4227.051270,4129.615234,4125.512695,4238.974121,4131.922852,4106.922852,4129.487305,4638.077148,4441.538574,4373.461426,4538.205078,0.000000,3.000000,72.000000,,,,0.000000,4.000000,4.000000,4.000000,4.000000,4.000000,4.000000,2.000000,4.000000,4.000000,4.000000,4.000000,4.000000,4.000000,4.000000,83.333336,,,,,,,,,,,,,,,,,,,,,,,,,,,,
1702803680.842795,1702803681.194046,40.000000,0.000000,4195.384766,4018.974365,4280.641113,4223.846191,4131.538574,4113.846191,4237.692383,4126.410156,4107.820313,4129.230957,4648.205078,4448.846191,4379.102539,4547.820313,0.000000,3.000000,72.000000,,,,0.000000,4.000000,4.000000,4.000000,4.000000,4.000000,4.000000,2.000000,4.000000,4.000000,4.000000,4.000000,4.000000,4.000000,4.000000,83.333336,,,,,,,,,,,,,,,,,10.000000,0.000000,0.675117,0.175232,-0.694702,0.175781,0.988402,-0.007325,-0.031742,-8.102032,14.992227,94.394348
1702803680.850603,1702803681.201954,41.000000,0.000000,4207.820313,4027.307617,4295.128418,4259.871582,4133.589844,4111.922852,4237.436035,4121.282227,4112.307617,4139.871582,4652.948730,4459.615234,4387.948730,4560.128418,0.000000,3.000000,72.000000,,,,0.000000,4.000000,4.000000,4.000000,4.000000,4.000000,4.000000,2.000000,4.000000,4.000000,4.000000,4.000000,4.000000,4.000000,4.000000,83.333336,,,,,,,,,,,,,,,,,,,,,,,,,,,,
1702803680.858411,1702803681.209763,42.000000,0.000000,4202.820313,4025.512939,4287.820313,4277.307617,4132.179688,4118.974121,4238.717773,4120.769043,4119.743652,4146.794922,4645.256348,4459.358887,4385.641113,4556.025879,0.000000,3.000000,72.000000,,,,0.000000,4.000000,4.000000,4.000000,4.000000,4.000000,4.000000,2.000000,4.000000,4.000000,4.000000,4.000000,4.000000,4.000000,4.000000,83.333336,,,,,,,,,,,,,,,,,,,,,,,,,,,,
1702803680.866219,1702803681.217671,43.000000,0.000000,4178.077148,4001.410156,4270.384766,4239.615234,4127.307617,4124.871582,4240.641113,4130.769043,4127.563965,4136.922852,4640.512695,4448.333496,4366.282227,4536.282227,0.000000,3.000000,72.000000,,,,0.000000,4.000000,4.000000,4.000000,4.000000,4.000000,4.000000,2.000000,4.000000,4.000000,4.000000,4.000000,4.000000,4.000000,4.000000,83.333336,,,,,,,,,,,,,,,,,,,,,,,,,,,,
1702803680.874028,1702803681.225479,44.000000,0.000000,4170.769043,3990.897461,4265.641113,4219.743652,4122.692383,4124.358887,4239.487305,4139.230957,4128.717773,4123.077148,4636.794922,4436.025879,4344.102539,4526.025879,0.000000,3.000000,72.000000,,,,0.000000,4.000000,4.000000,4.000000,4.000000,4.000000,4.000000,2.000000,4.000000,4.000000,4.000000,4.000000,4.000000,4.000000,4.000000,83.333336,,,,,,,,,,,,,,,,,11.000000,0.000000,0.675149,0.175171,-0.694702,0.175720,0.992797,-0.007325,-0.033696,-8.075162,14.959670,94.304909
1702803680.881836,1702803681.233387,45.000000,0.000000,4186.666504,4018.333252,4276.282227,4235.128418,4122.820313,4126.538574,4241.538574,4150.897461,4136.922852,4128.333496,4641.153809,4443.077148,4345.512695,4535.384766,0.000000,3.000000,72.000000,,,,0.000000,4.000000,4.000000,4.000000,4.000000,4.000000,4.000000,2.000000,4.000000,4.000000,4.000000,4.000000,4.000000,4.000000,4.000000,83.333336,,,,,,,,,,,,,,,,,,,,,,,,,,,,
1702803680.889644,1702803681.241195,46.000000,0.000000,4190.512695,4030.128174,4281.538574,4221.922852,4119.230957,4126.025879,4247.563965,4159.230957,4140.128418,4127.948730,4640.384766,4453.077148,4349.358887,4539.358887,0.000000,3.000000,72.000000,,,,0.000000,4.000000,4.000000,4.000000,4.000000,4.000000,4.000000,2.000000,4.000000,4.000000,4.000000,4.000000,4.000000,4.000000,4.000000,83.333336,,,,,,,,,,,,,,,,,,,,,,,,,,,,
1702803680.897452,1702803681.249103,47.000000,0.000000,4189.743652,4017.564209,4278.077148,4225.897461,4118.717773,4118.205078,4246.282227,4148.333496,4118.333496,4118.461426,4634.615234,4444.102539,4337.692383,4531.410156,0.000000,3.000000,72.000000,,,,0.000000,4.000000,4.000000,4.000000,4.000000,4.000000,4.000000,2.000000,4.000000,4.000000,4.000000,4.000000,4.000000,4.000000,4.000000,83.333336,,,,,,,,,,,,,,,,,,,,,,,,,,,,
1702803680.905260,1702803681.256912,48.000000,0.000000,4199.487305,4025.512939,4285.000000,4264.615234,4129.102539,4119.615234,4241.025879,4136.666504,4107.307617,4128.974121,4635.641113,4441.666504,4338.846191,4532.179688,0.000000,3.000000,72.000000,,,,0.000000,4.000000,4.000000,4.000000,4.000000,4.000000,4.000000,2.000000,4.000000,4.000000,4.000000,4.000000,4.000000,4.000000,4.000000,83.333336,,,,,,,,,,,,,,,,,12.000000,0.000000,0.675134,0.175171,-0.694763,0.175537,0.993774,-0.012697,-0.015627,-8.117646,14.897037,94.407753
1702803680.913068,1702803681.264820,49.000000,0.000000,4196.538574,4033.333252,4286.153809,4260.256348,4136.282227,4126.794922,4238.589844,4136.282227,4122.179688,4136.153809,4631.025879,4445.128418,4342.948730,4530.769043,0.000000,3.000000,72.000000,,,,0.000000,4.000000,4.000000,4.000000,4.000000,4.000000,4.000000,2.000000,4.000000,4.000000,4.000000,4.000000,4.000000,4.000000,4.000000,83.333336,,,,,,,,,,,,,,,,,,,,,,,,,,,,
1702803680.920876,1702803681.272628,50.000000,0.000000,4187.563965,4026.794922,4275.128418,4235.512695,4134.230957,4127.563965,4233.974121,4133.461426,4132.307617,4131.025879,4635.384766,4437.563965,4335.512695,4523.589844,0.000000,3.000000,72.000000,,,,0.000000,4.000000,4.000000,4.000000,4.000000,4.000000,4.000000,2.000000,4.000000,4.000000,4.000000,4.000000,4.000000,4.000000,4.000000,83.333336,,,,,,,,,,,,,,,,,,,,,,,,,,,,
1702803680.928684,1702803681.280536,51.000000,0.000000,4198.461426,4033.974365,4280.128418,4246.282227,4131.410156,4117.692383,4231.666504,4119.230957,4122.307617,4138.077148,4648.589844,4438.333496,4336.153809,4531.410156,0.000000,3.000000,72.000000,,,,0.000000,4.000000,4.000000,4.000000,4.000000,4.000000,4.000000,2.000000,4.000000,4.000000,4.000000,4.000000,4.000000,4.000000,4.000000,83.333336,,,,,,,,,,,,,,,,,,,,,,,,,,,,
1702803680.936492,1702803681.288344,52.000000,0.000000,4214.743652,4051.281982,4297.051270,4265.897461,4137.179688,4107.563965,4230.641113,4110.128418,4104.743652,4145.128418,4648.461426,4455.000000,4348.974121,4548.589844,0.000000,3.000000,72.000000,,,,0.000000,4.000000,4.000000,4.000000,4.000000,4.000000,4.000000,2.000000,4.000000,4.000000,4.000000,4.000000,4.000000,4.000000,4.000000,83.333336,,,,,,,,,,,,,,,,,13.000000,0.000000,0.675134,0.175171,-0.694763,0.175537,0.984495,-0.002442,-0.034672,-8.189215,15.057333,94.333641
1702803680.944300,1702803681.296053,53.000000,0.000000,4222.179688,4055.384521,4302.692383,4257.692383,4141.282227,4115.384766,4227.051270,4119.743652,4104.230957,4141.410156,4648.205078,4465.384766,4357.179688,4556.922852,0.000000,3.000000,72.000000,,,,0.000000,4.000000,4.000000,4.000000,4.000000,4.000000,4.000000,2.000000,4.000000,4.000000,4.000000,4.000000,4.000000,4.000000,4.000000,83.333336,,,,,,,,,,,,,,,,,,,,,,,,,,,,
1702803680.952108,1702803681.303861,54.000000,0.000000,4209.230957,4037.692383,4287.692383,4237.563965,4132.307617,4127.051270,4231.025879,4133.717773,4118.333496,4134.487305,4640.641113,4455.897461,4343.077148,4543.077148,0.000000,3.000000,72.000000,,,,0.000000,4.000000,4.000000,4.000000,4.000000,4.000000,4.000000,2.000000,4.000000,4.000000,4.000000,4.000000,4.000000,4.000000,4.000000,83.333336,,,,,,,,,,,,,,,,,,,,,,,,,,,,
1702803680.959916,1702803681.311569,55.000000,0.000000,4187.820313,4018.205078,4268.846191,4234.615234,4126.282227,4133.717773,4239.743652,4142.179688,4128.846191,4126.922852,4620.256348,4440.769043,4321.922852,4525.000000,0.000000,3.000000,72.000000,,,,0.000000,4.000000,4.000000,4.000000,4.000000,4.000000,4.000000,2.000000,4.000000,4.000000,4.000000,4.000000,4.000000,4.000000,4.000000,83.333336,,,,,,,,,,,,,,,,,,,,,,,,,,,,
1702803680.967724,1702803681.319377,56.000000,0.000000,4183.846191,4014.487061,4262.692383,4246.025879,4124.871582,4137.692383,4245.128418,4148.846191,4133.461426,4122.820313,4625.641113,4437.179688,4315.769043,4523.077148,0.000000,3.000000,72.000000,,,,0.000000,4.000000,4.000000,4.000000,4.000000,4.000000,4.000000,2.000000,4.000000,4.000000,4.000000,4.000000,4.000000,4.000000,4.000000,83.333336,,,,,,,,,,,,,,,,,14.000000,0.000000,0.675087,0.175110,-0.694824,0.175537,0.996704,-0.006837,-0.021975,-8.303626,15.034933,94.483612
1702803680.975532,1702803681.327085,57.000000,0.000000,4188.717773,4015.128174,4266.538574,4240.512695,4121.538574,4127.563965,4247.436035,4152.051270,4132.948730,4125.384766,4641.282227,4439.358887,4316.666504,4525.128418,0.000000,3.000000,72.000000,,,,0.000000,4.000000,4.000000,4.000000,4.000000,4.000000,4.000000,2.000000,4.000000,4.000000,4.000000,4.000000,4.000000,4.000000,4.000000,83.333336,,,,,,,,,,,,,,,,,,,,,,,,,,,,
1702803680.983341,1702803681.334893,58.000000,0.000000,4197.051270,4025.641113,4277.948730,4245.512695,4123.974121,4116.794922,4246.922852,4146.410156,4126.794922,4137.436035,4638.974121,4446.538574,4323.717773,4533.717773,0.000000,3.000000,72.000000,,,,0.000000,4.000000,4.000000,4.000000,4.000000,4.000000,4.000000,2.000000,4.000000,4.000000,4.000000,4.000000,4.000000,4.000000,4.000000,83.333336,,,,,,,,,,,,,,,,,,,,,,,,,,,,
1702803680.991149,1702803681.342601,59.000000,0.000000,4204.743652,4040.128174,4282.563965,4251.538574,4129.615234,4115.512695,4241.410156,4131.538574,4111.410156,4143.846191,4634.487305,4451.282227,4336.666504,4546.282227,0.000000,3.000000,72.000000,,,,0.000000,4.000000,4.000000,4.000000,4.000000,4.000000,4.000000,2.000000,4.000000,4.000000,4.000000,4.000000,4.000000,4.000000,4.000000,83.333336,,,,,,,,,,,,,,,,,,,,,,,,,,,,
1702803680.998957,1702803681.350409,60.000000,0.000000,4208.589844,4042.692383,4282.051270,4240.641113,4133.846191,4117.179688,4236.153809,4121.538574,4104.743652,4142.948730,4640.384766,4454.871582,4345.641113,4553.333496,0.000000,3.000000,72.000000,,,,0.000000,4.000000,4.000000,4.000000,4.000000,4.000000,4.000000,2.000000,4.000000,4.000000,4.000000,4.000000,4.000000,4.000000,4.000000,83.333336,,,,,,,,,,,,,,,,,15.000000,0.000000,0.675134,0.175110,-0.694763,0.175598,0.998169,-0.018069,-0.036626,-8.256598,15.164773,94.585251
1702803681.006765,1702803681.358117,61.000000,0.000000,4210.512695,4043.461426,4286.282227,4256.410156,4140.256348,4121.666504,4234.615234,4123.205078,4121.153809,4152.692383,4653.846191,4459.871582,4346.025879,4558.846191,0.000000,3.000000,72.000000,,,,0.000000,4.000000,4.000000,4.000000,4.000000,4.000000,4.000000,2.000000,4.000000,4.000000,4.000000,4.000000,4.000000,4.000000,4.000000,83.333336,,,,,,,,,,,,,,,,,,,,,,,,,,,,
1702803681.014573,1702803681.365925,62.000000,0.000000,4207.307617,4044.102539,4285.256348,4277.820313,4146.025879,4128.077148,4232.436035,4124.102539,4135.769043,4157.820313,4659.743652,4452.051270,4336.025879,4556.538574,0.000000,3.000000,72.000000,,,,0.000000,4.000000,4.000000,4.000000,4.000000,4.000000,4.000000,2.000000,4.000000,4.000000,4.000000,4.000000,4.000000,4.000000,4.000000,83.333336,,,,,,,,,,,,,,,,,,,,,,,,,,,,
1702803681.022381,1702803681.373633,63.000000,0.000000,4208.717773,4046.025635,4285.256348,4270.256348,4145.897461,4136.666504,4232.179688,4131.153809,4144.358887,4150.512695,4655.769043,4453.333496,4332.820313,4552.051270,0.000000,3.000000,72.000000,,,,0.000000,4.000000,4.000000,4.000000,4.000000,4.000000,4.000000,2.000000,4.000000,4.000000,4.000000,4.000000,4.000000,4.000000,4.000000,83.333336,,,,,,,,,,,,,,,,,,,,,,,,,,,,
1702803681.030189,1702803681.381441,64.000000,0.000000,4207.692383,4043.076904,4286.922852,4241.538574,4132.948730,4131.153809,4233.589844,4141.025879,4146.025879,4139.487305,4645.641113,4463.974121,4333.205078,4550.897461,5210.000000,3.000000,72.000000,,,,0.000000,4.000000,4.000000,4.000000,4.000000,4.000000,4.000000,2.000000,4.000000,4.000000,4.000000,4.000000,4.000000,4.000000,4.000000,83.333336,,,,,,,,,,,,,,,,,16.000000,0.000000,0.675055,0.175049,-0.694824,0.175720,1.003541,-0.037114,-0.022464,-8.164270,15.031629,94.560059
1702803681.037997,1702803681.389149,65.000000,0.000000,4202.179688,4033.589844,4282.051270,4232.692383,4121.666504,4117.692383,4234.358887,4138.974121,4132.692383,4135.128418,4641.794922,4460.384766,4324.487305,4548.205078,5482.000000,3.000000,72.000000,,,,0.000000,4.000000,4.000000,4.000000,4.000000,4.000000,4.000000,2.000000,4.000000,4.000000,4.000000,4.000000,4.000000,4.000000,4.000000,83.333336,,,,,,,,,,,,,,,,,,,,,,,,,,,,
1702803681.045805,1702803681.397058,66.000000,0.000000,4201.025879,4031.923096,4277.179688,4255.000000,4126.153809,4125.641113,4237.820313,4138.205078,4124.615234,4140.128418,4649.615234,4453.461426,4325.256348,4546.538574,4756.000000,3.000000,72.000000,,,,0.000000,4.000000,4.000000,4.000000,4.000000,4.000000,4.000000,2.000000,4.000000,4.000000,4.000000,4.000000,4.000000,4.000000,4.000000,83.333336,,,,,,,,,,,,,,,,,,,,,,,,,,,,
1702803681.053613,1702803681.404866,67.000000,0.000000,4194.102539,4030.512939,4267.820313,4261.538574,4131.538574,4134.230957,4245.256348,4140.512695,4125.128418,4136.666504,4652.307617,4449.230957,4328.205078,4540.897461,5235.000000,3.000000,72.000000,,,,0.000000,4.000000,4.000000,4.000000,4.000000,4.000000,4.000000,2.000000,4.000000,4.000000,4.000000,4.000000,4.000000,4.000000,4.000000,83.333336,,,,,,,,,,,,,,,,,,,,,,,,,,,,
1702803681.061421,1702803681.412774,68.000000,0.000000,4189.743652,4030.256348,4265.769043,4241.922852,4130.128418,4126.410156,4249.102539,4143.333496,4128.846191,4139.358887,4654.487305,4451.922852,4328.974121,4536.922852,5103.000000,3.000000,72.000000,,,,0.000000,4.000000,4.000000,4.000000,4.000000,4.000000,4.000000,2.000000,4.000000,4.000000,4.000000,4.000000,4.000000,4.000000,4.000000,83.333336,,,,,,,,,,,,,,,,,17.000000,0.000000,0.675040,0.174805,-0.694885,0.175781,1.001587,-0.007325,-0.031742,-8.214510,15.028466,94.454056
1702803681.069229,1702803681.420582,69.000000,0.000000,4196.666504,4036.153809,4276.794922,4226.794922,4125.897461,4120.769043,4247.692383,4148.205078,4135.384766,4153.333496,4656.794922,4459.102539,4336.282227,4541.666504,5100.000000,3.000000,72.000000,,,,0.000000,4.000000,4.000000,4.000000,4.000000,4.000000,4.000000,2.000000,4.000000,4.000000,4.000000,4.000000,4.000000,4.000000,4.000000,83.333336,,,,,,,,,,,,,,,,,,,,,,,,,,,,
1702803681.077037,1702803681.428490,70.000000,0.000000,4201.922852,4038.589844,4282.051270,4241.922852,4124.871582,4123.077148,4242.563965,4142.179688,4135.384766,4150.769043,4656.922852,4460.769043,4338.974121,4548.974121,1229.000000,3.000000,72.000000,,,,0.000000,4.000000,4.000000,4.000000,4.000000,4.000000,4.000000,2.000000,4.000000,4.000000,4.000000,4.000000,4.000000,4.000000,4.000000,83.333336,,,,,,,,,,,,,,,,,,,,,,,,,,,,
1702803681.084846,1702803681.436298,71.000000,0.000000,4206.666504,4040.384521,4282.948730,4264.487305,4130.384766,4123.717773,4235.897461,4134.743652,4132.563965,4141.922852,4663.077148,4464.743652,4341.666504,4557.948730,4904.000000,3.000000,72.000000,,,,0.000000,4.000000,4.000000,4.000000,4.000000,4.000000,4.000000,2.000000,4.000000,4.000000,4.000000,4.000000,4.000000,4.000000,4.000000,83.333336,,,,,,,,,,,,,,,,,,,,,,,,,,,,
1702803681.092654,1702803681.444207,72.000000,0.000000,4208.333496,4042.692383,4283.205078,4266.282227,4134.743652,4116.153809,4233.461426,4135.128418,4129.615234,4150.000000,4669.102539,4470.897461,4351.025879,4559.102539,5128.000000,3.000000,72.000000,,,,0.000000,4.000000,4.000000,4.000000,4.000000,4.000000,4.000000,2.000000,4.000000,4.000000,4.000000,4.000000,4.000000,4.000000,4.000000,83.333336,,,,,,,,,,,,,,,,,18.000000,0.000000,0.675009,0.174866,-0.694946,0.175598,0.988890,-0.008790,-0.026370,-8.259726,14.992287,94.391983
1702803681.100462,1702803681.452015,73.000000,0.000000,4209.871582,4048.974365,4287.179688,4258.205078,4136.666504,4114.615234,4231.538574,4133.333496,4127.563965,4162.563965,4669.615234,4475.897461,4358.333496,4558.077148,5240.000000,3.000000,72.000000,,,,0.000000,4.000000,4.000000,4.000000,4.000000,4.000000,4.000000,2.000000,4.000000,4.000000,4.000000,4.000000,4.000000,4.000000,4.000000,83.333336,,,,,,,,,,,,,,,,,,,,,,,,,,,,
1702803681.108270,1702803681.459923,74.000000,0.000000,4215.000000,4055.384521,4294.102539,4269.487305,4141.282227,4124.615234,4229.230957,4130.256348,4129.230957,4158.077148,4664.743652,4480.384766,4352.563965,4561.282227,5803.000000,3.000000,72.000000,,,,0.000000,4.000000,4.000000,4.000000,4.000000,4.000000,4.000000,2.000000,4.000000,4.000000,4.000000,4.000000,4.000000,4.000000,4.000000,83.333336,,,,,,,,,,,,,,,,,,,,,,,,,,,,
1702803681.116078,1702803681.467731,75.000000,0.000000,4213.974121,4051.538574,4292.820313,4265.384766,4145.512695,4132.307617,4230.897461,4131.282227,4132.051270,4146.410156,4662.692383,4475.769043,4345.897461,4559.871582,5851.000000,3.000000,72.000000,,,,0.000000,4.000000,4.000000,4.000000,4.000000,4.000000,4.000000,2.000000,4.000000,4.000000,4.000000,4.000000,4.000000,4.000000,4.000000,83.333336,,,,,,,,,,,,,,,,,,,,,,,,,,,,
1702803681.123886,1702803681.475639,76.000000,0.000000,4206.922852,4044.358887,4284.358887,4231.025879,4139.487305,4136.153809,4234.358887,4136.538574,4134.615234,4145.256348,4664.230957,4469.358887,4346.922852,4552.948730,6765.000000,3.000000,72.000000,,,,0.000000,4.000000,4.000000,4.000000,4.000000,4.000000,4.000000,2.000000,4.000000,4.000000,4.000000,4.000000,4.000000,4.000000,4.000000,83.333336,,,,,,,,,,,,,,,,,19.000000,0.000000,0.674977,0.175049,-0.694946,0.175537,1.007447,-0.017580,-0.024417,-8.250420,15.076391,94.502785
1702803681.131694,1702803681.483447,77.000000,0.000000,4194.230957,4032.307617,4270.000000,4226.922852,4129.487305,4134.230957,4236.282227,4137.563965,4130.256348,4136.282227,4651.025879,4460.897461,4328.589844,4533.717773,6922.000000,3.000000,72.000000,,,,0.000000,4.000000,4.000000,4.000000,4.000000,4.000000,4.000000,2.000000,4.000000,4.000000,4.000000,4.000000,4.000000,4.000000,4.000000,83.333336,,,,,,,,,,,,,,,,,,,,,,,,,,,,
1702803681.139502,1702803681.491156,78.000000,0.000000,4194.487305,4023.589844,4267.179688,4250.384766,4128.717773,4128.461426,4237.563965,4140.897461,4126.025879,4131.666504,4648.077148,4463.846191,4327.692383,4536.153809,5803.000000,3.000000,72.000000,,,,0.000000,4.000000,4.000000,4.000000,4.000000,4.000000,4.000000,2.000000,4.000000,4.000000,4.000000,4.000000,4.000000,4.000000,4.000000,83.333336,,,,,,,,,,,,,,,,,,,,,,,,,,,,
1702803681.147310,1702803681.498964,79.000000,0.000000,4212.179688,4031.410156,4284.487305,4260.769043,4128.333496,4125.000000,4237.179688,4149.358887,4123.974121,4150.512695,4671.282227,4487.179688,4370.512695,4570.384766,5851.000000,3.000000,72.000000,,,,0.000000,4.000000,4.000000,4.000000,4.000000,4.000000,4.000000,2.000000,4.000000,4.000000,4.000000,4.000000,4.000000,4.000000,4.000000,83.333336,,,,,,,,,,,,,,,,,,,,,,,,,,,,
1702803681.155118,1702803681.506672,80.000000,0.000000,4219.230957,4035.512939,4290.641113,4250.384766,4123.205078,4119.358887,4233.461426,4142.307617,4113.333496,4160.384766,4675.512695,4494.743652,4388.461426,4581.922852,6765.000000,3.000000,72.000000,,,,0.000000,4.000000,4.000000,4.000000,4.000000,4.000000,4.000000,2.000000,4.000000,4.000000,4.000000,4.000000,4.000000,4.000000,4.000000,83.333336,,,,,,,,,,,,,,,,,20.000000,0.000000,0.674961,0.175110,-0.694946,0.175537,0.988402,-0.002442,-0.025394,-8.125378,15.152085,94.402504
1702803681.162926,1702803681.514480,81.000000,0.000000,4218.717773,4034.487061,4286.794922,4257.820313,4130.256348,4121.794922,4234.487305,4132.179688,4118.846191,4165.769043,4678.077148,4495.769043,4384.230957,4582.948730,6922.000000,3.000000,72.000000,,,,0.000000,4.000000,4.000000,4.000000,4.000000,4.000000,4.000000,2.000000,4.000000,4.000000,4.000000,4.000000,4.000000,4.000000,4.000000,83.333336,,,,,,,,,,,,,,,,,,,,,,,,,,,,
1702803681.170735,1702803681.522188,82.000000,0.000000,4220.769043,4041.025635,4295.384766,4261.538574,4140.641113,4128.974121,4237.307617,4134.743652,4141.282227,4187.179688,4702.948730,4506.025879,4403.461426,4598.846191,5803.000000,3.000000,72.000000,,,,0.000000,4.000000,4.000000,4.000000,4.000000,4.000000,4.000000,2.000000,4.000000,4.000000,4.000000,4.000000,4.000000,4.000000,4.000000,83.333336,,,,,,,,,,,,,,,,,,,,,,,,,,,,
1702803681.178543,1702803681.530097,83.000000,0.000000,4217.436035,4042.179443,4299.871582,4249.743652,4142.820313,4129.487305,4234.487305,4138.589844,4148.846191,4195.000000,4705.512695,4504.743652,4413.846191,4600.000000,5851.000000,3.000000,72.000000,,,,0.000000,4.000000,4.000000,4.000000,4.000000,4.000000,4.000000,2.000000,4.000000,4.000000,4.000000,4.000000,4.000000,4.000000,4.000000,83.333336,,,,,,,,,,,,,,,,,,,,,,,,,,,,
1702803681.186351,1702803681.537905,84.000000,0.000000,4212.692383,4038.205078,4291.922852,4261.410156,4146.794922,4133.717773,4235.641113,4142.692383,4145.769043,4186.538574,4696.666504,4499.487305,4401.538574,4586.410156,6765.000000,3.000000,72.000000,,,,0.000000,4.000000,4.000000,4.000000,4.000000,4.000000,4.000000,2.000000,4.000000,4.000000,4.000000,4.000000,4.000000,4.000000,4.000000,83.333336,,,,,,,,,,,,,,,,,21.000000,0.000000,0.674946,0.175232,-0.694946,0.175476,0.997192,-0.001953,-0.024905,-8.112841,15.070210,94.412254
1702803681.194159,1702803681.545813,85.000000,0.000000,4211.153809,4032.564209,4285.384766,4267.307617,4147.051270,4137.563965,4240.512695,4140.512695,4138.589844,4176.153809,4689.230957,4494.871582,4389.102539,4576.538574,6922.000000,3.000000,72.000000,,,,0.000000,4.000000,4.000000,4.000000,4.000000,4.000000,4.000000,2.000000,4.000000,4.000000,4.000000,4.000000,4.000000,4.000000,4.000000,83.333336,,,,,,,,,,,,,,,,,,,,,,,,,,,,
1702803681.201967,1702803681.553621,86.000000,0.000000,4207.179688,4025.256348,4282.179688,4253.846191,4137.307617,4136.794922,4238.589844,4132.948730,4126.410156,4161.282227,4668.461426,4486.282227,4380.512695,4572.051270,5803.000000,3.000000,72.000000,,,,0.000000,4.000000,4.000000,4.000000,4.000000,4.000000,4.000000,2.000000,4.000000,4.000000,4.000000,4.000000,4.000000,4.000000,4.000000,83.333336,,,,,,,,,,,,,,,,,,,,,,,,,,,,
1702803681.209775,1702803681.561529,87.000000,0.000000,4196.794922,4014.871826,4274.102539,4242.307617,4129.871582,4135.512695,4237.948730,4132.436035,4120.384766,4149.487305,4658.333496,4477.692383,4374.615234,4566.922852,5851.000000,3.000000,72.000000,,,,0.000000,4.000000,4.000000,4.000000,4.000000,4.000000,4.000000,2.000000,4.000000,4.000000,4.000000,4.000000,4.000000,4.000000,4.000000,83.333336,,,,,,,,,,,,,,,,,,,,,,,,,,,,
1702803681.217583,1702803681.569337,88.000000,0.000000,4186.410156,4007.564209,4262.692383,4237.436035,4133.589844,4135.512695,4245.641113,4140.897461,4125.256348,4149.358887,4666.282227,4469.102539,4368.077148,4556.666504,6765.000000,3.000000,72.000000,,,,0.000000,4.000000,4.000000,4.000000,4.000000,4.000000,4.000000,2.000000,4.000000,4.000000,4.000000,4.000000,4.000000,4.000000,4.000000,83.333336,,,,,,,,,,,,,,,,,22.000000,0.000000,0.674899,0.175354,-0.695007,0.175293,0.995239,0.001465,-0.030277,-8.084889,15.029856,94.404366
1702803681.225391,1702803681.577246,89.000000,0.000000,4187.179688,4013.333252,4263.461426,4230.769043,4135.384766,4133.846191,4248.846191,4144.871582,4130.256348,4154.102539,4668.846191,4467.692383,4365.769043,4552.692383,6922.000000,3.000000,72.000000,,,,0.000000,4.000000,4.000000,4.000000,4.000000,4.000000,4.000000,2.000000,4.000000,4.000000,4.000000,4.000000,4.000000,4.000000,4.000000,83.333336,,,,,,,,,,,,,,,,,,,,,,,,,,,,
1702803681.233199,1702803681.585054,90.000000,0.000000,4193.461426,4021.153809,4276.025879,4232.563965,4135.000000,4128.974121,4243.333496,4141.538574,4127.692383,4154.615234,4670.512695,4478.077148,4371.025879,4563.589844,5803.000000,3.000000,72.000000,,,,0.000000,4.000000,4.000000,4.000000,4.000000,4.000000,4.000000,2.000000,4.000000,4.000000,4.000000,4.000000,4.000000,4.000000,4.000000,83.333336,1.000000,66.666664,4.000000,3.000000,3.000000,3.000000,4.000000,4.000000,2.000000,4.000000,4.000000,3.000000,4.000000,4.000000,4.000000,4.000000,,,,,,,,,,,,
1702803681.241007,1702803681.592962,91.000000,0.000000,4198.846191,4028.333252,4287.051270,4253.205078,4142.179688,4127.820313,4238.846191,4139.871582,4129.102539,4160.769043,4679.743652,4489.487305,4380.256348,4573.589844,5851.000000,3.000000,72.000000,,,,0.000000,4.000000,4.000000,4.000000,4.000000,4.000000,4.000000,2.000000,4.000000,4.000000,4.000000,4.000000,4.000000,4.000000,4.000000,83.333336,,,,,,,,,,,,,,,,,,,,,,,,,,,,
1702803681.248815,1702803681.600770,92.000000,0.000000,4200.512695,4029.102539,4289.230957,4267.051270,4142.436035,4123.333496,4237.179688,4132.179688,4129.487305,4165.128418,4674.871582,4487.820313,4383.077148,4568.717773,6765.000000,3.000000,72.000000,,,,0.000000,4.000000,4.000000,4.000000,4.000000,4.000000,4.000000,2.000000,4.000000,4.000000,4.000000,4.000000,4.000000,4.000000,4.000000,83.333336,,,,,,,,,,,,,,,,,23.000000,0.000000,0.674899,0.175476,-0.695068,0.174927,0.984007,-0.010255,-0.020510,-8.143067,14.943537,94.397263
1702803681.256623,1702803681.608578,93.000000,0.000000,4200.897461,4023.333252,4289.743652,4259.102539,4138.205078,4113.974121,4236.410156,4126.410156,4121.922852,4156.794922,4668.846191,4483.589844,4383.846191,4567.307617,6922.000000,3.000000,72.000000,,,,0.000000,4.000000,4.000000,4.000000,4.000000,4.000000,4.000000,2.000000,4.000000,4.000000,4.000000,4.000000,4.000000,4.000000,4.000000,83.333336,,,,,,,,,,,,,,,,,,,,,,,,,,,,
1702803681.264431,1702803681.616286,94.000000,0.000000,4202.179688,4024.615479,4294.871582,4250.641113,4139.358887,4118.974121,4239.102539,4139.358887,4124.743652,4155.641113,4677.948730,4490.384766,4385.897461,4576.025879,5803.000000,3.000000,72.000000,,,,0.000000,4.000000,4.000000,4.000000,4.000000,4.000000,4.000000,2.000000,4.000000,4.000000,4.000000,4.000000,4.000000,4.000000,4.000000,83.333336,,,,,,,,,,,,,,,,,,,,,,,,,,,,
1702803681.272240,1702803681.624194,95.000000,0.000000,4192.692383,4021.538574,4284.358887,4246.410156,4134.871582,4130.128418,4240.512695,4152.948730,4137.179688,4152.948730,4672.563965,4485.000000,4371.282227,4564.230957,5851.000000,3.000000,72.000000,,,,0.000000,4.000000,4.000000,4.000000,4.000000,4.000000,4.000000,2.000000,4.000000,4.000000,4.000000,4.000000,4.000000,4.000000,4.000000,83.333336,,,,,,,,,,,,,,,,,,,,,,,,,,,,
1702803681.280048,1702803681.632003,96.000000,0.000000,4179.871582,4006.410156,4269.102539,4221.538574,4126.025879,4131.410156,4241.153809,4157.436035,4145.769043,4140.512695,4660.128418,4466.922852,4356.025879,4540.256348,6765.000000,3.000000,72.000000,,,,0.000000,4.000000,4.000000,4.000000,4.000000,4.000000,4.000000,2.000000,4.000000,4.000000,4.000000,4.000000,4.000000,4.000000,4.000000,83.333336,,,,,,,,,,,,,,,,,24.000000,0.000000,0.674694,0.175781,-0.695251,0.174683,0.981077,0.000488,-0.033207,-8.278761,14.915850,94.390869
1702803681.287856,1702803681.639911,97.000000,0.000000,4182.307617,4001.410156,4271.922852,4216.922852,4124.871582,4131.410156,4245.256348,4162.051270,4149.487305,4143.333496,4662.820313,4466.153809,4363.461426,4540.128418,6922.000000,3.000000,72.000000,,,,0.000000,4.000000,4.000000,4.000000,4.000000,4.000000,4.000000,2.000000,4.000000,4.000000,4.000000,4.000000,4.000000,4.000000,4.000000,83.333336,,,,,,,,,,,,,,,,,,,,,,,,,,,,
1702803681.295664,1702803681.647719,98.000000,0.000000,4191.538574,4013.589844,4280.128418,4246.794922,4128.717773,4127.820313,4243.846191,4159.102539,4146.794922,4154.487305,4662.563965,4478.077148,4373.846191,4555.000000,5803.000000,3.000000,72.000000,,,,0.000000,4.000000,4.000000,4.000000,4.000000,4.000000,4.000000,2.000000,4.000000,4.000000,4.000000,4.000000,4.000000,4.000000,4.000000,83.333336,,,,,,,,,,,,,,,,,,,,,,,,,,,,
1702803681.303472,1702803681.655527,99.000000,0.000000,4199.230957,4025.769287,4292.051270,4261.410156,4131.666504,4122.436035,4239.102539,4143.717773,4139.230957,4156.538574,4669.487305,4483.461426,4379.615234,4563.974121,5851.000000,3.000000,72.000000,,,,0.000000,4.000000,4.000000,4.000000,4.000000,4.000000,4.000000,2.000000,4.000000,4.000000,4.000000,4.000000,4.000000,4.000000,4.000000,83.333336,,,,,,,,,,,,,,,,,,,,,,,,,,,,
1702803681.311280,1702803681.663335,100.000000,0.000000,4203.846191,4029.487061,4300.128418,4257.436035,4136.025879,4123.589844,4238.717773,4135.128418,4131.410156,4160.128418,4684.358887,4483.333496,4390.384766,4566.282227,6765.000000,3.000000,72.000000,,,,0.000000,4.000000,4.000000,4.000000,4.000000,4.000000,4.000000,2.000000,4.000000,4.000000,4.000000,4.000000,4.000000,4.000000,4.000000,83.333336,,,,,,,,,,,,,,,,,25.000000,0.000000,0.674473,0.176025,-0.695435,0.174561,0.991820,-0.008302,-0.021487,-8.167551,14.907598,94.368446
1702803681.319088,1702803681.671044,101.000000,0.000000,4203.077148,4031.410156,4291.153809,4261.153809,4136.538574,4126.538574,4236.666504,4139.358887,4128.077148,4165.256348,4675.256348,4485.512695,4393.461426,4565.128418,6922.000000,3.000000,72.000000,,,,0.000000,4.000000,4.000000,4.000000,4.000000,4.000000,4.000000,2.000000,4.000000,4.000000,4.000000,4.000000,4.000000,4.000000,4.000000,83.333336,,,,,,,,,,,,,,,,,,,,,,,,,,,,
1702803681.326896,1702803681.678852,102.000000,0.000000,4197.692383,4026.794922,4278.589844,4246.282227,4130.897461,4127.820313,4231.538574,4144.487305,4132.179688,4161.282227,4662.436035,4481.410156,4381.282227,4559.615234,5803.000000,3.000000,72.000000,,,,0.000000,4.000000,4.000000,4.000000,4.000000,4.000000,4.000000,2.000000,4.000000,4.000000,4.000000,4.000000,4.000000,4.000000,4.000000,83.333336,,,,,,,,,,,,,,,,,,,,,,,,,,,,
1702803681.334704,1702803681.686560,103.000000,0.000000,4193.589844,4017.820557,4279.230957,4218.077148,4131.153809,4127.436035,4233.077148,4139.871582,4134.615234,4155.769043,4665.000000,4468.461426,4374.487305,4551.922852,5851.000000,3.000000,72.000000,,,,0.000000,4.000000,4.000000,4.000000,4.000000,4.000000,4.000000,2.000000,4.000000,4.000000,4.000000,4.000000,4.000000,4.000000,4.000000,83.333336,,,,,,,,,,,,,,,,,,,,,,,,,,,,
1702803681.342512,1702803681.694468,104.000000,0.000000,4198.333496,4021.153809,4286.282227,4240.512695,4138.205078,4125.641113,4239.102539,4133.333496,4129.102539,4155.512695,4660.128418,4466.666504,4380.256348,4552.307617,6765.000000,3.000000,72.000000,,,,0.000000,4.000000,4.000000,4.000000,4.000000,4.000000,4.000000,2.000000,4.000000,4.000000,4.000000,4.000000,4.000000,4.000000,4.000000,83.333336,,,,,,,,,,,,,,,,,26.000000,0.000000,0.674331,0.176147,-0.695557,0.174500,0.984495,-0.001953,-0.022952,-8.150796,14.983505,94.264938
1702803681.350320,1702803681.702277,105.000000,0.000000,4202.948730,4026.410156,4287.179688,4270.384766,4132.948730,4123.077148,4240.000000,4136.153809,4125.384766,4152.051270,4653.077148,4475.512695,4379.871582,4559.871582,6922.000000,3.000000,72.000000,,,,0.000000,4.000000,4.000000,4.000000,4.000000,4.000000,4.000000,2.000000,4.000000,4.000000,4.000000,4.000000,4.000000,4.000000,4.000000,83.333336,,,,,,,,,,,,,,,,,,,,,,,,,,,,
1702803681.358128,1702803681.710085,106.000000,0.000000,4197.820313,4019.230713,4282.563965,4253.205078,4122.307617,4125.897461,4241.666504,4143.846191,4128.205078,4144.487305,4658.717773,4475.897461,4369.615234,4560.384766,5803.000000,3.000000,72.000000,,,,0.000000,4.000000,4.000000,4.000000,4.000000,4.000000,4.000000,2.000000,4.000000,4.000000,4.000000,4.000000,4.000000,4.000000,4.000000,83.333336,,,,,,,,,,,,,,,,,,,,,,,,,,,,
1702803681.365936,1702803681.717793,107.000000,0.000000,4193.461426,4011.153809,4276.666504,4236.153809,4122.820313,4132.820313,4245.769043,4145.000000,4134.230957,4144.743652,4663.974121,4473.589844,4367.051270,4555.641113,5851.000000,3.000000,72.000000,,,,0.000000,4.000000,4.000000,4.000000,4.000000,4.000000,4.000000,2.000000,4.000000,4.000000,4.000000,4.000000,4.000000,4.000000,4.000000,83.333336,,,,,,,,,,,,,,,,,,,,,,,,,,,,
1702803681.373745,1702803681.725601,108.000000,0.000000,4192.436035,4008.718018,4277.051270,4240.000000,4128.717773,4133.333496,4248.077148,4139.487305,4136.794922,4151.538574,4658.717773,4477.692383,4371.282227,4557.179688,6765.000000,3.000000,72.000000,,,,0.000000,4.000000,4.000000,4.000000,4.000000,4.000000,4.000000,2.000000,4.000000,4.000000,4.000000,4.000000,4.000000,4.000000,4.000000,83.333336,,,,,,,,,,,,,,,,,27.000000,0.000000,0.673968,0.176514,-0.695801,0.174561,0.994262,-0.009767,-0.029789,-8.085716,14.918488,94.371773
1702803681.381553,1702803681.733309,109.000000,0.000000,4193.461426,4012.564209,4282.307617,4243.333496,4134.358887,4133.077148,4249.615234,4140.897461,4137.179688,4155.384766,4648.974121,4480.256348,4369.358887,4561.794922,6922.000000,3.000000,72.000000,,,,0.000000,4.000000,4.000000,4.000000,4.000000,4.000000,4.000000,2.000000,4.000000,4.000000,4.000000,4.000000,4.000000,4.000000,4.000000,83.333336,,,,,,,,,,,,,,,,,,,,,,,,,,,,
1702803681.389361,1702803681.741117,110.000000,0.000000,4199.487305,4015.512939,4285.000000,4233.461426,4130.769043,4132.051270,4250.256348,4147.563965,4137.179688,4148.974121,4650.384766,4478.974121,4361.538574,4561.922852,5803.000000,3.000000,72.000000,,,,0.000000,4.000000,4.000000,4.000000,4.000000,4.000000,4.000000,2.000000,4.000000,4.000000,4.000000,4.000000,4.000000,4.000000,4.000000,83.333336,,,,,,,,,,,,,,,,,,,,,,,,,,,,
1702803681.397169,1702803681.748825,111.000000,0.000000,4204.358887,4014.230713,4287.436035,4230.641113,4125.512695,4128.717773,4247.820313,4147.436035,4135.128418,4148.717773,4669.487305,4482.179688,4367.051270,4563.589844,5851.000000,3.000000,72.000000,,,,0.000000,4.000000,4.000000,4.000000,4.000000,4.000000,4.000000,2.000000,4.000000,4.000000,4.000000,4.000000,4.000000,4.000000,4.000000,83.333336,,,,,,,,,,,,,,,,,,,,,,,,,,,,
1702803681.404977,1702803681.756633,112.000000,0.000000,4206.153809,4021.025635,4292.563965,4248.077148,4131.794922,4131.666504,4245.641113,4143.717773,4133.589844,4160.000000,4679.743652,4488.461426,4382.692383,4571.794922,6765.000000,3.000000,72.000000,,,,0.000000,4.000000,4.000000,4.000000,4.000000,4.000000,4.000000,2.000000,4.000000,4.000000,4.000000,4.000000,4.000000,4.000000,4.000000,83.333336,,,,,,,,,,,,,,,,,28.000000,0.000000,0.673841,0.176758,-0.695862,0.174561,0.993774,-0.001953,-0.036626,-8.143811,15.009973,94.367928
1702803681.412785,1702803681.764341,113.000000,0.000000,4203.461426,4025.641113,4291.410156,4259.358887,4132.051270,4131.794922,4245.769043,4139.487305,4129.230957,4155.256348,4662.179688,4481.153809,4376.794922,4569.358887,6922.000000,3.000000,72.000000,,,,0.000000,4.000000,4.000000,4.000000,4.000000,4.000000,4.000000,2.000000,4.000000,4.000000,4.000000,4.000000,4.000000,4.000000,4.000000,83.333336,,,,,,,,,,,,,,,,,,,,,,,,,,,,
1702803681.420593,1702803681.772149,114.000000,0.000000,4195.128418,4010.128174,4281.922852,4242.436035,4120.000000,4122.436035,4241.794922,4134.743652,4124.102539,4141.794922,4646.538574,4466.538574,4357.051270,4554.358887,5803.000000,3.000000,72.000000,,,,0.000000,4.000000,4.000000,4.000000,4.000000,4.000000,4.000000,2.000000,4.000000,4.000000,4.000000,4.000000,4.000000,4.000000,4.000000,83.333336,,,,,,,,,,,,,,,,,,,,,,,,,,,,
1702803681.428401,1702803681.779857,115.000000,0.000000,4189.487305,3997.820557,4277.692383,4232.307617,4114.230957,4119.487305,4241.538574,4136.666504,4126.410156,4143.077148,4640.256348,4463.589844,4352.692383,4547.179688,5851.000000,3.000000,72.000000,,,,0.000000,4.000000,4.000000,4.000000,4.000000,4.000000,4.000000,2.000000,4.000000,4.000000,4.000000,4.000000,4.000000,4.000000,4.000000,83.333336,,,,,,,,,,,,,,,,,,,,,,,,,,,,
1702803681.436209,1702803681.787765,116.000000,0.000000,4184.230957,4003.205078,4272.692383,4243.717773,4117.051270,4122.692383,4248.205078,4145.897461,4132.692383,4142.820313,4637.307617,4464.230957,4354.871582,4547.563965,6765.000000,3.000000,72.000000,,,,0.000000,4.000000,4.000000,4.000000,4.000000,4.000000,4.000000,2.000000,4.000000,4.000000,4.000000,4.000000,4.000000,4.000000,4.000000,83.333336,,,,,,,,,,,,,,,,,29.000000,0.000000,0.673777,0.176941,-0.695862,0.174622,0.995727,-0.006837,-0.034672,-8.062763,14.975642,94.314468
1702803681.444017,1702803681.795573,117.000000,0.000000,4178.333496,4001.410156,4264.743652,4231.025879,4115.769043,4118.717773,4248.974121,4151.282227,4134.102539,4132.307617,4648.974121,4458.205078,4350.512695,4543.077148,6922.000000,3.000000,72.000000,,,,0.000000,4.000000,4.000000,4.000000,4.000000,4.000000,4.000000,2.000000,4.000000,4.000000,4.000000,4.000000,4.000000,4.000000,4.000000,83.333336,,,,,,,,,,,,,,,,,,,,,,,,,,,,
1702803681.451825,1702803681.803481,118.000000,0.000000,4181.538574,3994.102539,4268.461426,4208.974121,4112.692383,4113.461426,4244.871582,4147.436035,4127.307617,4127.436035,4650.128418,4454.230957,4345.512695,4537.563965,5803.000000,3.000000,72.000000,,,,0.000000,4.000000,4.000000,4.000000,4.000000,4.000000,4.000000,2.000000,4.000000,4.000000,4.000000,4.000000,4.000000,4.000000,4.000000,83.333336,,,,,,,,,,,,,,,,,,,,,,,,,,,,
1702803681.459633,1702803681.811290,119.000000,0.000000,4193.077148,4005.000000,4280.384766,4230.769043,4115.128418,4117.692383,4244.358887,4140.512695,4120.769043,4125.769043,4635.000000,4458.717773,4343.333496,4540.897461,5851.000000,3.000000,72.000000,,,,0.000000,4.000000,4.000000,4.000000,4.000000,4.000000,4.000000,2.000000,4.000000,4.000000,4.000000,4.000000,4.000000,4.000000,4.000000,83.333336,,,,,,,,,,,,,,,,,,,,,,,,,,,,
1702803681.467441,1702803681.819198,120.000000,0.000000,4191.666504,4014.358887,4279.230957,4258.205078,4117.179688,4123.846191,4242.436035,4135.000000,4119.102539,4124.487305,4635.000000,4459.358887,4342.563965,4540.512695,6765.000000,3.000000,72.000000,,,,0.000000,4.000000,4.000000,4.000000,4.000000,4.000000,4.000000,2.000000,4.000000,4.000000,4.000000,4.000000,4.000000,4.000000,4.000000,83.333336,,,,,,,,,,,,,,,,,30.000000,0.000000,0.673792,0.177063,-0.695801,0.174683,0.990844,-0.003418,-0.032719,-7.973154,14.828077,94.383026
1702803681.475250,1702803681.827006,121.000000,0.000000,4177.948730,4002.179443,4269.487305,4241.922852,4115.000000,4123.717773,4238.077148,4133.077148,4119.615234,4124.358887,4632.051270,4451.794922,4341.410156,4532.179688,6922.000000,3.000000,72.000000,,,,0.000000,4.000000,4.000000,4.000000,4.000000,4.000000,4.000000,2.000000,4.000000,4.000000,4.000000,4.000000,4.000000,4.000000,4.000000,83.333336,,,,,,,,,,,,,,,,,,,,,,,,,,,,
1702803681.483058,1702803681.834914,122.000000,0.000000,4180.256348,3996.153809,4272.820313,4218.717773,4112.436035,4120.897461,4240.000000,4136.794922,4118.846191,4122.692383,4621.025879,4450.769043,4343.717773,4532.563965,5803.000000,3.000000,72.000000,,,,0.000000,4.000000,4.000000,4.000000,4.000000,4.000000,4.000000,2.000000,4.000000,4.000000,4.000000,4.000000,4.000000,4.000000,4.000000,83.333336,,,,,,,,,,,,,,,,,,,,,,,,,,,,
1702803681.490866,1702803681.842722,123.000000,0.000000,4189.358887,4004.102539,4276.666504,4232.307617,4112.948730,4119.743652,4242.307617,4134.487305,4113.846191,4123.205078,4631.666504,4453.589844,4350.512695,4532.948730,5851.000000,3.000000,72.000000,,,,0.000000,4.000000,4.000000,4.000000,4.000000,4.000000,4.000000,2.000000,4.000000,4.000000,4.000000,4.000000,4.000000,4.000000,4.000000,83.333336,,,,,,,,,,,,,,,,,,,,,,,,,,,,
1702803681.498674,1702803681.850530,124.000000,0.000000,4184.487305,4002.051270,4272.948730,4231.025879,4114.487305,4118.974121,4239.358887,4122.692383,4106.025879,4124.358887,4640.000000,4448.846191,4348.077148,4526.538574,6765.000000,3.000000,72.000000,,,,0.000000,4.000000,4.000000,4.000000,4.000000,4.000000,4.000000,2.000000,4.000000,4.000000,4.000000,4.000000,4.000000,4.000000,4.000000,83.333336,,,,,,,,,,,,,,,,,31.000000,0.000000,0.673919,0.176819,-0.695740,0.174683,0.992797,-0.007325,-0.031254,-8.109172,14.778604,94.478058
1702803681.506482,1702803681.858339,125.000000,0.000000,4183.077148,3998.589844,4275.000000,4213.205078,4118.333496,4123.974121,4241.922852,4124.615234,4111.922852,4125.769043,4630.641113,4446.282227,4343.077148,4530.256348,6922.000000,3.000000,72.000000,,,,0.000000,4.000000,4.000000,4.000000,4.000000,4.000000,4.000000,2.000000,4.000000,4.000000,4.000000,4.000000,4.000000,4.000000,4.000000,83.333336,,,,,,,,,,,,,,,,,,,,,,,,,,,,
1702803681.514290,1702803681.866047,126.000000,0.000000,4189.358887,3999.358887,4271.922852,4229.871582,4118.589844,4131.794922,4248.333496,4144.230957,4134.743652,4129.743652,4634.230957,4452.948730,4350.000000,4537.051270,5803.000000,3.000000,72.000000,,,,0.000000,4.000000,4.000000,4.000000,4.000000,4.000000,4.000000,2.000000,4.000000,4.000000,4.000000,4.000000,4.000000,4.000000,4.000000,83.333336,,,,,,,,,,,,,,,,,,,,,,,,,,,,
1702803681.522098,1702803681.873855,127.000000,0.000000,4186.282227,3998.333252,4263.077148,4244.871582,4113.974121,4129.230957,4248.077148,4155.384766,4147.179688,4132.307617,4640.769043,4459.487305,4356.410156,4533.589844,72.000000,3.000000,72.000000,,,,0.000000,4.000000,4.000000,4.000000,4.000000,4.000000,4.000000,2.000000,4.000000,4.000000,4.000000,4.000000,4.000000,4.000000,4.000000,83.333336,,,,,,,,,,,,,,,,,,,,,,,,,,,,
1702803681.529906,1702803681.881563,0.000000,0.000000,4182.820313,4001.025635,4264.487305,4227.051270,4114.871582,4121.538574,4243.846191,4150.897461,4139.358887,4129.743652,4630.384766,4458.589844,4351.410156,4532.692383,5208.000000,3.000000,72.000000,,,,0.000000,4.000000,4.000000,4.000000,4.000000,4.000000,4.000000,2.000000,4.000000,4.000000,4.000000,4.000000,4.000000,4.000000,4.000000,83.333336,,,,,,,,,,,,,,,,,0.000000,0.000000,0.674109,0.176575,-0.695618,0.174683,0.989867,-0.006348,-0.029789,-8.148254,14.650743,94.563583
1702803681.537714,1702803681.889371,1.000000,0.000000,4188.974121,4003.076904,4271.282227,4217.436035,4115.000000,4118.333496,4242.692383,4142.948730,4128.589844,4126.666504,4627.436035,4454.615234,4348.589844,4538.589844,5472.000000,3.000000,72.000000,,,,0.000000,4.000000,4.000000,4.000000,4.000000,4.000000,4.000000,2.000000,4.000000,4.000000,4.000000,4.000000,4.000000,4.000000,4.000000,83.333336,,,,,,,,,,,,,,,,,,,,,,,,,,,,
1702803681.545522,1702803681.897079,2.000000,0.000000,4192.820313,4001.794922,4273.077148,4239.615234,4112.179688,4116.025879,4243.077148,4134.487305,4116.025879,4128.974121,4642.563965,4458.333496,4358.717773,4544.358887,4757.000000,3.000000,72.000000,,,,0.000000,4.000000,4.000000,4.000000,4.000000,4.000000,4.000000,2.000000,4.000000,4.000000,4.000000,4.000000,4.000000,4.000000,4.000000,83.333336,,,,,,,,,,,,,,,,,,,,,,,,,,,,
1702803681.553330,1702803681.904887,3.000000,0.000000,4196.538574,4004.358887,4276.410156,4237.051270,4115.384766,4118.077148,4244.230957,4125.256348,4100.128418,4136.025879,4649.230957,4465.000000,4368.333496,4547.820313,5248.000000,3.000000,72.000000,,,,0.000000,4.000000,4.000000,4.000000,4.000000,4.000000,4.000000,2.000000,4.000000,4.000000,4.000000,4.000000,4.000000,4.000000,4.000000,83.333336,,,,,,,,,,,,,,,,,,,,,,,,,,,,
1702803681.561139,1702803681.912595,4.000000,0.000000,4199.615234,4007.179443,4276.922852,4217.179688,4122.820313,4126.410156,4246.153809,4118.333496,4097.051270,4141.282227,4641.282227,4458.974121,4364.743652,4540.512695,5108.000000,3.000000,72.000000,,,,0.000000,4.000000,4.000000,4.000000,4.000000,4.000000,4.000000,2.000000,4.000000,4.000000,4.000000,4.000000,4.000000,4.000000,4.000000,83.333336,,,,,,,,,,,,,,,,,1.000000,0.000000,0.674283,0.176392,-0.695496,0.174683,0.989379,-0.011232,-0.039067,-8.150096,14.852335,94.457222
1702803681.568946,1702803681.920403,5.000000,0.000000,4193.461426,4004.102539,4268.461426,4235.897461,4123.846191,4129.102539,4246.282227,4119.871582,4107.563965,4138.077148,4625.512695,4446.794922,4358.846191,4531.410156,5096.000000,3.000000,72.000000,,,,0.000000,4.000000,4.000000,4.000000,4.000000,4.000000,4.000000,2.000000,4.000000,4.000000,4.000000,4.000000,4.000000,4.000000,4.000000,83.333336,,,,,,,,,,,,,,,,,,,,,,,,,,,,
1702803681.576755,1702803681.928111,6.000000,0.000000,4186.153809,4003.333252,4262.820313,4255.897461,4122.179688,4127.179688,4246.153809,4126.794922,4117.307617,4133.205078,4620.641113,4445.128418,4359.102539,4532.051270,1227.000000,3.000000,72.000000,,,,0.000000,4.000000,4.000000,4.000000,4.000000,4.000000,4.000000,2.000000,4.000000,4.000000,4.000000,4.000000,4.000000,4.000000,4.000000,83.333336,,,,,,,,,,,,,,,,,,,,,,,,,,,,
1702803681.584563,1702803681.935919,7.000000,0.000000,4181.538574,4005.384521,4261.025879,4236.025879,4123.589844,4129.230957,4246.282227,4134.487305,4124.871582,4130.897461,4633.461426,4446.410156,4355.641113,4530.897461,4906.000000,3.000000,72.000000,,,,0.000000,4.000000,4.000000,4.000000,4.000000,4.000000,4.000000,2.000000,4.000000,4.000000,4.000000,4.000000,4.000000,4.000000,4.000000,83.333336,,,,,,,,,,,,,,,,,,,,,,,,,,,,
1702803681.592371,1702803681.943627,8.000000,0.000000,4180.897461,4007.948730,4261.410156,4220.897461,4119.743652,4130.128418,4246.922852,4143.589844,4134.743652,4134.102539,4640.000000,4446.538574,4352.820313,4528.205078,5133.000000,3.000000,72.000000,,,,0.000000,4.000000,4.000000,4.000000,4.000000,4.000000,4.000000,2.000000,4.000000,4.000000,4.000000,4.000000,4.000000,4.000000,4.000000,83.333336,,,,,,,,,,,,,,,,,2.000000,0.000000,0.674441,0.176208,-0.695374,0.174744,1.007447,-0.010743,-0.029300,-8.068419,14.833769,94.478172
1702803681.600179,1702803681.951435,9.000000,0.000000,4185.384766,4009.230713,4268.333496,4230.000000,4112.436035,4123.974121,4248.846191,4149.871582,4136.666504,4136.538574,4635.641113,4449.230957,4359.230957,4529.871582,5228.000000,3.000000,72.000000,,,,0.000000,4.000000,4.000000,4.000000,4.000000,4.000000,4.000000,2.000000,4.000000,4.000000,4.000000,4.000000,4.000000,4.000000,4.000000,83.333336,,,,,,,,,,,,,,,,,,,,,,,,,,,,
1702803681.607987,1702803681.959143,10.000000,0.000000,4185.769043,4002.307617,4276.282227,4226.922852,4112.307617,4121.025879,4247.051270,4150.384766,4131.410156,4132.692383,4637.179688,4452.692383,4361.922852,4531.538574,5803.000000,3.000000,72.000000,,,,0.000000,4.000000,4.000000,4.000000,4.000000,4.000000,4.000000,2.000000,4.000000,4.000000,4.000000,4.000000,4.000000,4.000000,4.000000,83.333336,,,,,,,,,,,,,,,,,,,,,,,,,,,,
1702803681.615795,1702803681.967052,11.000000,0.000000,4182.948730,4002.564209,4278.974121,4233.974121,4120.384766,4126.666504,4244.615234,4153.717773,4135.897461,4135.769043,4644.871582,4457.820313,4359.743652,4535.769043,5865.000000,3.000000,72.000000,,,,0.000000,4.000000,4.000000,4.000000,4.000000,4.000000,4.000000,2.000000,4.000000,4.000000,4.000000,4.000000,4.000000,4.000000,4.000000,83.333336,,,,,,,,,,,,,,,,,,,,,,,,,,,,
1702803681.623603,1702803681.974860,12.000000,0.000000,4180.384766,4008.589844,4272.179688,4249.230957,4123.077148,4127.820313,4246.538574,4153.974121,4134.230957,4136.410156,4641.410156,4453.717773,4356.666504,4534.230957,6753.000000,3.000000,72.000000,,,,0.000000,4.000000,4.000000,4.000000,4.000000,4.000000,4.000000,2.000000,4.000000,4.000000,4.000000,4.000000,4.000000,4.000000,4.000000,83.333336,,,,,,,,,,,,,,,,,3.000000,0.000000,0.674536,0.176147,-0.695313,0.174683,0.993285,-0.004883,-0.028812,-8.211577,14.817059,94.497017
1702803681.631411,1702803681.982768,13.000000,0.000000,4180.512695,4007.179443,4266.666504,4236.794922,4119.487305,4128.717773,4249.358887,4139.358887,4114.358887,4125.000000,4634.743652,4445.128418,4354.230957,4528.974121,6917.000000,3.000000,72.000000,,,,0.000000,4.000000,4.000000,4.000000,4.000000,4.000000,4.000000,2.000000,4.000000,4.000000,4.000000,4.000000,4.000000,4.000000,4.000000,83.333336,,,,,,,,,,,,,,,,,,,,,,,,,,,,
1702803681.639219,1702803681.990576,14.000000,0.000000,4188.846191,4010.384521,4275.384766,4234.358887,4123.974121,4131.282227,4246.282227,4126.410156,4106.538574,4125.641113,4636.666504,4450.000000,4358.974121,4534.487305,5803.000000,3.000000,72.000000,,,,0.000000,4.000000,4.000000,4.000000,4.000000,4.000000,4.000000,2.000000,4.000000,4.000000,4.000000,4.000000,4.000000,4.000000,4.000000,83.333336,,,,,,,,,,,,,,,,,,,,,,,,,,,,
1702803681.647027,1702803681.998484,15.000000,0.000000,4195.769043,4016.666748,4284.743652,4248.461426,4129.102539,4125.000000,4243.077148,4127.179688,4118.589844,4136.025879,4636.153809,4458.846191,4366.794922,4540.641113,5865.000000,3.000000,72.000000,,,,0.000000,4.000000,4.000000,4.000000,4.000000,4.000000,4.000000,2.000000,4.000000,4.000000,4.000000,4.000000,4.000000,4.000000,4.000000,83.333336,,,,,,,,,,,,,,,,,,,,,,,,,,,,
1702803681.654835,1702803682.006292,16.000000,0.000000,4188.205078,4007.820557,4275.897461,4224.487305,4122.307617,4121.153809,4244.743652,4129.743652,4123.333496,4132.820313,4635.256348,4451.794922,4364.871582,4531.922852,0.000000,3.000000,72.000000,,,,0.000000,4.000000,4.000000,4.000000,4.000000,4.000000,4.000000,2.000000,4.000000,4.000000,4.000000,4.000000,4.000000,4.000000,4.000000,83.333336,,,,,,,,,,,,,,,,,4.000000,0.000000,0.674567,0.176086,-0.695251,0.174866,1.004029,-0.019045,-0.028812,-8.340420,14.718686,94.430649
1702803681.662644,1702803682.014200,17.000000,0.000000,4175.769043,3993.205078,4262.179688,4196.794922,4115.769043,4128.333496,4247.307617,4131.666504,4120.512695,4125.384766,4627.820313,4439.358887,4354.743652,4521.282227,0.000000,3.000000,72.000000,,,,0.000000,4.000000,4.000000,4.000000,4.000000,4.000000,4.000000,2.000000,4.000000,4.000000,4.000000,4.000000,4.000000,4.000000,4.000000,83.333336,,,,,,,,,,,,,,,,,,,,,,,,,,,,
1702803681.670452,1702803682.022009,18.000000,0.000000,4175.769043,3993.846191,4264.230957,4228.205078,4116.538574,4131.538574,4246.282227,4141.410156,4129.358887,4131.282227,4626.282227,4444.102539,4354.615234,4523.589844,0.000000,3.000000,72.000000,,,,0.000000,4.000000,4.000000,4.000000,4.000000,4.000000,4.000000,2.000000,4.000000,4.000000,4.000000,4.000000,4.000000,4.000000,4.000000,83.333336,,,,,,,,,,,,,,,,,,,,,,,,,,,,
1702803681.678260,1702803682.029917,19.000000,0.000000,4178.589844,3998.076904,4265.384766,4249.743652,4111.153809,4124.871582,4243.717773,4148.717773,4136.153809,4135.000000,4631.666504,4448.846191,4357.563965,4523.717773,0.000000,3.000000,72.000000,,,,0.000000,4.000000,4.000000,4.000000,4.000000,4.000000,4.000000,2.000000,4.000000,4.000000,4.000000,4.000000,4.000000,4.000000,4.000000,83.333336,,,,,,,,,,,,,,,,,,,,,,,,,,,,
1702803681.686068,1702803682.037725,20.000000,0.000000,4175.128418,3997.435791,4259.871582,4221.538574,4109.230957,4120.384766,4242.436035,4145.256348,4131.922852,4130.897461,4625.384766,4447.307617,4355.769043,4519.358887,0.000000,3.000000,72.000000,,,,0.000000,4.000000,4.000000,4.000000,4.000000,4.000000,4.000000,2.000000,4.000000,4.000000,4.000000,4.000000,4.000000,4.000000,4.000000,83.333336,,,,,,,,,,,,,,,,,5.000000,0.000000,0.674520,0.176086,-0.695251,0.175049,0.997192,-0.010255,-0.030765,-8.356378,14.680150,94.270920
1702803681.693876,1702803682.045633,21.000000,0.000000,4178.077148,4005.641113,4266.282227,4219.230957,4115.512695,4119.358887,4240.000000,4146.922852,4132.307617,4133.333496,4631.794922,4456.282227,4366.153809,4526.282227,0.000000,3.000000,72.000000,,,,0.000000,4.000000,4.000000,4.000000,4.000000,4.000000,4.000000,2.000000,4.000000,4.000000,4.000000,4.000000,4.000000,4.000000,4.000000,83.333336,,,,,,,,,,,,,,,,,,,,,,,,,,,,
1702803681.701684,1702803682.053441,22.000000,0.000000,4181.410156,4011.025635,4266.410156,4241.025879,4110.384766,4112.948730,4235.512695,4143.205078,4128.461426,4129.871582,4629.743652,4452.051270,4368.461426,4526.025879,0.000000,3.000000,72.000000,,,,0.000000,4.000000,4.000000,4.000000,4.000000,4.000000,4.000000,2.000000,4.000000,4.000000,4.000000,4.000000,4.000000,4.000000,4.000000,83.333336,,,,,,,,,,,,,,,,,,,,,,,,,,,,
1702803681.709492,1702803682.061349,23.000000,0.000000,4180.641113,4004.230713,4257.051270,4216.922852,4103.205078,4114.230957,4236.153809,4126.794922,4114.230957,4121.922852,4603.589844,4431.410156,4354.743652,4514.358887,0.000000,3.000000,72.000000,,,,0.000000,4.000000,4.000000,4.000000,4.000000,4.000000,4.000000,2.000000,4.000000,4.000000,4.000000,4.000000,4.000000,4.000000,4.000000,83.333336,,,,,,,,,,,,,,,,,,,,,,,,,,,,
1702803681.717300,1702803682.069158,24.000000,0.000000,4186.153809,4002.692383,4260.512695,4205.769043,4112.563965,4129.871582,4242.307617,4122.820313,4112.820313,4129.102539,4607.051270,4434.102539,4360.769043,4520.512695,0.000000,3.000000,72.000000,,,,0.000000,4.000000,4.000000,4.000000,4.000000,4.000000,4.000000,2.000000,4.000000,4.000000,4.000000,4.000000,4.000000,4.000000,4.000000,83.333336,,,,,,,,,,,,,,,,,6.000000,0.000000,0.674551,0.176147,-0.695190,0.175110,0.994262,-0.021487,-0.037602,-8.454074,14.612136,94.343826
1702803681.725108,1702803682.076866,25.000000,0.000000,4192.948730,4011.538574,4267.051270,4245.128418,4125.256348,4135.512695,4244.102539,4126.153809,4119.487305,4138.077148,4636.794922,4447.307617,4376.538574,4535.641113,0.000000,3.000000,72.000000,,,,0.000000,4.000000,4.000000,4.000000,4.000000,4.000000,4.000000,2.000000,4.000000,4.000000,4.000000,4.000000,4.000000,4.000000,4.000000,83.333336,,,,,,,,,,,,,,,,,,,,,,,,,,,,
1702803681.732916,1702803682.084674,26.000000,0.000000,4196.922852,4023.333252,4269.487305,4264.615234,4127.179688,4129.487305,4244.358887,4120.000000,4115.512695,4138.589844,4636.666504,4445.897461,4377.692383,4537.563965,0.000000,3.000000,72.000000,,,,0.000000,4.000000,4.000000,4.000000,4.000000,4.000000,4.000000,2.000000,4.000000,4.000000,4.000000,4.000000,4.000000,4.000000,4.000000,83.333336,1.000000,66.666664,4.000000,4.000000,3.000000,3.000000,4.000000,4.000000,2.000000,4.000000,4.000000,4.000000,4.000000,4.000000,4.000000,4.000000,,,,,,,,,,,,
1702803681.740724,1702803682.092382,27.000000,0.000000,4197.436035,4024.487061,4271.666504,4245.897461,4122.051270,4128.461426,4247.051270,4121.153809,4113.589844,4137.179688,4621.025879,4446.410156,4374.615234,4538.077148,0.000000,3.000000,72.000000,,,,0.000000,4.000000,4.000000,4.000000,4.000000,4.000000,4.000000,2.000000,4.000000,4.000000,4.000000,4.000000,4.000000,4.000000,4.000000,83.333336,,,,,,,,,,,,,,,,,,,,,,,,,,,,
1702803681.748532,1702803682.100190,28.000000,0.000000,4194.871582,4019.358887,4266.282227,4231.282227,4119.743652,4128.717773,4245.512695,4140.512695,4127.820313,4138.333496,4627.563965,4456.153809,4377.179688,4545.128418,0.000000,3.000000,72.000000,,,,0.000000,4.000000,4.000000,4.000000,4.000000,4.000000,4.000000,2.000000,4.000000,4.000000,4.000000,4.000000,4.000000,4.000000,4.000000,83.333336,,,,,,,,,,,,,,,,,7.000000,0.000000,0.674645,0.176147,-0.695068,0.175232,0.989867,-0.020022,-0.040532,-8.475333,14.700922,94.459442
1702803681.756340,1702803682.107898,29.000000,0.000000,4188.717773,4016.794922,4254.487305,4236.922852,4119.615234,4125.897461,4243.077148,4153.205078,4140.128418,4138.077148,4631.666504,4456.153809,4378.974121,4545.769043,0.000000,3.000000,72.000000,,,,0.000000,4.000000,4.000000,4.000000,4.000000,4.000000,4.000000,2.000000,4.000000,4.000000,4.000000,4.000000,4.000000,4.000000,4.000000,83.333336,,,,,,,,,,,,,,,,,,,,,,,,,,,,
1702803681.764149,1702803682.115806,30.000000,0.000000,4181.153809,4006.666748,4248.461426,4225.384766,4118.205078,4126.666504,4245.512695,4145.256348,4136.025879,4130.897461,4625.256348,4439.743652,4368.205078,4534.358887,0.000000,3.000000,72.000000,,,,0.000000,4.000000,4.000000,4.000000,4.000000,4.000000,4.000000,2.000000,4.000000,4.000000,4.000000,4.000000,4.000000,4.000000,4.000000,83.333336,,,,,,,,,,,,,,,,,,,,,,,,,,,,
1702803681.771957,1702803682.123615,31.000000,0.000000,4185.512695,4003.333252,4258.717773,4207.051270,4120.128418,4135.256348,4246.410156,4140.769043,4134.102539,4128.333496,4630.384766,4438.333496,4361.794922,4531.410156,0.000000,3.000000,72.000000,,,,0.000000,4.000000,4.000000,4.000000,4.000000,4.000000,4.000000,2.000000,4.000000,4.000000,4.000000,4.000000,4.000000,4.000000,4.000000,83.333336,,,,,,,,,,,,,,,,,,,,,,,,,,,,
1702803681.779765,1702803682.131523,32.000000,0.000000,4191.922852,4012.051270,4267.692383,4225.384766,4121.922852,4134.358887,4244.743652,4141.666504,4134.743652,4133.717773,4636.410156,4451.666504,4373.077148,4536.410156,0.000000,3.000000,72.000000,,,,0.000000,4.000000,4.000000,4.000000,4.000000,4.000000,4.000000,2.000000,4.000000,4.000000,4.000000,4.000000,4.000000,4.000000,4.000000,83.333336,,,,,,,,,,,,,,,,,8.000000,0.000000,0.674708,0.176086,-0.695007,0.175293,0.976682,-0.011720,-0.021487,-8.477799,14.714163,94.430168
1702803681.787573,1702803682.139331,33.000000,0.000000,4189.102539,4017.051270,4262.692383,4256.153809,4119.743652,4122.307617,4243.205078,4132.051270,4119.358887,4135.512695,4627.051270,4450.000000,4379.358887,4536.922852,0.000000,3.000000,72.000000,,,,0.000000,4.000000,4.000000,4.000000,4.000000,4.000000,4.000000,2.000000,4.000000,4.000000,4.000000,4.000000,4.000000,4.000000,4.000000,83.333336,,,,,,,,,,,,,,,,,,,,,,,,,,,,
1702803681.795381,1702803682.147239,34.000000,0.000000,4188.461426,4016.025635,4261.410156,4256.025879,4113.589844,4119.230957,4240.641113,4121.922852,4106.153809,4131.922852,4619.871582,4441.153809,4372.436035,4536.794922,0.000000,3.000000,72.000000,,,,0.000000,4.000000,4.000000,4.000000,4.000000,4.000000,4.000000,2.000000,4.000000,4.000000,4.000000,4.000000,4.000000,4.000000,4.000000,83.333336,,,,,,,,,,,,,,,,,,,,,,,,,,,,
1702803681.803189,1702803682.155047,35.000000,0.000000,4187.307617,4015.256348,4263.974121,4228.846191,4107.820313,4121.794922,4240.384766,4119.487305,4109.487305,4125.128418,4626.153809,4438.717773,4369.743652,4533.589844,0.000000,3.000000,72.000000,,,,0.000000,4.000000,4.000000,4.000000,4.000000,4.000000,4.000000,2.000000,4.000000,4.000000,4.000000,4.000000,4.000000,4.000000,4.000000,83.333336,,,,,,,,,,,,,,,,,,,,,,,,,,,,
1702803681.810997,1702803682.162855,36.000000,0.000000,4190.512695,4022.948730,4267.051270,4233.461426,4112.051270,4121.538574,4244.487305,4131.025879,4123.205078,4128.461426,4628.589844,4448.846191,4381.666504,4539.487305,0.000000,3.000000,72.000000,,,,0.000000,4.000000,4.000000,4.000000,4.000000,4.000000,4.000000,2.000000,4.000000,4.000000,4.000000,4.000000,4.000000,4.000000,4.000000,83.333336,,,,,,,,,,,,,,,,,9.000000,0.000000,0.674818,0.176086,-0.694946,0.175110,0.995239,-0.007813,-0.029789,-8.480020,14.592747,94.403816
1702803681.818805,1702803682.170564,37.000000,0.000000,4198.205078,4024.102539,4272.051270,4252.307617,4114.102539,4118.077148,4247.307617,4148.846191,4131.922852,4136.794922,4635.000000,4466.025879,4392.692383,4555.384766,0.000000,3.000000,72.000000,,,,0.000000,4.000000,4.000000,4.000000,4.000000,4.000000,4.000000,2.000000,4.000000,4.000000,4.000000,4.000000,4.000000,4.000000,4.000000,83.333336,,,,,,,,,,,,,,,,,,,,,,,,,,,,
1702803681.826613,1702803682.178472,38.000000,0.000000,4192.563965,4008.205078,4267.563965,4222.820313,4107.051270,4114.102539,4244.358887,4149.615234,4123.589844,4129.487305,4650.512695,4466.410156,4388.717773,4553.974121,0.000000,3.000000,72.000000,,,,0.000000,4.000000,4.000000,4.000000,4.000000,4.000000,4.000000,2.000000,4.000000,4.000000,4.000000,4.000000,4.000000,4.000000,4.000000,83.333336,,,,,,,,,,,,,,,,,,,,,,,,,,,,
1702803681.834421,1702803682.186280,39.000000,0.000000,4185.256348,4006.025635,4262.307617,4201.410156,4102.948730,4113.974121,4243.717773,4140.128418,4115.384766,4125.256348,4650.897461,4455.128418,4382.436035,4543.717773,0.000000,3.000000,72.000000,,,,0.000000,4.000000,4.000000,4.000000,4.000000,4.000000,4.000000,2.000000,4.000000,4.000000,4.000000,4.000000,4.000000,4.000000,4.000000,83.333336,,,,,,,,,,,,,,,,,,,,,,,,,,,,
1702803681.842229,1702803682.194188,40.000000,0.000000,4188.205078,4016.153809,4263.077148,4228.077148,4104.743652,4113.717773,4246.922852,4135.641113,4117.820313,4129.615234,4632.948730,4450.000000,4381.538574,4541.666504,0.000000,3.000000,72.000000,,,,0.000000,4.000000,4.000000,4.000000,4.000000,4.000000,4.000000,2.000000,4.000000,4.000000,4.000000,4.000000,4.000000,4.000000,4.000000,83.333336,,,,,,,,,,,,,,,,,10.000000,0.000000,0.674802,0.176147,-0.694946,0.175110,0.985472,0.007325,-0.029789,-8.448685,14.633472,94.480103
1702803681.850037,1702803682.202096,41.000000,0.000000,4191.282227,4015.769287,4263.717773,4252.563965,4112.307617,4117.563965,4244.102539,4132.563965,4126.794922,4129.102539,4630.384766,4452.307617,4384.230957,4543.846191,0.000000,3.000000,72.000000,,,,0.000000,4.000000,4.000000,4.000000,4.000000,4.000000,4.000000,2.000000,4.000000,4.000000,4.000000,4.000000,4.000000,4.000000,4.000000,83.333336,,,,,,,,,,,,,,,,,,,,,,,,,,,,
1702803681.857845,1702803682.209904,42.000000,0.000000,4191.282227,4021.794922,4265.128418,4243.461426,4120.000000,4123.205078,4238.717773,4129.487305,4131.922852,4132.179688,4642.820313,4459.487305,4389.102539,4546.922852,0.000000,3.000000,72.000000,,,,0.000000,4.000000,4.000000,4.000000,4.000000,4.000000,4.000000,2.000000,4.000000,4.000000,4.000000,4.000000,4.000000,4.000000,4.000000,83.333336,,,,,,,,,,,,,,,,,,,,,,,,,,,,
1702803681.865654,1702803682.217712,43.000000,0.000000,4191.538574,4031.025635,4267.820313,4232.692383,4120.769043,4117.307617,4238.846191,4132.307617,4129.102539,4135.641113,4642.563965,4464.743652,4390.000000,4547.820313,0.000000,3.000000,72.000000,,,,0.000000,4.000000,4.000000,4.000000,4.000000,4.000000,4.000000,2.000000,4.000000,4.000000,4.000000,4.000000,4.000000,4.000000,4.000000,83.333336,,,,,,,,,,,,,,,,,,,,,,,,,,,,
1702803681.873462,1702803682.225621,44.000000,0.000000,4190.641113,4021.923096,4267.563965,4235.000000,4115.000000,4116.282227,4243.974121,4137.692383,4130.000000,4130.769043,4634.871582,4462.307617,4387.179688,4543.333496,0.000000,3.000000,72.000000,,,,0.000000,4.000000,4.000000,4.000000,4.000000,4.000000,4.000000,2.000000,4.000000,4.000000,4.000000,4.000000,4.000000,4.000000,4.000000,83.333336,,,,,,,,,,,,,,,,,11.000000,0.000000,0.674864,0.176331,-0.694824,0.175171,1.000610,-0.014650,-0.024417,-8.403816,14.686791,94.482094
1702803681.881270,1702803682.233429,45.000000,0.000000,4186.025879,4009.743652,4259.615234,4229.743652,4109.487305,4120.512695,4245.000000,4132.179688,4122.948730,4123.717773,4627.948730,4450.512695,4380.769043,4536.538574,0.000000,3.000000,72.000000,,,,0.000000,4.000000,4.000000,4.000000,4.000000,4.000000,4.000000,2.000000,4.000000,4.000000,4.000000,4.000000,4.000000,4.000000,4.000000,83.333336,,,,,,,,,,,,,,,,,,,,,,,,,,,,
1702803681.889078,1702803682.241137,46.000000,0.000000,4191.410156,4013.205078,4256.794922,4217.948730,4108.205078,4112.948730,4239.102539,4119.743652,4102.051270,4124.358887,4628.077148,4447.307617,4380.641113,4539.358887,0.000000,3.000000,72.000000,,,,0.000000,4.000000,4.000000,4.000000,4.000000,4.000000,4.000000,2.000000,4.000000,4.000000,4.000000,4.000000,4.000000,4.000000,4.000000,83.333336,,,,,,,,,,,,,,,,,,,,,,,,,,,,
1702803681.896886,1702803682.249045,47.000000,0.000000,4200.897461,4017.307617,4264.487305,4207.436035,4103.846191,4105.128418,4236.794922,4112.563965,4087.564209,4125.256348,4632.436035,4456.282227,4386.410156,4547.307617,0.000000,3.000000,72.000000,,,,0.000000,4.000000,4.000000,4.000000,4.000000,4.000000,4.000000,2.000000,4.000000,4.000000,4.000000,4.000000,4.000000,4.000000,4.000000,83.333336,,,,,,,,,,,,,,,,,,,,,,,,,,,,
1702803681.904694,1702803682.256853,48.000000,0.000000,4196.282227,4013.461426,4265.641113,4221.666504,4099.615234,4105.769043,4239.102539,4113.717773,4092.435791,4117.307617,4624.871582,4455.128418,4384.871582,4543.589844,0.000000,3.000000,72.000000,,,,0.000000,4.000000,4.000000,4.000000,4.000000,4.000000,4.000000,2.000000,4.000000,4.000000,4.000000,4.000000,4.000000,4.000000,4.000000,83.333336,,,,,,,,,,,,,,,,,12.000000,0.000000,0.675021,0.176392,-0.694641,0.175232,0.998657,-0.007813,-0.029300,-8.480101,14.634779,94.500549
1702803681.912502,1702803682.264662,49.000000,0.000000,4193.717773,4018.846191,4264.615234,4248.461426,4103.846191,4113.974121,4239.102539,4132.051270,4119.743652,4120.512695,4624.871582,4457.051270,4384.487305,4543.461426,0.000000,3.000000,72.000000,,,,0.000000,4.000000,4.000000,4.000000,4.000000,4.000000,4.000000,2.000000,4.000000,4.000000,4.000000,4.000000,4.000000,4.000000,4.000000,83.333336,,,,,,,,,,,,,,,,,,,,,,,,,,,,
1702803681.920310,1702803682.272370,50.000000,0.000000,4195.256348,4013.589844,4265.641113,4230.641113,4103.974121,4120.000000,4240.512695,4151.153809,4142.820313,4131.538574,4632.820313,4465.769043,4385.128418,4547.436035,0.000000,3.000000,72.000000,,,,0.000000,4.000000,4.000000,4.000000,4.000000,4.000000,4.000000,2.000000,4.000000,4.000000,4.000000,4.000000,4.000000,4.000000,4.000000,83.333336,,,,,,,,,,,,,,,,,,,,,,,,,,,,
1702803681.928118,1702803682.280178,51.000000,0.000000,4193.077148,4004.871826,4264.615234,4207.179688,4104.487305,4124.871582,4245.512695,4155.769043,4146.025879,4134.871582,4642.692383,4469.230957,4387.436035,4546.153809,0.000000,3.000000,72.000000,,,,0.000000,4.000000,4.000000,4.000000,4.000000,4.000000,4.000000,2.000000,4.000000,4.000000,4.000000,4.000000,4.000000,4.000000,4.000000,83.333336,,,,,,,,,,,,,,,,,,,,,,,,,,,,
1702803681.935926,1702803682.287886,52.000000,0.000000,4198.589844,4021.666748,4266.666504,4231.538574,4111.538574,4130.384766,4247.820313,4158.077148,4150.128418,4136.538574,4651.922852,4472.563965,4397.692383,4549.358887,0.000000,3.000000,72.000000,,,,0.000000,4.000000,4.000000,4.000000,4.000000,4.000000,4.000000,2.000000,4.000000,4.000000,4.000000,4.000000,4.000000,4.000000,4.000000,83.333336,,,,,,,,,,,,,,,,,13.000000,0.000000,0.675036,0.176453,-0.694580,0.175354,0.993774,-0.007813,-0.029300,-8.498757,14.637968,94.483826
1702803681.943734,1702803682.295694,53.000000,0.000000,4199.487305,4025.897461,4269.358887,4228.974121,4107.179688,4114.102539,4244.487305,4145.384766,4138.333496,4125.000000,4630.384766,4466.282227,4391.153809,4546.666504,0.000000,3.000000,72.000000,,,,0.000000,4.000000,4.000000,4.000000,4.000000,4.000000,4.000000,2.000000,4.000000,4.000000,4.000000,4.000000,4.000000,4.000000,4.000000,83.333336,,,,,,,,,,,,,,,,,,,,,,,,,,,,
1702803681.951543,1702803682.303402,54.000000,0.000000,4196.922852,4017.051270,4274.487305,4208.717773,4101.922852,4103.846191,4239.358887,4122.692383,4109.871582,4115.384766,4618.461426,4460.384766,4379.615234,4542.307617,0.000000,3.000000,72.000000,,,,0.000000,4.000000,4.000000,4.000000,4.000000,4.000000,4.000000,2.000000,4.000000,4.000000,4.000000,4.000000,4.000000,4.000000,4.000000,83.333336,,,,,,,,,,,,,,,,,,,,,,,,,,,,
1702803681.959350,1702803682.311210,55.000000,0.000000,4203.077148,4024.102539,4279.743652,4238.717773,4106.025879,4117.563965,4238.846191,4117.692383,4092.051270,4117.692383,4633.205078,4467.436035,4381.025879,4546.153809,0.000000,3.000000,72.000000,,,,0.000000,4.000000,4.000000,4.000000,4.000000,4.000000,4.000000,2.000000,4.000000,4.000000,4.000000,4.000000,4.000000,4.000000,4.000000,83.333336,,,,,,,,,,,,,,,,,,,,,,,,,,,,
1702803681.967159,1702803682.318918,56.000000,0.000000,4204.230957,4026.410156,4277.563965,4258.846191,4108.077148,4118.461426,4242.820313,4123.333496,4089.743652,4115.512695,4620.769043,4470.256348,4380.000000,4547.436035,0.000000,3.000000,72.000000,,,,0.000000,4.000000,4.000000,4.000000,4.000000,4.000000,4.000000,2.000000,4.000000,4.000000,4.000000,4.000000,4.000000,4.000000,4.000000,83.333336,,,,,,,,,,,,,,,,,14.000000,0.000000,0.675052,0.176453,-0.694580,0.175293,0.987914,-0.008302,-0.034672,-8.465549,14.507504,94.502113
1702803681.974967,1702803682.326726,57.000000,0.000000,4202.820313,4026.153809,4277.179688,4242.820313,4111.282227,4111.794922,4242.692383,4130.000000,4111.794922,4124.102539,4622.179688,4476.666504,4390.000000,4555.641113,0.000000,3.000000,72.000000,,,,0.000000,4.000000,4.000000,4.000000,4.000000,4.000000,4.000000,2.000000,4.000000,4.000000,4.000000,4.000000,4.000000,4.000000,4.000000,83.333336,,,,,,,,,,,,,,,,,,,,,,,,,,,,
1702803681.982775,1702803682.334434,58.000000,0.000000,4196.025879,4025.897461,4272.051270,4230.512695,4117.051270,4118.333496,4236.794922,4136.025879,4134.358887,4138.461426,4651.025879,4480.384766,4399.615234,4558.846191,0.000000,3.000000,72.000000,,,,0.000000,4.000000,4.000000,4.000000,4.000000,4.000000,4.000000,2.000000,4.000000,4.000000,4.000000,4.000000,4.000000,4.000000,4.000000,83.333336,,,,,,,,,,,,,,,,,,,,,,,,,,,,
1702803681.990583,1702803682.342342,59.000000,0.000000,4184.230957,4021.153809,4264.487305,4226.922852,4120.641113,4126.282227,4237.436035,4133.974121,4127.179688,4135.512695,4646.410156,4469.743652,4390.512695,4544.615234,0.000000,3.000000,72.000000,,,,0.000000,4.000000,4.000000,4.000000,4.000000,4.000000,4.000000,2.000000,4.000000,4.000000,4.000000,4.000000,4.000000,4.000000,4.000000,83.333336,,,,,,,,,,,,,,,,,,,,,,,,,,,,
1702803681.998391,1702803682.350151,60.000000,0.000000,4185.897461,4021.281982,4268.461426,4230.769043,4113.461426,4119.230957,4244.358887,4128.846191,4114.358887,4123.205078,4625.128418,4469.358887,4385.256348,4542.820313,0.000000,3.000000,72.000000,,,,0.000000,4.000000,4.000000,4.000000,4.000000,4.000000,4.000000,2.000000,4.000000,4.000000,4.000000,4.000000,4.000000,4.000000,4.000000,83.333336,,,,,,,,,,,,,,,,,15.000000,0.000000,0.675084,0.176514,-0.694580,0.175110,0.991332,-0.014162,-0.025394,-8.418994,14.656754,94.385231
1702803682.006199,1702803682.357959,61.000000,0.000000,4189.871582,4017.948730,4268.461426,4220.897461,4098.077148,4105.000000,4242.179688,4132.820313,4116.153809,4114.230957,4624.230957,4473.589844,4382.436035,4548.589844,0.000000,3.000000,72.000000,,,,0.000000,4.000000,4.000000,4.000000,4.000000,4.000000,4.000000,2.000000,4.000000,4.000000,4.000000,4.000000,4.000000,4.000000,4.000000,83.333336,,,,,,,,,,,,,,,,,,,,,,,,,,,,
1702803682.014007,1702803682.365667,62.000000,0.000000,4185.128418,4011.281982,4262.820313,4197.179688,4090.641113,4104.358887,4236.282227,4145.641113,4120.897461,4110.384766,4622.307617,4466.153809,4375.769043,4539.871582,0.000000,3.000000,72.000000,,,,0.000000,4.000000,4.000000,4.000000,4.000000,4.000000,4.000000,2.000000,4.000000,4.000000,4.000000,4.000000,4.000000,4.000000,4.000000,83.333336,,,,,,,,,,,,,,,,,,,,,,,,,,,,
1702803682.021815,1702803682.373575,63.000000,0.000000,4182.692383,4013.076904,4263.333496,4210.128418,4097.563965,4112.436035,4240.256348,4148.589844,4120.641113,4114.358887,4615.512695,4460.512695,4379.871582,4534.871582,0.000000,3.000000,72.000000,,,,0.000000,4.000000,4.000000,4.000000,4.000000,4.000000,4.000000,2.000000,4.000000,4.000000,4.000000,4.000000,4.000000,4.000000,4.000000,83.333336,,,,,,,,,,,,,,,,,,,,,,,,,,,,
1702803682.029623,1702803682.381383,64.000000,0.000000,4186.282227,4022.820557,4263.333496,4243.846191,4112.307617,4122.436035,4244.102539,4136.922852,4118.846191,4122.051270,4625.384766,4462.563965,4390.384766,4541.282227,5208.000000,3.000000,72.000000,,,,0.000000,4.000000,4.000000,4.000000,4.000000,4.000000,4.000000,2.000000,4.000000,4.000000,4.000000,4.000000,4.000000,4.000000,4.000000,83.333336,,,,,,,,,,,,,,,,,16.000000,0.000000,0.675036,0.176636,-0.694641,0.174927,0.988402,-0.000488,-0.030277,-8.393761,14.824411,94.380043
1702803682.037431,1702803682.389291,65.000000,0.000000,4185.000000,4026.410156,4260.000000,4231.025879,4116.282227,4129.358887,4239.102539,4122.820313,4111.666504,4117.948730,4630.769043,4457.436035,4385.000000,4535.256348,5419.000000,3.000000,72.000000,,,,0.000000,4.000000,4.000000,4.000000,4.000000,4.000000,4.000000,2.000000,4.000000,4.000000,4.000000,4.000000,4.000000,4.000000,4.000000,83.333336,,,,,,,,,,,,,,,,,,,,,,,,,,,,
1702803682.045239,1702803682.397100,66.000000,0.000000,4177.436035,4016.410156,4252.692383,4206.282227,4107.820313,4124.230957,4235.384766,4115.256348,4105.384766,4108.589844,4615.128418,4444.743652,4375.897461,4520.897461,4754.000000,3.000000,72.000000,,,,0.000000,4.000000,4.000000,4.000000,4.000000,4.000000,4.000000,2.000000,4.000000,4.000000,4.000000,4.000000,4.000000,4.000000,4.000000,83.333336,,,,,,,,,,,,,,,,,,,,,,,,,,,,
1702803682.053048,1702803682.405008,67.000000,0.000000,4180.000000,4011.794922,4252.820313,4214.358887,4103.333496,4118.974121,4237.820313,4121.538574,4111.538574,4115.128418,4612.692383,4449.358887,4381.410156,4525.384766,5242.000000,3.000000,72.000000,,,,0.000000,4.000000,4.000000,4.000000,4.000000,4.000000,4.000000,2.000000,4.000000,4.000000,4.000000,4.000000,4.000000,4.000000,4.000000,83.333336,,,,,,,,,,,,,,,,,,,,,,,,,,,,
1702803682.060856,1702803682.412816,68.000000,0.000000,4185.769043,4013.205078,4260.512695,4203.077148,4101.666504,4114.230957,4238.589844,4126.794922,4112.307617,4118.205078,4617.948730,4454.230957,4379.487305,4529.615234,5111.000000,3.000000,72.000000,,,,0.000000,4.000000,4.000000,4.000000,4.000000,4.000000,4.000000,2.000000,4.000000,4.000000,4.000000,4.000000,4.000000,4.000000,4.000000,83.333336,,,,,,,,,,,,,,,,,17.000000,0.000000,0.675005,0.176697,-0.694641,0.174988,0.993774,0.000488,-0.034672,-8.254385,14.675304,94.242043
1702803682.068663,1702803682.420524,69.000000,0.000000,4186.025879,4015.512939,4265.128418,4192.948730,4099.871582,4106.410156,4236.794922,4121.666504,4103.846191,4105.256348,4599.743652,4447.692383,4370.769043,4521.538574,5095.000000,3.000000,72.000000,,,,0.000000,4.000000,4.000000,4.000000,4.000000,4.000000,4.000000,2.000000,4.000000,4.000000,4.000000,4.000000,4.000000,4.000000,4.000000,83.333336,,,,,,,,,,,,,,,,,,,,,,,,,,,,
1702803682.076472,1702803682.428332,70.000000,0.000000,4193.077148,4026.794922,4269.487305,4232.820313,4102.820313,4107.436035,4234.871582,4118.717773,4105.128418,4106.794922,4599.358887,4456.410156,4381.282227,4529.102539,1232.000000,3.000000,72.000000,,,,0.000000,4.000000,4.000000,4.000000,4.000000,4.000000,4.000000,2.000000,4.000000,4.000000,4.000000,4.000000,4.000000,4.000000,4.000000,83.333336,,,,,,,,,,,,,,,,,,,,,,,,,,,,
1702803682.084280,1702803682.436041,71.000000,0.000000,4199.358887,4033.076904,4272.820313,4253.333496,4108.461426,4111.666504,4232.820313,4117.820313,4107.179688,4115.000000,4628.333496,4462.436035,4391.153809,4539.743652,4908.000000,3.000000,72.000000,,,,0.000000,4.000000,4.000000,4.000000,4.000000,4.000000,4.000000,2.000000,4.000000,4.000000,4.000000,4.000000,4.000000,4.000000,4.000000,83.333336,,,,,,,,,,,,,,,,,,,,,,,,,,,,
1702803682.092088,1702803682.443849,72.000000,0.000000,4191.922852,4025.769287,4270.641113,4224.102539,4108.717773,4116.666504,4235.128418,4126.538574,4114.230957,4115.769043,4636.666504,4454.743652,4387.179688,4535.128418,5126.000000,3.000000,72.000000,,,,0.000000,4.000000,4.000000,4.000000,4.000000,4.000000,4.000000,2.000000,4.000000,4.000000,4.000000,4.000000,4.000000,4.000000,4.000000,83.333336,,,,,,,,,,,,,,,,,18.000000,0.000000,0.674989,0.176697,-0.694641,0.175049,0.985472,-0.006348,-0.025882,-8.228947,14.774440,94.401169
1702803682.099896,1702803682.451557,73.000000,0.000000,4181.794922,4018.589844,4258.846191,4201.922852,4105.897461,4119.743652,4242.436035,4143.205078,4133.461426,4123.077148,4625.256348,4452.948730,4385.512695,4528.205078,5222.000000,3.000000,72.000000,,,,0.000000,4.000000,4.000000,4.000000,4.000000,4.000000,4.000000,2.000000,4.000000,4.000000,4.000000,4.000000,4.000000,4.000000,4.000000,83.333336,,,,,,,,,,,,,,,,,,,,,,,,,,,,
1702803682.107704,1702803682.459365,74.000000,0.000000,4187.307617,4022.307617,4257.692383,4224.358887,4106.153809,4114.230957,4245.000000,4148.461426,4145.128418,4135.256348,4627.692383,4459.487305,4391.794922,4532.692383,5806.000000,3.000000,72.000000,,,,0.000000,4.000000,4.000000,4.000000,4.000000,4.000000,4.000000,2.000000,4.000000,4.000000,4.000000,4.000000,4.000000,4.000000,4.000000,83.333336,,,,,,,,,,,,,,,,,,,,,,,,,,,,
