title:شاهين عطش, start timestamp:1703488689.238456, stop timestamp:1703488700.005749, headset type:EPOCX, headset serial:E50206EF, headset firmware:720, channels:67, sampling rate:eeg_128;mot_32, samples:1380      , version:2.2, 
Timestamp,OriginalTimestamp,EEG.Counter,EEG.Interpolated,EEG.AF3,EEG.F7,EEG.F3,EEG.FC5,EEG.T7,EEG.P7,EEG.O1,EEG.O2,EEG.P8,EEG.T8,EEG.FC6,EEG.F4,EEG.F8,EEG.AF4,EEG.RawCq,EEG.Battery,EEG.BatteryPercent,MarkerIndex,MarkerType,MarkerValueInt,EEG.MarkerHardware,CQ.AF3,CQ.F7,CQ.F3,CQ.FC5,CQ.T7,CQ.P7,CQ.O1,CQ.O2,CQ.P8,CQ.T8,CQ.FC6,CQ.F4,CQ.F8,CQ.AF4,CQ.Overall,EQ.SampleRateQuality,EQ.OVERALL,EQ.AF3,EQ.F7,EQ.F3,EQ.FC5,EQ.T7,EQ.P7,EQ.O1,EQ.O2,EQ.P8,EQ.T8,EQ.FC6,EQ.F4,EQ.F8,EQ.AF4,MOT.CounterMems,MOT.InterpolatedMems,MOT.Q0,MOT.Q1,MOT.Q2,MOT.Q3,MOT.AccX,MOT.AccY,MOT.AccZ,MOT.MagX,MOT.MagY,MOT.MagZ
1703488689.238456,1703488689.239054,115.000000,0.000000,4264.615234,4241.282227,4360.000000,4296.153809,4247.179688,4220.256348,4320.641113,4229.743652,4220.769043,4215.512695,4472.436035,4451.153809,4360.512695,4436.666504,6260.000000,4.000000,96.000000,,,,0.000000,4.000000,4.000000,4.000000,4.000000,4.000000,4.000000,4.000000,4.000000,4.000000,4.000000,4.000000,4.000000,4.000000,4.000000,100.000000,,,,,,,,,,,,,,,,,,,,,,,,,,,,
1703488689.246264,1703488689.246762,116.000000,0.000000,4273.461426,4256.153809,4365.128418,4302.179688,4256.282227,4228.461426,4322.948730,4240.000000,4222.179688,4220.384766,4484.102539,4468.333496,4369.102539,4449.102539,6750.000000,4.000000,96.000000,,,,0.000000,4.000000,4.000000,4.000000,4.000000,4.000000,4.000000,4.000000,4.000000,4.000000,4.000000,4.000000,4.000000,4.000000,4.000000,100.000000,,,,,,,,,,,,,,,,,29.000000,0.000000,0.715278,-0.089050,-0.676208,0.152283,0.922964,-0.332560,0.063973,-10.773688,-42.649242,61.862167
1703488689.254072,1703488689.254570,117.000000,0.000000,4262.948730,4246.410156,4355.769043,4293.717773,4238.846191,4235.000000,4317.820313,4245.512695,4215.000000,4216.410156,4476.794922,4457.051270,4359.358887,4440.769043,6935.000000,4.000000,96.000000,,,,0.000000,4.000000,4.000000,4.000000,4.000000,4.000000,4.000000,4.000000,4.000000,4.000000,4.000000,4.000000,4.000000,4.000000,4.000000,100.000000,,,,,,,,,,,,,,,,,,,,,,,,,,,,
1703488689.261880,1703488689.262278,118.000000,0.000000,4257.436035,4243.846191,4350.769043,4289.102539,4236.282227,4237.179688,4316.153809,4243.333496,4213.205078,4207.436035,4467.563965,4442.692383,4350.256348,4425.641113,5836.000000,4.000000,96.000000,,,,0.000000,4.000000,4.000000,4.000000,4.000000,4.000000,4.000000,4.000000,4.000000,4.000000,4.000000,4.000000,4.000000,4.000000,4.000000,100.000000,,,,,,,,,,,,,,,,,,,,,,,,,,,,
1703488689.269688,1703488689.270086,119.000000,0.000000,4263.846191,4252.436035,4353.077148,4291.025879,4253.846191,4236.666504,4320.641113,4253.717773,4226.153809,4212.436035,4477.307617,4451.794922,4356.410156,4431.666504,6260.000000,4.000000,96.000000,,,,0.000000,4.000000,4.000000,4.000000,4.000000,4.000000,4.000000,4.000000,4.000000,4.000000,4.000000,4.000000,4.000000,4.000000,4.000000,100.000000,,,,,,,,,,,,,,,,,,,,,,,,,,,,
1703488689.277496,1703488689.277794,120.000000,0.000000,4263.846191,4247.692383,4350.000000,4285.769043,4240.000000,4231.538574,4319.102539,4272.179688,4243.974121,4226.410156,4492.563965,4466.153809,4362.948730,4448.589844,6750.000000,4.000000,96.000000,,,,0.000000,4.000000,4.000000,4.000000,4.000000,4.000000,4.000000,4.000000,4.000000,4.000000,4.000000,4.000000,4.000000,4.000000,4.000000,100.000000,,,,,,,,,,,,,,,,,30.000000,0.000000,0.715197,-0.089233,-0.676270,0.152283,0.922476,-0.324258,0.063973,-10.779654,-42.650986,61.925953
1703488689.285304,1703488689.285602,121.000000,0.000000,4258.589844,4243.589844,4342.051270,4277.563965,4232.692383,4235.641113,4317.307617,4276.025879,4252.436035,4236.282227,4491.282227,4463.333496,4360.256348,4445.897461,6935.000000,4.000000,96.000000,,,,0.000000,4.000000,4.000000,4.000000,4.000000,4.000000,4.000000,4.000000,4.000000,4.000000,4.000000,4.000000,4.000000,4.000000,4.000000,100.000000,,,,,,,,,,,,,,,,,,,,,,,,,,,,
1703488689.293112,1703488689.293310,122.000000,0.000000,4259.230957,4249.615234,4336.666504,4276.025879,4246.282227,4243.205078,4319.102539,4268.974121,4245.000000,4229.743652,4476.282227,4447.436035,4350.384766,4430.897461,5836.000000,4.000000,96.000000,,,,0.000000,4.000000,4.000000,4.000000,4.000000,4.000000,4.000000,4.000000,4.000000,4.000000,4.000000,4.000000,4.000000,4.000000,4.000000,100.000000,,,,,,,,,,,,,,,,,,,,,,,,,,,,
1703488689.300920,1703488689.301218,123.000000,0.000000,4261.538574,4249.487305,4342.692383,4281.282227,4238.077148,4234.230957,4317.563965,4260.256348,4238.077148,4217.692383,4470.641113,4441.666504,4342.820313,4425.641113,6260.000000,4.000000,96.000000,,,,0.000000,4.000000,4.000000,4.000000,4.000000,4.000000,4.000000,4.000000,4.000000,4.000000,4.000000,4.000000,4.000000,4.000000,4.000000,100.000000,,,,,,,,,,,,,,,,,,,,,,,,,,,,
1703488689.308728,1703488689.309026,124.000000,0.000000,4261.025879,4251.410156,4356.794922,4290.641113,4236.794922,4226.282227,4316.922852,4252.436035,4243.461426,4226.922852,4474.230957,4453.717773,4348.589844,4428.974121,6750.000000,4.000000,96.000000,,,,0.000000,4.000000,4.000000,4.000000,4.000000,4.000000,4.000000,4.000000,4.000000,4.000000,4.000000,4.000000,4.000000,4.000000,4.000000,100.000000,,,,,,,,,,,,,,,,,31.000000,0.000000,0.714875,-0.089294,-0.676575,0.152405,0.937614,-0.336955,0.052252,-10.701688,-42.619221,61.983356
1703488689.316536,1703488689.316934,125.000000,0.000000,4261.794922,4258.461426,4357.820313,4295.128418,4248.077148,4228.461426,4318.846191,4246.153809,4242.307617,4238.589844,4466.153809,4450.512695,4352.692383,4428.461426,6935.000000,4.000000,96.000000,,,,0.000000,4.000000,4.000000,4.000000,4.000000,4.000000,4.000000,4.000000,4.000000,4.000000,4.000000,4.000000,4.000000,4.000000,4.000000,100.000000,,,,,,,,,,,,,,,,,,,,,,,,,,,,
1703488689.324344,1703488689.324742,126.000000,0.000000,4261.410156,4259.358887,4354.615234,4293.846191,4245.641113,4234.102539,4320.384766,4237.692383,4227.692383,4227.307617,4457.820313,4434.230957,4348.205078,4422.051270,5836.000000,4.000000,96.000000,,,,0.000000,4.000000,4.000000,4.000000,4.000000,4.000000,4.000000,4.000000,4.000000,4.000000,4.000000,4.000000,4.000000,4.000000,4.000000,100.000000,,,,,,,,,,,,,,,,,,,,,,,,,,,,
1703488689.332152,1703488689.332650,127.000000,0.000000,4262.820313,4261.666504,4364.230957,4297.307617,4250.641113,4241.282227,4323.077148,4229.615234,4215.512695,4213.077148,4466.025879,4443.333496,4352.692383,4422.563965,96.000000,4.000000,96.000000,,,,0.000000,4.000000,4.000000,4.000000,4.000000,4.000000,4.000000,4.000000,4.000000,4.000000,4.000000,4.000000,4.000000,4.000000,4.000000,100.000000,,,,,,,,,,,,,,,,,,,,,,,,,,,,
1703488689.339960,1703488689.340457,0.000000,0.000000,4274.743652,4271.282227,4374.615234,4306.410156,4265.641113,4240.769043,4324.358887,4233.461426,4214.487305,4213.205078,4478.205078,4465.897461,4362.307617,4437.563965,5430.000000,4.000000,96.000000,,,,0.000000,4.000000,4.000000,4.000000,4.000000,4.000000,4.000000,4.000000,4.000000,4.000000,4.000000,4.000000,4.000000,4.000000,4.000000,100.000000,,,,,,,,,,,,,,,,,0.000000,0.000000,0.714575,-0.089172,-0.676880,0.152527,0.949335,-0.337444,0.073251,-10.914852,-42.690632,61.918354
1703488689.347768,1703488689.348365,1.000000,0.000000,4280.512695,4270.000000,4372.051270,4306.538574,4251.666504,4231.153809,4321.153809,4243.717773,4215.256348,4217.307617,4478.717773,4466.025879,4367.307617,4442.692383,5500.000000,4.000000,96.000000,,,,0.000000,4.000000,4.000000,4.000000,4.000000,4.000000,4.000000,4.000000,4.000000,4.000000,4.000000,4.000000,4.000000,4.000000,4.000000,100.000000,,,,,,,,,,,,,,,,,,,,,,,,,,,,
1703488689.355576,1703488689.356173,2.000000,0.000000,4264.871582,4262.179688,4363.461426,4297.563965,4228.077148,4233.461426,4318.461426,4248.077148,4214.102539,4224.615234,4473.717773,4455.384766,4363.846191,4428.205078,5332.000000,4.000000,96.000000,,,,0.000000,4.000000,4.000000,4.000000,4.000000,4.000000,4.000000,4.000000,4.000000,4.000000,4.000000,4.000000,4.000000,4.000000,4.000000,100.000000,,,,,,,,,,,,,,,,,,,,,,,,,,,,
1703488689.363384,1703488689.364081,3.000000,0.000000,4249.871582,4261.153809,4354.230957,4292.563965,4233.974121,4247.179688,4319.487305,4252.179688,4216.025879,4226.538574,4474.615234,4455.256348,4353.333496,4418.205078,5419.000000,4.000000,96.000000,,,,0.000000,4.000000,4.000000,4.000000,4.000000,4.000000,4.000000,4.000000,4.000000,4.000000,4.000000,4.000000,4.000000,4.000000,4.000000,100.000000,,,,,,,,,,,,,,,,,,,,,,,,,,,,
1703488689.371192,1703488689.371889,4.000000,0.000000,4245.769043,4256.025879,4347.307617,4293.846191,4253.717773,4248.717773,4322.307617,4262.051270,4226.153809,4218.589844,4476.153809,4453.077148,4352.692383,4415.512695,5230.000000,4.000000,96.000000,,,,0.000000,4.000000,4.000000,4.000000,4.000000,4.000000,4.000000,4.000000,4.000000,4.000000,4.000000,4.000000,4.000000,4.000000,4.000000,100.000000,,,,,,,,,,,,,,,,,1.000000,0.000000,0.713770,-0.088562,-0.677795,0.152588,0.942010,-0.318887,0.067879,-11.123367,-42.738235,61.976521
1703488689.379000,1703488689.379797,5.000000,0.000000,4238.333496,4248.461426,4346.410156,4293.589844,4259.615234,4245.384766,4324.358887,4271.025879,4238.974121,4220.256348,4474.743652,4447.820313,4355.641113,4410.897461,5116.000000,4.000000,96.000000,,,,0.000000,4.000000,4.000000,4.000000,4.000000,4.000000,4.000000,4.000000,4.000000,4.000000,4.000000,4.000000,4.000000,4.000000,4.000000,100.000000,,,,,,,,,,,,,,,,,,,,,,,,,,,,
1703488689.386809,1703488689.387605,6.000000,0.000000,4233.205078,4246.922852,4348.205078,4294.615234,4247.436035,4249.487305,4322.692383,4274.743652,4250.128418,4231.922852,4476.666504,4449.743652,4352.948730,4412.820313,2221.000000,4.000000,96.000000,,,,0.000000,4.000000,4.000000,4.000000,4.000000,4.000000,4.000000,4.000000,4.000000,4.000000,4.000000,4.000000,4.000000,4.000000,4.000000,100.000000,,,,,,,,,,,,,,,,,,,,,,,,,,,,
1703488689.394616,1703488689.395513,7.000000,0.000000,4238.717773,4251.282227,4349.743652,4302.692383,4248.974121,4250.897461,4321.922852,4267.179688,4253.077148,4236.666504,4476.410156,4456.922852,4357.692383,4412.692383,5120.000000,4.000000,96.000000,,,,0.000000,4.000000,4.000000,4.000000,4.000000,4.000000,4.000000,4.000000,4.000000,4.000000,4.000000,4.000000,4.000000,4.000000,4.000000,100.000000,,,,,,,,,,,,,,,,,,,,,,,,,,,,
1703488689.402424,1703488689.403321,8.000000,0.000000,4246.410156,4256.666504,4354.871582,4306.282227,4267.307617,4248.461426,4323.974121,4254.871582,4250.641113,4239.615234,4476.153809,4461.666504,4365.128418,4407.179688,5290.000000,4.000000,96.000000,,,,0.000000,4.000000,4.000000,4.000000,4.000000,4.000000,4.000000,4.000000,4.000000,4.000000,4.000000,4.000000,4.000000,4.000000,4.000000,100.000000,,,,,,,,,,,,,,,,,2.000000,0.000000,0.712562,-0.088135,-0.678955,0.153320,0.921011,-0.320352,0.058601,-11.077697,-42.664413,61.795532
1703488689.410233,1703488689.411229,9.000000,0.000000,4247.436035,4257.307617,4360.641113,4298.077148,4258.077148,4247.436035,4320.641113,4246.025879,4250.641113,4240.897461,4477.179688,4458.461426,4356.538574,4408.461426,5318.000000,4.000000,96.000000,,,,0.000000,4.000000,4.000000,4.000000,4.000000,4.000000,4.000000,4.000000,4.000000,4.000000,4.000000,4.000000,4.000000,4.000000,4.000000,100.000000,,,,,,,,,,,,,,,,,,,,,,,,,,,,
1703488689.418041,1703488689.419037,10.000000,0.000000,4247.563965,4248.461426,4364.230957,4293.846191,4241.282227,4248.333496,4315.641113,4233.461426,4242.179688,4231.666504,4472.436035,4449.102539,4349.615234,4413.846191,5828.000000,4.000000,96.000000,,,,0.000000,4.000000,4.000000,4.000000,4.000000,4.000000,4.000000,4.000000,4.000000,4.000000,4.000000,4.000000,4.000000,4.000000,4.000000,100.000000,,,,,,,,,,,,,,,,,,,,,,,,,,,,
1703488689.425849,1703488689.426745,11.000000,0.000000,4256.025879,4246.410156,4371.282227,4298.717773,4257.692383,4246.025879,4319.615234,4221.025879,4225.256348,4232.948730,4472.179688,4448.461426,4363.717773,4415.641113,6240.000000,4.000000,96.000000,,,,0.000000,4.000000,4.000000,4.000000,4.000000,4.000000,4.000000,4.000000,4.000000,4.000000,4.000000,4.000000,4.000000,4.000000,4.000000,100.000000,,,,,,,,,,,,,,,,,,,,,,,,,,,,
1703488689.433657,1703488689.434553,12.000000,0.000000,4266.282227,4260.897461,4377.563965,4300.128418,4269.230957,4244.871582,4324.230957,4225.000000,4217.820313,4236.410156,4477.436035,4465.000000,4368.077148,4417.307617,6746.000000,4.000000,96.000000,,,,0.000000,4.000000,4.000000,4.000000,4.000000,4.000000,4.000000,4.000000,4.000000,4.000000,4.000000,4.000000,4.000000,4.000000,4.000000,100.000000,,,,,,,,,,,,,,,,,3.000000,0.000000,0.711433,-0.088135,-0.679932,0.154236,0.931754,-0.340862,0.055183,-10.903261,-42.681305,61.832645
1703488689.441465,1703488689.442261,13.000000,0.000000,4262.051270,4267.051270,4372.436035,4299.487305,4248.589844,4248.846191,4319.487305,4232.948730,4218.461426,4224.102539,4472.692383,4472.307617,4359.615234,4420.897461,6902.000000,4.000000,96.000000,,,,0.000000,4.000000,4.000000,4.000000,4.000000,4.000000,4.000000,4.000000,4.000000,4.000000,4.000000,4.000000,4.000000,4.000000,4.000000,100.000000,,,,,,,,,,,,,,,,,,,,,,,,,,,,
1703488689.449273,1703488689.450169,14.000000,0.000000,4249.615234,4260.128418,4356.666504,4303.205078,4242.051270,4249.487305,4317.179688,4232.820313,4211.025879,4212.436035,4466.410156,4455.512695,4359.487305,4419.487305,5828.000000,4.000000,96.000000,,,,0.000000,4.000000,4.000000,4.000000,4.000000,4.000000,4.000000,4.000000,4.000000,4.000000,4.000000,4.000000,4.000000,4.000000,4.000000,100.000000,,,,,,,,,,,,,,,,,,,,,,,,,,,,
1703488689.457081,1703488689.457977,15.000000,0.000000,4248.717773,4262.948730,4347.563965,4310.000000,4251.153809,4244.871582,4320.000000,4239.743652,4206.538574,4216.666504,4473.077148,4445.769043,4366.025879,4414.358887,6240.000000,4.000000,96.000000,,,,0.000000,4.000000,4.000000,4.000000,4.000000,4.000000,4.000000,4.000000,4.000000,4.000000,4.000000,4.000000,4.000000,4.000000,4.000000,100.000000,,,,,,,,,,,,,,,,,,,,,,,,,,,,
1703488689.464889,1703488689.465785,16.000000,0.000000,4252.051270,4266.794922,4352.307617,4311.794922,4236.410156,4242.179688,4315.384766,4252.820313,4223.717773,4230.512695,4479.102539,4456.025879,4368.717773,4412.563965,0.000000,4.000000,96.000000,,,,0.000000,4.000000,4.000000,4.000000,4.000000,4.000000,4.000000,4.000000,4.000000,4.000000,4.000000,4.000000,4.000000,4.000000,4.000000,100.000000,,,,,,,,,,,,,,,,,4.000000,0.000000,0.710518,-0.087952,-0.680786,0.154785,0.921499,-0.327677,0.048346,-10.912934,-42.829842,61.782715
1703488689.472697,1703488689.473493,17.000000,0.000000,4245.769043,4253.846191,4356.538574,4309.743652,4235.512695,4245.128418,4313.974121,4251.794922,4237.051270,4234.102539,4475.769043,4456.538574,4362.436035,4410.769043,0.000000,4.000000,96.000000,,,,0.000000,4.000000,4.000000,4.000000,4.000000,4.000000,4.000000,4.000000,4.000000,4.000000,4.000000,4.000000,4.000000,4.000000,4.000000,100.000000,,,,,,,,,,,,,,,,,,,,,,,,,,,,
1703488689.480505,1703488689.481301,18.000000,0.000000,4236.794922,4247.948730,4352.820313,4316.922852,4258.846191,4249.102539,4321.794922,4247.948730,4232.692383,4227.692383,4471.410156,4445.256348,4357.563965,4403.077148,0.000000,4.000000,96.000000,,,,0.000000,4.000000,4.000000,4.000000,4.000000,4.000000,4.000000,4.000000,4.000000,4.000000,4.000000,4.000000,4.000000,4.000000,4.000000,100.000000,,,,,,,,,,,,,,,,,,,,,,,,,,,,
1703488689.488313,1703488689.489009,19.000000,0.000000,4231.153809,4260.384766,4353.461426,4328.846191,4260.769043,4248.974121,4325.384766,4250.769043,4232.820313,4232.692383,4468.205078,4448.717773,4357.436035,4398.846191,0.000000,4.000000,96.000000,,,,0.000000,4.000000,4.000000,4.000000,4.000000,4.000000,4.000000,4.000000,4.000000,4.000000,4.000000,4.000000,4.000000,4.000000,4.000000,100.000000,,,,,,,,,,,,,,,,,,,,,,,,,,,,
1703488689.496121,1703488689.496817,20.000000,0.000000,4229.358887,4253.717773,4356.538574,4326.922852,4253.461426,4248.461426,4321.153809,4241.538574,4235.384766,4235.384766,4460.641113,4448.717773,4354.487305,4399.102539,0.000000,4.000000,96.000000,,,,0.000000,4.000000,4.000000,4.000000,4.000000,4.000000,4.000000,4.000000,4.000000,4.000000,4.000000,4.000000,4.000000,4.000000,4.000000,100.000000,,,,,,,,,,,,,,,,,5.000000,0.000000,0.709938,-0.087952,-0.681335,0.155029,0.922964,-0.325235,0.036137,-10.888308,-42.913525,61.704445
1703488689.503929,1703488689.504525,21.000000,0.000000,4229.358887,4231.794922,4349.871582,4314.615234,4257.436035,4251.025879,4317.179688,4227.563965,4228.461426,4223.974121,4455.769043,4435.128418,4346.922852,4396.025879,0.000000,4.000000,96.000000,,,,0.000000,4.000000,4.000000,4.000000,4.000000,4.000000,4.000000,4.000000,4.000000,4.000000,4.000000,4.000000,4.000000,4.000000,4.000000,100.000000,,,,,,,,,,,,,,,,,,,,,,,,,,,,
1703488689.511737,1703488689.512333,22.000000,0.000000,4232.563965,4238.589844,4348.717773,4310.256348,4252.436035,4250.256348,4318.077148,4235.512695,4228.846191,4226.410156,4465.897461,4442.948730,4349.102539,4403.333496,0.000000,4.000000,96.000000,,,,0.000000,4.000000,4.000000,4.000000,4.000000,4.000000,4.000000,4.000000,4.000000,4.000000,4.000000,4.000000,4.000000,4.000000,4.000000,100.000000,,,,,,,,,,,,,,,,,,,,,,,,,,,,
1703488689.519545,1703488689.520041,23.000000,0.000000,4235.384766,4250.000000,4358.846191,4312.436035,4234.871582,4244.615234,4316.922852,4250.384766,4238.717773,4243.077148,4480.641113,4460.512695,4360.641113,4410.512695,0.000000,4.000000,96.000000,,,,0.000000,4.000000,4.000000,4.000000,4.000000,4.000000,4.000000,4.000000,4.000000,4.000000,4.000000,4.000000,4.000000,4.000000,4.000000,100.000000,1.000000,91.666664,4.000000,4.000000,3.000000,4.000000,4.000000,4.000000,4.000000,4.000000,4.000000,4.000000,4.000000,4.000000,4.000000,4.000000,,,,,,,,,,,,
1703488689.527353,1703488689.527849,24.000000,0.000000,4230.128418,4236.153809,4354.102539,4310.641113,4222.820313,4247.051270,4309.358887,4244.230957,4232.692383,4233.846191,4471.538574,4449.743652,4354.102539,4398.333496,0.000000,4.000000,96.000000,,,,0.000000,4.000000,4.000000,4.000000,4.000000,4.000000,4.000000,4.000000,4.000000,4.000000,4.000000,4.000000,4.000000,4.000000,4.000000,100.000000,,,,,,,,,,,,,,,,,6.000000,0.000000,0.709494,-0.088013,-0.681763,0.155151,0.925894,-0.347699,0.046392,-10.882811,-42.972172,61.650665
1703488689.535161,1703488689.535557,25.000000,0.000000,4231.153809,4236.410156,4348.717773,4308.717773,4226.282227,4248.077148,4307.948730,4237.692383,4223.589844,4221.025879,4462.820313,4443.333496,4350.256348,4399.615234,0.000000,4.000000,96.000000,,,,0.000000,4.000000,4.000000,4.000000,4.000000,4.000000,4.000000,4.000000,4.000000,4.000000,4.000000,4.000000,4.000000,4.000000,4.000000,100.000000,,,,,,,,,,,,,,,,,,,,,,,,,,,,
1703488689.542969,1703488689.543465,26.000000,0.000000,4242.692383,4253.589844,4360.256348,4311.666504,4239.102539,4233.974121,4313.333496,4244.871582,4230.256348,4238.846191,4479.871582,4465.512695,4363.333496,4421.282227,0.000000,4.000000,96.000000,,,,0.000000,4.000000,4.000000,4.000000,4.000000,4.000000,4.000000,4.000000,4.000000,4.000000,4.000000,4.000000,4.000000,4.000000,4.000000,100.000000,,,,,,,,,,,,,,,,,,,,,,,,,,,,
1703488689.550777,1703488689.551273,27.000000,0.000000,4253.846191,4257.948730,4368.461426,4320.769043,4245.000000,4227.436035,4313.461426,4253.077148,4238.077148,4253.717773,4494.615234,4481.025879,4370.641113,4435.000000,0.000000,4.000000,96.000000,,,,0.000000,4.000000,4.000000,4.000000,4.000000,4.000000,4.000000,4.000000,4.000000,4.000000,4.000000,4.000000,4.000000,4.000000,4.000000,100.000000,,,,,,,,,,,,,,,,,,,,,,,,,,,,
1703488689.558585,1703488689.559181,28.000000,0.000000,4261.922852,4261.282227,4365.512695,4327.563965,4249.615234,4240.641113,4314.871582,4257.436035,4235.769043,4237.563965,4493.333496,4476.794922,4370.769043,4439.358887,0.000000,4.000000,96.000000,,,,0.000000,4.000000,4.000000,4.000000,4.000000,4.000000,4.000000,4.000000,4.000000,4.000000,4.000000,4.000000,4.000000,4.000000,4.000000,100.000000,,,,,,,,,,,,,,,,,7.000000,0.000000,0.709422,-0.088013,-0.681824,0.155212,0.925894,-0.335002,0.039067,-10.861196,-43.091621,61.702267
1703488689.566394,1703488689.566989,29.000000,0.000000,4260.384766,4268.589844,4364.102539,4322.179688,4250.128418,4248.846191,4316.410156,4253.333496,4226.794922,4223.077148,4486.794922,4466.410156,4371.282227,4438.077148,0.000000,4.000000,96.000000,,,,0.000000,4.000000,4.000000,4.000000,4.000000,4.000000,4.000000,4.000000,4.000000,4.000000,4.000000,4.000000,4.000000,4.000000,4.000000,100.000000,,,,,,,,,,,,,,,,,,,,,,,,,,,,
1703488689.574201,1703488689.574896,30.000000,0.000000,4256.666504,4264.743652,4361.794922,4308.589844,4233.846191,4245.897461,4311.153809,4248.589844,4229.871582,4231.282227,4485.897461,4461.282227,4368.589844,4430.897461,0.000000,4.000000,96.000000,,,,0.000000,4.000000,4.000000,4.000000,4.000000,4.000000,4.000000,4.000000,4.000000,4.000000,4.000000,4.000000,4.000000,4.000000,4.000000,100.000000,,,,,,,,,,,,,,,,,,,,,,,,,,,,
1703488689.582009,1703488689.582704,31.000000,0.000000,4263.077148,4265.256348,4362.051270,4308.846191,4233.589844,4248.461426,4311.410156,4258.717773,4241.794922,4237.948730,4492.692383,4469.743652,4368.333496,4431.538574,0.000000,4.000000,96.000000,,,,0.000000,4.000000,4.000000,4.000000,4.000000,4.000000,4.000000,4.000000,4.000000,4.000000,4.000000,4.000000,4.000000,4.000000,4.000000,100.000000,,,,,,,,,,,,,,,,,,,,,,,,,,,,
1703488689.589818,1703488689.590612,32.000000,0.000000,4262.436035,4265.128418,4367.948730,4312.051270,4247.820313,4250.769043,4316.025879,4268.333496,4240.384766,4232.820313,4490.384766,4474.743652,4368.589844,4434.743652,0.000000,4.000000,96.000000,,,,0.000000,4.000000,4.000000,4.000000,4.000000,4.000000,4.000000,4.000000,4.000000,4.000000,4.000000,4.000000,4.000000,4.000000,4.000000,100.000000,,,,,,,,,,,,,,,,,8.000000,0.000000,0.709168,-0.087952,-0.682068,0.155334,0.923941,-0.337444,0.046881,-10.708409,-43.115791,61.665375
1703488689.597626,1703488689.598420,33.000000,0.000000,4245.769043,4252.820313,4363.717773,4299.230957,4247.820313,4247.436035,4315.256348,4257.692383,4232.051270,4231.794922,4480.000000,4466.410156,4361.410156,4425.000000,0.000000,4.000000,96.000000,,,,0.000000,4.000000,4.000000,4.000000,4.000000,4.000000,4.000000,4.000000,4.000000,4.000000,4.000000,4.000000,4.000000,4.000000,4.000000,100.000000,,,,,,,,,,,,,,,,,,,,,,,,,,,,
1703488689.605434,1703488689.606328,34.000000,0.000000,4241.922852,4255.000000,4352.051270,4293.077148,4244.230957,4248.077148,4314.487305,4240.256348,4227.692383,4236.025879,4473.717773,4454.358887,4356.153809,4415.897461,0.000000,4.000000,96.000000,,,,0.000000,4.000000,4.000000,4.000000,4.000000,4.000000,4.000000,4.000000,4.000000,4.000000,4.000000,4.000000,4.000000,4.000000,4.000000,100.000000,,,,,,,,,,,,,,,,,,,,,,,,,,,,
1703488689.613242,1703488689.614136,35.000000,0.000000,4248.205078,4265.000000,4347.692383,4301.153809,4237.692383,4246.410156,4310.769043,4231.025879,4218.717773,4232.563965,4472.563965,4447.948730,4352.692383,4415.128418,0.000000,4.000000,96.000000,,,,0.000000,4.000000,4.000000,4.000000,4.000000,4.000000,4.000000,4.000000,4.000000,4.000000,4.000000,4.000000,4.000000,4.000000,4.000000,100.000000,,,,,,,,,,,,,,,,,,,,,,,,,,,,
1703488689.621050,1703488689.621844,36.000000,0.000000,4246.538574,4262.563965,4351.282227,4304.743652,4231.282227,4243.333496,4306.922852,4227.820313,4212.307617,4221.282227,4470.512695,4450.000000,4349.615234,4418.077148,0.000000,4.000000,96.000000,,,,0.000000,4.000000,4.000000,4.000000,4.000000,4.000000,4.000000,4.000000,4.000000,4.000000,4.000000,4.000000,4.000000,4.000000,4.000000,100.000000,,,,,,,,,,,,,,,,,9.000000,0.000000,0.709031,-0.087891,-0.682190,0.155457,0.926871,-0.340862,0.040044,-10.637568,-43.154213,61.665501
1703488689.628858,1703488689.629652,37.000000,0.000000,4259.102539,4266.666504,4363.717773,4308.846191,4245.512695,4240.641113,4311.794922,4230.512695,4224.487305,4228.846191,4474.230957,4458.205078,4358.974121,4429.358887,0.000000,4.000000,96.000000,,,,0.000000,4.000000,4.000000,4.000000,4.000000,4.000000,4.000000,4.000000,4.000000,4.000000,4.000000,4.000000,4.000000,4.000000,4.000000,100.000000,,,,,,,,,,,,,,,,,,,,,,,,,,,,
1703488689.636666,1703488689.637360,38.000000,0.000000,4281.666504,4285.128418,4377.563965,4316.282227,4259.102539,4239.615234,4315.000000,4236.922852,4234.358887,4243.461426,4483.846191,4469.487305,4369.743652,4443.205078,0.000000,4.000000,96.000000,,,,0.000000,4.000000,4.000000,4.000000,4.000000,4.000000,4.000000,4.000000,4.000000,4.000000,4.000000,4.000000,4.000000,4.000000,4.000000,100.000000,,,,,,,,,,,,,,,,,,,,,,,,,,,,
1703488689.644474,1703488689.645168,39.000000,0.000000,4285.256348,4288.589844,4376.794922,4310.897461,4243.333496,4238.077148,4308.717773,4244.743652,4231.794922,4239.230957,4490.769043,4476.410156,4366.410156,4452.051270,0.000000,4.000000,96.000000,,,,0.000000,4.000000,4.000000,4.000000,4.000000,4.000000,4.000000,4.000000,4.000000,4.000000,4.000000,4.000000,4.000000,4.000000,4.000000,100.000000,,,,,,,,,,,,,,,,,,,,,,,,,,,,
1703488689.652282,1703488689.652876,40.000000,0.000000,4280.641113,4278.589844,4365.897461,4308.333496,4226.410156,4235.128418,4303.717773,4249.230957,4233.333496,4233.205078,4491.922852,4475.512695,4362.051270,4458.205078,0.000000,4.000000,96.000000,,,,0.000000,4.000000,4.000000,4.000000,4.000000,4.000000,4.000000,4.000000,4.000000,4.000000,4.000000,4.000000,4.000000,4.000000,4.000000,100.000000,,,,,,,,,,,,,,,,,10.000000,0.000000,0.709005,-0.087891,-0.682190,0.155579,0.915639,-0.348187,0.046881,-10.673812,-43.288792,61.632286
1703488689.660090,1703488689.660684,41.000000,0.000000,4283.333496,4275.897461,4362.692383,4311.410156,4231.282227,4242.179688,4304.487305,4249.102539,4234.230957,4232.948730,4488.333496,4473.717773,4358.333496,4460.641113,0.000000,4.000000,96.000000,,,,0.000000,4.000000,4.000000,4.000000,4.000000,4.000000,4.000000,4.000000,4.000000,4.000000,4.000000,4.000000,4.000000,4.000000,4.000000,100.000000,,,,,,,,,,,,,,,,,,,,,,,,,,,,
1703488689.667898,1703488689.668392,42.000000,0.000000,4284.230957,4278.077148,4366.153809,4296.282227,4238.077148,4251.922852,4306.282227,4249.743652,4232.820313,4229.487305,4488.461426,4477.179688,4356.666504,4460.000000,0.000000,4.000000,96.000000,,,,0.000000,4.000000,4.000000,4.000000,4.000000,4.000000,4.000000,4.000000,4.000000,4.000000,4.000000,4.000000,4.000000,4.000000,4.000000,100.000000,,,,,,,,,,,,,,,,,,,,,,,,,,,,
1703488689.675706,1703488689.676200,43.000000,0.000000,4278.717773,4280.384766,4365.128418,4292.051270,4234.102539,4253.333496,4305.897461,4252.948730,4233.846191,4228.589844,4491.794922,4475.384766,4361.025879,4459.230957,0.000000,4.000000,96.000000,,,,0.000000,4.000000,4.000000,4.000000,4.000000,4.000000,4.000000,4.000000,4.000000,4.000000,4.000000,4.000000,4.000000,4.000000,4.000000,100.000000,,,,,,,,,,,,,,,,,,,,,,,,,,,,
1703488689.683514,1703488689.683908,44.000000,0.000000,4279.615234,4280.128418,4360.641113,4309.487305,4231.282227,4249.487305,4302.692383,4252.179688,4237.820313,4236.794922,4494.487305,4471.282227,4362.307617,4457.179688,0.000000,4.000000,96.000000,,,,0.000000,4.000000,4.000000,4.000000,4.000000,4.000000,4.000000,4.000000,4.000000,4.000000,4.000000,4.000000,4.000000,4.000000,4.000000,100.000000,,,,,,,,,,,,,,,,,11.000000,0.000000,0.709044,-0.088196,-0.682068,0.155762,0.931266,-0.343792,0.040532,-10.673098,-43.293247,61.652390
1703488689.691322,1703488689.691716,45.000000,0.000000,4279.743652,4269.871582,4360.641113,4305.128418,4229.743652,4241.282227,4299.230957,4243.333496,4235.769043,4238.205078,4490.769043,4471.410156,4354.487305,4448.461426,0.000000,4.000000,96.000000,,,,0.000000,4.000000,4.000000,4.000000,4.000000,4.000000,4.000000,4.000000,4.000000,4.000000,4.000000,4.000000,4.000000,4.000000,4.000000,100.000000,,,,,,,,,,,,,,,,,,,,,,,,,,,,
1703488689.699130,1703488689.699424,46.000000,0.000000,4268.205078,4262.179688,4359.615234,4289.487305,4216.794922,4229.743652,4295.512695,4228.461426,4220.512695,4222.563965,4472.436035,4460.897461,4340.897461,4435.128418,0.000000,4.000000,96.000000,,,,0.000000,4.000000,4.000000,4.000000,4.000000,4.000000,4.000000,4.000000,4.000000,4.000000,4.000000,4.000000,4.000000,4.000000,4.000000,100.000000,,,,,,,,,,,,,,,,,,,,,,,,,,,,
1703488689.706938,1703488689.707332,47.000000,0.000000,4263.846191,4272.948730,4351.153809,4306.666504,4213.205078,4227.692383,4294.358887,4221.538574,4212.179688,4209.871582,4461.410156,4450.256348,4339.871582,4430.128418,0.000000,4.000000,96.000000,,,,0.000000,4.000000,4.000000,4.000000,4.000000,4.000000,4.000000,4.000000,4.000000,4.000000,4.000000,4.000000,4.000000,4.000000,4.000000,100.000000,,,,,,,,,,,,,,,,,,,,,,,,,,,,
1703488689.714746,1703488689.715140,48.000000,0.000000,4274.102539,4280.769043,4347.820313,4329.358887,4225.384766,4234.871582,4296.538574,4230.769043,4222.051270,4219.743652,4473.846191,4455.641113,4352.307617,4434.487305,0.000000,4.000000,96.000000,,,,0.000000,4.000000,4.000000,4.000000,4.000000,4.000000,4.000000,4.000000,4.000000,4.000000,4.000000,4.000000,4.000000,4.000000,4.000000,100.000000,,,,,,,,,,,,,,,,,12.000000,0.000000,0.709200,-0.088318,-0.681946,0.155518,0.911732,-0.326212,0.043951,-10.622455,-43.247253,61.753819
1703488689.722554,1703488689.723048,49.000000,0.000000,4280.769043,4278.717773,4350.512695,4331.025879,4232.436035,4233.077148,4297.436035,4236.153809,4229.102539,4234.487305,4481.666504,4459.743652,4350.769043,4436.538574,0.000000,4.000000,96.000000,,,,0.000000,4.000000,4.000000,4.000000,4.000000,4.000000,4.000000,4.000000,4.000000,4.000000,4.000000,4.000000,4.000000,4.000000,4.000000,100.000000,,,,,,,,,,,,,,,,,,,,,,,,,,,,
1703488689.730362,1703488689.730856,50.000000,0.000000,4273.846191,4278.846191,4341.922852,4331.410156,4232.179688,4230.128418,4296.922852,4219.743652,4211.282227,4216.922852,4457.436035,4440.256348,4325.897461,4423.333496,0.000000,4.000000,96.000000,,,,0.000000,4.000000,4.000000,4.000000,4.000000,4.000000,4.000000,4.000000,4.000000,4.000000,4.000000,4.000000,4.000000,4.000000,4.000000,100.000000,,,,,,,,,,,,,,,,,,,,,,,,,,,,
1703488689.738171,1703488689.738764,51.000000,0.000000,4271.666504,4280.641113,4335.641113,4335.897461,4230.384766,4228.333496,4295.897461,4207.436035,4193.589844,4192.820313,4440.128418,4427.820313,4311.794922,4413.589844,0.000000,4.000000,96.000000,,,,0.000000,4.000000,4.000000,4.000000,4.000000,4.000000,4.000000,4.000000,4.000000,4.000000,4.000000,4.000000,4.000000,4.000000,4.000000,100.000000,,,,,,,,,,,,,,,,,,,,,,,,,,,,
1703488689.745978,1703488689.746572,52.000000,0.000000,4280.641113,4288.205078,4346.410156,4341.410156,4230.384766,4230.897461,4293.974121,4221.025879,4207.307617,4200.384766,4462.307617,4448.846191,4331.025879,4427.307617,0.000000,4.000000,96.000000,,,,0.000000,4.000000,4.000000,4.000000,4.000000,4.000000,4.000000,4.000000,4.000000,4.000000,4.000000,4.000000,4.000000,4.000000,4.000000,100.000000,,,,,,,,,,,,,,,,,13.000000,0.000000,0.709706,-0.088196,-0.681519,0.155151,0.922964,-0.328653,0.046392,-10.693542,-43.189194,61.745102
1703488689.753786,1703488689.754480,53.000000,0.000000,4281.025879,4289.102539,4350.641113,4329.358887,4231.794922,4242.436035,4295.769043,4238.461426,4230.641113,4225.000000,4480.256348,4462.051270,4348.333496,4438.077148,0.000000,4.000000,96.000000,,,,0.000000,4.000000,4.000000,4.000000,4.000000,4.000000,4.000000,4.000000,4.000000,4.000000,4.000000,4.000000,4.000000,4.000000,4.000000,100.000000,,,,,,,,,,,,,,,,,,,,,,,,,,,,
1703488689.761595,1703488689.762288,54.000000,0.000000,4277.436035,4283.461426,4343.205078,4310.000000,4229.615234,4249.871582,4297.307617,4242.948730,4233.077148,4228.717773,4470.769043,4451.153809,4344.230957,4432.692383,0.000000,4.000000,96.000000,,,,0.000000,4.000000,4.000000,4.000000,4.000000,4.000000,4.000000,4.000000,4.000000,4.000000,4.000000,4.000000,4.000000,4.000000,4.000000,100.000000,,,,,,,,,,,,,,,,,,,,,,,,,,,,
1703488689.769403,1703488689.770196,55.000000,0.000000,4280.641113,4286.794922,4341.794922,4314.615234,4230.128418,4250.256348,4296.025879,4245.897461,4229.487305,4218.077148,4468.974121,4451.282227,4341.794922,4429.743652,0.000000,4.000000,96.000000,,,,0.000000,4.000000,4.000000,4.000000,4.000000,4.000000,4.000000,4.000000,4.000000,4.000000,4.000000,4.000000,4.000000,4.000000,4.000000,100.000000,,,,,,,,,,,,,,,,,,,,,,,,,,,,
1703488689.777211,1703488689.778004,56.000000,0.000000,4278.205078,4288.461426,4341.538574,4321.282227,4226.794922,4251.410156,4295.512695,4249.743652,4239.358887,4225.128418,4478.717773,4459.615234,4351.794922,4431.922852,0.000000,4.000000,96.000000,,,,0.000000,4.000000,4.000000,4.000000,4.000000,4.000000,4.000000,4.000000,4.000000,4.000000,4.000000,4.000000,4.000000,4.000000,4.000000,100.000000,,,,,,,,,,,,,,,,,14.000000,0.000000,0.710046,-0.088135,-0.681213,0.154968,0.931754,-0.337932,0.059089,-10.574188,-43.136944,61.687260
1703488689.785019,1703488689.785911,57.000000,0.000000,4274.615234,4278.205078,4341.538574,4309.230957,4219.743652,4251.025879,4294.358887,4252.051270,4245.000000,4233.205078,4481.025879,4462.820313,4354.102539,4432.563965,0.000000,4.000000,96.000000,,,,0.000000,4.000000,4.000000,4.000000,4.000000,4.000000,4.000000,4.000000,4.000000,4.000000,4.000000,4.000000,4.000000,4.000000,4.000000,100.000000,,,,,,,,,,,,,,,,,,,,,,,,,,,,
1703488689.792827,1703488689.793719,58.000000,0.000000,4281.794922,4275.128418,4351.538574,4304.871582,4233.205078,4247.051270,4295.000000,4249.743652,4234.743652,4220.000000,4480.769043,4472.948730,4346.538574,4435.384766,0.000000,4.000000,96.000000,,,,0.000000,4.000000,4.000000,4.000000,4.000000,4.000000,4.000000,4.000000,4.000000,4.000000,4.000000,4.000000,4.000000,4.000000,4.000000,100.000000,,,,,,,,,,,,,,,,,,,,,,,,,,,,
1703488689.800635,1703488689.801427,59.000000,0.000000,4286.666504,4281.794922,4352.948730,4315.384766,4247.179688,4243.333496,4298.717773,4239.743652,4223.717773,4211.922852,4478.589844,4470.769043,4343.974121,4432.692383,0.000000,4.000000,96.000000,,,,0.000000,4.000000,4.000000,4.000000,4.000000,4.000000,4.000000,4.000000,4.000000,4.000000,4.000000,4.000000,4.000000,4.000000,4.000000,100.000000,,,,,,,,,,,,,,,,,,,,,,,,,,,,
1703488689.808443,1703488689.809235,60.000000,0.000000,4282.820313,4279.615234,4343.077148,4308.205078,4233.461426,4236.666504,4296.153809,4226.410156,4216.410156,4220.256348,4475.641113,4454.230957,4344.871582,4427.563965,0.000000,4.000000,96.000000,,,,0.000000,4.000000,4.000000,4.000000,4.000000,4.000000,4.000000,4.000000,4.000000,4.000000,4.000000,4.000000,4.000000,4.000000,4.000000,100.000000,,,,,,,,,,,,,,,,,15.000000,0.000000,0.710847,-0.087830,-0.680542,0.154419,0.936149,-0.341350,0.062508,-10.533436,-43.189915,61.651867
1703488689.816251,1703488689.816943,61.000000,0.000000,4284.102539,4278.589844,4345.256348,4293.846191,4222.563965,4231.282227,4290.512695,4220.384766,4209.230957,4215.128418,4474.102539,4452.692383,4343.717773,4431.922852,0.000000,4.000000,96.000000,,,,0.000000,4.000000,4.000000,4.000000,4.000000,4.000000,4.000000,4.000000,4.000000,4.000000,4.000000,4.000000,4.000000,4.000000,4.000000,100.000000,,,,,,,,,,,,,,,,,,,,,,,,,,,,
1703488689.824059,1703488689.824751,62.000000,0.000000,4291.025879,4288.077148,4352.820313,4301.025879,4235.256348,4233.205078,4294.487305,4219.230957,4200.897461,4199.871582,4470.000000,4459.871582,4342.307617,4433.205078,0.000000,4.000000,96.000000,,,,0.000000,4.000000,4.000000,4.000000,4.000000,4.000000,4.000000,4.000000,4.000000,4.000000,4.000000,4.000000,4.000000,4.000000,4.000000,100.000000,,,,,,,,,,,,,,,,,,,,,,,,,,,,
1703488689.831867,1703488689.832459,63.000000,0.000000,4292.307617,4291.025879,4346.794922,4309.358887,4233.717773,4232.948730,4297.179688,4207.563965,4188.333496,4191.922852,4460.641113,4449.743652,4339.743652,4426.025879,0.000000,4.000000,96.000000,,,,0.000000,4.000000,4.000000,4.000000,4.000000,4.000000,4.000000,4.000000,4.000000,4.000000,4.000000,4.000000,4.000000,4.000000,4.000000,100.000000,,,,,,,,,,,,,,,,,,,,,,,,,,,,
1703488689.839675,1703488689.840267,64.000000,0.000000,4291.922852,4291.666504,4341.538574,4309.102539,4225.512695,4227.820313,4295.256348,4200.384766,4188.846191,4198.717773,4462.179688,4443.589844,4340.641113,4430.641113,5419.000000,4.000000,96.000000,,,,0.000000,4.000000,4.000000,4.000000,4.000000,4.000000,4.000000,4.000000,4.000000,4.000000,4.000000,4.000000,4.000000,4.000000,4.000000,100.000000,,,,,,,,,,,,,,,,,16.000000,0.000000,0.711461,-0.087708,-0.680054,0.153809,0.933219,-0.334025,0.052741,-10.413425,-43.237591,61.503345
1703488689.847483,1703488689.847976,65.000000,0.000000,4297.307617,4300.897461,4347.948730,4309.487305,4240.769043,4229.358887,4299.743652,4221.666504,4217.307617,4227.307617,4481.794922,4460.384766,4353.717773,4444.743652,5464.000000,4.000000,96.000000,,,,0.000000,4.000000,4.000000,4.000000,4.000000,4.000000,4.000000,4.000000,4.000000,4.000000,4.000000,4.000000,4.000000,4.000000,4.000000,100.000000,,,,,,,,,,,,,,,,,,,,,,,,,,,,
1703488689.855291,1703488689.855784,66.000000,0.000000,4294.615234,4304.743652,4344.615234,4309.358887,4250.512695,4243.077148,4302.179688,4245.769043,4237.179688,4240.128418,4487.051270,4463.589844,4361.538574,4442.179688,5315.000000,4.000000,96.000000,,,,0.000000,4.000000,4.000000,4.000000,4.000000,4.000000,4.000000,4.000000,4.000000,4.000000,4.000000,4.000000,4.000000,4.000000,4.000000,100.000000,,,,,,,,,,,,,,,,,,,,,,,,,,,,
1703488689.863099,1703488689.863492,67.000000,0.000000,4273.589844,4284.871582,4328.077148,4294.358887,4232.692383,4250.384766,4298.205078,4250.641113,4234.615234,4219.871582,4467.307617,4447.563965,4347.051270,4428.717773,5397.000000,4.000000,96.000000,,,,0.000000,4.000000,4.000000,4.000000,4.000000,4.000000,4.000000,4.000000,4.000000,4.000000,4.000000,4.000000,4.000000,4.000000,4.000000,100.000000,,,,,,,,,,,,,,,,,,,,,,,,,,,,
1703488689.870907,1703488689.871399,68.000000,0.000000,4256.282227,4266.410156,4318.077148,4277.563965,4222.820313,4249.230957,4299.230957,4255.256348,4241.666504,4211.666504,4461.282227,4446.538574,4337.051270,4421.538574,5210.000000,4.000000,96.000000,,,,0.000000,4.000000,4.000000,4.000000,4.000000,4.000000,4.000000,4.000000,4.000000,4.000000,4.000000,4.000000,4.000000,4.000000,4.000000,100.000000,,,,,,,,,,,,,,,,,17.000000,0.000000,0.711868,-0.087891,-0.679688,0.153442,0.929313,-0.332560,0.061043,-10.538750,-43.097164,61.469677
1703488689.878715,1703488689.879207,69.000000,0.000000,4266.025879,4272.563965,4324.871582,4277.692383,4245.000000,4250.256348,4306.794922,4265.384766,4256.794922,4231.922852,4483.717773,4459.743652,4349.743652,4427.692383,5120.000000,4.000000,96.000000,,,,0.000000,4.000000,4.000000,4.000000,4.000000,4.000000,4.000000,4.000000,4.000000,4.000000,4.000000,4.000000,4.000000,4.000000,4.000000,100.000000,,,,,,,,,,,,,,,,,,,,,,,,,,,,
1703488689.886523,1703488689.887115,70.000000,0.000000,4278.205078,4280.384766,4332.948730,4283.974121,4247.948730,4248.717773,4305.641113,4265.384766,4254.871582,4239.615234,4494.487305,4468.333496,4358.333496,4436.025879,2217.000000,4.000000,96.000000,,,,0.000000,4.000000,4.000000,4.000000,4.000000,4.000000,4.000000,4.000000,4.000000,4.000000,4.000000,4.000000,4.000000,4.000000,4.000000,100.000000,,,,,,,,,,,,,,,,,,,,,,,,,,,,
1703488689.894331,1703488689.894923,71.000000,0.000000,4274.487305,4282.692383,4331.666504,4292.692383,4233.333496,4249.230957,4302.820313,4262.436035,4251.538574,4232.179688,4490.256348,4473.589844,4360.897461,4437.436035,5116.000000,4.000000,96.000000,,,,0.000000,4.000000,4.000000,4.000000,4.000000,4.000000,4.000000,4.000000,4.000000,4.000000,4.000000,4.000000,4.000000,4.000000,4.000000,100.000000,,,,,,,,,,,,,,,,,,,,,,,,,,,,
1703488689.902139,1703488689.902831,72.000000,0.000000,4266.282227,4278.717773,4327.948730,4290.769043,4232.948730,4249.743652,4306.922852,4251.666504,4245.256348,4223.333496,4481.153809,4463.333496,4357.563965,4428.205078,5287.000000,4.000000,96.000000,,,,0.000000,4.000000,4.000000,4.000000,4.000000,4.000000,4.000000,4.000000,4.000000,4.000000,4.000000,4.000000,4.000000,4.000000,4.000000,100.000000,,,,,,,,,,,,,,,,,18.000000,0.000000,0.712138,-0.088013,-0.679443,0.153198,0.939568,-0.324747,0.062996,-10.501541,-43.070782,61.589378
1703488689.909947,1703488689.910639,73.000000,0.000000,4262.692383,4267.307617,4322.948730,4280.897461,4222.948730,4236.153809,4305.512695,4230.128418,4219.615234,4202.948730,4462.820313,4441.922852,4335.256348,4413.717773,5315.000000,4.000000,96.000000,,,,0.000000,4.000000,4.000000,4.000000,4.000000,4.000000,4.000000,4.000000,4.000000,4.000000,4.000000,4.000000,4.000000,4.000000,4.000000,100.000000,,,,,,,,,,,,,,,,,,,,,,,,,,,,
1703488689.917755,1703488689.918447,74.000000,0.000000,4262.436035,4262.948730,4321.025879,4277.436035,4223.077148,4230.769043,4304.615234,4221.410156,4204.871582,4196.922852,4459.871582,4439.230957,4322.820313,4408.077148,5836.000000,4.000000,96.000000,,,,0.000000,4.000000,4.000000,4.000000,4.000000,4.000000,4.000000,4.000000,4.000000,4.000000,4.000000,4.000000,4.000000,4.000000,4.000000,100.000000,,,,,,,,,,,,,,,,,,,,,,,,,,,,
1703488689.925563,1703488689.926155,75.000000,0.000000,4265.897461,4265.897461,4328.974121,4280.897461,4241.153809,4244.743652,4309.871582,4223.974121,4209.230957,4211.153809,4469.487305,4450.000000,4333.717773,4414.615234,6257.000000,4.000000,96.000000,,,,0.000000,4.000000,4.000000,4.000000,4.000000,4.000000,4.000000,4.000000,4.000000,4.000000,4.000000,4.000000,4.000000,4.000000,4.000000,100.000000,,,,,,,,,,,,,,,,,,,,,,,,,,,,
1703488689.933371,1703488689.934063,76.000000,0.000000,4281.410156,4275.769043,4343.717773,4297.436035,4242.692383,4239.102539,4311.025879,4229.871582,4215.384766,4220.641113,4482.179688,4467.820313,4350.769043,4433.974121,6785.000000,4.000000,96.000000,,,,0.000000,4.000000,4.000000,4.000000,4.000000,4.000000,4.000000,4.000000,4.000000,4.000000,4.000000,4.000000,4.000000,4.000000,4.000000,100.000000,,,,,,,,,,,,,,,,,19.000000,0.000000,0.712217,-0.087952,-0.679382,0.153137,0.933219,-0.321328,0.058113,-10.501388,-43.113705,61.630440
1703488689.941180,1703488689.941871,77.000000,0.000000,4293.974121,4290.384766,4347.820313,4308.205078,4236.153809,4222.179688,4309.743652,4240.512695,4222.051270,4228.846191,4499.615234,4481.410156,4364.487305,4447.692383,6935.000000,4.000000,96.000000,,,,0.000000,4.000000,4.000000,4.000000,4.000000,4.000000,4.000000,4.000000,4.000000,4.000000,4.000000,4.000000,4.000000,4.000000,4.000000,100.000000,,,,,,,,,,,,,,,,,,,,,,,,,,,,
1703488689.948988,1703488689.949779,78.000000,0.000000,4293.333496,4292.436035,4342.051270,4301.922852,4250.641113,4230.000000,4315.128418,4251.282227,4230.641113,4240.897461,4502.563965,4477.051270,4372.436035,4446.153809,5836.000000,4.000000,96.000000,,,,0.000000,4.000000,4.000000,4.000000,4.000000,4.000000,4.000000,4.000000,4.000000,4.000000,4.000000,4.000000,4.000000,4.000000,4.000000,100.000000,,,,,,,,,,,,,,,,,,,,,,,,,,,,
1703488689.956796,1703488689.957587,79.000000,0.000000,4290.512695,4283.717773,4339.615234,4293.717773,4256.410156,4240.000000,4318.717773,4261.410156,4244.358887,4246.410156,4498.205078,4477.820313,4371.794922,4450.000000,6257.000000,4.000000,96.000000,,,,0.000000,4.000000,4.000000,4.000000,4.000000,4.000000,4.000000,4.000000,4.000000,4.000000,4.000000,4.000000,4.000000,4.000000,4.000000,100.000000,,,,,,,,,,,,,,,,,,,,,,,,,,,,
1703488689.964604,1703488689.965495,80.000000,0.000000,4285.000000,4285.512695,4333.589844,4285.512695,4244.615234,4239.615234,4316.538574,4267.948730,4252.948730,4240.128418,4501.282227,4477.436035,4366.153809,4449.615234,6785.000000,4.000000,96.000000,,,,0.000000,4.000000,4.000000,4.000000,4.000000,4.000000,4.000000,4.000000,4.000000,4.000000,4.000000,4.000000,4.000000,4.000000,4.000000,100.000000,,,,,,,,,,,,,,,,,20.000000,0.000000,0.712281,-0.088013,-0.679321,0.153076,0.921988,-0.321817,0.062019,-10.501248,-43.069000,61.667397
1703488689.972412,1703488689.973303,81.000000,0.000000,4278.974121,4288.461426,4323.461426,4276.025879,4244.871582,4245.384766,4316.538574,4264.871582,4252.307617,4233.717773,4493.461426,4460.897461,4358.205078,4431.922852,6935.000000,4.000000,96.000000,,,,0.000000,4.000000,4.000000,4.000000,4.000000,4.000000,4.000000,4.000000,4.000000,4.000000,4.000000,4.000000,4.000000,4.000000,4.000000,100.000000,,,,,,,,,,,,,,,,,,,,,,,,,,,,
1703488689.980220,1703488689.981011,82.000000,0.000000,4281.025879,4280.128418,4325.641113,4278.589844,4248.077148,4255.512695,4317.563965,4262.948730,4257.563965,4235.000000,4482.563965,4456.153809,4357.948730,4428.717773,5836.000000,4.000000,96.000000,,,,0.000000,4.000000,4.000000,4.000000,4.000000,4.000000,4.000000,4.000000,4.000000,4.000000,4.000000,4.000000,4.000000,4.000000,4.000000,100.000000,,,,,,,,,,,,,,,,,,,,,,,,,,,,
1703488689.988028,1703488689.988819,83.000000,0.000000,4282.307617,4277.948730,4333.333496,4291.922852,4251.025879,4260.128418,4321.153809,4263.333496,4265.128418,4241.025879,4491.025879,4462.692383,4369.487305,4445.512695,6257.000000,4.000000,96.000000,,,,0.000000,4.000000,4.000000,4.000000,4.000000,4.000000,4.000000,4.000000,4.000000,4.000000,4.000000,4.000000,4.000000,4.000000,4.000000,100.000000,,,,,,,,,,,,,,,,,,,,,,,,,,,,
1703488689.995836,1703488689.996527,84.000000,0.000000,4278.461426,4284.871582,4329.230957,4288.077148,4248.846191,4257.179688,4320.512695,4253.205078,4255.000000,4237.820313,4495.641113,4456.922852,4368.846191,4444.487305,6785.000000,4.000000,96.000000,,,,0.000000,4.000000,4.000000,4.000000,4.000000,4.000000,4.000000,4.000000,4.000000,4.000000,4.000000,4.000000,4.000000,4.000000,4.000000,100.000000,,,,,,,,,,,,,,,,,21.000000,0.000000,0.712403,-0.088013,-0.679138,0.153320,0.930778,-0.330118,0.059089,-10.651124,-43.095432,61.683990
1703488690.003644,1703488690.004335,85.000000,0.000000,4278.846191,4285.897461,4327.307617,4261.794922,4241.794922,4249.230957,4317.179688,4241.922852,4234.871582,4220.256348,4490.256348,4452.563965,4359.487305,4431.666504,6935.000000,4.000000,96.000000,,,,0.000000,4.000000,4.000000,4.000000,4.000000,4.000000,4.000000,4.000000,4.000000,4.000000,4.000000,4.000000,4.000000,4.000000,4.000000,100.000000,,,,,,,,,,,,,,,,,,,,,,,,,,,,
1703488690.011452,1703488690.012043,86.000000,0.000000,4275.256348,4280.256348,4332.051270,4246.153809,4253.974121,4249.487305,4321.282227,4241.922852,4230.769043,4217.692383,4491.538574,4455.512695,4358.846191,4428.846191,5836.000000,4.000000,96.000000,,,,0.000000,4.000000,4.000000,4.000000,4.000000,4.000000,4.000000,4.000000,4.000000,4.000000,4.000000,4.000000,4.000000,4.000000,4.000000,100.000000,,,,,,,,,,,,,,,,,,,,,,,,,,,,
1703488690.019260,1703488690.019951,87.000000,0.000000,4263.333496,4275.128418,4327.051270,4259.358887,4258.974121,4257.307617,4322.692383,4243.846191,4229.743652,4225.769043,4488.205078,4454.871582,4360.897461,4425.000000,6257.000000,4.000000,96.000000,,,,0.000000,4.000000,4.000000,4.000000,4.000000,4.000000,4.000000,4.000000,4.000000,4.000000,4.000000,4.000000,4.000000,4.000000,4.000000,100.000000,1.000000,100.000000,4.000000,4.000000,4.000000,4.000000,4.000000,4.000000,4.000000,4.000000,4.000000,4.000000,4.000000,4.000000,4.000000,4.000000,,,,,,,,,,,,
1703488690.027068,1703488690.027759,88.000000,0.000000,4266.282227,4283.205078,4324.358887,4274.487305,4249.871582,4251.282227,4319.230957,4246.025879,4223.461426,4229.358887,4492.692383,4462.436035,4365.256348,4429.102539,6785.000000,4.000000,96.000000,,,,0.000000,4.000000,4.000000,4.000000,4.000000,4.000000,4.000000,4.000000,4.000000,4.000000,4.000000,4.000000,4.000000,4.000000,4.000000,100.000000,,,,,,,,,,,,,,,,,22.000000,0.000000,0.712472,-0.087708,-0.679077,0.153442,0.939079,-0.319863,0.061531,-10.819345,-43.069221,61.732258
1703488690.034876,1703488690.035567,89.000000,0.000000,4270.512695,4283.974121,4327.179688,4253.333496,4250.512695,4236.538574,4316.282227,4243.846191,4215.000000,4223.333496,4497.563965,4462.179688,4361.410156,4428.461426,6935.000000,4.000000,96.000000,,,,0.000000,4.000000,4.000000,4.000000,4.000000,4.000000,4.000000,4.000000,4.000000,4.000000,4.000000,4.000000,4.000000,4.000000,4.000000,100.000000,,,,,,,,,,,,,,,,,,,,,,,,,,,,
1703488690.042684,1703488690.043275,90.000000,0.000000,4256.922852,4266.922852,4322.307617,4227.820313,4256.538574,4237.051270,4315.641113,4238.974121,4207.436035,4213.974121,4480.512695,4447.820313,4349.871582,4406.410156,5836.000000,4.000000,96.000000,,,,0.000000,4.000000,4.000000,4.000000,4.000000,4.000000,4.000000,4.000000,4.000000,4.000000,4.000000,4.000000,4.000000,4.000000,4.000000,100.000000,,,,,,,,,,,,,,,,,,,,,,,,,,,,
1703488690.050492,1703488690.051183,91.000000,0.000000,4254.487305,4271.666504,4325.000000,4237.820313,4260.512695,4247.179688,4319.871582,4249.358887,4218.717773,4225.769043,4479.615234,4454.615234,4350.128418,4402.051270,6257.000000,4.000000,96.000000,,,,0.000000,4.000000,4.000000,4.000000,4.000000,4.000000,4.000000,4.000000,4.000000,4.000000,4.000000,4.000000,4.000000,4.000000,4.000000,100.000000,,,,,,,,,,,,,,,,,,,,,,,,,,,,
1703488690.058300,1703488690.058991,92.000000,0.000000,4263.333496,4279.230957,4336.153809,4243.461426,4260.641113,4248.974121,4323.333496,4261.794922,4233.589844,4232.692383,4489.871582,4469.358887,4349.871582,4412.948730,6785.000000,4.000000,96.000000,,,,0.000000,4.000000,4.000000,4.000000,4.000000,4.000000,4.000000,4.000000,4.000000,4.000000,4.000000,4.000000,4.000000,4.000000,4.000000,100.000000,,,,,,,,,,,,,,,,,23.000000,0.000000,0.712307,-0.087463,-0.679199,0.153809,0.933708,-0.334025,0.056159,-10.837410,-43.128967,61.609032
1703488690.066108,1703488690.066798,93.000000,0.000000,4255.641113,4264.230957,4331.153809,4231.025879,4254.102539,4246.025879,4319.615234,4258.846191,4234.743652,4219.615234,4478.077148,4464.102539,4335.256348,4401.538574,6935.000000,4.000000,96.000000,,,,0.000000,4.000000,4.000000,4.000000,4.000000,4.000000,4.000000,4.000000,4.000000,4.000000,4.000000,4.000000,4.000000,4.000000,4.000000,100.000000,,,,,,,,,,,,,,,,,,,,,,,,,,,,
1703488690.073916,1703488690.074507,94.000000,0.000000,4243.717773,4262.820313,4322.820313,4228.077148,4257.436035,4252.307617,4320.897461,4257.563965,4236.282227,4218.717773,4469.102539,4453.333496,4338.589844,4390.897461,5836.000000,4.000000,96.000000,,,,0.000000,4.000000,4.000000,4.000000,4.000000,4.000000,4.000000,4.000000,4.000000,4.000000,4.000000,4.000000,4.000000,4.000000,4.000000,100.000000,,,,,,,,,,,,,,,,,,,,,,,,,,,,
1703488690.081724,1703488690.082315,95.000000,0.000000,4245.384766,4275.256348,4327.948730,4221.538574,4271.025879,4264.615234,4326.538574,4263.333496,4245.128418,4231.025879,4477.051270,4455.000000,4351.922852,4400.512695,6257.000000,4.000000,96.000000,,,,0.000000,4.000000,4.000000,4.000000,4.000000,4.000000,4.000000,4.000000,4.000000,4.000000,4.000000,4.000000,4.000000,4.000000,4.000000,100.000000,,,,,,,,,,,,,,,,,,,,,,,,,,,,
1703488690.089533,1703488690.090023,96.000000,0.000000,4247.051270,4262.179688,4329.358887,4198.461426,4256.153809,4263.717773,4320.769043,4264.358887,4249.615234,4233.205078,4479.743652,4459.487305,4345.769043,4401.538574,6785.000000,4.000000,96.000000,,,,0.000000,4.000000,4.000000,4.000000,4.000000,4.000000,4.000000,4.000000,4.000000,4.000000,4.000000,4.000000,4.000000,4.000000,4.000000,100.000000,,,,,,,,,,,,,,,,,24.000000,0.000000,0.712057,-0.087585,-0.679321,0.154358,0.924429,-0.331583,0.058113,-10.953670,-43.232738,61.631462
1703488690.097340,1703488690.097831,97.000000,0.000000,4244.102539,4248.333496,4325.000000,4190.256348,4235.897461,4251.538574,4314.743652,4261.666504,4248.461426,4225.897461,4482.051270,4458.205078,4343.333496,4399.871582,6935.000000,4.000000,96.000000,,,,0.000000,4.000000,4.000000,4.000000,4.000000,4.000000,4.000000,4.000000,4.000000,4.000000,4.000000,4.000000,4.000000,4.000000,4.000000,100.000000,,,,,,,,,,,,,,,,,,,,,,,,,,,,
1703488690.105148,1703488690.105539,98.000000,0.000000,4246.922852,4265.256348,4324.358887,4201.282227,4250.000000,4248.974121,4318.461426,4260.000000,4243.333496,4222.179688,4493.077148,4463.717773,4352.948730,4411.666504,5836.000000,4.000000,96.000000,,,,0.000000,4.000000,4.000000,4.000000,4.000000,4.000000,4.000000,4.000000,4.000000,4.000000,4.000000,4.000000,4.000000,4.000000,4.000000,100.000000,,,,,,,,,,,,,,,,,,,,,,,,,,,,
1703488690.112957,1703488690.113447,99.000000,0.000000,4250.897461,4272.948730,4325.897461,4203.077148,4264.358887,4253.205078,4317.692383,4257.948730,4236.794922,4223.333496,4492.051270,4469.487305,4356.794922,4415.512695,6257.000000,4.000000,96.000000,,,,0.000000,4.000000,4.000000,4.000000,4.000000,4.000000,4.000000,4.000000,4.000000,4.000000,4.000000,4.000000,4.000000,4.000000,4.000000,100.000000,,,,,,,,,,,,,,,,,,,,,,,,,,,,
1703488690.120765,1703488690.121254,100.000000,0.000000,4252.051270,4254.230957,4328.461426,4198.333496,4255.256348,4248.846191,4313.717773,4259.102539,4241.153809,4237.051270,4492.051270,4465.641113,4362.436035,4412.820313,6785.000000,4.000000,96.000000,,,,0.000000,4.000000,4.000000,4.000000,4.000000,4.000000,4.000000,4.000000,4.000000,4.000000,4.000000,4.000000,4.000000,4.000000,4.000000,100.000000,,,,,,,,,,,,,,,,,25.000000,0.000000,0.711758,-0.087585,-0.679565,0.154663,0.933708,-0.346234,0.050299,-10.858302,-43.226131,61.584984
1703488690.128573,1703488690.129162,101.000000,0.000000,4249.743652,4243.461426,4329.615234,4188.333496,4252.179688,4246.025879,4318.333496,4257.307617,4243.589844,4246.025879,4503.589844,4462.563965,4365.128418,4418.589844,6935.000000,4.000000,96.000000,,,,0.000000,4.000000,4.000000,4.000000,4.000000,4.000000,4.000000,4.000000,4.000000,4.000000,4.000000,4.000000,4.000000,4.000000,4.000000,100.000000,,,,,,,,,,,,,,,,,,,,,,,,,,,,
1703488690.136381,1703488690.136970,102.000000,0.000000,4244.230957,4256.153809,4324.615234,4184.487305,4257.820313,4246.666504,4322.051270,4248.333496,4228.974121,4234.230957,4500.897461,4462.820313,4355.769043,4419.871582,5836.000000,4.000000,96.000000,,,,0.000000,4.000000,4.000000,4.000000,4.000000,4.000000,4.000000,4.000000,4.000000,4.000000,4.000000,4.000000,4.000000,4.000000,4.000000,100.000000,,,,,,,,,,,,,,,,,,,,,,,,,,,,
1703488690.144189,1703488690.144878,103.000000,0.000000,4246.794922,4266.666504,4326.282227,4194.743652,4251.794922,4238.333496,4315.769043,4243.461426,4214.871582,4219.102539,4483.974121,4460.897461,4353.974121,4412.051270,6257.000000,4.000000,96.000000,,,,0.000000,4.000000,4.000000,4.000000,4.000000,4.000000,4.000000,4.000000,4.000000,4.000000,4.000000,4.000000,4.000000,4.000000,4.000000,100.000000,,,,,,,,,,,,,,,,,,,,,,,,,,,,
1703488690.151997,1703488690.152686,104.000000,0.000000,4257.307617,4263.717773,4340.128418,4201.282227,4255.769043,4230.256348,4315.000000,4248.974121,4215.128418,4214.487305,4485.000000,4467.820313,4363.974121,4417.179688,6785.000000,4.000000,96.000000,,,,0.000000,4.000000,4.000000,4.000000,4.000000,4.000000,4.000000,4.000000,4.000000,4.000000,4.000000,4.000000,4.000000,4.000000,4.000000,100.000000,,,,,,,,,,,,,,,,,26.000000,0.000000,0.711571,-0.087830,-0.679688,0.154846,0.931266,-0.343792,0.051276,-10.922472,-43.270184,61.609818
1703488690.159805,1703488690.160594,105.000000,0.000000,4255.769043,4260.769043,4340.128418,4199.743652,4257.692383,4227.051270,4318.333496,4251.153809,4216.794922,4210.769043,4492.051270,4474.743652,4351.538574,4425.384766,6935.000000,4.000000,96.000000,,,,0.000000,4.000000,4.000000,4.000000,4.000000,4.000000,4.000000,4.000000,4.000000,4.000000,4.000000,4.000000,4.000000,4.000000,4.000000,100.000000,,,,,,,,,,,,,,,,,,,,,,,,,,,,
1703488690.167613,1703488690.168402,106.000000,0.000000,4245.128418,4259.615234,4331.410156,4205.384766,4238.589844,4230.897461,4311.025879,4250.000000,4215.897461,4201.922852,4474.487305,4471.538574,4328.205078,4418.333496,5836.000000,4.000000,96.000000,,,,0.000000,4.000000,4.000000,4.000000,4.000000,4.000000,4.000000,4.000000,4.000000,4.000000,4.000000,4.000000,4.000000,4.000000,4.000000,100.000000,,,,,,,,,,,,,,,,,,,,,,,,,,,,
1703488690.175421,1703488690.176210,107.000000,0.000000,4246.794922,4260.641113,4335.256348,4201.666504,4237.820313,4244.102539,4308.461426,4255.512695,4221.282227,4196.538574,4456.153809,4467.563965,4329.358887,4409.102539,6257.000000,4.000000,96.000000,,,,0.000000,4.000000,4.000000,4.000000,4.000000,4.000000,4.000000,4.000000,4.000000,4.000000,4.000000,4.000000,4.000000,4.000000,4.000000,100.000000,,,,,,,,,,,,,,,,,,,,,,,,,,,,
1703488690.183229,1703488690.184018,108.000000,0.000000,4251.282227,4260.384766,4338.846191,4185.384766,4258.589844,4252.436035,4316.153809,4260.897461,4229.615234,4195.384766,4465.512695,4462.820313,4337.820313,4409.102539,6785.000000,4.000000,96.000000,,,,0.000000,4.000000,4.000000,4.000000,4.000000,4.000000,4.000000,4.000000,4.000000,4.000000,4.000000,4.000000,4.000000,4.000000,4.000000,100.000000,,,,,,,,,,,,,,,,,27.000000,0.000000,0.711303,-0.088257,-0.679871,0.155029,0.939079,-0.329142,0.057624,-10.896892,-43.226498,61.582169
1703488690.191037,1703488690.191726,109.000000,0.000000,4248.077148,4261.922852,4333.333496,4198.974121,4266.666504,4256.282227,4318.717773,4263.974121,4239.358887,4205.128418,4486.282227,4467.436035,4340.000000,4417.436035,6935.000000,4.000000,96.000000,,,,0.000000,4.000000,4.000000,4.000000,4.000000,4.000000,4.000000,4.000000,4.000000,4.000000,4.000000,4.000000,4.000000,4.000000,4.000000,100.000000,,,,,,,,,,,,,,,,,,,,,,,,,,,,
1703488690.198845,1703488690.199534,110.000000,0.000000,4246.025879,4268.461426,4328.077148,4220.128418,4260.384766,4260.256348,4313.846191,4267.307617,4248.333496,4226.538574,4495.384766,4474.230957,4350.128418,4419.871582,5836.000000,4.000000,96.000000,,,,0.000000,4.000000,4.000000,4.000000,4.000000,4.000000,4.000000,4.000000,4.000000,4.000000,4.000000,4.000000,4.000000,4.000000,4.000000,100.000000,,,,,,,,,,,,,,,,,,,,,,,,,,,,
1703488690.206653,1703488690.207242,111.000000,0.000000,4245.769043,4262.051270,4330.128418,4208.333496,4250.897461,4256.153809,4309.358887,4266.025879,4249.358887,4237.692383,4492.692383,4467.563965,4358.461426,4412.692383,6257.000000,4.000000,96.000000,,,,0.000000,4.000000,4.000000,4.000000,4.000000,4.000000,4.000000,4.000000,4.000000,4.000000,4.000000,4.000000,4.000000,4.000000,4.000000,100.000000,,,,,,,,,,,,,,,,,,,,,,,,,,,,
1703488690.214461,1703488690.215050,112.000000,0.000000,4245.512695,4250.641113,4336.410156,4198.846191,4246.666504,4251.282227,4310.769043,4264.871582,4248.589844,4243.846191,4497.820313,4466.538574,4359.615234,4418.077148,6785.000000,4.000000,96.000000,,,,0.000000,4.000000,4.000000,4.000000,4.000000,4.000000,4.000000,4.000000,4.000000,4.000000,4.000000,4.000000,4.000000,4.000000,4.000000,100.000000,,,,,,,,,,,,,,,,,28.000000,0.000000,0.711147,-0.088257,-0.679993,0.155212,0.923941,-0.333537,0.052741,-10.973869,-43.220516,61.423950
1703488690.222269,1703488690.222758,113.000000,0.000000,4248.717773,4250.128418,4340.000000,4201.538574,4257.307617,4250.769043,4313.077148,4265.256348,4248.077148,4251.410156,4507.051270,4473.717773,4362.307617,4427.563965,6935.000000,4.000000,96.000000,,,,0.000000,4.000000,4.000000,4.000000,4.000000,4.000000,4.000000,4.000000,4.000000,4.000000,4.000000,4.000000,4.000000,4.000000,4.000000,100.000000,,,,,,,,,,,,,,,,,,,,,,,,,,,,
1703488690.230077,1703488690.230566,114.000000,0.000000,4248.333496,4248.077148,4337.820313,4193.205078,4255.641113,4243.333496,4307.563965,4256.025879,4237.436035,4238.333496,4502.436035,4471.153809,4356.666504,4419.615234,5836.000000,4.000000,96.000000,,,,0.000000,4.000000,4.000000,4.000000,4.000000,4.000000,4.000000,4.000000,4.000000,4.000000,4.000000,4.000000,4.000000,4.000000,4.000000,100.000000,,,,,,,,,,,,,,,,,,,,,,,,,,,,
1703488690.237885,1703488690.238274,115.000000,0.000000,4244.871582,4250.512695,4340.256348,4200.256348,4246.153809,4238.461426,4303.846191,4245.897461,4229.743652,4229.743652,4487.307617,4469.615234,4351.666504,4417.563965,6257.000000,4.000000,96.000000,,,,0.000000,4.000000,4.000000,4.000000,4.000000,4.000000,4.000000,4.000000,4.000000,4.000000,4.000000,4.000000,4.000000,4.000000,4.000000,100.000000,,,,,,,,,,,,,,,,,,,,,,,,,,,,
1703488690.245693,1703488690.246082,116.000000,0.000000,4254.358887,4266.922852,4349.743652,4226.794922,4257.179688,4239.358887,4310.128418,4247.692383,4229.358887,4237.563965,4484.615234,4476.922852,4357.179688,4434.358887,6785.000000,4.000000,96.000000,,,,0.000000,4.000000,4.000000,4.000000,4.000000,4.000000,4.000000,4.000000,4.000000,4.000000,4.000000,4.000000,4.000000,4.000000,4.000000,100.000000,,,,,,,,,,,,,,,,,29.000000,0.000000,0.711088,-0.088257,-0.680054,0.155212,0.927359,-0.336955,0.066414,-10.959815,-43.298466,61.364891
1703488690.253501,1703488690.253790,117.000000,0.000000,4263.205078,4264.743652,4349.743652,4216.538574,4255.256348,4235.769043,4305.128418,4244.743652,4215.000000,4213.205078,4484.871582,4468.589844,4343.589844,4428.205078,6935.000000,4.000000,96.000000,,,,0.000000,4.000000,4.000000,4.000000,4.000000,4.000000,4.000000,4.000000,4.000000,4.000000,4.000000,4.000000,4.000000,4.000000,4.000000,100.000000,,,,,,,,,,,,,,,,,,,,,,,,,,,,
1703488690.261309,1703488690.261598,118.000000,0.000000,4261.153809,4256.794922,4342.307617,4207.820313,4242.051270,4236.282227,4295.897461,4243.974121,4209.743652,4197.179688,4479.743652,4462.179688,4333.717773,4412.820313,5836.000000,4.000000,96.000000,,,,0.000000,4.000000,4.000000,4.000000,4.000000,4.000000,4.000000,4.000000,4.000000,4.000000,4.000000,4.000000,4.000000,4.000000,4.000000,100.000000,,,,,,,,,,,,,,,,,,,,,,,,,,,,
1703488690.269117,1703488690.269306,119.000000,0.000000,4272.820313,4282.563965,4340.641113,4225.897461,4253.589844,4245.000000,4303.846191,4263.846191,4235.000000,4225.512695,4487.563965,4478.333496,4357.051270,4428.333496,6257.000000,4.000000,96.000000,,,,0.000000,4.000000,4.000000,4.000000,4.000000,4.000000,4.000000,4.000000,4.000000,4.000000,4.000000,4.000000,4.000000,4.000000,4.000000,100.000000,,,,,,,,,,,,,,,,,,,,,,,,,,,,
1703488690.276925,1703488690.277214,120.000000,0.000000,4278.461426,4293.589844,4332.820313,4206.666504,4262.436035,4253.461426,4306.922852,4279.102539,4248.846191,4228.461426,4491.153809,4478.461426,4356.922852,4434.615234,6785.000000,4.000000,96.000000,,,,0.000000,4.000000,4.000000,4.000000,4.000000,4.000000,4.000000,4.000000,4.000000,4.000000,4.000000,4.000000,4.000000,4.000000,4.000000,100.000000,,,,,,,,,,,,,,,,,30.000000,0.000000,0.711114,-0.088196,-0.679993,0.155396,0.923941,-0.334513,0.060554,-11.080501,-43.318619,61.395069
1703488690.284733,1703488690.285022,121.000000,0.000000,4258.974121,4269.358887,4315.641113,4187.692383,4260.000000,4263.846191,4305.384766,4277.436035,4245.384766,4212.948730,4482.820313,4460.000000,4336.282227,4414.102539,6935.000000,4.000000,96.000000,,,,0.000000,4.000000,4.000000,4.000000,4.000000,4.000000,4.000000,4.000000,4.000000,4.000000,4.000000,4.000000,4.000000,4.000000,4.000000,100.000000,,,,,,,,,,,,,,,,,,,,,,,,,,,,
1703488690.292542,1703488690.292830,122.000000,0.000000,4248.333496,4262.307617,4311.410156,4219.743652,4265.641113,4266.922852,4311.282227,4282.820313,4259.871582,4227.563965,4487.820313,4461.538574,4343.589844,4408.717773,5836.000000,4.000000,96.000000,,,,0.000000,4.000000,4.000000,4.000000,4.000000,4.000000,4.000000,4.000000,4.000000,4.000000,4.000000,4.000000,4.000000,4.000000,4.000000,100.000000,,,,,,,,,,,,,,,,,,,,,,,,,,,,
1703488690.300350,1703488690.300538,123.000000,0.000000,4252.051270,4264.487305,4316.922852,4224.743652,4264.487305,4251.153809,4308.461426,4285.641113,4270.000000,4242.051270,4491.666504,4470.256348,4345.512695,4415.384766,6257.000000,4.000000,96.000000,,,,0.000000,4.000000,4.000000,4.000000,4.000000,4.000000,4.000000,4.000000,4.000000,4.000000,4.000000,4.000000,4.000000,4.000000,4.000000,100.000000,,,,,,,,,,,,,,,,,,,,,,,,,,,,
1703488690.308158,1703488690.308446,124.000000,0.000000,4245.769043,4252.948730,4315.000000,4187.051270,4262.179688,4243.974121,4302.179688,4270.769043,4254.230957,4241.922852,4474.487305,4454.871582,4332.692383,4407.051270,6785.000000,4.000000,96.000000,,,,0.000000,4.000000,4.000000,4.000000,4.000000,4.000000,4.000000,4.000000,4.000000,4.000000,4.000000,4.000000,4.000000,4.000000,4.000000,100.000000,,,,,,,,,,,,,,,,,31.000000,0.000000,0.710986,-0.088501,-0.680115,0.155273,0.923453,-0.326700,0.043951,-11.072451,-43.270088,61.355560
1703488690.315966,1703488690.316254,125.000000,0.000000,4247.692383,4257.692383,4316.025879,4195.769043,4271.922852,4258.077148,4309.743652,4258.974121,4247.307617,4251.538574,4476.922852,4452.436035,4345.897461,4405.641113,6935.000000,4.000000,96.000000,,,,0.000000,4.000000,4.000000,4.000000,4.000000,4.000000,4.000000,4.000000,4.000000,4.000000,4.000000,4.000000,4.000000,4.000000,4.000000,100.000000,,,,,,,,,,,,,,,,,,,,,,,,,,,,
1703488690.323774,1703488690.324162,126.000000,0.000000,4261.666504,4272.307617,4325.384766,4222.692383,4273.205078,4257.179688,4312.948730,4256.538574,4247.051270,4250.128418,4496.666504,4462.948730,4364.358887,4420.128418,5836.000000,4.000000,96.000000,,,,0.000000,4.000000,4.000000,4.000000,4.000000,4.000000,4.000000,4.000000,4.000000,4.000000,4.000000,4.000000,4.000000,4.000000,4.000000,100.000000,,,,,,,,,,,,,,,,,,,,,,,,,,,,
1703488690.331582,1703488690.331970,127.000000,0.000000,4265.641113,4266.666504,4325.897461,4221.922852,4262.179688,4237.436035,4303.974121,4240.000000,4224.102539,4231.282227,4483.717773,4448.717773,4354.358887,4422.179688,96.000000,4.000000,96.000000,,,,0.000000,4.000000,4.000000,4.000000,4.000000,4.000000,4.000000,4.000000,4.000000,4.000000,4.000000,4.000000,4.000000,4.000000,4.000000,100.000000,,,,,,,,,,,,,,,,,,,,,,,,,,,,
1703488690.339390,1703488690.339878,0.000000,0.000000,4270.384766,4266.922852,4328.077148,4226.666504,4261.153809,4233.205078,4300.512695,4226.410156,4210.256348,4231.410156,4473.077148,4447.820313,4346.153809,4420.384766,5422.000000,4.000000,96.000000,,,,0.000000,4.000000,4.000000,4.000000,4.000000,4.000000,4.000000,4.000000,4.000000,4.000000,4.000000,4.000000,4.000000,4.000000,4.000000,100.000000,,,,,,,,,,,,,,,,,0.000000,0.000000,0.710866,-0.088379,-0.680298,0.155090,0.933708,-0.321817,0.044927,-10.981873,-43.309746,61.353340
1703488690.347198,1703488690.347686,1.000000,0.000000,4275.256348,4277.436035,4342.307617,4222.563965,4260.000000,4243.461426,4298.077148,4234.871582,4223.589844,4239.871582,4488.846191,4470.128418,4361.922852,4431.794922,5467.000000,4.000000,96.000000,,,,0.000000,4.000000,4.000000,4.000000,4.000000,4.000000,4.000000,4.000000,4.000000,4.000000,4.000000,4.000000,4.000000,4.000000,4.000000,100.000000,,,,,,,,,,,,,,,,,,,,,,,,,,,,
1703488690.355006,1703488690.355593,2.000000,0.000000,4275.384766,4279.230957,4343.974121,4221.282227,4260.128418,4242.307617,4296.153809,4248.333496,4232.948730,4242.436035,4503.205078,4486.153809,4374.743652,4446.282227,5318.000000,4.000000,96.000000,,,,0.000000,4.000000,4.000000,4.000000,4.000000,4.000000,4.000000,4.000000,4.000000,4.000000,4.000000,4.000000,4.000000,4.000000,4.000000,100.000000,,,,,,,,,,,,,,,,,,,,,,,,,,,,
1703488690.362814,1703488690.363401,3.000000,0.000000,4277.820313,4280.000000,4332.179688,4244.230957,4279.230957,4243.461426,4305.256348,4257.692383,4230.641113,4233.846191,4504.743652,4490.000000,4368.717773,4446.153809,5424.000000,4.000000,96.000000,,,,0.000000,4.000000,4.000000,4.000000,4.000000,4.000000,4.000000,4.000000,4.000000,4.000000,4.000000,4.000000,4.000000,4.000000,4.000000,100.000000,,,,,,,,,,,,,,,,,,,,,,,,,,,,
1703488690.370622,1703488690.371110,4.000000,0.000000,4271.153809,4267.820313,4329.487305,4229.230957,4282.179688,4247.692383,4307.820313,4259.615234,4228.205078,4219.102539,4500.384766,4481.666504,4357.948730,4434.615234,5182.000000,4.000000,96.000000,,,,0.000000,4.000000,4.000000,4.000000,4.000000,4.000000,4.000000,4.000000,4.000000,4.000000,4.000000,4.000000,4.000000,4.000000,4.000000,100.000000,,,,,,,,,,,,,,,,,1.000000,0.000000,0.710834,-0.087952,-0.680359,0.155212,0.936638,-0.333048,0.057624,-10.983685,-43.228771,61.318005
1703488690.378430,1703488690.378918,5.000000,0.000000,4256.794922,4251.666504,4330.512695,4190.384766,4257.563965,4241.538574,4297.692383,4257.051270,4233.846191,4225.384766,4490.256348,4472.051270,4354.743652,4424.487305,5095.000000,4.000000,96.000000,,,,0.000000,4.000000,4.000000,4.000000,4.000000,4.000000,4.000000,4.000000,4.000000,4.000000,4.000000,4.000000,4.000000,4.000000,4.000000,100.000000,,,,,,,,,,,,,,,,,,,,,,,,,,,,
1703488690.386238,1703488690.386626,6.000000,0.000000,4258.461426,4273.589844,4325.128418,4220.128418,4264.102539,4248.974121,4302.563965,4268.717773,4250.769043,4249.871582,4488.974121,4475.512695,4364.743652,4427.692383,2207.000000,4.000000,96.000000,,,,0.000000,4.000000,4.000000,4.000000,4.000000,4.000000,4.000000,4.000000,4.000000,4.000000,4.000000,4.000000,4.000000,4.000000,4.000000,100.000000,,,,,,,,,,,,,,,,,,,,,,,,,,,,
1703488690.394046,1703488690.394434,7.000000,0.000000,4267.692383,4290.897461,4320.000000,4258.205078,4283.589844,4264.615234,4314.102539,4284.102539,4268.846191,4259.102539,4500.769043,4480.000000,4370.897461,4439.230957,5095.000000,4.000000,96.000000,,,,0.000000,4.000000,4.000000,4.000000,4.000000,4.000000,4.000000,4.000000,4.000000,4.000000,4.000000,4.000000,4.000000,4.000000,4.000000,100.000000,,,,,,,,,,,,,,,,,,,,,,,,,,,,
1703488690.401854,1703488690.402142,8.000000,0.000000,4255.384766,4258.846191,4315.769043,4230.641113,4270.256348,4262.436035,4304.358887,4273.333496,4262.692383,4242.692383,4497.692383,4475.769043,4352.179688,4436.794922,5257.000000,4.000000,96.000000,,,,0.000000,4.000000,4.000000,4.000000,4.000000,4.000000,4.000000,4.000000,4.000000,4.000000,4.000000,4.000000,4.000000,4.000000,4.000000,100.000000,,,,,,,,,,,,,,,,,2.000000,0.000000,0.711000,-0.087341,-0.680237,0.155334,0.926383,-0.339397,0.054694,-10.985316,-43.272560,61.369537
1703488690.409662,1703488690.409950,9.000000,0.000000,4242.692383,4248.333496,4313.974121,4213.717773,4263.333496,4260.000000,4296.794922,4258.333496,4249.102539,4241.025879,4487.307617,4471.410156,4343.205078,4424.871582,5292.000000,4.000000,96.000000,,,,0.000000,4.000000,4.000000,4.000000,4.000000,4.000000,4.000000,4.000000,4.000000,4.000000,4.000000,4.000000,4.000000,4.000000,4.000000,100.000000,,,,,,,,,,,,,,,,,,,,,,,,,,,,
1703488690.417470,1703488690.417658,10.000000,0.000000,4255.128418,4273.589844,4322.563965,4222.051270,4270.641113,4259.102539,4301.282227,4260.769043,4255.256348,4260.769043,4490.512695,4465.384766,4363.205078,4426.153809,5814.000000,4.000000,96.000000,,,,0.000000,4.000000,4.000000,4.000000,4.000000,4.000000,4.000000,4.000000,4.000000,4.000000,4.000000,4.000000,4.000000,4.000000,4.000000,100.000000,,,,,,,,,,,,,,,,,,,,,,,,,,,,
1703488690.425278,1703488690.425466,11.000000,0.000000,4269.743652,4271.922852,4329.743652,4217.820313,4264.743652,4244.743652,4297.051270,4262.179688,4262.436035,4268.589844,4503.846191,4468.077148,4373.461426,4438.589844,6229.000000,4.000000,96.000000,,,,0.000000,4.000000,4.000000,4.000000,4.000000,4.000000,4.000000,4.000000,4.000000,4.000000,4.000000,4.000000,4.000000,4.000000,4.000000,100.000000,,,,,,,,,,,,,,,,,,,,,,,,,,,,
1703488690.433086,1703488690.433174,12.000000,0.000000,4263.205078,4255.897461,4325.256348,4223.333496,4262.820313,4240.128418,4294.871582,4256.666504,4252.436035,4260.128418,4507.436035,4479.230957,4365.512695,4440.256348,6710.000000,4.000000,96.000000,,,,0.000000,4.000000,4.000000,4.000000,4.000000,4.000000,4.000000,4.000000,4.000000,4.000000,4.000000,4.000000,4.000000,4.000000,4.000000,100.000000,,,,,,,,,,,,,,,,,3.000000,0.000000,0.711003,-0.087097,-0.680237,0.155457,0.917592,-0.334025,0.050787,-10.870118,-43.278641,61.532585
1703488690.440894,1703488690.441082,13.000000,0.000000,4257.692383,4263.333496,4324.358887,4235.384766,4259.487305,4245.384766,4298.717773,4251.922852,4244.358887,4258.333496,4507.563965,4476.922852,4373.717773,4438.974121,6893.000000,4.000000,96.000000,,,,0.000000,4.000000,4.000000,4.000000,4.000000,4.000000,4.000000,4.000000,4.000000,4.000000,4.000000,4.000000,4.000000,4.000000,4.000000,100.000000,,,,,,,,,,,,,,,,,,,,,,,,,,,,
1703488690.448702,1703488690.448890,14.000000,0.000000,4272.820313,4269.615234,4336.025879,4234.871582,4249.871582,4234.230957,4296.282227,4254.487305,4250.384766,4267.820313,4519.743652,4482.179688,4391.282227,4453.846191,5814.000000,4.000000,96.000000,,,,0.000000,4.000000,4.000000,4.000000,4.000000,4.000000,4.000000,4.000000,4.000000,4.000000,4.000000,4.000000,4.000000,4.000000,4.000000,100.000000,,,,,,,,,,,,,,,,,,,,,,,,,,,,
1703488690.456510,1703488690.456797,15.000000,0.000000,4280.769043,4264.615234,4341.025879,4234.615234,4260.384766,4230.384766,4298.077148,4261.282227,4250.897461,4264.487305,4524.743652,4495.128418,4391.153809,4463.846191,6229.000000,4.000000,96.000000,,,,0.000000,4.000000,4.000000,4.000000,4.000000,4.000000,4.000000,4.000000,4.000000,4.000000,4.000000,4.000000,4.000000,4.000000,4.000000,100.000000,,,,,,,,,,,,,,,,,,,,,,,,,,,,
1703488690.464319,1703488690.464605,16.000000,0.000000,4272.436035,4267.692383,4335.384766,4226.025879,4267.179688,4246.794922,4306.538574,4262.307617,4245.256348,4262.563965,4520.000000,4488.974121,4383.717773,4457.307617,0.000000,4.000000,96.000000,,,,0.000000,4.000000,4.000000,4.000000,4.000000,4.000000,4.000000,4.000000,4.000000,4.000000,4.000000,4.000000,4.000000,4.000000,4.000000,100.000000,,,,,,,,,,,,,,,,,4.000000,0.000000,0.711127,-0.087036,-0.680115,0.155457,0.934196,-0.335979,0.053717,-10.949773,-43.184109,61.462658
1703488690.472127,1703488690.472513,17.000000,0.000000,4267.692383,4277.948730,4331.922852,4228.589844,4262.563965,4255.000000,4307.179688,4261.025879,4250.897461,4269.358887,4521.538574,4482.436035,4387.692383,4453.461426,0.000000,4.000000,96.000000,,,,0.000000,4.000000,4.000000,4.000000,4.000000,4.000000,4.000000,4.000000,4.000000,4.000000,4.000000,4.000000,4.000000,4.000000,4.000000,100.000000,,,,,,,,,,,,,,,,,,,,,,,,,,,,
1703488690.479935,1703488690.480321,18.000000,0.000000,4270.128418,4281.538574,4331.538574,4250.128418,4274.230957,4249.487305,4305.769043,4264.743652,4257.948730,4269.615234,4527.948730,4487.820313,4397.692383,4459.358887,0.000000,4.000000,96.000000,,,,0.000000,4.000000,4.000000,4.000000,4.000000,4.000000,4.000000,4.000000,4.000000,4.000000,4.000000,4.000000,4.000000,4.000000,4.000000,100.000000,,,,,,,,,,,,,,,,,,,,,,,,,,,,
1703488690.487743,1703488690.488229,19.000000,0.000000,4270.769043,4273.974121,4331.410156,4242.820313,4273.461426,4243.717773,4306.538574,4266.666504,4256.666504,4265.384766,4524.743652,4486.282227,4394.487305,4463.974121,0.000000,4.000000,96.000000,,,,0.000000,4.000000,4.000000,4.000000,4.000000,4.000000,4.000000,4.000000,4.000000,4.000000,4.000000,4.000000,4.000000,4.000000,4.000000,100.000000,,,,,,,,,,,,,,,,,,,,,,,,,,,,
1703488690.495551,1703488690.496037,20.000000,0.000000,4261.538574,4264.871582,4321.282227,4226.794922,4260.000000,4244.871582,4306.282227,4261.922852,4250.256348,4254.358887,4510.512695,4473.589844,4377.820313,4456.282227,0.000000,4.000000,96.000000,,,,0.000000,4.000000,4.000000,4.000000,4.000000,4.000000,4.000000,4.000000,4.000000,4.000000,4.000000,4.000000,4.000000,4.000000,4.000000,100.000000,,,,,,,,,,,,,,,,,5.000000,0.000000,0.711318,-0.086975,-0.679993,0.155151,0.922964,-0.344769,0.047857,-10.771462,-43.015697,61.483059
1703488690.503359,1703488690.503945,21.000000,0.000000,4247.692383,4260.384766,4306.794922,4230.256348,4267.436035,4251.922852,4309.230957,4255.897461,4251.410156,4245.256348,4495.512695,4464.102539,4364.358887,4440.512695,0.000000,4.000000,96.000000,,,,0.000000,4.000000,4.000000,4.000000,4.000000,4.000000,4.000000,4.000000,4.000000,4.000000,4.000000,4.000000,4.000000,4.000000,4.000000,100.000000,,,,,,,,,,,,,,,,,,,,,,,,,,,,
1703488690.511167,1703488690.511753,22.000000,0.000000,4243.077148,4259.615234,4310.512695,4224.487305,4266.410156,4249.743652,4308.205078,4249.871582,4257.436035,4255.897461,4487.436035,4459.230957,4357.179688,4433.589844,0.000000,4.000000,96.000000,,,,0.000000,4.000000,4.000000,4.000000,4.000000,4.000000,4.000000,4.000000,4.000000,4.000000,4.000000,4.000000,4.000000,4.000000,4.000000,100.000000,,,,,,,,,,,,,,,,,,,,,,,,,,,,
1703488690.518975,1703488690.519661,23.000000,0.000000,4250.256348,4259.487305,4319.743652,4226.922852,4254.230957,4241.025879,4305.256348,4247.692383,4254.230957,4263.846191,4488.333496,4458.846191,4353.717773,4440.384766,0.000000,4.000000,96.000000,,,,0.000000,4.000000,4.000000,4.000000,4.000000,4.000000,4.000000,4.000000,4.000000,4.000000,4.000000,4.000000,4.000000,4.000000,4.000000,100.000000,1.000000,100.000000,4.000000,4.000000,4.000000,4.000000,4.000000,4.000000,4.000000,4.000000,4.000000,4.000000,4.000000,4.000000,4.000000,4.000000,,,,,,,,,,,,
1703488690.526783,1703488690.527469,24.000000,0.000000,4256.922852,4260.641113,4318.589844,4250.000000,4270.000000,4247.436035,4311.666504,4251.410156,4248.589844,4246.922852,4485.384766,4466.538574,4349.487305,4442.948730,0.000000,4.000000,96.000000,,,,0.000000,4.000000,4.000000,4.000000,4.000000,4.000000,4.000000,4.000000,4.000000,4.000000,4.000000,4.000000,4.000000,4.000000,4.000000,100.000000,,,,,,,,,,,,,,,,,6.000000,0.000000,0.711490,-0.086914,-0.679932,0.154663,0.939568,-0.345745,0.053717,-10.744316,-42.897461,61.501419
1703488690.534591,1703488690.535377,25.000000,0.000000,4258.846191,4269.743652,4318.077148,4254.615234,4273.077148,4252.563965,4313.461426,4257.820313,4248.717773,4240.256348,4485.000000,4472.436035,4351.025879,4439.615234,0.000000,4.000000,96.000000,,,,0.000000,4.000000,4.000000,4.000000,4.000000,4.000000,4.000000,4.000000,4.000000,4.000000,4.000000,4.000000,4.000000,4.000000,4.000000,100.000000,,,,,,,,,,,,,,,,,,,,,,,,,,,,
1703488690.542399,1703488690.543185,26.000000,0.000000,4261.666504,4277.051270,4322.179688,4245.512695,4248.461426,4241.410156,4305.256348,4258.846191,4247.948730,4255.000000,4498.974121,4470.256348,4361.410156,4440.384766,0.000000,4.000000,96.000000,,,,0.000000,4.000000,4.000000,4.000000,4.000000,4.000000,4.000000,4.000000,4.000000,4.000000,4.000000,4.000000,4.000000,4.000000,4.000000,100.000000,,,,,,,,,,,,,,,,,,,,,,,,,,,,
1703488690.550207,1703488690.550893,27.000000,0.000000,4264.743652,4280.128418,4320.384766,4252.820313,4260.256348,4241.794922,4307.179688,4258.333496,4249.871582,4267.307617,4516.794922,4469.358887,4378.717773,4449.102539,0.000000,4.000000,96.000000,,,,0.000000,4.000000,4.000000,4.000000,4.000000,4.000000,4.000000,4.000000,4.000000,4.000000,4.000000,4.000000,4.000000,4.000000,4.000000,100.000000,,,,,,,,,,,,,,,,,,,,,,,,,,,,
1703488690.558015,1703488690.558701,28.000000,0.000000,4272.307617,4287.820313,4325.512695,4262.563965,4298.461426,4258.846191,4320.769043,4269.358887,4263.077148,4275.897461,4529.743652,4481.538574,4400.256348,4467.948730,0.000000,4.000000,96.000000,,,,0.000000,4.000000,4.000000,4.000000,4.000000,4.000000,4.000000,4.000000,4.000000,4.000000,4.000000,4.000000,4.000000,4.000000,4.000000,100.000000,,,,,,,,,,,,,,,,,7.000000,0.000000,0.711560,-0.086670,-0.679932,0.154480,0.933708,-0.323770,0.048834,-10.719885,-42.924381,61.634613
1703488690.565823,1703488690.566409,29.000000,0.000000,4282.179688,4294.358887,4335.641113,4268.077148,4302.051270,4262.948730,4321.666504,4279.358887,4270.384766,4281.922852,4537.948730,4497.563965,4408.846191,4479.487305,0.000000,4.000000,96.000000,,,,0.000000,4.000000,4.000000,4.000000,4.000000,4.000000,4.000000,4.000000,4.000000,4.000000,4.000000,4.000000,4.000000,4.000000,4.000000,100.000000,,,,,,,,,,,,,,,,,,,,,,,,,,,,
1703488690.573631,1703488690.574217,30.000000,0.000000,4280.256348,4289.102539,4338.846191,4270.897461,4282.307617,4251.410156,4314.615234,4271.282227,4255.897461,4277.563965,4543.205078,4498.077148,4405.769043,4476.153809,0.000000,4.000000,96.000000,,,,0.000000,4.000000,4.000000,4.000000,4.000000,4.000000,4.000000,4.000000,4.000000,4.000000,4.000000,4.000000,4.000000,4.000000,4.000000,100.000000,,,,,,,,,,,,,,,,,,,,,,,,,,,,
1703488690.581439,1703488690.581925,31.000000,0.000000,4271.538574,4280.000000,4341.025879,4274.358887,4265.641113,4241.410156,4311.282227,4260.769043,4243.461426,4269.358887,4542.692383,4493.077148,4405.897461,4477.307617,0.000000,4.000000,96.000000,,,,0.000000,4.000000,4.000000,4.000000,4.000000,4.000000,4.000000,4.000000,4.000000,4.000000,4.000000,4.000000,4.000000,4.000000,4.000000,100.000000,,,,,,,,,,,,,,,,,,,,,,,,,,,,
1703488690.589247,1703488690.589833,32.000000,0.000000,4274.615234,4276.794922,4339.230957,4280.641113,4254.487305,4240.512695,4308.205078,4262.820313,4246.410156,4266.538574,4534.230957,4490.128418,4403.205078,4477.563965,0.000000,4.000000,96.000000,,,,0.000000,4.000000,4.000000,4.000000,4.000000,4.000000,4.000000,4.000000,4.000000,4.000000,4.000000,4.000000,4.000000,4.000000,4.000000,100.000000,,,,,,,,,,,,,,,,,8.000000,0.000000,0.711717,-0.086487,-0.679749,0.154663,0.911732,-0.343792,0.055183,-10.731230,-42.898609,61.671150
1703488690.597055,1703488690.597641,33.000000,0.000000,4276.666504,4280.512695,4334.615234,4281.794922,4270.769043,4247.436035,4311.153809,4264.743652,4249.487305,4262.563965,4521.410156,4481.794922,4392.051270,4464.871582,0.000000,4.000000,96.000000,,,,0.000000,4.000000,4.000000,4.000000,4.000000,4.000000,4.000000,4.000000,4.000000,4.000000,4.000000,4.000000,4.000000,4.000000,4.000000,100.000000,,,,,,,,,,,,,,,,,,,,,,,,,,,,
1703488690.604863,1703488690.605449,34.000000,0.000000,4257.948730,4282.820313,4326.282227,4276.794922,4282.563965,4250.769043,4312.948730,4253.589844,4239.487305,4245.256348,4503.846191,4469.358887,4375.000000,4450.769043,0.000000,4.000000,96.000000,,,,0.000000,4.000000,4.000000,4.000000,4.000000,4.000000,4.000000,4.000000,4.000000,4.000000,4.000000,4.000000,4.000000,4.000000,4.000000,100.000000,,,,,,,,,,,,,,,,,,,,,,,,,,,,
1703488690.612671,1703488690.613157,35.000000,0.000000,4240.256348,4278.205078,4308.205078,4277.051270,4261.282227,4243.846191,4307.051270,4245.769043,4232.179688,4228.333496,4484.871582,4457.692383,4355.000000,4442.563965,0.000000,4.000000,96.000000,,,,0.000000,4.000000,4.000000,4.000000,4.000000,4.000000,4.000000,4.000000,4.000000,4.000000,4.000000,4.000000,4.000000,4.000000,4.000000,100.000000,,,,,,,,,,,,,,,,,,,,,,,,,,,,
1703488690.620479,1703488690.620965,36.000000,0.000000,4244.615234,4275.641113,4296.922852,4284.871582,4265.641113,4246.410156,4307.820313,4253.846191,4240.128418,4232.948730,4475.641113,4449.615234,4345.128418,4435.256348,0.000000,4.000000,96.000000,,,,0.000000,4.000000,4.000000,4.000000,4.000000,4.000000,4.000000,4.000000,4.000000,4.000000,4.000000,4.000000,4.000000,4.000000,4.000000,100.000000,,,,,,,,,,,,,,,,,9.000000,0.000000,0.711908,-0.086182,-0.679504,0.155029,0.940056,-0.329142,0.055671,-10.791440,-42.925415,61.670700
1703488690.628287,1703488690.628673,37.000000,0.000000,4245.512695,4276.410156,4303.846191,4284.487305,4300.769043,4259.615234,4317.179688,4258.846191,4240.641113,4230.769043,4471.282227,4445.641113,4341.410156,4428.717773,0.000000,4.000000,96.000000,,,,0.000000,4.000000,4.000000,4.000000,4.000000,4.000000,4.000000,4.000000,4.000000,4.000000,4.000000,4.000000,4.000000,4.000000,4.000000,100.000000,,,,,,,,,,,,,,,,,,,,,,,,,,,,
1703488690.636095,1703488690.636481,38.000000,0.000000,4231.666504,4261.666504,4309.743652,4263.077148,4293.589844,4260.128418,4316.794922,4253.461426,4229.487305,4213.974121,4464.487305,4442.563965,4329.487305,4425.000000,0.000000,4.000000,96.000000,,,,0.000000,4.000000,4.000000,4.000000,4.000000,4.000000,4.000000,4.000000,4.000000,4.000000,4.000000,4.000000,4.000000,4.000000,4.000000,100.000000,,,,,,,,,,,,,,,,,,,,,,,,,,,,
1703488690.643904,1703488690.644189,39.000000,0.000000,4227.179688,4247.051270,4306.153809,4248.589844,4257.948730,4258.205078,4307.948730,4258.717773,4236.538574,4221.922852,4465.000000,4445.769043,4327.692383,4424.102539,0.000000,4.000000,96.000000,,,,0.000000,4.000000,4.000000,4.000000,4.000000,4.000000,4.000000,4.000000,4.000000,4.000000,4.000000,4.000000,4.000000,4.000000,4.000000,100.000000,,,,,,,,,,,,,,,,,,,,,,,,,,,,
1703488690.651712,1703488690.652097,40.000000,0.000000,4240.769043,4267.820313,4307.307617,4281.410156,4265.769043,4262.436035,4310.128418,4271.538574,4256.410156,4241.922852,4485.897461,4459.358887,4345.512695,4433.589844,0.000000,4.000000,96.000000,,,,0.000000,4.000000,4.000000,4.000000,4.000000,4.000000,4.000000,4.000000,4.000000,4.000000,4.000000,4.000000,4.000000,4.000000,4.000000,100.000000,,,,,,,,,,,,,,,,,10.000000,0.000000,0.712028,-0.085815,-0.679382,0.155212,0.933219,-0.334025,0.061043,-11.045630,-42.832874,61.636967
1703488690.659520,1703488690.659905,41.000000,0.000000,4257.179688,4297.820313,4316.282227,4302.051270,4293.589844,4257.692383,4316.794922,4278.589844,4266.794922,4252.563965,4512.307617,4477.179688,4367.307617,4455.769043,0.000000,4.000000,96.000000,,,,0.000000,4.000000,4.000000,4.000000,4.000000,4.000000,4.000000,4.000000,4.000000,4.000000,4.000000,4.000000,4.000000,4.000000,4.000000,100.000000,,,,,,,,,,,,,,,,,,,,,,,,,,,,
1703488690.667328,1703488690.667712,42.000000,0.000000,4261.282227,4291.794922,4320.769043,4271.025879,4285.384766,4248.077148,4313.205078,4281.282227,4274.615234,4273.461426,4527.436035,4487.436035,4385.897461,4469.358887,0.000000,4.000000,96.000000,,,,0.000000,4.000000,4.000000,4.000000,4.000000,4.000000,4.000000,4.000000,4.000000,4.000000,4.000000,4.000000,4.000000,4.000000,4.000000,100.000000,,,,,,,,,,,,,,,,,,,,,,,,,,,,
1703488690.675136,1703488690.675421,43.000000,0.000000,4262.436035,4284.871582,4317.436035,4270.641113,4272.563965,4247.563965,4306.538574,4277.436035,4277.307617,4290.256348,4535.256348,4489.102539,4396.025879,4467.563965,0.000000,4.000000,96.000000,,,,0.000000,4.000000,4.000000,4.000000,4.000000,4.000000,4.000000,4.000000,4.000000,4.000000,4.000000,4.000000,4.000000,4.000000,4.000000,100.000000,,,,,,,,,,,,,,,,,,,,,,,,,,,,
1703488690.682944,1703488690.683328,44.000000,0.000000,4266.794922,4298.589844,4317.820313,4307.051270,4282.051270,4243.589844,4308.077148,4264.230957,4260.000000,4272.051270,4530.641113,4484.615234,4386.153809,4463.974121,0.000000,4.000000,96.000000,,,,0.000000,4.000000,4.000000,4.000000,4.000000,4.000000,4.000000,4.000000,4.000000,4.000000,4.000000,4.000000,4.000000,4.000000,4.000000,100.000000,,,,,,,,,,,,,,,,,11.000000,0.000000,0.712062,-0.085754,-0.679382,0.155090,0.931266,-0.353559,0.065438,-11.007733,-42.832920,61.606602
1703488690.690752,1703488690.691136,45.000000,0.000000,4261.794922,4290.256348,4323.974121,4298.205078,4276.794922,4232.563965,4307.436035,4248.333496,4236.922852,4248.589844,4511.922852,4476.153809,4366.666504,4456.282227,0.000000,4.000000,96.000000,,,,0.000000,4.000000,4.000000,4.000000,4.000000,4.000000,4.000000,4.000000,4.000000,4.000000,4.000000,4.000000,4.000000,4.000000,4.000000,100.000000,,,,,,,,,,,,,,,,,,,,,,,,,,,,
1703488690.698560,1703488690.699044,46.000000,0.000000,4256.282227,4274.230957,4329.358887,4285.384766,4270.512695,4234.743652,4304.871582,4243.461426,4230.256348,4249.102539,4503.974121,4475.256348,4361.922852,4447.820313,0.000000,4.000000,96.000000,,,,0.000000,4.000000,4.000000,4.000000,4.000000,4.000000,4.000000,4.000000,4.000000,4.000000,4.000000,4.000000,4.000000,4.000000,4.000000,100.000000,,,,,,,,,,,,,,,,,,,,,,,,,,,,
1703488690.706368,1703488690.706852,47.000000,0.000000,4259.230957,4278.205078,4329.871582,4304.358887,4283.717773,4239.871582,4311.410156,4242.820313,4233.205078,4248.333496,4507.051270,4476.153809,4363.717773,4449.743652,0.000000,4.000000,96.000000,,,,0.000000,4.000000,4.000000,4.000000,4.000000,4.000000,4.000000,4.000000,4.000000,4.000000,4.000000,4.000000,4.000000,4.000000,4.000000,100.000000,,,,,,,,,,,,,,,,,,,,,,,,,,,,
1703488690.714176,1703488690.714760,48.000000,0.000000,4254.871582,4269.871582,4326.025879,4289.102539,4282.692383,4241.666504,4314.230957,4236.153809,4229.743652,4236.922852,4494.487305,4469.743652,4357.692383,4446.794922,0.000000,4.000000,96.000000,,,,0.000000,4.000000,4.000000,4.000000,4.000000,4.000000,4.000000,4.000000,4.000000,4.000000,4.000000,4.000000,4.000000,4.000000,4.000000,100.000000,,,,,,,,,,,,,,,,,12.000000,0.000000,0.712181,-0.086243,-0.679321,0.154541,0.936149,-0.349164,0.064949,-10.956960,-42.866295,61.562607
1703488690.721984,1703488690.722568,49.000000,0.000000,4243.077148,4262.820313,4314.871582,4280.769043,4277.948730,4254.487305,4310.769043,4236.410156,4228.717773,4228.461426,4484.615234,4460.384766,4358.205078,4434.358887,0.000000,4.000000,96.000000,,,,0.000000,4.000000,4.000000,4.000000,4.000000,4.000000,4.000000,4.000000,4.000000,4.000000,4.000000,4.000000,4.000000,4.000000,4.000000,100.000000,,,,,,,,,,,,,,,,,,,,,,,,,,,,
1703488690.729792,1703488690.730476,50.000000,0.000000,4245.256348,4280.897461,4307.307617,4310.128418,4294.358887,4267.179688,4315.512695,4249.358887,4237.179688,4229.743652,4498.846191,4456.282227,4368.461426,4436.794922,0.000000,4.000000,96.000000,,,,0.000000,4.000000,4.000000,4.000000,4.000000,4.000000,4.000000,4.000000,4.000000,4.000000,4.000000,4.000000,4.000000,4.000000,4.000000,100.000000,,,,,,,,,,,,,,,,,,,,,,,,,,,,
1703488690.737600,1703488690.738284,51.000000,0.000000,4251.025879,4285.641113,4311.153809,4313.077148,4302.563965,4264.615234,4321.794922,4260.512695,4249.487305,4244.871582,4508.846191,4462.179688,4375.256348,4453.333496,0.000000,4.000000,96.000000,,,,0.000000,4.000000,4.000000,4.000000,4.000000,4.000000,4.000000,4.000000,4.000000,4.000000,4.000000,4.000000,4.000000,4.000000,4.000000,100.000000,,,,,,,,,,,,,,,,,,,,,,,,,,,,
1703488690.745408,1703488690.746192,52.000000,0.000000,4251.666504,4281.666504,4311.922852,4311.410156,4292.692383,4261.153809,4318.974121,4263.205078,4259.871582,4263.846191,4517.692383,4471.153809,4387.051270,4461.025879,0.000000,4.000000,96.000000,,,,0.000000,4.000000,4.000000,4.000000,4.000000,4.000000,4.000000,4.000000,4.000000,4.000000,4.000000,4.000000,4.000000,4.000000,4.000000,100.000000,,,,,,,,,,,,,,,,,13.000000,0.000000,0.712312,-0.086365,-0.679321,0.153870,0.927359,-0.330118,0.052252,-11.027930,-42.979664,61.573013
1703488690.753216,1703488690.754000,53.000000,0.000000,4256.794922,4288.974121,4315.384766,4324.487305,4292.307617,4267.563965,4315.512695,4266.666504,4268.846191,4272.436035,4534.871582,4477.051270,4402.436035,4459.871582,0.000000,4.000000,96.000000,,,,0.000000,4.000000,4.000000,4.000000,4.000000,4.000000,4.000000,4.000000,4.000000,4.000000,4.000000,4.000000,4.000000,4.000000,4.000000,100.000000,,,,,,,,,,,,,,,,,,,,,,,,,,,,
1703488690.761024,1703488690.761708,54.000000,0.000000,4256.410156,4286.410156,4323.077148,4315.897461,4292.307617,4261.538574,4315.897461,4266.538574,4267.563965,4266.666504,4535.769043,4472.179688,4397.051270,4456.282227,0.000000,4.000000,96.000000,,,,0.000000,4.000000,4.000000,4.000000,4.000000,4.000000,4.000000,4.000000,4.000000,4.000000,4.000000,4.000000,4.000000,4.000000,4.000000,100.000000,,,,,,,,,,,,,,,,,,,,,,,,,,,,
1703488690.768832,1703488690.769516,55.000000,0.000000,4254.871582,4283.974121,4328.333496,4309.358887,4282.179688,4245.769043,4314.615234,4263.077148,4260.256348,4258.846191,4529.230957,4472.436035,4388.717773,4462.051270,0.000000,4.000000,96.000000,,,,0.000000,4.000000,4.000000,4.000000,4.000000,4.000000,4.000000,4.000000,4.000000,4.000000,4.000000,4.000000,4.000000,4.000000,4.000000,100.000000,,,,,,,,,,,,,,,,,,,,,,,,,,,,
1703488690.776640,1703488690.777224,56.000000,0.000000,4266.922852,4296.410156,4336.153809,4332.179688,4280.000000,4247.948730,4316.153809,4265.000000,4265.256348,4268.461426,4540.641113,4489.743652,4401.153809,4476.538574,0.000000,4.000000,96.000000,,,,0.000000,4.000000,4.000000,4.000000,4.000000,4.000000,4.000000,4.000000,4.000000,4.000000,4.000000,4.000000,4.000000,4.000000,4.000000,100.000000,,,,,,,,,,,,,,,,,14.000000,0.000000,0.712553,-0.086853,-0.679199,0.153015,0.928336,-0.327188,0.054206,-11.025137,-43.015034,61.549046
1703488690.784448,1703488690.785032,57.000000,0.000000,4275.256348,4299.743652,4341.666504,4335.897461,4285.000000,4255.641113,4316.538574,4266.538574,4267.436035,4277.051270,4544.230957,4496.922852,4405.512695,4475.897461,0.000000,4.000000,96.000000,,,,0.000000,4.000000,4.000000,4.000000,4.000000,4.000000,4.000000,4.000000,4.000000,4.000000,4.000000,4.000000,4.000000,4.000000,4.000000,100.000000,,,,,,,,,,,,,,,,,,,,,,,,,,,,
1703488690.792256,1703488690.792740,58.000000,0.000000,4266.794922,4287.307617,4334.743652,4320.000000,4276.922852,4249.487305,4311.025879,4261.666504,4251.922852,4262.051270,4526.794922,4487.179688,4387.051270,4460.256348,0.000000,4.000000,96.000000,,,,0.000000,4.000000,4.000000,4.000000,4.000000,4.000000,4.000000,4.000000,4.000000,4.000000,4.000000,4.000000,4.000000,4.000000,4.000000,100.000000,,,,,,,,,,,,,,,,,,,,,,,,,,,,
1703488690.800064,1703488690.800548,59.000000,0.000000,4260.384766,4279.743652,4329.743652,4312.948730,4264.230957,4245.641113,4309.358887,4262.820313,4245.128418,4248.205078,4523.589844,4487.307617,4382.051270,4456.666504,0.000000,4.000000,96.000000,,,,0.000000,4.000000,4.000000,4.000000,4.000000,4.000000,4.000000,4.000000,4.000000,4.000000,4.000000,4.000000,4.000000,4.000000,4.000000,100.000000,,,,,,,,,,,,,,,,,,,,,,,,,,,,
1703488690.807872,1703488690.808256,60.000000,0.000000,4264.230957,4279.358887,4334.871582,4314.871582,4277.436035,4249.615234,4314.743652,4275.897461,4260.512695,4261.282227,4540.512695,4500.256348,4398.846191,4465.384766,0.000000,4.000000,96.000000,,,,0.000000,4.000000,4.000000,4.000000,4.000000,4.000000,4.000000,4.000000,4.000000,4.000000,4.000000,4.000000,4.000000,4.000000,4.000000,100.000000,,,,,,,,,,,,,,,,,15.000000,0.000000,0.712780,-0.087219,-0.678955,0.152832,0.940056,-0.318887,0.050787,-10.905957,-43.046864,61.494141
1703488690.815681,1703488690.816064,61.000000,0.000000,4263.333496,4279.743652,4336.025879,4316.922852,4296.666504,4252.820313,4317.051270,4283.461426,4268.461426,4269.230957,4542.948730,4499.615234,4398.589844,4458.846191,0.000000,4.000000,96.000000,,,,0.000000,4.000000,4.000000,4.000000,4.000000,4.000000,4.000000,4.000000,4.000000,4.000000,4.000000,4.000000,4.000000,4.000000,4.000000,100.000000,,,,,,,,,,,,,,,,,,,,,,,,,,,,
1703488690.823489,1703488690.823772,62.000000,0.000000,4258.205078,4278.461426,4338.077148,4309.487305,4283.333496,4254.615234,4313.717773,4279.871582,4260.897461,4256.666504,4526.025879,4490.384766,4380.000000,4442.692383,0.000000,4.000000,96.000000,,,,0.000000,4.000000,4.000000,4.000000,4.000000,4.000000,4.000000,4.000000,4.000000,4.000000,4.000000,4.000000,4.000000,4.000000,4.000000,100.000000,,,,,,,,,,,,,,,,,,,,,,,,,,,,
1703488690.831297,1703488690.831680,63.000000,0.000000,4257.820313,4273.077148,4342.051270,4312.051270,4265.256348,4250.769043,4311.538574,4280.384766,4268.589844,4264.102539,4519.102539,4493.589844,4376.538574,4441.538574,0.000000,4.000000,96.000000,,,,0.000000,4.000000,4.000000,4.000000,4.000000,4.000000,4.000000,4.000000,4.000000,4.000000,4.000000,4.000000,4.000000,4.000000,4.000000,100.000000,,,,,,,,,,,,,,,,,,,,,,,,,,,,
1703488690.839105,1703488690.839488,64.000000,0.000000,4261.794922,4273.589844,4336.666504,4327.692383,4274.102539,4251.025879,4313.717773,4281.410156,4281.410156,4278.077148,4527.563965,4497.051270,4380.384766,4445.384766,5399.000000,4.000000,96.000000,,,,0.000000,4.000000,4.000000,4.000000,4.000000,4.000000,4.000000,4.000000,4.000000,4.000000,4.000000,4.000000,4.000000,4.000000,4.000000,100.000000,,,,,,,,,,,,,,,,,16.000000,0.000000,0.712568,-0.087524,-0.679138,0.152832,0.934684,-0.334025,0.051764,-10.982028,-42.975510,61.594727
1703488690.846913,1703488690.847296,65.000000,0.000000,4262.051270,4280.000000,4332.948730,4333.589844,4295.897461,4264.487305,4319.487305,4276.794922,4278.461426,4267.179688,4531.153809,4489.487305,4383.846191,4443.205078,5497.000000,4.000000,96.000000,,,,0.000000,4.000000,4.000000,4.000000,4.000000,4.000000,4.000000,4.000000,4.000000,4.000000,4.000000,4.000000,4.000000,4.000000,4.000000,100.000000,,,,,,,,,,,,,,,,,,,,,,,,,,,,
1703488690.854721,1703488690.855004,66.000000,0.000000,4261.153809,4280.000000,4341.794922,4323.077148,4302.436035,4267.436035,4321.025879,4284.358887,4282.051270,4270.384766,4536.538574,4493.461426,4397.436035,4450.128418,5303.000000,4.000000,96.000000,,,,0.000000,4.000000,4.000000,4.000000,4.000000,4.000000,4.000000,4.000000,4.000000,4.000000,4.000000,4.000000,4.000000,4.000000,4.000000,100.000000,,,,,,,,,,,,,,,,,,,,,,,,,,,,
1703488690.862529,1703488690.862912,67.000000,0.000000,4266.025879,4273.846191,4348.846191,4318.461426,4286.282227,4261.025879,4315.128418,4296.025879,4297.436035,4296.922852,4548.589844,4510.256348,4407.820313,4466.922852,5350.000000,4.000000,96.000000,,,,0.000000,4.000000,4.000000,4.000000,4.000000,4.000000,4.000000,4.000000,4.000000,4.000000,4.000000,4.000000,4.000000,4.000000,4.000000,100.000000,,,,,,,,,,,,,,,,,,,,,,,,,,,,
1703488690.870337,1703488690.870720,68.000000,0.000000,4265.641113,4272.948730,4340.512695,4321.538574,4275.641113,4269.102539,4313.461426,4288.846191,4293.333496,4294.615234,4544.871582,4498.974121,4400.256348,4462.307617,5183.000000,4.000000,96.000000,,,,0.000000,4.000000,4.000000,4.000000,4.000000,4.000000,4.000000,4.000000,4.000000,4.000000,4.000000,4.000000,4.000000,4.000000,4.000000,100.000000,,,,,,,,,,,,,,,,,17.000000,0.000000,0.712262,-0.088013,-0.679382,0.152893,0.923941,-0.321328,0.056159,-11.183825,-42.994625,61.635254
1703488690.878145,1703488690.878628,69.000000,0.000000,4262.051270,4283.333496,4331.794922,4330.641113,4282.436035,4271.666504,4317.948730,4272.692383,4273.333496,4271.025879,4534.743652,4476.794922,4392.692383,4444.230957,5093.000000,4.000000,96.000000,,,,0.000000,4.000000,4.000000,4.000000,4.000000,4.000000,4.000000,4.000000,4.000000,4.000000,4.000000,4.000000,4.000000,4.000000,4.000000,100.000000,,,,,,,,,,,,,,,,,,,,,,,,,,,,
1703488690.885953,1703488690.886436,70.000000,0.000000,4263.589844,4292.179688,4327.436035,4340.769043,4285.641113,4260.897461,4318.077148,4268.461426,4269.615234,4278.461426,4536.410156,4481.410156,4397.307617,4443.077148,2199.000000,4.000000,96.000000,,,,0.000000,4.000000,4.000000,4.000000,4.000000,4.000000,4.000000,4.000000,4.000000,4.000000,4.000000,4.000000,4.000000,4.000000,4.000000,100.000000,,,,,,,,,,,,,,,,,,,,,,,,,,,,
1703488690.893761,1703488690.894343,71.000000,0.000000,4265.384766,4287.436035,4325.128418,4332.307617,4271.922852,4257.436035,4311.666504,4265.000000,4265.128418,4283.205078,4529.487305,4485.897461,4392.692383,4450.641113,5090.000000,4.000000,96.000000,,,,0.000000,4.000000,4.000000,4.000000,4.000000,4.000000,4.000000,4.000000,4.000000,4.000000,4.000000,4.000000,4.000000,4.000000,4.000000,100.000000,,,,,,,,,,,,,,,,,,,,,,,,,,,,
1703488690.901569,1703488690.902151,72.000000,0.000000,4264.871582,4274.230957,4327.179688,4328.461426,4267.307617,4259.743652,4311.410156,4256.282227,4247.307617,4256.153809,4515.641113,4480.641113,4380.384766,4449.358887,5247.000000,4.000000,96.000000,,,,0.000000,4.000000,4.000000,4.000000,4.000000,4.000000,4.000000,4.000000,4.000000,4.000000,4.000000,4.000000,4.000000,4.000000,4.000000,100.000000,,,,,,,,,,,,,,,,,18.000000,0.000000,0.712172,-0.087952,-0.679443,0.153076,0.928336,-0.308631,0.045904,-11.348776,-42.895161,61.771729
1703488690.909377,1703488690.910059,73.000000,0.000000,4262.051270,4271.922852,4326.922852,4336.922852,4279.871582,4263.333496,4319.743652,4257.563965,4240.128418,4241.410156,4518.333496,4484.230957,4383.589844,4443.846191,5277.000000,4.000000,96.000000,,,,0.000000,4.000000,4.000000,4.000000,4.000000,4.000000,4.000000,4.000000,4.000000,4.000000,4.000000,4.000000,4.000000,4.000000,4.000000,100.000000,,,,,,,,,,,,,,,,,,,,,,,,,,,,
1703488690.917185,1703488690.917867,74.000000,0.000000,4257.436035,4279.743652,4324.615234,4340.512695,4282.051270,4262.563965,4319.487305,4263.974121,4247.436035,4250.512695,4525.641113,4486.282227,4393.077148,4451.666504,5804.000000,4.000000,96.000000,,,,0.000000,4.000000,4.000000,4.000000,4.000000,4.000000,4.000000,4.000000,4.000000,4.000000,4.000000,4.000000,4.000000,4.000000,4.000000,100.000000,,,,,,,,,,,,,,,,,,,,,,,,,,,,
1703488690.924993,1703488690.925675,75.000000,0.000000,4258.205078,4278.717773,4331.666504,4335.769043,4279.615234,4257.820313,4312.051270,4264.358887,4248.974121,4255.384766,4524.487305,4484.871582,4387.307617,4460.641113,6229.000000,4.000000,96.000000,,,,0.000000,4.000000,4.000000,4.000000,4.000000,4.000000,4.000000,4.000000,4.000000,4.000000,4.000000,4.000000,4.000000,4.000000,4.000000,100.000000,,,,,,,,,,,,,,,,,,,,,,,,,,,,
1703488690.932801,1703488690.933483,76.000000,0.000000,4261.794922,4272.948730,4338.333496,4332.179688,4290.641113,4261.410156,4313.333496,4261.025879,4239.615234,4246.666504,4519.102539,4487.179688,4376.922852,4450.641113,6706.000000,4.000000,96.000000,,,,0.000000,4.000000,4.000000,4.000000,4.000000,4.000000,4.000000,4.000000,4.000000,4.000000,4.000000,4.000000,4.000000,4.000000,4.000000,100.000000,,,,,,,,,,,,,,,,,19.000000,0.000000,0.712155,-0.087769,-0.679443,0.153259,0.924429,-0.341839,0.058601,-11.130565,-42.872314,61.927891
1703488690.940609,1703488690.941191,77.000000,0.000000,4260.256348,4274.615234,4330.512695,4340.128418,4293.974121,4264.102539,4314.871582,4260.641113,4241.666504,4242.820313,4520.512695,4480.384766,4384.615234,4442.307617,6893.000000,4.000000,96.000000,,,,0.000000,4.000000,4.000000,4.000000,4.000000,4.000000,4.000000,4.000000,4.000000,4.000000,4.000000,4.000000,4.000000,4.000000,4.000000,100.000000,,,,,,,,,,,,,,,,,,,,,,,,,,,,
1703488690.948417,1703488690.948999,78.000000,0.000000,4265.641113,4282.692383,4329.615234,4350.897461,4284.230957,4263.077148,4311.538574,4264.358887,4257.563965,4251.666504,4531.410156,4481.153809,4395.769043,4451.538574,5804.000000,4.000000,96.000000,,,,0.000000,4.000000,4.000000,4.000000,4.000000,4.000000,4.000000,4.000000,4.000000,4.000000,4.000000,4.000000,4.000000,4.000000,4.000000,100.000000,,,,,,,,,,,,,,,,,,,,,,,,,,,,
1703488690.956225,1703488690.956707,79.000000,0.000000,4277.307617,4285.897461,4338.461426,4353.846191,4285.769043,4273.333496,4313.974121,4270.000000,4265.769043,4266.666504,4539.358887,4500.512695,4398.461426,4462.179688,6229.000000,4.000000,96.000000,,,,0.000000,4.000000,4.000000,4.000000,4.000000,4.000000,4.000000,4.000000,4.000000,4.000000,4.000000,4.000000,4.000000,4.000000,4.000000,100.000000,,,,,,,,,,,,,,,,,,,,,,,,,,,,
1703488690.964033,1703488690.964515,80.000000,0.000000,4273.205078,4278.846191,4334.743652,4340.897461,4287.563965,4273.333496,4315.769043,4276.153809,4269.871582,4284.230957,4540.512695,4502.051270,4402.179688,4464.615234,6706.000000,4.000000,96.000000,,,,0.000000,4.000000,4.000000,4.000000,4.000000,4.000000,4.000000,4.000000,4.000000,4.000000,4.000000,4.000000,4.000000,4.000000,4.000000,100.000000,,,,,,,,,,,,,,,,,20.000000,0.000000,0.712249,-0.087524,-0.679321,0.153503,0.936638,-0.316933,0.052741,-11.084175,-42.868416,61.785099
1703488690.971841,1703488690.972223,81.000000,0.000000,4261.538574,4274.871582,4327.179688,4332.692383,4278.461426,4263.333496,4311.538574,4280.512695,4281.538574,4291.153809,4542.307617,4487.692383,4404.615234,4462.820313,6893.000000,4.000000,96.000000,,,,0.000000,4.000000,4.000000,4.000000,4.000000,4.000000,4.000000,4.000000,4.000000,4.000000,4.000000,4.000000,4.000000,4.000000,4.000000,100.000000,,,,,,,,,,,,,,,,,,,,,,,,,,,,
1703488690.979649,1703488690.980031,82.000000,0.000000,4262.692383,4278.333496,4327.948730,4333.589844,4276.282227,4273.974121,4309.871582,4280.000000,4279.358887,4278.205078,4540.384766,4486.922852,4401.666504,4457.820313,5804.000000,4.000000,96.000000,,,,0.000000,4.000000,4.000000,4.000000,4.000000,4.000000,4.000000,4.000000,4.000000,4.000000,4.000000,4.000000,4.000000,4.000000,4.000000,100.000000,,,,,,,,,,,,,,,,,,,,,,,,,,,,
1703488690.987457,1703488690.987739,83.000000,0.000000,4267.051270,4277.051270,4332.948730,4335.641113,4276.025879,4278.205078,4312.948730,4275.256348,4263.077148,4262.307617,4534.487305,4492.051270,4398.846191,4456.410156,6229.000000,4.000000,96.000000,,,,0.000000,4.000000,4.000000,4.000000,4.000000,4.000000,4.000000,4.000000,4.000000,4.000000,4.000000,4.000000,4.000000,4.000000,4.000000,100.000000,,,,,,,,,,,,,,,,,,,,,,,,,,,,
1703488690.995266,1703488690.995547,84.000000,0.000000,4268.333496,4274.871582,4336.153809,4347.307617,4278.589844,4266.666504,4315.256348,4276.282227,4267.307617,4265.000000,4537.436035,4494.615234,4399.615234,4461.666504,6706.000000,4.000000,96.000000,,,,0.000000,4.000000,4.000000,4.000000,4.000000,4.000000,4.000000,4.000000,4.000000,4.000000,4.000000,4.000000,4.000000,4.000000,4.000000,100.000000,,,,,,,,,,,,,,,,,21.000000,0.000000,0.712320,-0.087158,-0.679321,0.153381,0.936638,-0.332560,0.057624,-11.242424,-43.014908,61.723259
1703488691.003074,1703488691.003255,85.000000,0.000000,4274.230957,4277.307617,4341.666504,4348.846191,4290.769043,4271.538574,4317.179688,4277.436035,4276.794922,4272.820313,4535.641113,4499.487305,4393.077148,4461.282227,6893.000000,4.000000,96.000000,,,,0.000000,4.000000,4.000000,4.000000,4.000000,4.000000,4.000000,4.000000,4.000000,4.000000,4.000000,4.000000,4.000000,4.000000,4.000000,100.000000,,,,,,,,,,,,,,,,,,,,,,,,,,,,
1703488691.010882,1703488691.011163,86.000000,0.000000,4280.384766,4280.512695,4346.153809,4343.333496,4291.922852,4274.871582,4317.436035,4269.743652,4265.384766,4267.948730,4527.051270,4501.538574,4388.589844,4458.205078,5804.000000,4.000000,96.000000,,,,0.000000,4.000000,4.000000,4.000000,4.000000,4.000000,4.000000,4.000000,4.000000,4.000000,4.000000,4.000000,4.000000,4.000000,4.000000,100.000000,,,,,,,,,,,,,,,,,,,,,,,,,,,,
1703488691.018690,1703488691.018971,87.000000,0.000000,4273.717773,4285.000000,4341.153809,4352.179688,4283.589844,4263.846191,4316.410156,4263.077148,4255.384766,4258.589844,4531.922852,4503.205078,4395.256348,4458.846191,6229.000000,4.000000,96.000000,,,,0.000000,4.000000,4.000000,4.000000,4.000000,4.000000,4.000000,4.000000,4.000000,4.000000,4.000000,4.000000,4.000000,4.000000,4.000000,100.000000,1.000000,100.000000,4.000000,4.000000,4.000000,4.000000,4.000000,4.000000,4.000000,4.000000,4.000000,4.000000,4.000000,4.000000,4.000000,4.000000,,,,,,,,,,,,
1703488691.026498,1703488691.026879,88.000000,0.000000,4266.794922,4288.205078,4338.205078,4357.051270,4287.948730,4263.974121,4318.333496,4267.307617,4262.179688,4258.974121,4539.871582,4506.153809,4401.666504,4459.102539,6706.000000,4.000000,96.000000,,,,0.000000,4.000000,4.000000,4.000000,4.000000,4.000000,4.000000,4.000000,4.000000,4.000000,4.000000,4.000000,4.000000,4.000000,4.000000,100.000000,,,,,,,,,,,,,,,,,22.000000,0.000000,0.712326,-0.086792,-0.679321,0.153564,0.941521,-0.327188,0.051764,-11.184849,-42.996750,61.734264
1703488691.034306,1703488691.034687,89.000000,0.000000,4273.205078,4287.179688,4339.487305,4350.384766,4286.153809,4267.051270,4318.846191,4268.333496,4265.897461,4266.666504,4538.589844,4499.615234,4402.563965,4458.461426,6893.000000,4.000000,96.000000,,,,0.000000,4.000000,4.000000,4.000000,4.000000,4.000000,4.000000,4.000000,4.000000,4.000000,4.000000,4.000000,4.000000,4.000000,4.000000,100.000000,,,,,,,,,,,,,,,,,,,,,,,,,,,,
1703488691.042114,1703488691.042595,90.000000,0.000000,4274.743652,4287.563965,4333.333496,4358.846191,4275.384766,4264.871582,4317.179688,4261.153809,4256.666504,4264.230957,4537.051270,4490.897461,4396.794922,4458.589844,5804.000000,4.000000,96.000000,,,,0.000000,4.000000,4.000000,4.000000,4.000000,4.000000,4.000000,4.000000,4.000000,4.000000,4.000000,4.000000,4.000000,4.000000,4.000000,100.000000,,,,,,,,,,,,,,,,,,,,,,,,,,,,
1703488691.049922,1703488691.050403,91.000000,0.000000,4265.128418,4293.077148,4325.641113,4366.025879,4285.512695,4274.358887,4320.384766,4264.358887,4255.000000,4257.820313,4537.563965,4486.153809,4396.282227,4458.077148,6229.000000,4.000000,96.000000,,,,0.000000,4.000000,4.000000,4.000000,4.000000,4.000000,4.000000,4.000000,4.000000,4.000000,4.000000,4.000000,4.000000,4.000000,4.000000,100.000000,,,,,,,,,,,,,,,,,,,,,,,,,,,,
1703488691.057730,1703488691.058211,92.000000,0.000000,4267.179688,4295.000000,4328.589844,4355.384766,4300.384766,4283.846191,4325.641113,4276.922852,4271.410156,4267.948730,4540.641113,4488.077148,4405.256348,4458.333496,6706.000000,4.000000,96.000000,,,,0.000000,4.000000,4.000000,4.000000,4.000000,4.000000,4.000000,4.000000,4.000000,4.000000,4.000000,4.000000,4.000000,4.000000,4.000000,100.000000,,,,,,,,,,,,,,,,,23.000000,0.000000,0.712240,-0.086365,-0.679382,0.153931,0.925406,-0.335002,0.064461,-11.116364,-43.180408,61.727505
1703488691.065538,1703488691.065919,93.000000,0.000000,4282.948730,4294.615234,4332.307617,4366.794922,4293.974121,4277.051270,4324.230957,4286.538574,4287.692383,4285.897461,4553.077148,4502.051270,4415.769043,4468.589844,6893.000000,4.000000,96.000000,,,,0.000000,4.000000,4.000000,4.000000,4.000000,4.000000,4.000000,4.000000,4.000000,4.000000,4.000000,4.000000,4.000000,4.000000,4.000000,100.000000,,,,,,,,,,,,,,,,,,,,,,,,,,,,
1703488691.073346,1703488691.073827,94.000000,0.000000,4291.153809,4302.692383,4332.948730,4383.333496,4293.974121,4272.051270,4321.025879,4290.128418,4292.563965,4296.666504,4561.922852,4509.487305,4425.769043,4480.512695,5804.000000,4.000000,96.000000,,,,0.000000,4.000000,4.000000,4.000000,4.000000,4.000000,4.000000,4.000000,4.000000,4.000000,4.000000,4.000000,4.000000,4.000000,4.000000,100.000000,,,,,,,,,,,,,,,,,,,,,,,,,,,,
1703488691.081154,1703488691.081635,95.000000,0.000000,4291.282227,4310.256348,4337.179688,4377.436035,4298.333496,4274.487305,4323.589844,4285.897461,4291.153809,4297.307617,4556.153809,4500.000000,4427.307617,4481.666504,6229.000000,4.000000,96.000000,,,,0.000000,4.000000,4.000000,4.000000,4.000000,4.000000,4.000000,4.000000,4.000000,4.000000,4.000000,4.000000,4.000000,4.000000,4.000000,100.000000,,,,,,,,,,,,,,,,,,,,,,,,,,,,
1703488691.088962,1703488691.089543,96.000000,0.000000,4297.563965,4312.051270,4340.641113,4379.615234,4291.794922,4277.051270,4322.563965,4281.794922,4286.153809,4285.384766,4554.358887,4506.282227,4416.410156,4489.230957,6706.000000,4.000000,96.000000,,,,0.000000,4.000000,4.000000,4.000000,4.000000,4.000000,4.000000,4.000000,4.000000,4.000000,4.000000,4.000000,4.000000,4.000000,4.000000,100.000000,,,,,,,,,,,,,,,,,24.000000,0.000000,0.712019,-0.085938,-0.679626,0.154114,0.919057,-0.341350,0.052741,-11.088060,-43.212368,61.838089
1703488691.096770,1703488691.097351,97.000000,0.000000,4297.692383,4305.897461,4342.051270,4374.743652,4291.153809,4277.179688,4317.563965,4279.358887,4277.307617,4268.717773,4554.230957,4520.000000,4410.769043,4496.922852,6893.000000,4.000000,96.000000,,,,0.000000,4.000000,4.000000,4.000000,4.000000,4.000000,4.000000,4.000000,4.000000,4.000000,4.000000,4.000000,4.000000,4.000000,4.000000,100.000000,,,,,,,,,,,,,,,,,,,,,,,,,,,,
1703488691.104578,1703488691.105259,98.000000,0.000000,4285.641113,4301.025879,4340.512695,4356.666504,4304.743652,4277.563965,4323.974121,4271.794922,4266.282227,4259.230957,4539.871582,4504.487305,4412.307617,4485.256348,5804.000000,4.000000,96.000000,,,,0.000000,4.000000,4.000000,4.000000,4.000000,4.000000,4.000000,4.000000,4.000000,4.000000,4.000000,4.000000,4.000000,4.000000,4.000000,100.000000,,,,,,,,,,,,,,,,,,,,,,,,,,,,
1703488691.112386,1703488691.113066,99.000000,0.000000,4278.333496,4296.922852,4336.282227,4358.846191,4301.153809,4278.077148,4330.384766,4262.051270,4254.230957,4252.692383,4523.461426,4488.717773,4393.589844,4471.538574,6229.000000,4.000000,96.000000,,,,0.000000,4.000000,4.000000,4.000000,4.000000,4.000000,4.000000,4.000000,4.000000,4.000000,4.000000,4.000000,4.000000,4.000000,4.000000,100.000000,,,,,,,,,,,,,,,,,,,,,,,,,,,,
1703488691.120194,1703488691.120974,100.000000,0.000000,4278.333496,4289.230957,4336.025879,4361.153809,4278.846191,4279.615234,4322.436035,4260.384766,4245.384766,4246.153809,4520.128418,4490.000000,4375.000000,4470.769043,6706.000000,4.000000,96.000000,,,,0.000000,4.000000,4.000000,4.000000,4.000000,4.000000,4.000000,4.000000,4.000000,4.000000,4.000000,4.000000,4.000000,4.000000,4.000000,100.000000,,,,,,,,,,,,,,,,,25.000000,0.000000,0.711895,-0.085938,-0.679688,0.154419,0.935173,-0.328165,0.061043,-10.962588,-43.224464,61.920944
1703488691.128002,1703488691.128782,101.000000,0.000000,4274.487305,4289.615234,4336.282227,4350.897461,4277.948730,4278.205078,4317.563965,4260.256348,4245.897461,4246.794922,4523.077148,4485.641113,4385.512695,4470.256348,6893.000000,4.000000,96.000000,,,,0.000000,4.000000,4.000000,4.000000,4.000000,4.000000,4.000000,4.000000,4.000000,4.000000,4.000000,4.000000,4.000000,4.000000,4.000000,100.000000,,,,,,,,,,,,,,,,,,,,,,,,,,,,
1703488691.135810,1703488691.136490,102.000000,0.000000,4275.897461,4296.794922,4337.051270,4359.871582,4291.666504,4267.692383,4321.922852,4262.051270,4256.794922,4256.282227,4529.487305,4483.717773,4398.589844,4470.897461,5804.000000,4.000000,96.000000,,,,0.000000,4.000000,4.000000,4.000000,4.000000,4.000000,4.000000,4.000000,4.000000,4.000000,4.000000,4.000000,4.000000,4.000000,4.000000,100.000000,,,,,,,,,,,,,,,,,,,,,,,,,,,,
1703488691.143618,1703488691.144298,103.000000,0.000000,4285.128418,4295.128418,4342.436035,4376.922852,4286.025879,4261.538574,4323.205078,4272.692383,4264.871582,4262.948730,4538.589844,4500.000000,4399.615234,4481.410156,6229.000000,4.000000,96.000000,,,,0.000000,4.000000,4.000000,4.000000,4.000000,4.000000,4.000000,4.000000,4.000000,4.000000,4.000000,4.000000,4.000000,4.000000,4.000000,100.000000,,,,,,,,,,,,,,,,,,,,,,,,,,,,
1703488691.151426,1703488691.152006,104.000000,0.000000,4287.692383,4289.743652,4345.128418,4367.051270,4272.948730,4269.871582,4319.230957,4280.897461,4269.358887,4262.436035,4541.666504,4515.128418,4402.051270,4491.025879,6706.000000,4.000000,96.000000,,,,0.000000,4.000000,4.000000,4.000000,4.000000,4.000000,4.000000,4.000000,4.000000,4.000000,4.000000,4.000000,4.000000,4.000000,4.000000,100.000000,,,,,,,,,,,,,,,,,26.000000,0.000000,0.711809,-0.086060,-0.679749,0.154480,0.934196,-0.326700,0.063973,-10.882996,-43.268684,61.828850
1703488691.159234,1703488691.159914,105.000000,0.000000,4291.922852,4301.666504,4347.051270,4360.897461,4274.615234,4275.384766,4320.769043,4283.333496,4280.641113,4267.179688,4547.179688,4517.179688,4406.410156,4494.615234,6893.000000,4.000000,96.000000,,,,0.000000,4.000000,4.000000,4.000000,4.000000,4.000000,4.000000,4.000000,4.000000,4.000000,4.000000,4.000000,4.000000,4.000000,4.000000,100.000000,,,,,,,,,,,,,,,,,,,,,,,,,,,,
1703488691.167043,1703488691.167722,106.000000,0.000000,4296.282227,4302.436035,4342.820313,4367.436035,4270.128418,4271.410156,4320.384766,4280.769043,4285.000000,4270.897461,4549.743652,4507.820313,4406.025879,4495.256348,5804.000000,4.000000,96.000000,,,,0.000000,4.000000,4.000000,4.000000,4.000000,4.000000,4.000000,4.000000,4.000000,4.000000,4.000000,4.000000,4.000000,4.000000,4.000000,100.000000,,,,,,,,,,,,,,,,,,,,,,,,,,,,
1703488691.174851,1703488691.175530,107.000000,0.000000,4290.641113,4281.794922,4336.025879,4359.487305,4268.589844,4273.974121,4319.358887,4281.410156,4283.077148,4267.820313,4542.948730,4506.666504,4406.410156,4498.846191,6229.000000,4.000000,96.000000,,,,0.000000,4.000000,4.000000,4.000000,4.000000,4.000000,4.000000,4.000000,4.000000,4.000000,4.000000,4.000000,4.000000,4.000000,4.000000,100.000000,,,,,,,,,,,,,,,,,,,,,,,,,,,,
1703488691.182659,1703488691.183238,108.000000,0.000000,4291.410156,4288.461426,4339.615234,4359.487305,4285.384766,4279.615234,4325.641113,4287.692383,4291.666504,4273.717773,4548.974121,4521.794922,4410.128418,4510.641113,6706.000000,4.000000,96.000000,,,,0.000000,4.000000,4.000000,4.000000,4.000000,4.000000,4.000000,4.000000,4.000000,4.000000,4.000000,4.000000,4.000000,4.000000,4.000000,100.000000,,,,,,,,,,,,,,,,,27.000000,0.000000,0.711799,-0.086182,-0.679688,0.154724,0.927359,-0.341839,0.069344,-11.028029,-43.191814,61.862633
1703488691.190467,1703488691.191046,109.000000,0.000000,4300.256348,4305.769043,4344.871582,4372.051270,4282.307617,4277.051270,4326.538574,4286.538574,4292.051270,4282.563965,4555.769043,4516.025879,4416.153809,4514.102539,6893.000000,4.000000,96.000000,,,,0.000000,4.000000,4.000000,4.000000,4.000000,4.000000,4.000000,4.000000,4.000000,4.000000,4.000000,4.000000,4.000000,4.000000,4.000000,100.000000,,,,,,,,,,,,,,,,,,,,,,,,,,,,
1703488691.198275,1703488691.198754,110.000000,0.000000,4293.205078,4301.794922,4337.179688,4370.512695,4273.717773,4275.128418,4321.666504,4275.641113,4274.230957,4278.333496,4542.692383,4491.538574,4414.871582,4500.641113,5804.000000,4.000000,96.000000,,,,0.000000,4.000000,4.000000,4.000000,4.000000,4.000000,4.000000,4.000000,4.000000,4.000000,4.000000,4.000000,4.000000,4.000000,4.000000,100.000000,,,,,,,,,,,,,,,,,,,,,,,,,,,,
1703488691.206083,1703488691.206562,111.000000,0.000000,4280.512695,4294.871582,4324.615234,4363.974121,4293.077148,4275.000000,4325.384766,4267.436035,4267.692383,4275.384766,4528.205078,4487.563965,4398.974121,4485.512695,6229.000000,4.000000,96.000000,,,,0.000000,4.000000,4.000000,4.000000,4.000000,4.000000,4.000000,4.000000,4.000000,4.000000,4.000000,4.000000,4.000000,4.000000,4.000000,100.000000,,,,,,,,,,,,,,,,,,,,,,,,,,,,
1703488691.213891,1703488691.214270,112.000000,0.000000,4277.179688,4286.410156,4323.333496,4349.743652,4296.153809,4274.230957,4327.436035,4263.846191,4266.282227,4271.794922,4529.358887,4487.948730,4389.743652,4480.897461,6706.000000,4.000000,96.000000,,,,0.000000,4.000000,4.000000,4.000000,4.000000,4.000000,4.000000,4.000000,4.000000,4.000000,4.000000,4.000000,4.000000,4.000000,4.000000,100.000000,,,,,,,,,,,,,,,,,28.000000,0.000000,0.711765,-0.086243,-0.679688,0.154846,0.938103,-0.339397,0.060554,-10.991893,-43.122635,61.809704
1703488691.221699,1703488691.222078,113.000000,0.000000,4268.589844,4270.384766,4326.282227,4329.615234,4267.307617,4275.897461,4318.717773,4260.128418,4250.897461,4255.128418,4530.641113,4480.384766,4393.333496,4476.282227,6893.000000,4.000000,96.000000,,,,0.000000,4.000000,4.000000,4.000000,4.000000,4.000000,4.000000,4.000000,4.000000,4.000000,4.000000,4.000000,4.000000,4.000000,4.000000,100.000000,,,,,,,,,,,,,,,,,,,,,,,,,,,,
1703488691.229507,1703488691.229786,114.000000,0.000000,4265.769043,4272.051270,4323.205078,4342.051270,4262.563965,4271.410156,4315.512695,4258.461426,4242.820313,4244.102539,4530.000000,4491.153809,4395.384766,4476.153809,5804.000000,4.000000,96.000000,,,,0.000000,4.000000,4.000000,4.000000,4.000000,4.000000,4.000000,4.000000,4.000000,4.000000,4.000000,4.000000,4.000000,4.000000,4.000000,100.000000,,,,,,,,,,,,,,,,,,,,,,,,,,,,
1703488691.237315,1703488691.237694,115.000000,0.000000,4275.128418,4284.358887,4322.692383,4366.666504,4280.000000,4258.846191,4320.384766,4259.743652,4248.205078,4244.743652,4533.205078,4501.922852,4393.974121,4483.333496,6229.000000,4.000000,96.000000,,,,0.000000,4.000000,4.000000,4.000000,4.000000,4.000000,4.000000,4.000000,4.000000,4.000000,4.000000,4.000000,4.000000,4.000000,4.000000,100.000000,,,,,,,,,,,,,,,,,,,,,,,,,,,,
1703488691.245123,1703488691.245502,116.000000,0.000000,4281.794922,4282.692383,4335.641113,4357.436035,4288.333496,4258.717773,4321.153809,4268.974121,4256.538574,4253.589844,4538.205078,4501.282227,4397.307617,4489.230957,6706.000000,4.000000,96.000000,,,,0.000000,4.000000,4.000000,4.000000,4.000000,4.000000,4.000000,4.000000,4.000000,4.000000,4.000000,4.000000,4.000000,4.000000,4.000000,100.000000,,,,,,,,,,,,,,,,,29.000000,0.000000,0.711720,-0.086243,-0.679749,0.154785,0.928824,-0.340374,0.059578,-10.992704,-43.093704,61.812065
1703488691.252931,1703488691.253410,117.000000,0.000000,4287.692383,4280.897461,4351.794922,4352.820313,4279.871582,4264.615234,4316.538574,4279.615234,4267.820313,4267.820313,4543.205078,4513.974121,4403.974121,4496.538574,6893.000000,4.000000,96.000000,,,,0.000000,4.000000,4.000000,4.000000,4.000000,4.000000,4.000000,4.000000,4.000000,4.000000,4.000000,4.000000,4.000000,4.000000,4.000000,100.000000,,,,,,,,,,,,,,,,,,,,,,,,,,,,
1703488691.260739,1703488691.261218,118.000000,0.000000,4292.820313,4282.179688,4350.769043,4366.538574,4264.615234,4257.436035,4313.333496,4279.230957,4276.538574,4270.384766,4542.179688,4526.666504,4406.794922,4506.025879,5804.000000,4.000000,96.000000,,,,0.000000,4.000000,4.000000,4.000000,4.000000,4.000000,4.000000,4.000000,4.000000,4.000000,4.000000,4.000000,4.000000,4.000000,4.000000,100.000000,,,,,,,,,,,,,,,,,,,,,,,,,,,,
