title:ملاح عطش, start timestamp:1703496130.707754, stop timestamp:1703496141.186156, headset type:EPOCX, headset serial:E50206EF, headset firmware:720, channels:67, sampling rate:eeg_128;mot_32, samples:1343      , version:2.2, 
Timestamp,OriginalTimestamp,EEG.Counter,EEG.Interpolated,EEG.AF3,EEG.F7,EEG.F3,EEG.FC5,EEG.T7,EEG.P7,EEG.O1,EEG.O2,EEG.P8,EEG.T8,EEG.FC6,EEG.F4,EEG.F8,EEG.AF4,EEG.RawCq,EEG.Battery,EEG.BatteryPercent,MarkerIndex,MarkerType,MarkerValueInt,EEG.MarkerHardware,CQ.AF3,CQ.F7,CQ.F3,CQ.FC5,CQ.T7,CQ.P7,CQ.O1,CQ.O2,CQ.P8,CQ.T8,CQ.FC6,CQ.F4,CQ.F8,CQ.AF4,CQ.Overall,EQ.SampleRateQuality,EQ.OVERALL,EQ.AF3,EQ.F7,EQ.F3,EQ.FC5,EQ.T7,EQ.P7,EQ.O1,EQ.O2,EQ.P8,EQ.T8,EQ.FC6,EQ.F4,EQ.F8,EQ.AF4,MOT.CounterMems,MOT.InterpolatedMems,MOT.Q0,MOT.Q1,MOT.Q2,MOT.Q3,MOT.AccX,MOT.AccY,MOT.AccZ,MOT.MagX,MOT.MagY,MOT.MagZ
1703496130.707754,1703496130.708818,46.000000,0.000000,4242.563965,4250.512695,4306.025879,4287.436035,4249.358887,4236.025879,4252.051270,4246.025879,4233.461426,4235.512695,4567.436035,4482.948730,4383.717773,4493.846191,0.000000,3.000000,74.000000,,,,0.000000,4.000000,4.000000,4.000000,4.000000,4.000000,4.000000,4.000000,4.000000,4.000000,4.000000,4.000000,4.000000,4.000000,4.000000,100.000000,,,,,,,,,,,,,,,,,,,,,,,,,,,,
1703496130.715562,1703496130.716526,47.000000,0.000000,4243.589844,4249.615234,4304.743652,4284.358887,4248.333496,4232.820313,4251.666504,4243.717773,4234.102539,4236.153809,4573.974121,4486.794922,4390.897461,4498.461426,0.000000,3.000000,74.000000,,,,0.000000,4.000000,4.000000,4.000000,4.000000,4.000000,4.000000,4.000000,4.000000,4.000000,4.000000,4.000000,4.000000,4.000000,4.000000,100.000000,,,,,,,,,,,,,,,,,,,,,,,,,,,,
1703496130.723370,1703496130.724334,48.000000,0.000000,4231.410156,4245.000000,4302.307617,4279.230957,4245.512695,4237.307617,4247.307617,4234.230957,4234.743652,4233.846191,4564.615234,4480.512695,4381.410156,4492.179688,0.000000,3.000000,74.000000,,,,0.000000,4.000000,4.000000,4.000000,4.000000,4.000000,4.000000,4.000000,4.000000,4.000000,4.000000,4.000000,4.000000,4.000000,4.000000,100.000000,,,,,,,,,,,,,,,,,12.000000,0.000000,0.693013,0.266174,-0.632080,0.222168,0.992309,0.085460,0.055671,-19.223145,-37.630959,66.483032
1703496130.731178,1703496130.732042,49.000000,0.000000,4232.179688,4249.615234,4301.538574,4281.282227,4248.974121,4241.153809,4250.769043,4232.692383,4233.974121,4233.461426,4555.897461,4474.230957,4377.307617,4485.128418,0.000000,3.000000,74.000000,,,,0.000000,4.000000,4.000000,4.000000,4.000000,4.000000,4.000000,4.000000,4.000000,4.000000,4.000000,4.000000,4.000000,4.000000,4.000000,100.000000,,,,,,,,,,,,,,,,,,,,,,,,,,,,
1703496130.738987,1703496130.739950,50.000000,0.000000,4248.974121,4260.128418,4303.717773,4292.948730,4249.615234,4238.205078,4254.102539,4242.948730,4232.179688,4240.128418,4565.769043,4476.794922,4388.461426,4497.692383,0.000000,3.000000,74.000000,,,,0.000000,4.000000,4.000000,4.000000,4.000000,4.000000,4.000000,4.000000,4.000000,4.000000,4.000000,4.000000,4.000000,4.000000,4.000000,100.000000,,,,,,,,,,,,,,,,,,,,,,,,,,,,
1703496130.746795,1703496130.747758,51.000000,0.000000,4251.410156,4258.461426,4306.410156,4295.641113,4250.128418,4237.948730,4251.282227,4249.615234,4230.256348,4240.769043,4573.974121,4485.128418,4393.205078,4509.230957,0.000000,3.000000,74.000000,,,,0.000000,4.000000,4.000000,4.000000,4.000000,4.000000,4.000000,4.000000,4.000000,4.000000,4.000000,4.000000,4.000000,4.000000,4.000000,100.000000,,,,,,,,,,,,,,,,,,,,,,,,,,,,
1703496130.754603,1703496130.755566,52.000000,0.000000,4239.102539,4248.205078,4309.487305,4287.692383,4250.897461,4240.512695,4251.025879,4250.641113,4231.538574,4228.717773,4565.769043,4486.666504,4380.256348,4496.025879,0.000000,3.000000,74.000000,,,,0.000000,4.000000,4.000000,4.000000,4.000000,4.000000,4.000000,4.000000,4.000000,4.000000,4.000000,4.000000,4.000000,4.000000,4.000000,100.000000,,,,,,,,,,,,,,,,,13.000000,0.000000,0.693144,0.266174,-0.631958,0.222107,0.988890,0.100110,0.064949,-19.100830,-37.701195,66.434731
1703496130.762411,1703496130.763375,53.000000,0.000000,4227.948730,4239.358887,4304.102539,4277.820313,4241.410156,4237.436035,4250.256348,4249.487305,4233.589844,4214.615234,4548.589844,4473.205078,4361.538574,4471.666504,0.000000,3.000000,74.000000,,,,0.000000,4.000000,4.000000,4.000000,4.000000,4.000000,4.000000,4.000000,4.000000,4.000000,4.000000,4.000000,4.000000,4.000000,4.000000,100.000000,,,,,,,,,,,,,,,,,,,,,,,,,,,,
1703496130.770219,1703496130.771183,54.000000,0.000000,4218.717773,4226.410156,4294.487305,4267.179688,4228.205078,4233.077148,4246.153809,4249.102539,4233.205078,4212.179688,4540.000000,4465.512695,4357.563965,4462.563965,0.000000,3.000000,74.000000,,,,0.000000,4.000000,4.000000,4.000000,4.000000,4.000000,4.000000,4.000000,4.000000,4.000000,4.000000,4.000000,4.000000,4.000000,4.000000,100.000000,,,,,,,,,,,,,,,,,,,,,,,,,,,,
1703496130.778027,1703496130.778891,55.000000,0.000000,4213.461426,4223.333496,4295.000000,4265.000000,4226.666504,4232.948730,4246.025879,4245.641113,4233.846191,4222.820313,4544.230957,4469.230957,4362.563965,4466.410156,0.000000,3.000000,74.000000,,,,0.000000,4.000000,4.000000,4.000000,4.000000,4.000000,4.000000,4.000000,4.000000,4.000000,4.000000,4.000000,4.000000,4.000000,4.000000,100.000000,,,,,,,,,,,,,,,,,,,,,,,,,,,,
1703496130.785835,1703496130.786699,56.000000,0.000000,4218.974121,4236.922852,4299.102539,4275.769043,4238.077148,4234.615234,4249.487305,4237.820313,4236.153809,4224.487305,4550.384766,4468.589844,4362.051270,4471.922852,0.000000,3.000000,74.000000,,,,0.000000,4.000000,4.000000,4.000000,4.000000,4.000000,4.000000,4.000000,4.000000,4.000000,4.000000,4.000000,4.000000,4.000000,4.000000,100.000000,,,,,,,,,,,,,,,,,14.000000,0.000000,0.693310,0.266235,-0.631836,0.221863,0.984984,0.086925,0.062019,-19.024080,-37.564411,66.524590
1703496130.793643,1703496130.794407,57.000000,0.000000,4227.051270,4239.102539,4298.205078,4280.000000,4242.948730,4234.230957,4248.589844,4234.230957,4236.282227,4225.256348,4552.179688,4470.000000,4366.666504,4476.410156,0.000000,3.000000,74.000000,,,,0.000000,4.000000,4.000000,4.000000,4.000000,4.000000,4.000000,4.000000,4.000000,4.000000,4.000000,4.000000,4.000000,4.000000,4.000000,100.000000,,,,,,,,,,,,,,,,,,,,,,,,,,,,
1703496130.801451,1703496130.802215,58.000000,0.000000,4228.077148,4231.794922,4298.077148,4274.358887,4238.589844,4231.538574,4246.794922,4236.538574,4234.102539,4233.077148,4553.589844,4474.358887,4375.384766,4476.410156,0.000000,3.000000,74.000000,,,,0.000000,4.000000,4.000000,4.000000,4.000000,4.000000,4.000000,4.000000,4.000000,4.000000,4.000000,4.000000,4.000000,4.000000,4.000000,100.000000,,,,,,,,,,,,,,,,,,,,,,,,,,,,
1703496130.809259,1703496130.809923,59.000000,0.000000,4230.512695,4241.025879,4302.051270,4277.948730,4240.384766,4232.948730,4250.256348,4228.461426,4232.051270,4219.102539,4548.461426,4468.974121,4369.615234,4476.025879,0.000000,3.000000,74.000000,,,,0.000000,4.000000,4.000000,4.000000,4.000000,4.000000,4.000000,4.000000,4.000000,4.000000,4.000000,4.000000,4.000000,4.000000,4.000000,100.000000,,,,,,,,,,,,,,,,,,,,,,,,,,,,
1703496130.817067,1703496130.817831,60.000000,0.000000,4233.846191,4251.794922,4303.461426,4283.846191,4247.307617,4239.743652,4252.051270,4218.205078,4230.769043,4205.512695,4540.897461,4460.897461,4365.384766,4475.256348,0.000000,3.000000,74.000000,,,,0.000000,4.000000,4.000000,4.000000,4.000000,4.000000,4.000000,4.000000,4.000000,4.000000,4.000000,4.000000,4.000000,4.000000,4.000000,100.000000,,,,,,,,,,,,,,,,,15.000000,0.000000,0.693476,0.266296,-0.631714,0.221619,0.994262,0.084971,0.067879,-18.988338,-37.691303,66.572136
1703496130.824875,1703496130.825639,61.000000,0.000000,4232.692383,4248.077148,4297.820313,4281.922852,4247.820313,4248.846191,4251.153809,4223.333496,4232.179688,4223.974121,4542.436035,4461.410156,4374.871582,4473.589844,0.000000,3.000000,74.000000,,,,0.000000,4.000000,4.000000,4.000000,4.000000,4.000000,4.000000,4.000000,4.000000,4.000000,4.000000,4.000000,4.000000,4.000000,4.000000,100.000000,,,,,,,,,,,,,,,,,,,,,,,,,,,,
1703496130.832683,1703496130.833547,62.000000,0.000000,4230.769043,4246.666504,4297.051270,4280.897461,4246.025879,4249.230957,4253.333496,4233.333496,4239.487305,4232.948730,4545.256348,4465.128418,4378.589844,4475.000000,0.000000,3.000000,74.000000,,,,0.000000,4.000000,4.000000,4.000000,4.000000,4.000000,4.000000,4.000000,4.000000,4.000000,4.000000,4.000000,4.000000,4.000000,4.000000,100.000000,,,,,,,,,,,,,,,,,,,,,,,,,,,,
1703496130.840491,1703496130.841355,63.000000,0.000000,4230.897461,4245.128418,4298.717773,4280.000000,4252.051270,4248.589844,4253.717773,4238.717773,4248.846191,4221.282227,4546.025879,4466.282227,4378.205078,4478.077148,0.000000,3.000000,74.000000,,,,0.000000,4.000000,4.000000,4.000000,4.000000,4.000000,4.000000,4.000000,4.000000,4.000000,4.000000,4.000000,4.000000,4.000000,4.000000,100.000000,,,,,,,,,,,,,,,,,,,,,,,,,,,,
1703496130.848299,1703496130.849263,64.000000,0.000000,4228.333496,4236.410156,4291.282227,4277.692383,4248.461426,4248.333496,4249.871582,4246.794922,4247.436035,4222.563965,4548.717773,4466.922852,4378.077148,4476.025879,4779.000000,3.000000,74.000000,,,,0.000000,4.000000,4.000000,4.000000,4.000000,4.000000,4.000000,4.000000,4.000000,4.000000,4.000000,4.000000,4.000000,4.000000,4.000000,100.000000,,,,,,,,,,,,,,,,,16.000000,0.000000,0.693588,0.266541,-0.631531,0.221497,0.981077,0.094738,0.052741,-18.989506,-37.588840,66.548256
1703496130.856107,1703496130.857070,65.000000,0.000000,4226.922852,4234.358887,4289.230957,4277.436035,4236.922852,4238.717773,4247.820313,4247.436035,4237.051270,4214.871582,4542.692383,4469.615234,4372.820313,4472.179688,5629.000000,3.000000,74.000000,,,,0.000000,4.000000,4.000000,4.000000,4.000000,4.000000,4.000000,4.000000,4.000000,4.000000,4.000000,4.000000,4.000000,4.000000,4.000000,100.000000,,,,,,,,,,,,,,,,,,,,,,,,,,,,
1703496130.863915,1703496130.864978,66.000000,0.000000,4228.717773,4234.358887,4299.102539,4278.333496,4234.871582,4231.282227,4248.846191,4238.333496,4232.051270,4195.512695,4537.563965,4473.846191,4372.563965,4477.692383,5412.000000,3.000000,74.000000,,,,0.000000,4.000000,4.000000,4.000000,4.000000,4.000000,4.000000,4.000000,4.000000,4.000000,4.000000,4.000000,4.000000,4.000000,4.000000,100.000000,,,,,,,,,,,,,,,,,,,,,,,,,,,,
1703496130.871723,1703496130.872786,67.000000,0.000000,4229.230957,4231.025879,4307.436035,4280.512695,4236.153809,4232.436035,4248.974121,4234.102539,4229.358887,4204.358887,4541.538574,4475.897461,4371.538574,4474.615234,5422.000000,3.000000,74.000000,,,,0.000000,4.000000,4.000000,4.000000,4.000000,4.000000,4.000000,4.000000,4.000000,4.000000,4.000000,4.000000,4.000000,4.000000,4.000000,100.000000,,,,,,,,,,,,,,,,,,,,,,,,,,,,
1703496130.879532,1703496130.880594,68.000000,0.000000,4232.179688,4239.615234,4305.256348,4284.487305,4233.974121,4230.384766,4245.000000,4229.487305,4232.436035,4218.846191,4539.871582,4470.897461,4364.358887,4461.282227,5349.000000,3.000000,74.000000,,,,0.000000,4.000000,4.000000,4.000000,4.000000,4.000000,4.000000,4.000000,4.000000,4.000000,4.000000,4.000000,4.000000,4.000000,4.000000,100.000000,,,,,,,,,,,,,,,,,17.000000,0.000000,0.693620,0.266602,-0.631470,0.221497,0.993285,0.110853,0.062508,-18.873888,-37.629955,66.593430
1703496130.887339,1703496130.888402,69.000000,0.000000,4236.410156,4246.025879,4303.589844,4283.974121,4232.307617,4227.948730,4241.666504,4223.717773,4241.794922,4211.282227,4536.153809,4463.974121,4368.589844,4463.717773,4953.000000,3.000000,74.000000,,,,0.000000,4.000000,4.000000,4.000000,4.000000,4.000000,4.000000,4.000000,4.000000,4.000000,4.000000,4.000000,4.000000,4.000000,4.000000,100.000000,,,,,,,,,,,,,,,,,,,,,,,,,,,,
1703496130.895147,1703496130.896110,70.000000,0.000000,4235.128418,4237.436035,4307.948730,4279.487305,4236.025879,4230.897461,4243.077148,4223.589844,4238.846191,4203.846191,4541.153809,4468.205078,4375.000000,4475.256348,2742.000000,3.000000,74.000000,,,,0.000000,4.000000,4.000000,4.000000,4.000000,4.000000,4.000000,4.000000,4.000000,4.000000,4.000000,4.000000,4.000000,4.000000,4.000000,100.000000,,,,,,,,,,,,,,,,,,,,,,,,,,,,
1703496130.902956,1703496130.903918,71.000000,0.000000,4234.358887,4238.205078,4307.563965,4281.025879,4244.230957,4232.307617,4245.256348,4222.307617,4232.820313,4211.666504,4547.307617,4478.846191,4376.922852,4478.589844,4109.000000,3.000000,74.000000,,,,0.000000,4.000000,4.000000,4.000000,4.000000,4.000000,4.000000,4.000000,4.000000,4.000000,4.000000,4.000000,4.000000,4.000000,4.000000,100.000000,,,,,,,,,,,,,,,,,,,,,,,,,,,,
1703496130.910764,1703496130.911626,72.000000,0.000000,4237.307617,4245.128418,4304.230957,4283.717773,4250.256348,4234.743652,4247.563965,4217.307617,4242.307617,4224.358887,4542.563965,4476.794922,4376.538574,4473.589844,4210.000000,3.000000,74.000000,,,,0.000000,4.000000,4.000000,4.000000,4.000000,4.000000,4.000000,4.000000,4.000000,4.000000,4.000000,4.000000,4.000000,4.000000,4.000000,100.000000,,,,,,,,,,,,,,,,,18.000000,0.000000,0.693527,0.266541,-0.631470,0.221863,0.981077,0.105970,0.057136,-19.036499,-37.716961,66.584084
1703496130.918572,1703496130.919434,73.000000,0.000000,4229.487305,4233.589844,4298.717773,4280.512695,4247.307617,4242.563965,4246.922852,4218.077148,4251.922852,4219.358887,4526.666504,4459.871582,4364.615234,4463.846191,5601.000000,3.000000,74.000000,,,,0.000000,4.000000,4.000000,4.000000,4.000000,4.000000,4.000000,4.000000,4.000000,4.000000,4.000000,4.000000,4.000000,4.000000,4.000000,100.000000,,,,,,,,,,,,,,,,,,,,,,,,,,,,
1703496130.926380,1703496130.927142,74.000000,0.000000,4214.358887,4219.615234,4287.436035,4272.948730,4238.846191,4244.358887,4242.820313,4226.666504,4245.897461,4204.871582,4518.077148,4449.615234,4355.128418,4454.487305,5940.000000,3.000000,74.000000,,,,0.000000,4.000000,4.000000,4.000000,4.000000,4.000000,4.000000,4.000000,4.000000,4.000000,4.000000,4.000000,4.000000,4.000000,4.000000,100.000000,,,,,,,,,,,,,,,,,,,,,,,,,,,,
1703496130.934188,1703496130.935051,75.000000,0.000000,4213.846191,4219.358887,4286.025879,4265.384766,4235.641113,4239.230957,4243.077148,4231.282227,4242.307617,4207.436035,4525.769043,4458.077148,4362.436035,4455.128418,6187.000000,3.000000,74.000000,,,,0.000000,4.000000,4.000000,4.000000,4.000000,4.000000,4.000000,4.000000,4.000000,4.000000,4.000000,4.000000,4.000000,4.000000,4.000000,100.000000,,,,,,,,,,,,,,,,,,,,,,,,,,,,
1703496130.941996,1703496130.942859,76.000000,0.000000,4218.717773,4219.358887,4295.512695,4266.922852,4233.974121,4236.410156,4241.410156,4233.846191,4248.846191,4222.820313,4537.179688,4466.025879,4373.974121,4462.307617,6680.000000,3.000000,74.000000,,,,0.000000,4.000000,4.000000,4.000000,4.000000,4.000000,4.000000,4.000000,4.000000,4.000000,4.000000,4.000000,4.000000,4.000000,4.000000,100.000000,,,,,,,,,,,,,,,,,19.000000,0.000000,0.693495,0.266418,-0.631470,0.222107,0.989379,0.094250,0.054206,-18.816183,-37.645264,66.609009
1703496130.949804,1703496130.950667,77.000000,0.000000,4216.794922,4216.794922,4302.948730,4277.051270,4230.769043,4235.384766,4234.230957,4235.769043,4245.000000,4218.717773,4538.589844,4466.666504,4373.461426,4461.410156,6469.000000,3.000000,74.000000,,,,0.000000,4.000000,4.000000,4.000000,4.000000,4.000000,4.000000,4.000000,4.000000,4.000000,4.000000,4.000000,4.000000,4.000000,4.000000,100.000000,,,,,,,,,,,,,,,,,,,,,,,,,,,,
1703496130.957612,1703496130.958375,78.000000,0.000000,4221.794922,4221.666504,4307.436035,4280.256348,4230.769043,4227.563965,4231.153809,4234.102539,4234.615234,4201.025879,4535.000000,4470.256348,4368.077148,4457.692383,5940.000000,3.000000,74.000000,,,,0.000000,4.000000,4.000000,4.000000,4.000000,4.000000,4.000000,4.000000,4.000000,4.000000,4.000000,4.000000,4.000000,4.000000,4.000000,100.000000,,,,,,,,,,,,,,,,,,,,,,,,,,,,
1703496130.965420,1703496130.966283,79.000000,0.000000,4233.589844,4231.922852,4310.128418,4282.563965,4234.743652,4224.102539,4233.846191,4236.666504,4235.769043,4206.538574,4541.410156,4478.846191,4373.589844,4466.410156,6187.000000,3.000000,74.000000,,,,0.000000,4.000000,4.000000,4.000000,4.000000,4.000000,4.000000,4.000000,4.000000,4.000000,4.000000,4.000000,4.000000,4.000000,4.000000,100.000000,,,,,,,,,,,,,,,,,,,,,,,,,,,,
1703496130.973228,1703496130.974091,80.000000,0.000000,4236.153809,4238.846191,4313.461426,4293.461426,4237.307617,4229.102539,4235.000000,4247.692383,4239.615234,4222.051270,4554.230957,4492.563965,4386.153809,4481.282227,6680.000000,3.000000,74.000000,,,,0.000000,4.000000,4.000000,4.000000,4.000000,4.000000,4.000000,4.000000,4.000000,4.000000,4.000000,4.000000,4.000000,4.000000,4.000000,100.000000,,,,,,,,,,,,,,,,,20.000000,0.000000,0.693523,0.266296,-0.631470,0.222168,0.992309,0.092785,0.062019,-18.684565,-37.680737,66.681442
1703496130.981036,1703496130.981899,81.000000,0.000000,4233.461426,4235.897461,4316.794922,4296.666504,4235.384766,4225.000000,4227.051270,4250.384766,4233.461426,4219.743652,4558.333496,4497.179688,4388.077148,4483.333496,6469.000000,3.000000,74.000000,,,,0.000000,4.000000,4.000000,4.000000,4.000000,4.000000,4.000000,4.000000,4.000000,4.000000,4.000000,4.000000,4.000000,4.000000,4.000000,100.000000,,,,,,,,,,,,,,,,,,,,,,,,,,,,
1703496130.988844,1703496130.989607,82.000000,0.000000,4237.179688,4233.974121,4315.641113,4292.692383,4234.102539,4212.820313,4221.410156,4238.589844,4228.717773,4207.948730,4551.153809,4487.948730,4381.922852,4480.128418,5940.000000,3.000000,74.000000,,,,0.000000,4.000000,4.000000,4.000000,4.000000,4.000000,4.000000,4.000000,4.000000,4.000000,4.000000,4.000000,4.000000,4.000000,4.000000,100.000000,,,,,,,,,,,,,,,,,,,,,,,,,,,,
1703496130.996652,1703496130.997415,83.000000,0.000000,4239.615234,4236.794922,4315.256348,4293.974121,4233.974121,4214.743652,4224.358887,4233.205078,4230.128418,4202.179688,4543.717773,4482.179688,4377.563965,4482.307617,6187.000000,3.000000,74.000000,,,,0.000000,4.000000,4.000000,4.000000,4.000000,4.000000,4.000000,4.000000,4.000000,4.000000,4.000000,4.000000,4.000000,4.000000,4.000000,100.000000,,,,,,,,,,,,,,,,,,,,,,,,,,,,
1703496131.004460,1703496131.005123,84.000000,0.000000,4227.563965,4228.717773,4307.436035,4290.256348,4234.102539,4226.410156,4227.179688,4233.974121,4227.436035,4203.717773,4536.153809,4476.410156,4367.179688,4473.205078,6680.000000,3.000000,74.000000,,,,0.000000,4.000000,4.000000,4.000000,4.000000,4.000000,4.000000,4.000000,4.000000,4.000000,4.000000,4.000000,4.000000,4.000000,4.000000,100.000000,,,,,,,,,,,,,,,,,21.000000,0.000000,0.693518,0.266113,-0.631531,0.222229,0.977658,0.087413,0.075693,-18.799442,-37.612663,66.563301
1703496131.012268,1703496131.012931,85.000000,0.000000,4214.358887,4215.128418,4292.948730,4277.179688,4234.743652,4233.461426,4228.461426,4232.179688,4226.794922,4199.743652,4520.897461,4461.794922,4353.717773,4454.615234,6469.000000,3.000000,74.000000,,,,0.000000,4.000000,4.000000,4.000000,4.000000,4.000000,4.000000,4.000000,4.000000,4.000000,4.000000,4.000000,4.000000,4.000000,4.000000,100.000000,,,,,,,,,,,,,,,,,,,,,,,,,,,,
1703496131.020076,1703496131.020639,86.000000,0.000000,4208.974121,4213.333496,4286.538574,4266.666504,4233.846191,4243.077148,4229.615234,4235.897461,4231.410156,4186.538574,4505.512695,4450.256348,4343.333496,4443.205078,5940.000000,3.000000,74.000000,,,,0.000000,4.000000,4.000000,4.000000,4.000000,4.000000,4.000000,4.000000,4.000000,4.000000,4.000000,4.000000,4.000000,4.000000,4.000000,100.000000,,,,,,,,,,,,,,,,,,,,,,,,,,,,
1703496131.027884,1703496131.028547,87.000000,0.000000,4202.820313,4211.410156,4285.769043,4262.179688,4232.692383,4246.410156,4229.102539,4246.153809,4232.307617,4178.333496,4503.717773,4449.102539,4337.307617,4438.205078,6187.000000,3.000000,74.000000,,,,0.000000,4.000000,4.000000,4.000000,4.000000,4.000000,4.000000,4.000000,4.000000,4.000000,4.000000,4.000000,4.000000,4.000000,4.000000,100.000000,,,,,,,,,,,,,,,,,,,,,,,,,,,,
1703496131.035692,1703496131.036355,88.000000,0.000000,4200.641113,4203.589844,4285.000000,4267.563965,4235.128418,4238.461426,4230.256348,4250.641113,4233.461426,4188.846191,4512.692383,4454.230957,4345.769043,4440.128418,6680.000000,3.000000,74.000000,,,,0.000000,4.000000,4.000000,4.000000,4.000000,4.000000,4.000000,4.000000,4.000000,4.000000,4.000000,4.000000,4.000000,4.000000,4.000000,100.000000,,,,,,,,,,,,,,,,,22.000000,0.000000,0.693513,0.265930,-0.631592,0.222290,0.992309,0.090831,0.068856,-18.636164,-37.718063,66.423637
1703496131.043500,1703496131.044263,89.000000,0.000000,4208.974121,4196.410156,4284.230957,4274.871582,4232.692383,4231.410156,4234.358887,4248.077148,4229.871582,4203.846191,4518.461426,4457.692383,4359.743652,4446.794922,6469.000000,3.000000,74.000000,,,,0.000000,4.000000,4.000000,4.000000,4.000000,4.000000,4.000000,4.000000,4.000000,4.000000,4.000000,4.000000,4.000000,4.000000,4.000000,100.000000,,,,,,,,,,,,,,,,,,,,,,,,,,,,
1703496131.051309,1703496131.052071,90.000000,0.000000,4213.461426,4187.820313,4284.743652,4269.230957,4221.025879,4225.000000,4229.615234,4254.615234,4221.922852,4211.410156,4527.820313,4465.000000,4365.000000,4456.410156,5940.000000,3.000000,74.000000,,,,0.000000,4.000000,4.000000,4.000000,4.000000,4.000000,4.000000,4.000000,4.000000,4.000000,4.000000,4.000000,4.000000,4.000000,4.000000,100.000000,,,,,,,,,,,,,,,,,,,,,,,,,,,,
1703496131.059116,1703496131.059979,91.000000,0.000000,4211.282227,4184.230957,4292.436035,4268.974121,4220.000000,4213.974121,4219.358887,4264.487305,4222.948730,4215.769043,4543.846191,4478.974121,4370.641113,4467.051270,6187.000000,3.000000,74.000000,,,,0.000000,4.000000,4.000000,4.000000,4.000000,4.000000,4.000000,4.000000,4.000000,4.000000,4.000000,4.000000,4.000000,4.000000,4.000000,100.000000,,,,,,,,,,,,,,,,,,,,,,,,,,,,
1703496131.066924,1703496131.067787,92.000000,0.000000,4222.563965,4199.487305,4303.333496,4285.769043,4230.769043,4203.846191,4217.820313,4256.282227,4225.384766,4216.282227,4549.487305,4484.102539,4379.743652,4472.563965,6680.000000,3.000000,74.000000,,,,0.000000,4.000000,4.000000,4.000000,4.000000,4.000000,4.000000,4.000000,4.000000,4.000000,4.000000,4.000000,4.000000,4.000000,4.000000,100.000000,,,,,,,,,,,,,,,,,23.000000,0.000000,0.693442,0.265869,-0.631653,0.222412,0.989379,0.075693,0.064949,-18.639214,-37.662926,66.397934
1703496131.074733,1703496131.075694,93.000000,0.000000,4242.820313,4214.487305,4311.922852,4298.974121,4232.179688,4204.615234,4220.384766,4237.563965,4218.717773,4216.666504,4547.948730,4482.948730,4383.589844,4480.512695,6469.000000,3.000000,74.000000,,,,0.000000,4.000000,4.000000,4.000000,4.000000,4.000000,4.000000,4.000000,4.000000,4.000000,4.000000,4.000000,4.000000,4.000000,4.000000,100.000000,,,,,,,,,,,,,,,,,,,,,,,,,,,,
1703496131.082541,1703496131.083602,94.000000,0.000000,4252.948730,4218.077148,4316.153809,4305.000000,4233.333496,4211.538574,4220.769043,4228.205078,4215.128418,4219.230957,4554.102539,4484.487305,4387.436035,4491.025879,5940.000000,3.000000,74.000000,,,,0.000000,4.000000,4.000000,4.000000,4.000000,4.000000,4.000000,4.000000,4.000000,4.000000,4.000000,4.000000,4.000000,4.000000,4.000000,100.000000,,,,,,,,,,,,,,,,,,,,,,,,,,,,
1703496131.090349,1703496131.091411,95.000000,0.000000,4253.717773,4227.051270,4316.794922,4314.102539,4245.897461,4215.512695,4222.179688,4227.692383,4218.333496,4217.436035,4557.563965,4485.000000,4388.717773,4488.974121,6187.000000,3.000000,74.000000,,,,0.000000,4.000000,4.000000,4.000000,4.000000,4.000000,4.000000,4.000000,4.000000,4.000000,4.000000,4.000000,4.000000,4.000000,4.000000,100.000000,,,,,,,,,,,,,,,,,,,,,,,,,,,,
1703496131.098157,1703496131.099219,96.000000,0.000000,4251.025879,4230.512695,4314.871582,4313.717773,4249.487305,4215.897461,4224.615234,4231.025879,4222.692383,4217.051270,4546.538574,4483.717773,4379.615234,4477.692383,6680.000000,3.000000,74.000000,,,,0.000000,4.000000,4.000000,4.000000,4.000000,4.000000,4.000000,4.000000,4.000000,4.000000,4.000000,4.000000,4.000000,4.000000,4.000000,100.000000,,,,,,,,,,,,,,,,,24.000000,0.000000,0.693363,0.265930,-0.631714,0.222412,0.990844,0.088878,0.056159,-18.675293,-37.763298,66.558144
1703496131.105965,1703496131.107027,97.000000,0.000000,4246.794922,4221.538574,4311.410156,4302.692383,4237.307617,4212.307617,4221.666504,4236.282227,4230.512695,4220.256348,4539.230957,4478.077148,4373.717773,4473.846191,6469.000000,3.000000,74.000000,,,,0.000000,4.000000,4.000000,4.000000,4.000000,4.000000,4.000000,4.000000,4.000000,4.000000,4.000000,4.000000,4.000000,4.000000,4.000000,100.000000,,,,,,,,,,,,,,,,,,,,,,,,,,,,
1703496131.113773,1703496131.114835,98.000000,0.000000,4235.256348,4210.641113,4302.820313,4295.256348,4225.641113,4205.128418,4216.922852,4235.256348,4230.384766,4212.692383,4528.333496,4462.436035,4362.820313,4461.282227,5940.000000,3.000000,74.000000,,,,0.000000,4.000000,4.000000,4.000000,4.000000,4.000000,4.000000,4.000000,4.000000,4.000000,4.000000,4.000000,4.000000,4.000000,4.000000,100.000000,,,,,,,,,,,,,,,,,,,,,,,,,,,,
1703496131.121581,1703496131.122543,99.000000,0.000000,4220.384766,4203.205078,4289.871582,4287.563965,4227.051270,4205.769043,4217.307617,4231.666504,4223.974121,4196.025879,4506.153809,4445.769043,4341.410156,4439.487305,6187.000000,3.000000,74.000000,,,,0.000000,4.000000,4.000000,4.000000,4.000000,4.000000,4.000000,4.000000,4.000000,4.000000,4.000000,4.000000,4.000000,4.000000,4.000000,100.000000,,,,,,,,,,,,,,,,,,,,,,,,,,,,
1703496131.129389,1703496131.130351,100.000000,0.000000,4215.641113,4195.256348,4286.410156,4280.641113,4229.615234,4218.205078,4222.948730,4232.820313,4229.358887,4193.974121,4500.769043,4446.538574,4336.153809,4437.820313,6680.000000,3.000000,74.000000,,,,0.000000,4.000000,4.000000,4.000000,4.000000,4.000000,4.000000,4.000000,4.000000,4.000000,4.000000,4.000000,4.000000,4.000000,4.000000,100.000000,,,,,,,,,,,,,,,,,25.000000,0.000000,0.693303,0.265991,-0.631775,0.222351,0.985960,0.083995,0.060554,-18.591097,-37.920303,66.602333
1703496131.137197,1703496131.138059,101.000000,0.000000,4211.794922,4186.922852,4286.666504,4274.102539,4222.051270,4221.922852,4223.974121,4234.871582,4233.205078,4203.589844,4510.000000,4452.563965,4342.307617,4439.230957,6469.000000,3.000000,74.000000,,,,0.000000,4.000000,4.000000,4.000000,4.000000,4.000000,4.000000,4.000000,4.000000,4.000000,4.000000,4.000000,4.000000,4.000000,4.000000,100.000000,,,,,,,,,,,,,,,,,,,,,,,,,,,,
1703496131.145005,1703496131.145967,102.000000,0.000000,4200.000000,4180.384766,4276.025879,4265.128418,4220.128418,4219.230957,4218.333496,4233.717773,4229.615234,4201.666504,4508.461426,4447.692383,4342.436035,4433.589844,5940.000000,3.000000,74.000000,,,,0.000000,4.000000,4.000000,4.000000,4.000000,4.000000,4.000000,4.000000,4.000000,4.000000,4.000000,4.000000,4.000000,4.000000,4.000000,100.000000,,,,,,,,,,,,,,,,,,,,,,,,,,,,
1703496131.152813,1703496131.153775,103.000000,0.000000,4197.948730,4180.897461,4273.717773,4267.179688,4227.051270,4223.589844,4219.743652,4232.820313,4231.153809,4194.615234,4507.563965,4446.153809,4342.563965,4436.153809,6187.000000,3.000000,74.000000,,,,0.000000,4.000000,4.000000,4.000000,4.000000,4.000000,4.000000,4.000000,4.000000,4.000000,4.000000,4.000000,4.000000,4.000000,4.000000,100.000000,,,,,,,,,,,,,,,,,,,,,,,,,,,,
1703496131.160621,1703496131.161583,104.000000,0.000000,4218.846191,4193.974121,4292.948730,4285.897461,4232.307617,4225.641113,4224.230957,4234.230957,4232.692383,4205.256348,4527.307617,4459.358887,4354.743652,4451.153809,6680.000000,3.000000,74.000000,,,,0.000000,4.000000,4.000000,4.000000,4.000000,4.000000,4.000000,4.000000,4.000000,4.000000,4.000000,4.000000,4.000000,4.000000,4.000000,100.000000,,,,,,,,,,,,,,,,,26.000000,0.000000,0.693265,0.266235,-0.631714,0.222351,0.995239,0.095226,0.053229,-18.665321,-37.744938,66.625427
1703496131.168429,1703496131.169291,105.000000,0.000000,4235.128418,4205.000000,4303.974121,4296.922852,4233.846191,4218.461426,4219.487305,4237.051270,4230.256348,4221.025879,4544.871582,4473.461426,4372.820313,4468.589844,6469.000000,3.000000,74.000000,,,,0.000000,4.000000,4.000000,4.000000,4.000000,4.000000,4.000000,4.000000,4.000000,4.000000,4.000000,4.000000,4.000000,4.000000,4.000000,100.000000,,,,,,,,,,,,,,,,,,,,,,,,,,,,
1703496131.176237,1703496131.177099,106.000000,0.000000,4235.512695,4208.846191,4304.102539,4294.487305,4236.025879,4212.948730,4217.820313,4232.692383,4230.512695,4221.282227,4543.846191,4480.769043,4383.461426,4477.179688,5940.000000,3.000000,74.000000,,,,0.000000,4.000000,4.000000,4.000000,4.000000,4.000000,4.000000,4.000000,4.000000,4.000000,4.000000,4.000000,4.000000,4.000000,4.000000,100.000000,1.000000,100.000000,4.000000,4.000000,4.000000,4.000000,4.000000,4.000000,4.000000,4.000000,4.000000,4.000000,4.000000,4.000000,4.000000,4.000000,,,,,,,,,,,,
1703496131.184045,1703496131.184807,107.000000,0.000000,4243.974121,4215.641113,4311.666504,4304.743652,4241.538574,4214.102539,4220.769043,4219.871582,4227.179688,4225.256348,4544.871582,4485.512695,4385.256348,4480.000000,6187.000000,3.000000,74.000000,,,,0.000000,4.000000,4.000000,4.000000,4.000000,4.000000,4.000000,4.000000,4.000000,4.000000,4.000000,4.000000,4.000000,4.000000,4.000000,100.000000,,,,,,,,,,,,,,,,,,,,,,,,,,,,
1703496131.191853,1703496131.192615,108.000000,0.000000,4253.333496,4223.333496,4315.512695,4316.282227,4245.128418,4216.538574,4218.974121,4216.666504,4220.897461,4233.717773,4546.153809,4486.922852,4378.846191,4480.128418,6680.000000,3.000000,74.000000,,,,0.000000,4.000000,4.000000,4.000000,4.000000,4.000000,4.000000,4.000000,4.000000,4.000000,4.000000,4.000000,4.000000,4.000000,4.000000,100.000000,,,,,,,,,,,,,,,,,27.000000,0.000000,0.693209,0.266235,-0.631775,0.222351,0.996704,0.082530,0.057136,-18.648788,-37.670444,66.646217
1703496131.199661,1703496131.200323,109.000000,0.000000,4244.102539,4216.538574,4306.410156,4305.512695,4239.230957,4215.000000,4216.410156,4224.102539,4218.589844,4218.589844,4532.692383,4479.102539,4367.692383,4473.717773,6469.000000,3.000000,74.000000,,,,0.000000,4.000000,4.000000,4.000000,4.000000,4.000000,4.000000,4.000000,4.000000,4.000000,4.000000,4.000000,4.000000,4.000000,4.000000,100.000000,,,,,,,,,,,,,,,,,,,,,,,,,,,,
1703496131.207469,1703496131.208131,110.000000,0.000000,4224.358887,4195.897461,4295.000000,4287.436035,4230.128418,4214.230957,4214.102539,4227.692383,4218.717773,4201.025879,4520.384766,4465.256348,4355.769043,4461.025879,5940.000000,3.000000,74.000000,,,,0.000000,4.000000,4.000000,4.000000,4.000000,4.000000,4.000000,4.000000,4.000000,4.000000,4.000000,4.000000,4.000000,4.000000,4.000000,100.000000,,,,,,,,,,,,,,,,,,,,,,,,,,,,
1703496131.215278,1703496131.215839,111.000000,0.000000,4218.589844,4185.000000,4294.871582,4283.461426,4226.666504,4218.461426,4215.897461,4236.922852,4225.000000,4203.846191,4520.256348,4465.641113,4347.692383,4452.820313,6187.000000,3.000000,74.000000,,,,0.000000,4.000000,4.000000,4.000000,4.000000,4.000000,4.000000,4.000000,4.000000,4.000000,4.000000,4.000000,4.000000,4.000000,4.000000,100.000000,,,,,,,,,,,,,,,,,,,,,,,,,,,,
1703496131.223086,1703496131.223747,112.000000,0.000000,4217.948730,4187.051270,4294.487305,4280.641113,4220.128418,4220.897461,4220.897461,4247.948730,4231.025879,4202.179688,4513.589844,4467.179688,4341.666504,4447.948730,6680.000000,3.000000,74.000000,,,,0.000000,4.000000,4.000000,4.000000,4.000000,4.000000,4.000000,4.000000,4.000000,4.000000,4.000000,4.000000,4.000000,4.000000,4.000000,100.000000,,,,,,,,,,,,,,,,,28.000000,0.000000,0.693039,0.266235,-0.631897,0.222534,0.974240,0.085460,0.058113,-18.700577,-37.786732,66.681595
1703496131.230893,1703496131.231555,113.000000,0.000000,4206.410156,4179.102539,4281.922852,4265.641113,4215.256348,4217.051270,4219.102539,4242.307617,4224.230957,4185.256348,4493.846191,4453.333496,4331.666504,4435.769043,6469.000000,3.000000,74.000000,,,,0.000000,4.000000,4.000000,4.000000,4.000000,4.000000,4.000000,4.000000,4.000000,4.000000,4.000000,4.000000,4.000000,4.000000,4.000000,100.000000,,,,,,,,,,,,,,,,,,,,,,,,,,,,
1703496131.238702,1703496131.239463,114.000000,0.000000,4195.384766,4162.820313,4275.384766,4253.333496,4214.615234,4220.897461,4215.128418,4233.333496,4214.230957,4177.307617,4483.846191,4446.538574,4322.563965,4427.179688,5940.000000,3.000000,74.000000,,,,0.000000,4.000000,4.000000,4.000000,4.000000,4.000000,4.000000,4.000000,4.000000,4.000000,4.000000,4.000000,4.000000,4.000000,4.000000,100.000000,,,,,,,,,,,,,,,,,,,,,,,,,,,,
1703496131.246510,1703496131.247271,115.000000,0.000000,4198.205078,4171.282227,4280.000000,4258.461426,4217.051270,4232.179688,4220.128418,4237.051270,4217.948730,4188.333496,4492.179688,4449.743652,4323.333496,4431.922852,6187.000000,3.000000,74.000000,,,,0.000000,4.000000,4.000000,4.000000,4.000000,4.000000,4.000000,4.000000,4.000000,4.000000,4.000000,4.000000,4.000000,4.000000,4.000000,100.000000,,,,,,,,,,,,,,,,,,,,,,,,,,,,
1703496131.254318,1703496131.255179,116.000000,0.000000,4214.615234,4194.102539,4285.897461,4271.153809,4227.692383,4234.358887,4225.256348,4246.794922,4226.153809,4201.794922,4503.974121,4451.666504,4336.282227,4442.436035,6680.000000,3.000000,74.000000,,,,0.000000,4.000000,4.000000,4.000000,4.000000,4.000000,4.000000,4.000000,4.000000,4.000000,4.000000,4.000000,4.000000,4.000000,4.000000,100.000000,,,,,,,,,,,,,,,,,29.000000,0.000000,0.692893,0.266174,-0.632019,0.222717,0.985472,0.090343,0.062019,-18.747185,-37.724728,66.630104
1703496131.262126,1703496131.262986,117.000000,0.000000,4227.563965,4206.794922,4287.692383,4279.102539,4234.358887,4229.743652,4221.153809,4245.000000,4228.846191,4207.692383,4510.769043,4457.179688,4350.000000,4449.487305,6469.000000,3.000000,74.000000,,,,0.000000,4.000000,4.000000,4.000000,4.000000,4.000000,4.000000,4.000000,4.000000,4.000000,4.000000,4.000000,4.000000,4.000000,4.000000,100.000000,,,,,,,,,,,,,,,,,,,,,,,,,,,,
1703496131.269934,1703496131.270695,118.000000,0.000000,4234.871582,4214.102539,4293.846191,4287.820313,4232.820313,4226.025879,4217.948730,4235.256348,4230.512695,4213.077148,4526.025879,4467.948730,4362.307617,4464.358887,5940.000000,3.000000,74.000000,,,,0.000000,4.000000,4.000000,4.000000,4.000000,4.000000,4.000000,4.000000,4.000000,4.000000,4.000000,4.000000,4.000000,4.000000,4.000000,100.000000,,,,,,,,,,,,,,,,,,,,,,,,,,,,
1703496131.277742,1703496131.278503,119.000000,0.000000,4243.846191,4220.128418,4308.077148,4296.410156,4233.461426,4220.512695,4218.974121,4235.384766,4231.666504,4225.128418,4549.102539,4482.820313,4380.512695,4486.922852,6187.000000,3.000000,74.000000,,,,0.000000,4.000000,4.000000,4.000000,4.000000,4.000000,4.000000,4.000000,4.000000,4.000000,4.000000,4.000000,4.000000,4.000000,4.000000,100.000000,,,,,,,,,,,,,,,,,,,,,,,,,,,,
1703496131.285550,1703496131.286211,120.000000,0.000000,4253.974121,4222.948730,4317.436035,4300.256348,4233.974121,4214.487305,4216.025879,4247.692383,4229.871582,4234.615234,4558.846191,4493.846191,4394.358887,4496.794922,6680.000000,3.000000,74.000000,,,,0.000000,4.000000,4.000000,4.000000,4.000000,4.000000,4.000000,4.000000,4.000000,4.000000,4.000000,4.000000,4.000000,4.000000,4.000000,100.000000,,,,,,,,,,,,,,,,,30.000000,0.000000,0.692834,0.266174,-0.632019,0.222900,0.991820,0.084483,0.045416,-18.789133,-37.552254,66.550430
1703496131.293358,1703496131.294019,121.000000,0.000000,4259.487305,4226.538574,4318.205078,4306.538574,4232.820313,4210.256348,4215.769043,4251.538574,4226.153809,4233.846191,4558.846191,4493.846191,4394.615234,4496.025879,6469.000000,3.000000,74.000000,,,,0.000000,4.000000,4.000000,4.000000,4.000000,4.000000,4.000000,4.000000,4.000000,4.000000,4.000000,4.000000,4.000000,4.000000,4.000000,100.000000,,,,,,,,,,,,,,,,,,,,,,,,,,,,
1703496131.301166,1703496131.301727,122.000000,0.000000,4254.871582,4224.615234,4314.615234,4308.589844,4230.769043,4206.922852,4216.666504,4248.589844,4225.769043,4228.846191,4555.384766,4488.717773,4385.384766,4490.256348,5940.000000,3.000000,74.000000,,,,0.000000,4.000000,4.000000,4.000000,4.000000,4.000000,4.000000,4.000000,4.000000,4.000000,4.000000,4.000000,4.000000,4.000000,4.000000,100.000000,,,,,,,,,,,,,,,,,,,,,,,,,,,,
1703496131.308974,1703496131.309535,123.000000,0.000000,4244.358887,4211.666504,4307.051270,4293.974121,4223.846191,4212.563965,4218.205078,4258.589844,4222.307617,4210.256348,4546.666504,4482.436035,4375.512695,4478.077148,6187.000000,3.000000,74.000000,,,,0.000000,4.000000,4.000000,4.000000,4.000000,4.000000,4.000000,4.000000,4.000000,4.000000,4.000000,4.000000,4.000000,4.000000,4.000000,100.000000,,,,,,,,,,,,,,,,,,,,,,,,,,,,
1703496131.316782,1703496131.317243,124.000000,0.000000,4232.307617,4199.615234,4298.461426,4281.538574,4222.436035,4228.589844,4224.615234,4266.538574,4215.641113,4189.615234,4534.743652,4474.358887,4368.846191,4467.563965,6680.000000,3.000000,74.000000,,,,0.000000,4.000000,4.000000,4.000000,4.000000,4.000000,4.000000,4.000000,4.000000,4.000000,4.000000,4.000000,4.000000,4.000000,4.000000,100.000000,,,,,,,,,,,,,,,,,31.000000,0.000000,0.692839,0.266357,-0.631958,0.222839,0.983030,0.079111,0.066414,-18.710220,-37.497028,66.612053
1703496131.324590,1703496131.325051,125.000000,0.000000,4217.820313,4187.820313,4287.948730,4275.641113,4232.307617,4241.153809,4226.410156,4257.051270,4224.230957,4196.538574,4525.000000,4462.563965,4363.205078,4461.538574,6469.000000,3.000000,74.000000,,,,0.000000,4.000000,4.000000,4.000000,4.000000,4.000000,4.000000,4.000000,4.000000,4.000000,4.000000,4.000000,4.000000,4.000000,4.000000,100.000000,,,,,,,,,,,,,,,,,,,,,,,,,,,,
1703496131.332398,1703496131.332759,126.000000,0.000000,4206.153809,4182.051270,4278.846191,4266.922852,4234.615234,4248.333496,4226.794922,4247.692383,4233.974121,4212.179688,4516.922852,4451.282227,4358.077148,4451.282227,5940.000000,3.000000,74.000000,,,,0.000000,4.000000,4.000000,4.000000,4.000000,4.000000,4.000000,4.000000,4.000000,4.000000,4.000000,4.000000,4.000000,4.000000,4.000000,100.000000,,,,,,,,,,,,,,,,,,,,,,,,,,,,
1703496131.340206,1703496131.340567,127.000000,0.000000,4207.051270,4192.436035,4276.153809,4269.230957,4231.410156,4248.205078,4228.589844,4247.563965,4224.743652,4212.563965,4512.948730,4447.436035,4353.974121,4441.410156,74.000000,3.000000,74.000000,,,,0.000000,4.000000,4.000000,4.000000,4.000000,4.000000,4.000000,4.000000,4.000000,4.000000,4.000000,4.000000,4.000000,4.000000,4.000000,100.000000,,,,,,,,,,,,,,,,,,,,,,,,,,,,
1703496131.348014,1703496131.348275,0.000000,0.000000,4217.692383,4201.666504,4280.769043,4280.641113,4235.128418,4239.743652,4227.051270,4242.307617,4217.563965,4208.333496,4514.230957,4446.538574,4354.615234,4444.358887,4779.000000,3.000000,74.000000,,,,0.000000,4.000000,4.000000,4.000000,4.000000,4.000000,4.000000,4.000000,4.000000,4.000000,4.000000,4.000000,4.000000,4.000000,4.000000,100.000000,,,,,,,,,,,,,,,,,0.000000,0.000000,0.692894,0.266418,-0.631958,0.222595,0.997680,0.099622,0.051764,-18.689198,-37.413994,66.634178
1703496131.355822,1703496131.356083,1.000000,0.000000,4228.077148,4206.410156,4287.820313,4286.025879,4235.128418,4233.589844,4226.282227,4233.717773,4229.743652,4208.974121,4519.743652,4449.871582,4366.025879,4455.641113,5627.000000,3.000000,74.000000,,,,0.000000,4.000000,4.000000,4.000000,4.000000,4.000000,4.000000,4.000000,4.000000,4.000000,4.000000,4.000000,4.000000,4.000000,4.000000,100.000000,,,,,,,,,,,,,,,,,,,,,,,,,,,,
1703496131.363630,1703496131.363791,2.000000,0.000000,4232.436035,4212.948730,4286.025879,4288.461426,4229.102539,4228.974121,4224.230957,4228.846191,4234.102539,4213.077148,4529.615234,4458.717773,4378.717773,4466.538574,5412.000000,3.000000,74.000000,,,,0.000000,4.000000,4.000000,4.000000,4.000000,4.000000,4.000000,4.000000,4.000000,4.000000,4.000000,4.000000,4.000000,4.000000,4.000000,100.000000,,,,,,,,,,,,,,,,,,,,,,,,,,,,
1703496131.371438,1703496131.371599,3.000000,0.000000,4233.461426,4214.230957,4285.384766,4293.974121,4230.512695,4220.000000,4219.743652,4221.794922,4219.358887,4215.512695,4537.436035,4466.025879,4380.128418,4470.384766,5422.000000,3.000000,74.000000,,,,0.000000,4.000000,4.000000,4.000000,4.000000,4.000000,4.000000,4.000000,4.000000,4.000000,4.000000,4.000000,4.000000,4.000000,4.000000,100.000000,,,,,,,,,,,,,,,,,,,,,,,,,,,,
1703496131.379247,1703496131.379307,4.000000,0.000000,4243.077148,4220.641113,4299.102539,4295.512695,4235.384766,4212.820313,4219.615234,4220.000000,4215.256348,4218.589844,4545.641113,4470.769043,4383.077148,4473.974121,5349.000000,3.000000,74.000000,,,,0.000000,4.000000,4.000000,4.000000,4.000000,4.000000,4.000000,4.000000,4.000000,4.000000,4.000000,4.000000,4.000000,4.000000,4.000000,100.000000,,,,,,,,,,,,,,,,,1.000000,0.000000,0.692878,0.266663,-0.631958,0.222351,0.982053,0.100110,0.061043,-18.753613,-37.505928,66.570763
1703496131.387055,1703496131.387115,5.000000,0.000000,4255.000000,4231.666504,4308.717773,4297.179688,4234.487305,4213.846191,4221.794922,4230.384766,4228.333496,4226.666504,4556.153809,4480.000000,4395.384766,4484.871582,4951.000000,3.000000,74.000000,,,,0.000000,4.000000,4.000000,4.000000,4.000000,4.000000,4.000000,4.000000,4.000000,4.000000,4.000000,4.000000,4.000000,4.000000,4.000000,100.000000,,,,,,,,,,,,,,,,,,,,,,,,,,,,
1703496131.394863,1703496131.394823,6.000000,0.000000,4253.846191,4226.922852,4305.000000,4299.743652,4229.487305,4213.717773,4219.358887,4242.948730,4234.871582,4225.641113,4556.410156,4487.563965,4396.538574,4488.461426,2742.000000,3.000000,74.000000,,,,0.000000,4.000000,4.000000,4.000000,4.000000,4.000000,4.000000,4.000000,4.000000,4.000000,4.000000,4.000000,4.000000,4.000000,4.000000,100.000000,,,,,,,,,,,,,,,,,,,,,,,,,,,,
1703496131.402671,1703496131.402731,7.000000,0.000000,4247.307617,4215.769043,4299.743652,4292.436035,4227.692383,4213.333496,4217.563965,4248.333496,4233.077148,4216.153809,4551.538574,4486.666504,4390.641113,4481.282227,4108.000000,3.000000,74.000000,,,,0.000000,4.000000,4.000000,4.000000,4.000000,4.000000,4.000000,4.000000,4.000000,4.000000,4.000000,4.000000,4.000000,4.000000,4.000000,100.000000,,,,,,,,,,,,,,,,,,,,,,,,,,,,
1703496131.410479,1703496131.410539,8.000000,0.000000,4242.820313,4211.794922,4294.871582,4281.794922,4226.282227,4216.538574,4220.128418,4250.641113,4232.179688,4218.077148,4553.974121,4480.769043,4396.410156,4479.102539,4210.000000,3.000000,74.000000,,,,0.000000,4.000000,4.000000,4.000000,4.000000,4.000000,4.000000,4.000000,4.000000,4.000000,4.000000,4.000000,4.000000,4.000000,4.000000,100.000000,,,,,,,,,,,,,,,,,2.000000,0.000000,0.692946,0.266785,-0.631897,0.222168,0.984984,0.094250,0.059578,-18.794916,-37.521999,66.697021
1703496131.418287,1703496131.418447,9.000000,0.000000,4233.333496,4203.205078,4289.871582,4274.743652,4219.743652,4218.717773,4222.948730,4246.922852,4224.102539,4213.589844,4547.692383,4470.256348,4391.666504,4473.846191,5587.000000,3.000000,74.000000,,,,0.000000,4.000000,4.000000,4.000000,4.000000,4.000000,4.000000,4.000000,4.000000,4.000000,4.000000,4.000000,4.000000,4.000000,4.000000,100.000000,,,,,,,,,,,,,,,,,,,,,,,,,,,,
1703496131.426095,1703496131.426255,10.000000,0.000000,4224.230957,4194.102539,4286.922852,4273.846191,4213.717773,4222.563965,4221.538574,4232.692383,4212.307617,4196.538574,4523.205078,4453.846191,4366.666504,4453.974121,5941.000000,3.000000,74.000000,,,,0.000000,4.000000,4.000000,4.000000,4.000000,4.000000,4.000000,4.000000,4.000000,4.000000,4.000000,4.000000,4.000000,4.000000,4.000000,100.000000,,,,,,,,,,,,,,,,,,,,,,,,,,,,
1703496131.433903,1703496131.434162,11.000000,0.000000,4226.538574,4200.256348,4286.282227,4275.897461,4218.077148,4228.846191,4222.307617,4214.487305,4212.179688,4191.025879,4507.820313,4441.922852,4354.871582,4442.179688,6187.000000,3.000000,74.000000,,,,0.000000,4.000000,4.000000,4.000000,4.000000,4.000000,4.000000,4.000000,4.000000,4.000000,4.000000,4.000000,4.000000,4.000000,4.000000,100.000000,,,,,,,,,,,,,,,,,,,,,,,,,,,,
1703496131.441711,1703496131.441970,12.000000,0.000000,4226.282227,4208.717773,4289.230957,4277.820313,4228.974121,4233.846191,4230.897461,4202.692383,4217.307617,4195.641113,4508.589844,4438.589844,4361.282227,4441.922852,6676.000000,3.000000,74.000000,,,,0.000000,4.000000,4.000000,4.000000,4.000000,4.000000,4.000000,4.000000,4.000000,4.000000,4.000000,4.000000,4.000000,4.000000,4.000000,100.000000,,,,,,,,,,,,,,,,,3.000000,0.000000,0.693148,0.267090,-0.631653,0.221863,0.973263,0.097668,0.048834,-18.815426,-37.686466,66.627319
1703496131.449519,1703496131.449878,13.000000,0.000000,4218.205078,4205.512695,4285.256348,4275.897461,4234.358887,4235.256348,4236.282227,4201.282227,4217.051270,4195.512695,4507.179688,4430.128418,4361.794922,4436.922852,6461.000000,3.000000,74.000000,,,,0.000000,4.000000,4.000000,4.000000,4.000000,4.000000,4.000000,4.000000,4.000000,4.000000,4.000000,4.000000,4.000000,4.000000,4.000000,100.000000,,,,,,,,,,,,,,,,,,,,,,,,,,,,
1703496131.457327,1703496131.457686,14.000000,0.000000,4222.051270,4205.384766,4278.974121,4273.717773,4233.461426,4234.358887,4230.897461,4206.410156,4215.769043,4200.256348,4505.641113,4426.794922,4360.641113,4436.153809,5941.000000,3.000000,74.000000,,,,0.000000,4.000000,4.000000,4.000000,4.000000,4.000000,4.000000,4.000000,4.000000,4.000000,4.000000,4.000000,4.000000,4.000000,4.000000,100.000000,,,,,,,,,,,,,,,,,,,,,,,,,,,,
1703496131.465135,1703496131.465594,15.000000,0.000000,4234.358887,4215.897461,4281.282227,4280.512695,4232.563965,4229.487305,4225.128418,4215.128418,4223.461426,4216.153809,4518.589844,4439.871582,4373.846191,4444.871582,6187.000000,3.000000,74.000000,,,,0.000000,4.000000,4.000000,4.000000,4.000000,4.000000,4.000000,4.000000,4.000000,4.000000,4.000000,4.000000,4.000000,4.000000,4.000000,100.000000,,,,,,,,,,,,,,,,,,,,,,,,,,,,
1703496131.472943,1703496131.473402,16.000000,0.000000,4228.077148,4215.641113,4282.307617,4279.615234,4232.563965,4220.256348,4225.256348,4217.563965,4236.282227,4216.282227,4524.358887,4446.410156,4377.436035,4443.461426,0.000000,3.000000,74.000000,,,,0.000000,4.000000,4.000000,4.000000,4.000000,4.000000,4.000000,4.000000,4.000000,4.000000,4.000000,4.000000,4.000000,4.000000,4.000000,100.000000,,,,,,,,,,,,,,,,,4.000000,0.000000,0.693189,0.267273,-0.631531,0.221863,0.984984,0.102063,0.060066,-18.867216,-37.617821,66.647919
1703496131.480751,1703496131.481110,17.000000,0.000000,4212.307617,4200.384766,4275.897461,4268.974121,4228.461426,4216.538574,4226.153809,4213.333496,4232.820313,4197.051270,4510.256348,4440.000000,4360.897461,4435.256348,0.000000,3.000000,74.000000,,,,0.000000,4.000000,4.000000,4.000000,4.000000,4.000000,4.000000,4.000000,4.000000,4.000000,4.000000,4.000000,4.000000,4.000000,4.000000,100.000000,,,,,,,,,,,,,,,,,,,,,,,,,,,,
1703496131.488559,1703496131.488918,18.000000,0.000000,4212.563965,4197.948730,4268.974121,4267.948730,4227.820313,4225.000000,4227.436035,4213.333496,4220.128418,4188.974121,4502.307617,4437.307617,4357.051270,4437.563965,0.000000,3.000000,74.000000,,,,0.000000,4.000000,4.000000,4.000000,4.000000,4.000000,4.000000,4.000000,4.000000,4.000000,4.000000,4.000000,4.000000,4.000000,4.000000,100.000000,,,,,,,,,,,,,,,,,,,,,,,,,,,,
1703496131.496367,1703496131.496626,19.000000,0.000000,4216.538574,4207.948730,4271.922852,4270.769043,4233.974121,4234.615234,4231.538574,4216.922852,4217.948730,4191.410156,4506.025879,4443.717773,4365.897461,4443.589844,0.000000,3.000000,74.000000,,,,0.000000,4.000000,4.000000,4.000000,4.000000,4.000000,4.000000,4.000000,4.000000,4.000000,4.000000,4.000000,4.000000,4.000000,4.000000,100.000000,,,,,,,,,,,,,,,,,,,,,,,,,,,,
1703496131.504175,1703496131.504434,20.000000,0.000000,4213.077148,4203.717773,4281.538574,4266.410156,4235.128418,4233.717773,4233.717773,4219.871582,4219.615234,4192.563965,4511.922852,4455.769043,4370.128418,4450.000000,0.000000,3.000000,74.000000,,,,0.000000,4.000000,4.000000,4.000000,4.000000,4.000000,4.000000,4.000000,4.000000,4.000000,4.000000,4.000000,4.000000,4.000000,4.000000,100.000000,,,,,,,,,,,,,,,,,5.000000,0.000000,0.693292,0.267151,-0.631470,0.221863,0.990844,0.096691,0.056159,-18.813828,-37.706039,66.516457
1703496131.511983,1703496131.512142,21.000000,0.000000,4216.025879,4197.436035,4287.820313,4267.948730,4231.153809,4231.538574,4231.666504,4222.307617,4218.461426,4193.717773,4521.666504,4467.563965,4373.205078,4458.205078,0.000000,3.000000,74.000000,,,,0.000000,4.000000,4.000000,4.000000,4.000000,4.000000,4.000000,4.000000,4.000000,4.000000,4.000000,4.000000,4.000000,4.000000,4.000000,100.000000,,,,,,,,,,,,,,,,,,,,,,,,,,,,
1703496131.519791,1703496131.519950,22.000000,0.000000,4231.538574,4215.384766,4294.230957,4282.563965,4229.102539,4233.077148,4231.153809,4220.128418,4218.333496,4191.410156,4528.846191,4474.615234,4380.000000,4463.846191,0.000000,3.000000,74.000000,,,,0.000000,4.000000,4.000000,4.000000,4.000000,4.000000,4.000000,4.000000,4.000000,4.000000,4.000000,4.000000,4.000000,4.000000,4.000000,100.000000,,,,,,,,,,,,,,,,,,,,,,,,,,,,
1703496131.527599,1703496131.527658,23.000000,0.000000,4247.179688,4236.410156,4298.333496,4290.769043,4234.871582,4227.820313,4231.410156,4216.794922,4216.410156,4193.589844,4534.102539,4476.153809,4387.563965,4472.563965,0.000000,3.000000,74.000000,,,,0.000000,4.000000,4.000000,4.000000,4.000000,4.000000,4.000000,4.000000,4.000000,4.000000,4.000000,4.000000,4.000000,4.000000,4.000000,100.000000,,,,,,,,,,,,,,,,,,,,,,,,,,,,
1703496131.535407,1703496131.535566,24.000000,0.000000,4257.436035,4237.436035,4302.692383,4292.051270,4241.153809,4218.333496,4232.307617,4221.538574,4213.589844,4209.102539,4545.000000,4477.820313,4396.666504,4487.692383,0.000000,3.000000,74.000000,,,,0.000000,4.000000,4.000000,4.000000,4.000000,4.000000,4.000000,4.000000,4.000000,4.000000,4.000000,4.000000,4.000000,4.000000,4.000000,100.000000,,,,,,,,,,,,,,,,,6.000000,0.000000,0.693268,0.266968,-0.631531,0.221985,0.987914,0.094738,0.046392,-18.832445,-37.685436,66.498146
1703496131.543216,1703496131.543374,25.000000,0.000000,4272.692383,4243.717773,4316.153809,4303.333496,4240.512695,4216.282227,4230.128418,4222.436035,4216.794922,4218.461426,4558.461426,4482.563965,4412.179688,4500.897461,0.000000,3.000000,74.000000,,,,0.000000,4.000000,4.000000,4.000000,4.000000,4.000000,4.000000,4.000000,4.000000,4.000000,4.000000,4.000000,4.000000,4.000000,4.000000,100.000000,,,,,,,,,,,,,,,,,,,,,,,,,,,,
1703496131.551024,1703496131.551182,26.000000,0.000000,4280.512695,4255.641113,4321.282227,4312.307617,4235.000000,4210.641113,4223.461426,4205.256348,4214.230957,4217.307617,4558.974121,4476.922852,4413.205078,4495.256348,0.000000,3.000000,74.000000,,,,0.000000,4.000000,4.000000,4.000000,4.000000,4.000000,4.000000,4.000000,4.000000,4.000000,4.000000,4.000000,4.000000,4.000000,4.000000,100.000000,,,,,,,,,,,,,,,,,,,,,,,,,,,,
1703496131.558832,1703496131.558890,27.000000,0.000000,4263.974121,4242.307617,4311.538574,4301.794922,4229.743652,4200.000000,4222.307617,4182.563965,4197.307617,4206.025879,4536.025879,4456.794922,4389.230957,4468.205078,0.000000,3.000000,74.000000,,,,0.000000,4.000000,4.000000,4.000000,4.000000,4.000000,4.000000,4.000000,4.000000,4.000000,4.000000,4.000000,4.000000,4.000000,4.000000,100.000000,,,,,,,,,,,,,,,,,,,,,,,,,,,,
1703496131.566640,1703496131.566698,28.000000,0.000000,4241.538574,4220.641113,4300.897461,4281.538574,4232.692383,4205.641113,4223.846191,4171.666504,4181.025879,4176.666504,4508.333496,4437.179688,4363.717773,4444.871582,0.000000,3.000000,74.000000,,,,0.000000,4.000000,4.000000,4.000000,4.000000,4.000000,4.000000,4.000000,4.000000,4.000000,4.000000,4.000000,4.000000,4.000000,4.000000,100.000000,,,,,,,,,,,,,,,,,7.000000,0.000000,0.693284,0.266968,-0.631470,0.222107,0.998169,0.083995,0.061531,-18.782534,-37.800224,66.431664
1703496131.574448,1703496131.574406,29.000000,0.000000,4228.589844,4212.820313,4288.205078,4267.948730,4231.410156,4219.102539,4225.384766,4173.974121,4181.410156,4165.128418,4500.512695,4427.948730,4354.743652,4437.436035,0.000000,3.000000,74.000000,,,,0.000000,4.000000,4.000000,4.000000,4.000000,4.000000,4.000000,4.000000,4.000000,4.000000,4.000000,4.000000,4.000000,4.000000,4.000000,100.000000,,,,,,,,,,,,,,,,,,,,,,,,,,,,
1703496131.582256,1703496131.582314,30.000000,0.000000,4216.794922,4202.948730,4272.563965,4254.230957,4220.641113,4227.179688,4230.897461,4188.717773,4203.461426,4186.153809,4503.974121,4427.179688,4354.358887,4430.897461,0.000000,3.000000,74.000000,,,,0.000000,4.000000,4.000000,4.000000,4.000000,4.000000,4.000000,4.000000,4.000000,4.000000,4.000000,4.000000,4.000000,4.000000,4.000000,100.000000,,,,,,,,,,,,,,,,,,,,,,,,,,,,
1703496131.590064,1703496131.590122,31.000000,0.000000,4202.307617,4193.717773,4265.000000,4242.820313,4218.717773,4242.563965,4236.794922,4208.077148,4231.794922,4201.794922,4503.846191,4428.333496,4354.230957,4423.589844,0.000000,3.000000,74.000000,,,,0.000000,4.000000,4.000000,4.000000,4.000000,4.000000,4.000000,4.000000,4.000000,4.000000,4.000000,4.000000,4.000000,4.000000,4.000000,100.000000,,,,,,,,,,,,,,,,,,,,,,,,,,,,
1703496131.597872,1703496131.598030,32.000000,0.000000,4194.871582,4194.871582,4266.282227,4241.666504,4223.461426,4250.384766,4236.410156,4217.948730,4236.922852,4201.410156,4502.051270,4430.512695,4353.974121,4422.820313,0.000000,3.000000,74.000000,,,,0.000000,4.000000,4.000000,4.000000,4.000000,4.000000,4.000000,4.000000,4.000000,4.000000,4.000000,4.000000,4.000000,4.000000,4.000000,100.000000,,,,,,,,,,,,,,,,,8.000000,0.000000,0.693344,0.266907,-0.631409,0.222168,0.986449,0.087901,0.051276,-18.837614,-37.770203,66.505165
1703496131.605680,1703496131.605838,33.000000,0.000000,4199.743652,4197.179688,4264.615234,4243.333496,4219.102539,4236.410156,4234.487305,4212.179688,4222.051270,4201.153809,4501.666504,4432.820313,4350.641113,4424.615234,0.000000,3.000000,74.000000,,,,0.000000,4.000000,4.000000,4.000000,4.000000,4.000000,4.000000,4.000000,4.000000,4.000000,4.000000,4.000000,4.000000,4.000000,4.000000,100.000000,,,,,,,,,,,,,,,,,,,,,,,,,,,,
1703496131.613488,1703496131.613746,34.000000,0.000000,4215.641113,4204.230957,4273.333496,4247.179688,4217.051270,4229.230957,4235.641113,4206.666504,4218.077148,4198.717773,4507.051270,4443.974121,4356.282227,4434.743652,0.000000,3.000000,74.000000,,,,0.000000,4.000000,4.000000,4.000000,4.000000,4.000000,4.000000,4.000000,4.000000,4.000000,4.000000,4.000000,4.000000,4.000000,4.000000,100.000000,,,,,,,,,,,,,,,,,,,,,,,,,,,,
1703496131.621296,1703496131.621554,35.000000,0.000000,4232.820313,4220.641113,4296.794922,4257.563965,4228.077148,4231.922852,4237.436035,4212.436035,4223.205078,4191.794922,4518.077148,4465.641113,4368.333496,4453.461426,0.000000,3.000000,74.000000,,,,0.000000,4.000000,4.000000,4.000000,4.000000,4.000000,4.000000,4.000000,4.000000,4.000000,4.000000,4.000000,4.000000,4.000000,4.000000,100.000000,,,,,,,,,,,,,,,,,,,,,,,,,,,,
1703496131.629104,1703496131.629462,36.000000,0.000000,4243.974121,4234.743652,4305.256348,4267.820313,4234.871582,4222.692383,4234.487305,4218.589844,4218.717773,4189.487305,4529.871582,4480.000000,4375.256348,4466.538574,0.000000,3.000000,74.000000,,,,0.000000,4.000000,4.000000,4.000000,4.000000,4.000000,4.000000,4.000000,4.000000,4.000000,4.000000,4.000000,4.000000,4.000000,4.000000,100.000000,,,,,,,,,,,,,,,,,9.000000,0.000000,0.693335,0.266785,-0.631470,0.222168,0.986449,0.099622,0.066903,-18.953852,-37.793182,66.504646
1703496131.636912,1703496131.637270,37.000000,0.000000,4256.025879,4240.384766,4303.205078,4273.461426,4234.358887,4212.692383,4230.000000,4225.000000,4217.436035,4202.307617,4546.153809,4485.641113,4388.461426,4480.000000,0.000000,3.000000,74.000000,,,,0.000000,4.000000,4.000000,4.000000,4.000000,4.000000,4.000000,4.000000,4.000000,4.000000,4.000000,4.000000,4.000000,4.000000,4.000000,100.000000,,,,,,,,,,,,,,,,,,,,,,,,,,,,
1703496131.644720,1703496131.645177,38.000000,0.000000,4269.102539,4248.717773,4311.538574,4284.743652,4231.666504,4216.025879,4233.205078,4240.256348,4229.230957,4225.641113,4567.563965,4492.179688,4410.000000,4496.922852,0.000000,3.000000,74.000000,,,,0.000000,4.000000,4.000000,4.000000,4.000000,4.000000,4.000000,4.000000,4.000000,4.000000,4.000000,4.000000,4.000000,4.000000,4.000000,100.000000,,,,,,,,,,,,,,,,,,,,,,,,,,,,
1703496131.652528,1703496131.653086,39.000000,0.000000,4279.743652,4265.256348,4321.922852,4298.205078,4232.820313,4220.897461,4238.461426,4252.948730,4235.000000,4234.102539,4581.794922,4503.974121,4428.461426,4510.384766,0.000000,3.000000,74.000000,,,,0.000000,4.000000,4.000000,4.000000,4.000000,4.000000,4.000000,4.000000,4.000000,4.000000,4.000000,4.000000,4.000000,4.000000,4.000000,100.000000,,,,,,,,,,,,,,,,,,,,,,,,,,,,
1703496131.660336,1703496131.660894,40.000000,0.000000,4286.922852,4274.615234,4322.307617,4300.000000,4245.256348,4218.974121,4237.948730,4252.563965,4226.025879,4220.512695,4579.358887,4506.666504,4431.666504,4515.769043,0.000000,3.000000,74.000000,,,,0.000000,4.000000,4.000000,4.000000,4.000000,4.000000,4.000000,4.000000,4.000000,4.000000,4.000000,4.000000,4.000000,4.000000,4.000000,100.000000,,,,,,,,,,,,,,,,,10.000000,0.000000,0.693335,0.266785,-0.631470,0.222168,0.995727,0.077158,0.057136,-18.991800,-37.713863,66.620850
1703496131.668144,1703496131.668702,41.000000,0.000000,4280.641113,4263.205078,4316.025879,4295.000000,4247.179688,4212.179688,4232.051270,4247.307617,4210.256348,4212.692383,4569.871582,4487.820313,4421.794922,4507.051270,0.000000,3.000000,74.000000,,,,0.000000,4.000000,4.000000,4.000000,4.000000,4.000000,4.000000,4.000000,4.000000,4.000000,4.000000,4.000000,4.000000,4.000000,4.000000,100.000000,,,,,,,,,,,,,,,,,,,,,,,,,,,,
1703496131.675952,1703496131.676410,42.000000,0.000000,4266.410156,4248.974121,4309.487305,4290.000000,4232.820313,4205.000000,4229.487305,4248.333496,4200.128418,4220.128418,4568.205078,4475.000000,4414.230957,4495.000000,0.000000,3.000000,74.000000,,,,0.000000,4.000000,4.000000,4.000000,4.000000,4.000000,4.000000,4.000000,4.000000,4.000000,4.000000,4.000000,4.000000,4.000000,4.000000,100.000000,1.000000,100.000000,4.000000,4.000000,4.000000,4.000000,4.000000,4.000000,4.000000,4.000000,4.000000,4.000000,4.000000,4.000000,4.000000,4.000000,,,,,,,,,,,,
1703496131.683761,1703496131.684218,43.000000,0.000000,4258.974121,4245.000000,4306.153809,4283.717773,4230.769043,4203.461426,4230.128418,4254.615234,4206.666504,4221.538574,4567.692383,4477.820313,4409.358887,4487.692383,0.000000,3.000000,74.000000,,,,0.000000,4.000000,4.000000,4.000000,4.000000,4.000000,4.000000,4.000000,4.000000,4.000000,4.000000,4.000000,4.000000,4.000000,4.000000,100.000000,,,,,,,,,,,,,,,,,,,,,,,,,,,,
1703496131.691568,1703496131.691926,44.000000,0.000000,4250.256348,4234.358887,4303.077148,4279.743652,4235.384766,4208.974121,4230.000000,4256.282227,4217.307617,4217.051270,4557.179688,4471.282227,4400.512695,4477.179688,0.000000,3.000000,74.000000,,,,0.000000,4.000000,4.000000,4.000000,4.000000,4.000000,4.000000,4.000000,4.000000,4.000000,4.000000,4.000000,4.000000,4.000000,4.000000,100.000000,,,,,,,,,,,,,,,,,11.000000,0.000000,0.693354,0.266785,-0.631470,0.222107,0.995727,0.088390,0.055671,-19.125954,-37.642479,66.675430
1703496131.699376,1703496131.699734,45.000000,0.000000,4233.077148,4217.948730,4300.000000,4275.384766,4225.000000,4213.461426,4231.153809,4246.794922,4217.307617,4216.410156,4543.461426,4456.025879,4388.333496,4462.179688,0.000000,3.000000,74.000000,,,,0.000000,4.000000,4.000000,4.000000,4.000000,4.000000,4.000000,4.000000,4.000000,4.000000,4.000000,4.000000,4.000000,4.000000,4.000000,100.000000,,,,,,,,,,,,,,,,,,,,,,,,,,,,
1703496131.707185,1703496131.707442,46.000000,0.000000,4227.051270,4213.846191,4299.102539,4269.230957,4219.102539,4213.461426,4228.846191,4236.922852,4215.769043,4214.102539,4536.025879,4449.358887,4380.512695,4454.871582,0.000000,3.000000,74.000000,,,,0.000000,4.000000,4.000000,4.000000,4.000000,4.000000,4.000000,4.000000,4.000000,4.000000,4.000000,4.000000,4.000000,4.000000,4.000000,100.000000,,,,,,,,,,,,,,,,,,,,,,,,,,,,
1703496131.714993,1703496131.715350,47.000000,0.000000,4230.384766,4217.436035,4301.922852,4272.179688,4230.000000,4214.615234,4226.410156,4232.692383,4218.974121,4212.820313,4536.153809,4452.307617,4378.461426,4454.230957,0.000000,3.000000,74.000000,,,,0.000000,4.000000,4.000000,4.000000,4.000000,4.000000,4.000000,4.000000,4.000000,4.000000,4.000000,4.000000,4.000000,4.000000,4.000000,100.000000,,,,,,,,,,,,,,,,,,,,,,,,,,,,
1703496131.722801,1703496131.723158,48.000000,0.000000,4230.000000,4222.051270,4309.615234,4278.333496,4237.051270,4217.948730,4231.025879,4224.102539,4218.205078,4210.000000,4538.333496,4463.461426,4381.538574,4453.589844,0.000000,3.000000,74.000000,,,,0.000000,4.000000,4.000000,4.000000,4.000000,4.000000,4.000000,4.000000,4.000000,4.000000,4.000000,4.000000,4.000000,4.000000,4.000000,100.000000,,,,,,,,,,,,,,,,,12.000000,0.000000,0.693217,0.267090,-0.631470,0.222168,0.985960,0.080088,0.053717,-19.313358,-37.594894,66.591225
1703496131.730609,1703496131.730967,49.000000,0.000000,4230.897461,4229.102539,4312.820313,4278.077148,4234.871582,4219.230957,4234.358887,4213.974121,4214.102539,4197.820313,4536.410156,4473.717773,4381.282227,4455.512695,0.000000,3.000000,74.000000,,,,0.000000,4.000000,4.000000,4.000000,4.000000,4.000000,4.000000,4.000000,4.000000,4.000000,4.000000,4.000000,4.000000,4.000000,4.000000,100.000000,,,,,,,,,,,,,,,,,,,,,,,,,,,,
1703496131.738417,1703496131.738675,50.000000,0.000000,4236.025879,4233.717773,4311.538574,4282.179688,4233.589844,4216.794922,4232.051270,4211.282227,4215.769043,4191.153809,4535.769043,4475.128418,4374.487305,4456.666504,0.000000,3.000000,74.000000,,,,0.000000,4.000000,4.000000,4.000000,4.000000,4.000000,4.000000,4.000000,4.000000,4.000000,4.000000,4.000000,4.000000,4.000000,4.000000,100.000000,,,,,,,,,,,,,,,,,,,,,,,,,,,,
1703496131.746225,1703496131.746483,51.000000,0.000000,4240.128418,4234.358887,4311.666504,4288.077148,4236.538574,4216.153809,4231.025879,4216.282227,4223.717773,4210.641113,4543.589844,4474.358887,4378.461426,4459.743652,0.000000,3.000000,74.000000,,,,0.000000,4.000000,4.000000,4.000000,4.000000,4.000000,4.000000,4.000000,4.000000,4.000000,4.000000,4.000000,4.000000,4.000000,4.000000,100.000000,,,,,,,,,,,,,,,,,,,,,,,,,,,,
1703496131.754033,1703496131.754191,52.000000,0.000000,4238.333496,4234.102539,4311.666504,4282.563965,4234.743652,4222.820313,4232.820313,4230.641113,4230.512695,4232.051270,4550.897461,4478.077148,4387.820313,4463.974121,0.000000,3.000000,74.000000,,,,0.000000,4.000000,4.000000,4.000000,4.000000,4.000000,4.000000,4.000000,4.000000,4.000000,4.000000,4.000000,4.000000,4.000000,4.000000,100.000000,,,,,,,,,,,,,,,,,13.000000,0.000000,0.693131,0.267212,-0.631470,0.222290,0.985960,0.110853,0.062996,-19.382023,-37.518742,66.665436
1703496131.761841,1703496131.761999,53.000000,0.000000,4235.000000,4233.333496,4311.025879,4279.358887,4234.358887,4227.436035,4234.871582,4248.077148,4231.922852,4226.922852,4551.538574,4483.846191,4387.563965,4461.153809,0.000000,3.000000,74.000000,,,,0.000000,4.000000,4.000000,4.000000,4.000000,4.000000,4.000000,4.000000,4.000000,4.000000,4.000000,4.000000,4.000000,4.000000,4.000000,100.000000,,,,,,,,,,,,,,,,,,,,,,,,,,,,
1703496131.769649,1703496131.769707,54.000000,0.000000,4233.461426,4233.205078,4306.282227,4281.666504,4240.256348,4222.051270,4234.102539,4253.461426,4233.077148,4215.000000,4555.000000,4483.205078,4387.948730,4461.282227,0.000000,3.000000,74.000000,,,,0.000000,4.000000,4.000000,4.000000,4.000000,4.000000,4.000000,4.000000,4.000000,4.000000,4.000000,4.000000,4.000000,4.000000,4.000000,100.000000,,,,,,,,,,,,,,,,,,,,,,,,,,,,
1703496131.777457,1703496131.777615,55.000000,0.000000,4233.589844,4230.641113,4301.794922,4278.333496,4240.897461,4222.436035,4232.820313,4249.871582,4229.871582,4216.538574,4561.922852,4483.077148,4394.230957,4470.641113,0.000000,3.000000,74.000000,,,,0.000000,4.000000,4.000000,4.000000,4.000000,4.000000,4.000000,4.000000,4.000000,4.000000,4.000000,4.000000,4.000000,4.000000,4.000000,100.000000,,,,,,,,,,,,,,,,,,,,,,,,,,,,
1703496131.785265,1703496131.785423,56.000000,0.000000,4240.384766,4232.179688,4306.922852,4281.922852,4240.641113,4233.333496,4234.615234,4251.282227,4224.358887,4220.769043,4570.641113,4488.077148,4401.794922,4478.205078,0.000000,3.000000,74.000000,,,,0.000000,4.000000,4.000000,4.000000,4.000000,4.000000,4.000000,4.000000,4.000000,4.000000,4.000000,4.000000,4.000000,4.000000,4.000000,100.000000,,,,,,,,,,,,,,,,,14.000000,0.000000,0.693151,0.267212,-0.631470,0.222229,0.987425,0.090343,0.067391,-19.243820,-37.516865,66.715561
1703496131.793073,1703496131.793330,57.000000,0.000000,4253.077148,4244.615234,4313.461426,4294.871582,4246.153809,4231.025879,4235.128418,4251.794922,4225.256348,4218.589844,4572.563965,4485.769043,4403.461426,4477.563965,0.000000,3.000000,74.000000,,,,0.000000,4.000000,4.000000,4.000000,4.000000,4.000000,4.000000,4.000000,4.000000,4.000000,4.000000,4.000000,4.000000,4.000000,4.000000,100.000000,,,,,,,,,,,,,,,,,,,,,,,,,,,,
1703496131.800881,1703496131.801138,58.000000,0.000000,4265.384766,4254.871582,4318.205078,4299.743652,4244.615234,4219.871582,4233.589844,4245.256348,4221.794922,4215.769043,4565.897461,4480.512695,4401.666504,4476.410156,0.000000,3.000000,74.000000,,,,0.000000,4.000000,4.000000,4.000000,4.000000,4.000000,4.000000,4.000000,4.000000,4.000000,4.000000,4.000000,4.000000,4.000000,4.000000,100.000000,,,,,,,,,,,,,,,,,,,,,,,,,,,,
1703496131.808689,1703496131.809046,59.000000,0.000000,4263.333496,4248.589844,4314.358887,4295.128418,4234.871582,4217.051270,4232.307617,4234.487305,4205.256348,4214.102539,4562.563965,4474.102539,4401.282227,4478.846191,0.000000,3.000000,74.000000,,,,0.000000,4.000000,4.000000,4.000000,4.000000,4.000000,4.000000,4.000000,4.000000,4.000000,4.000000,4.000000,4.000000,4.000000,4.000000,100.000000,,,,,,,,,,,,,,,,,,,,,,,,,,,,
1703496131.816497,1703496131.816854,60.000000,0.000000,4252.692383,4235.384766,4305.256348,4291.794922,4231.922852,4214.230957,4229.871582,4225.128418,4198.205078,4213.974121,4561.538574,4467.820313,4398.846191,4473.461426,0.000000,3.000000,74.000000,,,,0.000000,4.000000,4.000000,4.000000,4.000000,4.000000,4.000000,4.000000,4.000000,4.000000,4.000000,4.000000,4.000000,4.000000,4.000000,100.000000,,,,,,,,,,,,,,,,,15.000000,0.000000,0.693155,0.267151,-0.631470,0.222290,0.981565,0.099622,0.065438,-19.219439,-37.631847,66.644005
1703496131.824305,1703496131.824762,61.000000,0.000000,4250.128418,4233.717773,4306.153809,4293.974121,4233.717773,4212.948730,4227.820313,4223.077148,4208.974121,4215.256348,4556.922852,4467.436035,4396.538574,4465.256348,0.000000,3.000000,74.000000,,,,0.000000,4.000000,4.000000,4.000000,4.000000,4.000000,4.000000,4.000000,4.000000,4.000000,4.000000,4.000000,4.000000,4.000000,4.000000,100.000000,,,,,,,,,,,,,,,,,,,,,,,,,,,,
1703496131.832113,1703496131.832570,62.000000,0.000000,4250.000000,4237.948730,4305.769043,4293.333496,4236.153809,4220.000000,4228.974121,4228.333496,4215.256348,4217.820313,4555.512695,4466.538574,4399.743652,4466.025879,0.000000,3.000000,74.000000,,,,0.000000,4.000000,4.000000,4.000000,4.000000,4.000000,4.000000,4.000000,4.000000,4.000000,4.000000,4.000000,4.000000,4.000000,4.000000,100.000000,,,,,,,,,,,,,,,,,,,,,,,,,,,,
1703496131.839921,1703496131.840478,63.000000,0.000000,4231.153809,4225.512695,4291.025879,4279.358887,4237.436035,4227.563965,4231.922852,4241.666504,4213.205078,4217.563965,4554.102539,4461.666504,4393.205078,4456.025879,0.000000,3.000000,74.000000,,,,0.000000,4.000000,4.000000,4.000000,4.000000,4.000000,4.000000,4.000000,4.000000,4.000000,4.000000,4.000000,4.000000,4.000000,4.000000,100.000000,,,,,,,,,,,,,,,,,,,,,,,,,,,,
1703496131.847730,1703496131.848286,64.000000,0.000000,4205.897461,4204.487305,4277.563965,4262.948730,4231.538574,4237.563965,4233.205078,4259.487305,4220.769043,4215.512695,4549.358887,4461.282227,4378.974121,4435.512695,4779.000000,3.000000,74.000000,,,,0.000000,4.000000,4.000000,4.000000,4.000000,4.000000,4.000000,4.000000,4.000000,4.000000,4.000000,4.000000,4.000000,4.000000,4.000000,100.000000,,,,,,,,,,,,,,,,,16.000000,0.000000,0.693218,0.267029,-0.631409,0.222412,0.989867,0.091320,0.054206,-19.097494,-37.568661,66.662933
1703496131.855538,1703496131.856094,65.000000,0.000000,4202.307617,4202.307617,4278.717773,4262.692383,4229.487305,4246.153809,4233.077148,4269.615234,4233.717773,4217.436035,4549.358887,4465.384766,4380.256348,4434.871582,5627.000000,3.000000,74.000000,,,,0.000000,4.000000,4.000000,4.000000,4.000000,4.000000,4.000000,4.000000,4.000000,4.000000,4.000000,4.000000,4.000000,4.000000,4.000000,100.000000,,,,,,,,,,,,,,,,,,,,,,,,,,,,
1703496131.863346,1703496131.863902,66.000000,0.000000,4211.794922,4215.897461,4288.333496,4273.589844,4232.051270,4239.743652,4234.358887,4267.948730,4237.179688,4216.922852,4551.922852,4468.589844,4387.563965,4443.717773,5407.000000,3.000000,74.000000,,,,0.000000,4.000000,4.000000,4.000000,4.000000,4.000000,4.000000,4.000000,4.000000,4.000000,4.000000,4.000000,4.000000,4.000000,4.000000,100.000000,,,,,,,,,,,,,,,,,,,,,,,,,,,,
1703496131.871154,1703496131.871610,67.000000,0.000000,4226.025879,4229.743652,4297.051270,4287.179688,4230.897461,4229.487305,4234.487305,4267.436035,4231.153809,4215.000000,4558.589844,4474.487305,4391.153809,4446.410156,5419.000000,3.000000,74.000000,,,,0.000000,4.000000,4.000000,4.000000,4.000000,4.000000,4.000000,4.000000,4.000000,4.000000,4.000000,4.000000,4.000000,4.000000,4.000000,100.000000,,,,,,,,,,,,,,,,,,,,,,,,,,,,
1703496131.878962,1703496131.879418,68.000000,0.000000,4243.205078,4234.871582,4307.307617,4294.871582,4230.641113,4226.410156,4233.205078,4270.384766,4222.948730,4217.692383,4570.256348,4482.563965,4399.743652,4457.563965,5344.000000,3.000000,74.000000,,,,0.000000,4.000000,4.000000,4.000000,4.000000,4.000000,4.000000,4.000000,4.000000,4.000000,4.000000,4.000000,4.000000,4.000000,4.000000,100.000000,,,,,,,,,,,,,,,,,17.000000,0.000000,0.693156,0.267090,-0.631409,0.222534,0.992797,0.090831,0.052741,-19.171078,-37.511795,66.596642
1703496131.886770,1703496131.887126,69.000000,0.000000,4250.384766,4234.871582,4317.307617,4296.922852,4231.025879,4221.410156,4232.436035,4266.025879,4218.974121,4221.282227,4572.179688,4484.358887,4404.615234,4466.025879,4951.000000,3.000000,74.000000,,,,0.000000,4.000000,4.000000,4.000000,4.000000,4.000000,4.000000,4.000000,4.000000,4.000000,4.000000,4.000000,4.000000,4.000000,4.000000,100.000000,,,,,,,,,,,,,,,,,,,,,,,,,,,,
1703496131.894578,1703496131.894934,70.000000,0.000000,4250.000000,4238.077148,4321.282227,4303.461426,4230.769043,4212.179688,4233.717773,4260.256348,4215.512695,4222.051270,4567.948730,4480.897461,4401.282227,4460.128418,2737.000000,3.000000,74.000000,,,,0.000000,4.000000,4.000000,4.000000,4.000000,4.000000,4.000000,4.000000,4.000000,4.000000,4.000000,4.000000,4.000000,4.000000,4.000000,100.000000,,,,,,,,,,,,,,,,,,,,,,,,,,,,
1703496131.902386,1703496131.902642,71.000000,0.000000,4251.538574,4239.615234,4322.179688,4304.743652,4231.282227,4203.974121,4230.128418,4260.769043,4208.333496,4217.436035,4566.794922,4480.512695,4398.717773,4459.358887,4108.000000,3.000000,74.000000,,,,0.000000,4.000000,4.000000,4.000000,4.000000,4.000000,4.000000,4.000000,4.000000,4.000000,4.000000,4.000000,4.000000,4.000000,4.000000,100.000000,,,,,,,,,,,,,,,,,,,,,,,,,,,,
1703496131.910194,1703496131.910450,72.000000,0.000000,4252.436035,4236.794922,4319.615234,4297.179688,4231.410156,4197.948730,4221.922852,4262.307617,4207.307617,4213.717773,4567.820313,4485.000000,4397.563965,4463.333496,4210.000000,3.000000,74.000000,,,,0.000000,4.000000,4.000000,4.000000,4.000000,4.000000,4.000000,4.000000,4.000000,4.000000,4.000000,4.000000,4.000000,4.000000,4.000000,100.000000,,,,,,,,,,,,,,,,,18.000000,0.000000,0.693145,0.267212,-0.631348,0.222595,0.988402,0.096203,0.060554,-19.053970,-37.677284,66.653641
1703496131.918002,1703496131.918158,73.000000,0.000000,4251.153809,4236.538574,4315.384766,4297.692383,4229.743652,4198.589844,4225.128418,4262.307617,4204.615234,4219.487305,4572.051270,4489.102539,4401.153809,4464.615234,5614.000000,3.000000,74.000000,,,,0.000000,4.000000,4.000000,4.000000,4.000000,4.000000,4.000000,4.000000,4.000000,4.000000,4.000000,4.000000,4.000000,4.000000,4.000000,100.000000,,,,,,,,,,,,,,,,,,,,,,,,,,,,
1703496131.925810,1703496131.925966,74.000000,0.000000,4249.358887,4237.051270,4309.102539,4299.230957,4232.692383,4205.512695,4230.641113,4262.179688,4189.615234,4217.563965,4576.666504,4488.717773,4407.179688,4467.692383,5938.000000,3.000000,74.000000,,,,0.000000,4.000000,4.000000,4.000000,4.000000,4.000000,4.000000,4.000000,4.000000,4.000000,4.000000,4.000000,4.000000,4.000000,4.000000,100.000000,,,,,,,,,,,,,,,,,,,,,,,,,,,,
1703496131.933618,1703496131.933674,75.000000,0.000000,4238.846191,4227.051270,4294.743652,4287.436035,4235.897461,4214.871582,4230.641113,4266.153809,4186.025879,4200.128418,4570.384766,4481.666504,4403.589844,4463.846191,6187.000000,3.000000,74.000000,,,,0.000000,4.000000,4.000000,4.000000,4.000000,4.000000,4.000000,4.000000,4.000000,4.000000,4.000000,4.000000,4.000000,4.000000,4.000000,100.000000,,,,,,,,,,,,,,,,,,,,,,,,,,,,
1703496131.941426,1703496131.941482,76.000000,0.000000,4218.717773,4211.153809,4278.589844,4274.102539,4232.307617,4230.128418,4234.358887,4280.256348,4201.666504,4197.051270,4558.077148,4468.205078,4391.153809,4444.487305,6676.000000,3.000000,74.000000,,,,0.000000,4.000000,4.000000,4.000000,4.000000,4.000000,4.000000,4.000000,4.000000,4.000000,4.000000,4.000000,4.000000,4.000000,4.000000,100.000000,,,,,,,,,,,,,,,,,19.000000,0.000000,0.693117,0.267334,-0.631348,0.222534,0.984007,0.105482,0.058601,-19.115240,-37.592888,66.688278
1703496131.949234,1703496131.949190,77.000000,0.000000,4202.563965,4201.666504,4262.948730,4265.769043,4231.794922,4245.128418,4239.487305,4294.230957,4211.794922,4202.307617,4550.384766,4450.128418,4379.743652,4422.820313,6462.000000,3.000000,74.000000,,,,0.000000,4.000000,4.000000,4.000000,4.000000,4.000000,4.000000,4.000000,4.000000,4.000000,4.000000,4.000000,4.000000,4.000000,4.000000,100.000000,,,,,,,,,,,,,,,,,,,,,,,,,,,,
1703496131.957042,1703496131.956998,78.000000,0.000000,4194.487305,4197.563965,4255.000000,4258.589844,4234.230957,4249.615234,4243.846191,4299.871582,4218.717773,4186.410156,4545.384766,4440.000000,4372.436035,4412.692383,5938.000000,3.000000,74.000000,,,,0.000000,4.000000,4.000000,4.000000,4.000000,4.000000,4.000000,4.000000,4.000000,4.000000,4.000000,4.000000,4.000000,4.000000,4.000000,100.000000,,,,,,,,,,,,,,,,,,,,,,,,,,,,
1703496131.964850,1703496131.964706,79.000000,0.000000,4195.769043,4198.974121,4263.589844,4262.307617,4234.358887,4249.358887,4240.769043,4305.769043,4228.846191,4182.948730,4547.051270,4447.820313,4371.794922,4414.358887,6187.000000,3.000000,74.000000,,,,0.000000,4.000000,4.000000,4.000000,4.000000,4.000000,4.000000,4.000000,4.000000,4.000000,4.000000,4.000000,4.000000,4.000000,4.000000,100.000000,,,,,,,,,,,,,,,,,,,,,,,,,,,,
1703496131.972658,1703496131.972614,80.000000,0.000000,4206.794922,4209.487305,4275.897461,4276.794922,4238.974121,4247.948730,4237.051270,4318.077148,4235.000000,4211.282227,4562.179688,4464.102539,4389.743652,4425.512695,6676.000000,3.000000,74.000000,,,,0.000000,4.000000,4.000000,4.000000,4.000000,4.000000,4.000000,4.000000,4.000000,4.000000,4.000000,4.000000,4.000000,4.000000,4.000000,100.000000,,,,,,,,,,,,,,,,,20.000000,0.000000,0.693133,0.267395,-0.631348,0.222412,0.992797,0.103040,0.056159,-19.103716,-37.533600,66.736115
1703496131.980466,1703496131.980422,81.000000,0.000000,4221.153809,4220.000000,4287.820313,4289.487305,4247.307617,4240.384766,4242.307617,4326.794922,4232.948730,4222.563965,4585.897461,4486.922852,4413.461426,4445.769043,6462.000000,3.000000,74.000000,,,,0.000000,4.000000,4.000000,4.000000,4.000000,4.000000,4.000000,4.000000,4.000000,4.000000,4.000000,4.000000,4.000000,4.000000,4.000000,100.000000,,,,,,,,,,,,,,,,,,,,,,,,,,,,
1703496131.988274,1703496131.988330,82.000000,0.000000,4234.102539,4227.563965,4302.692383,4302.820313,4249.487305,4232.051270,4243.333496,4318.589844,4221.153809,4203.974121,4594.358887,4508.461426,4415.641113,4464.358887,5938.000000,3.000000,74.000000,,,,0.000000,4.000000,4.000000,4.000000,4.000000,4.000000,4.000000,4.000000,4.000000,4.000000,4.000000,4.000000,4.000000,4.000000,4.000000,100.000000,,,,,,,,,,,,,,,,,,,,,,,,,,,,
1703496131.996082,1703496131.996138,83.000000,0.000000,4250.512695,4240.256348,4318.461426,4319.487305,4248.205078,4230.256348,4234.102539,4308.846191,4213.717773,4196.666504,4589.871582,4517.307617,4407.948730,4481.282227,6187.000000,3.000000,74.000000,,,,0.000000,4.000000,4.000000,4.000000,4.000000,4.000000,4.000000,4.000000,4.000000,4.000000,4.000000,4.000000,4.000000,4.000000,4.000000,100.000000,,,,,,,,,,,,,,,,,,,,,,,,,,,,
1703496132.003890,1703496132.004046,84.000000,0.000000,4266.538574,4251.666504,4335.256348,4329.615234,4247.563965,4227.179688,4233.717773,4313.846191,4216.538574,4211.666504,4596.794922,4532.436035,4420.000000,4504.615234,6676.000000,3.000000,74.000000,,,,0.000000,4.000000,4.000000,4.000000,4.000000,4.000000,4.000000,4.000000,4.000000,4.000000,4.000000,4.000000,4.000000,4.000000,4.000000,100.000000,,,,,,,,,,,,,,,,,21.000000,0.000000,0.693350,0.267273,-0.631226,0.222229,0.977170,0.092785,0.056648,-19.176678,-37.613571,66.745842
1703496132.011699,1703496132.011854,85.000000,0.000000,4272.179688,4249.871582,4348.717773,4329.358887,4236.794922,4214.358887,4237.692383,4317.948730,4211.410156,4224.615234,4606.666504,4545.897461,4433.077148,4516.153809,6462.000000,3.000000,74.000000,,,,0.000000,4.000000,4.000000,4.000000,4.000000,4.000000,4.000000,4.000000,4.000000,4.000000,4.000000,4.000000,4.000000,4.000000,4.000000,100.000000,,,,,,,,,,,,,,,,,,,,,,,,,,,,
1703496132.019507,1703496132.019762,86.000000,0.000000,4270.641113,4240.256348,4345.897461,4323.846191,4221.922852,4199.871582,4229.743652,4307.051270,4198.077148,4216.153809,4602.307617,4535.897461,4420.897461,4503.589844,5938.000000,3.000000,74.000000,,,,0.000000,4.000000,4.000000,4.000000,4.000000,4.000000,4.000000,4.000000,4.000000,4.000000,4.000000,4.000000,4.000000,4.000000,4.000000,100.000000,,,,,,,,,,,,,,,,,,,,,,,,,,,,
1703496132.027315,1703496132.027570,87.000000,0.000000,4258.589844,4222.436035,4326.410156,4309.358887,4215.256348,4193.461426,4222.307617,4297.179688,4194.230957,4199.615234,4587.820313,4513.589844,4403.717773,4484.871582,6187.000000,3.000000,74.000000,,,,0.000000,4.000000,4.000000,4.000000,4.000000,4.000000,4.000000,4.000000,4.000000,4.000000,4.000000,4.000000,4.000000,4.000000,4.000000,100.000000,,,,,,,,,,,,,,,,,,,,,,,,,,,,
1703496132.035123,1703496132.035477,88.000000,0.000000,4228.205078,4197.179688,4305.384766,4283.333496,4208.461426,4193.717773,4218.589844,4301.025879,4199.743652,4195.384766,4566.666504,4490.256348,4387.179688,4458.205078,6676.000000,3.000000,74.000000,,,,0.000000,4.000000,4.000000,4.000000,4.000000,4.000000,4.000000,4.000000,4.000000,4.000000,4.000000,4.000000,4.000000,4.000000,4.000000,100.000000,,,,,,,,,,,,,,,,,22.000000,0.000000,0.693234,0.267090,-0.631409,0.222290,0.969357,0.101087,0.058601,-19.225677,-37.485550,66.721252
1703496132.042931,1703496132.043285,89.000000,0.000000,4199.358887,4180.384766,4290.512695,4258.974121,4200.128418,4194.358887,4216.538574,4308.077148,4205.641113,4196.666504,4540.897461,4468.077148,4363.077148,4420.128418,6462.000000,3.000000,74.000000,,,,0.000000,4.000000,4.000000,4.000000,4.000000,4.000000,4.000000,4.000000,4.000000,4.000000,4.000000,4.000000,4.000000,4.000000,4.000000,100.000000,,,,,,,,,,,,,,,,,,,,,,,,,,,,
1703496132.050739,1703496132.050993,90.000000,0.000000,4184.487305,4168.333496,4274.743652,4243.717773,4203.461426,4197.436035,4217.563965,4318.461426,4213.846191,4197.436035,4530.769043,4453.205078,4350.128418,4395.128418,5938.000000,3.000000,74.000000,,,,0.000000,4.000000,4.000000,4.000000,4.000000,4.000000,4.000000,4.000000,4.000000,4.000000,4.000000,4.000000,4.000000,4.000000,4.000000,100.000000,,,,,,,,,,,,,,,,,,,,,,,,,,,,
1703496132.058547,1703496132.058801,91.000000,0.000000,4178.717773,4164.487305,4262.820313,4239.230957,4213.205078,4211.922852,4222.307617,4327.051270,4217.692383,4198.974121,4534.230957,4451.153809,4352.692383,4389.743652,6187.000000,3.000000,74.000000,,,,0.000000,4.000000,4.000000,4.000000,4.000000,4.000000,4.000000,4.000000,4.000000,4.000000,4.000000,4.000000,4.000000,4.000000,4.000000,100.000000,,,,,,,,,,,,,,,,,,,,,,,,,,,,
1703496132.066355,1703496132.066510,92.000000,0.000000,4177.563965,4174.358887,4265.128418,4242.692383,4218.717773,4228.589844,4230.897461,4324.743652,4219.743652,4198.717773,4532.436035,4455.000000,4355.256348,4392.692383,6676.000000,3.000000,74.000000,,,,0.000000,4.000000,4.000000,4.000000,4.000000,4.000000,4.000000,4.000000,4.000000,4.000000,4.000000,4.000000,4.000000,4.000000,4.000000,100.000000,,,,,,,,,,,,,,,,,23.000000,0.000000,0.693325,0.266846,-0.631348,0.222473,0.983518,0.087901,0.068856,-19.069777,-37.520329,66.649132
1703496132.074163,1703496132.074318,93.000000,0.000000,4180.384766,4181.666504,4266.538574,4248.205078,4226.794922,4230.000000,4234.102539,4313.589844,4222.692383,4202.820313,4540.128418,4456.538574,4358.077148,4400.769043,6462.000000,3.000000,74.000000,,,,0.000000,4.000000,4.000000,4.000000,4.000000,4.000000,4.000000,4.000000,4.000000,4.000000,4.000000,4.000000,4.000000,4.000000,4.000000,100.000000,,,,,,,,,,,,,,,,,,,,,,,,,,,,
1703496132.081971,1703496132.082026,94.000000,0.000000,4192.692383,4190.128418,4265.769043,4256.794922,4232.948730,4220.000000,4231.922852,4301.666504,4217.436035,4213.205078,4559.358887,4462.051270,4366.666504,4412.948730,5938.000000,3.000000,74.000000,,,,0.000000,4.000000,4.000000,4.000000,4.000000,4.000000,4.000000,4.000000,4.000000,4.000000,4.000000,4.000000,4.000000,4.000000,4.000000,100.000000,,,,,,,,,,,,,,,,,,,,,,,,,,,,
1703496132.089779,1703496132.089933,95.000000,0.000000,4211.666504,4211.153809,4275.641113,4275.769043,4232.051270,4217.820313,4232.051270,4297.307617,4214.487305,4221.410156,4575.897461,4476.153809,4379.487305,4427.692383,6187.000000,3.000000,74.000000,,,,0.000000,4.000000,4.000000,4.000000,4.000000,4.000000,4.000000,4.000000,4.000000,4.000000,4.000000,4.000000,4.000000,4.000000,4.000000,100.000000,,,,,,,,,,,,,,,,,,,,,,,,,,,,
1703496132.097587,1703496132.097741,96.000000,0.000000,4220.641113,4227.436035,4284.615234,4292.692383,4234.615234,4220.384766,4233.077148,4296.282227,4218.461426,4223.846191,4593.077148,4489.487305,4391.666504,4445.000000,6676.000000,3.000000,74.000000,,,,0.000000,4.000000,4.000000,4.000000,4.000000,4.000000,4.000000,4.000000,4.000000,4.000000,4.000000,4.000000,4.000000,4.000000,4.000000,100.000000,,,,,,,,,,,,,,,,,24.000000,0.000000,0.693286,0.266846,-0.631348,0.222595,0.986937,0.086436,0.060554,-19.162798,-37.568295,66.567551
1703496132.105395,1703496132.105649,97.000000,0.000000,4228.461426,4231.410156,4291.153809,4297.563965,4238.461426,4210.256348,4232.563965,4294.743652,4220.000000,4236.666504,4614.615234,4500.384766,4403.717773,4464.358887,6462.000000,3.000000,74.000000,,,,0.000000,4.000000,4.000000,4.000000,4.000000,4.000000,4.000000,4.000000,4.000000,4.000000,4.000000,4.000000,4.000000,4.000000,4.000000,100.000000,,,,,,,,,,,,,,,,,,,,,,,,,,,,
1703496132.113203,1703496132.113457,98.000000,0.000000,4244.358887,4246.538574,4300.897461,4308.333496,4237.179688,4205.128418,4231.666504,4294.230957,4220.000000,4257.307617,4632.563965,4512.307617,4423.461426,4485.512695,5938.000000,3.000000,74.000000,,,,0.000000,4.000000,4.000000,4.000000,4.000000,4.000000,4.000000,4.000000,4.000000,4.000000,4.000000,4.000000,4.000000,4.000000,4.000000,100.000000,,,,,,,,,,,,,,,,,,,,,,,,,,,,
1703496132.121011,1703496132.121265,99.000000,0.000000,4246.666504,4256.153809,4303.846191,4318.077148,4235.512695,4210.256348,4232.051270,4296.153809,4221.153809,4263.974121,4636.282227,4512.948730,4433.205078,4490.000000,6187.000000,3.000000,74.000000,,,,0.000000,4.000000,4.000000,4.000000,4.000000,4.000000,4.000000,4.000000,4.000000,4.000000,4.000000,4.000000,4.000000,4.000000,4.000000,100.000000,,,,,,,,,,,,,,,,,,,,,,,,,,,,
1703496132.128819,1703496132.128973,100.000000,0.000000,4227.563965,4240.897461,4288.333496,4306.025879,4236.794922,4209.230957,4232.692383,4290.769043,4218.717773,4245.897461,4622.436035,4494.743652,4413.589844,4466.922852,6676.000000,3.000000,74.000000,,,,0.000000,4.000000,4.000000,4.000000,4.000000,4.000000,4.000000,4.000000,4.000000,4.000000,4.000000,4.000000,4.000000,4.000000,4.000000,100.000000,,,,,,,,,,,,,,,,,25.000000,0.000000,0.693310,0.266724,-0.631287,0.222839,0.990844,0.094738,0.066414,-18.946518,-37.611465,66.644127
1703496132.136627,1703496132.136781,101.000000,0.000000,4212.692383,4229.615234,4267.563965,4294.230957,4231.666504,4205.512695,4233.461426,4282.051270,4215.897461,4232.436035,4604.615234,4477.948730,4389.871582,4447.436035,6462.000000,3.000000,74.000000,,,,0.000000,4.000000,4.000000,4.000000,4.000000,4.000000,4.000000,4.000000,4.000000,4.000000,4.000000,4.000000,4.000000,4.000000,4.000000,100.000000,,,,,,,,,,,,,,,,,,,,,,,,,,,,
1703496132.144435,1703496132.144489,102.000000,0.000000,4213.717773,4231.025879,4266.282227,4296.794922,4219.487305,4213.461426,4233.205078,4288.205078,4223.461426,4240.384766,4596.153809,4479.230957,4382.948730,4447.051270,5938.000000,3.000000,74.000000,,,,0.000000,4.000000,4.000000,4.000000,4.000000,4.000000,4.000000,4.000000,4.000000,4.000000,4.000000,4.000000,4.000000,4.000000,4.000000,100.000000,,,,,,,,,,,,,,,,,,,,,,,,,,,,
1703496132.152243,1703496132.152397,103.000000,0.000000,4218.205078,4227.051270,4275.769043,4290.000000,4213.461426,4227.307617,4233.717773,4296.282227,4238.717773,4244.102539,4592.436035,4482.692383,4380.384766,4447.948730,6187.000000,3.000000,74.000000,,,,0.000000,4.000000,4.000000,4.000000,4.000000,4.000000,4.000000,4.000000,4.000000,4.000000,4.000000,4.000000,4.000000,4.000000,4.000000,100.000000,,,,,,,,,,,,,,,,,,,,,,,,,,,,
1703496132.160051,1703496132.160205,104.000000,0.000000,4216.794922,4214.230957,4284.358887,4278.205078,4216.922852,4232.948730,4240.128418,4291.794922,4247.179688,4238.974121,4584.358887,4478.205078,4373.461426,4441.922852,6676.000000,3.000000,74.000000,,,,0.000000,4.000000,4.000000,4.000000,4.000000,4.000000,4.000000,4.000000,4.000000,4.000000,4.000000,4.000000,4.000000,4.000000,4.000000,100.000000,,,,,,,,,,,,,,,,,26.000000,0.000000,0.693301,0.266602,-0.631348,0.222839,0.994262,0.094738,0.064461,-18.985199,-37.550320,66.696381
1703496132.167859,1703496132.168113,105.000000,0.000000,4211.794922,4202.692383,4288.846191,4274.743652,4217.948730,4230.641113,4240.384766,4280.000000,4239.871582,4233.589844,4569.487305,4470.512695,4360.000000,4432.179688,6462.000000,3.000000,74.000000,,,,0.000000,4.000000,4.000000,4.000000,4.000000,4.000000,4.000000,4.000000,4.000000,4.000000,4.000000,4.000000,4.000000,4.000000,4.000000,100.000000,,,,,,,,,,,,,,,,,,,,,,,,,,,,
1703496132.175667,1703496132.175921,106.000000,0.000000,4212.179688,4200.128418,4287.948730,4270.256348,4216.025879,4230.897461,4235.256348,4268.333496,4234.487305,4236.922852,4555.384766,4458.846191,4347.307617,4423.717773,5938.000000,3.000000,74.000000,,,,0.000000,4.000000,4.000000,4.000000,4.000000,4.000000,4.000000,4.000000,4.000000,4.000000,4.000000,4.000000,4.000000,4.000000,4.000000,100.000000,1.000000,91.666664,4.000000,4.000000,3.000000,4.000000,4.000000,4.000000,4.000000,4.000000,4.000000,4.000000,4.000000,4.000000,4.000000,4.000000,,,,,,,,,,,,
1703496132.183476,1703496132.183829,107.000000,0.000000,4215.512695,4199.102539,4284.871582,4264.102539,4218.974121,4233.589844,4236.666504,4258.077148,4238.077148,4239.615234,4547.692383,4446.794922,4347.179688,4417.051270,6187.000000,3.000000,74.000000,,,,0.000000,4.000000,4.000000,4.000000,4.000000,4.000000,4.000000,4.000000,4.000000,4.000000,4.000000,4.000000,4.000000,4.000000,4.000000,100.000000,,,,,,,,,,,,,,,,,,,,,,,,,,,,
1703496132.191284,1703496132.191637,108.000000,0.000000,4214.358887,4192.179688,4279.230957,4262.179688,4221.922852,4225.512695,4236.922852,4243.333496,4227.051270,4217.563965,4536.282227,4434.102539,4340.897461,4406.538574,6676.000000,3.000000,74.000000,,,,0.000000,4.000000,4.000000,4.000000,4.000000,4.000000,4.000000,4.000000,4.000000,4.000000,4.000000,4.000000,4.000000,4.000000,4.000000,100.000000,,,,,,,,,,,,,,,,,27.000000,0.000000,0.693237,0.266479,-0.631470,0.222839,0.991820,0.090343,0.055671,-19.003347,-37.595287,66.726746
1703496132.199092,1703496132.199545,109.000000,0.000000,4214.487305,4190.897461,4272.692383,4263.333496,4220.256348,4214.487305,4235.000000,4222.563965,4205.512695,4185.384766,4517.051270,4422.307617,4323.077148,4398.333496,6462.000000,3.000000,74.000000,,,,0.000000,4.000000,4.000000,4.000000,4.000000,4.000000,4.000000,4.000000,4.000000,4.000000,4.000000,4.000000,4.000000,4.000000,4.000000,100.000000,,,,,,,,,,,,,,,,,,,,,,,,,,,,
1703496132.206900,1703496132.207353,110.000000,0.000000,4217.307617,4200.384766,4274.871582,4265.512695,4218.333496,4213.205078,4234.358887,4208.333496,4196.153809,4178.461426,4506.922852,4420.897461,4318.077148,4398.717773,5938.000000,3.000000,74.000000,,,,0.000000,4.000000,4.000000,4.000000,4.000000,4.000000,4.000000,4.000000,4.000000,4.000000,4.000000,4.000000,4.000000,4.000000,4.000000,100.000000,,,,,,,,,,,,,,,,,,,,,,,,,,,,
1703496132.214708,1703496132.215261,111.000000,0.000000,4218.974121,4204.358887,4280.384766,4266.410156,4217.692383,4214.487305,4234.230957,4213.589844,4198.461426,4186.666504,4510.256348,4428.461426,4321.666504,4401.794922,6187.000000,3.000000,74.000000,,,,0.000000,4.000000,4.000000,4.000000,4.000000,4.000000,4.000000,4.000000,4.000000,4.000000,4.000000,4.000000,4.000000,4.000000,4.000000,100.000000,,,,,,,,,,,,,,,,,,,,,,,,,,,,
1703496132.222516,1703496132.223069,112.000000,0.000000,4216.666504,4200.641113,4277.692383,4262.820313,4218.846191,4214.615234,4238.461426,4226.282227,4199.358887,4177.692383,4513.333496,4434.487305,4317.179688,4404.743652,6676.000000,3.000000,74.000000,,,,0.000000,4.000000,4.000000,4.000000,4.000000,4.000000,4.000000,4.000000,4.000000,4.000000,4.000000,4.000000,4.000000,4.000000,4.000000,100.000000,,,,,,,,,,,,,,,,,28.000000,0.000000,0.693272,0.266541,-0.631470,0.222656,0.987914,0.090343,0.049811,-19.003012,-37.585758,66.687401
1703496132.230324,1703496132.230777,113.000000,0.000000,4215.769043,4199.871582,4271.922852,4260.256348,4216.410156,4216.538574,4243.205078,4231.538574,4200.128418,4173.589844,4518.974121,4442.179688,4325.384766,4415.256348,6462.000000,3.000000,74.000000,,,,0.000000,4.000000,4.000000,4.000000,4.000000,4.000000,4.000000,4.000000,4.000000,4.000000,4.000000,4.000000,4.000000,4.000000,4.000000,100.000000,,,,,,,,,,,,,,,,,,,,,,,,,,,,
1703496132.238132,1703496132.238585,114.000000,0.000000,4217.307617,4199.871582,4272.563965,4261.153809,4207.692383,4218.333496,4237.436035,4233.717773,4203.461426,4183.589844,4532.436035,4453.717773,4348.077148,4433.974121,5938.000000,3.000000,74.000000,,,,0.000000,4.000000,4.000000,4.000000,4.000000,4.000000,4.000000,4.000000,4.000000,4.000000,4.000000,4.000000,4.000000,4.000000,4.000000,100.000000,,,,,,,,,,,,,,,,,,,,,,,,,,,,
1703496132.245940,1703496132.246492,115.000000,0.000000,4215.641113,4197.436035,4279.358887,4261.666504,4202.820313,4214.230957,4231.025879,4235.769043,4206.410156,4187.563965,4540.769043,4459.871582,4353.333496,4442.179688,6187.000000,3.000000,74.000000,,,,0.000000,4.000000,4.000000,4.000000,4.000000,4.000000,4.000000,4.000000,4.000000,4.000000,4.000000,4.000000,4.000000,4.000000,4.000000,100.000000,,,,,,,,,,,,,,,,,,,,,,,,,,,,
1703496132.253748,1703496132.254300,116.000000,0.000000,4217.307617,4196.794922,4285.128418,4262.436035,4202.051270,4207.563965,4232.563965,4237.692383,4210.384766,4190.897461,4545.769043,4461.410156,4351.282227,4442.692383,6676.000000,3.000000,74.000000,,,,0.000000,4.000000,4.000000,4.000000,4.000000,4.000000,4.000000,4.000000,4.000000,4.000000,4.000000,4.000000,4.000000,4.000000,4.000000,100.000000,,,,,,,,,,,,,,,,,29.000000,0.000000,0.693357,0.266907,-0.631287,0.222473,0.982053,0.097180,0.065926,-19.136044,-37.693848,66.785332
1703496132.261556,1703496132.262008,117.000000,0.000000,4228.461426,4201.922852,4289.230957,4268.077148,4200.769043,4203.717773,4234.230957,4231.538574,4215.897461,4197.820313,4555.384766,4467.692383,4365.512695,4453.846191,6462.000000,3.000000,74.000000,,,,0.000000,4.000000,4.000000,4.000000,4.000000,4.000000,4.000000,4.000000,4.000000,4.000000,4.000000,4.000000,4.000000,4.000000,4.000000,100.000000,,,,,,,,,,,,,,,,,,,,,,,,,,,,
1703496132.269364,1703496132.269816,118.000000,0.000000,4236.538574,4204.743652,4296.922852,4274.358887,4206.666504,4200.769043,4232.436035,4217.948730,4219.871582,4207.307617,4561.025879,4475.384766,4376.410156,4465.769043,5938.000000,3.000000,74.000000,,,,0.000000,4.000000,4.000000,4.000000,4.000000,4.000000,4.000000,4.000000,4.000000,4.000000,4.000000,4.000000,4.000000,4.000000,4.000000,100.000000,,,,,,,,,,,,,,,,,,,,,,,,,,,,
1703496132.277172,1703496132.277525,119.000000,0.000000,4232.948730,4199.487305,4301.282227,4270.512695,4211.410156,4193.205078,4232.307617,4203.461426,4214.230957,4212.820313,4556.025879,4471.282227,4366.794922,4462.820313,6187.000000,3.000000,74.000000,,,,0.000000,4.000000,4.000000,4.000000,4.000000,4.000000,4.000000,4.000000,4.000000,4.000000,4.000000,4.000000,4.000000,4.000000,4.000000,100.000000,,,,,,,,,,,,,,,,,,,,,,,,,,,,
1703496132.284980,1703496132.285332,120.000000,0.000000,4232.436035,4199.487305,4301.794922,4265.256348,4205.641113,4185.641113,4230.256348,4186.794922,4197.436035,4203.974121,4546.282227,4460.512695,4357.307617,4454.615234,6676.000000,3.000000,74.000000,,,,0.000000,4.000000,4.000000,4.000000,4.000000,4.000000,4.000000,4.000000,4.000000,4.000000,4.000000,4.000000,4.000000,4.000000,4.000000,100.000000,,,,,,,,,,,,,,,,,30.000000,0.000000,0.693235,0.267029,-0.631348,0.222534,0.991332,0.086436,0.054206,-19.072439,-37.674465,66.706795
1703496132.292788,1703496132.293041,121.000000,0.000000,4234.230957,4200.256348,4298.077148,4269.102539,4203.333496,4181.666504,4222.948730,4169.230957,4185.384766,4189.487305,4538.846191,4451.538574,4361.025879,4452.436035,6462.000000,3.000000,74.000000,,,,0.000000,4.000000,4.000000,4.000000,4.000000,4.000000,4.000000,4.000000,4.000000,4.000000,4.000000,4.000000,4.000000,4.000000,4.000000,100.000000,,,,,,,,,,,,,,,,,,,,,,,,,,,,
1703496132.300596,1703496132.300849,122.000000,0.000000,4220.128418,4189.358887,4285.384766,4262.820313,4204.358887,4181.025879,4220.641113,4161.153809,4182.692383,4177.563965,4524.743652,4436.153809,4349.358887,4438.205078,5938.000000,3.000000,74.000000,,,,0.000000,4.000000,4.000000,4.000000,4.000000,4.000000,4.000000,4.000000,4.000000,4.000000,4.000000,4.000000,4.000000,4.000000,4.000000,100.000000,,,,,,,,,,,,,,,,,,,,,,,,,,,,
1703496132.308404,1703496132.308557,123.000000,0.000000,4206.666504,4181.282227,4270.769043,4248.205078,4203.461426,4187.820313,4225.000000,4170.512695,4185.897461,4173.333496,4505.769043,4415.641113,4327.820313,4415.000000,6187.000000,3.000000,74.000000,,,,0.000000,4.000000,4.000000,4.000000,4.000000,4.000000,4.000000,4.000000,4.000000,4.000000,4.000000,4.000000,4.000000,4.000000,4.000000,100.000000,,,,,,,,,,,,,,,,,,,,,,,,,,,,
1703496132.316212,1703496132.316365,124.000000,0.000000,4210.897461,4184.102539,4265.128418,4243.077148,4205.769043,4201.538574,4227.692383,4187.436035,4192.436035,4181.025879,4505.512695,4412.051270,4333.974121,4414.615234,6676.000000,3.000000,74.000000,,,,0.000000,4.000000,4.000000,4.000000,4.000000,4.000000,4.000000,4.000000,4.000000,4.000000,4.000000,4.000000,4.000000,4.000000,4.000000,100.000000,,,,,,,,,,,,,,,,,31.000000,0.000000,0.693111,0.266968,-0.631531,0.222473,1.002564,0.094738,0.059089,-19.031862,-37.540352,66.686119
1703496132.324021,1703496132.324073,125.000000,0.000000,4213.333496,4181.410156,4266.153809,4238.333496,4205.256348,4212.563965,4229.615234,4198.333496,4201.922852,4186.794922,4517.948730,4425.256348,4349.358887,4427.051270,6462.000000,3.000000,74.000000,,,,0.000000,4.000000,4.000000,4.000000,4.000000,4.000000,4.000000,4.000000,4.000000,4.000000,4.000000,4.000000,4.000000,4.000000,4.000000,100.000000,,,,,,,,,,,,,,,,,,,,,,,,,,,,
1703496132.331828,1703496132.331881,126.000000,0.000000,4208.333496,4180.000000,4263.205078,4230.000000,4206.025879,4213.205078,4231.538574,4198.461426,4210.000000,4183.333496,4518.205078,4423.589844,4343.461426,4425.641113,5938.000000,3.000000,74.000000,,,,0.000000,4.000000,4.000000,4.000000,4.000000,4.000000,4.000000,4.000000,4.000000,4.000000,4.000000,4.000000,4.000000,4.000000,4.000000,100.000000,,,,,,,,,,,,,,,,,,,,,,,,,,,,
1703496132.339636,1703496132.339589,127.000000,0.000000,4213.205078,4193.461426,4261.538574,4234.871582,4209.615234,4215.512695,4234.615234,4200.256348,4215.384766,4196.025879,4521.282227,4419.358887,4346.794922,4427.436035,74.000000,3.000000,74.000000,,,,0.000000,4.000000,4.000000,4.000000,4.000000,4.000000,4.000000,4.000000,4.000000,4.000000,4.000000,4.000000,4.000000,4.000000,4.000000,100.000000,,,,,,,,,,,,,,,,,,,,,,,,,,,,
1703496132.347445,1703496132.347497,0.000000,0.000000,4218.974121,4202.179688,4262.820313,4243.589844,4206.410156,4225.897461,4236.538574,4203.846191,4223.333496,4217.179688,4538.974121,4435.641113,4371.025879,4449.487305,4781.000000,3.000000,74.000000,,,,0.000000,4.000000,4.000000,4.000000,4.000000,4.000000,4.000000,4.000000,4.000000,4.000000,4.000000,4.000000,4.000000,4.000000,4.000000,100.000000,,,,,,,,,,,,,,,,,0.000000,0.000000,0.693083,0.266846,-0.631592,0.222534,0.993774,0.097180,0.050787,-19.112009,-37.619648,66.617508
1703496132.355253,1703496132.355305,1.000000,0.000000,4214.615234,4200.512695,4258.974121,4241.666504,4208.205078,4231.922852,4237.179688,4202.307617,4237.948730,4222.436035,4551.794922,4450.384766,4387.051270,4465.000000,5627.000000,3.000000,74.000000,,,,0.000000,4.000000,4.000000,4.000000,4.000000,4.000000,4.000000,4.000000,4.000000,4.000000,4.000000,4.000000,4.000000,4.000000,4.000000,100.000000,,,,,,,,,,,,,,,,,,,,,,,,,,,,
1703496132.363061,1703496132.363212,2.000000,0.000000,4224.743652,4212.563965,4262.179688,4248.974121,4222.051270,4234.487305,4243.333496,4207.692383,4251.538574,4234.230957,4564.743652,4460.384766,4399.871582,4476.410156,5409.000000,3.000000,74.000000,,,,0.000000,4.000000,4.000000,4.000000,4.000000,4.000000,4.000000,4.000000,4.000000,4.000000,4.000000,4.000000,4.000000,4.000000,4.000000,100.000000,,,,,,,,,,,,,,,,,,,,,,,,,,,,
1703496132.370869,1703496132.371020,3.000000,0.000000,4246.794922,4232.179688,4278.461426,4264.358887,4226.153809,4235.512695,4246.666504,4214.230957,4251.025879,4255.897461,4582.563965,4474.358887,4418.589844,4503.461426,5422.000000,3.000000,74.000000,,,,0.000000,4.000000,4.000000,4.000000,4.000000,4.000000,4.000000,4.000000,4.000000,4.000000,4.000000,4.000000,4.000000,4.000000,4.000000,100.000000,,,,,,,,,,,,,,,,,,,,,,,,,,,,
1703496132.378677,1703496132.378928,4.000000,0.000000,4250.641113,4233.974121,4287.436035,4270.384766,4217.179688,4225.897461,4235.000000,4200.641113,4238.077148,4253.333496,4580.769043,4476.538574,4417.179688,4510.384766,5344.000000,3.000000,74.000000,,,,0.000000,4.000000,4.000000,4.000000,4.000000,4.000000,4.000000,4.000000,4.000000,4.000000,4.000000,4.000000,4.000000,4.000000,4.000000,100.000000,,,,,,,,,,,,,,,,,1.000000,0.000000,0.693071,0.266724,-0.631592,0.222717,0.972775,0.094250,0.050299,-19.034142,-37.657684,66.605751
1703496132.386485,1703496132.386736,5.000000,0.000000,4249.487305,4235.128418,4294.102539,4279.230957,4216.666504,4213.077148,4230.641113,4183.846191,4230.512695,4242.307617,4570.256348,4468.717773,4405.897461,4494.102539,4951.000000,3.000000,74.000000,,,,0.000000,4.000000,4.000000,4.000000,4.000000,4.000000,4.000000,4.000000,4.000000,4.000000,4.000000,4.000000,4.000000,4.000000,4.000000,100.000000,,,,,,,,,,,,,,,,,,,,,,,,,,,,
1703496132.394293,1703496132.394644,6.000000,0.000000,4264.871582,4250.769043,4303.077148,4298.205078,4223.205078,4211.025879,4236.282227,4190.384766,4239.102539,4253.205078,4578.974121,4470.000000,4415.897461,4498.333496,2737.000000,3.000000,74.000000,,,,0.000000,4.000000,4.000000,4.000000,4.000000,4.000000,4.000000,4.000000,4.000000,4.000000,4.000000,4.000000,4.000000,4.000000,4.000000,100.000000,,,,,,,,,,,,,,,,,,,,,,,,,,,,
1703496132.402101,1703496132.402452,7.000000,0.000000,4271.410156,4254.230957,4300.641113,4302.179688,4221.922852,4212.692383,4234.358887,4204.102539,4252.692383,4260.000000,4586.922852,4471.410156,4422.563965,4503.589844,4109.000000,3.000000,74.000000,,,,0.000000,4.000000,4.000000,4.000000,4.000000,4.000000,4.000000,4.000000,4.000000,4.000000,4.000000,4.000000,4.000000,4.000000,4.000000,100.000000,,,,,,,,,,,,,,,,,,,,,,,,,,,,
1703496132.409909,1703496132.410360,8.000000,0.000000,4255.384766,4239.358887,4290.769043,4282.051270,4211.666504,4212.948730,4232.051270,4205.641113,4254.487305,4242.307617,4572.436035,4461.153809,4401.538574,4482.948730,4208.000000,3.000000,74.000000,,,,0.000000,4.000000,4.000000,4.000000,4.000000,4.000000,4.000000,4.000000,4.000000,4.000000,4.000000,4.000000,4.000000,4.000000,4.000000,100.000000,,,,,,,,,,,,,,,,,2.000000,0.000000,0.693048,0.266724,-0.631531,0.222961,0.973752,0.075693,0.062996,-19.180727,-37.658581,66.445183
1703496132.417717,1703496132.418168,9.000000,0.000000,4246.153809,4226.666504,4285.769043,4265.769043,4205.641113,4213.333496,4234.230957,4206.666504,4250.128418,4223.717773,4554.743652,4451.538574,4383.589844,4466.794922,5607.000000,3.000000,74.000000,,,,0.000000,4.000000,4.000000,4.000000,4.000000,4.000000,4.000000,4.000000,4.000000,4.000000,4.000000,4.000000,4.000000,4.000000,4.000000,100.000000,,,,,,,,,,,,,,,,,,,,,,,,,,,,
1703496132.425525,1703496132.426076,10.000000,0.000000,4248.717773,4219.102539,4288.077148,4260.512695,4204.871582,4211.666504,4232.948730,4208.589844,4244.743652,4215.897461,4545.384766,4450.384766,4375.641113,4463.717773,5938.000000,3.000000,74.000000,,,,0.000000,4.000000,4.000000,4.000000,4.000000,4.000000,4.000000,4.000000,4.000000,4.000000,4.000000,4.000000,4.000000,4.000000,4.000000,100.000000,,,,,,,,,,,,,,,,,,,,,,,,,,,,
1703496132.433333,1703496132.433884,11.000000,0.000000,4247.051270,4213.717773,4285.512695,4252.820313,4203.205078,4213.333496,4230.769043,4198.589844,4237.307617,4213.205078,4535.000000,4447.179688,4365.384766,4455.512695,6190.000000,3.000000,74.000000,,,,0.000000,4.000000,4.000000,4.000000,4.000000,4.000000,4.000000,4.000000,4.000000,4.000000,4.000000,4.000000,4.000000,4.000000,4.000000,100.000000,,,,,,,,,,,,,,,,,,,,,,,,,,,,
1703496132.441141,1703496132.441592,12.000000,0.000000,4243.589844,4215.000000,4281.153809,4246.153809,4206.410156,4217.051270,4233.077148,4185.128418,4227.820313,4209.615234,4526.282227,4439.615234,4362.820313,4454.102539,6676.000000,3.000000,74.000000,,,,0.000000,4.000000,4.000000,4.000000,4.000000,4.000000,4.000000,4.000000,4.000000,4.000000,4.000000,4.000000,4.000000,4.000000,4.000000,100.000000,,,,,,,,,,,,,,,,,3.000000,0.000000,0.693127,0.266663,-0.631470,0.222961,0.993774,0.082041,0.059089,-19.095987,-37.609390,66.617325
1703496132.448949,1703496132.449400,13.000000,0.000000,4242.692383,4217.948730,4284.358887,4250.128418,4214.487305,4216.282227,4231.282227,4182.948730,4220.256348,4200.256348,4526.922852,4442.179688,4367.820313,4461.666504,6472.000000,3.000000,74.000000,,,,0.000000,4.000000,4.000000,4.000000,4.000000,4.000000,4.000000,4.000000,4.000000,4.000000,4.000000,4.000000,4.000000,4.000000,4.000000,100.000000,,,,,,,,,,,,,,,,,,,,,,,,,,,,
1703496132.456757,1703496132.457108,14.000000,0.000000,4243.589844,4215.384766,4287.051270,4255.512695,4217.307617,4214.358887,4227.692383,4191.410156,4220.897461,4198.205078,4534.871582,4454.743652,4372.307617,4467.051270,5938.000000,3.000000,74.000000,,,,0.000000,4.000000,4.000000,4.000000,4.000000,4.000000,4.000000,4.000000,4.000000,4.000000,4.000000,4.000000,4.000000,4.000000,4.000000,100.000000,,,,,,,,,,,,,,,,,,,,,,,,,,,,
1703496132.464565,1703496132.464916,15.000000,0.000000,4245.128418,4214.230957,4290.128418,4257.563965,4215.384766,4212.692383,4228.589844,4201.922852,4227.436035,4206.666504,4542.563965,4462.436035,4379.871582,4474.102539,6190.000000,3.000000,74.000000,,,,0.000000,4.000000,4.000000,4.000000,4.000000,4.000000,4.000000,4.000000,4.000000,4.000000,4.000000,4.000000,4.000000,4.000000,4.000000,100.000000,,,,,,,,,,,,,,,,,,,,,,,,,,,,
1703496132.472373,1703496132.472624,16.000000,0.000000,4249.358887,4225.128418,4296.538574,4268.974121,4222.307617,4214.230957,4225.512695,4197.563965,4227.436035,4210.897461,4551.410156,4463.077148,4390.384766,4485.256348,0.000000,3.000000,74.000000,,,,0.000000,4.000000,4.000000,4.000000,4.000000,4.000000,4.000000,4.000000,4.000000,4.000000,4.000000,4.000000,4.000000,4.000000,4.000000,100.000000,,,,,,,,,,,,,,,,,4.000000,0.000000,0.693126,0.266479,-0.631592,0.222839,0.989867,0.096691,0.056159,-19.053057,-37.565117,66.605598
1703496132.480181,1703496132.480432,17.000000,0.000000,4259.358887,4243.974121,4306.410156,4290.769043,4240.384766,4212.820313,4223.333496,4185.512695,4221.153809,4224.102539,4565.769043,4468.589844,4404.102539,4502.179688,0.000000,3.000000,74.000000,,,,0.000000,4.000000,4.000000,4.000000,4.000000,4.000000,4.000000,4.000000,4.000000,4.000000,4.000000,4.000000,4.000000,4.000000,4.000000,100.000000,,,,,,,,,,,,,,,,,,,,,,,,,,,,
1703496132.487990,1703496132.488140,18.000000,0.000000,4273.077148,4255.384766,4313.077148,4307.307617,4253.461426,4206.025879,4228.589844,4181.538574,4216.282227,4236.922852,4574.743652,4476.922852,4418.589844,4512.179688,0.000000,3.000000,74.000000,,,,0.000000,4.000000,4.000000,4.000000,4.000000,4.000000,4.000000,4.000000,4.000000,4.000000,4.000000,4.000000,4.000000,4.000000,4.000000,100.000000,,,,,,,,,,,,,,,,,,,,,,,,,,,,
1703496132.495798,1703496132.496048,19.000000,0.000000,4268.077148,4249.615234,4304.743652,4303.461426,4248.461426,4206.538574,4230.256348,4186.410156,4216.922852,4226.922852,4568.461426,4469.615234,4418.589844,4501.282227,0.000000,3.000000,74.000000,,,,0.000000,4.000000,4.000000,4.000000,4.000000,4.000000,4.000000,4.000000,4.000000,4.000000,4.000000,4.000000,4.000000,4.000000,4.000000,100.000000,,,,,,,,,,,,,,,,,,,,,,,,,,,,
1703496132.503605,1703496132.503856,20.000000,0.000000,4238.461426,4231.538574,4284.102539,4283.846191,4234.871582,4217.051270,4227.948730,4193.974121,4225.256348,4215.256348,4546.538574,4450.897461,4396.282227,4477.692383,0.000000,3.000000,74.000000,,,,0.000000,4.000000,4.000000,4.000000,4.000000,4.000000,4.000000,4.000000,4.000000,4.000000,4.000000,4.000000,4.000000,4.000000,4.000000,100.000000,,,,,,,,,,,,,,,,,5.000000,0.000000,0.693090,0.266479,-0.631653,0.222778,0.988402,0.092785,0.053717,-19.147751,-37.408607,66.645035
1703496132.511414,1703496132.511664,21.000000,0.000000,4212.436035,4211.794922,4263.717773,4265.769043,4232.436035,4227.820313,4231.153809,4201.666504,4239.487305,4219.487305,4526.538574,4437.051270,4378.717773,4457.179688,0.000000,3.000000,74.000000,,,,0.000000,4.000000,4.000000,4.000000,4.000000,4.000000,4.000000,4.000000,4.000000,4.000000,4.000000,4.000000,4.000000,4.000000,4.000000,100.000000,,,,,,,,,,,,,,,,,,,,,,,,,,,,
1703496132.519222,1703496132.519372,22.000000,0.000000,4197.692383,4194.102539,4251.922852,4252.179688,4230.641113,4233.717773,4233.077148,4211.282227,4247.307617,4220.512695,4520.897461,4427.948730,4374.230957,4438.333496,0.000000,3.000000,74.000000,,,,0.000000,4.000000,4.000000,4.000000,4.000000,4.000000,4.000000,4.000000,4.000000,4.000000,4.000000,4.000000,4.000000,4.000000,4.000000,100.000000,,,,,,,,,,,,,,,,,,,,,,,,,,,,
1703496132.527030,1703496132.527280,23.000000,0.000000,4181.922852,4178.589844,4248.974121,4243.333496,4213.333496,4235.769043,4230.769043,4216.282227,4237.948730,4202.307617,4508.974121,4417.051270,4353.077148,4412.307617,0.000000,3.000000,74.000000,,,,0.000000,4.000000,4.000000,4.000000,4.000000,4.000000,4.000000,4.000000,4.000000,4.000000,4.000000,4.000000,4.000000,4.000000,4.000000,100.000000,,,,,,,,,,,,,,,,,,,,,,,,,,,,
1703496132.534838,1703496132.535088,24.000000,0.000000,4173.077148,4174.230957,4247.820313,4241.410156,4203.077148,4229.871582,4230.769043,4203.205078,4221.794922,4181.922852,4486.410156,4403.974121,4325.512695,4391.410156,0.000000,3.000000,74.000000,,,,0.000000,4.000000,4.000000,4.000000,4.000000,4.000000,4.000000,4.000000,4.000000,4.000000,4.000000,4.000000,4.000000,4.000000,4.000000,100.000000,,,,,,,,,,,,,,,,,6.000000,0.000000,0.693043,0.266602,-0.631653,0.222778,0.984984,0.100110,0.064949,-19.099642,-37.467747,66.713867
1703496132.542646,1703496132.542996,25.000000,0.000000,4184.358887,4179.743652,4250.512695,4243.974121,4212.820313,4220.897461,4230.641113,4184.230957,4217.307617,4176.922852,4480.641113,4403.461426,4328.461426,4395.512695,0.000000,3.000000,74.000000,,,,0.000000,4.000000,4.000000,4.000000,4.000000,4.000000,4.000000,4.000000,4.000000,4.000000,4.000000,4.000000,4.000000,4.000000,4.000000,100.000000,,,,,,,,,,,,,,,,,,,,,,,,,,,,
1703496132.550454,1703496132.550803,26.000000,0.000000,4200.641113,4184.743652,4261.153809,4251.025879,4216.922852,4217.436035,4226.538574,4188.974121,4218.717773,4184.102539,4497.307617,4419.230957,4346.282227,4411.282227,0.000000,3.000000,74.000000,,,,0.000000,4.000000,4.000000,4.000000,4.000000,4.000000,4.000000,4.000000,4.000000,4.000000,4.000000,4.000000,4.000000,4.000000,4.000000,100.000000,,,,,,,,,,,,,,,,,,,,,,,,,,,,
1703496132.558262,1703496132.558711,27.000000,0.000000,4208.077148,4190.000000,4269.230957,4262.051270,4213.077148,4213.077148,4224.230957,4199.487305,4215.897461,4182.051270,4511.282227,4431.025879,4350.384766,4417.436035,0.000000,3.000000,74.000000,,,,0.000000,4.000000,4.000000,4.000000,4.000000,4.000000,4.000000,4.000000,4.000000,4.000000,4.000000,4.000000,4.000000,4.000000,4.000000,100.000000,,,,,,,,,,,,,,,,,,,,,,,,,,,,
1703496132.566070,1703496132.566619,28.000000,0.000000,4220.512695,4199.230957,4279.487305,4271.666504,4215.256348,4203.461426,4223.846191,4187.179688,4213.333496,4183.205078,4518.333496,4442.051270,4357.820313,4428.974121,0.000000,3.000000,74.000000,,,,0.000000,4.000000,4.000000,4.000000,4.000000,4.000000,4.000000,4.000000,4.000000,4.000000,4.000000,4.000000,4.000000,4.000000,4.000000,100.000000,,,,,,,,,,,,,,,,,7.000000,0.000000,0.693000,0.266663,-0.631653,0.222839,0.987914,0.085948,0.047369,-19.173012,-37.420971,66.842476
1703496132.573878,1703496132.574428,29.000000,0.000000,4250.897461,4215.128418,4302.179688,4285.384766,4219.487305,4196.538574,4219.358887,4172.692383,4212.692383,4205.897461,4538.077148,4464.487305,4384.743652,4462.436035,0.000000,3.000000,74.000000,,,,0.000000,4.000000,4.000000,4.000000,4.000000,4.000000,4.000000,4.000000,4.000000,4.000000,4.000000,4.000000,4.000000,4.000000,4.000000,100.000000,,,,,,,,,,,,,,,,,,,,,,,,,,,,
1703496132.581686,1703496132.582236,30.000000,0.000000,4282.307617,4240.128418,4323.717773,4305.128418,4224.102539,4196.538574,4220.512695,4173.846191,4216.794922,4219.871582,4565.256348,4490.512695,4412.692383,4498.846191,0.000000,3.000000,74.000000,,,,0.000000,4.000000,4.000000,4.000000,4.000000,4.000000,4.000000,4.000000,4.000000,4.000000,4.000000,4.000000,4.000000,4.000000,4.000000,100.000000,,,,,,,,,,,,,,,,,,,,,,,,,,,,
1703496132.589494,1703496132.590144,31.000000,0.000000,4291.282227,4253.333496,4331.538574,4315.128418,4229.743652,4196.794922,4227.563965,4187.307617,4229.743652,4221.282227,4579.871582,4506.025879,4421.922852,4511.282227,0.000000,3.000000,74.000000,,,,0.000000,4.000000,4.000000,4.000000,4.000000,4.000000,4.000000,4.000000,4.000000,4.000000,4.000000,4.000000,4.000000,4.000000,4.000000,100.000000,,,,,,,,,,,,,,,,,,,,,,,,,,,,
1703496132.597302,1703496132.597952,32.000000,0.000000,4281.666504,4241.538574,4324.358887,4307.436035,4233.589844,4202.948730,4228.717773,4197.307617,4235.000000,4227.179688,4577.051270,4498.589844,4412.436035,4500.769043,0.000000,3.000000,74.000000,,,,0.000000,4.000000,4.000000,4.000000,4.000000,4.000000,4.000000,4.000000,4.000000,4.000000,4.000000,4.000000,4.000000,4.000000,4.000000,100.000000,,,,,,,,,,,,,,,,,8.000000,0.000000,0.692869,0.266663,-0.631775,0.222900,0.987914,0.082041,0.053229,-19.155710,-37.428875,66.841568
1703496132.605110,1703496132.605860,33.000000,0.000000,4271.025879,4230.641113,4312.692383,4299.871582,4231.282227,4214.487305,4229.487305,4201.153809,4227.179688,4231.282227,4569.230957,4482.436035,4406.410156,4490.769043,0.000000,3.000000,74.000000,,,,0.000000,4.000000,4.000000,4.000000,4.000000,4.000000,4.000000,4.000000,4.000000,4.000000,4.000000,4.000000,4.000000,4.000000,4.000000,100.000000,,,,,,,,,,,,,,,,,,,,,,,,,,,,
1703496132.612918,1703496132.613668,34.000000,0.000000,4255.256348,4225.256348,4300.000000,4292.820313,4222.692383,4219.102539,4233.333496,4202.436035,4225.384766,4221.922852,4556.410156,4467.563965,4401.282227,4481.666504,0.000000,3.000000,74.000000,,,,0.000000,4.000000,4.000000,4.000000,4.000000,4.000000,4.000000,4.000000,4.000000,4.000000,4.000000,4.000000,4.000000,4.000000,4.000000,100.000000,,,,,,,,,,,,,,,,,,,,,,,,,,,,
1703496132.620726,1703496132.621376,35.000000,0.000000,4226.794922,4202.692383,4277.692383,4272.307617,4215.769043,4219.230957,4233.205078,4192.948730,4226.794922,4198.974121,4528.077148,4437.948730,4375.000000,4450.384766,0.000000,3.000000,74.000000,,,,0.000000,4.000000,4.000000,4.000000,4.000000,4.000000,4.000000,4.000000,4.000000,4.000000,4.000000,4.000000,4.000000,4.000000,4.000000,100.000000,,,,,,,,,,,,,,,,,,,,,,,,,,,,
1703496132.628534,1703496132.629184,36.000000,0.000000,4203.717773,4180.769043,4257.307617,4247.948730,4215.384766,4221.922852,4229.615234,4175.641113,4219.615234,4173.717773,4496.922852,4404.487305,4339.743652,4406.922852,0.000000,3.000000,74.000000,,,,0.000000,4.000000,4.000000,4.000000,4.000000,4.000000,4.000000,4.000000,4.000000,4.000000,4.000000,4.000000,4.000000,4.000000,4.000000,100.000000,,,,,,,,,,,,,,,,,9.000000,0.000000,0.692964,0.266663,-0.631714,0.222778,0.995727,0.081553,0.057136,-19.223473,-37.519321,66.840744
1703496132.636342,1703496132.636892,37.000000,0.000000,4202.563965,4186.794922,4252.179688,4243.077148,4212.948730,4223.205078,4228.461426,4159.871582,4212.820313,4162.948730,4482.307617,4392.051270,4326.922852,4387.051270,0.000000,3.000000,74.000000,,,,0.000000,4.000000,4.000000,4.000000,4.000000,4.000000,4.000000,4.000000,4.000000,4.000000,4.000000,4.000000,4.000000,4.000000,4.000000,100.000000,,,,,,,,,,,,,,,,,,,,,,,,,,,,
1703496132.644150,1703496132.644700,38.000000,0.000000,4215.384766,4198.461426,4259.358887,4253.461426,4213.589844,4219.615234,4229.487305,4154.743652,4211.153809,4174.102539,4487.563965,4399.487305,4336.922852,4398.461426,0.000000,3.000000,74.000000,,,,0.000000,4.000000,4.000000,4.000000,4.000000,4.000000,4.000000,4.000000,4.000000,4.000000,4.000000,4.000000,4.000000,4.000000,4.000000,100.000000,,,,,,,,,,,,,,,,,,,,,,,,,,,,
1703496132.651959,1703496132.652408,39.000000,0.000000,4222.692383,4198.846191,4268.461426,4262.051270,4226.538574,4217.179688,4229.487305,4155.128418,4209.102539,4186.538574,4498.333496,4408.717773,4343.333496,4411.666504,0.000000,3.000000,74.000000,,,,0.000000,4.000000,4.000000,4.000000,4.000000,4.000000,4.000000,4.000000,4.000000,4.000000,4.000000,4.000000,4.000000,4.000000,4.000000,100.000000,,,,,,,,,,,,,,,,,,,,,,,,,,,,
1703496132.659767,1703496132.660216,40.000000,0.000000,4226.025879,4206.025879,4276.153809,4268.717773,4228.077148,4214.615234,4228.846191,4146.666504,4203.974121,4185.769043,4501.410156,4413.974121,4340.000000,4411.282227,0.000000,3.000000,74.000000,,,,0.000000,4.000000,4.000000,4.000000,4.000000,4.000000,4.000000,4.000000,4.000000,4.000000,4.000000,4.000000,4.000000,4.000000,4.000000,100.000000,,,,,,,,,,,,,,,,,10.000000,0.000000,0.692975,0.266541,-0.631775,0.222717,0.986937,0.093273,0.058601,-19.301125,-37.534054,66.856667
1703496132.667575,1703496132.667924,41.000000,0.000000,4239.230957,4220.897461,4288.974121,4280.384766,4217.820313,4207.692383,4227.948730,4137.436035,4200.000000,4180.512695,4506.794922,4423.717773,4346.282227,4421.666504,0.000000,3.000000,74.000000,,,,0.000000,4.000000,4.000000,4.000000,4.000000,4.000000,4.000000,4.000000,4.000000,4.000000,4.000000,4.000000,4.000000,4.000000,4.000000,100.000000,,,,,,,,,,,,,,,,,,,,,,,,,,,,
1703496132.675383,1703496132.675832,42.000000,0.000000,4252.692383,4224.102539,4302.692383,4292.820313,4222.563965,4198.461426,4223.717773,4144.743652,4203.974121,4188.974121,4526.025879,4442.820313,4368.589844,4449.615234,0.000000,3.000000,74.000000,,,,0.000000,4.000000,4.000000,4.000000,4.000000,4.000000,4.000000,4.000000,4.000000,4.000000,4.000000,4.000000,4.000000,4.000000,4.000000,100.000000,1.000000,75.000000,4.000000,4.000000,3.000000,4.000000,4.000000,4.000000,4.000000,3.000000,4.000000,4.000000,4.000000,4.000000,4.000000,3.000000,,,,,,,,,,,,
1703496132.683191,1703496132.683640,43.000000,0.000000,4256.282227,4218.205078,4310.256348,4295.897461,4228.846191,4196.025879,4223.333496,4161.922852,4216.025879,4202.436035,4543.461426,4464.871582,4382.692383,4466.025879,0.000000,3.000000,74.000000,,,,0.000000,4.000000,4.000000,4.000000,4.000000,4.000000,4.000000,4.000000,4.000000,4.000000,4.000000,4.000000,4.000000,4.000000,4.000000,100.000000,,,,,,,,,,,,,,,,,,,,,,,,,,,,
1703496132.690999,1703496132.691448,44.000000,0.000000,4256.922852,4217.179688,4312.948730,4291.282227,4219.487305,4203.846191,4225.897461,4170.641113,4225.000000,4203.974121,4543.461426,4477.307617,4381.025879,4466.153809,0.000000,3.000000,74.000000,,,,0.000000,4.000000,4.000000,4.000000,4.000000,4.000000,4.000000,4.000000,4.000000,4.000000,4.000000,4.000000,4.000000,4.000000,4.000000,100.000000,,,,,,,,,,,,,,,,,11.000000,0.000000,0.693036,0.266235,-0.631836,0.222717,0.980588,0.096691,0.063973,-19.271013,-37.530651,66.937668
1703496132.698807,1703496132.699156,45.000000,0.000000,4257.307617,4218.589844,4313.333496,4289.487305,4219.871582,4213.077148,4225.769043,4180.256348,4228.333496,4209.230957,4540.897461,4474.487305,4380.641113,4465.769043,0.000000,3.000000,74.000000,,,,0.000000,4.000000,4.000000,4.000000,4.000000,4.000000,4.000000,4.000000,4.000000,4.000000,4.000000,4.000000,4.000000,4.000000,4.000000,100.000000,,,,,,,,,,,,,,,,,,,,,,,,,,,,
1703496132.706615,1703496132.706964,46.000000,0.000000,4260.384766,4219.615234,4315.000000,4292.307617,4230.256348,4226.410156,4231.282227,4197.179688,4238.589844,4220.769043,4552.436035,4474.102539,4388.333496,4468.461426,0.000000,3.000000,74.000000,,,,0.000000,4.000000,4.000000,4.000000,4.000000,4.000000,4.000000,4.000000,4.000000,4.000000,4.000000,4.000000,4.000000,4.000000,4.000000,100.000000,,,,,,,,,,,,,,,,,,,,,,,,,,,,
1703496132.714423,1703496132.714672,47.000000,0.000000,4262.436035,4220.384766,4311.666504,4291.922852,4223.205078,4233.974121,4239.487305,4205.384766,4247.563965,4220.128418,4558.974121,4477.563965,4396.282227,4470.384766,0.000000,3.000000,74.000000,,,,0.000000,4.000000,4.000000,4.000000,4.000000,4.000000,4.000000,4.000000,4.000000,4.000000,4.000000,4.000000,4.000000,4.000000,4.000000,100.000000,,,,,,,,,,,,,,,,,,,,,,,,,,,,
1703496132.722231,1703496132.722480,48.000000,0.000000,4255.512695,4218.461426,4301.538574,4282.948730,4214.743652,4225.769043,4236.922852,4203.077148,4238.461426,4206.025879,4546.282227,4469.487305,4391.922852,4465.769043,0.000000,3.000000,74.000000,,,,0.000000,4.000000,4.000000,4.000000,4.000000,4.000000,4.000000,4.000000,4.000000,4.000000,4.000000,4.000000,4.000000,4.000000,4.000000,100.000000,,,,,,,,,,,,,,,,,12.000000,0.000000,0.693017,0.266235,-0.631836,0.222778,0.993285,0.093273,0.071298,-19.443911,-37.627583,66.827232
1703496132.730039,1703496132.730188,49.000000,0.000000,4247.051270,4217.307617,4296.153809,4277.563965,4219.615234,4217.436035,4232.436035,4196.538574,4219.358887,4201.025879,4530.128418,4456.153809,4377.436035,4451.922852,0.000000,3.000000,74.000000,,,,0.000000,4.000000,4.000000,4.000000,4.000000,4.000000,4.000000,4.000000,4.000000,4.000000,4.000000,4.000000,4.000000,4.000000,4.000000,100.000000,,,,,,,,,,,,,,,,,,,,,,,,,,,,
