title:مضر عطش, start timestamp:1703403069.993147, stop timestamp:1703403080.822916, headset type:EPOCX, headset serial:E50206EF, headset firmware:720, channels:67, sampling rate:eeg_128;mot_32, samples:1388      , version:2.2, 
Timestamp,OriginalTimestamp,EEG.Counter,EEG.Interpolated,EEG.AF3,EEG.F7,EEG.F3,EEG.FC5,EEG.T7,EEG.P7,EEG.O1,EEG.O2,EEG.P8,EEG.T8,EEG.FC6,EEG.F4,EEG.F8,EEG.AF4,EEG.RawCq,EEG.Battery,EEG.BatteryPercent,MarkerIndex,MarkerType,MarkerValueInt,EEG.MarkerHardware,CQ.AF3,CQ.F7,CQ.F3,CQ.FC5,CQ.T7,CQ.P7,CQ.O1,CQ.O2,CQ.P8,CQ.T8,CQ.FC6,CQ.F4,CQ.F8,CQ.AF4,CQ.Overall,EQ.SampleRateQuality,EQ.OVERALL,EQ.AF3,EQ.F7,EQ.F3,EQ.FC5,EQ.T7,EQ.P7,EQ.O1,EQ.O2,EQ.P8,EQ.T8,EQ.FC6,EQ.F4,EQ.F8,EQ.AF4,MOT.CounterMems,MOT.InterpolatedMems,MOT.Q0,MOT.Q1,MOT.Q2,MOT.Q3,MOT.AccX,MOT.AccY,MOT.AccZ,MOT.MagX,MOT.MagY,MOT.MagZ
1703403069.993147,1703403069.993180,123.000000,0.000000,4300.512695,4178.077148,4259.487305,4237.820313,4168.974121,4152.692383,4245.256348,4184.358887,4163.974121,4127.820313,4562.948730,4453.205078,4356.794922,4503.205078,6180.000000,4.000000,89.000000,,,,0.000000,4.000000,4.000000,4.000000,4.000000,4.000000,4.000000,4.000000,4.000000,4.000000,4.000000,4.000000,4.000000,4.000000,4.000000,100.000000,,,,,,,,,,,,,,,,,,,,,,,,,,,,
1703403070.000955,1703403070.001088,124.000000,0.000000,4316.922852,4181.410156,4257.051270,4234.358887,4170.256348,4152.563965,4244.615234,4184.743652,4164.230957,4133.205078,4540.256348,4458.461426,4357.436035,4501.666504,6648.000000,4.000000,89.000000,,,,0.000000,4.000000,4.000000,4.000000,4.000000,4.000000,4.000000,4.000000,4.000000,4.000000,4.000000,4.000000,4.000000,4.000000,4.000000,100.000000,,,,,,,,,,,,,,,,,31.000000,0.000000,0.667379,-0.064331,-0.705688,0.229065,0.888780,-0.425833,-0.015139,-31.128757,-9.755675,74.150497
1703403070.008763,1703403070.008896,125.000000,0.000000,4309.358887,4183.589844,4255.769043,4233.717773,4173.461426,4155.000000,4241.666504,4187.948730,4169.615234,4140.641113,4521.153809,4461.153809,4356.282227,4497.179688,6589.000000,4.000000,89.000000,,,,0.000000,4.000000,4.000000,4.000000,4.000000,4.000000,4.000000,4.000000,4.000000,4.000000,4.000000,4.000000,4.000000,4.000000,4.000000,100.000000,,,,,,,,,,,,,,,,,,,,,,,,,,,,
1703403070.016571,1703403070.016804,126.000000,0.000000,4290.256348,4178.846191,4263.205078,4235.512695,4175.641113,4160.897461,4246.666504,4186.794922,4169.358887,4136.538574,4527.948730,4461.666504,4359.487305,4491.282227,5839.000000,4.000000,89.000000,,,,0.000000,4.000000,4.000000,4.000000,4.000000,4.000000,4.000000,4.000000,4.000000,4.000000,4.000000,4.000000,4.000000,4.000000,4.000000,100.000000,,,,,,,,,,,,,,,,,,,,,,,,,,,,
1703403070.024379,1703403070.024612,127.000000,0.000000,4281.666504,4177.436035,4265.000000,4231.538574,4178.717773,4165.000000,4249.102539,4186.538574,4163.974121,4134.871582,4522.179688,4459.102539,4355.512695,4489.743652,89.000000,4.000000,89.000000,,,,0.000000,4.000000,4.000000,4.000000,4.000000,4.000000,4.000000,4.000000,4.000000,4.000000,4.000000,4.000000,4.000000,4.000000,4.000000,100.000000,,,,,,,,,,,,,,,,,,,,,,,,,,,,
1703403070.032187,1703403070.032520,0.000000,0.000000,4290.000000,4181.025879,4257.307617,4230.512695,4180.128418,4167.692383,4245.897461,4184.358887,4162.563965,4141.153809,4526.153809,4452.820313,4351.922852,4496.794922,5332.000000,4.000000,89.000000,,,,0.000000,4.000000,4.000000,4.000000,4.000000,4.000000,4.000000,4.000000,4.000000,4.000000,4.000000,4.000000,4.000000,4.000000,4.000000,100.000000,1.000000,25.000000,1.000000,4.000000,3.000000,4.000000,4.000000,4.000000,4.000000,4.000000,4.000000,4.000000,1.000000,4.000000,1.000000,1.000000,0.000000,0.000000,0.667432,-0.064453,-0.705627,0.229065,0.894640,-0.412160,-0.009278,-31.065882,-9.896775,74.268776
1703403070.039995,1703403070.040328,1.000000,0.000000,4287.307617,4182.051270,4256.153809,4235.512695,4180.897461,4170.128418,4248.077148,4175.256348,4156.025879,4133.589844,4540.000000,4446.794922,4345.641113,4495.512695,5073.000000,4.000000,89.000000,,,,0.000000,4.000000,4.000000,4.000000,4.000000,4.000000,4.000000,4.000000,4.000000,4.000000,4.000000,4.000000,4.000000,4.000000,4.000000,100.000000,,,,,,,,,,,,,,,,,,,,,,,,,,,,
1703403070.047803,1703403070.048235,2.000000,0.000000,4279.615234,4181.666504,4260.769043,4235.897461,4180.769043,4167.051270,4249.102539,4177.179688,4155.000000,4129.230957,4533.589844,4445.128418,4348.205078,4494.102539,5155.000000,4.000000,89.000000,,,,0.000000,4.000000,4.000000,4.000000,4.000000,4.000000,4.000000,4.000000,4.000000,4.000000,4.000000,4.000000,4.000000,4.000000,4.000000,100.000000,,,,,,,,,,,,,,,,,,,,,,,,,,,,
1703403070.055611,1703403070.056043,3.000000,0.000000,4293.846191,4182.820313,4257.563965,4232.436035,4179.871582,4164.743652,4243.717773,4187.307617,4166.153809,4137.179688,4526.410156,4445.641113,4359.743652,4493.974121,5247.000000,4.000000,89.000000,,,,0.000000,4.000000,4.000000,4.000000,4.000000,4.000000,4.000000,4.000000,4.000000,4.000000,4.000000,4.000000,4.000000,4.000000,4.000000,100.000000,,,,,,,,,,,,,,,,,,,,,,,,,,,,
1703403070.063419,1703403070.063752,4.000000,0.000000,4306.538574,4181.410156,4250.128418,4233.461426,4178.589844,4165.384766,4243.461426,4186.410156,4167.436035,4133.717773,4520.384766,4443.846191,4355.000000,4483.717773,5040.000000,4.000000,89.000000,,,,0.000000,4.000000,4.000000,4.000000,4.000000,4.000000,4.000000,4.000000,4.000000,4.000000,4.000000,4.000000,4.000000,4.000000,4.000000,100.000000,,,,,,,,,,,,,,,,,1.000000,0.000000,0.667597,-0.064514,-0.705505,0.228943,0.889757,-0.410206,-0.003418,-30.992626,-9.840430,74.175232
1703403070.071227,1703403070.071559,5.000000,0.000000,4291.153809,4177.051270,4251.410156,4237.563965,4178.333496,4164.487305,4245.256348,4181.922852,4160.769043,4129.487305,4511.538574,4442.179688,4344.615234,4481.282227,5110.000000,4.000000,89.000000,,,,0.000000,4.000000,4.000000,4.000000,4.000000,4.000000,4.000000,4.000000,4.000000,4.000000,4.000000,4.000000,4.000000,4.000000,4.000000,100.000000,,,,,,,,,,,,,,,,,,,,,,,,,,,,
1703403070.079035,1703403070.079268,6.000000,0.000000,4279.230957,4174.102539,4253.077148,4235.897461,4179.871582,4165.000000,4241.794922,4182.051270,4162.563965,4137.692383,4509.743652,4441.922852,4346.153809,4488.205078,2366.000000,4.000000,89.000000,,,,0.000000,4.000000,4.000000,4.000000,4.000000,4.000000,4.000000,4.000000,4.000000,4.000000,4.000000,4.000000,4.000000,4.000000,4.000000,100.000000,,,,,,,,,,,,,,,,,,,,,,,,,,,,
1703403070.086843,1703403070.087076,7.000000,0.000000,4280.000000,4170.769043,4249.615234,4227.692383,4180.128418,4164.487305,4242.051270,4181.922852,4167.692383,4138.077148,4509.871582,4441.922852,4347.692383,4486.282227,5263.000000,4.000000,89.000000,,,,0.000000,4.000000,4.000000,4.000000,4.000000,4.000000,4.000000,4.000000,4.000000,4.000000,4.000000,4.000000,4.000000,4.000000,4.000000,100.000000,,,,,,,,,,,,,,,,,,,,,,,,,,,,
1703403070.094651,1703403070.094784,8.000000,0.000000,4277.692383,4169.487305,4253.461426,4232.563965,4182.179688,4165.000000,4241.282227,4184.743652,4170.512695,4137.820313,4517.179688,4450.256348,4354.871582,4489.615234,5272.000000,4.000000,89.000000,,,,0.000000,4.000000,4.000000,4.000000,4.000000,4.000000,4.000000,4.000000,4.000000,4.000000,4.000000,4.000000,4.000000,4.000000,4.000000,100.000000,,,,,,,,,,,,,,,,,2.000000,0.000000,0.667820,-0.064636,-0.705322,0.228821,0.906361,-0.407276,0.006837,-31.060030,-9.873055,74.057709
1703403070.102459,1703403070.102592,9.000000,0.000000,4281.153809,4175.897461,4256.282227,4246.922852,4182.051270,4168.461426,4240.128418,4186.794922,4170.128418,4144.615234,4531.025879,4455.000000,4360.897461,4497.948730,5165.000000,4.000000,89.000000,,,,0.000000,4.000000,4.000000,4.000000,4.000000,4.000000,4.000000,4.000000,4.000000,4.000000,4.000000,4.000000,4.000000,4.000000,4.000000,100.000000,,,,,,,,,,,,,,,,,,,,,,,,,,,,
1703403070.110267,1703403070.110300,10.000000,0.000000,4286.410156,4178.846191,4246.922852,4240.641113,4174.102539,4166.794922,4241.666504,4182.179688,4164.743652,4142.820313,4530.769043,4445.641113,4354.615234,4491.410156,5816.000000,4.000000,89.000000,,,,0.000000,4.000000,4.000000,4.000000,4.000000,4.000000,4.000000,4.000000,4.000000,4.000000,4.000000,4.000000,4.000000,4.000000,4.000000,100.000000,,,,,,,,,,,,,,,,,,,,,,,,,,,,
1703403070.118075,1703403070.118108,11.000000,0.000000,4281.153809,4177.307617,4245.000000,4230.384766,4172.948730,4163.077148,4239.743652,4183.974121,4164.358887,4144.487305,4527.692383,4446.153809,4360.256348,4487.436035,6190.000000,4.000000,89.000000,,,,0.000000,4.000000,4.000000,4.000000,4.000000,4.000000,4.000000,4.000000,4.000000,4.000000,4.000000,4.000000,4.000000,4.000000,4.000000,100.000000,,,,,,,,,,,,,,,,,,,,,,,,,,,,
1703403070.125883,1703403070.125816,12.000000,0.000000,4273.077148,4179.743652,4253.974121,4241.025879,4179.743652,4162.436035,4239.230957,4192.436035,4172.563965,4155.512695,4537.436035,4457.307617,4364.487305,4483.974121,6636.000000,4.000000,89.000000,,,,0.000000,4.000000,4.000000,4.000000,4.000000,4.000000,4.000000,4.000000,4.000000,4.000000,4.000000,4.000000,4.000000,4.000000,4.000000,100.000000,,,,,,,,,,,,,,,,,3.000000,0.000000,0.668048,-0.064697,-0.705200,0.228516,0.903431,-0.400440,-0.006348,-31.004028,-9.919083,74.101936
1703403070.133691,1703403070.133624,13.000000,0.000000,4278.974121,4179.487305,4254.102539,4247.179688,4178.846191,4162.820313,4241.153809,4190.000000,4173.205078,4158.846191,4547.692383,4452.051270,4356.666504,4475.256348,6584.000000,4.000000,89.000000,,,,0.000000,4.000000,4.000000,4.000000,4.000000,4.000000,4.000000,4.000000,4.000000,4.000000,4.000000,4.000000,4.000000,4.000000,4.000000,100.000000,,,,,,,,,,,,,,,,,,,,,,,,,,,,
1703403070.141500,1703403070.141332,14.000000,0.000000,4282.051270,4175.512695,4247.051270,4234.871582,4174.743652,4164.871582,4241.922852,4182.307617,4163.077148,4151.410156,4564.230957,4438.461426,4368.461426,4491.410156,5816.000000,4.000000,89.000000,,,,0.000000,4.000000,4.000000,4.000000,4.000000,4.000000,4.000000,4.000000,4.000000,4.000000,4.000000,4.000000,4.000000,4.000000,4.000000,100.000000,,,,,,,,,,,,,,,,,,,,,,,,,,,,
1703403070.149308,1703403070.149140,15.000000,0.000000,4265.769043,4173.333496,4245.000000,4227.948730,4175.384766,4167.436035,4240.384766,4183.333496,4153.846191,4141.794922,4561.410156,4436.282227,4377.692383,4497.692383,6190.000000,4.000000,89.000000,,,,0.000000,4.000000,4.000000,4.000000,4.000000,4.000000,4.000000,4.000000,4.000000,4.000000,4.000000,4.000000,4.000000,4.000000,4.000000,100.000000,,,,,,,,,,,,,,,,,,,,,,,,,,,,
1703403070.157116,1703403070.156848,16.000000,0.000000,4256.538574,4171.410156,4242.563965,4230.769043,4175.512695,4165.897461,4239.743652,4180.897461,4152.820313,4137.051270,4532.179688,4431.282227,4356.794922,4467.436035,0.000000,4.000000,89.000000,,,,0.000000,4.000000,4.000000,4.000000,4.000000,4.000000,4.000000,4.000000,4.000000,4.000000,4.000000,4.000000,4.000000,4.000000,4.000000,100.000000,,,,,,,,,,,,,,,,,4.000000,0.000000,0.668100,-0.064819,-0.705139,0.228516,0.901477,-0.419485,0.001465,-30.886959,-9.910507,74.158409
1703403070.164924,1703403070.164756,17.000000,0.000000,4263.205078,4169.230957,4239.743652,4233.461426,4175.512695,4164.487305,4240.897461,4175.128418,4154.615234,4138.333496,4545.000000,4424.230957,4344.743652,4455.256348,0.000000,4.000000,89.000000,,,,0.000000,4.000000,4.000000,4.000000,4.000000,4.000000,4.000000,4.000000,4.000000,4.000000,4.000000,4.000000,4.000000,4.000000,4.000000,100.000000,,,,,,,,,,,,,,,,,,,,,,,,,,,,
1703403070.172732,1703403070.172564,18.000000,0.000000,4268.077148,4172.307617,4242.563965,4236.666504,4176.282227,4162.820313,4242.051270,4179.230957,4154.487305,4143.717773,4589.487305,4429.487305,4365.641113,4469.871582,0.000000,4.000000,89.000000,,,,0.000000,4.000000,4.000000,4.000000,4.000000,4.000000,4.000000,4.000000,4.000000,4.000000,4.000000,4.000000,4.000000,4.000000,4.000000,100.000000,,,,,,,,,,,,,,,,,,,,,,,,,,,,
1703403070.180540,1703403070.180471,19.000000,0.000000,4274.102539,4179.615234,4249.358887,4238.589844,4171.538574,4157.436035,4241.410156,4183.846191,4160.769043,4151.282227,4593.333496,4438.846191,4384.230957,4483.077148,0.000000,4.000000,89.000000,,,,0.000000,4.000000,4.000000,4.000000,4.000000,4.000000,4.000000,4.000000,4.000000,4.000000,4.000000,4.000000,4.000000,4.000000,4.000000,100.000000,,,,,,,,,,,,,,,,,,,,,,,,,,,,
1703403070.188348,1703403070.188279,20.000000,0.000000,4284.743652,4186.922852,4256.282227,4243.589844,4170.128418,4156.666504,4240.641113,4185.384766,4170.128418,4157.948730,4581.025879,4447.051270,4378.205078,4494.487305,0.000000,4.000000,89.000000,,,,0.000000,4.000000,4.000000,4.000000,4.000000,4.000000,4.000000,4.000000,4.000000,4.000000,4.000000,4.000000,4.000000,4.000000,4.000000,100.000000,,,,,,,,,,,,,,,,,5.000000,0.000000,0.668072,-0.064880,-0.705200,0.228394,0.893175,-0.414601,-0.000977,-30.814930,-9.752789,74.225906
1703403070.196156,1703403070.196187,21.000000,0.000000,4276.410156,4184.743652,4260.769043,4243.974121,4177.563965,4160.769043,4241.282227,4193.589844,4169.230957,4156.153809,4589.743652,4445.000000,4367.179688,4489.102539,0.000000,4.000000,89.000000,,,,0.000000,4.000000,4.000000,4.000000,4.000000,4.000000,4.000000,4.000000,4.000000,4.000000,4.000000,4.000000,4.000000,4.000000,4.000000,100.000000,,,,,,,,,,,,,,,,,,,,,,,,,,,,
1703403070.203964,1703403070.203995,22.000000,0.000000,4266.410156,4182.051270,4266.922852,4235.512695,4180.897461,4165.000000,4240.641113,4200.384766,4166.282227,4154.743652,4602.307617,4441.666504,4377.051270,4477.179688,0.000000,4.000000,89.000000,,,,0.000000,4.000000,4.000000,4.000000,4.000000,4.000000,4.000000,4.000000,4.000000,4.000000,4.000000,4.000000,4.000000,4.000000,4.000000,100.000000,,,,,,,,,,,,,,,,,,,,,,,,,,,,
1703403070.211772,1703403070.211903,23.000000,0.000000,4275.000000,4187.692383,4271.153809,4234.487305,4177.692383,4168.846191,4240.256348,4199.615234,4169.743652,4156.922852,4604.230957,4451.025879,4388.589844,4486.282227,0.000000,4.000000,89.000000,,,,0.000000,4.000000,4.000000,4.000000,4.000000,4.000000,4.000000,4.000000,4.000000,4.000000,4.000000,4.000000,4.000000,4.000000,4.000000,100.000000,,,,,,,,,,,,,,,,,,,,,,,,,,,,
1703403070.219580,1703403070.219711,24.000000,0.000000,4268.717773,4185.641113,4261.538574,4234.743652,4174.615234,4167.948730,4240.897461,4201.025879,4170.769043,4154.358887,4592.051270,4452.563965,4370.512695,4481.282227,0.000000,4.000000,89.000000,,,,0.000000,4.000000,4.000000,4.000000,4.000000,4.000000,4.000000,4.000000,4.000000,4.000000,4.000000,4.000000,4.000000,4.000000,4.000000,100.000000,,,,,,,,,,,,,,,,,6.000000,0.000000,0.668040,-0.064758,-0.705261,0.228333,0.897082,-0.411183,-0.002930,-30.833437,-9.644177,74.036644
1703403070.227388,1703403070.227619,25.000000,0.000000,4257.692383,4182.307617,4252.692383,4233.333496,4177.051270,4165.897461,4239.743652,4198.589844,4169.871582,4157.820313,4580.769043,4443.333496,4360.384766,4465.256348,0.000000,4.000000,89.000000,,,,0.000000,4.000000,4.000000,4.000000,4.000000,4.000000,4.000000,4.000000,4.000000,4.000000,4.000000,4.000000,4.000000,4.000000,4.000000,100.000000,,,,,,,,,,,,,,,,,,,,,,,,,,,,
1703403070.235196,1703403070.235427,26.000000,0.000000,4284.487305,4188.717773,4260.769043,4239.743652,4176.410156,4168.333496,4238.974121,4190.384766,4171.410156,4171.153809,4592.948730,4446.153809,4387.307617,4491.153809,0.000000,4.000000,89.000000,,,,0.000000,4.000000,4.000000,4.000000,4.000000,4.000000,4.000000,4.000000,4.000000,4.000000,4.000000,4.000000,4.000000,4.000000,4.000000,100.000000,,,,,,,,,,,,,,,,,,,,,,,,,,,,
1703403070.243004,1703403070.243335,27.000000,0.000000,4312.307617,4189.230957,4260.897461,4245.512695,4171.922852,4170.256348,4241.922852,4187.179688,4166.666504,4170.897461,4606.410156,4453.205078,4401.025879,4506.666504,0.000000,4.000000,89.000000,,,,0.000000,4.000000,4.000000,4.000000,4.000000,4.000000,4.000000,4.000000,4.000000,4.000000,4.000000,4.000000,4.000000,4.000000,4.000000,100.000000,,,,,,,,,,,,,,,,,,,,,,,,,,,,
1703403070.250812,1703403070.251143,28.000000,0.000000,4294.358887,4182.051270,4245.769043,4243.077148,4177.436035,4170.000000,4244.743652,4187.051270,4159.358887,4159.871582,4602.051270,4442.436035,4384.230957,4476.025879,0.000000,4.000000,89.000000,,,,0.000000,4.000000,4.000000,4.000000,4.000000,4.000000,4.000000,4.000000,4.000000,4.000000,4.000000,4.000000,4.000000,4.000000,4.000000,100.000000,,,,,,,,,,,,,,,,,7.000000,0.000000,0.668078,-0.064575,-0.705261,0.228271,0.893175,-0.408741,-0.009767,-30.733425,-9.696426,74.099648
1703403070.258620,1703403070.258851,29.000000,0.000000,4279.487305,4186.538574,4245.128418,4240.769043,4186.282227,4167.820313,4242.051270,4180.897461,4158.589844,4160.512695,4597.948730,4431.922852,4380.256348,4468.974121,0.000000,4.000000,89.000000,,,,0.000000,4.000000,4.000000,4.000000,4.000000,4.000000,4.000000,4.000000,4.000000,4.000000,4.000000,4.000000,4.000000,4.000000,4.000000,100.000000,,,,,,,,,,,,,,,,,,,,,,,,,,,,
1703403070.266428,1703403070.266659,30.000000,0.000000,4282.948730,4194.615234,4252.563965,4244.358887,4183.205078,4162.307617,4238.974121,4173.589844,4157.436035,4160.641113,4594.743652,4431.794922,4385.128418,4486.538574,0.000000,4.000000,89.000000,,,,0.000000,4.000000,4.000000,4.000000,4.000000,4.000000,4.000000,4.000000,4.000000,4.000000,4.000000,4.000000,4.000000,4.000000,4.000000,100.000000,,,,,,,,,,,,,,,,,,,,,,,,,,,,
1703403070.274237,1703403070.274367,31.000000,0.000000,4268.589844,4191.538574,4252.179688,4244.230957,4177.692383,4161.410156,4241.410156,4171.153809,4150.512695,4152.179688,4590.000000,4428.461426,4377.179688,4475.641113,0.000000,4.000000,89.000000,,,,0.000000,4.000000,4.000000,4.000000,4.000000,4.000000,4.000000,4.000000,4.000000,4.000000,4.000000,4.000000,4.000000,4.000000,4.000000,100.000000,,,,,,,,,,,,,,,,,,,,,,,,,,,,
1703403070.282045,1703403070.282175,32.000000,0.000000,4262.563965,4185.897461,4248.846191,4238.589844,4178.461426,4167.948730,4244.102539,4176.794922,4151.153809,4153.846191,4582.692383,4427.436035,4365.769043,4449.615234,0.000000,4.000000,89.000000,,,,0.000000,4.000000,4.000000,4.000000,4.000000,4.000000,4.000000,4.000000,4.000000,4.000000,4.000000,4.000000,4.000000,4.000000,4.000000,100.000000,,,,,,,,,,,,,,,,,8.000000,0.000000,0.668208,-0.064331,-0.705200,0.228149,0.908802,-0.410695,-0.005860,-30.676750,-9.810117,74.089684
1703403070.289853,1703403070.289883,33.000000,0.000000,4260.000000,4182.179688,4245.256348,4236.666504,4176.025879,4167.179688,4242.051270,4184.487305,4157.948730,4157.307617,4569.102539,4426.153809,4359.358887,4448.974121,0.000000,4.000000,89.000000,,,,0.000000,4.000000,4.000000,4.000000,4.000000,4.000000,4.000000,4.000000,4.000000,4.000000,4.000000,4.000000,4.000000,4.000000,4.000000,100.000000,,,,,,,,,,,,,,,,,,,,,,,,,,,,
1703403070.297661,1703403070.297791,34.000000,0.000000,4251.922852,4181.153809,4243.846191,4243.077148,4170.769043,4162.051270,4240.384766,4182.948730,4155.256348,4155.769043,4574.230957,4419.743652,4367.307617,4467.563965,0.000000,4.000000,89.000000,,,,0.000000,4.000000,4.000000,4.000000,4.000000,4.000000,4.000000,4.000000,4.000000,4.000000,4.000000,4.000000,4.000000,4.000000,4.000000,100.000000,,,,,,,,,,,,,,,,,,,,,,,,,,,,
1703403070.305469,1703403070.305599,35.000000,0.000000,4271.794922,4182.948730,4245.512695,4249.743652,4172.051270,4166.538574,4241.025879,4179.230957,4151.538574,4161.153809,4595.384766,4421.153809,4381.538574,4472.307617,0.000000,4.000000,89.000000,,,,0.000000,4.000000,4.000000,4.000000,4.000000,4.000000,4.000000,4.000000,4.000000,4.000000,4.000000,4.000000,4.000000,4.000000,4.000000,100.000000,,,,,,,,,,,,,,,,,,,,,,,,,,,,
1703403070.313277,1703403070.313507,36.000000,0.000000,4288.846191,4183.077148,4246.410156,4245.256348,4171.666504,4170.256348,4244.615234,4182.307617,4153.333496,4166.153809,4596.282227,4427.436035,4375.512695,4460.256348,0.000000,4.000000,89.000000,,,,0.000000,4.000000,4.000000,4.000000,4.000000,4.000000,4.000000,4.000000,4.000000,4.000000,4.000000,4.000000,4.000000,4.000000,4.000000,100.000000,,,,,,,,,,,,,,,,,9.000000,0.000000,0.668232,-0.064087,-0.705200,0.228149,0.904407,-0.416066,-0.009767,-30.659075,-9.745772,74.164047
1703403070.321085,1703403070.321315,37.000000,0.000000,4269.230957,4181.922852,4244.487305,4241.794922,4175.384766,4167.436035,4248.846191,4186.410156,4156.410156,4166.410156,4577.307617,4427.692383,4362.436035,4451.794922,0.000000,4.000000,89.000000,,,,0.000000,4.000000,4.000000,4.000000,4.000000,4.000000,4.000000,4.000000,4.000000,4.000000,4.000000,4.000000,4.000000,4.000000,4.000000,100.000000,,,,,,,,,,,,,,,,,,,,,,,,,,,,
1703403070.328893,1703403070.329123,38.000000,0.000000,4259.615234,4181.410156,4244.230957,4246.410156,4186.153809,4168.846191,4248.717773,4187.179688,4161.538574,4170.256348,4575.769043,4429.743652,4359.743652,4454.358887,0.000000,4.000000,89.000000,,,,0.000000,4.000000,4.000000,4.000000,4.000000,4.000000,4.000000,4.000000,4.000000,4.000000,4.000000,4.000000,4.000000,4.000000,4.000000,100.000000,,,,,,,,,,,,,,,,,,,,,,,,,,,,
1703403070.336701,1703403070.336831,39.000000,0.000000,4265.256348,4178.974121,4247.436035,4249.358887,4187.563965,4171.282227,4248.974121,4186.282227,4163.333496,4168.205078,4582.563965,4435.769043,4358.205078,4460.256348,0.000000,4.000000,89.000000,,,,0.000000,4.000000,4.000000,4.000000,4.000000,4.000000,4.000000,4.000000,4.000000,4.000000,4.000000,4.000000,4.000000,4.000000,4.000000,100.000000,,,,,,,,,,,,,,,,,,,,,,,,,,,,
1703403070.344509,1703403070.344639,40.000000,0.000000,4252.051270,4171.794922,4252.051270,4246.153809,4182.820313,4170.128418,4252.692383,4183.974121,4156.794922,4157.051270,4576.922852,4435.897461,4362.436035,4462.307617,0.000000,4.000000,89.000000,,,,0.000000,4.000000,4.000000,4.000000,4.000000,4.000000,4.000000,4.000000,4.000000,4.000000,4.000000,4.000000,4.000000,4.000000,4.000000,100.000000,,,,,,,,,,,,,,,,,10.000000,0.000000,0.668349,-0.063965,-0.705139,0.228027,0.902942,-0.394579,-0.011232,-30.693167,-9.721195,74.064308
1703403070.352317,1703403070.352347,41.000000,0.000000,4250.897461,4170.256348,4253.205078,4247.179688,4183.589844,4171.666504,4257.820313,4182.051270,4153.974121,4157.692383,4577.051270,4434.615234,4372.820313,4462.179688,0.000000,4.000000,89.000000,,,,0.000000,4.000000,4.000000,4.000000,4.000000,4.000000,4.000000,4.000000,4.000000,4.000000,4.000000,4.000000,4.000000,4.000000,4.000000,100.000000,,,,,,,,,,,,,,,,,,,,,,,,,,,,
1703403070.360125,1703403070.360155,42.000000,0.000000,4265.384766,4179.102539,4250.384766,4248.461426,4188.589844,4174.102539,4254.358887,4183.205078,4159.743652,4168.461426,4581.410156,4436.025879,4372.436035,4459.487305,0.000000,4.000000,89.000000,,,,0.000000,4.000000,4.000000,4.000000,4.000000,4.000000,4.000000,4.000000,4.000000,4.000000,4.000000,4.000000,4.000000,4.000000,4.000000,100.000000,,,,,,,,,,,,,,,,,,,,,,,,,,,,
1703403070.367933,1703403070.367863,43.000000,0.000000,4263.717773,4181.794922,4247.436035,4237.051270,4185.769043,4168.846191,4246.922852,4182.948730,4159.102539,4167.179688,4573.717773,4434.615234,4360.897461,4446.410156,0.000000,4.000000,89.000000,,,,0.000000,4.000000,4.000000,4.000000,4.000000,4.000000,4.000000,4.000000,4.000000,4.000000,4.000000,4.000000,4.000000,4.000000,4.000000,100.000000,,,,,,,,,,,,,,,,,,,,,,,,,,,,
1703403070.375741,1703403070.375771,44.000000,0.000000,4241.794922,4171.410156,4245.128418,4232.179688,4175.897461,4163.717773,4247.307617,4180.384766,4151.922852,4156.922852,4559.487305,4430.128418,4351.922852,4442.051270,0.000000,4.000000,89.000000,,,,0.000000,4.000000,4.000000,4.000000,4.000000,4.000000,4.000000,4.000000,4.000000,4.000000,4.000000,4.000000,4.000000,4.000000,4.000000,100.000000,,,,,,,,,,,,,,,,,11.000000,0.000000,0.668391,-0.063965,-0.705139,0.227905,0.915151,-0.406300,-0.006348,-30.707184,-9.765742,74.041214
1703403070.383549,1703403070.383579,45.000000,0.000000,4232.051270,4165.897461,4248.333496,4244.230957,4174.871582,4167.692383,4249.487305,4181.666504,4152.692383,4153.333496,4566.153809,4426.538574,4353.333496,4457.563965,0.000000,4.000000,89.000000,,,,0.000000,4.000000,4.000000,4.000000,4.000000,4.000000,4.000000,4.000000,4.000000,4.000000,4.000000,4.000000,4.000000,4.000000,4.000000,100.000000,,,,,,,,,,,,,,,,,,,,,,,,,,,,
1703403070.391357,1703403070.391486,46.000000,0.000000,4260.256348,4172.948730,4247.307617,4252.563965,4178.333496,4172.307617,4252.563965,4186.282227,4158.717773,4156.538574,4585.641113,4424.743652,4361.922852,4465.512695,0.000000,4.000000,89.000000,,,,0.000000,4.000000,4.000000,4.000000,4.000000,4.000000,4.000000,4.000000,4.000000,4.000000,4.000000,4.000000,4.000000,4.000000,4.000000,100.000000,,,,,,,,,,,,,,,,,,,,,,,,,,,,
1703403070.399165,1703403070.399294,47.000000,0.000000,4280.256348,4174.871582,4238.333496,4245.000000,4174.487305,4170.384766,4254.358887,4187.179688,4159.230957,4156.410156,4579.743652,4426.410156,4361.153809,4461.794922,0.000000,4.000000,89.000000,,,,0.000000,4.000000,4.000000,4.000000,4.000000,4.000000,4.000000,4.000000,4.000000,4.000000,4.000000,4.000000,4.000000,4.000000,4.000000,100.000000,,,,,,,,,,,,,,,,,,,,,,,,,,,,
1703403070.406973,1703403070.407202,48.000000,0.000000,4255.897461,4164.102539,4239.102539,4233.461426,4170.256348,4163.974121,4249.230957,4184.743652,4155.128418,4150.897461,4553.717773,4427.179688,4343.846191,4453.333496,0.000000,4.000000,89.000000,,,,0.000000,4.000000,4.000000,4.000000,4.000000,4.000000,4.000000,4.000000,4.000000,4.000000,4.000000,4.000000,4.000000,4.000000,4.000000,100.000000,,,,,,,,,,,,,,,,,12.000000,0.000000,0.668517,-0.064209,-0.705017,0.227844,0.912221,-0.404835,0.000977,-30.603132,-9.872501,73.953758
1703403070.414781,1703403070.415010,49.000000,0.000000,4234.615234,4160.897461,4245.000000,4232.436035,4169.871582,4160.256348,4245.000000,4181.538574,4153.846191,4148.205078,4549.615234,4425.128418,4342.820313,4440.897461,0.000000,4.000000,89.000000,,,,0.000000,4.000000,4.000000,4.000000,4.000000,4.000000,4.000000,4.000000,4.000000,4.000000,4.000000,4.000000,4.000000,4.000000,4.000000,100.000000,,,,,,,,,,,,,,,,,,,,,,,,,,,,
1703403070.422589,1703403070.422918,50.000000,0.000000,4256.282227,4170.256348,4240.000000,4235.641113,4169.615234,4163.846191,4246.025879,4176.025879,4149.871582,4154.743652,4578.717773,4421.153809,4367.307617,4448.205078,0.000000,4.000000,89.000000,,,,0.000000,4.000000,4.000000,4.000000,4.000000,4.000000,4.000000,4.000000,4.000000,4.000000,4.000000,4.000000,4.000000,4.000000,4.000000,100.000000,,,,,,,,,,,,,,,,,,,,,,,,,,,,
1703403070.430398,1703403070.430726,51.000000,0.000000,4273.846191,4170.512695,4238.077148,4235.641113,4169.743652,4165.512695,4247.948730,4174.230957,4146.666504,4158.589844,4587.948730,4422.179688,4370.256348,4466.794922,0.000000,4.000000,89.000000,,,,0.000000,4.000000,4.000000,4.000000,4.000000,4.000000,4.000000,4.000000,4.000000,4.000000,4.000000,4.000000,4.000000,4.000000,4.000000,100.000000,,,,,,,,,,,,,,,,,,,,,,,,,,,,
1703403070.438206,1703403070.438634,52.000000,0.000000,4255.128418,4163.974121,4247.307617,4237.692383,4175.000000,4159.615234,4246.794922,4172.820313,4149.487305,4151.025879,4569.615234,4426.922852,4352.436035,4462.563965,0.000000,4.000000,89.000000,,,,0.000000,4.000000,4.000000,4.000000,4.000000,4.000000,4.000000,4.000000,4.000000,4.000000,4.000000,4.000000,4.000000,4.000000,4.000000,100.000000,,,,,,,,,,,,,,,,,13.000000,0.000000,0.668522,-0.064392,-0.704956,0.227966,0.905872,-0.413136,-0.009278,-30.726152,-9.751918,74.041718
1703403070.446014,1703403070.446442,53.000000,0.000000,4245.897461,4170.512695,4256.666504,4250.256348,4180.128418,4156.025879,4245.897461,4172.051270,4152.179688,4153.974121,4570.641113,4431.410156,4361.025879,4452.820313,0.000000,4.000000,89.000000,,,,0.000000,4.000000,4.000000,4.000000,4.000000,4.000000,4.000000,4.000000,4.000000,4.000000,4.000000,4.000000,4.000000,4.000000,4.000000,100.000000,,,,,,,,,,,,,,,,,,,,,,,,,,,,
1703403070.453822,1703403070.454350,54.000000,0.000000,4251.282227,4176.025879,4259.102539,4253.333496,4178.717773,4161.922852,4246.153809,4177.692383,4155.128418,4165.384766,4569.871582,4435.769043,4375.897461,4450.256348,0.000000,4.000000,89.000000,,,,0.000000,4.000000,4.000000,4.000000,4.000000,4.000000,4.000000,4.000000,4.000000,4.000000,4.000000,4.000000,4.000000,4.000000,4.000000,100.000000,,,,,,,,,,,,,,,,,,,,,,,,,,,,
1703403070.461630,1703403070.462158,55.000000,0.000000,4230.384766,4169.358887,4253.461426,4235.897461,4178.461426,4167.051270,4248.461426,4178.461426,4155.512695,4157.820313,4549.615234,4428.461426,4355.897461,4441.025879,0.000000,4.000000,89.000000,,,,0.000000,4.000000,4.000000,4.000000,4.000000,4.000000,4.000000,4.000000,4.000000,4.000000,4.000000,4.000000,4.000000,4.000000,4.000000,100.000000,,,,,,,,,,,,,,,,,,,,,,,,,,,,
1703403070.469438,1703403070.469866,56.000000,0.000000,4218.589844,4165.897461,4246.025879,4232.948730,4186.666504,4165.384766,4248.461426,4168.846191,4147.179688,4147.692383,4545.897461,4414.358887,4342.179688,4444.102539,0.000000,4.000000,89.000000,,,,0.000000,4.000000,4.000000,4.000000,4.000000,4.000000,4.000000,4.000000,4.000000,4.000000,4.000000,4.000000,4.000000,4.000000,4.000000,100.000000,,,,,,,,,,,,,,,,,14.000000,0.000000,0.668561,-0.064697,-0.704773,0.228333,0.904407,-0.409230,-0.002442,-30.736870,-9.676726,74.104210
1703403070.477246,1703403070.477674,57.000000,0.000000,4251.922852,4162.948730,4241.025879,4248.205078,4186.794922,4162.692383,4243.717773,4165.512695,4144.102539,4158.077148,4550.384766,4413.205078,4349.743652,4451.666504,0.000000,4.000000,89.000000,,,,0.000000,4.000000,4.000000,4.000000,4.000000,4.000000,4.000000,4.000000,4.000000,4.000000,4.000000,4.000000,4.000000,4.000000,4.000000,100.000000,,,,,,,,,,,,,,,,,,,,,,,,,,,,
1703403070.485054,1703403070.485382,58.000000,0.000000,4266.794922,4154.871582,4236.153809,4245.128418,4180.641113,4165.641113,4245.128418,4172.820313,4153.333496,4158.846191,4548.077148,4420.000000,4340.512695,4440.641113,0.000000,4.000000,89.000000,,,,0.000000,4.000000,4.000000,4.000000,4.000000,4.000000,4.000000,4.000000,4.000000,4.000000,4.000000,4.000000,4.000000,4.000000,4.000000,100.000000,,,,,,,,,,,,,,,,,,,,,,,,,,,,
1703403070.492862,1703403070.493190,59.000000,0.000000,4238.717773,4151.410156,4229.743652,4224.358887,4183.974121,4172.436035,4251.282227,4175.000000,4154.615234,4141.794922,4556.025879,4415.512695,4327.948730,4425.897461,0.000000,4.000000,89.000000,,,,0.000000,4.000000,4.000000,4.000000,4.000000,4.000000,4.000000,4.000000,4.000000,4.000000,4.000000,4.000000,4.000000,4.000000,4.000000,100.000000,,,,,,,,,,,,,,,,,,,,,,,,,,,,
1703403070.500670,1703403070.500898,60.000000,0.000000,4217.948730,4154.743652,4225.256348,4224.230957,4187.436035,4172.692383,4251.794922,4164.487305,4143.717773,4142.436035,4550.000000,4404.743652,4333.717773,4415.384766,0.000000,4.000000,89.000000,,,,0.000000,4.000000,4.000000,4.000000,4.000000,4.000000,4.000000,4.000000,4.000000,4.000000,4.000000,4.000000,4.000000,4.000000,4.000000,100.000000,,,,,,,,,,,,,,,,,15.000000,0.000000,0.668594,-0.064819,-0.704651,0.228577,0.905872,-0.411671,-0.001465,-30.779850,-9.642386,74.077126
1703403070.508478,1703403070.508706,61.000000,0.000000,4216.282227,4156.410156,4226.410156,4244.102539,4184.102539,4166.153809,4250.641113,4156.922852,4140.512695,4153.846191,4519.615234,4407.179688,4332.436035,4410.769043,0.000000,4.000000,89.000000,,,,0.000000,4.000000,4.000000,4.000000,4.000000,4.000000,4.000000,4.000000,4.000000,4.000000,4.000000,4.000000,4.000000,4.000000,4.000000,100.000000,,,,,,,,,,,,,,,,,,,,,,,,,,,,
1703403070.516286,1703403070.516414,62.000000,0.000000,4219.358887,4157.307617,4227.051270,4250.769043,4184.358887,4161.282227,4251.153809,4161.794922,4147.179688,4152.307617,4522.307617,4410.769043,4322.820313,4421.922852,0.000000,4.000000,89.000000,,,,0.000000,4.000000,4.000000,4.000000,4.000000,4.000000,4.000000,4.000000,4.000000,4.000000,4.000000,4.000000,4.000000,4.000000,4.000000,100.000000,,,,,,,,,,,,,,,,,,,,,,,,,,,,
1703403070.524094,1703403070.524222,63.000000,0.000000,4222.563965,4163.589844,4230.384766,4246.282227,4186.666504,4164.358887,4251.025879,4167.820313,4151.794922,4154.230957,4557.692383,4407.563965,4332.179688,4438.077148,0.000000,4.000000,89.000000,,,,0.000000,4.000000,4.000000,4.000000,4.000000,4.000000,4.000000,4.000000,4.000000,4.000000,4.000000,4.000000,4.000000,4.000000,4.000000,100.000000,,,,,,,,,,,,,,,,,,,,,,,,,,,,
1703403070.531902,1703403070.531930,64.000000,0.000000,4216.282227,4168.333496,4238.461426,4249.230957,4187.051270,4171.666504,4251.538574,4168.205078,4153.589844,4159.871582,4555.769043,4415.128418,4344.358887,4433.974121,5338.000000,4.000000,89.000000,,,,0.000000,4.000000,4.000000,4.000000,4.000000,4.000000,4.000000,4.000000,4.000000,4.000000,4.000000,4.000000,4.000000,4.000000,4.000000,100.000000,1.000000,25.000000,1.000000,4.000000,3.000000,4.000000,4.000000,4.000000,4.000000,4.000000,4.000000,4.000000,1.000000,4.000000,1.000000,3.000000,16.000000,0.000000,0.668569,-0.064880,-0.704590,0.228821,0.901966,-0.423880,0.002930,-30.818531,-9.611482,74.002747
1703403070.539710,1703403070.539738,65.000000,0.000000,4212.307617,4160.641113,4240.128418,4250.256348,4186.922852,4167.692383,4251.282227,4166.922852,4151.666504,4151.794922,4525.000000,4421.282227,4333.461426,4424.230957,5061.000000,4.000000,89.000000,,,,0.000000,4.000000,4.000000,4.000000,4.000000,4.000000,4.000000,4.000000,4.000000,4.000000,4.000000,4.000000,4.000000,4.000000,4.000000,100.000000,,,,,,,,,,,,,,,,,,,,,,,,,,,,
1703403070.547518,1703403070.547446,66.000000,0.000000,4207.307617,4147.179688,4236.025879,4238.333496,4181.282227,4156.282227,4246.282227,4165.512695,4144.743652,4144.358887,4514.487305,4413.974121,4314.743652,4430.769043,5153.000000,4.000000,89.000000,,,,0.000000,4.000000,4.000000,4.000000,4.000000,4.000000,4.000000,4.000000,4.000000,4.000000,4.000000,4.000000,4.000000,4.000000,4.000000,100.000000,,,,,,,,,,,,,,,,,,,,,,,,,,,,
1703403070.555326,1703403070.555354,67.000000,0.000000,4185.512695,4143.205078,4239.871582,4234.615234,4173.846191,4155.769043,4244.230957,4164.102539,4144.358887,4145.384766,4524.615234,4414.871582,4307.948730,4426.153809,5247.000000,4.000000,89.000000,,,,0.000000,4.000000,4.000000,4.000000,4.000000,4.000000,4.000000,4.000000,4.000000,4.000000,4.000000,4.000000,4.000000,4.000000,4.000000,100.000000,,,,,,,,,,,,,,,,,,,,,,,,,,,,
1703403070.563135,1703403070.563162,68.000000,0.000000,4184.358887,4147.692383,4243.333496,4245.384766,4170.384766,4161.538574,4247.051270,4165.128418,4148.974121,4139.230957,4522.692383,4420.384766,4316.538574,4412.436035,5040.000000,4.000000,89.000000,,,,0.000000,4.000000,4.000000,4.000000,4.000000,4.000000,4.000000,4.000000,4.000000,4.000000,4.000000,4.000000,4.000000,4.000000,4.000000,100.000000,,,,,,,,,,,,,,,,,17.000000,0.000000,0.668516,-0.065002,-0.704590,0.228943,0.899036,-0.417531,-0.007813,-30.720013,-9.550333,74.019135
1703403070.570943,1703403070.571070,69.000000,0.000000,4214.615234,4154.743652,4233.205078,4251.794922,4172.051270,4163.974121,4248.974121,4163.589844,4144.615234,4134.102539,4507.307617,4413.205078,4317.307617,4414.102539,5108.000000,4.000000,89.000000,,,,0.000000,4.000000,4.000000,4.000000,4.000000,4.000000,4.000000,4.000000,4.000000,4.000000,4.000000,4.000000,4.000000,4.000000,4.000000,100.000000,,,,,,,,,,,,,,,,,,,,,,,,,,,,
1703403070.578750,1703403070.578878,70.000000,0.000000,4215.512695,4158.589844,4233.717773,4249.871582,4178.333496,4167.179688,4249.871582,4161.025879,4139.358887,4141.666504,4505.641113,4413.205078,4312.307617,4417.692383,2363.000000,4.000000,89.000000,,,,0.000000,4.000000,4.000000,4.000000,4.000000,4.000000,4.000000,4.000000,4.000000,4.000000,4.000000,4.000000,4.000000,4.000000,4.000000,100.000000,,,,,,,,,,,,,,,,,,,,,,,,,,,,
1703403070.586559,1703403070.586786,71.000000,0.000000,4188.077148,4152.948730,4248.717773,4248.974121,4182.820313,4167.692383,4250.384766,4158.461426,4141.025879,4143.974121,4510.384766,4422.692383,4317.051270,4412.563965,5263.000000,4.000000,89.000000,,,,0.000000,4.000000,4.000000,4.000000,4.000000,4.000000,4.000000,4.000000,4.000000,4.000000,4.000000,4.000000,4.000000,4.000000,4.000000,100.000000,,,,,,,,,,,,,,,,,,,,,,,,,,,,
1703403070.594367,1703403070.594594,72.000000,0.000000,4201.538574,4155.256348,4247.948730,4255.384766,4182.948730,4164.615234,4250.512695,4156.025879,4140.897461,4137.307617,4507.307617,4416.025879,4318.333496,4419.615234,5273.000000,4.000000,89.000000,,,,0.000000,4.000000,4.000000,4.000000,4.000000,4.000000,4.000000,4.000000,4.000000,4.000000,4.000000,4.000000,4.000000,4.000000,4.000000,100.000000,,,,,,,,,,,,,,,,,18.000000,0.000000,0.668504,-0.065125,-0.704590,0.228943,0.887804,-0.409230,0.000977,-30.664677,-9.628633,73.900558
1703403070.602175,1703403070.602501,73.000000,0.000000,4228.717773,4165.256348,4235.512695,4266.282227,4179.743652,4164.743652,4247.948730,4157.307617,4140.769043,4140.769043,4511.282227,4405.897461,4321.538574,4435.256348,5165.000000,4.000000,89.000000,,,,0.000000,4.000000,4.000000,4.000000,4.000000,4.000000,4.000000,4.000000,4.000000,4.000000,4.000000,4.000000,4.000000,4.000000,4.000000,100.000000,,,,,,,,,,,,,,,,,,,,,,,,,,,,
1703403070.609983,1703403070.610410,74.000000,0.000000,4207.436035,4162.820313,4237.820313,4266.282227,4179.230957,4164.102539,4245.512695,4155.000000,4140.512695,4144.615234,4507.820313,4410.384766,4328.717773,4427.436035,5816.000000,4.000000,89.000000,,,,0.000000,4.000000,4.000000,4.000000,4.000000,4.000000,4.000000,4.000000,4.000000,4.000000,4.000000,4.000000,4.000000,4.000000,4.000000,100.000000,,,,,,,,,,,,,,,,,,,,,,,,,,,,
1703403070.617791,1703403070.618218,75.000000,0.000000,4191.922852,4154.615234,4247.436035,4253.461426,4176.666504,4158.974121,4246.794922,4153.205078,4137.948730,4141.922852,4483.077148,4416.282227,4313.333496,4405.641113,6199.000000,4.000000,89.000000,,,,0.000000,4.000000,4.000000,4.000000,4.000000,4.000000,4.000000,4.000000,4.000000,4.000000,4.000000,4.000000,4.000000,4.000000,4.000000,100.000000,,,,,,,,,,,,,,,,,,,,,,,,,,,,
1703403070.625599,1703403070.626026,76.000000,0.000000,4208.589844,4154.230957,4244.102539,4244.102539,4170.384766,4154.743652,4246.794922,4155.769043,4139.871582,4143.974121,4479.487305,4415.641113,4295.128418,4399.358887,6643.000000,4.000000,89.000000,,,,0.000000,4.000000,4.000000,4.000000,4.000000,4.000000,4.000000,4.000000,4.000000,4.000000,4.000000,4.000000,4.000000,4.000000,4.000000,100.000000,,,,,,,,,,,,,,,,,19.000000,0.000000,0.668348,-0.065186,-0.704712,0.229004,0.898059,-0.417531,-0.005860,-30.748209,-9.665770,73.877167
1703403070.633407,1703403070.633934,77.000000,0.000000,4188.589844,4154.487305,4242.436035,4242.820313,4169.358887,4152.307617,4243.461426,4156.410156,4143.589844,4144.871582,4508.077148,4417.948730,4308.974121,4410.769043,6596.000000,4.000000,89.000000,,,,0.000000,4.000000,4.000000,4.000000,4.000000,4.000000,4.000000,4.000000,4.000000,4.000000,4.000000,4.000000,4.000000,4.000000,4.000000,100.000000,,,,,,,,,,,,,,,,,,,,,,,,,,,,
1703403070.641215,1703403070.641742,78.000000,0.000000,4164.871582,4153.974121,4250.256348,4251.794922,4169.487305,4156.410156,4245.897461,4161.666504,4148.077148,4144.487305,4517.948730,4422.563965,4327.692383,4426.538574,5816.000000,4.000000,89.000000,,,,0.000000,4.000000,4.000000,4.000000,4.000000,4.000000,4.000000,4.000000,4.000000,4.000000,4.000000,4.000000,4.000000,4.000000,4.000000,100.000000,,,,,,,,,,,,,,,,,,,,,,,,,,,,
1703403070.649023,1703403070.649450,79.000000,0.000000,4199.358887,4156.666504,4250.769043,4263.589844,4170.512695,4164.743652,4252.948730,4170.000000,4154.102539,4151.794922,4507.820313,4422.563965,4327.436035,4422.563965,6199.000000,4.000000,89.000000,,,,0.000000,4.000000,4.000000,4.000000,4.000000,4.000000,4.000000,4.000000,4.000000,4.000000,4.000000,4.000000,4.000000,4.000000,4.000000,100.000000,,,,,,,,,,,,,,,,,,,,,,,,,,,,
1703403070.656831,1703403070.657258,80.000000,0.000000,4231.922852,4159.615234,4243.077148,4261.922852,4176.666504,4167.820313,4253.077148,4174.102539,4153.205078,4154.358887,4506.666504,4423.077148,4326.666504,4410.512695,6643.000000,4.000000,89.000000,,,,0.000000,4.000000,4.000000,4.000000,4.000000,4.000000,4.000000,4.000000,4.000000,4.000000,4.000000,4.000000,4.000000,4.000000,4.000000,100.000000,,,,,,,,,,,,,,,,,20.000000,0.000000,0.668433,-0.065186,-0.704651,0.228943,0.890245,-0.414601,0.001465,-30.756721,-9.849193,73.872787
1703403070.664639,1703403070.664966,81.000000,0.000000,4208.077148,4161.025879,4241.922852,4252.051270,4182.820313,4165.256348,4250.641113,4172.820313,4151.282227,4145.769043,4497.692383,4422.179688,4325.000000,4418.717773,6596.000000,4.000000,89.000000,,,,0.000000,4.000000,4.000000,4.000000,4.000000,4.000000,4.000000,4.000000,4.000000,4.000000,4.000000,4.000000,4.000000,4.000000,4.000000,100.000000,,,,,,,,,,,,,,,,,,,,,,,,,,,,
1703403070.672447,1703403070.672774,82.000000,0.000000,4180.512695,4160.128418,4244.615234,4249.487305,4182.820313,4164.743652,4251.538574,4172.436035,4152.436035,4142.307617,4485.512695,4418.077148,4314.358887,4425.512695,5816.000000,4.000000,89.000000,,,,0.000000,4.000000,4.000000,4.000000,4.000000,4.000000,4.000000,4.000000,4.000000,4.000000,4.000000,4.000000,4.000000,4.000000,4.000000,100.000000,,,,,,,,,,,,,,,,,,,,,,,,,,,,
1703403070.680255,1703403070.680482,83.000000,0.000000,4185.000000,4153.333496,4238.461426,4245.512695,4183.717773,4169.230957,4252.692383,4168.077148,4146.794922,4142.692383,4491.794922,4410.897461,4309.102539,4403.461426,6199.000000,4.000000,89.000000,,,,0.000000,4.000000,4.000000,4.000000,4.000000,4.000000,4.000000,4.000000,4.000000,4.000000,4.000000,4.000000,4.000000,4.000000,4.000000,100.000000,,,,,,,,,,,,,,,,,,,,,,,,,,,,
1703403070.688063,1703403070.688290,84.000000,0.000000,4188.717773,4146.538574,4227.179688,4235.512695,4181.666504,4171.025879,4252.563965,4157.307617,4136.282227,4135.256348,4484.743652,4400.641113,4309.615234,4382.179688,6643.000000,4.000000,89.000000,,,,0.000000,4.000000,4.000000,4.000000,4.000000,4.000000,4.000000,4.000000,4.000000,4.000000,4.000000,4.000000,4.000000,4.000000,4.000000,100.000000,,,,,,,,,,,,,,,,,21.000000,0.000000,0.668471,-0.065247,-0.704590,0.229004,0.899524,-0.413625,-0.008790,-30.864384,-9.864274,73.852173
1703403070.695871,1703403070.695998,85.000000,0.000000,4181.538574,4146.153809,4226.538574,4235.256348,4178.846191,4171.153809,4252.307617,4152.820313,4139.230957,4135.256348,4470.897461,4400.769043,4310.384766,4395.128418,6596.000000,4.000000,89.000000,,,,0.000000,4.000000,4.000000,4.000000,4.000000,4.000000,4.000000,4.000000,4.000000,4.000000,4.000000,4.000000,4.000000,4.000000,4.000000,100.000000,,,,,,,,,,,,,,,,,,,,,,,,,,,,
1703403070.703679,1703403070.703806,86.000000,0.000000,4182.563965,4150.897461,4235.897461,4248.717773,4183.333496,4170.000000,4251.025879,4158.077148,4148.846191,4143.461426,4481.025879,4408.461426,4315.384766,4413.333496,5816.000000,4.000000,89.000000,,,,0.000000,4.000000,4.000000,4.000000,4.000000,4.000000,4.000000,4.000000,4.000000,4.000000,4.000000,4.000000,4.000000,4.000000,4.000000,100.000000,,,,,,,,,,,,,,,,,,,,,,,,,,,,
1703403070.711487,1703403070.711514,87.000000,0.000000,4184.615234,4154.871582,4239.102539,4258.974121,4180.897461,4160.897461,4245.641113,4156.282227,4145.000000,4140.000000,4480.384766,4406.538574,4315.897461,4404.871582,6199.000000,4.000000,89.000000,,,,0.000000,4.000000,4.000000,4.000000,4.000000,4.000000,4.000000,4.000000,4.000000,4.000000,4.000000,4.000000,4.000000,4.000000,4.000000,100.000000,,,,,,,,,,,,,,,,,,,,,,,,,,,,
1703403070.719296,1703403070.719322,88.000000,0.000000,4173.205078,4154.615234,4232.820313,4255.256348,4171.922852,4155.000000,4241.922852,4147.179688,4135.256348,4134.358887,4450.384766,4399.871582,4304.102539,4384.743652,6643.000000,4.000000,89.000000,,,,0.000000,4.000000,4.000000,4.000000,4.000000,4.000000,4.000000,4.000000,4.000000,4.000000,4.000000,4.000000,4.000000,4.000000,4.000000,100.000000,,,,,,,,,,,,,,,,,22.000000,0.000000,0.668529,-0.065308,-0.704529,0.229004,0.904896,-0.424857,-0.011232,-30.761278,-9.777846,73.883621
1703403070.727104,1703403070.727030,89.000000,0.000000,4171.794922,4154.743652,4235.897461,4249.102539,4171.922852,4160.256348,4245.000000,4157.563965,4140.128418,4140.000000,4452.820313,4406.410156,4302.563965,4385.641113,6596.000000,4.000000,89.000000,,,,0.000000,4.000000,4.000000,4.000000,4.000000,4.000000,4.000000,4.000000,4.000000,4.000000,4.000000,4.000000,4.000000,4.000000,4.000000,100.000000,,,,,,,,,,,,,,,,,,,,,,,,,,,,
1703403070.734912,1703403070.734838,90.000000,0.000000,4181.794922,4148.974121,4243.077148,4247.948730,4171.666504,4158.974121,4248.461426,4171.025879,4148.333496,4143.205078,4484.743652,4416.153809,4315.769043,4399.871582,5816.000000,4.000000,89.000000,,,,0.000000,4.000000,4.000000,4.000000,4.000000,4.000000,4.000000,4.000000,4.000000,4.000000,4.000000,4.000000,4.000000,4.000000,4.000000,100.000000,,,,,,,,,,,,,,,,,,,,,,,,,,,,
1703403070.742720,1703403070.742546,91.000000,0.000000,4165.256348,4136.025879,4232.436035,4244.743652,4168.205078,4157.051270,4245.897461,4160.384766,4140.128418,4135.897461,4473.333496,4403.974121,4301.410156,4392.820313,6199.000000,4.000000,89.000000,,,,0.000000,4.000000,4.000000,4.000000,4.000000,4.000000,4.000000,4.000000,4.000000,4.000000,4.000000,4.000000,4.000000,4.000000,4.000000,100.000000,,,,,,,,,,,,,,,,,,,,,,,,,,,,
1703403070.750528,1703403070.750454,92.000000,0.000000,4149.615234,4134.743652,4220.897461,4242.179688,4170.512695,4168.205078,4244.871582,4155.384766,4135.512695,4132.820313,4444.102539,4390.641113,4276.282227,4373.974121,6643.000000,4.000000,89.000000,,,,0.000000,4.000000,4.000000,4.000000,4.000000,4.000000,4.000000,4.000000,4.000000,4.000000,4.000000,4.000000,4.000000,4.000000,4.000000,100.000000,,,,,,,,,,,,,,,,,23.000000,0.000000,0.668538,-0.065430,-0.704529,0.228943,0.885362,-0.405811,-0.005372,-30.718483,-9.700062,73.678596
1703403070.758336,1703403070.758262,93.000000,0.000000,4166.153809,4149.358887,4230.256348,4248.077148,4173.974121,4172.820313,4251.410156,4169.871582,4149.230957,4137.051270,4456.282227,4401.922852,4297.051270,4383.846191,6596.000000,4.000000,89.000000,,,,0.000000,4.000000,4.000000,4.000000,4.000000,4.000000,4.000000,4.000000,4.000000,4.000000,4.000000,4.000000,4.000000,4.000000,4.000000,100.000000,,,,,,,,,,,,,,,,,,,,,,,,,,,,
1703403070.766144,1703403070.766170,94.000000,0.000000,4179.358887,4157.051270,4241.282227,4251.282227,4172.563965,4168.461426,4252.948730,4176.282227,4157.436035,4139.230957,4474.487305,4416.666504,4327.436035,4406.410156,5816.000000,4.000000,89.000000,,,,0.000000,4.000000,4.000000,4.000000,4.000000,4.000000,4.000000,4.000000,4.000000,4.000000,4.000000,4.000000,4.000000,4.000000,4.000000,100.000000,,,,,,,,,,,,,,,,,,,,,,,,,,,,
1703403070.773952,1703403070.773978,95.000000,0.000000,4168.974121,4148.717773,4235.512695,4246.538574,4170.641113,4169.871582,4246.794922,4170.128418,4148.461426,4138.461426,4464.487305,4412.307617,4316.794922,4397.179688,6199.000000,4.000000,89.000000,,,,0.000000,4.000000,4.000000,4.000000,4.000000,4.000000,4.000000,4.000000,4.000000,4.000000,4.000000,4.000000,4.000000,4.000000,4.000000,100.000000,,,,,,,,,,,,,,,,,,,,,,,,,,,,
1703403070.781760,1703403070.781886,96.000000,0.000000,4156.282227,4146.153809,4231.922852,4247.436035,4176.153809,4170.641113,4245.000000,4164.487305,4137.563965,4132.820313,4456.666504,4400.641113,4302.179688,4380.897461,6643.000000,4.000000,89.000000,,,,0.000000,4.000000,4.000000,4.000000,4.000000,4.000000,4.000000,4.000000,4.000000,4.000000,4.000000,4.000000,4.000000,4.000000,4.000000,100.000000,,,,,,,,,,,,,,,,,24.000000,0.000000,0.668620,-0.065674,-0.704468,0.228821,0.885850,-0.399951,-0.002442,-30.879969,-9.846723,73.627403
1703403070.789568,1703403070.789694,97.000000,0.000000,4164.358887,4156.922852,4238.589844,4250.769043,4182.692383,4165.256348,4248.461426,4157.307617,4136.282227,4129.487305,4455.897461,4403.077148,4308.717773,4393.077148,6596.000000,4.000000,89.000000,,,,0.000000,4.000000,4.000000,4.000000,4.000000,4.000000,4.000000,4.000000,4.000000,4.000000,4.000000,4.000000,4.000000,4.000000,4.000000,100.000000,,,,,,,,,,,,,,,,,,,,,,,,,,,,
1703403070.797376,1703403070.797602,98.000000,0.000000,4180.384766,4161.922852,4240.256348,4250.512695,4177.179688,4160.128418,4245.512695,4151.282227,4137.563965,4128.205078,4444.487305,4410.897461,4306.410156,4403.333496,5816.000000,4.000000,89.000000,,,,0.000000,4.000000,4.000000,4.000000,4.000000,4.000000,4.000000,4.000000,4.000000,4.000000,4.000000,4.000000,4.000000,4.000000,4.000000,100.000000,,,,,,,,,,,,,,,,,,,,,,,,,,,,
1703403070.805184,1703403070.805409,99.000000,0.000000,4178.589844,4155.128418,4240.128418,4251.282227,4167.692383,4156.922852,4242.179688,4150.256348,4132.820313,4123.974121,4439.615234,4410.384766,4299.358887,4388.717773,6199.000000,4.000000,89.000000,,,,0.000000,4.000000,4.000000,4.000000,4.000000,4.000000,4.000000,4.000000,4.000000,4.000000,4.000000,4.000000,4.000000,4.000000,4.000000,100.000000,,,,,,,,,,,,,,,,,,,,,,,,,,,,
1703403070.812992,1703403070.813317,100.000000,0.000000,4168.077148,4154.743652,4244.487305,4251.410156,4170.128418,4157.179688,4243.717773,4151.025879,4126.410156,4123.717773,4446.410156,4408.717773,4309.102539,4389.102539,6643.000000,4.000000,89.000000,,,,0.000000,4.000000,4.000000,4.000000,4.000000,4.000000,4.000000,4.000000,4.000000,4.000000,4.000000,4.000000,4.000000,4.000000,4.000000,100.000000,,,,,,,,,,,,,,,,,25.000000,0.000000,0.668605,-0.065613,-0.704468,0.228882,0.885850,-0.413625,-0.009767,-30.875305,-9.845384,73.597992
1703403070.820800,1703403070.821125,101.000000,0.000000,4164.358887,4159.230957,4244.615234,4244.487305,4173.461426,4158.205078,4244.102539,4152.436035,4125.256348,4126.538574,4450.641113,4408.461426,4312.692383,4409.615234,6596.000000,4.000000,89.000000,,,,0.000000,4.000000,4.000000,4.000000,4.000000,4.000000,4.000000,4.000000,4.000000,4.000000,4.000000,4.000000,4.000000,4.000000,4.000000,100.000000,,,,,,,,,,,,,,,,,,,,,,,,,,,,
1703403070.828608,1703403070.829033,102.000000,0.000000,4158.974121,4154.102539,4241.666504,4242.948730,4162.948730,4155.897461,4242.436035,4153.717773,4125.641113,4122.692383,4444.615234,4403.974121,4299.230957,4401.025879,5816.000000,4.000000,89.000000,,,,0.000000,4.000000,4.000000,4.000000,4.000000,4.000000,4.000000,4.000000,4.000000,4.000000,4.000000,4.000000,4.000000,4.000000,4.000000,100.000000,,,,,,,,,,,,,,,,,,,,,,,,,,,,
1703403070.836416,1703403070.836841,103.000000,0.000000,4148.846191,4146.922852,4241.153809,4250.769043,4157.948730,4157.307617,4242.692383,4157.820313,4126.922852,4116.922852,4438.333496,4401.153809,4297.307617,4388.077148,6199.000000,4.000000,89.000000,,,,0.000000,4.000000,4.000000,4.000000,4.000000,4.000000,4.000000,4.000000,4.000000,4.000000,4.000000,4.000000,4.000000,4.000000,4.000000,100.000000,,,,,,,,,,,,,,,,,,,,,,,,,,,,
1703403070.844224,1703403070.844549,104.000000,0.000000,4156.794922,4149.487305,4242.563965,4250.512695,4165.641113,4164.871582,4244.358887,4166.025879,4133.461426,4124.743652,4452.051270,4408.846191,4312.051270,4403.333496,6643.000000,4.000000,89.000000,,,,0.000000,4.000000,4.000000,4.000000,4.000000,4.000000,4.000000,4.000000,4.000000,4.000000,4.000000,4.000000,4.000000,4.000000,4.000000,100.000000,,,,,,,,,,,,,,,,,26.000000,0.000000,0.668740,-0.065796,-0.704224,0.229187,0.892687,-0.408253,0.004883,-30.887775,-9.810845,73.521530
1703403070.852032,1703403070.852357,105.000000,0.000000,4183.589844,4159.743652,4239.871582,4244.230957,4170.256348,4169.615234,4249.615234,4171.410156,4140.128418,4138.461426,4478.333496,4416.538574,4331.410156,4416.025879,6596.000000,4.000000,89.000000,,,,0.000000,4.000000,4.000000,4.000000,4.000000,4.000000,4.000000,4.000000,4.000000,4.000000,4.000000,4.000000,4.000000,4.000000,4.000000,100.000000,,,,,,,,,,,,,,,,,,,,,,,,,,,,
1703403070.859841,1703403070.860065,106.000000,0.000000,4178.846191,4167.692383,4236.410156,4247.051270,4167.051270,4167.307617,4251.666504,4167.307617,4138.333496,4140.128418,4486.794922,4408.846191,4339.871582,4408.717773,5816.000000,4.000000,89.000000,,,,0.000000,4.000000,4.000000,4.000000,4.000000,4.000000,4.000000,4.000000,4.000000,4.000000,4.000000,4.000000,4.000000,4.000000,4.000000,100.000000,,,,,,,,,,,,,,,,,,,,,,,,,,,,
1703403070.867648,1703403070.867973,107.000000,0.000000,4148.717773,4168.461426,4234.871582,4249.871582,4167.436035,4166.153809,4247.948730,4161.282227,4134.615234,4130.384766,4474.102539,4398.846191,4330.512695,4395.512695,6199.000000,4.000000,89.000000,,,,0.000000,4.000000,4.000000,4.000000,4.000000,4.000000,4.000000,4.000000,4.000000,4.000000,4.000000,4.000000,4.000000,4.000000,4.000000,100.000000,,,,,,,,,,,,,,,,,,,,,,,,,,,,
1703403070.875456,1703403070.875781,108.000000,0.000000,4146.666504,4164.615234,4234.615234,4245.384766,4170.384766,4168.846191,4247.307617,4166.025879,4143.205078,4135.128418,4474.102539,4407.436035,4330.128418,4395.512695,6643.000000,4.000000,89.000000,,,,0.000000,4.000000,4.000000,4.000000,4.000000,4.000000,4.000000,4.000000,4.000000,4.000000,4.000000,4.000000,4.000000,4.000000,4.000000,100.000000,,,,,,,,,,,,,,,,,27.000000,0.000000,0.668736,-0.065857,-0.704163,0.229370,0.892687,-0.417531,-0.000977,-30.832331,-9.729760,73.552711
1703403070.883265,1703403070.883689,109.000000,0.000000,4173.077148,4169.102539,4242.436035,4253.461426,4170.000000,4171.282227,4250.128418,4174.230957,4156.153809,4153.333496,4506.282227,4420.641113,4357.051270,4415.512695,6596.000000,4.000000,89.000000,,,,0.000000,4.000000,4.000000,4.000000,4.000000,4.000000,4.000000,4.000000,4.000000,4.000000,4.000000,4.000000,4.000000,4.000000,4.000000,100.000000,,,,,,,,,,,,,,,,,,,,,,,,,,,,
1703403070.891073,1703403070.891497,110.000000,0.000000,4185.256348,4181.794922,4251.666504,4269.102539,4172.563965,4167.563965,4245.512695,4167.307617,4152.820313,4152.436035,4537.307617,4421.794922,4373.974121,4431.922852,5816.000000,4.000000,89.000000,,,,0.000000,4.000000,4.000000,4.000000,4.000000,4.000000,4.000000,4.000000,4.000000,4.000000,4.000000,4.000000,4.000000,4.000000,4.000000,100.000000,,,,,,,,,,,,,,,,,,,,,,,,,,,,
1703403070.898881,1703403070.899305,111.000000,0.000000,4181.025879,4189.487305,4254.358887,4269.102539,4175.128418,4157.436035,4238.333496,4154.871582,4139.102539,4146.153809,4539.358887,4418.333496,4362.051270,4426.410156,6199.000000,4.000000,89.000000,,,,0.000000,4.000000,4.000000,4.000000,4.000000,4.000000,4.000000,4.000000,4.000000,4.000000,4.000000,4.000000,4.000000,4.000000,4.000000,100.000000,,,,,,,,,,,,,,,,,,,,,,,,,,,,
1703403070.906689,1703403070.907013,112.000000,0.000000,4180.897461,4184.743652,4254.487305,4262.179688,4172.948730,4151.282227,4238.205078,4154.871582,4138.717773,4150.256348,4540.512695,4415.769043,4362.436035,4418.846191,6643.000000,4.000000,89.000000,,,,0.000000,4.000000,4.000000,4.000000,4.000000,4.000000,4.000000,4.000000,4.000000,4.000000,4.000000,4.000000,4.000000,4.000000,4.000000,100.000000,,,,,,,,,,,,,,,,,28.000000,0.000000,0.668762,-0.066040,-0.704041,0.229614,0.896594,-0.429740,0.007813,-30.799097,-9.673451,73.597435
1703403070.914497,1703403070.914821,113.000000,0.000000,4178.846191,4173.846191,4255.512695,4260.128418,4168.846191,4152.179688,4239.102539,4155.769043,4141.794922,4145.641113,4545.769043,4412.051270,4374.230957,4419.102539,6596.000000,4.000000,89.000000,,,,0.000000,4.000000,4.000000,4.000000,4.000000,4.000000,4.000000,4.000000,4.000000,4.000000,4.000000,4.000000,4.000000,4.000000,4.000000,100.000000,,,,,,,,,,,,,,,,,,,,,,,,,,,,
1703403070.922305,1703403070.922529,114.000000,0.000000,4175.769043,4172.307617,4255.000000,4260.256348,4170.512695,4153.077148,4241.410156,4153.717773,4130.256348,4136.410156,4532.051270,4411.025879,4367.307617,4414.615234,5816.000000,4.000000,89.000000,,,,0.000000,4.000000,4.000000,4.000000,4.000000,4.000000,4.000000,4.000000,4.000000,4.000000,4.000000,4.000000,4.000000,4.000000,4.000000,100.000000,,,,,,,,,,,,,,,,,,,,,,,,,,,,
1703403070.930113,1703403070.930437,115.000000,0.000000,4166.538574,4175.512695,4256.666504,4263.846191,4173.717773,4154.102539,4244.871582,4153.846191,4121.922852,4136.282227,4523.717773,4410.256348,4353.846191,4412.692383,6199.000000,4.000000,89.000000,,,,0.000000,4.000000,4.000000,4.000000,4.000000,4.000000,4.000000,4.000000,4.000000,4.000000,4.000000,4.000000,4.000000,4.000000,4.000000,100.000000,,,,,,,,,,,,,,,,,,,,,,,,,,,,
1703403070.937921,1703403070.938245,116.000000,0.000000,4157.948730,4176.538574,4261.410156,4263.717773,4169.615234,4159.230957,4243.589844,4153.333496,4125.128418,4135.256348,4535.897461,4407.179688,4349.487305,4417.307617,6643.000000,4.000000,89.000000,,,,0.000000,4.000000,4.000000,4.000000,4.000000,4.000000,4.000000,4.000000,4.000000,4.000000,4.000000,4.000000,4.000000,4.000000,4.000000,100.000000,,,,,,,,,,,,,,,,,29.000000,0.000000,0.668808,-0.066223,-0.703979,0.229614,0.911732,-0.418508,-0.002442,-30.885855,-9.722773,73.621025
1703403070.945729,1703403070.946153,117.000000,0.000000,4157.948730,4172.692383,4260.512695,4253.077148,4163.461426,4162.948730,4244.743652,4157.692383,4126.282227,4136.410156,4538.846191,4404.487305,4347.051270,4411.666504,6596.000000,4.000000,89.000000,,,,0.000000,4.000000,4.000000,4.000000,4.000000,4.000000,4.000000,4.000000,4.000000,4.000000,4.000000,4.000000,4.000000,4.000000,4.000000,100.000000,,,,,,,,,,,,,,,,,,,,,,,,,,,,
1703403070.953537,1703403070.953961,118.000000,0.000000,4151.282227,4159.871582,4249.743652,4245.769043,4163.205078,4166.794922,4251.025879,4168.205078,4126.794922,4139.743652,4525.384766,4402.692383,4341.282227,4397.563965,5816.000000,4.000000,89.000000,,,,0.000000,4.000000,4.000000,4.000000,4.000000,4.000000,4.000000,4.000000,4.000000,4.000000,4.000000,4.000000,4.000000,4.000000,4.000000,100.000000,,,,,,,,,,,,,,,,,,,,,,,,,,,,
1703403070.961345,1703403070.961869,119.000000,0.000000,4153.461426,4154.102539,4237.051270,4245.512695,4165.897461,4165.512695,4250.897461,4169.358887,4131.282227,4135.128418,4515.641113,4401.666504,4340.384766,4395.769043,6199.000000,4.000000,89.000000,,,,0.000000,4.000000,4.000000,4.000000,4.000000,4.000000,4.000000,4.000000,4.000000,4.000000,4.000000,4.000000,4.000000,4.000000,4.000000,100.000000,,,,,,,,,,,,,,,,,,,,,,,,,,,,
1703403070.969153,1703403070.969677,120.000000,0.000000,4172.051270,4166.666504,4237.948730,4247.179688,4166.794922,4159.743652,4244.230957,4165.384766,4137.948730,4140.897461,4526.538574,4405.000000,4352.307617,4409.487305,6643.000000,4.000000,89.000000,,,,0.000000,4.000000,4.000000,4.000000,4.000000,4.000000,4.000000,4.000000,4.000000,4.000000,4.000000,4.000000,4.000000,4.000000,4.000000,100.000000,,,,,,,,,,,,,,,,,30.000000,0.000000,0.668814,-0.066162,-0.703979,0.229614,0.897082,-0.416066,0.000000,-31.030602,-9.833829,73.575592
1703403070.976961,1703403070.977584,121.000000,0.000000,4181.922852,4176.538574,4250.512695,4257.307617,4168.846191,4163.077148,4245.128418,4171.153809,4147.820313,4158.205078,4552.179688,4414.615234,4371.025879,4418.333496,6596.000000,4.000000,89.000000,,,,0.000000,4.000000,4.000000,4.000000,4.000000,4.000000,4.000000,4.000000,4.000000,4.000000,4.000000,4.000000,4.000000,4.000000,4.000000,100.000000,,,,,,,,,,,,,,,,,,,,,,,,,,,,
1703403070.984769,1703403070.985392,122.000000,0.000000,4168.205078,4169.615234,4257.563965,4265.897461,4169.743652,4165.512695,4247.436035,4176.025879,4157.948730,4162.179688,4555.384766,4420.769043,4369.743652,4415.000000,5816.000000,4.000000,89.000000,,,,0.000000,4.000000,4.000000,4.000000,4.000000,4.000000,4.000000,4.000000,4.000000,4.000000,4.000000,4.000000,4.000000,4.000000,4.000000,100.000000,,,,,,,,,,,,,,,,,,,,,,,,,,,,
1703403070.992577,1703403070.993300,123.000000,0.000000,4160.641113,4169.871582,4257.179688,4258.846191,4169.102539,4157.692383,4242.820313,4173.205078,4158.589844,4163.717773,4543.974121,4420.384766,4352.436035,4412.179688,6199.000000,4.000000,89.000000,,,,0.000000,4.000000,4.000000,4.000000,4.000000,4.000000,4.000000,4.000000,4.000000,4.000000,4.000000,4.000000,4.000000,4.000000,4.000000,100.000000,,,,,,,,,,,,,,,,,,,,,,,,,,,,
1703403071.000385,1703403071.001108,124.000000,0.000000,4167.307617,4176.410156,4256.282227,4255.512695,4169.358887,4149.871582,4239.743652,4171.666504,4155.128418,4173.333496,4550.000000,4420.769043,4351.666504,4409.743652,6643.000000,4.000000,89.000000,,,,0.000000,4.000000,4.000000,4.000000,4.000000,4.000000,4.000000,4.000000,4.000000,4.000000,4.000000,4.000000,4.000000,4.000000,4.000000,100.000000,,,,,,,,,,,,,,,,,31.000000,0.000000,0.669003,-0.065979,-0.703857,0.229492,0.893664,-0.421438,0.000000,-31.110876,-9.800446,73.534698
1703403071.008193,1703403071.009016,125.000000,0.000000,4172.692383,4173.974121,4258.077148,4261.153809,4164.871582,4146.410156,4241.922852,4171.153809,4155.897461,4170.641113,4552.692383,4420.384766,4357.692383,4409.102539,6596.000000,4.000000,89.000000,,,,0.000000,4.000000,4.000000,4.000000,4.000000,4.000000,4.000000,4.000000,4.000000,4.000000,4.000000,4.000000,4.000000,4.000000,4.000000,100.000000,,,,,,,,,,,,,,,,,,,,,,,,,,,,
1703403071.016002,1703403071.016824,126.000000,0.000000,4165.512695,4170.000000,4259.743652,4257.692383,4162.051270,4145.512695,4246.025879,4168.333496,4155.769043,4157.051270,4539.487305,4415.897461,4351.666504,4411.794922,5816.000000,4.000000,89.000000,,,,0.000000,4.000000,4.000000,4.000000,4.000000,4.000000,4.000000,4.000000,4.000000,4.000000,4.000000,4.000000,4.000000,4.000000,4.000000,100.000000,,,,,,,,,,,,,,,,,,,,,,,,,,,,
1703403071.023810,1703403071.024532,127.000000,0.000000,4143.589844,4168.205078,4254.102539,4247.563965,4168.461426,4151.282227,4245.384766,4166.410156,4149.230957,4147.692383,4524.358887,4410.897461,4339.358887,4401.538574,89.000000,4.000000,89.000000,,,,0.000000,4.000000,4.000000,4.000000,4.000000,4.000000,4.000000,4.000000,4.000000,4.000000,4.000000,4.000000,4.000000,4.000000,4.000000,100.000000,,,,,,,,,,,,,,,,,,,,,,,,,,,,
1703403071.031618,1703403071.032340,0.000000,0.000000,4139.615234,4167.051270,4249.615234,4249.102539,4172.820313,4158.717773,4247.436035,4167.436035,4140.897461,4147.692383,4512.051270,4409.487305,4331.922852,4389.743652,5338.000000,4.000000,89.000000,,,,0.000000,4.000000,4.000000,4.000000,4.000000,4.000000,4.000000,4.000000,4.000000,4.000000,4.000000,4.000000,4.000000,4.000000,4.000000,100.000000,1.000000,66.666664,4.000000,4.000000,4.000000,4.000000,4.000000,4.000000,4.000000,4.000000,4.000000,4.000000,1.000000,4.000000,3.000000,4.000000,0.000000,0.000000,0.669261,-0.065735,-0.703674,0.229370,0.906849,-0.417531,0.001465,-31.016455,-9.653734,73.714561
1703403071.039426,1703403071.040048,1.000000,0.000000,4157.563965,4165.769043,4252.051270,4258.717773,4169.487305,4161.153809,4251.410156,4165.128418,4138.077148,4151.538574,4509.615234,4409.871582,4329.615234,4397.563965,5073.000000,4.000000,89.000000,,,,0.000000,4.000000,4.000000,4.000000,4.000000,4.000000,4.000000,4.000000,4.000000,4.000000,4.000000,4.000000,4.000000,4.000000,4.000000,100.000000,,,,,,,,,,,,,,,,,,,,,,,,,,,,
1703403071.047234,1703403071.047856,2.000000,0.000000,4162.436035,4165.641113,4249.358887,4256.025879,4170.769043,4164.743652,4248.717773,4162.563965,4139.358887,4148.461426,4519.102539,4407.307617,4331.025879,4405.897461,5155.000000,4.000000,89.000000,,,,0.000000,4.000000,4.000000,4.000000,4.000000,4.000000,4.000000,4.000000,4.000000,4.000000,4.000000,4.000000,4.000000,4.000000,4.000000,100.000000,,,,,,,,,,,,,,,,,,,,,,,,,,,,
1703403071.055042,1703403071.055564,3.000000,0.000000,4160.128418,4167.051270,4247.051270,4248.461426,4175.769043,4167.692383,4246.538574,4166.153809,4140.384766,4142.948730,4523.846191,4403.077148,4339.102539,4397.948730,5243.000000,4.000000,89.000000,,,,0.000000,4.000000,4.000000,4.000000,4.000000,4.000000,4.000000,4.000000,4.000000,4.000000,4.000000,4.000000,4.000000,4.000000,4.000000,100.000000,,,,,,,,,,,,,,,,,,,,,,,,,,,,
1703403071.062850,1703403071.063372,4.000000,0.000000,4170.641113,4167.692383,4248.461426,4252.436035,4170.897461,4162.179688,4250.641113,4167.563965,4139.358887,4140.256348,4522.820313,4400.000000,4349.102539,4397.051270,5040.000000,4.000000,89.000000,,,,0.000000,4.000000,4.000000,4.000000,4.000000,4.000000,4.000000,4.000000,4.000000,4.000000,4.000000,4.000000,4.000000,4.000000,4.000000,100.000000,,,,,,,,,,,,,,,,,1.000000,0.000000,0.669528,-0.065613,-0.703491,0.229187,0.888780,-0.412648,0.001465,-31.031475,-9.455028,73.676437
1703403071.070658,1703403071.071080,5.000000,0.000000,4172.179688,4167.179688,4245.000000,4260.384766,4167.179688,4154.871582,4248.461426,4158.974121,4137.692383,4138.846191,4513.205078,4396.153809,4346.410156,4396.025879,5108.000000,4.000000,89.000000,,,,0.000000,4.000000,4.000000,4.000000,4.000000,4.000000,4.000000,4.000000,4.000000,4.000000,4.000000,4.000000,4.000000,4.000000,4.000000,100.000000,,,,,,,,,,,,,,,,,,,,,,,,,,,,
1703403071.078466,1703403071.078888,6.000000,0.000000,4170.128418,4173.717773,4243.333496,4262.692383,4176.025879,4152.820313,4240.384766,4152.563965,4144.487305,4142.307617,4505.769043,4398.333496,4332.436035,4383.333496,2363.000000,4.000000,89.000000,,,,0.000000,4.000000,4.000000,4.000000,4.000000,4.000000,4.000000,4.000000,4.000000,4.000000,4.000000,4.000000,4.000000,4.000000,4.000000,100.000000,,,,,,,,,,,,,,,,,,,,,,,,,,,,
1703403071.086274,1703403071.086596,7.000000,0.000000,4184.615234,4182.563965,4253.846191,4264.743652,4181.025879,4157.307617,4241.794922,4156.282227,4151.538574,4154.743652,4518.333496,4409.487305,4339.230957,4397.436035,5265.000000,4.000000,89.000000,,,,0.000000,4.000000,4.000000,4.000000,4.000000,4.000000,4.000000,4.000000,4.000000,4.000000,4.000000,4.000000,4.000000,4.000000,4.000000,100.000000,,,,,,,,,,,,,,,,,,,,,,,,,,,,
1703403071.094082,1703403071.094404,8.000000,0.000000,4181.410156,4179.230957,4262.436035,4268.846191,4174.358887,4154.615234,4243.589844,4156.538574,4145.000000,4160.000000,4516.153809,4411.538574,4358.589844,4418.589844,5278.000000,4.000000,89.000000,,,,0.000000,4.000000,4.000000,4.000000,4.000000,4.000000,4.000000,4.000000,4.000000,4.000000,4.000000,4.000000,4.000000,4.000000,4.000000,100.000000,,,,,,,,,,,,,,,,,2.000000,0.000000,0.669703,-0.065552,-0.703430,0.228882,0.898547,-0.409718,0.004395,-30.844995,-9.509525,73.792130
1703403071.101890,1703403071.102112,9.000000,0.000000,4174.615234,4175.000000,4259.615234,4268.717773,4167.563965,4144.102539,4237.692383,4150.641113,4134.358887,4148.589844,4503.589844,4406.538574,4355.256348,4409.358887,5166.000000,4.000000,89.000000,,,,0.000000,4.000000,4.000000,4.000000,4.000000,4.000000,4.000000,4.000000,4.000000,4.000000,4.000000,4.000000,4.000000,4.000000,4.000000,100.000000,,,,,,,,,,,,,,,,,,,,,,,,,,,,
1703403071.109698,1703403071.109920,10.000000,0.000000,4189.230957,4183.205078,4259.358887,4266.538574,4168.461426,4146.538574,4238.205078,4155.000000,4139.487305,4145.384766,4524.358887,4413.077148,4347.051270,4411.410156,5823.000000,4.000000,89.000000,,,,0.000000,4.000000,4.000000,4.000000,4.000000,4.000000,4.000000,4.000000,4.000000,4.000000,4.000000,4.000000,4.000000,4.000000,4.000000,100.000000,,,,,,,,,,,,,,,,,,,,,,,,,,,,
1703403071.117506,1703403071.117628,11.000000,0.000000,4189.358887,4188.333496,4266.025879,4264.743652,4170.256348,4156.153809,4243.589844,4166.410156,4150.641113,4154.487305,4546.025879,4423.205078,4354.743652,4427.692383,6153.000000,4.000000,89.000000,,,,0.000000,4.000000,4.000000,4.000000,4.000000,4.000000,4.000000,4.000000,4.000000,4.000000,4.000000,4.000000,4.000000,4.000000,4.000000,100.000000,,,,,,,,,,,,,,,,,,,,,,,,,,,,
1703403071.125314,1703403071.125536,12.000000,0.000000,4173.205078,4179.102539,4268.333496,4265.512695,4170.641113,4156.666504,4243.717773,4167.820313,4147.051270,4153.461426,4531.794922,4420.641113,4361.922852,4420.128418,6646.000000,4.000000,89.000000,,,,0.000000,4.000000,4.000000,4.000000,4.000000,4.000000,4.000000,4.000000,4.000000,4.000000,4.000000,4.000000,4.000000,4.000000,4.000000,100.000000,,,,,,,,,,,,,,,,,3.000000,0.000000,0.669739,-0.065613,-0.703430,0.228760,0.886827,-0.416555,-0.001465,-30.860495,-9.641906,73.862915
1703403071.133122,1703403071.133344,13.000000,0.000000,4174.102539,4170.256348,4263.205078,4263.589844,4170.512695,4152.307617,4242.436035,4163.589844,4140.000000,4140.512695,4520.384766,4416.410156,4357.436035,4407.820313,6583.000000,4.000000,89.000000,,,,0.000000,4.000000,4.000000,4.000000,4.000000,4.000000,4.000000,4.000000,4.000000,4.000000,4.000000,4.000000,4.000000,4.000000,4.000000,100.000000,,,,,,,,,,,,,,,,,,,,,,,,,,,,
1703403071.140930,1703403071.141252,14.000000,0.000000,4180.897461,4170.897461,4256.025879,4262.436035,4169.358887,4155.897461,4247.948730,4167.179688,4146.410156,4141.794922,4525.384766,4419.230957,4356.153809,4412.820313,5823.000000,4.000000,89.000000,,,,0.000000,4.000000,4.000000,4.000000,4.000000,4.000000,4.000000,4.000000,4.000000,4.000000,4.000000,4.000000,4.000000,4.000000,4.000000,100.000000,,,,,,,,,,,,,,,,,,,,,,,,,,,,
1703403071.148739,1703403071.149060,15.000000,0.000000,4175.769043,4173.461426,4253.846191,4265.641113,4166.025879,4158.077148,4246.794922,4173.717773,4157.436035,4156.666504,4526.794922,4420.897461,4362.051270,4417.051270,6153.000000,4.000000,89.000000,,,,0.000000,4.000000,4.000000,4.000000,4.000000,4.000000,4.000000,4.000000,4.000000,4.000000,4.000000,4.000000,4.000000,4.000000,4.000000,100.000000,,,,,,,,,,,,,,,,,,,,,,,,,,,,
1703403071.156546,1703403071.156968,16.000000,0.000000,4163.077148,4170.128418,4256.025879,4259.743652,4161.794922,4152.692383,4238.205078,4169.358887,4155.512695,4152.948730,4526.538574,4414.871582,4357.436035,4410.512695,0.000000,4.000000,89.000000,,,,0.000000,4.000000,4.000000,4.000000,4.000000,4.000000,4.000000,4.000000,4.000000,4.000000,4.000000,4.000000,4.000000,4.000000,4.000000,100.000000,,,,,,,,,,,,,,,,,4.000000,0.000000,0.670004,-0.065735,-0.703186,0.228699,0.897082,-0.403370,-0.000977,-30.957779,-9.711048,73.876625
1703403071.164354,1703403071.164776,17.000000,0.000000,4151.410156,4160.897461,4252.179688,4248.205078,4157.692383,4152.307617,4240.128418,4160.128418,4144.358887,4137.820313,4516.025879,4408.205078,4341.794922,4400.897461,0.000000,4.000000,89.000000,,,,0.000000,4.000000,4.000000,4.000000,4.000000,4.000000,4.000000,4.000000,4.000000,4.000000,4.000000,4.000000,4.000000,4.000000,4.000000,100.000000,,,,,,,,,,,,,,,,,,,,,,,,,,,,
1703403071.172163,1703403071.172684,18.000000,0.000000,4159.615234,4157.692383,4245.256348,4246.153809,4156.410156,4154.615234,4244.871582,4160.000000,4139.358887,4136.794922,4503.974121,4410.512695,4341.666504,4394.743652,0.000000,4.000000,89.000000,,,,0.000000,4.000000,4.000000,4.000000,4.000000,4.000000,4.000000,4.000000,4.000000,4.000000,4.000000,4.000000,4.000000,4.000000,4.000000,100.000000,,,,,,,,,,,,,,,,,,,,,,,,,,,,
1703403071.179971,1703403071.180492,19.000000,0.000000,4168.077148,4163.333496,4247.948730,4250.769043,4161.025879,4153.461426,4242.307617,4167.820313,4144.743652,4146.922852,4509.743652,4416.794922,4354.487305,4400.769043,0.000000,4.000000,89.000000,,,,0.000000,4.000000,4.000000,4.000000,4.000000,4.000000,4.000000,4.000000,4.000000,4.000000,4.000000,4.000000,4.000000,4.000000,4.000000,100.000000,,,,,,,,,,,,,,,,,,,,,,,,,,,,
1703403071.187779,1703403071.188400,20.000000,0.000000,4160.897461,4169.743652,4256.922852,4255.769043,4165.128418,4153.846191,4240.128418,4171.410156,4149.743652,4155.000000,4525.128418,4419.230957,4349.230957,4412.051270,0.000000,4.000000,89.000000,,,,0.000000,4.000000,4.000000,4.000000,4.000000,4.000000,4.000000,4.000000,4.000000,4.000000,4.000000,4.000000,4.000000,4.000000,4.000000,100.000000,,,,,,,,,,,,,,,,,5.000000,0.000000,0.670062,-0.065796,-0.703125,0.228699,0.888780,-0.405323,-0.003907,-30.812000,-9.839944,73.905632
1703403071.195587,1703403071.196208,21.000000,0.000000,4170.897461,4172.179688,4264.743652,4263.205078,4166.410156,4154.871582,4241.410156,4164.615234,4144.102539,4153.717773,4525.256348,4418.333496,4340.769043,4411.025879,0.000000,4.000000,89.000000,,,,0.000000,4.000000,4.000000,4.000000,4.000000,4.000000,4.000000,4.000000,4.000000,4.000000,4.000000,4.000000,4.000000,4.000000,4.000000,100.000000,,,,,,,,,,,,,,,,,,,,,,,,,,,,
1703403071.203395,1703403071.204016,22.000000,0.000000,4189.615234,4169.358887,4264.615234,4265.384766,4165.000000,4152.436035,4241.538574,4158.077148,4138.205078,4142.820313,4511.025879,4415.512695,4341.922852,4402.820313,0.000000,4.000000,89.000000,,,,0.000000,4.000000,4.000000,4.000000,4.000000,4.000000,4.000000,4.000000,4.000000,4.000000,4.000000,4.000000,4.000000,4.000000,4.000000,100.000000,,,,,,,,,,,,,,,,,,,,,,,,,,,,
1703403071.211203,1703403071.211824,23.000000,0.000000,4187.307617,4168.717773,4260.384766,4261.282227,4160.000000,4151.282227,4239.871582,4160.384766,4139.871582,4136.282227,4506.282227,4415.769043,4336.922852,4406.922852,0.000000,4.000000,89.000000,,,,0.000000,4.000000,4.000000,4.000000,4.000000,4.000000,4.000000,4.000000,4.000000,4.000000,4.000000,4.000000,4.000000,4.000000,4.000000,100.000000,,,,,,,,,,,,,,,,,,,,,,,,,,,,
1703403071.219011,1703403071.219532,24.000000,0.000000,4182.563965,4173.846191,4263.333496,4264.487305,4158.974121,4153.205078,4238.974121,4166.794922,4141.282227,4141.794922,4518.974121,4419.615234,4335.512695,4416.794922,0.000000,4.000000,89.000000,,,,0.000000,4.000000,4.000000,4.000000,4.000000,4.000000,4.000000,4.000000,4.000000,4.000000,4.000000,4.000000,4.000000,4.000000,4.000000,100.000000,,,,,,,,,,,,,,,,,6.000000,0.000000,0.670184,-0.065857,-0.703003,0.228699,0.891710,-0.412648,-0.006348,-30.847467,-9.755949,73.898399
1703403071.226819,1703403071.227340,25.000000,0.000000,4190.897461,4173.589844,4265.128418,4263.846191,4165.897461,4154.358887,4238.846191,4169.743652,4144.615234,4149.743652,4539.358887,4423.205078,4350.897461,4422.563965,0.000000,4.000000,89.000000,,,,0.000000,4.000000,4.000000,4.000000,4.000000,4.000000,4.000000,4.000000,4.000000,4.000000,4.000000,4.000000,4.000000,4.000000,4.000000,100.000000,,,,,,,,,,,,,,,,,,,,,,,,,,,,
1703403071.234627,1703403071.235048,26.000000,0.000000,4194.871582,4170.384766,4258.717773,4258.461426,4169.615234,4155.000000,4237.820313,4165.256348,4147.948730,4156.922852,4542.307617,4424.358887,4358.974121,4425.128418,0.000000,4.000000,89.000000,,,,0.000000,4.000000,4.000000,4.000000,4.000000,4.000000,4.000000,4.000000,4.000000,4.000000,4.000000,4.000000,4.000000,4.000000,4.000000,100.000000,,,,,,,,,,,,,,,,,,,,,,,,,,,,
1703403071.242435,1703403071.242856,27.000000,0.000000,4190.384766,4171.666504,4258.205078,4262.436035,4166.025879,4155.512695,4234.871582,4158.205078,4144.871582,4157.307617,4528.846191,4420.256348,4350.128418,4420.384766,0.000000,4.000000,89.000000,,,,0.000000,4.000000,4.000000,4.000000,4.000000,4.000000,4.000000,4.000000,4.000000,4.000000,4.000000,4.000000,4.000000,4.000000,4.000000,100.000000,,,,,,,,,,,,,,,,,,,,,,,,,,,,
1703403071.250243,1703403071.250564,28.000000,0.000000,4181.153809,4172.179688,4261.153809,4268.333496,4167.563965,4154.743652,4236.153809,4154.871582,4140.128418,4145.512695,4522.692383,4409.615234,4340.641113,4412.692383,0.000000,4.000000,89.000000,,,,0.000000,4.000000,4.000000,4.000000,4.000000,4.000000,4.000000,4.000000,4.000000,4.000000,4.000000,4.000000,4.000000,4.000000,4.000000,100.000000,,,,,,,,,,,,,,,,,7.000000,0.000000,0.670269,-0.065857,-0.702942,0.228638,0.908802,-0.411183,-0.002930,-30.862720,-9.697021,73.791893
1703403071.258051,1703403071.258372,29.000000,0.000000,4173.333496,4175.512695,4257.820313,4266.538574,4169.615234,4154.102539,4239.487305,4156.025879,4139.230957,4137.820313,4522.051270,4403.205078,4341.153809,4415.384766,0.000000,4.000000,89.000000,,,,0.000000,4.000000,4.000000,4.000000,4.000000,4.000000,4.000000,4.000000,4.000000,4.000000,4.000000,4.000000,4.000000,4.000000,4.000000,100.000000,,,,,,,,,,,,,,,,,,,,,,,,,,,,
1703403071.265859,1703403071.266080,30.000000,0.000000,4177.307617,4181.410156,4259.358887,4263.717773,4162.948730,4154.743652,4233.974121,4157.563965,4141.153809,4144.102539,4513.717773,4411.410156,4348.333496,4415.641113,0.000000,4.000000,89.000000,,,,0.000000,4.000000,4.000000,4.000000,4.000000,4.000000,4.000000,4.000000,4.000000,4.000000,4.000000,4.000000,4.000000,4.000000,4.000000,100.000000,,,,,,,,,,,,,,,,,,,,,,,,,,,,
1703403071.273667,1703403071.273888,31.000000,0.000000,4182.051270,4176.538574,4262.051270,4263.717773,4160.512695,4154.358887,4232.179688,4156.538574,4138.205078,4143.205078,4504.102539,4415.384766,4345.000000,4408.461426,0.000000,4.000000,89.000000,,,,0.000000,4.000000,4.000000,4.000000,4.000000,4.000000,4.000000,4.000000,4.000000,4.000000,4.000000,4.000000,4.000000,4.000000,4.000000,100.000000,,,,,,,,,,,,,,,,,,,,,,,,,,,,
1703403071.281475,1703403071.281596,32.000000,0.000000,4175.769043,4169.487305,4258.205078,4262.436035,4162.692383,4152.948730,4234.230957,4153.333496,4133.974121,4133.589844,4504.615234,4409.102539,4335.769043,4411.666504,0.000000,4.000000,89.000000,,,,0.000000,4.000000,4.000000,4.000000,4.000000,4.000000,4.000000,4.000000,4.000000,4.000000,4.000000,4.000000,4.000000,4.000000,4.000000,100.000000,,,,,,,,,,,,,,,,,8.000000,0.000000,0.670333,-0.065857,-0.702881,0.228638,0.903919,-0.415578,0.002442,-30.876450,-9.760653,73.779373
1703403071.289283,1703403071.289404,33.000000,0.000000,4172.051270,4173.077148,4261.153809,4263.717773,4160.256348,4151.666504,4231.538574,4152.307617,4136.538574,4139.743652,4503.333496,4409.743652,4336.025879,4418.846191,0.000000,4.000000,89.000000,,,,0.000000,4.000000,4.000000,4.000000,4.000000,4.000000,4.000000,4.000000,4.000000,4.000000,4.000000,4.000000,4.000000,4.000000,4.000000,100.000000,,,,,,,,,,,,,,,,,,,,,,,,,,,,
1703403071.297091,1703403071.297112,34.000000,0.000000,4172.179688,4173.974121,4269.230957,4263.205078,4158.846191,4152.307617,4233.461426,4155.512695,4140.512695,4151.153809,4506.153809,4417.563965,4341.410156,4416.410156,0.000000,4.000000,89.000000,,,,0.000000,4.000000,4.000000,4.000000,4.000000,4.000000,4.000000,4.000000,4.000000,4.000000,4.000000,4.000000,4.000000,4.000000,4.000000,100.000000,,,,,,,,,,,,,,,,,,,,,,,,,,,,
1703403071.304900,1703403071.305020,35.000000,0.000000,4164.743652,4169.615234,4271.794922,4259.743652,4164.358887,4153.974121,4238.333496,4155.897461,4139.230957,4145.256348,4512.563965,4417.692383,4341.794922,4412.692383,0.000000,4.000000,89.000000,,,,0.000000,4.000000,4.000000,4.000000,4.000000,4.000000,4.000000,4.000000,4.000000,4.000000,4.000000,4.000000,4.000000,4.000000,4.000000,100.000000,,,,,,,,,,,,,,,,,,,,,,,,,,,,
1703403071.312708,1703403071.312828,36.000000,0.000000,4172.563965,4172.563965,4271.794922,4264.358887,4171.922852,4154.230957,4237.692383,4159.487305,4135.897461,4136.153809,4505.000000,4412.307617,4334.743652,4414.743652,0.000000,4.000000,89.000000,,,,0.000000,4.000000,4.000000,4.000000,4.000000,4.000000,4.000000,4.000000,4.000000,4.000000,4.000000,4.000000,4.000000,4.000000,4.000000,100.000000,,,,,,,,,,,,,,,,,9.000000,0.000000,0.670370,-0.065918,-0.702820,0.228699,0.900501,-0.402393,0.002930,-31.022137,-9.901254,73.718102
1703403071.320516,1703403071.320736,37.000000,0.000000,4185.641113,4176.410156,4269.615234,4261.153809,4168.717773,4154.102539,4233.205078,4168.589844,4142.307617,4146.282227,4498.717773,4410.897461,4331.538574,4413.461426,0.000000,4.000000,89.000000,,,,0.000000,4.000000,4.000000,4.000000,4.000000,4.000000,4.000000,4.000000,4.000000,4.000000,4.000000,4.000000,4.000000,4.000000,4.000000,100.000000,,,,,,,,,,,,,,,,,,,,,,,,,,,,
1703403071.328324,1703403071.328543,38.000000,0.000000,4175.128418,4175.000000,4262.948730,4252.179688,4157.307617,4153.589844,4232.563965,4172.692383,4153.974121,4157.820313,4502.051270,4412.051270,4332.563965,4411.282227,0.000000,4.000000,89.000000,,,,0.000000,4.000000,4.000000,4.000000,4.000000,4.000000,4.000000,4.000000,4.000000,4.000000,4.000000,4.000000,4.000000,4.000000,4.000000,100.000000,,,,,,,,,,,,,,,,,,,,,,,,,,,,
1703403071.336132,1703403071.336451,39.000000,0.000000,4165.384766,4172.692383,4259.743652,4255.128418,4158.846191,4153.461426,4232.692383,4172.563965,4152.563965,4150.641113,4498.461426,4412.692383,4326.922852,4410.769043,0.000000,4.000000,89.000000,,,,0.000000,4.000000,4.000000,4.000000,4.000000,4.000000,4.000000,4.000000,4.000000,4.000000,4.000000,4.000000,4.000000,4.000000,4.000000,100.000000,,,,,,,,,,,,,,,,,,,,,,,,,,,,
1703403071.343940,1703403071.344259,40.000000,0.000000,4167.436035,4171.410156,4254.871582,4256.922852,4165.256348,4154.358887,4231.538574,4167.692383,4139.743652,4138.333496,4487.692383,4409.102539,4312.820313,4398.846191,0.000000,4.000000,89.000000,,,,0.000000,4.000000,4.000000,4.000000,4.000000,4.000000,4.000000,4.000000,4.000000,4.000000,4.000000,4.000000,4.000000,4.000000,4.000000,100.000000,,,,,,,,,,,,,,,,,10.000000,0.000000,0.670449,-0.065979,-0.702759,0.228638,0.911244,-0.414113,0.003418,-30.936590,-9.777795,73.662956
1703403071.351748,1703403071.352167,41.000000,0.000000,4163.846191,4167.692383,4245.256348,4247.820313,4159.487305,4152.820313,4228.205078,4162.436035,4136.282227,4135.384766,4484.102539,4403.205078,4304.358887,4386.922852,0.000000,4.000000,89.000000,,,,0.000000,4.000000,4.000000,4.000000,4.000000,4.000000,4.000000,4.000000,4.000000,4.000000,4.000000,4.000000,4.000000,4.000000,4.000000,100.000000,,,,,,,,,,,,,,,,,,,,,,,,,,,,
1703403071.359556,1703403071.359975,42.000000,0.000000,4153.077148,4167.051270,4245.256348,4247.692383,4158.077148,4150.641113,4226.666504,4163.077148,4141.794922,4136.922852,4492.051270,4403.589844,4311.538574,4395.897461,0.000000,4.000000,89.000000,,,,0.000000,4.000000,4.000000,4.000000,4.000000,4.000000,4.000000,4.000000,4.000000,4.000000,4.000000,4.000000,4.000000,4.000000,4.000000,100.000000,,,,,,,,,,,,,,,,,,,,,,,,,,,,
1703403071.367364,1703403071.367883,43.000000,0.000000,4143.461426,4171.666504,4252.948730,4253.589844,4166.666504,4149.230957,4227.563965,4163.077148,4140.641113,4137.307617,4497.179688,4407.307617,4323.589844,4407.436035,0.000000,4.000000,89.000000,,,,0.000000,4.000000,4.000000,4.000000,4.000000,4.000000,4.000000,4.000000,4.000000,4.000000,4.000000,4.000000,4.000000,4.000000,4.000000,100.000000,,,,,,,,,,,,,,,,,,,,,,,,,,,,
1703403071.375172,1703403071.375691,44.000000,0.000000,4146.538574,4169.743652,4252.051270,4242.563965,4165.769043,4147.692383,4223.461426,4156.538574,4138.077148,4142.436035,4482.563965,4404.743652,4320.384766,4395.641113,0.000000,4.000000,89.000000,,,,0.000000,4.000000,4.000000,4.000000,4.000000,4.000000,4.000000,4.000000,4.000000,4.000000,4.000000,4.000000,4.000000,4.000000,4.000000,100.000000,,,,,,,,,,,,,,,,,11.000000,0.000000,0.670589,-0.065857,-0.702637,0.228638,0.899036,-0.411671,-0.004883,-31.009598,-9.733349,73.629997
1703403071.382980,1703403071.383599,45.000000,0.000000,4159.871582,4164.871582,4248.589844,4236.282227,4160.000000,4148.333496,4224.743652,4155.641113,4139.102539,4145.000000,4468.333496,4402.820313,4307.051270,4387.692383,0.000000,4.000000,89.000000,,,,0.000000,4.000000,4.000000,4.000000,4.000000,4.000000,4.000000,4.000000,4.000000,4.000000,4.000000,4.000000,4.000000,4.000000,4.000000,100.000000,,,,,,,,,,,,,,,,,,,,,,,,,,,,
1703403071.390788,1703403071.391407,46.000000,0.000000,4153.717773,4166.410156,4253.205078,4246.153809,4158.205078,4152.307617,4230.128418,4160.384766,4140.897461,4141.538574,4483.846191,4407.692383,4309.358887,4400.000000,0.000000,4.000000,89.000000,,,,0.000000,4.000000,4.000000,4.000000,4.000000,4.000000,4.000000,4.000000,4.000000,4.000000,4.000000,4.000000,4.000000,4.000000,4.000000,100.000000,,,,,,,,,,,,,,,,,,,,,,,,,,,,
1703403071.398596,1703403071.399115,47.000000,0.000000,4147.692383,4167.820313,4254.487305,4250.000000,4156.025879,4157.179688,4226.666504,4160.384766,4141.666504,4139.487305,4488.461426,4405.897461,4311.794922,4408.461426,0.000000,4.000000,89.000000,,,,0.000000,4.000000,4.000000,4.000000,4.000000,4.000000,4.000000,4.000000,4.000000,4.000000,4.000000,4.000000,4.000000,4.000000,4.000000,100.000000,,,,,,,,,,,,,,,,,,,,,,,,,,,,
1703403071.406404,1703403071.406923,48.000000,0.000000,4161.922852,4165.128418,4248.974121,4241.538574,4158.333496,4160.897461,4225.641113,4157.948730,4139.358887,4130.000000,4455.641113,4400.128418,4294.358887,4402.307617,0.000000,4.000000,89.000000,,,,0.000000,4.000000,4.000000,4.000000,4.000000,4.000000,4.000000,4.000000,4.000000,4.000000,4.000000,4.000000,4.000000,4.000000,4.000000,100.000000,,,,,,,,,,,,,,,,,12.000000,0.000000,0.670595,-0.065796,-0.702637,0.228638,0.893175,-0.416555,0.003907,-31.058638,-9.760014,73.583664
1703403071.414212,1703403071.414631,49.000000,0.000000,4147.051270,4155.256348,4247.948730,4234.358887,4163.333496,4161.025879,4230.000000,4153.846191,4135.384766,4121.025879,4449.871582,4398.974121,4285.384766,4384.358887,0.000000,4.000000,89.000000,,,,0.000000,4.000000,4.000000,4.000000,4.000000,4.000000,4.000000,4.000000,4.000000,4.000000,4.000000,4.000000,4.000000,4.000000,4.000000,100.000000,,,,,,,,,,,,,,,,,,,,,,,,,,,,
1703403071.422020,1703403071.422539,50.000000,0.000000,4125.512695,4150.000000,4249.487305,4239.615234,4163.333496,4156.538574,4230.256348,4155.769043,4135.128418,4126.794922,4486.922852,4402.179688,4299.358887,4378.974121,0.000000,4.000000,89.000000,,,,0.000000,4.000000,4.000000,4.000000,4.000000,4.000000,4.000000,4.000000,4.000000,4.000000,4.000000,4.000000,4.000000,4.000000,4.000000,100.000000,,,,,,,,,,,,,,,,,,,,,,,,,,,,
1703403071.429828,1703403071.430347,51.000000,0.000000,4153.589844,4161.538574,4251.794922,4249.871582,4161.410156,4153.717773,4226.794922,4166.794922,4143.333496,4141.794922,4507.051270,4411.282227,4320.000000,4406.025879,0.000000,4.000000,89.000000,,,,0.000000,4.000000,4.000000,4.000000,4.000000,4.000000,4.000000,4.000000,4.000000,4.000000,4.000000,4.000000,4.000000,4.000000,4.000000,100.000000,,,,,,,,,,,,,,,,,,,,,,,,,,,,
1703403071.437637,1703403071.438155,52.000000,0.000000,4179.615234,4172.051270,4259.230957,4255.000000,4160.384766,4153.077148,4224.615234,4170.769043,4152.948730,4150.000000,4499.102539,4423.461426,4330.128418,4431.538574,0.000000,4.000000,89.000000,,,,0.000000,4.000000,4.000000,4.000000,4.000000,4.000000,4.000000,4.000000,4.000000,4.000000,4.000000,4.000000,4.000000,4.000000,4.000000,100.000000,,,,,,,,,,,,,,,,,13.000000,0.000000,0.670584,-0.065674,-0.702698,0.228516,0.894152,-0.411183,-0.001953,-31.102774,-9.650680,73.591965
1703403071.445444,1703403071.445863,53.000000,0.000000,4166.538574,4171.025879,4271.282227,4256.538574,4165.256348,4153.077148,4223.077148,4162.563965,4152.563965,4149.358887,4503.077148,4432.307617,4332.179688,4430.000000,0.000000,4.000000,89.000000,,,,0.000000,4.000000,4.000000,4.000000,4.000000,4.000000,4.000000,4.000000,4.000000,4.000000,4.000000,4.000000,4.000000,4.000000,4.000000,100.000000,,,,,,,,,,,,,,,,,,,,,,,,,,,,
1703403071.453252,1703403071.453771,54.000000,0.000000,4157.436035,4172.051270,4277.692383,4257.436035,4173.205078,4154.487305,4223.205078,4154.743652,4145.128418,4149.743652,4514.615234,4433.461426,4339.743652,4431.025879,0.000000,4.000000,89.000000,,,,0.000000,4.000000,4.000000,4.000000,4.000000,4.000000,4.000000,4.000000,4.000000,4.000000,4.000000,4.000000,4.000000,4.000000,4.000000,100.000000,,,,,,,,,,,,,,,,,,,,,,,,,,,,
1703403071.461061,1703403071.461579,55.000000,0.000000,4161.922852,4172.948730,4270.000000,4255.128418,4172.820313,4154.102539,4219.230957,4153.461426,4140.384766,4145.769043,4492.820313,4427.563965,4337.436035,4424.871582,0.000000,4.000000,89.000000,,,,0.000000,4.000000,4.000000,4.000000,4.000000,4.000000,4.000000,4.000000,4.000000,4.000000,4.000000,4.000000,4.000000,4.000000,4.000000,100.000000,,,,,,,,,,,,,,,,,,,,,,,,,,,,
1703403071.468869,1703403071.469387,56.000000,0.000000,4164.230957,4170.000000,4258.846191,4250.641113,4165.000000,4152.436035,4215.128418,4152.820313,4141.282227,4143.333496,4475.769043,4421.538574,4321.282227,4408.846191,0.000000,4.000000,89.000000,,,,0.000000,4.000000,4.000000,4.000000,4.000000,4.000000,4.000000,4.000000,4.000000,4.000000,4.000000,4.000000,4.000000,4.000000,4.000000,100.000000,,,,,,,,,,,,,,,,,14.000000,0.000000,0.670789,-0.065735,-0.702576,0.228271,0.901477,-0.396044,0.004395,-31.242496,-9.835611,73.649429
1703403071.476677,1703403071.477095,57.000000,0.000000,4170.256348,4173.077148,4261.025879,4248.846191,4162.051270,4153.205078,4219.871582,4155.000000,4143.333496,4148.333496,4505.000000,4420.769043,4324.487305,4424.615234,0.000000,4.000000,89.000000,,,,0.000000,4.000000,4.000000,4.000000,4.000000,4.000000,4.000000,4.000000,4.000000,4.000000,4.000000,4.000000,4.000000,4.000000,4.000000,100.000000,,,,,,,,,,,,,,,,,,,,,,,,,,,,
1703403071.484485,1703403071.484903,58.000000,0.000000,4167.307617,4170.641113,4267.692383,4247.948730,4164.230957,4154.358887,4219.615234,4156.025879,4140.897461,4148.461426,4514.487305,4420.000000,4338.846191,4441.922852,0.000000,4.000000,89.000000,,,,0.000000,4.000000,4.000000,4.000000,4.000000,4.000000,4.000000,4.000000,4.000000,4.000000,4.000000,4.000000,4.000000,4.000000,4.000000,100.000000,,,,,,,,,,,,,,,,,,,,,,,,,,,,
1703403071.492293,1703403071.492611,59.000000,0.000000,4151.282227,4158.461426,4259.743652,4243.205078,4159.487305,4154.487305,4215.769043,4152.948730,4136.794922,4137.179688,4489.871582,4413.589844,4332.692383,4424.487305,0.000000,4.000000,89.000000,,,,0.000000,4.000000,4.000000,4.000000,4.000000,4.000000,4.000000,4.000000,4.000000,4.000000,4.000000,4.000000,4.000000,4.000000,4.000000,100.000000,,,,,,,,,,,,,,,,,,,,,,,,,,,,
1703403071.500101,1703403071.500519,60.000000,0.000000,4143.589844,4154.358887,4247.820313,4235.384766,4154.743652,4156.025879,4216.922852,4158.333496,4138.589844,4132.563965,4495.000000,4405.897461,4323.077148,4411.794922,0.000000,4.000000,89.000000,,,,0.000000,4.000000,4.000000,4.000000,4.000000,4.000000,4.000000,4.000000,4.000000,4.000000,4.000000,4.000000,4.000000,4.000000,4.000000,100.000000,,,,,,,,,,,,,,,,,15.000000,0.000000,0.670922,-0.065674,-0.702515,0.228088,0.898059,-0.413625,-0.002442,-31.201580,-9.835383,73.751152
1703403071.507909,1703403071.508327,61.000000,0.000000,4146.794922,4157.307617,4245.256348,4233.333496,4156.794922,4157.436035,4216.922852,4168.589844,4141.025879,4141.410156,4507.436035,4405.000000,4325.769043,4411.794922,0.000000,4.000000,89.000000,,,,0.000000,4.000000,4.000000,4.000000,4.000000,4.000000,4.000000,4.000000,4.000000,4.000000,4.000000,4.000000,4.000000,4.000000,4.000000,100.000000,,,,,,,,,,,,,,,,,,,,,,,,,,,,
1703403071.515717,1703403071.516234,62.000000,0.000000,4151.538574,4160.384766,4244.871582,4234.615234,4156.922852,4156.538574,4217.692383,4170.256348,4144.615234,4142.820313,4490.769043,4410.641113,4330.256348,4413.333496,0.000000,4.000000,89.000000,,,,0.000000,4.000000,4.000000,4.000000,4.000000,4.000000,4.000000,4.000000,4.000000,4.000000,4.000000,4.000000,4.000000,4.000000,4.000000,100.000000,,,,,,,,,,,,,,,,,,,,,,,,,,,,
1703403071.523525,1703403071.524042,63.000000,0.000000,4157.820313,4166.410156,4243.205078,4235.256348,4158.846191,4156.025879,4217.051270,4168.461426,4148.974121,4139.230957,4486.025879,4412.051270,4330.384766,4428.205078,0.000000,4.000000,89.000000,,,,0.000000,4.000000,4.000000,4.000000,4.000000,4.000000,4.000000,4.000000,4.000000,4.000000,4.000000,4.000000,4.000000,4.000000,4.000000,100.000000,,,,,,,,,,,,,,,,,,,,,,,,,,,,
1703403071.531333,1703403071.531950,64.000000,0.000000,4156.538574,4170.000000,4243.717773,4240.512695,4167.179688,4155.897461,4215.897461,4171.153809,4150.000000,4142.436035,4495.897461,4410.384766,4330.769043,4434.102539,5335.000000,4.000000,89.000000,,,,0.000000,4.000000,4.000000,4.000000,4.000000,4.000000,4.000000,4.000000,4.000000,4.000000,4.000000,4.000000,4.000000,4.000000,4.000000,100.000000,1.000000,100.000000,4.000000,4.000000,4.000000,4.000000,4.000000,4.000000,4.000000,4.000000,4.000000,4.000000,4.000000,4.000000,4.000000,4.000000,16.000000,0.000000,0.671181,-0.065613,-0.702332,0.227905,0.900989,-0.406788,0.002442,-30.981422,-9.835178,73.792709
1703403071.539141,1703403071.539758,65.000000,0.000000,4145.769043,4171.666504,4246.666504,4249.743652,4172.179688,4154.743652,4216.922852,4171.538574,4151.025879,4151.282227,4495.641113,4414.871582,4336.153809,4424.487305,5073.000000,4.000000,89.000000,,,,0.000000,4.000000,4.000000,4.000000,4.000000,4.000000,4.000000,4.000000,4.000000,4.000000,4.000000,4.000000,4.000000,4.000000,4.000000,100.000000,,,,,,,,,,,,,,,,,,,,,,,,,,,,
1703403071.546949,1703403071.547666,66.000000,0.000000,4146.025879,4172.563965,4252.051270,4248.205078,4165.769043,4153.205078,4216.922852,4168.974121,4153.333496,4156.282227,4490.000000,4418.333496,4330.000000,4423.717773,5150.000000,4.000000,89.000000,,,,0.000000,4.000000,4.000000,4.000000,4.000000,4.000000,4.000000,4.000000,4.000000,4.000000,4.000000,4.000000,4.000000,4.000000,4.000000,100.000000,,,,,,,,,,,,,,,,,,,,,,,,,,,,
1703403071.554757,1703403071.555474,67.000000,0.000000,4151.025879,4164.230957,4255.769043,4240.512695,4159.487305,4151.153809,4213.846191,4169.230957,4153.077148,4154.230957,4487.436035,4415.641113,4316.666504,4423.077148,5243.000000,4.000000,89.000000,,,,0.000000,4.000000,4.000000,4.000000,4.000000,4.000000,4.000000,4.000000,4.000000,4.000000,4.000000,4.000000,4.000000,4.000000,4.000000,100.000000,,,,,,,,,,,,,,,,,,,,,,,,,,,,
1703403071.562565,1703403071.563382,68.000000,0.000000,4147.179688,4160.769043,4255.128418,4241.666504,4162.179688,4151.153809,4216.282227,4165.897461,4148.589844,4151.922852,4496.666504,4418.077148,4327.692383,4427.692383,5040.000000,4.000000,89.000000,,,,0.000000,4.000000,4.000000,4.000000,4.000000,4.000000,4.000000,4.000000,4.000000,4.000000,4.000000,4.000000,4.000000,4.000000,4.000000,100.000000,,,,,,,,,,,,,,,,,17.000000,0.000000,0.671268,-0.065613,-0.702209,0.228027,0.898059,-0.423392,0.010743,-30.916613,-9.834994,73.830101
1703403071.570373,1703403071.571190,69.000000,0.000000,4147.179688,4168.717773,4251.666504,4246.794922,4163.461426,4153.589844,4217.307617,4157.820313,4142.307617,4149.743652,4500.512695,4419.615234,4335.256348,4430.256348,5108.000000,4.000000,89.000000,,,,0.000000,4.000000,4.000000,4.000000,4.000000,4.000000,4.000000,4.000000,4.000000,4.000000,4.000000,4.000000,4.000000,4.000000,4.000000,100.000000,,,,,,,,,,,,,,,,,,,,,,,,,,,,
1703403071.578181,1703403071.579098,70.000000,0.000000,4151.794922,4169.743652,4248.717773,4247.692383,4161.282227,4154.743652,4209.230957,4153.077148,4136.794922,4145.256348,4477.692383,4408.205078,4308.333496,4413.077148,2361.000000,4.000000,89.000000,,,,0.000000,4.000000,4.000000,4.000000,4.000000,4.000000,4.000000,4.000000,4.000000,4.000000,4.000000,4.000000,4.000000,4.000000,4.000000,100.000000,,,,,,,,,,,,,,,,,,,,,,,,,,,,
1703403071.585989,1703403071.586906,71.000000,0.000000,4142.307617,4167.820313,4253.461426,4247.051270,4164.743652,4154.230957,4210.769043,4155.897461,4136.666504,4147.692383,4470.769043,4404.487305,4296.538574,4410.128418,5265.000000,4.000000,89.000000,,,,0.000000,4.000000,4.000000,4.000000,4.000000,4.000000,4.000000,4.000000,4.000000,4.000000,4.000000,4.000000,4.000000,4.000000,4.000000,100.000000,,,,,,,,,,,,,,,,,,,,,,,,,,,,
1703403071.593798,1703403071.594614,72.000000,0.000000,4133.589844,4170.128418,4257.436035,4242.948730,4169.743652,4157.051270,4215.000000,4157.563965,4136.538574,4153.589844,4498.589844,4413.077148,4315.897461,4429.230957,5277.000000,4.000000,89.000000,,,,0.000000,4.000000,4.000000,4.000000,4.000000,4.000000,4.000000,4.000000,4.000000,4.000000,4.000000,4.000000,4.000000,4.000000,4.000000,100.000000,,,,,,,,,,,,,,,,,18.000000,0.000000,0.671432,-0.065674,-0.702026,0.228088,0.897570,-0.413136,0.007325,-30.791618,-9.934828,73.647095
1703403071.601606,1703403071.602422,73.000000,0.000000,4139.102539,4168.461426,4251.282227,4233.589844,4169.230957,4160.641113,4213.717773,4153.589844,4135.128418,4146.794922,4511.153809,4410.897461,4311.538574,4425.641113,5166.000000,4.000000,89.000000,,,,0.000000,4.000000,4.000000,4.000000,4.000000,4.000000,4.000000,4.000000,4.000000,4.000000,4.000000,4.000000,4.000000,4.000000,4.000000,100.000000,,,,,,,,,,,,,,,,,,,,,,,,,,,,
1703403071.609414,1703403071.610130,74.000000,0.000000,4135.641113,4164.102539,4250.512695,4232.051270,4169.743652,4159.102539,4212.307617,4158.205078,4137.307617,4140.512695,4509.487305,4406.794922,4294.487305,4403.717773,5826.000000,4.000000,89.000000,,,,0.000000,4.000000,4.000000,4.000000,4.000000,4.000000,4.000000,4.000000,4.000000,4.000000,4.000000,4.000000,4.000000,4.000000,4.000000,100.000000,,,,,,,,,,,,,,,,,,,,,,,,,,,,
1703403071.617222,1703403071.617938,75.000000,0.000000,4134.230957,4168.717773,4256.922852,4240.512695,4172.436035,4156.922852,4208.846191,4166.538574,4139.487305,4151.282227,4528.461426,4410.769043,4310.384766,4410.897461,6189.000000,4.000000,89.000000,,,,0.000000,4.000000,4.000000,4.000000,4.000000,4.000000,4.000000,4.000000,4.000000,4.000000,4.000000,4.000000,4.000000,4.000000,4.000000,100.000000,,,,,,,,,,,,,,,,,,,,,,,,,,,,
1703403071.625030,1703403071.625646,76.000000,0.000000,4153.846191,4167.692383,4252.948730,4238.333496,4168.461426,4152.948730,4208.461426,4162.179688,4140.512695,4154.487305,4547.563965,4410.128418,4323.717773,4431.410156,6653.000000,4.000000,89.000000,,,,0.000000,4.000000,4.000000,4.000000,4.000000,4.000000,4.000000,4.000000,4.000000,4.000000,4.000000,4.000000,4.000000,4.000000,4.000000,100.000000,,,,,,,,,,,,,,,,,19.000000,0.000000,0.671432,-0.065674,-0.702026,0.228088,0.904407,-0.406788,0.008302,-30.829124,-9.841345,73.749046
1703403071.632838,1703403071.633454,77.000000,0.000000,4159.230957,4157.179688,4238.333496,4228.974121,4159.615234,4144.615234,4208.846191,4152.948730,4138.461426,4145.897461,4543.974121,4407.179688,4303.461426,4429.358887,6594.000000,4.000000,89.000000,,,,0.000000,4.000000,4.000000,4.000000,4.000000,4.000000,4.000000,4.000000,4.000000,4.000000,4.000000,4.000000,4.000000,4.000000,4.000000,100.000000,,,,,,,,,,,,,,,,,,,,,,,,,,,,
1703403071.640646,1703403071.641162,78.000000,0.000000,4135.384766,4157.820313,4237.307617,4229.487305,4157.820313,4141.666504,4206.153809,4156.538574,4140.128418,4152.179688,4531.922852,4407.692383,4294.358887,4414.487305,5826.000000,4.000000,89.000000,,,,0.000000,4.000000,4.000000,4.000000,4.000000,4.000000,4.000000,4.000000,4.000000,4.000000,4.000000,4.000000,4.000000,4.000000,4.000000,100.000000,,,,,,,,,,,,,,,,,,,,,,,,,,,,
1703403071.648454,1703403071.648970,79.000000,0.000000,4129.102539,4166.410156,4248.205078,4233.461426,4165.897461,4148.717773,4205.000000,4166.025879,4147.692383,4162.436035,4541.922852,4406.666504,4310.384766,4412.436035,6189.000000,4.000000,89.000000,,,,0.000000,4.000000,4.000000,4.000000,4.000000,4.000000,4.000000,4.000000,4.000000,4.000000,4.000000,4.000000,4.000000,4.000000,4.000000,100.000000,,,,,,,,,,,,,,,,,,,,,,,,,,,,
1703403071.656262,1703403071.656678,80.000000,0.000000,4144.230957,4170.384766,4252.307617,4235.769043,4170.512695,4157.179688,4207.563965,4165.256348,4148.461426,4159.743652,4569.102539,4406.922852,4314.871582,4433.589844,6653.000000,4.000000,89.000000,,,,0.000000,4.000000,4.000000,4.000000,4.000000,4.000000,4.000000,4.000000,4.000000,4.000000,4.000000,4.000000,4.000000,4.000000,4.000000,100.000000,,,,,,,,,,,,,,,,,20.000000,0.000000,0.671453,-0.065674,-0.702026,0.228027,0.900989,-0.416066,-0.000977,-30.912878,-9.790544,73.757477
1703403071.664070,1703403071.664486,81.000000,0.000000,4127.563965,4169.871582,4251.794922,4235.897461,4166.153809,4155.256348,4208.717773,4157.051270,4138.589844,4154.615234,4562.820313,4405.512695,4307.948730,4434.743652,6594.000000,4.000000,89.000000,,,,0.000000,4.000000,4.000000,4.000000,4.000000,4.000000,4.000000,4.000000,4.000000,4.000000,4.000000,4.000000,4.000000,4.000000,4.000000,100.000000,,,,,,,,,,,,,,,,,,,,,,,,,,,,
1703403071.671878,1703403071.672194,82.000000,0.000000,4103.461426,4163.974121,4252.051270,4229.230957,4167.179688,4153.333496,4208.974121,4150.000000,4130.769043,4150.641113,4536.538574,4398.717773,4307.563965,4411.410156,5826.000000,4.000000,89.000000,,,,0.000000,4.000000,4.000000,4.000000,4.000000,4.000000,4.000000,4.000000,4.000000,4.000000,4.000000,4.000000,4.000000,4.000000,4.000000,100.000000,,,,,,,,,,,,,,,,,,,,,,,,,,,,
1703403071.679686,1703403071.680102,83.000000,0.000000,4126.153809,4160.897461,4250.512695,4231.538574,4175.256348,4162.051270,4212.307617,4153.461426,4134.358887,4153.717773,4551.153809,4400.128418,4308.589844,4412.307617,6189.000000,4.000000,89.000000,,,,0.000000,4.000000,4.000000,4.000000,4.000000,4.000000,4.000000,4.000000,4.000000,4.000000,4.000000,4.000000,4.000000,4.000000,4.000000,100.000000,,,,,,,,,,,,,,,,,,,,,,,,,,,,
1703403071.687494,1703403071.687910,84.000000,0.000000,4157.051270,4174.230957,4253.974121,4247.436035,4177.307617,4168.333496,4214.358887,4164.871582,4143.717773,4164.871582,4587.820313,4414.871582,4321.410156,4434.358887,6653.000000,4.000000,89.000000,,,,0.000000,4.000000,4.000000,4.000000,4.000000,4.000000,4.000000,4.000000,4.000000,4.000000,4.000000,4.000000,4.000000,4.000000,4.000000,100.000000,,,,,,,,,,,,,,,,,21.000000,0.000000,0.671576,-0.065491,-0.701965,0.227905,0.897082,-0.414113,0.000000,-30.938257,-9.794823,73.848396
1703403071.695302,1703403071.695718,85.000000,0.000000,4157.820313,4190.641113,4267.307617,4255.128418,4176.282227,4165.512695,4214.102539,4173.589844,4153.717773,4178.717773,4601.153809,4432.820313,4345.128418,4448.205078,6594.000000,4.000000,89.000000,,,,0.000000,4.000000,4.000000,4.000000,4.000000,4.000000,4.000000,4.000000,4.000000,4.000000,4.000000,4.000000,4.000000,4.000000,4.000000,100.000000,,,,,,,,,,,,,,,,,,,,,,,,,,,,
1703403071.703110,1703403071.703426,86.000000,0.000000,4154.615234,4187.051270,4276.922852,4250.256348,4177.436035,4161.025879,4212.563965,4175.256348,4157.436035,4187.948730,4601.025879,4436.410156,4348.077148,4456.282227,5826.000000,4.000000,89.000000,,,,0.000000,4.000000,4.000000,4.000000,4.000000,4.000000,4.000000,4.000000,4.000000,4.000000,4.000000,4.000000,4.000000,4.000000,4.000000,100.000000,,,,,,,,,,,,,,,,,,,,,,,,,,,,
1703403071.710918,1703403071.711334,87.000000,0.000000,4160.512695,4181.794922,4276.282227,4248.077148,4175.384766,4155.769043,4208.974121,4169.743652,4153.717773,4182.436035,4596.922852,4427.051270,4339.102539,4464.743652,6189.000000,4.000000,89.000000,,,,0.000000,4.000000,4.000000,4.000000,4.000000,4.000000,4.000000,4.000000,4.000000,4.000000,4.000000,4.000000,4.000000,4.000000,4.000000,100.000000,,,,,,,,,,,,,,,,,,,,,,,,,,,,
1703403071.718726,1703403071.719142,88.000000,0.000000,4170.769043,4197.948730,4275.384766,4254.102539,4170.641113,4151.410156,4205.256348,4167.563965,4153.589844,4175.256348,4598.717773,4425.000000,4340.384766,4457.820313,6653.000000,4.000000,89.000000,,,,0.000000,4.000000,4.000000,4.000000,4.000000,4.000000,4.000000,4.000000,4.000000,4.000000,4.000000,4.000000,4.000000,4.000000,4.000000,100.000000,,,,,,,,,,,,,,,,,22.000000,0.000000,0.671764,-0.065063,-0.701904,0.227661,0.894640,-0.396044,0.002442,-30.994431,-9.732007,74.080223
1703403071.726534,1703403071.727050,89.000000,0.000000,4181.282227,4213.205078,4277.692383,4260.384766,4169.615234,4151.794922,4205.384766,4169.743652,4156.410156,4182.563965,4613.717773,4436.025879,4345.384766,4461.794922,6594.000000,4.000000,89.000000,,,,0.000000,4.000000,4.000000,4.000000,4.000000,4.000000,4.000000,4.000000,4.000000,4.000000,4.000000,4.000000,4.000000,4.000000,4.000000,100.000000,,,,,,,,,,,,,,,,,,,,,,,,,,,,
1703403071.734342,1703403071.734858,90.000000,0.000000,4169.743652,4206.666504,4282.948730,4258.589844,4168.461426,4147.307617,4205.256348,4167.436035,4154.871582,4188.333496,4611.922852,4442.179688,4347.563965,4476.922852,5826.000000,4.000000,89.000000,,,,0.000000,4.000000,4.000000,4.000000,4.000000,4.000000,4.000000,4.000000,4.000000,4.000000,4.000000,4.000000,4.000000,4.000000,4.000000,100.000000,,,,,,,,,,,,,,,,,,,,,,,,,,,,
1703403071.742150,1703403071.742765,91.000000,0.000000,4154.230957,4198.077148,4283.717773,4249.743652,4165.897461,4144.102539,4204.102539,4164.102539,4153.333496,4181.025879,4600.641113,4435.641113,4347.820313,4469.358887,6189.000000,4.000000,89.000000,,,,0.000000,4.000000,4.000000,4.000000,4.000000,4.000000,4.000000,4.000000,4.000000,4.000000,4.000000,4.000000,4.000000,4.000000,4.000000,100.000000,,,,,,,,,,,,,,,,,,,,,,,,,,,,
1703403071.749958,1703403071.750573,92.000000,0.000000,4162.820313,4198.333496,4275.512695,4247.820313,4166.025879,4153.717773,4207.563965,4168.461426,4152.307617,4172.948730,4602.692383,4431.410156,4348.333496,4461.025879,6653.000000,4.000000,89.000000,,,,0.000000,4.000000,4.000000,4.000000,4.000000,4.000000,4.000000,4.000000,4.000000,4.000000,4.000000,4.000000,4.000000,4.000000,4.000000,100.000000,,,,,,,,,,,,,,,,,23.000000,0.000000,0.671914,-0.064819,-0.701843,0.227478,0.908314,-0.415578,0.007813,-31.061655,-9.658807,74.055534
1703403071.757767,1703403071.758481,93.000000,0.000000,4164.230957,4190.897461,4268.717773,4249.102539,4161.282227,4156.025879,4209.358887,4167.436035,4146.153809,4169.615234,4595.256348,4425.769043,4341.794922,4462.179688,6594.000000,4.000000,89.000000,,,,0.000000,4.000000,4.000000,4.000000,4.000000,4.000000,4.000000,4.000000,4.000000,4.000000,4.000000,4.000000,4.000000,4.000000,4.000000,100.000000,,,,,,,,,,,,,,,,,,,,,,,,,,,,
1703403071.765575,1703403071.766289,94.000000,0.000000,4149.230957,4179.358887,4262.436035,4243.077148,4154.487305,4149.743652,4206.922852,4158.205078,4138.974121,4166.153809,4575.769043,4416.410156,4327.563965,4448.846191,5826.000000,4.000000,89.000000,,,,0.000000,4.000000,4.000000,4.000000,4.000000,4.000000,4.000000,4.000000,4.000000,4.000000,4.000000,4.000000,4.000000,4.000000,4.000000,100.000000,,,,,,,,,,,,,,,,,,,,,,,,,,,,
1703403071.773383,1703403071.773997,95.000000,0.000000,4148.717773,4182.436035,4257.436035,4239.487305,4158.589844,4151.153809,4206.794922,4161.922852,4140.000000,4161.282227,4573.077148,4417.692383,4327.948730,4436.153809,6189.000000,4.000000,89.000000,,,,0.000000,4.000000,4.000000,4.000000,4.000000,4.000000,4.000000,4.000000,4.000000,4.000000,4.000000,4.000000,4.000000,4.000000,4.000000,100.000000,,,,,,,,,,,,,,,,,,,,,,,,,,,,
1703403071.781191,1703403071.781805,96.000000,0.000000,4156.922852,4184.487305,4259.230957,4241.794922,4167.948730,4157.307617,4210.512695,4166.538574,4142.051270,4153.461426,4586.538574,4422.179688,4337.820313,4448.205078,6653.000000,4.000000,89.000000,,,,0.000000,4.000000,4.000000,4.000000,4.000000,4.000000,4.000000,4.000000,4.000000,4.000000,4.000000,4.000000,4.000000,4.000000,4.000000,100.000000,,,,,,,,,,,,,,,,,24.000000,0.000000,0.672130,-0.064758,-0.701721,0.227234,0.901966,-0.403858,0.005372,-31.005489,-9.526259,74.133316
1703403071.788999,1703403071.789513,97.000000,0.000000,4153.589844,4175.512695,4261.794922,4244.358887,4169.487305,4157.820313,4211.666504,4162.051270,4138.846191,4149.615234,4585.641113,4417.436035,4328.974121,4452.051270,6594.000000,4.000000,89.000000,,,,0.000000,4.000000,4.000000,4.000000,4.000000,4.000000,4.000000,4.000000,4.000000,4.000000,4.000000,4.000000,4.000000,4.000000,4.000000,100.000000,,,,,,,,,,,,,,,,,,,,,,,,,,,,
1703403071.796807,1703403071.797321,98.000000,0.000000,4150.897461,4176.666504,4259.358887,4246.153809,4168.589844,4154.743652,4208.461426,4163.974121,4140.641113,4156.922852,4578.846191,4415.769043,4324.102539,4439.615234,5826.000000,4.000000,89.000000,,,,0.000000,4.000000,4.000000,4.000000,4.000000,4.000000,4.000000,4.000000,4.000000,4.000000,4.000000,4.000000,4.000000,4.000000,4.000000,100.000000,,,,,,,,,,,,,,,,,,,,,,,,,,,,
1703403071.804615,1703403071.805029,99.000000,0.000000,4158.589844,4182.307617,4261.410156,4246.794922,4166.538574,4152.692383,4205.256348,4171.538574,4148.846191,4166.153809,4589.871582,4424.487305,4349.102539,4451.410156,6189.000000,4.000000,89.000000,,,,0.000000,4.000000,4.000000,4.000000,4.000000,4.000000,4.000000,4.000000,4.000000,4.000000,4.000000,4.000000,4.000000,4.000000,4.000000,100.000000,,,,,,,,,,,,,,,,,,,,,,,,,,,,
1703403071.812423,1703403071.812837,100.000000,0.000000,4167.692383,4177.692383,4270.769043,4248.589844,4159.871582,4153.077148,4205.512695,4173.589844,4154.102539,4168.205078,4601.538574,4432.563965,4367.948730,4473.974121,6653.000000,4.000000,89.000000,,,,0.000000,4.000000,4.000000,4.000000,4.000000,4.000000,4.000000,4.000000,4.000000,4.000000,4.000000,4.000000,4.000000,4.000000,4.000000,100.000000,,,,,,,,,,,,,,,,,25.000000,0.000000,0.672177,-0.064697,-0.701721,0.227112,0.903431,-0.383836,0.003907,-31.071608,-9.473634,74.053314
1703403071.820231,1703403071.820545,101.000000,0.000000,4177.436035,4171.538574,4274.487305,4247.692383,4156.282227,4153.846191,4205.769043,4174.102539,4157.692383,4168.461426,4604.615234,4436.794922,4370.256348,4486.538574,6594.000000,4.000000,89.000000,,,,0.000000,4.000000,4.000000,4.000000,4.000000,4.000000,4.000000,4.000000,4.000000,4.000000,4.000000,4.000000,4.000000,4.000000,4.000000,100.000000,,,,,,,,,,,,,,,,,,,,,,,,,,,,
1703403071.828039,1703403071.828353,102.000000,0.000000,4178.589844,4166.153809,4275.384766,4238.333496,4157.179688,4148.846191,4204.615234,4173.717773,4160.128418,4171.410156,4601.153809,4438.974121,4371.922852,4476.666504,5826.000000,4.000000,89.000000,,,,0.000000,4.000000,4.000000,4.000000,4.000000,4.000000,4.000000,4.000000,4.000000,4.000000,4.000000,4.000000,4.000000,4.000000,4.000000,100.000000,,,,,,,,,,,,,,,,,,,,,,,,,,,,
1703403071.835847,1703403071.836062,103.000000,0.000000,4167.820313,4151.794922,4275.512695,4230.384766,4150.897461,4143.461426,4205.128418,4167.563965,4150.256348,4169.743652,4592.948730,4436.025879,4367.692383,4455.897461,6189.000000,4.000000,89.000000,,,,0.000000,4.000000,4.000000,4.000000,4.000000,4.000000,4.000000,4.000000,4.000000,4.000000,4.000000,4.000000,4.000000,4.000000,4.000000,100.000000,,,,,,,,,,,,,,,,,,,,,,,,,,,,
1703403071.843655,1703403071.843869,104.000000,0.000000,4172.436035,4149.487305,4275.512695,4229.743652,4146.282227,4147.179688,4205.256348,4166.922852,4140.769043,4166.410156,4602.436035,4435.641113,4372.563965,4470.000000,6653.000000,4.000000,89.000000,,,,0.000000,4.000000,4.000000,4.000000,4.000000,4.000000,4.000000,4.000000,4.000000,4.000000,4.000000,4.000000,4.000000,4.000000,4.000000,100.000000,,,,,,,,,,,,,,,,,26.000000,0.000000,0.672280,-0.064697,-0.701721,0.226807,0.880967,-0.391161,0.003418,-31.064445,-9.442937,74.214653
1703403071.851463,1703403071.851578,105.000000,0.000000,4196.922852,4166.282227,4282.563965,4233.077148,4153.717773,4155.000000,4209.102539,4173.077148,4150.897461,4172.820313,4621.538574,4452.179688,4391.922852,4503.077148,6594.000000,4.000000,89.000000,,,,0.000000,4.000000,4.000000,4.000000,4.000000,4.000000,4.000000,4.000000,4.000000,4.000000,4.000000,4.000000,4.000000,4.000000,4.000000,100.000000,,,,,,,,,,,,,,,,,,,,,,,,,,,,
1703403071.859271,1703403071.859386,106.000000,0.000000,4206.153809,4168.717773,4286.282227,4240.769043,4158.333496,4153.717773,4210.256348,4174.358887,4158.974121,4172.051270,4616.282227,4463.717773,4400.512695,4498.974121,5826.000000,4.000000,89.000000,,,,0.000000,4.000000,4.000000,4.000000,4.000000,4.000000,4.000000,4.000000,4.000000,4.000000,4.000000,4.000000,4.000000,4.000000,4.000000,100.000000,,,,,,,,,,,,,,,,,,,,,,,,,,,,
1703403071.867079,1703403071.867094,107.000000,0.000000,4203.333496,4164.358887,4286.538574,4249.615234,4154.487305,4149.871582,4201.794922,4170.641113,4148.333496,4159.358887,4621.025879,4454.487305,4409.230957,4493.589844,6189.000000,4.000000,89.000000,,,,0.000000,4.000000,4.000000,4.000000,4.000000,4.000000,4.000000,4.000000,4.000000,4.000000,4.000000,4.000000,4.000000,4.000000,4.000000,100.000000,,,,,,,,,,,,,,,,,,,,,,,,,,,,
1703403071.874887,1703403071.875001,108.000000,0.000000,4213.974121,4171.282227,4290.000000,4250.384766,4154.743652,4154.102539,4202.820313,4167.692383,4143.846191,4162.563965,4656.410156,4450.000000,4432.051270,4512.563965,6653.000000,4.000000,89.000000,,,,0.000000,4.000000,4.000000,4.000000,4.000000,4.000000,4.000000,4.000000,4.000000,4.000000,4.000000,4.000000,4.000000,4.000000,4.000000,100.000000,,,,,,,,,,,,,,,,,27.000000,0.000000,0.672348,-0.064636,-0.701721,0.226624,0.893664,-0.408741,0.004883,-31.074669,-9.481977,74.176521
1703403071.882695,1703403071.882809,109.000000,0.000000,4220.769043,4171.025879,4286.538574,4245.128418,4157.436035,4152.179688,4206.282227,4164.230957,4151.538574,4172.307617,4656.794922,4453.589844,4432.051270,4497.436035,6594.000000,4.000000,89.000000,,,,0.000000,4.000000,4.000000,4.000000,4.000000,4.000000,4.000000,4.000000,4.000000,4.000000,4.000000,4.000000,4.000000,4.000000,4.000000,100.000000,,,,,,,,,,,,,,,,,,,,,,,,,,,,
1703403071.890504,1703403071.890717,110.000000,0.000000,4213.717773,4164.871582,4281.025879,4245.128418,4156.282227,4143.461426,4201.153809,4162.307617,4152.436035,4171.282227,4628.846191,4453.333496,4415.512695,4484.871582,5826.000000,4.000000,89.000000,,,,0.000000,4.000000,4.000000,4.000000,4.000000,4.000000,4.000000,4.000000,4.000000,4.000000,4.000000,4.000000,4.000000,4.000000,4.000000,100.000000,,,,,,,,,,,,,,,,,,,,,,,,,,,,
1703403071.898312,1703403071.898525,111.000000,0.000000,4228.589844,4176.282227,4291.410156,4248.205078,4157.820313,4141.410156,4200.512695,4167.948730,4152.179688,4175.128418,4632.051270,4458.333496,4425.384766,4517.948730,6189.000000,4.000000,89.000000,,,,0.000000,4.000000,4.000000,4.000000,4.000000,4.000000,4.000000,4.000000,4.000000,4.000000,4.000000,4.000000,4.000000,4.000000,4.000000,100.000000,,,,,,,,,,,,,,,,,,,,,,,,,,,,
1703403071.906119,1703403071.906433,112.000000,0.000000,4250.641113,4187.948730,4297.179688,4250.000000,4158.461426,4141.282227,4202.692383,4169.615234,4155.512695,4180.641113,4643.589844,4465.256348,4431.153809,4517.820313,6653.000000,4.000000,89.000000,,,,0.000000,4.000000,4.000000,4.000000,4.000000,4.000000,4.000000,4.000000,4.000000,4.000000,4.000000,4.000000,4.000000,4.000000,4.000000,100.000000,,,,,,,,,,,,,,,,,28.000000,0.000000,0.672423,-0.064514,-0.701660,0.226624,0.902454,-0.391649,0.011232,-31.117201,-9.400445,74.242203
1703403071.913928,1703403071.914241,113.000000,0.000000,4239.102539,4176.538574,4291.538574,4249.230957,4152.820313,4136.922852,4199.102539,4164.487305,4153.974121,4171.410156,4642.051270,4462.307617,4418.333496,4486.025879,6594.000000,4.000000,89.000000,,,,0.000000,4.000000,4.000000,4.000000,4.000000,4.000000,4.000000,4.000000,4.000000,4.000000,4.000000,4.000000,4.000000,4.000000,4.000000,100.000000,,,,,,,,,,,,,,,,,,,,,,,,,,,,
1703403071.921736,1703403071.922149,114.000000,0.000000,4232.179688,4167.179688,4296.025879,4246.922852,4152.179688,4136.410156,4196.922852,4166.282227,4152.692383,4164.743652,4644.615234,4459.871582,4424.230957,4499.871582,5826.000000,4.000000,89.000000,,,,0.000000,4.000000,4.000000,4.000000,4.000000,4.000000,4.000000,4.000000,4.000000,4.000000,4.000000,4.000000,4.000000,4.000000,4.000000,100.000000,,,,,,,,,,,,,,,,,,,,,,,,,,,,
1703403071.929544,1703403071.929957,115.000000,0.000000,4250.897461,4174.230957,4304.230957,4246.025879,4154.615234,4138.461426,4200.769043,4171.410156,4151.538574,4171.410156,4651.538574,4464.871582,4436.410156,4528.461426,6189.000000,4.000000,89.000000,,,,0.000000,4.000000,4.000000,4.000000,4.000000,4.000000,4.000000,4.000000,4.000000,4.000000,4.000000,4.000000,4.000000,4.000000,4.000000,100.000000,,,,,,,,,,,,,,,,,,,,,,,,,,,,
1703403071.937352,1703403071.937865,116.000000,0.000000,4250.769043,4177.436035,4302.179688,4247.179688,4152.307617,4142.820313,4201.282227,4169.358887,4145.384766,4168.589844,4646.282227,4466.025879,4430.512695,4517.820313,6653.000000,4.000000,89.000000,,,,0.000000,4.000000,4.000000,4.000000,4.000000,4.000000,4.000000,4.000000,4.000000,4.000000,4.000000,4.000000,4.000000,4.000000,4.000000,100.000000,,,,,,,,,,,,,,,,,29.000000,0.000000,0.672498,-0.064392,-0.701599,0.226624,0.902942,-0.399951,0.008302,-31.088814,-9.477068,74.284645
1703403071.945160,1703403071.945673,117.000000,0.000000,4237.051270,4170.897461,4298.205078,4246.282227,4153.333496,4150.769043,4197.436035,4168.717773,4148.589844,4158.205078,4631.282227,4463.077148,4426.922852,4501.922852,6594.000000,4.000000,89.000000,,,,0.000000,4.000000,4.000000,4.000000,4.000000,4.000000,4.000000,4.000000,4.000000,4.000000,4.000000,4.000000,4.000000,4.000000,4.000000,100.000000,,,,,,,,,,,,,,,,,,,,,,,,,,,,
1703403071.952968,1703403071.953581,118.000000,0.000000,4243.589844,4167.820313,4295.256348,4237.051270,4156.666504,4151.922852,4199.102539,4170.512695,4156.410156,4156.666504,4622.051270,4461.666504,4422.948730,4505.512695,5826.000000,4.000000,89.000000,,,,0.000000,4.000000,4.000000,4.000000,4.000000,4.000000,4.000000,4.000000,4.000000,4.000000,4.000000,4.000000,4.000000,4.000000,4.000000,100.000000,,,,,,,,,,,,,,,,,,,,,,,,,,,,
1703403071.960776,1703403071.961389,119.000000,0.000000,4256.153809,4169.871582,4286.538574,4232.307617,4156.025879,4148.846191,4202.692383,4171.410156,4148.846191,4156.666504,4632.436035,4456.153809,4410.384766,4510.769043,6189.000000,4.000000,89.000000,,,,0.000000,4.000000,4.000000,4.000000,4.000000,4.000000,4.000000,4.000000,4.000000,4.000000,4.000000,4.000000,4.000000,4.000000,4.000000,100.000000,,,,,,,,,,,,,,,,,,,,,,,,,,,,
1703403071.968584,1703403071.969097,120.000000,0.000000,4258.461426,4173.205078,4279.743652,4242.436035,4155.256348,4147.563965,4200.769043,4169.102539,4138.589844,4149.871582,4652.179688,4448.589844,4417.692383,4511.025879,6653.000000,4.000000,89.000000,,,,0.000000,4.000000,4.000000,4.000000,4.000000,4.000000,4.000000,4.000000,4.000000,4.000000,4.000000,4.000000,4.000000,4.000000,4.000000,100.000000,,,,,,,,,,,,,,,,,30.000000,0.000000,0.672371,-0.064392,-0.701721,0.226624,0.909779,-0.407765,0.005860,-31.146601,-9.379361,74.272850
1703403071.976392,1703403071.976905,121.000000,0.000000,4245.641113,4175.128418,4278.717773,4246.794922,4153.589844,4147.307617,4197.051270,4166.282227,4139.743652,4145.384766,4639.743652,4448.461426,4431.282227,4501.410156,6594.000000,4.000000,89.000000,,,,0.000000,4.000000,4.000000,4.000000,4.000000,4.000000,4.000000,4.000000,4.000000,4.000000,4.000000,4.000000,4.000000,4.000000,4.000000,100.000000,,,,,,,,,,,,,,,,,,,,,,,,,,,,
1703403071.984200,1703403071.984613,122.000000,0.000000,4230.769043,4177.820313,4281.538574,4241.922852,4157.436035,4151.025879,4199.102539,4167.436035,4139.743652,4151.666504,4611.922852,4451.538574,4424.871582,4497.948730,5826.000000,4.000000,89.000000,,,,0.000000,4.000000,4.000000,4.000000,4.000000,4.000000,4.000000,4.000000,4.000000,4.000000,4.000000,4.000000,4.000000,4.000000,4.000000,100.000000,,,,,,,,,,,,,,,,,,,,,,,,,,,,
1703403071.992008,1703403071.992521,123.000000,0.000000,4248.717773,4187.179688,4286.025879,4247.948730,4169.230957,4157.307617,4198.846191,4167.948730,4138.077148,4154.102539,4621.025879,4451.025879,4425.769043,4513.589844,6189.000000,4.000000,89.000000,,,,0.000000,4.000000,4.000000,4.000000,4.000000,4.000000,4.000000,4.000000,4.000000,4.000000,4.000000,4.000000,4.000000,4.000000,4.000000,100.000000,,,,,,,,,,,,,,,,,,,,,,,,,,,,
1703403071.999816,1703403072.000329,124.000000,0.000000,4271.153809,4191.410156,4287.307617,4252.307617,4170.641113,4151.922852,4195.897461,4166.282227,4145.256348,4150.256348,4646.282227,4453.717773,4440.384766,4527.692383,6653.000000,4.000000,89.000000,,,,0.000000,4.000000,4.000000,4.000000,4.000000,4.000000,4.000000,4.000000,4.000000,4.000000,4.000000,4.000000,4.000000,4.000000,4.000000,100.000000,,,,,,,,,,,,,,,,,31.000000,0.000000,0.672266,-0.064392,-0.701782,0.226746,0.889757,-0.402881,0.003418,-30.998606,-9.474758,74.212234
1703403072.007624,1703403072.008236,125.000000,0.000000,4259.615234,4185.897461,4288.333496,4245.769043,4161.922852,4141.538574,4197.820313,4167.948730,4155.128418,4160.384766,4642.948730,4459.102539,4439.102539,4523.333496,6594.000000,4.000000,89.000000,,,,0.000000,4.000000,4.000000,4.000000,4.000000,4.000000,4.000000,4.000000,4.000000,4.000000,4.000000,4.000000,4.000000,4.000000,4.000000,100.000000,,,,,,,,,,,,,,,,,,,,,,,,,,,,
1703403072.015432,1703403072.016044,126.000000,0.000000,4254.102539,4190.000000,4294.743652,4254.487305,4164.102539,4145.512695,4197.051270,4165.897461,4153.333496,4170.256348,4630.512695,4458.461426,4428.077148,4518.717773,5826.000000,4.000000,89.000000,,,,0.000000,4.000000,4.000000,4.000000,4.000000,4.000000,4.000000,4.000000,4.000000,4.000000,4.000000,4.000000,4.000000,4.000000,4.000000,100.000000,,,,,,,,,,,,,,,,,,,,,,,,,,,,
