title:فاكهاني اعلى, start timestamp:1703490936.626312, stop timestamp:1703490947.370194, headset type:EPOCX, headset serial:E50206EF, headset firmware:720, channels:67, sampling rate:eeg_128;mot_32, samples:1377      , version:2.2, 
Timestamp,OriginalTimestamp,EEG.Counter,EEG.Interpolated,EEG.AF3,EEG.F7,EEG.F3,EEG.FC5,EEG.T7,EEG.P7,EEG.O1,EEG.O2,EEG.P8,EEG.T8,EEG.FC6,EEG.F4,EEG.F8,EEG.AF4,EEG.RawCq,EEG.Battery,EEG.BatteryPercent,MarkerIndex,MarkerType,MarkerValueInt,EEG.MarkerHardware,CQ.AF3,CQ.F7,CQ.F3,CQ.FC5,CQ.T7,CQ.P7,CQ.O1,CQ.O2,CQ.P8,CQ.T8,CQ.FC6,CQ.F4,CQ.F8,CQ.AF4,CQ.Overall,EQ.SampleRateQuality,EQ.OVERALL,EQ.AF3,EQ.F7,EQ.F3,EQ.FC5,EQ.T7,EQ.P7,EQ.O1,EQ.O2,EQ.P8,EQ.T8,EQ.FC6,EQ.F4,EQ.F8,EQ.AF4,MOT.CounterMems,MOT.InterpolatedMems,MOT.Q0,MOT.Q1,MOT.Q2,MOT.Q3,MOT.AccX,MOT.AccY,MOT.AccZ,MOT.MagX,MOT.MagY,MOT.MagZ
1703490936.626312,1703490936.627357,98.000000,0.000000,4185.897461,4171.025879,4269.871582,4265.641113,4223.205078,4255.000000,4303.461426,4280.128418,4243.589844,4205.384766,4440.641113,4425.384766,4311.666504,4372.179688,5968.000000,4.000000,88.000000,,,,0.000000,4.000000,4.000000,4.000000,4.000000,4.000000,4.000000,4.000000,4.000000,4.000000,4.000000,4.000000,4.000000,4.000000,4.000000,100.000000,,,,,,,,,,,,,,,,,,,,,,,,,,,,
1703490936.634120,1703490936.635265,99.000000,0.000000,4201.410156,4178.077148,4278.589844,4273.461426,4225.128418,4248.077148,4297.179688,4275.641113,4230.897461,4200.512695,4442.820313,4430.897461,4313.589844,4386.153809,5629.000000,4.000000,88.000000,,,,0.000000,4.000000,4.000000,4.000000,4.000000,4.000000,4.000000,4.000000,4.000000,4.000000,4.000000,4.000000,4.000000,4.000000,4.000000,100.000000,,,,,,,,,,,,,,,,,,,,,,,,,,,,
1703490936.641929,1703490936.643073,100.000000,0.000000,4216.282227,4188.333496,4291.922852,4281.794922,4231.538574,4238.077148,4294.743652,4266.538574,4219.871582,4196.538574,4448.205078,4437.563965,4322.820313,4399.487305,5911.000000,4.000000,88.000000,,,,0.000000,4.000000,4.000000,4.000000,4.000000,4.000000,4.000000,4.000000,4.000000,4.000000,4.000000,4.000000,4.000000,4.000000,4.000000,100.000000,,,,,,,,,,,,,,,,,25.000000,0.000000,0.672311,-0.120789,-0.691284,-0.235657,0.986937,0.164083,0.018069,-18.941742,-33.493092,63.685841
1703490936.649737,1703490936.650981,101.000000,0.000000,4210.128418,4193.846191,4289.102539,4285.512695,4228.717773,4226.410156,4283.077148,4258.333496,4203.589844,4188.589844,4446.410156,4436.538574,4324.615234,4396.666504,2919.000000,4.000000,88.000000,,,,0.000000,4.000000,4.000000,4.000000,4.000000,4.000000,4.000000,4.000000,4.000000,4.000000,4.000000,4.000000,4.000000,4.000000,4.000000,100.000000,,,,,,,,,,,,,,,,,,,,,,,,,,,,
1703490936.657545,1703490936.658789,102.000000,0.000000,4213.974121,4196.153809,4285.128418,4288.974121,4225.641113,4228.974121,4276.282227,4259.871582,4197.307617,4188.077148,4442.692383,4432.307617,4322.948730,4393.205078,5968.000000,4.000000,88.000000,,,,0.000000,4.000000,4.000000,4.000000,4.000000,4.000000,4.000000,4.000000,4.000000,4.000000,4.000000,4.000000,4.000000,4.000000,4.000000,100.000000,,,,,,,,,,,,,,,,,,,,,,,,,,,,
1703490936.665353,1703490936.666497,103.000000,0.000000,4221.666504,4195.641113,4283.974121,4287.307617,4226.666504,4236.538574,4277.948730,4263.461426,4208.461426,4195.000000,4435.897461,4431.282227,4317.307617,4393.846191,5629.000000,4.000000,88.000000,,,,0.000000,4.000000,4.000000,4.000000,4.000000,4.000000,4.000000,4.000000,4.000000,4.000000,4.000000,4.000000,4.000000,4.000000,4.000000,100.000000,,,,,,,,,,,,,,,,,,,,,,,,,,,,
1703490936.673161,1703490936.674305,104.000000,0.000000,4213.974121,4195.384766,4277.051270,4280.641113,4233.077148,4240.384766,4278.589844,4270.128418,4227.692383,4208.717773,4437.179688,4429.102539,4314.743652,4390.000000,5911.000000,4.000000,88.000000,,,,0.000000,4.000000,4.000000,4.000000,4.000000,4.000000,4.000000,4.000000,4.000000,4.000000,4.000000,4.000000,4.000000,4.000000,4.000000,100.000000,,,,,,,,,,,,,,,,,26.000000,0.000000,0.672278,-0.120972,-0.691284,-0.235657,0.988890,0.166524,0.005860,-18.830900,-33.577118,63.567257
1703490936.680969,1703490936.682013,105.000000,0.000000,4207.820313,4196.666504,4275.897461,4278.461426,4240.641113,4248.077148,4285.769043,4281.153809,4246.794922,4226.282227,4452.436035,4427.820313,4325.897461,4388.846191,2919.000000,4.000000,88.000000,,,,0.000000,4.000000,4.000000,4.000000,4.000000,4.000000,4.000000,4.000000,4.000000,4.000000,4.000000,4.000000,4.000000,4.000000,4.000000,100.000000,,,,,,,,,,,,,,,,,,,,,,,,,,,,
1703490936.688777,1703490936.689821,106.000000,0.000000,4206.794922,4193.974121,4277.307617,4277.820313,4239.230957,4257.692383,4296.794922,4282.692383,4257.948730,4233.846191,4458.974121,4428.205078,4330.000000,4390.769043,5968.000000,4.000000,88.000000,,,,0.000000,4.000000,4.000000,4.000000,4.000000,4.000000,4.000000,4.000000,4.000000,4.000000,4.000000,4.000000,4.000000,4.000000,4.000000,100.000000,,,,,,,,,,,,,,,,,,,,,,,,,,,,
1703490936.696585,1703490936.697529,107.000000,0.000000,4199.487305,4184.487305,4271.410156,4273.205078,4237.436035,4261.922852,4299.487305,4281.410156,4258.846191,4227.563965,4449.743652,4427.307617,4314.487305,4382.436035,5629.000000,4.000000,88.000000,,,,0.000000,4.000000,4.000000,4.000000,4.000000,4.000000,4.000000,4.000000,4.000000,4.000000,4.000000,4.000000,4.000000,4.000000,4.000000,100.000000,,,,,,,,,,,,,,,,,,,,,,,,,,,,
1703490936.704393,1703490936.705337,108.000000,0.000000,4195.000000,4183.974121,4271.025879,4271.410156,4242.051270,4263.974121,4305.000000,4290.641113,4258.077148,4221.794922,4448.461426,4431.538574,4306.922852,4377.692383,5911.000000,4.000000,88.000000,,,,0.000000,4.000000,4.000000,4.000000,4.000000,4.000000,4.000000,4.000000,4.000000,4.000000,4.000000,4.000000,4.000000,4.000000,4.000000,100.000000,,,,,,,,,,,,,,,,,27.000000,0.000000,0.672193,-0.121216,-0.691345,-0.235596,0.979612,0.179221,0.019534,-18.864477,-33.569405,63.743866
1703490936.712201,1703490936.713045,109.000000,0.000000,4194.230957,4195.000000,4273.846191,4273.333496,4240.128418,4262.692383,4311.922852,4294.358887,4256.025879,4217.563965,4449.230957,4432.563965,4308.846191,4379.358887,2919.000000,4.000000,88.000000,,,,0.000000,4.000000,4.000000,4.000000,4.000000,4.000000,4.000000,4.000000,4.000000,4.000000,4.000000,4.000000,4.000000,4.000000,4.000000,100.000000,,,,,,,,,,,,,,,,,,,,,,,,,,,,
1703490936.720009,1703490936.720953,110.000000,0.000000,4194.743652,4195.641113,4275.641113,4271.410156,4233.333496,4253.333496,4304.615234,4284.102539,4246.922852,4205.641113,4433.974121,4428.846191,4296.282227,4379.487305,5968.000000,4.000000,88.000000,,,,0.000000,4.000000,4.000000,4.000000,4.000000,4.000000,4.000000,4.000000,4.000000,4.000000,4.000000,4.000000,4.000000,4.000000,4.000000,100.000000,,,,,,,,,,,,,,,,,,,,,,,,,,,,
1703490936.727817,1703490936.728761,111.000000,0.000000,4211.666504,4192.692383,4288.077148,4275.128418,4237.563965,4250.000000,4297.948730,4280.384766,4239.871582,4203.589844,4439.743652,4435.000000,4298.717773,4395.641113,5629.000000,4.000000,88.000000,,,,0.000000,4.000000,4.000000,4.000000,4.000000,4.000000,4.000000,4.000000,4.000000,4.000000,4.000000,4.000000,4.000000,4.000000,4.000000,100.000000,,,,,,,,,,,,,,,,,,,,,,,,,,,,
1703490936.735625,1703490936.736569,112.000000,0.000000,4227.307617,4202.436035,4297.436035,4281.282227,4240.256348,4246.922852,4295.897461,4279.871582,4234.102539,4211.410156,4462.820313,4441.025879,4323.589844,4417.820313,5911.000000,4.000000,88.000000,,,,0.000000,4.000000,4.000000,4.000000,4.000000,4.000000,4.000000,4.000000,4.000000,4.000000,4.000000,4.000000,4.000000,4.000000,4.000000,100.000000,,,,,,,,,,,,,,,,,28.000000,0.000000,0.672204,-0.121155,-0.691345,-0.235596,0.968868,0.163594,0.018557,-18.944696,-33.645798,63.819477
1703490936.743433,1703490936.744277,113.000000,0.000000,4222.948730,4212.436035,4292.820313,4280.384766,4231.794922,4235.769043,4289.615234,4270.769043,4226.410156,4210.641113,4459.230957,4438.589844,4330.000000,4417.179688,2919.000000,4.000000,88.000000,,,,0.000000,4.000000,4.000000,4.000000,4.000000,4.000000,4.000000,4.000000,4.000000,4.000000,4.000000,4.000000,4.000000,4.000000,4.000000,100.000000,,,,,,,,,,,,,,,,,,,,,,,,,,,,
1703490936.751241,1703490936.752085,114.000000,0.000000,4220.128418,4209.615234,4295.000000,4285.384766,4231.153809,4231.025879,4288.333496,4263.205078,4221.666504,4206.025879,4447.179688,4435.512695,4322.948730,4409.102539,5968.000000,4.000000,88.000000,,,,0.000000,4.000000,4.000000,4.000000,4.000000,4.000000,4.000000,4.000000,4.000000,4.000000,4.000000,4.000000,4.000000,4.000000,4.000000,100.000000,,,,,,,,,,,,,,,,,,,,,,,,,,,,
1703490936.759049,1703490936.759793,115.000000,0.000000,4230.769043,4212.820313,4296.410156,4291.666504,4237.948730,4235.384766,4285.769043,4265.000000,4221.025879,4205.000000,4450.384766,4432.948730,4321.025879,4412.179688,5629.000000,4.000000,88.000000,,,,0.000000,4.000000,4.000000,4.000000,4.000000,4.000000,4.000000,4.000000,4.000000,4.000000,4.000000,4.000000,4.000000,4.000000,4.000000,100.000000,,,,,,,,,,,,,,,,,,,,,,,,,,,,
1703490936.766857,1703490936.767701,116.000000,0.000000,4231.538574,4222.051270,4283.974121,4287.563965,4240.256348,4243.205078,4279.358887,4270.256348,4233.589844,4211.153809,4451.922852,4430.769043,4319.743652,4405.512695,5911.000000,4.000000,88.000000,,,,0.000000,4.000000,4.000000,4.000000,4.000000,4.000000,4.000000,4.000000,4.000000,4.000000,4.000000,4.000000,4.000000,4.000000,4.000000,100.000000,,,,,,,,,,,,,,,,,29.000000,0.000000,0.672288,-0.121155,-0.691284,-0.235535,0.966915,0.164571,0.014650,-19.016893,-33.631218,63.887531
1703490936.774665,1703490936.775509,117.000000,0.000000,4208.717773,4218.205078,4274.743652,4283.846191,4243.974121,4253.077148,4282.563965,4279.358887,4262.436035,4229.615234,4454.230957,4430.897461,4321.282227,4389.615234,2919.000000,4.000000,88.000000,,,,0.000000,4.000000,4.000000,4.000000,4.000000,4.000000,4.000000,4.000000,4.000000,4.000000,4.000000,4.000000,4.000000,4.000000,4.000000,100.000000,,,,,,,,,,,,,,,,,,,,,,,,,,,,
1703490936.782473,1703490936.783417,118.000000,0.000000,4193.461426,4210.256348,4269.102539,4282.179688,4250.128418,4260.000000,4291.025879,4287.563965,4279.743652,4241.410156,4459.487305,4429.615234,4318.846191,4386.538574,5968.000000,4.000000,88.000000,,,,0.000000,4.000000,4.000000,4.000000,4.000000,4.000000,4.000000,4.000000,4.000000,4.000000,4.000000,4.000000,4.000000,4.000000,4.000000,100.000000,,,,,,,,,,,,,,,,,,,,,,,,,,,,
1703490936.790281,1703490936.791225,119.000000,0.000000,4202.179688,4213.461426,4260.897461,4272.692383,4252.692383,4265.512695,4297.692383,4292.179688,4277.820313,4234.487305,4455.512695,4426.794922,4310.512695,4391.025879,5629.000000,4.000000,88.000000,,,,0.000000,4.000000,4.000000,4.000000,4.000000,4.000000,4.000000,4.000000,4.000000,4.000000,4.000000,4.000000,4.000000,4.000000,4.000000,100.000000,,,,,,,,,,,,,,,,,,,,,,,,,,,,
1703490936.798090,1703490936.799132,120.000000,0.000000,4207.179688,4212.179688,4263.717773,4267.820313,4249.871582,4272.948730,4306.410156,4296.922852,4279.358887,4230.641113,4450.384766,4427.563965,4310.256348,4390.769043,5911.000000,4.000000,88.000000,,,,0.000000,4.000000,4.000000,4.000000,4.000000,4.000000,4.000000,4.000000,4.000000,4.000000,4.000000,4.000000,4.000000,4.000000,4.000000,100.000000,,,,,,,,,,,,,,,,,30.000000,0.000000,0.672310,-0.121033,-0.691284,-0.235535,0.980588,0.169454,0.023440,-19.048536,-33.551430,63.715443
1703490936.805898,1703490936.806940,121.000000,0.000000,4199.230957,4205.256348,4275.512695,4273.205078,4242.051270,4268.461426,4307.820313,4299.358887,4275.128418,4229.358887,4450.769043,4430.384766,4309.871582,4389.230957,2919.000000,4.000000,88.000000,,,,0.000000,4.000000,4.000000,4.000000,4.000000,4.000000,4.000000,4.000000,4.000000,4.000000,4.000000,4.000000,4.000000,4.000000,4.000000,100.000000,,,,,,,,,,,,,,,,,,,,,,,,,,,,
1703490936.813706,1703490936.814848,122.000000,0.000000,4208.461426,4218.077148,4286.794922,4280.256348,4239.615234,4256.794922,4302.563965,4292.436035,4257.307617,4222.948730,4458.205078,4434.615234,4313.974121,4399.487305,5968.000000,4.000000,88.000000,,,,0.000000,4.000000,4.000000,4.000000,4.000000,4.000000,4.000000,4.000000,4.000000,4.000000,4.000000,4.000000,4.000000,4.000000,4.000000,100.000000,,,,,,,,,,,,,,,,,,,,,,,,,,,,
1703490936.821514,1703490936.822756,123.000000,0.000000,4231.153809,4239.230957,4297.307617,4288.846191,4244.871582,4252.179688,4301.025879,4285.128418,4245.641113,4218.333496,4467.051270,4437.820313,4330.512695,4420.000000,5629.000000,4.000000,88.000000,,,,0.000000,4.000000,4.000000,4.000000,4.000000,4.000000,4.000000,4.000000,4.000000,4.000000,4.000000,4.000000,4.000000,4.000000,4.000000,100.000000,,,,,,,,,,,,,,,,,,,,,,,,,,,,
1703490936.829322,1703490936.830564,124.000000,0.000000,4231.538574,4237.563965,4297.436035,4290.641113,4242.307617,4244.487305,4290.769043,4279.615234,4235.128418,4212.307617,4457.948730,4435.897461,4327.179688,4427.820313,5911.000000,4.000000,88.000000,,,,0.000000,4.000000,4.000000,4.000000,4.000000,4.000000,4.000000,4.000000,4.000000,4.000000,4.000000,4.000000,4.000000,4.000000,4.000000,100.000000,,,,,,,,,,,,,,,,,31.000000,0.000000,0.672373,-0.121033,-0.691223,-0.235535,0.971798,0.164571,0.022952,-19.360350,-33.412952,63.760567
1703490936.837130,1703490936.838472,125.000000,0.000000,4221.538574,4234.487305,4291.025879,4286.666504,4237.179688,4235.769043,4277.051270,4271.025879,4223.461426,4214.230957,4453.333496,4434.358887,4319.743652,4424.487305,2919.000000,4.000000,88.000000,,,,0.000000,4.000000,4.000000,4.000000,4.000000,4.000000,4.000000,4.000000,4.000000,4.000000,4.000000,4.000000,4.000000,4.000000,4.000000,100.000000,,,,,,,,,,,,,,,,,,,,,,,,,,,,
1703490936.844938,1703490936.846280,126.000000,0.000000,4229.230957,4249.743652,4297.307617,4290.897461,4244.102539,4237.051270,4275.897461,4269.102539,4223.589844,4224.871582,4467.820313,4437.307617,4335.769043,4423.589844,5968.000000,4.000000,88.000000,,,,0.000000,4.000000,4.000000,4.000000,4.000000,4.000000,4.000000,4.000000,4.000000,4.000000,4.000000,4.000000,4.000000,4.000000,4.000000,100.000000,,,,,,,,,,,,,,,,,,,,,,,,,,,,
1703490936.852746,1703490936.854088,127.000000,0.000000,4246.282227,4258.461426,4306.153809,4297.692383,4253.333496,4237.436035,4276.922852,4273.974121,4234.871582,4227.563965,4471.666504,4437.692383,4338.974121,4423.846191,88.000000,4.000000,88.000000,,,,0.000000,4.000000,4.000000,4.000000,4.000000,4.000000,4.000000,4.000000,4.000000,4.000000,4.000000,4.000000,4.000000,4.000000,4.000000,100.000000,,,,,,,,,,,,,,,,,,,,,,,,,,,,
1703490936.860554,1703490936.861796,0.000000,0.000000,4243.333496,4249.358887,4300.384766,4296.538574,4253.589844,4235.641113,4275.512695,4278.846191,4251.282227,4230.256348,4466.025879,4435.512695,4326.794922,4425.641113,5061.000000,4.000000,88.000000,,,,0.000000,4.000000,4.000000,4.000000,4.000000,4.000000,4.000000,4.000000,4.000000,4.000000,4.000000,4.000000,4.000000,4.000000,4.000000,100.000000,,,,,,,,,,,,,,,,,0.000000,0.000000,0.672403,-0.121094,-0.691162,-0.235596,0.977170,0.164571,0.022464,-19.324316,-33.388325,63.684509
1703490936.868362,1703490936.869604,1.000000,0.000000,4224.230957,4246.538574,4289.615234,4292.820313,4249.743652,4244.487305,4278.205078,4286.666504,4267.436035,4240.897461,4470.769043,4435.384766,4334.615234,4422.436035,5689.000000,4.000000,88.000000,,,,0.000000,4.000000,4.000000,4.000000,4.000000,4.000000,4.000000,4.000000,4.000000,4.000000,4.000000,4.000000,4.000000,4.000000,4.000000,100.000000,,,,,,,,,,,,,,,,,,,,,,,,,,,,
1703490936.876170,1703490936.877312,2.000000,0.000000,4217.563965,4250.256348,4287.820313,4290.128418,4250.897461,4262.563965,4283.077148,4295.000000,4274.487305,4244.615234,4473.461426,4433.846191,4339.487305,4408.974121,5369.000000,4.000000,88.000000,,,,0.000000,4.000000,4.000000,4.000000,4.000000,4.000000,4.000000,4.000000,4.000000,4.000000,4.000000,4.000000,4.000000,4.000000,4.000000,100.000000,,,,,,,,,,,,,,,,,,,,,,,,,,,,
1703490936.883978,1703490936.885120,3.000000,0.000000,4219.743652,4246.410156,4286.794922,4286.922852,4254.743652,4271.410156,4288.333496,4295.384766,4269.230957,4234.615234,4465.641113,4432.051270,4324.615234,4406.538574,5521.000000,4.000000,88.000000,,,,0.000000,4.000000,4.000000,4.000000,4.000000,4.000000,4.000000,4.000000,4.000000,4.000000,4.000000,4.000000,4.000000,4.000000,4.000000,100.000000,,,,,,,,,,,,,,,,,,,,,,,,,,,,
1703490936.891786,1703490936.892828,4.000000,0.000000,4216.794922,4241.410156,4277.563965,4286.025879,4251.282227,4265.897461,4290.512695,4290.128418,4259.102539,4221.666504,4452.563965,4430.512695,4313.077148,4413.589844,5312.000000,4.000000,88.000000,,,,0.000000,4.000000,4.000000,4.000000,4.000000,4.000000,4.000000,4.000000,4.000000,4.000000,4.000000,4.000000,4.000000,4.000000,4.000000,100.000000,,,,,,,,,,,,,,,,,1.000000,0.000000,0.672284,-0.121277,-0.691162,-0.235840,0.992797,0.167013,0.018069,-19.375217,-33.466160,63.582726
1703490936.899594,1703490936.900636,5.000000,0.000000,4215.384766,4242.820313,4279.230957,4286.410156,4248.077148,4262.948730,4287.436035,4292.563965,4255.256348,4218.205078,4449.615234,4430.641113,4312.436035,4410.512695,5190.000000,4.000000,88.000000,,,,0.000000,4.000000,4.000000,4.000000,4.000000,4.000000,4.000000,4.000000,4.000000,4.000000,4.000000,4.000000,4.000000,4.000000,4.000000,100.000000,,,,,,,,,,,,,,,,,,,,,,,,,,,,
1703490936.907402,1703490936.908344,6.000000,0.000000,4221.794922,4248.846191,4293.461426,4288.717773,4253.846191,4263.846191,4285.384766,4294.743652,4258.333496,4223.717773,4457.820313,4438.333496,4316.794922,4413.717773,3193.000000,4.000000,88.000000,,,,0.000000,4.000000,4.000000,4.000000,4.000000,4.000000,4.000000,4.000000,4.000000,4.000000,4.000000,4.000000,4.000000,4.000000,4.000000,100.000000,,,,,,,,,,,,,,,,,,,,,,,,,,,,
1703490936.915210,1703490936.916152,7.000000,0.000000,4229.230957,4254.487305,4297.307617,4293.717773,4254.230957,4253.974121,4280.512695,4288.846191,4254.358887,4225.256348,4459.358887,4441.410156,4322.948730,4427.436035,2798.000000,4.000000,88.000000,,,,0.000000,4.000000,4.000000,4.000000,4.000000,4.000000,4.000000,4.000000,4.000000,4.000000,4.000000,4.000000,4.000000,4.000000,4.000000,100.000000,1.000000,75.000000,4.000000,4.000000,4.000000,4.000000,3.000000,3.000000,3.000000,4.000000,4.000000,4.000000,4.000000,4.000000,4.000000,4.000000,,,,,,,,,,,,
1703490936.923018,1703490936.923860,8.000000,0.000000,4233.333496,4255.769043,4292.307617,4294.871582,4243.717773,4238.461426,4267.820313,4280.384766,4237.948730,4219.487305,4454.230957,4434.358887,4320.769043,4421.025879,4288.000000,4.000000,88.000000,,,,0.000000,4.000000,4.000000,4.000000,4.000000,4.000000,4.000000,4.000000,4.000000,4.000000,4.000000,4.000000,4.000000,4.000000,4.000000,100.000000,,,,,,,,,,,,,,,,,2.000000,0.000000,0.672304,-0.121399,-0.691101,-0.235901,0.974728,0.184593,0.011720,-19.337696,-33.536209,63.607784
1703490936.930827,1703490936.931668,9.000000,0.000000,4247.179688,4258.589844,4300.769043,4296.153809,4238.974121,4234.358887,4263.077148,4278.589844,4232.692383,4222.436035,4463.077148,4435.384766,4326.153809,4416.410156,5460.000000,4.000000,88.000000,,,,0.000000,4.000000,4.000000,4.000000,4.000000,4.000000,4.000000,4.000000,4.000000,4.000000,4.000000,4.000000,4.000000,4.000000,4.000000,100.000000,,,,,,,,,,,,,,,,,,,,,,,,,,,,
1703490936.938635,1703490936.939376,10.000000,0.000000,4264.358887,4270.128418,4312.563965,4306.922852,4244.615234,4239.871582,4263.974121,4280.641113,4247.948730,4238.205078,4483.589844,4444.358887,4352.436035,4442.436035,6018.000000,4.000000,88.000000,,,,0.000000,4.000000,4.000000,4.000000,4.000000,4.000000,4.000000,4.000000,4.000000,4.000000,4.000000,4.000000,4.000000,4.000000,4.000000,100.000000,,,,,,,,,,,,,,,,,,,,,,,,,,,,
1703490936.946442,1703490936.947284,11.000000,0.000000,4257.307617,4272.307617,4305.000000,4307.436035,4244.487305,4234.871582,4252.051270,4277.436035,4254.615234,4237.948730,4478.461426,4441.794922,4353.846191,4450.128418,5666.000000,4.000000,88.000000,,,,0.000000,4.000000,4.000000,4.000000,4.000000,4.000000,4.000000,4.000000,4.000000,4.000000,4.000000,4.000000,4.000000,4.000000,4.000000,100.000000,,,,,,,,,,,,,,,,,,,,,,,,,,,,
1703490936.954251,1703490936.955092,12.000000,0.000000,4237.051270,4263.205078,4292.179688,4293.974121,4241.666504,4232.051270,4241.282227,4276.666504,4248.589844,4226.922852,4458.077148,4433.077148,4326.538574,4425.384766,5958.000000,4.000000,88.000000,,,,0.000000,4.000000,4.000000,4.000000,4.000000,4.000000,4.000000,4.000000,4.000000,4.000000,4.000000,4.000000,4.000000,4.000000,4.000000,100.000000,,,,,,,,,,,,,,,,,3.000000,0.000000,0.672377,-0.121460,-0.691040,-0.235840,0.982053,0.181663,0.021487,-19.253925,-33.549255,63.763676
1703490936.962059,1703490936.963000,13.000000,0.000000,4228.846191,4258.589844,4284.358887,4285.128418,4247.051270,4245.641113,4243.974121,4279.102539,4249.615234,4229.487305,4454.102539,4430.256348,4319.358887,4404.743652,2945.000000,4.000000,88.000000,,,,0.000000,4.000000,4.000000,4.000000,4.000000,4.000000,4.000000,4.000000,4.000000,4.000000,4.000000,4.000000,4.000000,4.000000,4.000000,100.000000,,,,,,,,,,,,,,,,,,,,,,,,,,,,
1703490936.969867,1703490936.970808,14.000000,0.000000,4230.000000,4258.333496,4282.179688,4286.666504,4255.256348,4258.974121,4250.769043,4280.641113,4256.153809,4233.077148,4457.051270,4431.153809,4325.256348,4407.692383,6018.000000,4.000000,88.000000,,,,0.000000,4.000000,4.000000,4.000000,4.000000,4.000000,4.000000,4.000000,4.000000,4.000000,4.000000,4.000000,4.000000,4.000000,4.000000,100.000000,,,,,,,,,,,,,,,,,,,,,,,,,,,,
1703490936.977675,1703490936.978716,15.000000,0.000000,4223.205078,4264.102539,4284.871582,4291.410156,4257.948730,4264.487305,4256.794922,4282.436035,4259.230957,4227.307617,4452.820313,4432.692383,4318.461426,4419.487305,5666.000000,4.000000,88.000000,,,,0.000000,4.000000,4.000000,4.000000,4.000000,4.000000,4.000000,4.000000,4.000000,4.000000,4.000000,4.000000,4.000000,4.000000,4.000000,100.000000,,,,,,,,,,,,,,,,,,,,,,,,,,,,
1703490936.985483,1703490936.986524,16.000000,0.000000,4224.102539,4266.922852,4285.897461,4291.410156,4250.641113,4262.051270,4258.077148,4281.538574,4256.410156,4221.153809,4447.563965,4433.589844,4314.743652,4420.769043,0.000000,4.000000,88.000000,,,,0.000000,4.000000,4.000000,4.000000,4.000000,4.000000,4.000000,4.000000,4.000000,4.000000,4.000000,4.000000,4.000000,4.000000,4.000000,100.000000,,,,,,,,,,,,,,,,,4.000000,0.000000,0.672420,-0.121338,-0.691040,-0.235779,0.977170,0.175314,0.018069,-19.045200,-33.477661,63.653973
1703490936.993291,1703490936.994432,17.000000,0.000000,4238.205078,4260.769043,4286.282227,4286.538574,4239.487305,4248.077148,4250.897461,4280.769043,4250.512695,4219.358887,4448.205078,4432.692383,4320.641113,4413.205078,0.000000,4.000000,88.000000,,,,0.000000,4.000000,4.000000,4.000000,4.000000,4.000000,4.000000,4.000000,4.000000,4.000000,4.000000,4.000000,4.000000,4.000000,4.000000,100.000000,,,,,,,,,,,,,,,,,,,,,,,,,,,,
1703490937.001099,1703490937.002240,18.000000,0.000000,4251.282227,4261.282227,4293.077148,4287.179688,4237.563965,4238.846191,4248.205078,4280.769043,4249.871582,4222.051270,4456.666504,4433.846191,4326.410156,4413.333496,0.000000,4.000000,88.000000,,,,0.000000,4.000000,4.000000,4.000000,4.000000,4.000000,4.000000,4.000000,4.000000,4.000000,4.000000,4.000000,4.000000,4.000000,4.000000,100.000000,,,,,,,,,,,,,,,,,,,,,,,,,,,,
1703490937.008907,1703490937.010147,19.000000,0.000000,4258.077148,4272.436035,4300.897461,4295.000000,4238.846191,4237.948730,4252.692383,4280.512695,4252.051270,4228.461426,4465.384766,4439.358887,4336.538574,4429.743652,0.000000,4.000000,88.000000,,,,0.000000,4.000000,4.000000,4.000000,4.000000,4.000000,4.000000,4.000000,4.000000,4.000000,4.000000,4.000000,4.000000,4.000000,4.000000,100.000000,,,,,,,,,,,,,,,,,,,,,,,,,,,,
1703490937.016715,1703490937.017955,20.000000,0.000000,4257.948730,4276.794922,4298.461426,4297.051270,4234.487305,4228.333496,4247.436035,4278.461426,4245.128418,4231.794922,4461.410156,4437.820313,4340.769043,4439.615234,0.000000,4.000000,88.000000,,,,0.000000,4.000000,4.000000,4.000000,4.000000,4.000000,4.000000,4.000000,4.000000,4.000000,4.000000,4.000000,4.000000,4.000000,4.000000,100.000000,,,,,,,,,,,,,,,,,5.000000,0.000000,0.672589,-0.121216,-0.690918,-0.235718,0.988402,0.171896,0.020510,-19.140680,-33.679897,63.621910
1703490937.024523,1703490937.025863,21.000000,0.000000,4254.102539,4271.153809,4296.282227,4290.000000,4231.794922,4218.333496,4235.769043,4276.538574,4238.077148,4234.871582,4460.384766,4432.820313,4339.358887,4431.153809,0.000000,4.000000,88.000000,,,,0.000000,4.000000,4.000000,4.000000,4.000000,4.000000,4.000000,4.000000,4.000000,4.000000,4.000000,4.000000,4.000000,4.000000,4.000000,100.000000,,,,,,,,,,,,,,,,,,,,,,,,,,,,
1703490937.032331,1703490937.033671,22.000000,0.000000,4250.769043,4272.307617,4297.692383,4286.282227,4238.333496,4222.436035,4232.051270,4276.410156,4244.615234,4240.256348,4469.487305,4436.153809,4344.102539,4425.256348,0.000000,4.000000,88.000000,,,,0.000000,4.000000,4.000000,4.000000,4.000000,4.000000,4.000000,4.000000,4.000000,4.000000,4.000000,4.000000,4.000000,4.000000,4.000000,100.000000,,,,,,,,,,,,,,,,,,,,,,,,,,,,
1703490937.040139,1703490937.041579,23.000000,0.000000,4248.333496,4275.000000,4292.179688,4287.948730,4243.717773,4227.179688,4231.794922,4278.205078,4252.692383,4242.179688,4464.230957,4435.897461,4337.563965,4425.641113,0.000000,4.000000,88.000000,,,,0.000000,4.000000,4.000000,4.000000,4.000000,4.000000,4.000000,4.000000,4.000000,4.000000,4.000000,4.000000,4.000000,4.000000,4.000000,100.000000,,,,,,,,,,,,,,,,,,,,,,,,,,,,
1703490937.047947,1703490937.049387,24.000000,0.000000,4238.461426,4271.538574,4281.410156,4285.769043,4240.128418,4231.666504,4232.820313,4279.487305,4254.871582,4240.000000,4454.102539,4427.820313,4322.948730,4420.512695,0.000000,4.000000,88.000000,,,,0.000000,4.000000,4.000000,4.000000,4.000000,4.000000,4.000000,4.000000,4.000000,4.000000,4.000000,4.000000,4.000000,4.000000,4.000000,100.000000,,,,,,,,,,,,,,,,,6.000000,0.000000,0.672589,-0.121216,-0.690918,-0.235718,0.980100,0.159687,0.024417,-19.259945,-33.728573,63.476387
1703490937.055755,1703490937.057095,25.000000,0.000000,4229.615234,4267.692383,4275.256348,4280.769043,4241.666504,4251.538574,4241.410156,4281.025879,4258.205078,4235.641113,4459.871582,4427.820313,4328.077148,4415.769043,0.000000,4.000000,88.000000,,,,0.000000,4.000000,4.000000,4.000000,4.000000,4.000000,4.000000,4.000000,4.000000,4.000000,4.000000,4.000000,4.000000,4.000000,4.000000,100.000000,,,,,,,,,,,,,,,,,,,,,,,,,,,,
1703490937.063563,1703490937.064903,26.000000,0.000000,4226.538574,4264.615234,4277.051270,4277.948730,4250.641113,4272.563965,4252.692383,4285.128418,4261.794922,4233.333496,4460.128418,4434.102539,4331.410156,4418.846191,0.000000,4.000000,88.000000,,,,0.000000,4.000000,4.000000,4.000000,4.000000,4.000000,4.000000,4.000000,4.000000,4.000000,4.000000,4.000000,4.000000,4.000000,4.000000,100.000000,,,,,,,,,,,,,,,,,,,,,,,,,,,,
1703490937.071371,1703490937.072611,27.000000,0.000000,4222.820313,4262.692383,4281.282227,4276.922852,4248.077148,4272.820313,4252.692383,4285.769043,4261.153809,4232.948730,4449.230957,4434.230957,4316.025879,4411.922852,0.000000,4.000000,88.000000,,,,0.000000,4.000000,4.000000,4.000000,4.000000,4.000000,4.000000,4.000000,4.000000,4.000000,4.000000,4.000000,4.000000,4.000000,4.000000,100.000000,,,,,,,,,,,,,,,,,,,,,,,,,,,,
1703490937.079179,1703490937.080419,28.000000,0.000000,4232.436035,4266.794922,4284.871582,4276.922852,4241.538574,4264.358887,4250.512695,4282.692383,4258.333496,4232.307617,4455.128418,4431.794922,4318.846191,4402.563965,0.000000,4.000000,88.000000,,,,0.000000,4.000000,4.000000,4.000000,4.000000,4.000000,4.000000,4.000000,4.000000,4.000000,4.000000,4.000000,4.000000,4.000000,4.000000,100.000000,,,,,,,,,,,,,,,,,7.000000,0.000000,0.672567,-0.121460,-0.690918,-0.235657,0.974240,0.155292,0.019045,-19.367285,-33.805717,63.562080
1703490937.086988,1703490937.088127,29.000000,0.000000,4242.307617,4270.897461,4281.538574,4274.871582,4239.743652,4254.743652,4248.974121,4278.717773,4245.000000,4223.717773,4458.589844,4430.512695,4328.461426,4405.256348,0.000000,4.000000,88.000000,,,,0.000000,4.000000,4.000000,4.000000,4.000000,4.000000,4.000000,4.000000,4.000000,4.000000,4.000000,4.000000,4.000000,4.000000,4.000000,100.000000,,,,,,,,,,,,,,,,,,,,,,,,,,,,
1703490937.094796,1703490937.095935,30.000000,0.000000,4233.077148,4265.897461,4278.077148,4269.230957,4230.512695,4241.794922,4239.743652,4270.512695,4229.358887,4213.846191,4443.717773,4427.563965,4312.307617,4406.153809,0.000000,4.000000,88.000000,,,,0.000000,4.000000,4.000000,4.000000,4.000000,4.000000,4.000000,4.000000,4.000000,4.000000,4.000000,4.000000,4.000000,4.000000,4.000000,100.000000,,,,,,,,,,,,,,,,,,,,,,,,,,,,
1703490937.102604,1703490937.103643,31.000000,0.000000,4231.538574,4267.436035,4281.666504,4268.974121,4219.358887,4232.051270,4232.692383,4266.282227,4226.153809,4216.794922,4446.794922,4428.461426,4310.384766,4404.102539,0.000000,4.000000,88.000000,,,,0.000000,4.000000,4.000000,4.000000,4.000000,4.000000,4.000000,4.000000,4.000000,4.000000,4.000000,4.000000,4.000000,4.000000,4.000000,100.000000,,,,,,,,,,,,,,,,,,,,,,,,,,,,
1703490937.110412,1703490937.111451,32.000000,0.000000,4245.897461,4275.897461,4285.256348,4275.128418,4218.461426,4228.205078,4231.922852,4268.461426,4228.077148,4223.333496,4461.794922,4433.205078,4331.922852,4405.769043,0.000000,4.000000,88.000000,,,,0.000000,4.000000,4.000000,4.000000,4.000000,4.000000,4.000000,4.000000,4.000000,4.000000,4.000000,4.000000,4.000000,4.000000,4.000000,100.000000,,,,,,,,,,,,,,,,,8.000000,0.000000,0.672587,-0.121582,-0.690918,-0.235535,0.977170,0.167013,0.018069,-19.330555,-33.741810,63.639206
1703490937.118220,1703490937.119159,33.000000,0.000000,4246.666504,4276.410156,4286.282227,4280.256348,4222.051270,4226.666504,4232.436035,4270.000000,4235.384766,4227.051270,4459.358887,4434.615234,4332.948730,4402.563965,0.000000,4.000000,88.000000,,,,0.000000,4.000000,4.000000,4.000000,4.000000,4.000000,4.000000,4.000000,4.000000,4.000000,4.000000,4.000000,4.000000,4.000000,4.000000,100.000000,,,,,,,,,,,,,,,,,,,,,,,,,,,,
1703490937.126028,1703490937.126967,34.000000,0.000000,4234.615234,4271.282227,4283.717773,4276.794922,4220.641113,4223.846191,4230.641113,4271.794922,4245.128418,4227.948730,4450.641113,4433.717773,4316.922852,4387.563965,0.000000,4.000000,88.000000,,,,0.000000,4.000000,4.000000,4.000000,4.000000,4.000000,4.000000,4.000000,4.000000,4.000000,4.000000,4.000000,4.000000,4.000000,4.000000,100.000000,,,,,,,,,,,,,,,,,,,,,,,,,,,,
1703490937.133836,1703490937.134675,35.000000,0.000000,4227.692383,4268.333496,4277.051270,4266.922852,4219.358887,4226.538574,4228.205078,4277.692383,4243.846191,4227.307617,4452.563965,4432.051270,4312.563965,4375.000000,0.000000,4.000000,88.000000,,,,0.000000,4.000000,4.000000,4.000000,4.000000,4.000000,4.000000,4.000000,4.000000,4.000000,4.000000,4.000000,4.000000,4.000000,4.000000,100.000000,,,,,,,,,,,,,,,,,,,,,,,,,,,,
1703490937.141644,1703490937.142583,36.000000,0.000000,4227.820313,4267.692383,4277.948730,4267.820313,4226.153809,4242.307617,4235.128418,4280.512695,4244.487305,4229.358887,4458.077148,4430.641113,4321.153809,4371.410156,0.000000,4.000000,88.000000,,,,0.000000,4.000000,4.000000,4.000000,4.000000,4.000000,4.000000,4.000000,4.000000,4.000000,4.000000,4.000000,4.000000,4.000000,4.000000,100.000000,,,,,,,,,,,,,,,,,9.000000,0.000000,0.672495,-0.121399,-0.691040,-0.235535,0.982542,0.167013,0.017580,-19.380833,-33.684296,63.491951
1703490937.149452,1703490937.150391,37.000000,0.000000,4230.769043,4264.871582,4281.538574,4272.948730,4229.743652,4257.307617,4248.589844,4279.743652,4253.333496,4229.743652,4451.153809,4430.897461,4316.666504,4360.512695,0.000000,4.000000,88.000000,,,,0.000000,4.000000,4.000000,4.000000,4.000000,4.000000,4.000000,4.000000,4.000000,4.000000,4.000000,4.000000,4.000000,4.000000,4.000000,100.000000,,,,,,,,,,,,,,,,,,,,,,,,,,,,
1703490937.157260,1703490937.158299,38.000000,0.000000,4223.461426,4261.794922,4273.333496,4266.794922,4225.384766,4257.820313,4250.512695,4280.897461,4252.307617,4226.025879,4442.563965,4428.717773,4303.717773,4349.743652,0.000000,4.000000,88.000000,,,,0.000000,4.000000,4.000000,4.000000,4.000000,4.000000,4.000000,4.000000,4.000000,4.000000,4.000000,4.000000,4.000000,4.000000,4.000000,100.000000,,,,,,,,,,,,,,,,,,,,,,,,,,,,
1703490937.165068,1703490937.166107,39.000000,0.000000,4218.974121,4266.794922,4267.307617,4264.358887,4226.025879,4257.692383,4247.948730,4280.000000,4245.384766,4225.512695,4445.641113,4426.538574,4306.025879,4352.692383,0.000000,4.000000,88.000000,,,,0.000000,4.000000,4.000000,4.000000,4.000000,4.000000,4.000000,4.000000,4.000000,4.000000,4.000000,4.000000,4.000000,4.000000,4.000000,100.000000,,,,,,,,,,,,,,,,,,,,,,,,,,,,
1703490937.172876,1703490937.174015,40.000000,0.000000,4231.282227,4276.922852,4276.922852,4276.282227,4236.538574,4265.641113,4258.717773,4277.820313,4245.000000,4228.461426,4453.205078,4434.615234,4319.487305,4363.333496,0.000000,4.000000,88.000000,,,,0.000000,4.000000,4.000000,4.000000,4.000000,4.000000,4.000000,4.000000,4.000000,4.000000,4.000000,4.000000,4.000000,4.000000,4.000000,100.000000,,,,,,,,,,,,,,,,,10.000000,0.000000,0.672519,-0.121155,-0.691101,-0.235413,0.988890,0.163106,0.009767,-19.376083,-33.682533,63.526089
1703490937.180684,1703490937.181823,41.000000,0.000000,4240.256348,4281.794922,4284.487305,4284.230957,4236.922852,4265.769043,4263.077148,4277.563965,4239.230957,4228.461426,4455.512695,4439.358887,4325.897461,4369.102539,0.000000,4.000000,88.000000,,,,0.000000,4.000000,4.000000,4.000000,4.000000,4.000000,4.000000,4.000000,4.000000,4.000000,4.000000,4.000000,4.000000,4.000000,4.000000,100.000000,,,,,,,,,,,,,,,,,,,,,,,,,,,,
1703490937.188492,1703490937.189731,42.000000,0.000000,4240.128418,4283.589844,4281.410156,4280.512695,4227.948730,4252.307617,4251.153809,4271.410156,4227.179688,4227.692383,4459.102539,4435.384766,4326.282227,4373.205078,0.000000,4.000000,88.000000,,,,0.000000,4.000000,4.000000,4.000000,4.000000,4.000000,4.000000,4.000000,4.000000,4.000000,4.000000,4.000000,4.000000,4.000000,4.000000,100.000000,,,,,,,,,,,,,,,,,,,,,,,,,,,,
1703490937.196300,1703490937.197539,43.000000,0.000000,4248.846191,4292.051270,4289.230957,4286.538574,4230.769043,4242.436035,4247.051270,4263.077148,4223.846191,4233.205078,4470.128418,4439.871582,4340.641113,4388.333496,0.000000,4.000000,88.000000,,,,0.000000,4.000000,4.000000,4.000000,4.000000,4.000000,4.000000,4.000000,4.000000,4.000000,4.000000,4.000000,4.000000,4.000000,4.000000,100.000000,,,,,,,,,,,,,,,,,,,,,,,,,,,,
1703490937.204108,1703490937.205447,44.000000,0.000000,4256.922852,4296.666504,4300.256348,4296.282227,4237.307617,4242.051270,4252.179688,4267.692383,4233.461426,4243.974121,4473.974121,4444.743652,4352.563965,4397.051270,0.000000,4.000000,88.000000,,,,0.000000,4.000000,4.000000,4.000000,4.000000,4.000000,4.000000,4.000000,4.000000,4.000000,4.000000,4.000000,4.000000,4.000000,4.000000,100.000000,,,,,,,,,,,,,,,,,11.000000,0.000000,0.672457,-0.121033,-0.691162,-0.235474,0.968380,0.173849,0.022464,-19.405142,-33.530949,63.590149
1703490937.211916,1703490937.213255,45.000000,0.000000,4249.487305,4291.922852,4289.871582,4291.666504,4236.025879,4239.743652,4250.897461,4279.487305,4246.538574,4252.179688,4470.769043,4440.128418,4343.846191,4385.000000,0.000000,4.000000,88.000000,,,,0.000000,4.000000,4.000000,4.000000,4.000000,4.000000,4.000000,4.000000,4.000000,4.000000,4.000000,4.000000,4.000000,4.000000,4.000000,100.000000,,,,,,,,,,,,,,,,,,,,,,,,,,,,
1703490937.219725,1703490937.221162,46.000000,0.000000,4240.384766,4285.256348,4276.153809,4284.230957,4237.563965,4239.230957,4247.563965,4280.769043,4258.461426,4254.743652,4469.615234,4435.256348,4336.025879,4373.461426,0.000000,4.000000,88.000000,,,,0.000000,4.000000,4.000000,4.000000,4.000000,4.000000,4.000000,4.000000,4.000000,4.000000,4.000000,4.000000,4.000000,4.000000,4.000000,100.000000,,,,,,,,,,,,,,,,,,,,,,,,,,,,
1703490937.227533,1703490937.228970,47.000000,0.000000,4240.769043,4286.538574,4280.384766,4286.922852,4241.282227,4248.717773,4252.692383,4277.820313,4264.615234,4254.487305,4467.820313,4438.461426,4339.358887,4376.282227,0.000000,4.000000,88.000000,,,,0.000000,4.000000,4.000000,4.000000,4.000000,4.000000,4.000000,4.000000,4.000000,4.000000,4.000000,4.000000,4.000000,4.000000,4.000000,100.000000,,,,,,,,,,,,,,,,,,,,,,,,,,,,
1703490937.235340,1703490937.236878,48.000000,0.000000,4246.538574,4297.692383,4289.230957,4292.436035,4245.256348,4256.666504,4258.717773,4280.384766,4264.102539,4254.615234,4465.641113,4441.538574,4341.410156,4380.384766,0.000000,4.000000,88.000000,,,,0.000000,4.000000,4.000000,4.000000,4.000000,4.000000,4.000000,4.000000,4.000000,4.000000,4.000000,4.000000,4.000000,4.000000,4.000000,100.000000,,,,,,,,,,,,,,,,,12.000000,0.000000,0.672353,-0.120911,-0.691284,-0.235474,0.977658,0.176779,0.013185,-19.447962,-33.461185,63.581131
1703490937.243149,1703490937.244686,49.000000,0.000000,4250.769043,4305.512695,4291.410156,4298.589844,4256.153809,4266.153809,4264.871582,4285.512695,4265.512695,4255.769043,4465.769043,4440.000000,4340.641113,4386.025879,0.000000,4.000000,88.000000,,,,0.000000,4.000000,4.000000,4.000000,4.000000,4.000000,4.000000,4.000000,4.000000,4.000000,4.000000,4.000000,4.000000,4.000000,4.000000,100.000000,,,,,,,,,,,,,,,,,,,,,,,,,,,,
1703490937.250957,1703490937.252394,50.000000,0.000000,4250.512695,4305.897461,4295.769043,4305.000000,4268.717773,4285.256348,4275.897461,4290.641113,4269.102539,4256.922852,4469.871582,4441.666504,4350.256348,4392.692383,0.000000,4.000000,88.000000,,,,0.000000,4.000000,4.000000,4.000000,4.000000,4.000000,4.000000,4.000000,4.000000,4.000000,4.000000,4.000000,4.000000,4.000000,4.000000,100.000000,,,,,,,,,,,,,,,,,,,,,,,,,,,,
1703490937.258765,1703490937.260202,51.000000,0.000000,4253.846191,4310.384766,4302.179688,4304.615234,4267.948730,4297.051270,4282.948730,4294.743652,4271.922852,4261.794922,4475.512695,4445.000000,4357.307617,4394.487305,0.000000,4.000000,88.000000,,,,0.000000,4.000000,4.000000,4.000000,4.000000,4.000000,4.000000,4.000000,4.000000,4.000000,4.000000,4.000000,4.000000,4.000000,4.000000,100.000000,,,,,,,,,,,,,,,,,,,,,,,,,,,,
1703490937.266573,1703490937.267910,52.000000,0.000000,4263.077148,4318.589844,4308.205078,4306.794922,4261.410156,4291.794922,4282.307617,4291.794922,4267.820313,4269.230957,4483.333496,4450.256348,4361.153809,4403.717773,0.000000,4.000000,88.000000,,,,0.000000,4.000000,4.000000,4.000000,4.000000,4.000000,4.000000,4.000000,4.000000,4.000000,4.000000,4.000000,4.000000,4.000000,4.000000,100.000000,,,,,,,,,,,,,,,,,13.000000,0.000000,0.672259,-0.120728,-0.691345,-0.235657,0.986449,0.170431,0.000000,-19.603165,-33.498402,63.723019
1703490937.274381,1703490937.275718,53.000000,0.000000,4271.538574,4317.948730,4311.922852,4314.102539,4260.769043,4281.922852,4281.282227,4283.461426,4254.743652,4264.615234,4483.717773,4453.333496,4366.666504,4413.846191,0.000000,4.000000,88.000000,,,,0.000000,4.000000,4.000000,4.000000,4.000000,4.000000,4.000000,4.000000,4.000000,4.000000,4.000000,4.000000,4.000000,4.000000,4.000000,100.000000,,,,,,,,,,,,,,,,,,,,,,,,,,,,
1703490937.282189,1703490937.283426,54.000000,0.000000,4274.358887,4315.512695,4311.538574,4316.282227,4259.615234,4272.692383,4273.589844,4277.179688,4242.563965,4251.153809,4474.358887,4447.820313,4360.641113,4408.333496,0.000000,4.000000,88.000000,,,,0.000000,4.000000,4.000000,4.000000,4.000000,4.000000,4.000000,4.000000,4.000000,4.000000,4.000000,4.000000,4.000000,4.000000,4.000000,100.000000,,,,,,,,,,,,,,,,,,,,,,,,,,,,
1703490937.289997,1703490937.291334,55.000000,0.000000,4274.230957,4318.461426,4314.743652,4314.487305,4256.666504,4263.974121,4267.436035,4277.563965,4243.333496,4247.307617,4469.871582,4443.717773,4353.717773,4401.153809,0.000000,4.000000,88.000000,,,,0.000000,4.000000,4.000000,4.000000,4.000000,4.000000,4.000000,4.000000,4.000000,4.000000,4.000000,4.000000,4.000000,4.000000,4.000000,100.000000,,,,,,,,,,,,,,,,,,,,,,,,,,,,
1703490937.297805,1703490937.299142,56.000000,0.000000,4273.077148,4322.563965,4319.487305,4315.769043,4255.897461,4257.820313,4272.051270,4280.384766,4250.512695,4255.256348,4473.205078,4448.717773,4359.358887,4410.384766,0.000000,4.000000,88.000000,,,,0.000000,4.000000,4.000000,4.000000,4.000000,4.000000,4.000000,4.000000,4.000000,4.000000,4.000000,4.000000,4.000000,4.000000,4.000000,100.000000,,,,,,,,,,,,,,,,,14.000000,0.000000,0.672258,-0.120605,-0.691284,-0.235901,0.986449,0.169943,0.019534,-19.559515,-33.365227,63.767384
1703490937.305613,1703490937.307050,57.000000,0.000000,4274.230957,4327.563965,4315.897461,4317.563965,4258.205078,4254.615234,4271.666504,4280.769043,4255.128418,4265.256348,4479.358887,4452.436035,4366.666504,4418.846191,0.000000,4.000000,88.000000,,,,0.000000,4.000000,4.000000,4.000000,4.000000,4.000000,4.000000,4.000000,4.000000,4.000000,4.000000,4.000000,4.000000,4.000000,4.000000,100.000000,,,,,,,,,,,,,,,,,,,,,,,,,,,,
1703490937.313421,1703490937.314858,58.000000,0.000000,4276.922852,4327.563965,4311.025879,4316.153809,4258.461426,4255.769043,4268.205078,4284.358887,4266.025879,4269.230957,4479.871582,4449.615234,4364.743652,4412.436035,0.000000,4.000000,88.000000,,,,0.000000,4.000000,4.000000,4.000000,4.000000,4.000000,4.000000,4.000000,4.000000,4.000000,4.000000,4.000000,4.000000,4.000000,4.000000,100.000000,,,,,,,,,,,,,,,,,,,,,,,,,,,,
1703490937.321229,1703490937.322766,59.000000,0.000000,4272.179688,4322.051270,4312.051270,4315.769043,4257.948730,4259.230957,4274.102539,4293.205078,4273.589844,4267.051270,4474.102539,4448.846191,4358.205078,4406.922852,0.000000,4.000000,88.000000,,,,0.000000,4.000000,4.000000,4.000000,4.000000,4.000000,4.000000,4.000000,4.000000,4.000000,4.000000,4.000000,4.000000,4.000000,4.000000,100.000000,,,,,,,,,,,,,,,,,,,,,,,,,,,,
1703490937.329037,1703490937.330574,60.000000,0.000000,4269.487305,4319.743652,4313.461426,4316.282227,4265.000000,4265.128418,4278.846191,4295.128418,4270.256348,4267.563965,4473.589844,4453.846191,4360.641113,4417.820313,0.000000,4.000000,88.000000,,,,0.000000,4.000000,4.000000,4.000000,4.000000,4.000000,4.000000,4.000000,4.000000,4.000000,4.000000,4.000000,4.000000,4.000000,4.000000,100.000000,,,,,,,,,,,,,,,,,15.000000,0.000000,0.672236,-0.120728,-0.691284,-0.235901,0.980100,0.165548,0.028812,-19.570230,-33.412037,63.723980
1703490937.336845,1703490937.338382,61.000000,0.000000,4275.128418,4321.153809,4310.128418,4315.641113,4267.563965,4275.641113,4277.436035,4288.717773,4266.538574,4268.461426,4472.948730,4453.846191,4363.717773,4426.794922,0.000000,4.000000,88.000000,,,,0.000000,4.000000,4.000000,4.000000,4.000000,4.000000,4.000000,4.000000,4.000000,4.000000,4.000000,4.000000,4.000000,4.000000,4.000000,100.000000,,,,,,,,,,,,,,,,,,,,,,,,,,,,
1703490937.344653,1703490937.346090,62.000000,0.000000,4268.717773,4317.436035,4304.871582,4311.922852,4261.666504,4282.051270,4280.384766,4286.538574,4266.282227,4257.820313,4465.128418,4442.820313,4351.794922,4414.230957,0.000000,4.000000,88.000000,,,,0.000000,4.000000,4.000000,4.000000,4.000000,4.000000,4.000000,4.000000,4.000000,4.000000,4.000000,4.000000,4.000000,4.000000,4.000000,100.000000,,,,,,,,,,,,,,,,,,,,,,,,,,,,
1703490937.352461,1703490937.353998,63.000000,0.000000,4252.307617,4309.615234,4302.307617,4308.461426,4259.358887,4284.743652,4286.922852,4288.205078,4260.769043,4243.974121,4456.025879,4440.384766,4337.436035,4398.974121,0.000000,4.000000,88.000000,,,,0.000000,4.000000,4.000000,4.000000,4.000000,4.000000,4.000000,4.000000,4.000000,4.000000,4.000000,4.000000,4.000000,4.000000,4.000000,100.000000,,,,,,,,,,,,,,,,,,,,,,,,,,,,
1703490937.360269,1703490937.361806,64.000000,0.000000,4255.384766,4309.743652,4302.436035,4308.077148,4263.205078,4285.128418,4288.333496,4283.846191,4250.641113,4240.256348,4456.410156,4446.922852,4339.230957,4396.666504,5065.000000,4.000000,88.000000,,,,0.000000,4.000000,4.000000,4.000000,4.000000,4.000000,4.000000,4.000000,4.000000,4.000000,4.000000,4.000000,4.000000,4.000000,4.000000,100.000000,,,,,,,,,,,,,,,,,16.000000,0.000000,0.672300,-0.120850,-0.691284,-0.235657,0.980100,0.174338,0.011720,-19.463207,-33.604168,63.784916
1703490937.368077,1703490937.369714,65.000000,0.000000,4269.230957,4314.743652,4303.589844,4308.461426,4259.615234,4276.538574,4283.333496,4278.077148,4243.461426,4240.384766,4460.641113,4446.794922,4345.384766,4401.025879,5709.000000,4.000000,88.000000,,,,0.000000,4.000000,4.000000,4.000000,4.000000,4.000000,4.000000,4.000000,4.000000,4.000000,4.000000,4.000000,4.000000,4.000000,4.000000,100.000000,,,,,,,,,,,,,,,,,,,,,,,,,,,,
1703490937.375886,1703490937.377522,66.000000,0.000000,4270.256348,4315.769043,4305.128418,4306.666504,4254.358887,4265.256348,4275.897461,4278.846191,4242.051270,4240.256348,4462.436035,4445.384766,4349.743652,4407.692383,5389.000000,4.000000,88.000000,,,,0.000000,4.000000,4.000000,4.000000,4.000000,4.000000,4.000000,4.000000,4.000000,4.000000,4.000000,4.000000,4.000000,4.000000,4.000000,100.000000,,,,,,,,,,,,,,,,,,,,,,,,,,,,
1703490937.383694,1703490937.385429,67.000000,0.000000,4268.717773,4312.179688,4306.538574,4303.333496,4256.282227,4259.743652,4272.692383,4280.641113,4246.538574,4250.384766,4466.410156,4446.666504,4359.358887,4412.051270,5534.000000,4.000000,88.000000,,,,0.000000,4.000000,4.000000,4.000000,4.000000,4.000000,4.000000,4.000000,4.000000,4.000000,4.000000,4.000000,4.000000,4.000000,4.000000,100.000000,,,,,,,,,,,,,,,,,,,,,,,,,,,,
1703490937.391502,1703490937.393237,68.000000,0.000000,4271.538574,4311.538574,4304.102539,4305.641113,4252.820313,4251.410156,4266.410156,4279.487305,4250.512695,4262.179688,4469.615234,4445.512695,4360.256348,4412.307617,5307.000000,4.000000,88.000000,,,,0.000000,4.000000,4.000000,4.000000,4.000000,4.000000,4.000000,4.000000,4.000000,4.000000,4.000000,4.000000,4.000000,4.000000,4.000000,100.000000,,,,,,,,,,,,,,,,,17.000000,0.000000,0.672311,-0.120911,-0.691284,-0.235596,0.969845,0.164083,0.024417,-19.450220,-33.560417,63.923088
1703490937.399310,1703490937.401145,69.000000,0.000000,4267.563965,4310.769043,4296.666504,4307.436035,4249.487305,4241.025879,4260.512695,4281.153809,4254.102539,4261.538574,4469.358887,4443.846191,4355.256348,4407.692383,5192.000000,4.000000,88.000000,,,,0.000000,4.000000,4.000000,4.000000,4.000000,4.000000,4.000000,4.000000,4.000000,4.000000,4.000000,4.000000,4.000000,4.000000,4.000000,100.000000,,,,,,,,,,,,,,,,,,,,,,,,,,,,
1703490937.407118,1703490937.408953,70.000000,0.000000,4256.538574,4307.307617,4293.333496,4303.589844,4251.282227,4238.974121,4261.794922,4285.769043,4259.230957,4255.256348,4466.282227,4442.179688,4353.205078,4399.743652,3204.000000,4.000000,88.000000,,,,0.000000,4.000000,4.000000,4.000000,4.000000,4.000000,4.000000,4.000000,4.000000,4.000000,4.000000,4.000000,4.000000,4.000000,4.000000,100.000000,,,,,,,,,,,,,,,,,,,,,,,,,,,,
1703490937.414926,1703490937.416661,71.000000,0.000000,4252.820313,4308.974121,4294.230957,4300.897461,4252.563965,4241.025879,4262.436035,4284.358887,4257.948730,4249.102539,4456.153809,4438.333496,4340.256348,4393.589844,2798.000000,4.000000,88.000000,,,,0.000000,4.000000,4.000000,4.000000,4.000000,4.000000,4.000000,4.000000,4.000000,4.000000,4.000000,4.000000,4.000000,4.000000,4.000000,100.000000,1.000000,83.333336,4.000000,4.000000,4.000000,4.000000,4.000000,3.000000,3.000000,4.000000,4.000000,4.000000,4.000000,4.000000,4.000000,4.000000,,,,,,,,,,,,
1703490937.422734,1703490937.424469,72.000000,0.000000,4249.230957,4306.922852,4289.871582,4299.230957,4257.051270,4246.025879,4261.410156,4280.769043,4255.641113,4242.051270,4445.897461,4437.179688,4326.666504,4388.974121,4291.000000,4.000000,88.000000,,,,0.000000,4.000000,4.000000,4.000000,4.000000,4.000000,4.000000,4.000000,4.000000,4.000000,4.000000,4.000000,4.000000,4.000000,4.000000,100.000000,,,,,,,,,,,,,,,,,18.000000,0.000000,0.672363,-0.120850,-0.691223,-0.235657,0.978147,0.173361,0.020022,-19.338531,-33.587708,63.980782
1703490937.430542,1703490937.432177,73.000000,0.000000,4235.000000,4297.692383,4278.205078,4293.846191,4259.358887,4252.948730,4263.589844,4283.333496,4259.230957,4241.282227,4443.974121,4437.692383,4328.333496,4382.820313,5462.000000,4.000000,88.000000,,,,0.000000,4.000000,4.000000,4.000000,4.000000,4.000000,4.000000,4.000000,4.000000,4.000000,4.000000,4.000000,4.000000,4.000000,4.000000,100.000000,,,,,,,,,,,,,,,,,,,,,,,,,,,,
1703490937.438350,1703490937.439985,74.000000,0.000000,4230.384766,4294.615234,4274.615234,4290.641113,4258.077148,4260.128418,4270.512695,4285.128418,4260.512695,4242.820313,4444.358887,4437.948730,4332.563965,4386.922852,6000.000000,4.000000,88.000000,,,,0.000000,4.000000,4.000000,4.000000,4.000000,4.000000,4.000000,4.000000,4.000000,4.000000,4.000000,4.000000,4.000000,4.000000,4.000000,100.000000,,,,,,,,,,,,,,,,,,,,,,,,,,,,
1703490937.446158,1703490937.447693,75.000000,0.000000,4245.000000,4302.179688,4284.487305,4298.974121,4263.846191,4270.384766,4278.333496,4281.794922,4253.974121,4240.000000,4446.153809,4441.025879,4332.179688,4399.743652,5671.000000,4.000000,88.000000,,,,0.000000,4.000000,4.000000,4.000000,4.000000,4.000000,4.000000,4.000000,4.000000,4.000000,4.000000,4.000000,4.000000,4.000000,4.000000,100.000000,,,,,,,,,,,,,,,,,,,,,,,,,,,,
1703490937.453966,1703490937.455501,76.000000,0.000000,4258.333496,4311.794922,4300.128418,4311.538574,4268.974121,4273.589844,4280.256348,4280.897461,4248.461426,4242.948730,4454.487305,4445.641113,4344.743652,4409.615234,5938.000000,4.000000,88.000000,,,,0.000000,4.000000,4.000000,4.000000,4.000000,4.000000,4.000000,4.000000,4.000000,4.000000,4.000000,4.000000,4.000000,4.000000,4.000000,100.000000,,,,,,,,,,,,,,,,,19.000000,0.000000,0.672426,-0.120850,-0.691162,-0.235657,0.975705,0.174338,0.016604,-19.438011,-33.595604,63.966038
1703490937.461774,1703490937.463209,77.000000,0.000000,4258.333496,4311.922852,4307.179688,4312.051270,4258.077148,4262.307617,4272.692383,4279.102539,4242.307617,4248.333496,4458.717773,4446.794922,4358.974121,4414.358887,2940.000000,4.000000,88.000000,,,,0.000000,4.000000,4.000000,4.000000,4.000000,4.000000,4.000000,4.000000,4.000000,4.000000,4.000000,4.000000,4.000000,4.000000,4.000000,100.000000,,,,,,,,,,,,,,,,,,,,,,,,,,,,
1703490937.469582,1703490937.471017,78.000000,0.000000,4255.641113,4305.512695,4300.256348,4303.974121,4252.179688,4250.384766,4265.128418,4276.922852,4238.077148,4248.461426,4457.820313,4445.128418,4354.102539,4409.102539,6000.000000,4.000000,88.000000,,,,0.000000,4.000000,4.000000,4.000000,4.000000,4.000000,4.000000,4.000000,4.000000,4.000000,4.000000,4.000000,4.000000,4.000000,4.000000,100.000000,,,,,,,,,,,,,,,,,,,,,,,,,,,,
1703490937.477390,1703490937.478725,79.000000,0.000000,4257.307617,4304.743652,4295.128418,4302.307617,4256.922852,4242.307617,4261.666504,4279.102539,4239.487305,4245.897461,4458.589844,4444.743652,4346.025879,4400.000000,5671.000000,4.000000,88.000000,,,,0.000000,4.000000,4.000000,4.000000,4.000000,4.000000,4.000000,4.000000,4.000000,4.000000,4.000000,4.000000,4.000000,4.000000,4.000000,100.000000,,,,,,,,,,,,,,,,,,,,,,,,,,,,
1703490937.485198,1703490937.486533,80.000000,0.000000,4256.025879,4310.641113,4297.179688,4308.333496,4250.769043,4230.256348,4255.256348,4278.333496,4240.769043,4241.410156,4452.563965,4442.820313,4342.820313,4402.436035,5938.000000,4.000000,88.000000,,,,0.000000,4.000000,4.000000,4.000000,4.000000,4.000000,4.000000,4.000000,4.000000,4.000000,4.000000,4.000000,4.000000,4.000000,4.000000,100.000000,,,,,,,,,,,,,,,,,20.000000,0.000000,0.672498,-0.121033,-0.691101,-0.235535,0.980588,0.178733,0.026859,-19.327543,-33.452709,63.986099
1703490937.493006,1703490937.494242,81.000000,0.000000,4249.615234,4308.333496,4297.820313,4310.897461,4244.102539,4221.282227,4247.692383,4275.769043,4243.205078,4235.128418,4442.692383,4441.794922,4336.794922,4406.666504,2940.000000,4.000000,88.000000,,,,0.000000,4.000000,4.000000,4.000000,4.000000,4.000000,4.000000,4.000000,4.000000,4.000000,4.000000,4.000000,4.000000,4.000000,4.000000,100.000000,,,,,,,,,,,,,,,,,,,,,,,,,,,,
1703490937.500814,1703490937.502049,82.000000,0.000000,4248.077148,4304.871582,4295.641113,4308.205078,4248.717773,4225.000000,4248.077148,4280.769043,4251.922852,4233.205078,4442.051270,4442.563965,4333.974121,4401.153809,6000.000000,4.000000,88.000000,,,,0.000000,4.000000,4.000000,4.000000,4.000000,4.000000,4.000000,4.000000,4.000000,4.000000,4.000000,4.000000,4.000000,4.000000,4.000000,100.000000,,,,,,,,,,,,,,,,,,,,,,,,,,,,
1703490937.508623,1703490937.509758,83.000000,0.000000,4248.846191,4310.897461,4291.025879,4302.820313,4251.282227,4235.512695,4257.179688,4285.256348,4256.538574,4235.641113,4442.307617,4437.563965,4332.948730,4393.205078,5671.000000,4.000000,88.000000,,,,0.000000,4.000000,4.000000,4.000000,4.000000,4.000000,4.000000,4.000000,4.000000,4.000000,4.000000,4.000000,4.000000,4.000000,4.000000,100.000000,,,,,,,,,,,,,,,,,,,,,,,,,,,,
1703490937.516431,1703490937.517566,84.000000,0.000000,4243.077148,4310.128418,4282.820313,4299.358887,4249.871582,4245.128418,4263.589844,4282.436035,4252.820313,4233.717773,4432.692383,4432.307617,4326.153809,4394.230957,5938.000000,4.000000,88.000000,,,,0.000000,4.000000,4.000000,4.000000,4.000000,4.000000,4.000000,4.000000,4.000000,4.000000,4.000000,4.000000,4.000000,4.000000,4.000000,100.000000,,,,,,,,,,,,,,,,,21.000000,0.000000,0.672571,-0.121094,-0.691040,-0.235474,0.976193,0.170919,0.014650,-19.194790,-33.224106,64.020821
1703490937.524238,1703490937.525274,85.000000,0.000000,4238.974121,4303.461426,4281.794922,4301.282227,4252.820313,4253.846191,4265.384766,4280.128418,4252.563965,4231.922852,4428.846191,4436.794922,4325.897461,4398.077148,2940.000000,4.000000,88.000000,,,,0.000000,4.000000,4.000000,4.000000,4.000000,4.000000,4.000000,4.000000,4.000000,4.000000,4.000000,4.000000,4.000000,4.000000,4.000000,100.000000,,,,,,,,,,,,,,,,,,,,,,,,,,,,
1703490937.532047,1703490937.533181,86.000000,0.000000,4239.230957,4303.589844,4283.589844,4298.846191,4254.871582,4258.077148,4264.102539,4280.769043,4250.256348,4229.615234,4434.358887,4438.461426,4329.871582,4391.538574,6000.000000,4.000000,88.000000,,,,0.000000,4.000000,4.000000,4.000000,4.000000,4.000000,4.000000,4.000000,4.000000,4.000000,4.000000,4.000000,4.000000,4.000000,4.000000,100.000000,,,,,,,,,,,,,,,,,,,,,,,,,,,,
1703490937.539855,1703490937.540989,87.000000,0.000000,4245.384766,4310.512695,4281.410156,4298.461426,4258.461426,4257.948730,4263.077148,4278.077148,4242.820313,4227.179688,4435.897461,4435.128418,4330.769043,4389.358887,5671.000000,4.000000,88.000000,,,,0.000000,4.000000,4.000000,4.000000,4.000000,4.000000,4.000000,4.000000,4.000000,4.000000,4.000000,4.000000,4.000000,4.000000,4.000000,100.000000,,,,,,,,,,,,,,,,,,,,,,,,,,,,
1703490937.547663,1703490937.548897,88.000000,0.000000,4256.922852,4319.615234,4287.307617,4305.000000,4264.871582,4257.179688,4265.256348,4275.512695,4242.051270,4231.922852,4440.641113,4438.077148,4337.436035,4404.358887,5938.000000,4.000000,88.000000,,,,0.000000,4.000000,4.000000,4.000000,4.000000,4.000000,4.000000,4.000000,4.000000,4.000000,4.000000,4.000000,4.000000,4.000000,4.000000,100.000000,,,,,,,,,,,,,,,,,22.000000,0.000000,0.672530,-0.121094,-0.691101,-0.235413,0.973263,0.168478,0.010255,-19.175310,-33.268364,63.968739
1703490937.555471,1703490937.556705,89.000000,0.000000,4262.179688,4321.794922,4295.641113,4302.307617,4262.051270,4249.102539,4259.871582,4276.282227,4243.205078,4235.128418,4453.589844,4441.538574,4345.512695,4404.615234,2940.000000,4.000000,88.000000,,,,0.000000,4.000000,4.000000,4.000000,4.000000,4.000000,4.000000,4.000000,4.000000,4.000000,4.000000,4.000000,4.000000,4.000000,4.000000,100.000000,,,,,,,,,,,,,,,,,,,,,,,,,,,,
1703490937.563279,1703490937.564613,90.000000,0.000000,4265.384766,4322.436035,4297.948730,4303.205078,4261.922852,4241.922852,4252.563965,4280.384766,4246.666504,4236.538574,4463.717773,4442.179688,4348.846191,4398.589844,6000.000000,4.000000,88.000000,,,,0.000000,4.000000,4.000000,4.000000,4.000000,4.000000,4.000000,4.000000,4.000000,4.000000,4.000000,4.000000,4.000000,4.000000,4.000000,100.000000,,,,,,,,,,,,,,,,,,,,,,,,,,,,
1703490937.571087,1703490937.572421,91.000000,0.000000,4266.282227,4328.717773,4298.717773,4310.897461,4267.051270,4243.077148,4255.128418,4280.000000,4253.077148,4237.948730,4458.589844,4442.051270,4343.077148,4406.025879,5671.000000,4.000000,88.000000,,,,0.000000,4.000000,4.000000,4.000000,4.000000,4.000000,4.000000,4.000000,4.000000,4.000000,4.000000,4.000000,4.000000,4.000000,4.000000,100.000000,,,,,,,,,,,,,,,,,,,,,,,,,,,,
1703490937.578895,1703490937.580329,92.000000,0.000000,4261.153809,4329.102539,4301.666504,4311.666504,4265.641113,4239.487305,4261.794922,4277.563965,4255.512695,4235.256348,4451.666504,4441.410156,4335.641113,4407.436035,5938.000000,4.000000,88.000000,,,,0.000000,4.000000,4.000000,4.000000,4.000000,4.000000,4.000000,4.000000,4.000000,4.000000,4.000000,4.000000,4.000000,4.000000,4.000000,100.000000,,,,,,,,,,,,,,,,,23.000000,0.000000,0.672604,-0.121155,-0.691101,-0.235168,0.978635,0.162129,0.019534,-19.441113,-33.208195,63.988533
1703490937.586703,1703490937.588137,93.000000,0.000000,4262.436035,4323.974121,4307.179688,4313.333496,4265.512695,4237.948730,4262.179688,4284.615234,4257.692383,4236.538574,4456.794922,4440.897461,4341.410156,4404.743652,2940.000000,4.000000,88.000000,,,,0.000000,4.000000,4.000000,4.000000,4.000000,4.000000,4.000000,4.000000,4.000000,4.000000,4.000000,4.000000,4.000000,4.000000,4.000000,100.000000,,,,,,,,,,,,,,,,,,,,,,,,,,,,
1703490937.594511,1703490937.595845,94.000000,0.000000,4265.384766,4320.641113,4310.128418,4317.820313,4272.436035,4249.358887,4264.230957,4293.461426,4262.307617,4245.384766,4462.051270,4441.922852,4346.538574,4411.538574,6000.000000,4.000000,88.000000,,,,0.000000,4.000000,4.000000,4.000000,4.000000,4.000000,4.000000,4.000000,4.000000,4.000000,4.000000,4.000000,4.000000,4.000000,4.000000,100.000000,,,,,,,,,,,,,,,,,,,,,,,,,,,,
1703490937.602319,1703490937.603653,95.000000,0.000000,4253.077148,4316.282227,4301.794922,4308.846191,4275.128418,4260.000000,4271.922852,4293.846191,4264.230957,4244.487305,4454.358887,4442.563965,4337.563965,4406.153809,5671.000000,4.000000,88.000000,,,,0.000000,4.000000,4.000000,4.000000,4.000000,4.000000,4.000000,4.000000,4.000000,4.000000,4.000000,4.000000,4.000000,4.000000,4.000000,100.000000,,,,,,,,,,,,,,,,,,,,,,,,,,,,
1703490937.610127,1703490937.611561,96.000000,0.000000,4248.333496,4315.384766,4293.846191,4300.384766,4275.641113,4265.641113,4278.333496,4290.769043,4264.615234,4241.922852,4450.384766,4440.641113,4338.333496,4396.666504,5938.000000,4.000000,88.000000,,,,0.000000,4.000000,4.000000,4.000000,4.000000,4.000000,4.000000,4.000000,4.000000,4.000000,4.000000,4.000000,4.000000,4.000000,4.000000,100.000000,,,,,,,,,,,,,,,,,24.000000,0.000000,0.672679,-0.121216,-0.691101,-0.234924,0.983030,0.155781,0.018069,-19.430334,-33.337372,63.889679
1703490937.617935,1703490937.619369,97.000000,0.000000,4266.153809,4321.666504,4301.794922,4311.410156,4282.563965,4272.820313,4280.769043,4293.717773,4269.871582,4253.077148,4462.307617,4443.205078,4352.563965,4408.205078,2940.000000,4.000000,88.000000,,,,0.000000,4.000000,4.000000,4.000000,4.000000,4.000000,4.000000,4.000000,4.000000,4.000000,4.000000,4.000000,4.000000,4.000000,4.000000,100.000000,,,,,,,,,,,,,,,,,,,,,,,,,,,,
1703490937.625743,1703490937.627077,98.000000,0.000000,4270.641113,4323.589844,4308.717773,4318.589844,4285.128418,4276.025879,4283.205078,4293.974121,4270.000000,4259.615234,4470.769043,4447.307617,4359.743652,4413.461426,6000.000000,4.000000,88.000000,,,,0.000000,4.000000,4.000000,4.000000,4.000000,4.000000,4.000000,4.000000,4.000000,4.000000,4.000000,4.000000,4.000000,4.000000,4.000000,100.000000,,,,,,,,,,,,,,,,,,,,,,,,,,,,
1703490937.633551,1703490937.634885,99.000000,0.000000,4263.333496,4321.153809,4311.025879,4315.128418,4280.384766,4272.563965,4286.922852,4284.871582,4260.897461,4255.897461,4469.102539,4449.358887,4360.897461,4407.563965,5671.000000,4.000000,88.000000,,,,0.000000,4.000000,4.000000,4.000000,4.000000,4.000000,4.000000,4.000000,4.000000,4.000000,4.000000,4.000000,4.000000,4.000000,4.000000,100.000000,,,,,,,,,,,,,,,,,,,,,,,,,,,,
1703490937.641359,1703490937.642593,100.000000,0.000000,4277.307617,4330.000000,4321.153809,4320.641113,4278.333496,4266.538574,4287.307617,4286.153809,4259.615234,4261.282227,4476.025879,4454.230957,4370.384766,4427.948730,5938.000000,4.000000,88.000000,,,,0.000000,4.000000,4.000000,4.000000,4.000000,4.000000,4.000000,4.000000,4.000000,4.000000,4.000000,4.000000,4.000000,4.000000,4.000000,100.000000,,,,,,,,,,,,,,,,,25.000000,0.000000,0.672772,-0.121399,-0.691040,-0.234741,0.992309,0.174826,0.020999,-19.520634,-33.236969,63.717377
1703490937.649167,1703490937.650401,101.000000,0.000000,4290.256348,4337.436035,4329.871582,4326.922852,4278.974121,4256.794922,4282.692383,4294.743652,4267.820313,4270.384766,4492.307617,4457.948730,4385.256348,4454.615234,2940.000000,4.000000,88.000000,,,,0.000000,4.000000,4.000000,4.000000,4.000000,4.000000,4.000000,4.000000,4.000000,4.000000,4.000000,4.000000,4.000000,4.000000,4.000000,100.000000,,,,,,,,,,,,,,,,,,,,,,,,,,,,
1703490937.656975,1703490937.658109,102.000000,0.000000,4278.205078,4332.051270,4323.589844,4321.922852,4276.153809,4246.538574,4278.205078,4290.256348,4263.205078,4260.769043,4490.512695,4453.974121,4379.102539,4439.871582,6000.000000,4.000000,88.000000,,,,0.000000,4.000000,4.000000,4.000000,4.000000,4.000000,4.000000,4.000000,4.000000,4.000000,4.000000,4.000000,4.000000,4.000000,4.000000,100.000000,,,,,,,,,,,,,,,,,,,,,,,,,,,,
1703490937.664784,1703490937.666017,103.000000,0.000000,4274.487305,4332.948730,4320.769043,4324.487305,4277.307617,4246.153809,4275.512695,4283.461426,4252.948730,4250.256348,4479.230957,4452.051270,4365.512695,4420.256348,5671.000000,4.000000,88.000000,,,,0.000000,4.000000,4.000000,4.000000,4.000000,4.000000,4.000000,4.000000,4.000000,4.000000,4.000000,4.000000,4.000000,4.000000,4.000000,100.000000,,,,,,,,,,,,,,,,,,,,,,,,,,,,
1703490937.672592,1703490937.673825,104.000000,0.000000,4281.538574,4337.692383,4325.256348,4333.717773,4286.666504,4252.948730,4274.358887,4288.333496,4260.128418,4256.153809,4480.897461,4453.461426,4372.051270,4435.256348,5938.000000,4.000000,88.000000,,,,0.000000,4.000000,4.000000,4.000000,4.000000,4.000000,4.000000,4.000000,4.000000,4.000000,4.000000,4.000000,4.000000,4.000000,4.000000,100.000000,,,,,,,,,,,,,,,,,26.000000,0.000000,0.672824,-0.121460,-0.690979,-0.234741,0.978635,0.168478,0.010743,-19.418571,-33.229939,63.728973
1703490937.680400,1703490937.681633,105.000000,0.000000,4272.307617,4326.666504,4316.153809,4323.717773,4289.230957,4258.333496,4276.153809,4291.025879,4268.077148,4256.025879,4477.436035,4448.333496,4373.205078,4436.794922,2940.000000,4.000000,88.000000,,,,0.000000,4.000000,4.000000,4.000000,4.000000,4.000000,4.000000,4.000000,4.000000,4.000000,4.000000,4.000000,4.000000,4.000000,4.000000,100.000000,,,,,,,,,,,,,,,,,,,,,,,,,,,,
1703490937.688208,1703490937.689341,106.000000,0.000000,4269.358887,4319.615234,4304.871582,4317.692383,4291.282227,4271.282227,4287.051270,4290.384766,4271.282227,4252.051270,4467.563965,4443.461426,4361.538574,4415.769043,6000.000000,4.000000,88.000000,,,,0.000000,4.000000,4.000000,4.000000,4.000000,4.000000,4.000000,4.000000,4.000000,4.000000,4.000000,4.000000,4.000000,4.000000,4.000000,100.000000,,,,,,,,,,,,,,,,,,,,,,,,,,,,
1703490937.696016,1703490937.697149,107.000000,0.000000,4272.948730,4324.102539,4308.846191,4325.512695,4300.897461,4288.974121,4302.820313,4295.512695,4282.051270,4259.102539,4468.205078,4447.051270,4359.358887,4404.871582,5671.000000,4.000000,88.000000,,,,0.000000,4.000000,4.000000,4.000000,4.000000,4.000000,4.000000,4.000000,4.000000,4.000000,4.000000,4.000000,4.000000,4.000000,4.000000,100.000000,,,,,,,,,,,,,,,,,,,,,,,,,,,,
1703490937.703824,1703490937.704857,108.000000,0.000000,4262.179688,4321.922852,4312.436035,4321.282227,4303.205078,4293.205078,4311.538574,4297.563965,4288.717773,4268.846191,4476.794922,4451.153809,4366.538574,4408.333496,5938.000000,4.000000,88.000000,,,,0.000000,4.000000,4.000000,4.000000,4.000000,4.000000,4.000000,4.000000,4.000000,4.000000,4.000000,4.000000,4.000000,4.000000,4.000000,100.000000,,,,,,,,,,,,,,,,,27.000000,0.000000,0.672824,-0.121460,-0.690979,-0.234741,0.982053,0.155781,0.015139,-19.226713,-33.290279,63.722744
1703490937.711632,1703490937.712765,109.000000,0.000000,4268.974121,4324.487305,4312.563965,4319.743652,4298.205078,4291.282227,4311.794922,4298.846191,4288.589844,4273.077148,4481.794922,4451.282227,4369.358887,4420.384766,2940.000000,4.000000,88.000000,,,,0.000000,4.000000,4.000000,4.000000,4.000000,4.000000,4.000000,4.000000,4.000000,4.000000,4.000000,4.000000,4.000000,4.000000,4.000000,100.000000,,,,,,,,,,,,,,,,,,,,,,,,,,,,
1703490937.719440,1703490937.720573,110.000000,0.000000,4289.743652,4333.846191,4318.589844,4331.282227,4298.205078,4294.230957,4311.410156,4300.128418,4289.358887,4276.282227,4486.666504,4452.948730,4374.743652,4433.461426,6000.000000,4.000000,88.000000,,,,0.000000,4.000000,4.000000,4.000000,4.000000,4.000000,4.000000,4.000000,4.000000,4.000000,4.000000,4.000000,4.000000,4.000000,4.000000,100.000000,,,,,,,,,,,,,,,,,,,,,,,,,,,,
1703490937.727248,1703490937.728481,111.000000,0.000000,4290.769043,4333.333496,4327.948730,4335.897461,4298.589844,4289.102539,4312.948730,4297.692383,4286.794922,4282.692383,4495.897461,4457.307617,4389.871582,4445.512695,5671.000000,4.000000,88.000000,,,,0.000000,4.000000,4.000000,4.000000,4.000000,4.000000,4.000000,4.000000,4.000000,4.000000,4.000000,4.000000,4.000000,4.000000,4.000000,100.000000,,,,,,,,,,,,,,,,,,,,,,,,,,,,
1703490937.735056,1703490937.736289,112.000000,0.000000,4292.692383,4333.974121,4335.128418,4334.615234,4294.358887,4272.307617,4311.153809,4296.794922,4279.487305,4284.743652,4505.897461,4460.769043,4404.487305,4457.051270,5938.000000,4.000000,88.000000,,,,0.000000,4.000000,4.000000,4.000000,4.000000,4.000000,4.000000,4.000000,4.000000,4.000000,4.000000,4.000000,4.000000,4.000000,4.000000,100.000000,,,,,,,,,,,,,,,,,28.000000,0.000000,0.672856,-0.121399,-0.690979,-0.234680,0.975217,0.156269,0.021975,-19.220709,-33.427917,63.633801
1703490937.742864,1703490937.744196,113.000000,0.000000,4306.025879,4339.615234,4339.487305,4338.333496,4288.589844,4255.128418,4301.153809,4295.384766,4273.205078,4273.717773,4504.871582,4460.512695,4401.538574,4458.077148,2940.000000,4.000000,88.000000,,,,0.000000,4.000000,4.000000,4.000000,4.000000,4.000000,4.000000,4.000000,4.000000,4.000000,4.000000,4.000000,4.000000,4.000000,4.000000,100.000000,,,,,,,,,,,,,,,,,,,,,,,,,,,,
1703490937.750672,1703490937.752004,114.000000,0.000000,4307.436035,4337.179688,4340.128418,4337.820313,4285.384766,4244.230957,4291.025879,4291.794922,4264.102539,4259.743652,4492.820313,4456.410156,4388.077148,4446.538574,6000.000000,4.000000,88.000000,,,,0.000000,4.000000,4.000000,4.000000,4.000000,4.000000,4.000000,4.000000,4.000000,4.000000,4.000000,4.000000,4.000000,4.000000,4.000000,100.000000,,,,,,,,,,,,,,,,,,,,,,,,,,,,
1703490937.758480,1703490937.759912,115.000000,0.000000,4300.769043,4335.512695,4341.922852,4337.307617,4288.846191,4244.743652,4292.692383,4289.102539,4257.948730,4257.692383,4483.205078,4455.384766,4380.769043,4443.461426,5671.000000,4.000000,88.000000,,,,0.000000,4.000000,4.000000,4.000000,4.000000,4.000000,4.000000,4.000000,4.000000,4.000000,4.000000,4.000000,4.000000,4.000000,4.000000,100.000000,,,,,,,,,,,,,,,,,,,,,,,,,,,,
1703490937.766288,1703490937.767720,116.000000,0.000000,4300.384766,4342.563965,4345.384766,4344.871582,4297.948730,4256.282227,4301.025879,4289.871582,4264.102539,4259.487305,4479.743652,4455.769043,4376.153809,4437.307617,5938.000000,4.000000,88.000000,,,,0.000000,4.000000,4.000000,4.000000,4.000000,4.000000,4.000000,4.000000,4.000000,4.000000,4.000000,4.000000,4.000000,4.000000,4.000000,100.000000,,,,,,,,,,,,,,,,,29.000000,0.000000,0.672949,-0.121460,-0.690857,-0.234741,0.975217,0.167989,0.018069,-19.165304,-33.351791,63.687088
1703490937.774096,1703490937.775628,117.000000,0.000000,4300.384766,4341.794922,4339.743652,4345.641113,4307.692383,4270.384766,4308.974121,4292.820313,4272.051270,4258.461426,4482.820313,4452.820313,4376.153809,4420.256348,2940.000000,4.000000,88.000000,,,,0.000000,4.000000,4.000000,4.000000,4.000000,4.000000,4.000000,4.000000,4.000000,4.000000,4.000000,4.000000,4.000000,4.000000,4.000000,100.000000,,,,,,,,,,,,,,,,,,,,,,,,,,,,
1703490937.781904,1703490937.783436,118.000000,0.000000,4292.436035,4334.487305,4327.692383,4338.589844,4315.000000,4282.820313,4317.051270,4294.358887,4270.384766,4256.410156,4475.128418,4450.897461,4371.538574,4421.794922,6000.000000,4.000000,88.000000,,,,0.000000,4.000000,4.000000,4.000000,4.000000,4.000000,4.000000,4.000000,4.000000,4.000000,4.000000,4.000000,4.000000,4.000000,4.000000,100.000000,,,,,,,,,,,,,,,,,,,,,,,,,,,,
1703490937.789712,1703490937.791344,119.000000,0.000000,4282.179688,4333.333496,4325.000000,4338.461426,4317.948730,4295.256348,4324.230957,4292.436035,4267.692383,4252.948730,4463.846191,4450.512695,4364.230957,4437.051270,5671.000000,4.000000,88.000000,,,,0.000000,4.000000,4.000000,4.000000,4.000000,4.000000,4.000000,4.000000,4.000000,4.000000,4.000000,4.000000,4.000000,4.000000,4.000000,100.000000,,,,,,,,,,,,,,,,,,,,,,,,,,,,
1703490937.797521,1703490937.799152,120.000000,0.000000,4279.743652,4334.743652,4323.461426,4341.025879,4318.205078,4305.769043,4329.871582,4293.333496,4275.384766,4253.333496,4472.436035,4449.743652,4372.307617,4439.358887,5938.000000,4.000000,88.000000,,,,0.000000,4.000000,4.000000,4.000000,4.000000,4.000000,4.000000,4.000000,4.000000,4.000000,4.000000,4.000000,4.000000,4.000000,4.000000,100.000000,,,,,,,,,,,,,,,,,30.000000,0.000000,0.672908,-0.121460,-0.690918,-0.234680,0.989867,0.170431,0.019534,-19.215441,-33.316612,63.651714
1703490937.805328,1703490937.806860,121.000000,0.000000,4281.282227,4328.846191,4314.615234,4334.487305,4320.641113,4308.461426,4333.461426,4299.871582,4283.461426,4256.666504,4479.102539,4450.641113,4372.563965,4428.461426,2940.000000,4.000000,88.000000,,,,0.000000,4.000000,4.000000,4.000000,4.000000,4.000000,4.000000,4.000000,4.000000,4.000000,4.000000,4.000000,4.000000,4.000000,4.000000,100.000000,,,,,,,,,,,,,,,,,,,,,,,,,,,,
1703490937.813136,1703490937.814668,122.000000,0.000000,4282.948730,4325.384766,4313.589844,4331.025879,4319.615234,4306.025879,4337.179688,4299.615234,4285.128418,4263.589844,4473.205078,4450.384766,4365.384766,4425.769043,6000.000000,4.000000,88.000000,,,,0.000000,4.000000,4.000000,4.000000,4.000000,4.000000,4.000000,4.000000,4.000000,4.000000,4.000000,4.000000,4.000000,4.000000,4.000000,100.000000,,,,,,,,,,,,,,,,,,,,,,,,,,,,
1703490937.820945,1703490937.822376,123.000000,0.000000,4298.077148,4337.179688,4333.846191,4342.692383,4322.692383,4306.794922,4343.077148,4300.512695,4289.615234,4283.333496,4488.974121,4455.256348,4383.846191,4441.922852,5671.000000,4.000000,88.000000,,,,0.000000,4.000000,4.000000,4.000000,4.000000,4.000000,4.000000,4.000000,4.000000,4.000000,4.000000,4.000000,4.000000,4.000000,4.000000,100.000000,,,,,,,,,,,,,,,,,,,,,,,,,,,,
1703490937.828753,1703490937.830284,124.000000,0.000000,4315.256348,4344.743652,4352.179688,4351.153809,4330.384766,4302.820313,4340.256348,4306.153809,4294.358887,4298.205078,4512.820313,4462.179688,4406.025879,4456.794922,5938.000000,4.000000,88.000000,,,,0.000000,4.000000,4.000000,4.000000,4.000000,4.000000,4.000000,4.000000,4.000000,4.000000,4.000000,4.000000,4.000000,4.000000,4.000000,100.000000,,,,,,,,,,,,,,,,,31.000000,0.000000,0.672772,-0.121399,-0.691040,-0.234741,0.981077,0.158711,0.021975,-19.260563,-33.334953,63.736542
1703490937.836561,1703490937.838092,125.000000,0.000000,4314.102539,4340.897461,4348.589844,4349.102539,4316.794922,4282.948730,4326.153809,4301.025879,4287.692383,4292.563965,4508.205078,4460.897461,4401.153809,4450.512695,2940.000000,4.000000,88.000000,,,,0.000000,4.000000,4.000000,4.000000,4.000000,4.000000,4.000000,4.000000,4.000000,4.000000,4.000000,4.000000,4.000000,4.000000,4.000000,100.000000,,,,,,,,,,,,,,,,,,,,,,,,,,,,
1703490937.844369,1703490937.846000,126.000000,0.000000,4310.641113,4343.205078,4344.358887,4349.743652,4297.307617,4266.025879,4320.128418,4292.307617,4278.461426,4282.051270,4498.077148,4460.384766,4396.666504,4449.615234,6000.000000,4.000000,88.000000,,,,0.000000,4.000000,4.000000,4.000000,4.000000,4.000000,4.000000,4.000000,4.000000,4.000000,4.000000,4.000000,4.000000,4.000000,4.000000,100.000000,,,,,,,,,,,,,,,,,,,,,,,,,,,,
1703490937.852177,1703490937.853808,127.000000,0.000000,4322.051270,4353.461426,4358.333496,4359.230957,4308.589844,4274.102539,4331.410156,4296.922852,4281.666504,4285.641113,4506.538574,4467.051270,4411.025879,4471.410156,88.000000,4.000000,88.000000,,,,0.000000,4.000000,4.000000,4.000000,4.000000,4.000000,4.000000,4.000000,4.000000,4.000000,4.000000,4.000000,4.000000,4.000000,4.000000,100.000000,,,,,,,,,,,,,,,,,,,,,,,,,,,,
1703490937.859985,1703490937.861716,0.000000,0.000000,4327.563965,4351.410156,4367.436035,4366.153809,4323.077148,4287.179688,4340.897461,4303.333496,4285.897461,4290.897461,4516.410156,4469.871582,4418.974121,4476.794922,5061.000000,4.000000,88.000000,,,,0.000000,4.000000,4.000000,4.000000,4.000000,4.000000,4.000000,4.000000,4.000000,4.000000,4.000000,4.000000,4.000000,4.000000,4.000000,100.000000,,,,,,,,,,,,,,,,,0.000000,0.000000,0.672825,-0.121338,-0.690979,-0.234802,0.983518,0.160664,0.011720,-19.251175,-33.218124,63.862888
1703490937.867793,1703490937.869524,1.000000,0.000000,4319.102539,4338.717773,4355.897461,4362.051270,4322.179688,4296.666504,4343.717773,4303.461426,4283.461426,4287.051270,4514.487305,4466.922852,4412.948730,4460.128418,5689.000000,4.000000,88.000000,,,,0.000000,4.000000,4.000000,4.000000,4.000000,4.000000,4.000000,4.000000,4.000000,4.000000,4.000000,4.000000,4.000000,4.000000,4.000000,100.000000,,,,,,,,,,,,,,,,,,,,,,,,,,,,
1703490937.875601,1703490937.877332,2.000000,0.000000,4305.512695,4331.666504,4340.256348,4349.743652,4327.179688,4316.025879,4354.230957,4308.461426,4285.000000,4282.692383,4505.897461,4464.871582,4405.512695,4453.589844,5364.000000,4.000000,88.000000,,,,0.000000,4.000000,4.000000,4.000000,4.000000,4.000000,4.000000,4.000000,4.000000,4.000000,4.000000,4.000000,4.000000,4.000000,4.000000,100.000000,,,,,,,,,,,,,,,,,,,,,,,,,,,,
1703490937.883409,1703490937.885040,3.000000,0.000000,4293.205078,4323.717773,4329.743652,4334.743652,4328.974121,4331.794922,4366.025879,4312.820313,4288.846191,4275.512695,4495.769043,4460.256348,4394.743652,4453.333496,5490.000000,4.000000,88.000000,,,,0.000000,4.000000,4.000000,4.000000,4.000000,4.000000,4.000000,4.000000,4.000000,4.000000,4.000000,4.000000,4.000000,4.000000,4.000000,100.000000,,,,,,,,,,,,,,,,,,,,,,,,,,,,
1703490937.891217,1703490937.892848,4.000000,0.000000,4296.025879,4319.230957,4328.461426,4333.974121,4325.256348,4336.282227,4371.282227,4311.410156,4292.820313,4275.000000,4495.641113,4458.589844,4392.820313,4450.256348,5303.000000,4.000000,88.000000,,,,0.000000,4.000000,4.000000,4.000000,4.000000,4.000000,4.000000,4.000000,4.000000,4.000000,4.000000,4.000000,4.000000,4.000000,4.000000,100.000000,,,,,,,,,,,,,,,,,1.000000,0.000000,0.672836,-0.121277,-0.690979,-0.234802,0.979612,0.179221,0.022464,-19.242723,-33.196312,63.976601
1703490937.899025,1703490937.900556,5.000000,0.000000,4301.282227,4323.461426,4331.538574,4338.205078,4325.641113,4334.358887,4371.794922,4308.717773,4291.794922,4278.333496,4499.230957,4459.358887,4400.256348,4447.179688,5198.000000,4.000000,88.000000,,,,0.000000,4.000000,4.000000,4.000000,4.000000,4.000000,4.000000,4.000000,4.000000,4.000000,4.000000,4.000000,4.000000,4.000000,4.000000,100.000000,,,,,,,,,,,,,,,,,,,,,,,,,,,,
1703490937.906833,1703490937.908464,6.000000,0.000000,4299.102539,4328.589844,4329.871582,4335.897461,4320.512695,4324.102539,4369.102539,4306.153809,4283.846191,4273.974121,4489.743652,4455.000000,4390.000000,4440.384766,3204.000000,4.000000,88.000000,,,,0.000000,4.000000,4.000000,4.000000,4.000000,4.000000,4.000000,4.000000,4.000000,4.000000,4.000000,4.000000,4.000000,4.000000,4.000000,100.000000,,,,,,,,,,,,,,,,,,,,,,,,,,,,
1703490937.914641,1703490937.916271,7.000000,0.000000,4307.948730,4336.153809,4338.077148,4347.051270,4317.051270,4312.307617,4366.922852,4306.410156,4283.333496,4277.692383,4487.692383,4454.487305,4382.051270,4443.333496,2798.000000,4.000000,88.000000,,,,0.000000,4.000000,4.000000,4.000000,4.000000,4.000000,4.000000,4.000000,4.000000,4.000000,4.000000,4.000000,4.000000,4.000000,4.000000,100.000000,1.000000,83.333336,4.000000,4.000000,4.000000,4.000000,4.000000,3.000000,3.000000,4.000000,4.000000,4.000000,4.000000,4.000000,4.000000,4.000000,,,,,,,,,,,,
1703490937.922449,1703490937.924079,8.000000,0.000000,4321.538574,4345.384766,4354.871582,4359.358887,4321.410156,4301.538574,4364.487305,4307.436035,4287.948730,4288.589844,4507.051270,4464.743652,4405.641113,4465.897461,4295.000000,4.000000,88.000000,,,,0.000000,4.000000,4.000000,4.000000,4.000000,4.000000,4.000000,4.000000,4.000000,4.000000,4.000000,4.000000,4.000000,4.000000,4.000000,100.000000,,,,,,,,,,,,,,,,,2.000000,0.000000,0.672836,-0.121155,-0.690979,-0.234863,0.974240,0.166524,0.018069,-19.301785,-33.193348,63.928940
1703490937.930257,1703490937.931788,9.000000,0.000000,4322.563965,4343.974121,4357.436035,4354.487305,4314.743652,4283.333496,4356.538574,4302.307617,4285.897461,4289.871582,4518.205078,4471.282227,4424.871582,4474.230957,5464.000000,4.000000,88.000000,,,,0.000000,4.000000,4.000000,4.000000,4.000000,4.000000,4.000000,4.000000,4.000000,4.000000,4.000000,4.000000,4.000000,4.000000,4.000000,100.000000,,,,,,,,,,,,,,,,,,,,,,,,,,,,
1703490937.938065,1703490937.939695,10.000000,0.000000,4319.487305,4337.948730,4349.743652,4351.282227,4305.769043,4268.461426,4347.948730,4295.769043,4283.077148,4284.487305,4505.769043,4463.717773,4410.256348,4453.974121,5990.000000,4.000000,88.000000,,,,0.000000,4.000000,4.000000,4.000000,4.000000,4.000000,4.000000,4.000000,4.000000,4.000000,4.000000,4.000000,4.000000,4.000000,4.000000,100.000000,,,,,,,,,,,,,,,,,,,,,,,,,,,,
1703490937.945873,1703490937.947503,11.000000,0.000000,4317.179688,4341.666504,4349.358887,4358.333496,4313.846191,4272.307617,4350.000000,4296.666504,4285.000000,4279.615234,4495.512695,4457.179688,4394.487305,4443.077148,5683.000000,4.000000,88.000000,,,,0.000000,4.000000,4.000000,4.000000,4.000000,4.000000,4.000000,4.000000,4.000000,4.000000,4.000000,4.000000,4.000000,4.000000,4.000000,100.000000,,,,,,,,,,,,,,,,,,,,,,,,,,,,
1703490937.953682,1703490937.955411,12.000000,0.000000,4306.666504,4345.128418,4348.461426,4359.102539,4320.384766,4283.846191,4356.025879,4299.487305,4282.051270,4272.692383,4500.512695,4458.974121,4402.820313,4452.820313,5940.000000,4.000000,88.000000,,,,0.000000,4.000000,4.000000,4.000000,4.000000,4.000000,4.000000,4.000000,4.000000,4.000000,4.000000,4.000000,4.000000,4.000000,4.000000,100.000000,,,,,,,,,,,,,,,,,3.000000,0.000000,0.672983,-0.121155,-0.690857,-0.234802,0.982542,0.170919,0.018069,-19.271606,-33.240677,63.969379
1703490937.961490,1703490937.963319,13.000000,0.000000,4300.256348,4341.410156,4343.461426,4355.769043,4319.871582,4301.922852,4363.974121,4302.051270,4278.461426,4270.384766,4501.666504,4459.871582,4407.179688,4452.948730,2952.000000,4.000000,88.000000,,,,0.000000,4.000000,4.000000,4.000000,4.000000,4.000000,4.000000,4.000000,4.000000,4.000000,4.000000,4.000000,4.000000,4.000000,4.000000,100.000000,,,,,,,,,,,,,,,,,,,,,,,,,,,,
1703490937.969298,1703490937.971127,14.000000,0.000000,4301.410156,4335.641113,4341.153809,4353.846191,4329.102539,4327.563965,4377.179688,4306.666504,4283.717773,4274.487305,4498.205078,4459.487305,4396.794922,4445.256348,5990.000000,4.000000,88.000000,,,,0.000000,4.000000,4.000000,4.000000,4.000000,4.000000,4.000000,4.000000,4.000000,4.000000,4.000000,4.000000,4.000000,4.000000,4.000000,100.000000,,,,,,,,,,,,,,,,,,,,,,,,,,,,
1703490937.977106,1703490937.979035,15.000000,0.000000,4296.410156,4333.974121,4339.743652,4350.769043,4333.717773,4343.461426,4387.307617,4310.769043,4288.846191,4276.153809,4500.384766,4461.666504,4392.563965,4449.487305,5683.000000,4.000000,88.000000,,,,0.000000,4.000000,4.000000,4.000000,4.000000,4.000000,4.000000,4.000000,4.000000,4.000000,4.000000,4.000000,4.000000,4.000000,4.000000,100.000000,,,,,,,,,,,,,,,,,,,,,,,,,,,,
1703490937.984914,1703490937.986843,16.000000,0.000000,4289.358887,4330.000000,4338.974121,4348.846191,4318.077148,4341.025879,4387.563965,4311.282227,4286.153809,4273.461426,4501.410156,4463.974121,4396.666504,4453.589844,0.000000,4.000000,88.000000,,,,0.000000,4.000000,4.000000,4.000000,4.000000,4.000000,4.000000,4.000000,4.000000,4.000000,4.000000,4.000000,4.000000,4.000000,4.000000,100.000000,,,,,,,,,,,,,,,,,4.000000,0.000000,0.672972,-0.121216,-0.690857,-0.234802,0.975705,0.172384,0.027347,-19.311111,-33.383278,63.905773
1703490937.992722,1703490937.994651,17.000000,0.000000,4290.384766,4324.230957,4336.410156,4342.436035,4310.000000,4332.051270,4382.692383,4308.333496,4282.179688,4269.102539,4498.974121,4462.563965,4396.538574,4445.128418,0.000000,4.000000,88.000000,,,,0.000000,4.000000,4.000000,4.000000,4.000000,4.000000,4.000000,4.000000,4.000000,4.000000,4.000000,4.000000,4.000000,4.000000,4.000000,100.000000,,,,,,,,,,,,,,,,,,,,,,,,,,,,
1703490938.000530,1703490938.002359,18.000000,0.000000,4290.512695,4323.974121,4332.051270,4336.282227,4317.307617,4326.282227,4380.769043,4307.820313,4282.051270,4268.717773,4501.282227,4461.666504,4396.282227,4440.512695,0.000000,4.000000,88.000000,,,,0.000000,4.000000,4.000000,4.000000,4.000000,4.000000,4.000000,4.000000,4.000000,4.000000,4.000000,4.000000,4.000000,4.000000,4.000000,100.000000,,,,,,,,,,,,,,,,,,,,,,,,,,,,
1703490938.008338,1703490938.010167,19.000000,0.000000,4283.589844,4321.794922,4328.461426,4334.743652,4311.666504,4315.769043,4375.769043,4305.512695,4281.025879,4270.512695,4503.461426,4461.538574,4395.384766,4441.538574,0.000000,4.000000,88.000000,,,,0.000000,4.000000,4.000000,4.000000,4.000000,4.000000,4.000000,4.000000,4.000000,4.000000,4.000000,4.000000,4.000000,4.000000,4.000000,100.000000,,,,,,,,,,,,,,,,,,,,,,,,,,,,
1703490938.016146,1703490938.017875,20.000000,0.000000,4287.563965,4320.512695,4329.743652,4336.794922,4301.153809,4303.333496,4368.717773,4301.153809,4282.948730,4273.974121,4500.128418,4459.487305,4388.077148,4431.538574,0.000000,4.000000,88.000000,,,,0.000000,4.000000,4.000000,4.000000,4.000000,4.000000,4.000000,4.000000,4.000000,4.000000,4.000000,4.000000,4.000000,4.000000,4.000000,100.000000,,,,,,,,,,,,,,,,,5.000000,0.000000,0.672856,-0.121399,-0.690979,-0.234680,0.975217,0.150409,0.015139,-19.363335,-33.411617,63.731865
1703490938.023954,1703490938.025683,21.000000,0.000000,4305.641113,4331.410156,4342.563965,4349.230957,4304.487305,4298.333496,4366.538574,4303.846191,4288.077148,4281.538574,4501.410156,4464.615234,4392.307617,4423.205078,0.000000,4.000000,88.000000,,,,0.000000,4.000000,4.000000,4.000000,4.000000,4.000000,4.000000,4.000000,4.000000,4.000000,4.000000,4.000000,4.000000,4.000000,4.000000,100.000000,,,,,,,,,,,,,,,,,,,,,,,,,,,,
1703490938.031762,1703490938.033391,22.000000,0.000000,4307.436035,4334.358887,4351.922852,4352.948730,4301.922852,4288.333496,4360.641113,4304.871582,4284.230957,4280.384766,4503.974121,4469.358887,4398.461426,4428.717773,0.000000,4.000000,88.000000,,,,0.000000,4.000000,4.000000,4.000000,4.000000,4.000000,4.000000,4.000000,4.000000,4.000000,4.000000,4.000000,4.000000,4.000000,4.000000,100.000000,,,,,,,,,,,,,,,,,,,,,,,,,,,,
1703490938.039570,1703490938.041199,23.000000,0.000000,4295.641113,4322.179688,4347.051270,4343.205078,4291.282227,4272.948730,4354.102539,4296.794922,4275.641113,4272.692383,4496.666504,4465.641113,4385.897461,4428.333496,0.000000,4.000000,88.000000,,,,0.000000,4.000000,4.000000,4.000000,4.000000,4.000000,4.000000,4.000000,4.000000,4.000000,4.000000,4.000000,4.000000,4.000000,4.000000,100.000000,,,,,,,,,,,,,,,,,,,,,,,,,,,,
1703490938.047378,1703490938.048907,24.000000,0.000000,4296.410156,4321.922852,4341.153809,4341.410156,4292.179688,4271.282227,4356.922852,4292.563965,4271.794922,4270.256348,4492.307617,4464.230957,4380.128418,4414.871582,0.000000,4.000000,88.000000,,,,0.000000,4.000000,4.000000,4.000000,4.000000,4.000000,4.000000,4.000000,4.000000,4.000000,4.000000,4.000000,4.000000,4.000000,4.000000,100.000000,,,,,,,,,,,,,,,,,6.000000,0.000000,0.672910,-0.121338,-0.690979,-0.234558,0.976193,0.164083,0.010255,-19.427000,-33.370453,63.808678
1703490938.055186,1703490938.056715,25.000000,0.000000,4298.717773,4326.025879,4338.205078,4340.641113,4295.512695,4283.974121,4361.922852,4295.769043,4272.436035,4267.948730,4494.102539,4462.307617,4387.563965,4404.615234,0.000000,4.000000,88.000000,,,,0.000000,4.000000,4.000000,4.000000,4.000000,4.000000,4.000000,4.000000,4.000000,4.000000,4.000000,4.000000,4.000000,4.000000,4.000000,100.000000,,,,,,,,,,,,,,,,,,,,,,,,,,,,
1703490938.062994,1703490938.064423,26.000000,0.000000,4286.794922,4316.794922,4330.769043,4334.487305,4295.769043,4296.410156,4365.000000,4300.128418,4275.128418,4265.000000,4494.102539,4459.487305,4387.436035,4400.256348,0.000000,4.000000,88.000000,,,,0.000000,4.000000,4.000000,4.000000,4.000000,4.000000,4.000000,4.000000,4.000000,4.000000,4.000000,4.000000,4.000000,4.000000,4.000000,100.000000,,,,,,,,,,,,,,,,,,,,,,,,,,,,
1703490938.070802,1703490938.072231,27.000000,0.000000,4276.410156,4316.538574,4327.692383,4337.436035,4304.102539,4310.512695,4374.230957,4305.384766,4278.846191,4270.641113,4495.769043,4463.461426,4382.948730,4399.871582,0.000000,4.000000,88.000000,,,,0.000000,4.000000,4.000000,4.000000,4.000000,4.000000,4.000000,4.000000,4.000000,4.000000,4.000000,4.000000,4.000000,4.000000,4.000000,100.000000,,,,,,,,,,,,,,,,,,,,,,,,,,,,
1703490938.078610,1703490938.079939,28.000000,0.000000,4283.974121,4323.974121,4334.487305,4345.256348,4313.333496,4324.102539,4382.307617,4308.205078,4281.153809,4277.307617,4502.563965,4468.717773,4386.666504,4407.563965,0.000000,4.000000,88.000000,,,,0.000000,4.000000,4.000000,4.000000,4.000000,4.000000,4.000000,4.000000,4.000000,4.000000,4.000000,4.000000,4.000000,4.000000,4.000000,100.000000,,,,,,,,,,,,,,,,,7.000000,0.000000,0.672910,-0.121338,-0.690979,-0.234558,0.979123,0.149432,0.018069,-19.317635,-33.250076,63.761143
1703490938.086419,1703490938.087847,29.000000,0.000000,4295.000000,4321.538574,4338.461426,4345.000000,4308.974121,4323.461426,4382.051270,4307.307617,4282.948730,4277.436035,4506.666504,4468.846191,4393.461426,4407.307617,0.000000,4.000000,88.000000,,,,0.000000,4.000000,4.000000,4.000000,4.000000,4.000000,4.000000,4.000000,4.000000,4.000000,4.000000,4.000000,4.000000,4.000000,4.000000,100.000000,,,,,,,,,,,,,,,,,,,,,,,,,,,,
1703490938.094226,1703490938.095655,30.000000,0.000000,4299.358887,4321.538574,4338.589844,4342.436035,4302.563965,4317.307617,4380.384766,4307.563965,4287.820313,4282.179688,4508.461426,4468.717773,4398.846191,4405.128418,0.000000,4.000000,88.000000,,,,0.000000,4.000000,4.000000,4.000000,4.000000,4.000000,4.000000,4.000000,4.000000,4.000000,4.000000,4.000000,4.000000,4.000000,4.000000,100.000000,,,,,,,,,,,,,,,,,,,,,,,,,,,,
1703490938.102034,1703490938.103463,31.000000,0.000000,4302.820313,4325.256348,4338.717773,4337.179688,4302.820313,4311.282227,4373.205078,4304.871582,4288.461426,4289.230957,4513.974121,4471.282227,4403.333496,4416.025879,0.000000,4.000000,88.000000,,,,0.000000,4.000000,4.000000,4.000000,4.000000,4.000000,4.000000,4.000000,4.000000,4.000000,4.000000,4.000000,4.000000,4.000000,4.000000,100.000000,,,,,,,,,,,,,,,,,,,,,,,,,,,,
1703490938.109843,1703490938.111171,32.000000,0.000000,4301.666504,4321.282227,4337.436035,4333.077148,4303.846191,4301.538574,4363.589844,4297.692383,4284.230957,4286.410156,4510.384766,4470.897461,4403.077148,4421.153809,0.000000,4.000000,88.000000,,,,0.000000,4.000000,4.000000,4.000000,4.000000,4.000000,4.000000,4.000000,4.000000,4.000000,4.000000,4.000000,4.000000,4.000000,4.000000,100.000000,,,,,,,,,,,,,,,,,8.000000,0.000000,0.672805,-0.121338,-0.691040,-0.234680,0.984007,0.162618,0.014650,-19.235870,-33.291737,63.685028
1703490938.117651,1703490938.119079,33.000000,0.000000,4296.922852,4320.128418,4336.922852,4337.563965,4304.230957,4296.922852,4363.205078,4296.282227,4284.358887,4281.922852,4502.948730,4467.179688,4400.128418,4415.000000,0.000000,4.000000,88.000000,,,,0.000000,4.000000,4.000000,4.000000,4.000000,4.000000,4.000000,4.000000,4.000000,4.000000,4.000000,4.000000,4.000000,4.000000,4.000000,100.000000,,,,,,,,,,,,,,,,,,,,,,,,,,,,
1703490938.125459,1703490938.126887,34.000000,0.000000,4298.974121,4323.846191,4338.717773,4345.000000,4304.615234,4300.384766,4368.461426,4303.077148,4287.179688,4285.769043,4508.077148,4467.820313,4401.025879,4408.717773,0.000000,4.000000,88.000000,,,,0.000000,4.000000,4.000000,4.000000,4.000000,4.000000,4.000000,4.000000,4.000000,4.000000,4.000000,4.000000,4.000000,4.000000,4.000000,100.000000,,,,,,,,,,,,,,,,,,,,,,,,,,,,
1703490938.133267,1703490938.134795,35.000000,0.000000,4304.871582,4325.000000,4340.641113,4348.589844,4303.717773,4300.897461,4371.922852,4306.922852,4286.025879,4287.948730,4514.871582,4470.641113,4399.615234,4407.436035,0.000000,4.000000,88.000000,,,,0.000000,4.000000,4.000000,4.000000,4.000000,4.000000,4.000000,4.000000,4.000000,4.000000,4.000000,4.000000,4.000000,4.000000,4.000000,100.000000,,,,,,,,,,,,,,,,,,,,,,,,,,,,
1703490938.141075,1703490938.142603,36.000000,0.000000,4299.487305,4323.333496,4338.461426,4342.436035,4300.128418,4296.794922,4373.077148,4305.384766,4282.179688,4279.615234,4511.282227,4470.384766,4395.384766,4411.922852,0.000000,4.000000,88.000000,,,,0.000000,4.000000,4.000000,4.000000,4.000000,4.000000,4.000000,4.000000,4.000000,4.000000,4.000000,4.000000,4.000000,4.000000,4.000000,100.000000,,,,,,,,,,,,,,,,,9.000000,0.000000,0.672690,-0.121277,-0.691162,-0.234680,0.972287,0.171896,0.016115,-19.278950,-33.512562,63.649860
1703490938.148883,1703490938.150511,37.000000,0.000000,4296.282227,4320.000000,4336.666504,4336.410156,4296.410156,4296.410156,4372.436035,4307.051270,4280.128418,4273.077148,4505.897461,4471.025879,4391.538574,4416.153809,0.000000,4.000000,88.000000,,,,0.000000,4.000000,4.000000,4.000000,4.000000,4.000000,4.000000,4.000000,4.000000,4.000000,4.000000,4.000000,4.000000,4.000000,4.000000,100.000000,,,,,,,,,,,,,,,,,,,,,,,,,,,,
1703490938.156691,1703490938.158319,38.000000,0.000000,4303.846191,4316.153809,4338.205078,4338.461426,4295.384766,4298.333496,4369.615234,4310.384766,4281.153809,4274.358887,4506.025879,4469.358887,4388.974121,4409.487305,0.000000,4.000000,88.000000,,,,0.000000,4.000000,4.000000,4.000000,4.000000,4.000000,4.000000,4.000000,4.000000,4.000000,4.000000,4.000000,4.000000,4.000000,4.000000,100.000000,,,,,,,,,,,,,,,,,,,,,,,,,,,,
1703490938.164499,1703490938.166226,39.000000,0.000000,4303.589844,4314.871582,4338.846191,4335.769043,4298.974121,4302.692383,4367.563965,4308.077148,4285.512695,4274.871582,4509.487305,4467.436035,4388.205078,4399.358887,0.000000,4.000000,88.000000,,,,0.000000,4.000000,4.000000,4.000000,4.000000,4.000000,4.000000,4.000000,4.000000,4.000000,4.000000,4.000000,4.000000,4.000000,4.000000,100.000000,,,,,,,,,,,,,,,,,,,,,,,,,,,,
1703490938.172307,1703490938.174034,40.000000,0.000000,4297.692383,4317.051270,4335.769043,4331.410156,4304.871582,4309.358887,4366.153809,4307.820313,4287.436035,4274.615234,4515.128418,4470.256348,4389.871582,4401.538574,0.000000,4.000000,88.000000,,,,0.000000,4.000000,4.000000,4.000000,4.000000,4.000000,4.000000,4.000000,4.000000,4.000000,4.000000,4.000000,4.000000,4.000000,4.000000,100.000000,,,,,,,,,,,,,,,,,10.000000,0.000000,0.672503,-0.121033,-0.691345,-0.234802,0.977658,0.176291,0.015627,-19.351055,-33.294640,63.701538
1703490938.180115,1703490938.181742,41.000000,0.000000,4300.641113,4320.000000,4330.512695,4336.410156,4308.205078,4316.025879,4364.615234,4313.077148,4291.538574,4284.102539,4516.666504,4469.358887,4392.307617,4407.051270,0.000000,4.000000,88.000000,,,,0.000000,4.000000,4.000000,4.000000,4.000000,4.000000,4.000000,4.000000,4.000000,4.000000,4.000000,4.000000,4.000000,4.000000,4.000000,100.000000,,,,,,,,,,,,,,,,,,,,,,,,,,,,
1703490938.187923,1703490938.189550,42.000000,0.000000,4301.666504,4318.846191,4327.179688,4341.538574,4303.974121,4314.358887,4361.282227,4310.128418,4296.282227,4290.000000,4511.410156,4464.102539,4390.512695,4405.512695,0.000000,4.000000,88.000000,,,,0.000000,4.000000,4.000000,4.000000,4.000000,4.000000,4.000000,4.000000,4.000000,4.000000,4.000000,4.000000,4.000000,4.000000,4.000000,100.000000,,,,,,,,,,,,,,,,,,,,,,,,,,,,
1703490938.195731,1703490938.197259,43.000000,0.000000,4293.077148,4315.000000,4328.077148,4337.948730,4297.948730,4306.282227,4355.641113,4301.153809,4291.794922,4283.077148,4509.102539,4464.230957,4392.051270,4406.282227,0.000000,4.000000,88.000000,,,,0.000000,4.000000,4.000000,4.000000,4.000000,4.000000,4.000000,4.000000,4.000000,4.000000,4.000000,4.000000,4.000000,4.000000,4.000000,100.000000,,,,,,,,,,,,,,,,,,,,,,,,,,,,
1703490938.203539,1703490938.205066,44.000000,0.000000,4292.307617,4314.487305,4331.666504,4335.128418,4299.358887,4300.897461,4352.307617,4299.230957,4284.487305,4276.538574,4508.974121,4467.563965,4393.205078,4412.563965,0.000000,4.000000,88.000000,,,,0.000000,4.000000,4.000000,4.000000,4.000000,4.000000,4.000000,4.000000,4.000000,4.000000,4.000000,4.000000,4.000000,4.000000,4.000000,100.000000,,,,,,,,,,,,,,,,,11.000000,0.000000,0.672452,-0.120972,-0.691406,-0.234802,0.976193,0.163106,0.014650,-19.449284,-33.281841,63.714718
1703490938.211347,1703490938.212775,45.000000,0.000000,4305.641113,4321.410156,4337.307617,4340.000000,4303.333496,4301.666504,4351.025879,4301.410156,4279.871582,4273.846191,4511.410156,4468.205078,4395.384766,4420.000000,0.000000,4.000000,88.000000,,,,0.000000,4.000000,4.000000,4.000000,4.000000,4.000000,4.000000,4.000000,4.000000,4.000000,4.000000,4.000000,4.000000,4.000000,4.000000,100.000000,,,,,,,,,,,,,,,,,,,,,,,,,,,,
1703490938.219155,1703490938.220583,46.000000,0.000000,4314.358887,4326.666504,4345.384766,4345.641113,4304.230957,4308.205078,4350.897461,4301.153809,4277.692383,4271.666504,4518.974121,4469.358887,4406.666504,4424.615234,0.000000,4.000000,88.000000,,,,0.000000,4.000000,4.000000,4.000000,4.000000,4.000000,4.000000,4.000000,4.000000,4.000000,4.000000,4.000000,4.000000,4.000000,4.000000,100.000000,,,,,,,,,,,,,,,,,,,,,,,,,,,,
1703490938.226963,1703490938.228291,47.000000,0.000000,4303.846191,4326.282227,4345.769043,4343.077148,4307.563965,4317.051270,4354.102539,4300.897461,4276.922852,4271.410156,4517.307617,4467.948730,4405.256348,4426.025879,0.000000,4.000000,88.000000,,,,0.000000,4.000000,4.000000,4.000000,4.000000,4.000000,4.000000,4.000000,4.000000,4.000000,4.000000,4.000000,4.000000,4.000000,4.000000,100.000000,,,,,,,,,,,,,,,,,,,,,,,,,,,,
1703490938.234771,1703490938.236099,48.000000,0.000000,4290.897461,4324.871582,4332.179688,4337.948730,4315.897461,4319.487305,4356.922852,4304.230957,4278.846191,4274.230957,4507.563965,4461.282227,4391.153809,4418.205078,0.000000,4.000000,88.000000,,,,0.000000,4.000000,4.000000,4.000000,4.000000,4.000000,4.000000,4.000000,4.000000,4.000000,4.000000,4.000000,4.000000,4.000000,4.000000,100.000000,,,,,,,,,,,,,,,,,12.000000,0.000000,0.672462,-0.121033,-0.691406,-0.234741,0.984007,0.165548,0.012209,-19.471022,-33.170322,63.876579
1703490938.242580,1703490938.243807,49.000000,0.000000,4291.538574,4321.538574,4322.692383,4335.641113,4316.025879,4317.051270,4351.666504,4307.307617,4282.179688,4275.000000,4508.846191,4460.128418,4388.205078,4406.025879,0.000000,4.000000,88.000000,,,,0.000000,4.000000,4.000000,4.000000,4.000000,4.000000,4.000000,4.000000,4.000000,4.000000,4.000000,4.000000,4.000000,4.000000,4.000000,100.000000,,,,,,,,,,,,,,,,,,,,,,,,,,,,
1703490938.250388,1703490938.251615,50.000000,0.000000,4296.025879,4318.333496,4327.179688,4333.717773,4305.897461,4317.692383,4344.102539,4308.974121,4286.794922,4273.205078,4517.051270,4466.025879,4396.025879,4408.333496,0.000000,4.000000,88.000000,,,,0.000000,4.000000,4.000000,4.000000,4.000000,4.000000,4.000000,4.000000,4.000000,4.000000,4.000000,4.000000,4.000000,4.000000,4.000000,100.000000,,,,,,,,,,,,,,,,,,,,,,,,,,,,
1703490938.258196,1703490938.259323,51.000000,0.000000,4297.820313,4322.307617,4334.871582,4337.179688,4303.974121,4320.000000,4343.974121,4308.846191,4291.538574,4277.436035,4518.846191,4468.589844,4398.974121,4423.205078,0.000000,4.000000,88.000000,,,,0.000000,4.000000,4.000000,4.000000,4.000000,4.000000,4.000000,4.000000,4.000000,4.000000,4.000000,4.000000,4.000000,4.000000,4.000000,100.000000,,,,,,,,,,,,,,,,,,,,,,,,,,,,
1703490938.266004,1703490938.267131,52.000000,0.000000,4299.743652,4328.589844,4337.307617,4342.436035,4311.922852,4318.077148,4344.487305,4308.205078,4289.871582,4277.692383,4516.922852,4469.487305,4398.461426,4427.179688,0.000000,4.000000,88.000000,,,,0.000000,4.000000,4.000000,4.000000,4.000000,4.000000,4.000000,4.000000,4.000000,4.000000,4.000000,4.000000,4.000000,4.000000,4.000000,100.000000,,,,,,,,,,,,,,,,,13.000000,0.000000,0.672462,-0.121155,-0.691467,-0.234497,0.973752,0.162129,0.020999,-19.373919,-33.219959,63.872257
1703490938.273812,1703490938.274839,53.000000,0.000000,4308.333496,4329.230957,4340.256348,4343.461426,4308.974121,4315.000000,4339.743652,4307.051270,4287.948730,4269.102539,4517.436035,4471.538574,4400.769043,4421.410156,0.000000,4.000000,88.000000,,,,0.000000,4.000000,4.000000,4.000000,4.000000,4.000000,4.000000,4.000000,4.000000,4.000000,4.000000,4.000000,4.000000,4.000000,4.000000,100.000000,,,,,,,,,,,,,,,,,,,,,,,,,,,,
1703490938.281620,1703490938.282647,54.000000,0.000000,4313.205078,4326.794922,4342.692383,4346.922852,4298.589844,4316.025879,4338.589844,4307.051270,4287.820313,4274.871582,4519.615234,4470.641113,4405.128418,4429.615234,0.000000,4.000000,88.000000,,,,0.000000,4.000000,4.000000,4.000000,4.000000,4.000000,4.000000,4.000000,4.000000,4.000000,4.000000,4.000000,4.000000,4.000000,4.000000,100.000000,,,,,,,,,,,,,,,,,,,,,,,,,,,,
1703490938.289428,1703490938.290355,55.000000,0.000000,4304.102539,4324.743652,4336.922852,4346.025879,4300.384766,4319.102539,4338.077148,4306.282227,4284.487305,4284.230957,4521.922852,4468.974121,4403.589844,4438.589844,0.000000,4.000000,88.000000,,,,0.000000,4.000000,4.000000,4.000000,4.000000,4.000000,4.000000,4.000000,4.000000,4.000000,4.000000,4.000000,4.000000,4.000000,4.000000,100.000000,,,,,,,,,,,,,,,,,,,,,,,,,,,,
1703490938.297236,1703490938.298263,56.000000,0.000000,4299.487305,4323.077148,4328.589844,4338.461426,4307.692383,4320.897461,4334.358887,4300.897461,4281.538574,4275.512695,4517.179688,4467.948730,4394.615234,4426.538574,0.000000,4.000000,88.000000,,,,0.000000,4.000000,4.000000,4.000000,4.000000,4.000000,4.000000,4.000000,4.000000,4.000000,4.000000,4.000000,4.000000,4.000000,4.000000,100.000000,,,,,,,,,,,,,,,,,14.000000,0.000000,0.672493,-0.121338,-0.691467,-0.234314,0.980100,0.171408,0.018069,-19.419861,-33.264629,63.835030
1703490938.305044,1703490938.306071,57.000000,0.000000,4303.461426,4322.820313,4326.153809,4335.256348,4308.205078,4323.077148,4334.487305,4302.948730,4282.692383,4272.051270,4512.051270,4466.410156,4395.000000,4418.974121,0.000000,4.000000,88.000000,,,,0.000000,4.000000,4.000000,4.000000,4.000000,4.000000,4.000000,4.000000,4.000000,4.000000,4.000000,4.000000,4.000000,4.000000,4.000000,100.000000,,,,,,,,,,,,,,,,,,,,,,,,,,,,
1703490938.312852,1703490938.313978,58.000000,0.000000,4295.897461,4315.512695,4328.205078,4332.563965,4304.358887,4322.307617,4331.922852,4308.205078,4281.153809,4278.077148,4514.358887,4466.410156,4398.589844,4422.563965,0.000000,4.000000,88.000000,,,,0.000000,4.000000,4.000000,4.000000,4.000000,4.000000,4.000000,4.000000,4.000000,4.000000,4.000000,4.000000,4.000000,4.000000,4.000000,100.000000,,,,,,,,,,,,,,,,,,,,,,,,,,,,
1703490938.320660,1703490938.321786,59.000000,0.000000,4288.589844,4309.871582,4329.230957,4331.410156,4303.974121,4321.282227,4325.769043,4301.922852,4276.538574,4274.871582,4515.256348,4465.769043,4392.179688,4419.487305,0.000000,4.000000,88.000000,,,,0.000000,4.000000,4.000000,4.000000,4.000000,4.000000,4.000000,4.000000,4.000000,4.000000,4.000000,4.000000,4.000000,4.000000,4.000000,100.000000,,,,,,,,,,,,,,,,,,,,,,,,,,,,
1703490938.328468,1703490938.329694,60.000000,0.000000,4295.512695,4314.102539,4326.025879,4332.179688,4303.333496,4323.974121,4324.487305,4297.692383,4275.769043,4265.256348,4510.384766,4465.384766,4390.641113,4414.743652,0.000000,4.000000,88.000000,,,,0.000000,4.000000,4.000000,4.000000,4.000000,4.000000,4.000000,4.000000,4.000000,4.000000,4.000000,4.000000,4.000000,4.000000,4.000000,100.000000,,,,,,,,,,,,,,,,,15.000000,0.000000,0.672525,-0.121399,-0.691467,-0.234192,0.966427,0.160664,0.005860,-19.527874,-33.321499,63.901527
1703490938.336276,1703490938.337502,61.000000,0.000000,4297.051270,4318.974121,4321.666504,4331.922852,4301.922852,4328.846191,4328.589844,4307.051270,4279.743652,4265.512695,4509.487305,4465.384766,4397.179688,4425.512695,0.000000,4.000000,88.000000,,,,0.000000,4.000000,4.000000,4.000000,4.000000,4.000000,4.000000,4.000000,4.000000,4.000000,4.000000,4.000000,4.000000,4.000000,4.000000,100.000000,,,,,,,,,,,,,,,,,,,,,,,,,,,,
1703490938.344084,1703490938.345410,62.000000,0.000000,4300.000000,4322.051270,4325.384766,4337.179688,4304.358887,4335.000000,4329.871582,4314.487305,4290.641113,4277.051270,4520.897461,4468.589844,4402.692383,4439.230957,0.000000,4.000000,88.000000,,,,0.000000,4.000000,4.000000,4.000000,4.000000,4.000000,4.000000,4.000000,4.000000,4.000000,4.000000,4.000000,4.000000,4.000000,4.000000,100.000000,,,,,,,,,,,,,,,,,,,,,,,,,,,,
1703490938.351892,1703490938.353218,63.000000,0.000000,4312.948730,4326.282227,4340.384766,4345.000000,4305.897461,4333.974121,4329.358887,4313.461426,4300.128418,4288.589844,4531.025879,4476.794922,4406.922852,4443.461426,0.000000,4.000000,88.000000,,,,0.000000,4.000000,4.000000,4.000000,4.000000,4.000000,4.000000,4.000000,4.000000,4.000000,4.000000,4.000000,4.000000,4.000000,4.000000,100.000000,,,,,,,,,,,,,,,,,,,,,,,,,,,,
1703490938.359700,1703490938.361126,64.000000,0.000000,4319.487305,4325.256348,4351.282227,4344.487305,4302.948730,4323.461426,4326.666504,4314.358887,4302.948730,4292.436035,4529.871582,4476.794922,4410.641113,4448.717773,5061.000000,4.000000,88.000000,,,,0.000000,4.000000,4.000000,4.000000,4.000000,4.000000,4.000000,4.000000,4.000000,4.000000,4.000000,4.000000,4.000000,4.000000,4.000000,100.000000,,,,,,,,,,,,,,,,,16.000000,0.000000,0.672503,-0.121521,-0.691467,-0.234192,0.989379,0.160664,0.020999,-19.641754,-33.306015,63.894707
1703490938.367508,1703490938.368934,65.000000,0.000000,4315.256348,4316.282227,4343.846191,4339.743652,4299.358887,4312.563965,4320.128418,4309.358887,4296.922852,4286.922852,4514.743652,4466.794922,4400.769043,4440.128418,5693.000000,4.000000,88.000000,,,,0.000000,4.000000,4.000000,4.000000,4.000000,4.000000,4.000000,4.000000,4.000000,4.000000,4.000000,4.000000,4.000000,4.000000,4.000000,100.000000,,,,,,,,,,,,,,,,,,,,,,,,,,,,
1703490938.375317,1703490938.376642,66.000000,0.000000,4306.282227,4313.846191,4332.563965,4340.641113,4300.641113,4310.000000,4318.461426,4300.384766,4286.025879,4278.077148,4503.077148,4461.153809,4387.563965,4417.179688,5367.000000,4.000000,88.000000,,,,0.000000,4.000000,4.000000,4.000000,4.000000,4.000000,4.000000,4.000000,4.000000,4.000000,4.000000,4.000000,4.000000,4.000000,4.000000,100.000000,,,,,,,,,,,,,,,,,,,,,,,,,,,,
1703490938.383124,1703490938.384450,67.000000,0.000000,4291.025879,4315.000000,4325.512695,4337.436035,4304.615234,4313.846191,4317.307617,4295.256348,4280.384766,4270.384766,4507.692383,4458.717773,4390.641113,4413.205078,5511.000000,4.000000,88.000000,,,,0.000000,4.000000,4.000000,4.000000,4.000000,4.000000,4.000000,4.000000,4.000000,4.000000,4.000000,4.000000,4.000000,4.000000,4.000000,100.000000,,,,,,,,,,,,,,,,,,,,,,,,,,,,
1703490938.390932,1703490938.392158,68.000000,0.000000,4283.205078,4306.922852,4314.743652,4326.153809,4304.102539,4319.743652,4313.717773,4291.922852,4277.307617,4266.666504,4507.820313,4455.384766,4394.358887,4424.487305,5313.000000,4.000000,88.000000,,,,0.000000,4.000000,4.000000,4.000000,4.000000,4.000000,4.000000,4.000000,4.000000,4.000000,4.000000,4.000000,4.000000,4.000000,4.000000,100.000000,,,,,,,,,,,,,,,,,17.000000,0.000000,0.672554,-0.121582,-0.691406,-0.234192,0.979123,0.168478,0.008790,-19.594246,-33.358749,63.921902
1703490938.398741,1703490938.400066,69.000000,0.000000,4287.948730,4308.333496,4308.205078,4325.128418,4307.436035,4327.436035,4313.846191,4294.743652,4276.410156,4269.871582,4503.846191,4456.282227,4391.410156,4427.692383,5192.000000,4.000000,88.000000,,,,0.000000,4.000000,4.000000,4.000000,4.000000,4.000000,4.000000,4.000000,4.000000,4.000000,4.000000,4.000000,4.000000,4.000000,4.000000,100.000000,,,,,,,,,,,,,,,,,,,,,,,,,,,,
1703490938.406549,1703490938.407874,70.000000,0.000000,4287.563965,4317.436035,4310.384766,4331.538574,4315.256348,4326.794922,4316.410156,4301.282227,4278.589844,4272.051270,4503.974121,4460.256348,4389.230957,4430.128418,3203.000000,4.000000,88.000000,,,,0.000000,4.000000,4.000000,4.000000,4.000000,4.000000,4.000000,4.000000,4.000000,4.000000,4.000000,4.000000,4.000000,4.000000,4.000000,100.000000,,,,,,,,,,,,,,,,,,,,,,,,,,,,
1703490938.414357,1703490938.415682,71.000000,0.000000,4284.615234,4312.948730,4312.051270,4327.692383,4308.333496,4315.641113,4311.282227,4300.512695,4274.358887,4261.153809,4498.205078,4458.717773,4382.563965,4438.077148,2800.000000,4.000000,88.000000,,,,0.000000,4.000000,4.000000,4.000000,4.000000,4.000000,4.000000,4.000000,4.000000,4.000000,4.000000,4.000000,4.000000,4.000000,4.000000,100.000000,1.000000,83.333336,4.000000,4.000000,4.000000,4.000000,4.000000,3.000000,3.000000,4.000000,4.000000,4.000000,4.000000,4.000000,4.000000,4.000000,,,,,,,,,,,,
1703490938.422165,1703490938.423390,72.000000,0.000000,4298.589844,4308.333496,4318.846191,4323.974121,4293.974121,4305.769043,4301.025879,4293.717773,4261.922852,4242.051270,4489.743652,4454.358887,4377.051270,4439.358887,4290.000000,4.000000,88.000000,,,,0.000000,4.000000,4.000000,4.000000,4.000000,4.000000,4.000000,4.000000,4.000000,4.000000,4.000000,4.000000,4.000000,4.000000,4.000000,100.000000,,,,,,,,,,,,,,,,,18.000000,0.000000,0.672492,-0.121582,-0.691467,-0.234192,0.980588,0.161641,0.016604,-19.568153,-33.222874,63.963047
1703490938.429973,1703490938.431298,73.000000,0.000000,4311.538574,4311.282227,4335.000000,4332.179688,4291.410156,4299.102539,4296.410156,4292.179688,4258.333496,4238.077148,4495.000000,4460.769043,4386.025879,4438.077148,5447.000000,4.000000,88.000000,,,,0.000000,4.000000,4.000000,4.000000,4.000000,4.000000,4.000000,4.000000,4.000000,4.000000,4.000000,4.000000,4.000000,4.000000,4.000000,100.000000,,,,,,,,,,,,,,,,,,,,,,,,,,,,
1703490938.437781,1703490938.439106,74.000000,0.000000,4310.769043,4313.205078,4345.512695,4337.179688,4290.897461,4296.666504,4293.205078,4292.692383,4265.384766,4253.205078,4507.436035,4467.051270,4400.512695,4446.153809,5970.000000,4.000000,88.000000,,,,0.000000,4.000000,4.000000,4.000000,4.000000,4.000000,4.000000,4.000000,4.000000,4.000000,4.000000,4.000000,4.000000,4.000000,4.000000,100.000000,,,,,,,,,,,,,,,,,,,,,,,,,,,,
1703490938.445589,1703490938.446914,75.000000,0.000000,4313.077148,4314.102539,4345.897461,4335.512695,4283.974121,4295.769043,4289.358887,4290.641113,4268.333496,4268.461426,4502.948730,4460.641113,4395.256348,4450.000000,5681.000000,4.000000,88.000000,,,,0.000000,4.000000,4.000000,4.000000,4.000000,4.000000,4.000000,4.000000,4.000000,4.000000,4.000000,4.000000,4.000000,4.000000,4.000000,100.000000,,,,,,,,,,,,,,,,,,,,,,,,,,,,
1703490938.453397,1703490938.454622,76.000000,0.000000,4316.794922,4308.461426,4341.025879,4335.000000,4283.717773,4290.256348,4287.948730,4290.897461,4271.794922,4276.153809,4494.615234,4458.205078,4383.717773,4436.922852,5925.000000,4.000000,88.000000,,,,0.000000,4.000000,4.000000,4.000000,4.000000,4.000000,4.000000,4.000000,4.000000,4.000000,4.000000,4.000000,4.000000,4.000000,4.000000,100.000000,,,,,,,,,,,,,,,,,19.000000,0.000000,0.672482,-0.121521,-0.691528,-0.234070,0.970822,0.164571,0.024905,-19.544672,-33.183918,64.083412
1703490938.461205,1703490938.462430,77.000000,0.000000,4304.358887,4301.538574,4334.615234,4332.179688,4289.871582,4289.230957,4292.948730,4296.282227,4283.077148,4284.487305,4500.641113,4465.769043,4391.922852,4431.538574,2950.000000,4.000000,88.000000,,,,0.000000,4.000000,4.000000,4.000000,4.000000,4.000000,4.000000,4.000000,4.000000,4.000000,4.000000,4.000000,4.000000,4.000000,4.000000,100.000000,,,,,,,,,,,,,,,,,,,,,,,,,,,,
1703490938.469013,1703490938.470138,78.000000,0.000000,4286.282227,4299.358887,4327.692383,4327.820313,4291.025879,4302.307617,4301.666504,4304.102539,4293.461426,4290.000000,4507.820313,4469.358887,4402.436035,4445.769043,5970.000000,4.000000,88.000000,,,,0.000000,4.000000,4.000000,4.000000,4.000000,4.000000,4.000000,4.000000,4.000000,4.000000,4.000000,4.000000,4.000000,4.000000,4.000000,100.000000,,,,,,,,,,,,,,,,,,,,,,,,,,,,
1703490938.476821,1703490938.478046,79.000000,0.000000,4272.563965,4289.743652,4315.512695,4322.307617,4288.077148,4314.358887,4306.666504,4304.102539,4291.410156,4275.897461,4494.102539,4461.410156,4391.410156,4449.871582,5681.000000,4.000000,88.000000,,,,0.000000,4.000000,4.000000,4.000000,4.000000,4.000000,4.000000,4.000000,4.000000,4.000000,4.000000,4.000000,4.000000,4.000000,4.000000,100.000000,,,,,,,,,,,,,,,,,,,,,,,,,,,,
1703490938.484629,1703490938.485854,80.000000,0.000000,4264.743652,4276.922852,4305.256348,4315.000000,4289.358887,4316.410156,4308.846191,4300.897461,4283.974121,4254.871582,4472.307617,4450.384766,4374.487305,4433.077148,5925.000000,4.000000,88.000000,,,,0.000000,4.000000,4.000000,4.000000,4.000000,4.000000,4.000000,4.000000,4.000000,4.000000,4.000000,4.000000,4.000000,4.000000,4.000000,100.000000,,,,,,,,,,,,,,,,,20.000000,0.000000,0.672461,-0.121521,-0.691528,-0.234131,0.973263,0.165059,0.010255,-19.456871,-33.215527,63.958401
1703490938.492437,1703490938.493662,81.000000,0.000000,4272.051270,4282.436035,4305.256348,4313.461426,4295.256348,4321.282227,4311.410156,4303.974121,4279.487305,4245.897461,4466.538574,4446.794922,4368.333496,4424.102539,2950.000000,4.000000,88.000000,,,,0.000000,4.000000,4.000000,4.000000,4.000000,4.000000,4.000000,4.000000,4.000000,4.000000,4.000000,4.000000,4.000000,4.000000,4.000000,100.000000,,,,,,,,,,,,,,,,,,,,,,,,,,,,
1703490938.500245,1703490938.501370,82.000000,0.000000,4283.461426,4292.692383,4304.487305,4314.871582,4296.282227,4325.128418,4311.666504,4305.769043,4277.692383,4241.282227,4466.025879,4447.307617,4360.000000,4423.974121,5970.000000,4.000000,88.000000,,,,0.000000,4.000000,4.000000,4.000000,4.000000,4.000000,4.000000,4.000000,4.000000,4.000000,4.000000,4.000000,4.000000,4.000000,4.000000,100.000000,,,,,,,,,,,,,,,,,,,,,,,,,,,,
1703490938.508053,1703490938.509278,83.000000,0.000000,4280.897461,4289.358887,4302.307617,4313.205078,4293.205078,4317.563965,4309.358887,4303.333496,4278.846191,4241.025879,4466.282227,4449.102539,4358.717773,4418.846191,5681.000000,4.000000,88.000000,,,,0.000000,4.000000,4.000000,4.000000,4.000000,4.000000,4.000000,4.000000,4.000000,4.000000,4.000000,4.000000,4.000000,4.000000,4.000000,100.000000,,,,,,,,,,,,,,,,,,,,,,,,,,,,
1703490938.515861,1703490938.517086,84.000000,0.000000,4279.615234,4290.128418,4307.307617,4313.461426,4296.153809,4307.179688,4305.769043,4302.307617,4276.538574,4246.410156,4472.563965,4454.487305,4368.333496,4421.794922,5925.000000,4.000000,88.000000,,,,0.000000,4.000000,4.000000,4.000000,4.000000,4.000000,4.000000,4.000000,4.000000,4.000000,4.000000,4.000000,4.000000,4.000000,4.000000,100.000000,,,,,,,,,,,,,,,,,21.000000,0.000000,0.672461,-0.121521,-0.691528,-0.234131,0.990844,0.161152,0.023929,-19.411184,-33.393974,63.779228
1703490938.523669,1703490938.524993,85.000000,0.000000,4290.641113,4302.307617,4312.820313,4317.051270,4294.230957,4295.769043,4298.589844,4299.230957,4269.358887,4246.794922,4481.025879,4458.461426,4372.948730,4433.974121,2950.000000,4.000000,88.000000,,,,0.000000,4.000000,4.000000,4.000000,4.000000,4.000000,4.000000,4.000000,4.000000,4.000000,4.000000,4.000000,4.000000,4.000000,4.000000,100.000000,,,,,,,,,,,,,,,,,,,,,,,,,,,,
1703490938.531478,1703490938.532801,86.000000,0.000000,4297.692383,4307.307617,4319.230957,4319.102539,4283.846191,4284.615234,4291.282227,4292.436035,4266.666504,4248.717773,4483.589844,4459.102539,4377.179688,4439.230957,5970.000000,4.000000,88.000000,,,,0.000000,4.000000,4.000000,4.000000,4.000000,4.000000,4.000000,4.000000,4.000000,4.000000,4.000000,4.000000,4.000000,4.000000,4.000000,100.000000,,,,,,,,,,,,,,,,,,,,,,,,,,,,
1703490938.539286,1703490938.540709,87.000000,0.000000,4296.410156,4298.974121,4332.563965,4321.794922,4283.717773,4285.000000,4294.871582,4294.487305,4274.871582,4262.948730,4487.051270,4466.410156,4385.897461,4445.000000,5681.000000,4.000000,88.000000,,,,0.000000,4.000000,4.000000,4.000000,4.000000,4.000000,4.000000,4.000000,4.000000,4.000000,4.000000,4.000000,4.000000,4.000000,4.000000,100.000000,,,,,,,,,,,,,,,,,,,,,,,,,,,,
1703490938.547094,1703490938.548517,88.000000,0.000000,4305.128418,4295.384766,4342.692383,4325.128418,4291.282227,4297.436035,4306.025879,4300.256348,4289.230957,4277.948730,4503.589844,4476.282227,4397.563965,4464.102539,5925.000000,4.000000,88.000000,,,,0.000000,4.000000,4.000000,4.000000,4.000000,4.000000,4.000000,4.000000,4.000000,4.000000,4.000000,4.000000,4.000000,4.000000,4.000000,100.000000,,,,,,,,,,,,,,,,,22.000000,0.000000,0.672503,-0.121521,-0.691467,-0.234192,0.978635,0.167013,0.020510,-19.536732,-33.421246,63.701305
1703490938.554902,1703490938.556425,89.000000,0.000000,4314.743652,4301.282227,4344.487305,4330.512695,4297.179688,4309.615234,4315.641113,4301.922852,4301.410156,4287.436035,4516.025879,4478.846191,4409.230957,4483.077148,2950.000000,4.000000,88.000000,,,,0.000000,4.000000,4.000000,4.000000,4.000000,4.000000,4.000000,4.000000,4.000000,4.000000,4.000000,4.000000,4.000000,4.000000,4.000000,100.000000,,,,,,,,,,,,,,,,,,,,,,,,,,,,
1703490938.562710,1703490938.564233,90.000000,0.000000,4311.666504,4300.384766,4342.948730,4332.948730,4300.769043,4313.846191,4322.179688,4303.974121,4303.205078,4290.384766,4513.461426,4475.000000,4417.307617,4479.102539,5970.000000,4.000000,88.000000,,,,0.000000,4.000000,4.000000,4.000000,4.000000,4.000000,4.000000,4.000000,4.000000,4.000000,4.000000,4.000000,4.000000,4.000000,4.000000,100.000000,,,,,,,,,,,,,,,,,,,,,,,,,,,,
1703490938.570518,1703490938.571941,91.000000,0.000000,4310.897461,4294.871582,4346.153809,4332.307617,4300.128418,4320.641113,4329.615234,4310.641113,4305.897461,4287.948730,4508.846191,4474.102539,4415.641113,4464.487305,5681.000000,4.000000,88.000000,,,,0.000000,4.000000,4.000000,4.000000,4.000000,4.000000,4.000000,4.000000,4.000000,4.000000,4.000000,4.000000,4.000000,4.000000,4.000000,100.000000,,,,,,,,,,,,,,,,,,,,,,,,,,,,
1703490938.578326,1703490938.579749,92.000000,0.000000,4318.205078,4298.077148,4349.487305,4338.205078,4302.820313,4335.384766,4340.512695,4317.307617,4312.051270,4286.282227,4507.563965,4473.974121,4407.820313,4458.077148,5925.000000,4.000000,88.000000,,,,0.000000,4.000000,4.000000,4.000000,4.000000,4.000000,4.000000,4.000000,4.000000,4.000000,4.000000,4.000000,4.000000,4.000000,4.000000,100.000000,,,,,,,,,,,,,,,,,23.000000,0.000000,0.672627,-0.121521,-0.691284,-0.234375,0.980588,0.168966,0.012209,-19.799726,-33.379120,63.697842
1703490938.586134,1703490938.587457,93.000000,0.000000,4309.615234,4307.051270,4339.102539,4342.051270,4303.461426,4339.358887,4346.282227,4314.230957,4302.307617,4276.794922,4494.871582,4464.487305,4394.743652,4446.153809,2950.000000,4.000000,88.000000,,,,0.000000,4.000000,4.000000,4.000000,4.000000,4.000000,4.000000,4.000000,4.000000,4.000000,4.000000,4.000000,4.000000,4.000000,4.000000,100.000000,,,,,,,,,,,,,,,,,,,,,,,,,,,,
1703490938.593942,1703490938.595265,94.000000,0.000000,4290.897461,4307.820313,4323.589844,4335.512695,4292.051270,4327.307617,4343.717773,4310.256348,4283.589844,4257.692383,4474.102539,4455.512695,4371.410156,4428.205078,5970.000000,4.000000,88.000000,,,,0.000000,4.000000,4.000000,4.000000,4.000000,4.000000,4.000000,4.000000,4.000000,4.000000,4.000000,4.000000,4.000000,4.000000,4.000000,100.000000,,,,,,,,,,,,,,,,,,,,,,,,,,,,
1703490938.601750,1703490938.602973,95.000000,0.000000,4284.102539,4301.282227,4318.205078,4326.410156,4286.922852,4315.128418,4341.794922,4309.615234,4275.000000,4244.615234,4460.512695,4456.025879,4349.487305,4415.512695,5681.000000,4.000000,88.000000,,,,0.000000,4.000000,4.000000,4.000000,4.000000,4.000000,4.000000,4.000000,4.000000,4.000000,4.000000,4.000000,4.000000,4.000000,4.000000,100.000000,,,,,,,,,,,,,,,,,,,,,,,,,,,,
1703490938.609558,1703490938.610781,96.000000,0.000000,4280.512695,4295.897461,4310.128418,4319.487305,4295.641113,4307.820313,4340.128418,4303.205078,4267.820313,4234.615234,4448.077148,4453.333496,4336.025879,4406.282227,5925.000000,4.000000,88.000000,,,,0.000000,4.000000,4.000000,4.000000,4.000000,4.000000,4.000000,4.000000,4.000000,4.000000,4.000000,4.000000,4.000000,4.000000,4.000000,100.000000,,,,,,,,,,,,,,,,,24.000000,0.000000,0.672532,-0.121582,-0.691345,-0.234436,0.975705,0.162618,0.014162,-19.753086,-33.357876,63.594723
1703490938.617366,1703490938.618489,97.000000,0.000000,4273.589844,4293.333496,4297.820313,4318.205078,4298.846191,4300.128418,4334.743652,4292.820313,4253.846191,4225.128418,4439.743652,4443.717773,4330.128418,4403.077148,2950.000000,4.000000,88.000000,,,,0.000000,4.000000,4.000000,4.000000,4.000000,4.000000,4.000000,4.000000,4.000000,4.000000,4.000000,4.000000,4.000000,4.000000,4.000000,100.000000,,,,,,,,,,,,,,,,,,,,,,,,,,,,
1703490938.625174,1703490938.626297,98.000000,0.000000,4267.307617,4292.307617,4293.846191,4319.615234,4300.256348,4298.974121,4330.256348,4289.102539,4249.615234,4227.692383,4441.794922,4438.974121,4332.563965,4412.692383,5970.000000,4.000000,88.000000,,,,0.000000,4.000000,4.000000,4.000000,4.000000,4.000000,4.000000,4.000000,4.000000,4.000000,4.000000,4.000000,4.000000,4.000000,4.000000,100.000000,,,,,,,,,,,,,,,,,,,,,,,,,,,,
1703490938.632982,1703490938.634005,99.000000,0.000000,4267.307617,4291.666504,4294.230957,4314.102539,4305.769043,4305.641113,4333.717773,4291.025879,4262.563965,4238.077148,4446.922852,4440.641113,4342.179688,4416.538574,5681.000000,4.000000,88.000000,,,,0.000000,4.000000,4.000000,4.000000,4.000000,4.000000,4.000000,4.000000,4.000000,4.000000,4.000000,4.000000,4.000000,4.000000,4.000000,100.000000,,,,,,,,,,,,,,,,,,,,,,,,,,,,
1703490938.640790,1703490938.641813,100.000000,0.000000,4273.205078,4285.128418,4296.538574,4306.922852,4306.282227,4316.666504,4343.589844,4293.717773,4284.102539,4252.179688,4453.205078,4445.000000,4353.589844,4409.358887,5925.000000,4.000000,88.000000,,,,0.000000,4.000000,4.000000,4.000000,4.000000,4.000000,4.000000,4.000000,4.000000,4.000000,4.000000,4.000000,4.000000,4.000000,4.000000,100.000000,,,,,,,,,,,,,,,,,25.000000,0.000000,0.672543,-0.121521,-0.691345,-0.234436,0.975217,0.160664,0.012209,-19.711111,-33.472088,63.668583
1703490938.648598,1703490938.649521,101.000000,0.000000,4281.666504,4283.461426,4308.333496,4315.128418,4308.461426,4332.051270,4355.897461,4303.205078,4301.025879,4268.077148,4466.025879,4454.871582,4365.769043,4423.974121,2950.000000,4.000000,88.000000,,,,0.000000,4.000000,4.000000,4.000000,4.000000,4.000000,4.000000,4.000000,4.000000,4.000000,4.000000,4.000000,4.000000,4.000000,4.000000,100.000000,,,,,,,,,,,,,,,,,,,,,,,,,,,,
