title:عمار اعلى, start timestamp:1703503016.334598, stop timestamp:1703503027.070674, headset type:EPOCX, headset serial:E50206EF, headset firmware:720, channels:67, sampling rate:eeg_128;mot_32, samples:1376      , version:2.2, 
Timestamp,OriginalTimestamp,EEG.Counter,EEG.Interpolated,EEG.AF3,EEG.F7,EEG.F3,EEG.FC5,EEG.T7,EEG.P7,EEG.O1,EEG.O2,EEG.P8,EEG.T8,EEG.FC6,EEG.F4,EEG.F8,EEG.AF4,EEG.RawCq,EEG.Battery,EEG.BatteryPercent,MarkerIndex,MarkerType,MarkerValueInt,EEG.MarkerHardware,CQ.AF3,CQ.F7,CQ.F3,CQ.FC5,CQ.T7,CQ.P7,CQ.O1,CQ.O2,CQ.P8,CQ.T8,CQ.FC6,CQ.F4,CQ.F8,CQ.AF4,CQ.Overall,EQ.SampleRateQuality,EQ.OVERALL,EQ.AF3,EQ.F7,EQ.F3,EQ.FC5,EQ.T7,EQ.P7,EQ.O1,EQ.O2,EQ.P8,EQ.T8,EQ.FC6,EQ.F4,EQ.F8,EQ.AF4,MOT.CounterMems,MOT.InterpolatedMems,MOT.Q0,MOT.Q1,MOT.Q2,MOT.Q3,MOT.AccX,MOT.AccY,MOT.AccZ,MOT.MagX,MOT.MagY,MOT.MagZ
1703503016.334598,1703503748.176401,125.000000,0.000000,4265.128418,4264.358887,4312.051270,4350.641113,4279.102539,4274.487305,4251.922852,4311.666504,4281.922852,4304.230957,4549.358887,4508.589844,4418.077148,4454.358887,7239.000000,3.000000,61.000000,,,,0.000000,4.000000,4.000000,4.000000,4.000000,4.000000,4.000000,4.000000,4.000000,4.000000,4.000000,4.000000,4.000000,4.000000,4.000000,100.000000,,,,,,,,,,,,,,,,,,,,,,,,,,,,
1703503016.342406,1703503748.184109,126.000000,0.000000,4262.179688,4263.077148,4310.000000,4342.436035,4281.794922,4273.333496,4250.128418,4310.512695,4279.871582,4306.922852,4556.794922,4514.743652,4427.948730,4460.128418,6048.000000,3.000000,61.000000,,,,0.000000,4.000000,4.000000,4.000000,4.000000,4.000000,4.000000,4.000000,4.000000,4.000000,4.000000,4.000000,4.000000,4.000000,4.000000,100.000000,,,,,,,,,,,,,,,,,,,,,,,,,,,,
1703503016.350214,1703503748.191917,127.000000,0.000000,4258.205078,4262.307617,4307.563965,4346.538574,4283.333496,4272.692383,4249.102539,4298.717773,4266.794922,4291.922852,4540.256348,4507.179688,4408.461426,4447.692383,61.000000,3.000000,61.000000,,,,0.000000,4.000000,4.000000,4.000000,4.000000,4.000000,4.000000,4.000000,4.000000,4.000000,4.000000,4.000000,4.000000,4.000000,4.000000,100.000000,,,,,,,,,,,,,,,,,,,,,,,,,,,,
1703503016.358022,1703503748.199625,0.000000,0.000000,4256.922852,4255.512695,4309.487305,4347.948730,4277.948730,4272.051270,4251.666504,4290.641113,4258.717773,4280.897461,4527.307617,4498.077148,4401.025879,4440.897461,5267.000000,3.000000,61.000000,,,,0.000000,4.000000,4.000000,4.000000,4.000000,4.000000,4.000000,4.000000,4.000000,4.000000,4.000000,4.000000,4.000000,4.000000,4.000000,100.000000,,,,,,,,,,,,,,,,,0.000000,0.000000,0.431194,0.542297,-0.420227,0.585999,1.004517,-0.041509,0.063973,-15.483504,-38.480549,61.518887
1703503016.365830,1703503748.207433,1.000000,0.000000,4255.000000,4252.692383,4307.820313,4343.077148,4274.102539,4266.922852,4251.282227,4292.051270,4259.743652,4283.589844,4531.153809,4495.897461,4407.820313,4443.846191,5512.000000,3.000000,61.000000,,,,0.000000,4.000000,4.000000,4.000000,4.000000,4.000000,4.000000,4.000000,4.000000,4.000000,4.000000,4.000000,4.000000,4.000000,4.000000,100.000000,,,,,,,,,,,,,,,,,,,,,,,,,,,,
1703503016.373638,1703503748.215141,2.000000,0.000000,4253.077148,4260.128418,4301.153809,4340.128418,4275.769043,4266.794922,4248.974121,4293.461426,4261.794922,4289.358887,4538.205078,4497.179688,4407.692383,4445.256348,5395.000000,3.000000,61.000000,,,,0.000000,4.000000,4.000000,4.000000,4.000000,4.000000,4.000000,4.000000,4.000000,4.000000,4.000000,4.000000,4.000000,4.000000,4.000000,100.000000,,,,,,,,,,,,,,,,,,,,,,,,,,,,
1703503016.381446,1703503748.223049,3.000000,0.000000,4250.641113,4264.102539,4296.025879,4338.589844,4277.179688,4275.512695,4255.256348,4293.589844,4263.846191,4287.948730,4535.256348,4495.512695,4400.128418,4438.333496,5385.000000,3.000000,61.000000,,,,0.000000,4.000000,4.000000,4.000000,4.000000,4.000000,4.000000,4.000000,4.000000,4.000000,4.000000,4.000000,4.000000,4.000000,4.000000,100.000000,,,,,,,,,,,,,,,,,,,,,,,,,,,,
1703503016.389254,1703503748.230857,4.000000,0.000000,4248.333496,4260.769043,4295.000000,4333.846191,4274.743652,4276.153809,4257.179688,4293.333496,4260.128418,4277.948730,4519.871582,4489.358887,4387.307617,4428.461426,5308.000000,3.000000,61.000000,,,,0.000000,4.000000,4.000000,4.000000,4.000000,4.000000,4.000000,4.000000,4.000000,4.000000,4.000000,4.000000,4.000000,4.000000,4.000000,100.000000,,,,,,,,,,,,,,,,,1.000000,0.000000,0.431177,0.542358,-0.420166,0.585999,0.986449,-0.022952,0.066903,-15.368487,-38.432495,61.617001
1703503016.397062,1703503748.238765,5.000000,0.000000,4248.589844,4258.077148,4294.230957,4329.487305,4270.897461,4274.487305,4250.000000,4291.794922,4263.205078,4275.256348,4516.538574,4489.615234,4387.307617,4433.717773,4966.000000,3.000000,61.000000,,,,0.000000,4.000000,4.000000,4.000000,4.000000,4.000000,4.000000,4.000000,4.000000,4.000000,4.000000,4.000000,4.000000,4.000000,4.000000,100.000000,,,,,,,,,,,,,,,,,,,,,,,,,,,,
1703503016.404870,1703503748.246573,6.000000,0.000000,4247.307617,4251.666504,4292.563965,4327.820313,4270.256348,4275.128418,4249.615234,4299.102539,4279.102539,4284.871582,4528.077148,4496.922852,4400.128418,4441.025879,3909.000000,3.000000,61.000000,,,,0.000000,4.000000,4.000000,4.000000,4.000000,4.000000,4.000000,4.000000,4.000000,4.000000,4.000000,4.000000,4.000000,4.000000,4.000000,100.000000,,,,,,,,,,,,,,,,,,,,,,,,,,,,
1703503016.412678,1703503748.254481,7.000000,0.000000,4244.230957,4248.333496,4289.743652,4327.948730,4274.230957,4269.487305,4251.538574,4307.307617,4285.000000,4292.307617,4533.205078,4497.436035,4405.897461,4437.948730,5045.000000,3.000000,61.000000,,,,0.000000,4.000000,4.000000,4.000000,4.000000,4.000000,4.000000,4.000000,4.000000,4.000000,4.000000,4.000000,4.000000,4.000000,4.000000,100.000000,,,,,,,,,,,,,,,,,,,,,,,,,,,,
1703503016.420487,1703503748.262289,8.000000,0.000000,4246.794922,4256.025879,4288.974121,4330.897461,4278.846191,4265.384766,4247.307617,4302.948730,4277.307617,4291.538574,4528.846191,4493.205078,4404.358887,4436.025879,5020.000000,3.000000,61.000000,,,,0.000000,4.000000,4.000000,4.000000,4.000000,4.000000,4.000000,4.000000,4.000000,4.000000,4.000000,4.000000,4.000000,4.000000,4.000000,100.000000,,,,,,,,,,,,,,,,,2.000000,0.000000,0.431058,0.542358,-0.420288,0.585999,0.994262,-0.006837,0.059089,-15.131639,-38.472580,61.788631
1703503016.428295,1703503748.270196,9.000000,0.000000,4250.384766,4262.307617,4293.333496,4337.179688,4278.589844,4266.282227,4246.666504,4296.282227,4271.153809,4283.846191,4522.436035,4492.179688,4396.282227,4434.358887,5494.000000,3.000000,61.000000,,,,0.000000,4.000000,4.000000,4.000000,4.000000,4.000000,4.000000,4.000000,4.000000,4.000000,4.000000,4.000000,4.000000,4.000000,4.000000,100.000000,,,,,,,,,,,,,,,,,,,,,,,,,,,,
1703503016.436103,1703503748.278004,10.000000,0.000000,4249.871582,4261.666504,4297.436035,4341.282227,4278.974121,4265.256348,4249.102539,4294.230957,4264.871582,4276.538574,4520.000000,4493.717773,4392.051270,4431.153809,6047.000000,3.000000,61.000000,,,,0.000000,4.000000,4.000000,4.000000,4.000000,4.000000,4.000000,4.000000,4.000000,4.000000,4.000000,4.000000,4.000000,4.000000,4.000000,100.000000,,,,,,,,,,,,,,,,,,,,,,,,,,,,
1703503016.443911,1703503748.285713,11.000000,0.000000,4248.077148,4256.538574,4292.563965,4334.102539,4278.205078,4262.948730,4248.205078,4288.589844,4251.794922,4267.436035,4512.820313,4488.461426,4390.512695,4428.461426,6322.000000,3.000000,61.000000,,,,0.000000,4.000000,4.000000,4.000000,4.000000,4.000000,4.000000,4.000000,4.000000,4.000000,4.000000,4.000000,4.000000,4.000000,4.000000,100.000000,,,,,,,,,,,,,,,,,,,,,,,,,,,,
1703503016.451719,1703503748.293520,12.000000,0.000000,4246.282227,4248.589844,4285.512695,4326.025879,4269.102539,4265.000000,4248.717773,4280.256348,4244.743652,4258.846191,4506.282227,4483.333496,4387.307617,4426.025879,6830.000000,3.000000,61.000000,,,,0.000000,4.000000,4.000000,4.000000,4.000000,4.000000,4.000000,4.000000,4.000000,4.000000,4.000000,4.000000,4.000000,4.000000,4.000000,100.000000,,,,,,,,,,,,,,,,,3.000000,0.000000,0.431058,0.542358,-0.420288,0.585999,0.985472,-0.017580,0.057136,-15.101808,-38.475323,61.776436
1703503016.459527,1703503748.301229,13.000000,0.000000,4247.436035,4247.051270,4282.179688,4325.769043,4261.794922,4265.641113,4249.358887,4278.077148,4247.307617,4258.846191,4513.589844,4489.743652,4391.794922,4428.333496,7231.000000,3.000000,61.000000,,,,0.000000,4.000000,4.000000,4.000000,4.000000,4.000000,4.000000,4.000000,4.000000,4.000000,4.000000,4.000000,4.000000,4.000000,4.000000,100.000000,,,,,,,,,,,,,,,,,,,,,,,,,,,,
1703503016.467335,1703503748.309037,14.000000,0.000000,4241.666504,4248.589844,4281.410156,4323.333496,4265.641113,4265.128418,4249.615234,4281.666504,4244.102539,4257.436035,4513.846191,4490.769043,4390.897461,4426.153809,6047.000000,3.000000,61.000000,,,,0.000000,4.000000,4.000000,4.000000,4.000000,4.000000,4.000000,4.000000,4.000000,4.000000,4.000000,4.000000,4.000000,4.000000,4.000000,100.000000,,,,,,,,,,,,,,,,,,,,,,,,,,,,
1703503016.475143,1703503748.316745,15.000000,0.000000,4233.077148,4247.820313,4281.538574,4322.179688,4274.615234,4274.358887,4250.512695,4289.615234,4248.333496,4264.358887,4510.641113,4486.153809,4385.641113,4420.897461,6322.000000,3.000000,61.000000,,,,0.000000,4.000000,4.000000,4.000000,4.000000,4.000000,4.000000,4.000000,4.000000,4.000000,4.000000,4.000000,4.000000,4.000000,4.000000,100.000000,,,,,,,,,,,,,,,,,,,,,,,,,,,,
1703503016.482951,1703503748.324553,16.000000,0.000000,4237.436035,4246.538574,4281.025879,4324.487305,4275.256348,4276.410156,4249.487305,4296.410156,4262.051270,4277.436035,4518.846191,4488.717773,4393.974121,4425.769043,0.000000,3.000000,61.000000,,,,0.000000,4.000000,4.000000,4.000000,4.000000,4.000000,4.000000,4.000000,4.000000,4.000000,4.000000,4.000000,4.000000,4.000000,4.000000,100.000000,,,,,,,,,,,,,,,,,4.000000,0.000000,0.430821,0.542480,-0.420288,0.586060,0.989379,-0.019534,0.066414,-14.891627,-38.427788,61.765457
1703503016.490759,1703503748.332261,17.000000,0.000000,4252.436035,4250.769043,4278.077148,4326.025879,4271.538574,4266.794922,4247.179688,4294.102539,4265.384766,4274.358887,4520.384766,4491.538574,4400.256348,4430.000000,0.000000,3.000000,61.000000,,,,0.000000,4.000000,4.000000,4.000000,4.000000,4.000000,4.000000,4.000000,4.000000,4.000000,4.000000,4.000000,4.000000,4.000000,4.000000,100.000000,,,,,,,,,,,,,,,,,,,,,,,,,,,,
1703503016.498567,1703503748.340069,18.000000,0.000000,4259.871582,4261.794922,4280.256348,4333.589844,4278.333496,4271.282227,4246.410156,4294.230957,4268.333496,4274.102539,4518.846191,4491.922852,4397.179688,4430.769043,0.000000,3.000000,61.000000,,,,0.000000,4.000000,4.000000,4.000000,4.000000,4.000000,4.000000,4.000000,4.000000,4.000000,4.000000,4.000000,4.000000,4.000000,4.000000,100.000000,,,,,,,,,,,,,,,,,,,,,,,,,,,,
1703503016.506375,1703503748.347777,19.000000,0.000000,4259.615234,4266.794922,4290.128418,4342.179688,4284.230957,4281.666504,4246.410156,4296.410156,4273.333496,4280.769043,4518.717773,4488.846191,4395.512695,4431.153809,0.000000,3.000000,61.000000,,,,0.000000,4.000000,4.000000,4.000000,4.000000,4.000000,4.000000,4.000000,4.000000,4.000000,4.000000,4.000000,4.000000,4.000000,4.000000,100.000000,,,,,,,,,,,,,,,,,,,,,,,,,,,,
1703503016.514183,1703503748.355585,20.000000,0.000000,4263.077148,4266.282227,4290.000000,4339.743652,4279.230957,4274.871582,4244.871582,4291.282227,4267.692383,4277.051270,4513.589844,4485.128418,4395.769043,4429.102539,0.000000,3.000000,61.000000,,,,0.000000,4.000000,4.000000,4.000000,4.000000,4.000000,4.000000,4.000000,4.000000,4.000000,4.000000,4.000000,4.000000,4.000000,4.000000,100.000000,,,,,,,,,,,,,,,,,5.000000,0.000000,0.430536,0.542480,-0.420410,0.586182,0.990355,-0.034672,0.058601,-14.769131,-38.501678,61.722248
1703503016.521991,1703503748.363293,21.000000,0.000000,4261.410156,4262.307617,4280.256348,4336.410156,4276.666504,4268.589844,4246.282227,4288.974121,4263.717773,4269.871582,4506.538574,4486.025879,4388.461426,4426.153809,0.000000,3.000000,61.000000,,,,0.000000,4.000000,4.000000,4.000000,4.000000,4.000000,4.000000,4.000000,4.000000,4.000000,4.000000,4.000000,4.000000,4.000000,4.000000,100.000000,,,,,,,,,,,,,,,,,,,,,,,,,,,,
1703503016.529799,1703503748.371201,22.000000,0.000000,4248.846191,4256.025879,4276.410156,4339.358887,4278.974121,4274.487305,4247.820313,4290.641113,4262.820313,4263.717773,4498.974121,4481.922852,4376.666504,4421.025879,0.000000,3.000000,61.000000,,,,0.000000,4.000000,4.000000,4.000000,4.000000,4.000000,4.000000,4.000000,4.000000,4.000000,4.000000,4.000000,4.000000,4.000000,4.000000,100.000000,,,,,,,,,,,,,,,,,,,,,,,,,,,,
1703503016.537607,1703503748.379009,23.000000,0.000000,4244.230957,4258.717773,4277.179688,4341.282227,4279.615234,4276.153809,4248.077148,4299.615234,4266.666504,4272.051270,4507.820313,4478.589844,4386.922852,4423.717773,0.000000,3.000000,61.000000,,,,0.000000,4.000000,4.000000,4.000000,4.000000,4.000000,4.000000,4.000000,4.000000,4.000000,4.000000,4.000000,4.000000,4.000000,4.000000,100.000000,,,,,,,,,,,,,,,,,,,,,,,,,,,,
1703503016.545415,1703503748.386916,24.000000,0.000000,4257.692383,4264.615234,4283.461426,4341.282227,4279.743652,4275.897461,4255.641113,4315.000000,4280.769043,4297.051270,4536.282227,4497.692383,4415.384766,4437.948730,0.000000,3.000000,61.000000,,,,0.000000,4.000000,4.000000,4.000000,4.000000,4.000000,4.000000,4.000000,4.000000,4.000000,4.000000,4.000000,4.000000,4.000000,4.000000,100.000000,,,,,,,,,,,,,,,,,6.000000,0.000000,0.430232,0.542419,-0.420715,0.586243,0.994262,-0.042486,0.047369,-14.725552,-38.501511,61.583355
1703503016.553223,1703503748.394724,25.000000,0.000000,4266.666504,4260.000000,4292.948730,4345.256348,4280.000000,4279.871582,4262.692383,4321.666504,4288.077148,4304.871582,4551.025879,4519.615234,4423.717773,4453.333496,0.000000,3.000000,61.000000,,,,0.000000,4.000000,4.000000,4.000000,4.000000,4.000000,4.000000,4.000000,4.000000,4.000000,4.000000,4.000000,4.000000,4.000000,4.000000,100.000000,,,,,,,,,,,,,,,,,,,,,,,,,,,,
1703503016.561031,1703503748.402532,26.000000,0.000000,4258.846191,4254.487305,4296.410156,4349.743652,4281.025879,4279.102539,4260.000000,4312.051270,4278.846191,4294.230957,4545.128418,4521.666504,4413.717773,4456.410156,0.000000,3.000000,61.000000,,,,0.000000,4.000000,4.000000,4.000000,4.000000,4.000000,4.000000,4.000000,4.000000,4.000000,4.000000,4.000000,4.000000,4.000000,4.000000,100.000000,,,,,,,,,,,,,,,,,,,,,,,,,,,,
1703503016.568839,1703503748.410240,27.000000,0.000000,4260.641113,4258.846191,4298.461426,4351.794922,4281.410156,4279.615234,4259.358887,4298.077148,4270.000000,4291.410156,4537.820313,4517.436035,4407.692383,4448.846191,0.000000,3.000000,61.000000,,,,0.000000,4.000000,4.000000,4.000000,4.000000,4.000000,4.000000,4.000000,4.000000,4.000000,4.000000,4.000000,4.000000,4.000000,4.000000,100.000000,,,,,,,,,,,,,,,,,,,,,,,,,,,,
1703503016.576648,1703503748.418148,28.000000,0.000000,4270.769043,4263.717773,4306.153809,4353.333496,4282.820313,4285.000000,4264.102539,4297.948730,4275.512695,4297.307617,4542.820313,4518.205078,4408.846191,4449.615234,0.000000,3.000000,61.000000,,,,0.000000,4.000000,4.000000,4.000000,4.000000,4.000000,4.000000,4.000000,4.000000,4.000000,4.000000,4.000000,4.000000,4.000000,4.000000,100.000000,,,,,,,,,,,,,,,,,7.000000,0.000000,0.429794,0.542358,-0.421326,0.586182,0.994262,-0.056159,0.049811,-14.602996,-38.501358,61.708351
1703503016.584456,1703503748.425956,29.000000,0.000000,4269.871582,4263.846191,4312.692383,4352.307617,4282.179688,4286.025879,4261.538574,4308.846191,4285.000000,4301.282227,4552.307617,4522.948730,4415.256348,4460.769043,0.000000,3.000000,61.000000,,,,0.000000,4.000000,4.000000,4.000000,4.000000,4.000000,4.000000,4.000000,4.000000,4.000000,4.000000,4.000000,4.000000,4.000000,4.000000,100.000000,,,,,,,,,,,,,,,,,,,,,,,,,,,,
1703503016.592264,1703503748.433864,30.000000,0.000000,4266.922852,4262.948730,4312.563965,4346.922852,4280.128418,4278.205078,4252.948730,4314.230957,4285.000000,4298.205078,4548.077148,4522.692383,4413.717773,4460.897461,0.000000,3.000000,61.000000,,,,0.000000,4.000000,4.000000,4.000000,4.000000,4.000000,4.000000,4.000000,4.000000,4.000000,4.000000,4.000000,4.000000,4.000000,4.000000,100.000000,,,,,,,,,,,,,,,,,,,,,,,,,,,,
1703503016.600072,1703503748.441672,31.000000,0.000000,4269.615234,4264.615234,4304.102539,4341.538574,4278.717773,4268.205078,4247.307617,4313.589844,4286.282227,4295.897461,4539.102539,4515.512695,4405.512695,4453.205078,0.000000,3.000000,61.000000,,,,0.000000,4.000000,4.000000,4.000000,4.000000,4.000000,4.000000,4.000000,4.000000,4.000000,4.000000,4.000000,4.000000,4.000000,4.000000,100.000000,,,,,,,,,,,,,,,,,,,,,,,,,,,,
1703503016.607880,1703503748.449580,32.000000,0.000000,4266.922852,4264.358887,4296.794922,4340.256348,4271.538574,4263.717773,4245.769043,4310.384766,4286.538574,4295.897461,4536.282227,4503.974121,4398.717773,4451.153809,0.000000,3.000000,61.000000,,,,0.000000,4.000000,4.000000,4.000000,4.000000,4.000000,4.000000,4.000000,4.000000,4.000000,4.000000,4.000000,4.000000,4.000000,4.000000,100.000000,,,,,,,,,,,,,,,,,8.000000,0.000000,0.429834,0.542419,-0.421631,0.585876,1.003052,-0.045904,0.047369,-14.659363,-38.617889,61.654182
1703503016.615688,1703503748.457388,33.000000,0.000000,4264.102539,4261.922852,4294.358887,4337.179688,4263.333496,4263.974121,4245.769043,4301.922852,4275.512695,4290.384766,4530.897461,4495.512695,4394.358887,4448.717773,0.000000,3.000000,61.000000,,,,0.000000,4.000000,4.000000,4.000000,4.000000,4.000000,4.000000,4.000000,4.000000,4.000000,4.000000,4.000000,4.000000,4.000000,4.000000,100.000000,1.000000,100.000000,4.000000,4.000000,4.000000,4.000000,4.000000,4.000000,4.000000,4.000000,4.000000,4.000000,4.000000,4.000000,4.000000,4.000000,,,,,,,,,,,,
1703503016.623496,1703503748.465296,34.000000,0.000000,4265.897461,4258.077148,4286.794922,4329.102539,4262.436035,4264.358887,4246.153809,4291.538574,4263.461426,4283.974121,4522.820313,4494.230957,4392.436035,4446.410156,0.000000,3.000000,61.000000,,,,0.000000,4.000000,4.000000,4.000000,4.000000,4.000000,4.000000,4.000000,4.000000,4.000000,4.000000,4.000000,4.000000,4.000000,4.000000,100.000000,,,,,,,,,,,,,,,,,,,,,,,,,,,,
1703503016.631304,1703503748.473104,35.000000,0.000000,4265.256348,4255.128418,4277.563965,4316.282227,4260.769043,4262.820313,4247.051270,4282.307617,4252.307617,4273.205078,4512.436035,4483.205078,4378.717773,4438.461426,0.000000,3.000000,61.000000,,,,0.000000,4.000000,4.000000,4.000000,4.000000,4.000000,4.000000,4.000000,4.000000,4.000000,4.000000,4.000000,4.000000,4.000000,4.000000,100.000000,,,,,,,,,,,,,,,,,,,,,,,,,,,,
1703503016.639112,1703503748.480912,36.000000,0.000000,4263.717773,4256.538574,4274.230957,4298.846191,4258.205078,4263.077148,4247.820313,4276.282227,4243.589844,4261.025879,4502.820313,4467.692383,4364.358887,4426.025879,0.000000,3.000000,61.000000,,,,0.000000,4.000000,4.000000,4.000000,4.000000,4.000000,4.000000,4.000000,4.000000,4.000000,4.000000,4.000000,4.000000,4.000000,4.000000,100.000000,,,,,,,,,,,,,,,,,9.000000,0.000000,0.429811,0.542786,-0.421692,0.585510,0.989867,-0.031254,0.040532,-14.676761,-38.606102,61.738766
1703503016.646920,1703503748.488720,37.000000,0.000000,4262.563965,4252.692383,4275.000000,4283.333496,4258.589844,4262.820313,4248.461426,4274.230957,4244.230957,4262.948730,4506.794922,4470.641113,4369.230957,4426.666504,0.000000,3.000000,61.000000,,,,0.000000,4.000000,4.000000,4.000000,4.000000,4.000000,4.000000,4.000000,4.000000,4.000000,4.000000,4.000000,4.000000,4.000000,4.000000,100.000000,,,,,,,,,,,,,,,,,,,,,,,,,,,,
1703503016.654728,1703503748.496528,38.000000,0.000000,4266.153809,4252.436035,4279.102539,4282.051270,4259.358887,4264.102539,4248.974121,4264.743652,4242.307617,4264.358887,4508.205078,4477.051270,4373.717773,4431.922852,0.000000,3.000000,61.000000,,,,0.000000,4.000000,4.000000,4.000000,4.000000,4.000000,4.000000,4.000000,4.000000,4.000000,4.000000,4.000000,4.000000,4.000000,4.000000,100.000000,,,,,,,,,,,,,,,,,,,,,,,,,,,,
1703503016.662536,1703503748.504436,39.000000,0.000000,4271.282227,4265.128418,4283.077148,4291.025879,4263.974121,4273.589844,4253.077148,4260.256348,4240.512695,4258.333496,4499.615234,4471.922852,4364.358887,4428.846191,0.000000,3.000000,61.000000,,,,0.000000,4.000000,4.000000,4.000000,4.000000,4.000000,4.000000,4.000000,4.000000,4.000000,4.000000,4.000000,4.000000,4.000000,4.000000,100.000000,,,,,,,,,,,,,,,,,,,,,,,,,,,,
1703503016.670344,1703503748.512244,40.000000,0.000000,4270.000000,4268.333496,4284.615234,4290.641113,4265.128418,4280.256348,4261.282227,4277.820313,4255.384766,4267.948730,4508.333496,4479.743652,4367.820313,4428.077148,0.000000,3.000000,61.000000,,,,0.000000,4.000000,4.000000,4.000000,4.000000,4.000000,4.000000,4.000000,4.000000,4.000000,4.000000,4.000000,4.000000,4.000000,4.000000,100.000000,,,,,,,,,,,,,,,,,10.000000,0.000000,0.429795,0.543091,-0.421570,0.585327,0.978635,-0.024417,0.033696,-14.709085,-38.495491,61.748222
1703503016.678152,1703503748.520052,41.000000,0.000000,4271.538574,4261.282227,4285.384766,4290.000000,4263.205078,4278.333496,4262.179688,4294.230957,4271.794922,4286.794922,4526.666504,4496.282227,4386.922852,4439.230957,0.000000,3.000000,61.000000,,,,0.000000,4.000000,4.000000,4.000000,4.000000,4.000000,4.000000,4.000000,4.000000,4.000000,4.000000,4.000000,4.000000,4.000000,4.000000,100.000000,,,,,,,,,,,,,,,,,,,,,,,,,,,,
1703503016.685960,1703503748.527760,42.000000,0.000000,4275.641113,4263.333496,4288.077148,4292.692383,4267.051270,4276.153809,4259.230957,4293.205078,4274.871582,4286.794922,4527.563965,4494.871582,4391.538574,4443.205078,0.000000,3.000000,61.000000,,,,0.000000,4.000000,4.000000,4.000000,4.000000,4.000000,4.000000,4.000000,4.000000,4.000000,4.000000,4.000000,4.000000,4.000000,4.000000,100.000000,,,,,,,,,,,,,,,,,,,,,,,,,,,,
1703503016.693768,1703503748.535568,43.000000,0.000000,4269.487305,4266.153809,4289.487305,4286.666504,4267.307617,4276.794922,4261.922852,4295.897461,4274.871582,4283.461426,4521.025879,4487.820313,4387.692383,4433.717773,0.000000,3.000000,61.000000,,,,0.000000,4.000000,4.000000,4.000000,4.000000,4.000000,4.000000,4.000000,4.000000,4.000000,4.000000,4.000000,4.000000,4.000000,4.000000,100.000000,,,,,,,,,,,,,,,,,,,,,,,,,,,,
1703503016.701577,1703503748.543276,44.000000,0.000000,4261.282227,4262.692383,4283.589844,4282.179688,4265.512695,4278.974121,4264.102539,4308.077148,4281.794922,4289.615234,4525.897461,4490.000000,4391.410156,4435.000000,0.000000,3.000000,61.000000,,,,0.000000,4.000000,4.000000,4.000000,4.000000,4.000000,4.000000,4.000000,4.000000,4.000000,4.000000,4.000000,4.000000,4.000000,4.000000,100.000000,,,,,,,,,,,,,,,,,11.000000,0.000000,0.429757,0.543762,-0.421082,0.585083,0.985472,-0.021487,0.050299,-14.604842,-38.645943,61.756733
1703503016.709385,1703503748.551084,45.000000,0.000000,4268.077148,4262.820313,4281.410156,4289.487305,4271.153809,4279.615234,4263.461426,4313.589844,4287.948730,4292.179688,4534.871582,4499.743652,4396.025879,4445.512695,0.000000,3.000000,61.000000,,,,0.000000,4.000000,4.000000,4.000000,4.000000,4.000000,4.000000,4.000000,4.000000,4.000000,4.000000,4.000000,4.000000,4.000000,4.000000,100.000000,,,,,,,,,,,,,,,,,,,,,,,,,,,,
1703503016.717193,1703503748.558792,46.000000,0.000000,4275.128418,4265.256348,4287.563965,4300.384766,4279.358887,4280.000000,4265.128418,4309.487305,4282.820313,4291.410156,4535.641113,4505.384766,4399.871582,4445.641113,0.000000,3.000000,61.000000,,,,0.000000,4.000000,4.000000,4.000000,4.000000,4.000000,4.000000,4.000000,4.000000,4.000000,4.000000,4.000000,4.000000,4.000000,4.000000,100.000000,,,,,,,,,,,,,,,,,,,,,,,,,,,,
1703503016.725001,1703503748.566600,47.000000,0.000000,4277.436035,4274.487305,4292.179688,4313.205078,4280.512695,4285.384766,4272.051270,4303.974121,4276.922852,4293.461426,4536.153809,4503.974121,4407.051270,4446.282227,0.000000,3.000000,61.000000,,,,0.000000,4.000000,4.000000,4.000000,4.000000,4.000000,4.000000,4.000000,4.000000,4.000000,4.000000,4.000000,4.000000,4.000000,4.000000,100.000000,,,,,,,,,,,,,,,,,,,,,,,,,,,,
1703503016.732809,1703503748.574308,48.000000,0.000000,4290.128418,4284.871582,4302.051270,4323.717773,4273.077148,4289.487305,4277.436035,4299.743652,4280.897461,4295.128418,4546.794922,4512.948730,4416.025879,4458.077148,0.000000,3.000000,61.000000,,,,0.000000,4.000000,4.000000,4.000000,4.000000,4.000000,4.000000,4.000000,4.000000,4.000000,4.000000,4.000000,4.000000,4.000000,4.000000,100.000000,,,,,,,,,,,,,,,,,12.000000,0.000000,0.430039,0.543945,-0.420471,0.585144,0.993774,-0.029300,0.052741,-14.594358,-38.564682,61.714394
1703503016.740617,1703503748.582116,49.000000,0.000000,4298.974121,4282.436035,4312.692383,4322.563965,4264.871582,4284.743652,4274.358887,4295.128418,4279.230957,4297.948730,4559.102539,4527.692383,4425.384766,4472.051270,0.000000,3.000000,61.000000,,,,0.000000,4.000000,4.000000,4.000000,4.000000,4.000000,4.000000,4.000000,4.000000,4.000000,4.000000,4.000000,4.000000,4.000000,4.000000,100.000000,,,,,,,,,,,,,,,,,,,,,,,,,,,,
1703503016.748425,1703503748.589824,50.000000,0.000000,4293.717773,4279.871582,4314.743652,4325.000000,4262.692383,4277.948730,4271.538574,4288.205078,4265.897461,4293.846191,4552.179688,4519.358887,4424.615234,4473.846191,0.000000,3.000000,61.000000,,,,0.000000,4.000000,4.000000,4.000000,4.000000,4.000000,4.000000,4.000000,4.000000,4.000000,4.000000,4.000000,4.000000,4.000000,4.000000,100.000000,,,,,,,,,,,,,,,,,,,,,,,,,,,,
1703503016.756233,1703503748.597632,51.000000,0.000000,4298.205078,4289.358887,4321.538574,4332.948730,4267.692383,4279.615234,4273.077148,4279.615234,4258.589844,4281.282227,4537.563965,4505.512695,4415.000000,4465.512695,0.000000,3.000000,61.000000,,,,0.000000,4.000000,4.000000,4.000000,4.000000,4.000000,4.000000,4.000000,4.000000,4.000000,4.000000,4.000000,4.000000,4.000000,4.000000,100.000000,,,,,,,,,,,,,,,,,,,,,,,,,,,,
1703503016.764041,1703503748.605341,52.000000,0.000000,4307.179688,4300.641113,4325.512695,4330.512695,4272.948730,4283.717773,4272.948730,4274.871582,4256.282227,4273.974121,4532.692383,4511.794922,4411.538574,4463.461426,0.000000,3.000000,61.000000,,,,0.000000,4.000000,4.000000,4.000000,4.000000,4.000000,4.000000,4.000000,4.000000,4.000000,4.000000,4.000000,4.000000,4.000000,4.000000,100.000000,,,,,,,,,,,,,,,,,13.000000,0.000000,0.430326,0.543823,-0.420166,0.585266,0.991332,-0.029789,0.055183,-14.618256,-38.474880,61.792953
1703503016.771849,1703503748.613248,53.000000,0.000000,4298.846191,4296.410156,4314.230957,4322.179688,4270.000000,4280.256348,4273.333496,4275.000000,4247.820313,4271.282227,4523.077148,4513.717773,4404.615234,4460.769043,0.000000,3.000000,61.000000,,,,0.000000,4.000000,4.000000,4.000000,4.000000,4.000000,4.000000,4.000000,4.000000,4.000000,4.000000,4.000000,4.000000,4.000000,4.000000,100.000000,,,,,,,,,,,,,,,,,,,,,,,,,,,,
1703503016.779657,1703503748.621056,54.000000,0.000000,4288.077148,4283.333496,4307.820313,4318.205078,4264.487305,4279.358887,4275.384766,4276.922852,4248.974121,4271.153809,4512.692383,4502.307617,4397.948730,4453.846191,0.000000,3.000000,61.000000,,,,0.000000,4.000000,4.000000,4.000000,4.000000,4.000000,4.000000,4.000000,4.000000,4.000000,4.000000,4.000000,4.000000,4.000000,4.000000,100.000000,,,,,,,,,,,,,,,,,,,,,,,,,,,,
1703503016.787465,1703503748.628964,55.000000,0.000000,4290.128418,4281.922852,4311.666504,4319.358887,4266.410156,4286.666504,4274.615234,4280.897461,4265.128418,4276.922852,4516.153809,4502.563965,4404.743652,4454.743652,0.000000,3.000000,61.000000,,,,0.000000,4.000000,4.000000,4.000000,4.000000,4.000000,4.000000,4.000000,4.000000,4.000000,4.000000,4.000000,4.000000,4.000000,4.000000,100.000000,,,,,,,,,,,,,,,,,,,,,,,,,,,,
1703503016.795273,1703503748.636772,56.000000,0.000000,4295.128418,4288.974121,4314.102539,4320.769043,4273.077148,4291.282227,4277.307617,4289.230957,4275.897461,4283.589844,4524.230957,4514.487305,4414.487305,4458.974121,0.000000,3.000000,61.000000,,,,0.000000,4.000000,4.000000,4.000000,4.000000,4.000000,4.000000,4.000000,4.000000,4.000000,4.000000,4.000000,4.000000,4.000000,4.000000,100.000000,,,,,,,,,,,,,,,,,14.000000,0.000000,0.430646,0.543701,-0.420166,0.585144,0.991332,-0.037602,0.052741,-14.589764,-38.560726,61.896992
1703503016.803081,1703503748.644680,57.000000,0.000000,4300.128418,4298.077148,4320.384766,4326.282227,4278.461426,4292.563965,4280.897461,4305.000000,4289.102539,4300.897461,4539.487305,4526.666504,4430.128418,4465.641113,0.000000,3.000000,61.000000,,,,0.000000,4.000000,4.000000,4.000000,4.000000,4.000000,4.000000,4.000000,4.000000,4.000000,4.000000,4.000000,4.000000,4.000000,4.000000,100.000000,,,,,,,,,,,,,,,,,,,,,,,,,,,,
1703503016.810889,1703503748.652488,58.000000,0.000000,4305.897461,4307.948730,4328.974121,4335.256348,4288.205078,4297.307617,4279.102539,4318.077148,4306.666504,4319.358887,4554.358887,4534.871582,4446.025879,4477.563965,0.000000,3.000000,61.000000,,,,0.000000,4.000000,4.000000,4.000000,4.000000,4.000000,4.000000,4.000000,4.000000,4.000000,4.000000,4.000000,4.000000,4.000000,4.000000,100.000000,,,,,,,,,,,,,,,,,,,,,,,,,,,,
1703503016.818697,1703503748.660396,59.000000,0.000000,4311.153809,4305.256348,4326.922852,4336.025879,4295.384766,4296.282227,4275.641113,4315.128418,4303.974121,4319.230957,4553.077148,4535.128418,4443.589844,4478.589844,0.000000,3.000000,61.000000,,,,0.000000,4.000000,4.000000,4.000000,4.000000,4.000000,4.000000,4.000000,4.000000,4.000000,4.000000,4.000000,4.000000,4.000000,4.000000,100.000000,,,,,,,,,,,,,,,,,,,,,,,,,,,,
1703503016.826505,1703503748.668204,60.000000,0.000000,4308.589844,4295.128418,4322.179688,4327.820313,4288.205078,4290.256348,4273.205078,4309.358887,4294.102539,4311.538574,4553.717773,4536.922852,4443.077148,4474.615234,0.000000,3.000000,61.000000,,,,0.000000,4.000000,4.000000,4.000000,4.000000,4.000000,4.000000,4.000000,4.000000,4.000000,4.000000,4.000000,4.000000,4.000000,4.000000,100.000000,,,,,,,,,,,,,,,,,15.000000,0.000000,0.431078,0.543396,-0.420288,0.585022,0.982053,-0.016115,0.043462,-14.614120,-38.771320,61.790627
1703503016.834314,1703503748.676112,61.000000,0.000000,4299.743652,4300.128418,4330.000000,4326.025879,4280.641113,4291.410156,4275.256348,4308.717773,4293.589844,4302.179688,4553.974121,4539.358887,4444.871582,4478.589844,0.000000,3.000000,61.000000,,,,0.000000,4.000000,4.000000,4.000000,4.000000,4.000000,4.000000,4.000000,4.000000,4.000000,4.000000,4.000000,4.000000,4.000000,4.000000,100.000000,,,,,,,,,,,,,,,,,,,,,,,,,,,,
1703503016.842121,1703503748.683920,62.000000,0.000000,4298.461426,4309.358887,4333.846191,4329.487305,4286.410156,4295.000000,4280.000000,4309.487305,4292.563965,4298.846191,4543.846191,4531.282227,4437.179688,4474.615234,0.000000,3.000000,61.000000,,,,0.000000,4.000000,4.000000,4.000000,4.000000,4.000000,4.000000,4.000000,4.000000,4.000000,4.000000,4.000000,4.000000,4.000000,4.000000,100.000000,,,,,,,,,,,,,,,,,,,,,,,,,,,,
1703503016.849929,1703503748.691628,63.000000,0.000000,4304.358887,4302.051270,4325.384766,4326.666504,4290.000000,4294.743652,4282.692383,4307.179688,4287.307617,4308.077148,4541.282227,4524.615234,4434.871582,4464.615234,0.000000,3.000000,61.000000,,,,0.000000,4.000000,4.000000,4.000000,4.000000,4.000000,4.000000,4.000000,4.000000,4.000000,4.000000,4.000000,4.000000,4.000000,4.000000,100.000000,,,,,,,,,,,,,,,,,,,,,,,,,,,,
1703503016.857738,1703503748.699436,64.000000,0.000000,4306.666504,4295.769043,4322.307617,4323.717773,4284.487305,4294.743652,4282.820313,4299.743652,4279.487305,4303.333496,4543.974121,4523.077148,4435.256348,4460.769043,5268.000000,3.000000,61.000000,,,,0.000000,4.000000,4.000000,4.000000,4.000000,4.000000,4.000000,4.000000,4.000000,4.000000,4.000000,4.000000,4.000000,4.000000,4.000000,100.000000,,,,,,,,,,,,,,,,,16.000000,0.000000,0.431426,0.543091,-0.420410,0.584961,0.985960,-0.027347,0.054694,-14.769375,-38.777519,61.728230
1703503016.865546,1703503748.707144,65.000000,0.000000,4300.897461,4297.051270,4322.051270,4319.230957,4285.000000,4295.000000,4280.384766,4292.179688,4272.948730,4285.128418,4533.589844,4514.102539,4427.692383,4459.358887,5514.000000,3.000000,61.000000,,,,0.000000,4.000000,4.000000,4.000000,4.000000,4.000000,4.000000,4.000000,4.000000,4.000000,4.000000,4.000000,4.000000,4.000000,4.000000,100.000000,,,,,,,,,,,,,,,,,,,,,,,,,,,,
1703503016.873354,1703503748.714952,66.000000,0.000000,4295.128418,4293.974121,4319.102539,4310.512695,4284.871582,4295.000000,4281.410156,4292.436035,4272.307617,4285.256348,4522.692383,4506.922852,4419.230957,4452.820313,5395.000000,3.000000,61.000000,,,,0.000000,4.000000,4.000000,4.000000,4.000000,4.000000,4.000000,4.000000,4.000000,4.000000,4.000000,4.000000,4.000000,4.000000,4.000000,100.000000,,,,,,,,,,,,,,,,,,,,,,,,,,,,
1703503016.881162,1703503748.722660,67.000000,0.000000,4298.077148,4292.051270,4318.333496,4307.692383,4277.692383,4295.384766,4283.717773,4295.769043,4282.436035,4295.128418,4527.820313,4510.641113,4417.563965,4449.871582,5374.000000,3.000000,61.000000,,,,0.000000,4.000000,4.000000,4.000000,4.000000,4.000000,4.000000,4.000000,4.000000,4.000000,4.000000,4.000000,4.000000,4.000000,4.000000,100.000000,,,,,,,,,,,,,,,,,,,,,,,,,,,,
1703503016.888970,1703503748.730468,68.000000,0.000000,4298.077148,4292.948730,4317.563965,4309.358887,4278.461426,4296.666504,4283.077148,4304.102539,4297.563965,4295.512695,4534.230957,4512.692383,4420.256348,4455.897461,5308.000000,3.000000,61.000000,,,,0.000000,4.000000,4.000000,4.000000,4.000000,4.000000,4.000000,4.000000,4.000000,4.000000,4.000000,4.000000,4.000000,4.000000,4.000000,100.000000,,,,,,,,,,,,,,,,,17.000000,0.000000,0.431509,0.543091,-0.420410,0.584900,1.000122,-0.024417,0.051276,-14.792438,-38.599770,61.605408
1703503016.896778,1703503748.738176,69.000000,0.000000,4293.717773,4291.025879,4314.871582,4307.820313,4280.769043,4297.692383,4282.179688,4312.820313,4303.846191,4292.948730,4528.717773,4506.538574,4418.974121,4452.820313,4963.000000,3.000000,61.000000,,,,0.000000,4.000000,4.000000,4.000000,4.000000,4.000000,4.000000,4.000000,4.000000,4.000000,4.000000,4.000000,4.000000,4.000000,4.000000,100.000000,,,,,,,,,,,,,,,,,,,,,,,,,,,,
1703503016.904586,1703503748.746084,70.000000,0.000000,4293.333496,4291.794922,4311.153809,4306.666504,4278.333496,4293.077148,4278.077148,4304.102539,4303.333496,4297.179688,4526.025879,4502.820313,4415.897461,4442.179688,3909.000000,3.000000,61.000000,,,,0.000000,4.000000,4.000000,4.000000,4.000000,4.000000,4.000000,4.000000,4.000000,4.000000,4.000000,4.000000,4.000000,4.000000,4.000000,100.000000,,,,,,,,,,,,,,,,,,,,,,,,,,,,
1703503016.912394,1703503748.753892,71.000000,0.000000,4294.487305,4293.205078,4312.051270,4309.615234,4280.384766,4285.384766,4274.230957,4293.333496,4303.461426,4302.436035,4532.179688,4509.615234,4419.871582,4447.307617,5045.000000,3.000000,61.000000,,,,0.000000,4.000000,4.000000,4.000000,4.000000,4.000000,4.000000,4.000000,4.000000,4.000000,4.000000,4.000000,4.000000,4.000000,4.000000,100.000000,,,,,,,,,,,,,,,,,,,,,,,,,,,,
1703503016.920202,1703503748.761700,72.000000,0.000000,4298.846191,4291.538574,4324.615234,4316.410156,4282.179688,4284.230957,4275.769043,4302.179688,4302.948730,4298.589844,4540.000000,4520.641113,4434.230957,4465.256348,5020.000000,3.000000,61.000000,,,,0.000000,4.000000,4.000000,4.000000,4.000000,4.000000,4.000000,4.000000,4.000000,4.000000,4.000000,4.000000,4.000000,4.000000,4.000000,100.000000,,,,,,,,,,,,,,,,,18.000000,0.000000,0.431504,0.543152,-0.420166,0.585022,0.997680,-0.030765,0.060066,-14.646527,-38.573124,61.544865
1703503016.928010,1703503748.769408,73.000000,0.000000,4304.871582,4293.077148,4332.307617,4320.769043,4280.769043,4284.102539,4274.358887,4309.871582,4299.102539,4297.563965,4548.974121,4528.589844,4444.871582,4472.051270,5487.000000,3.000000,61.000000,,,,0.000000,4.000000,4.000000,4.000000,4.000000,4.000000,4.000000,4.000000,4.000000,4.000000,4.000000,4.000000,4.000000,4.000000,4.000000,100.000000,,,,,,,,,,,,,,,,,,,,,,,,,,,,
1703503016.935818,1703503748.777216,74.000000,0.000000,4304.358887,4295.384766,4327.307617,4319.871582,4280.512695,4277.051270,4270.769043,4300.641113,4289.230957,4294.102539,4545.769043,4524.230957,4434.743652,4463.717773,6047.000000,3.000000,61.000000,,,,0.000000,4.000000,4.000000,4.000000,4.000000,4.000000,4.000000,4.000000,4.000000,4.000000,4.000000,4.000000,4.000000,4.000000,4.000000,100.000000,,,,,,,,,,,,,,,,,,,,,,,,,,,,
1703503016.943626,1703503748.784924,75.000000,0.000000,4302.051270,4295.000000,4322.307617,4321.025879,4279.743652,4278.717773,4273.461426,4290.512695,4280.641113,4279.487305,4534.358887,4512.051270,4421.794922,4459.230957,6325.000000,3.000000,61.000000,,,,0.000000,4.000000,4.000000,4.000000,4.000000,4.000000,4.000000,4.000000,4.000000,4.000000,4.000000,4.000000,4.000000,4.000000,4.000000,100.000000,,,,,,,,,,,,,,,,,,,,,,,,,,,,
1703503016.951434,1703503748.792832,76.000000,0.000000,4299.871582,4293.461426,4319.358887,4323.461426,4278.974121,4290.000000,4278.077148,4286.282227,4276.025879,4273.077148,4531.153809,4505.384766,4426.282227,4457.307617,6840.000000,3.000000,61.000000,,,,0.000000,4.000000,4.000000,4.000000,4.000000,4.000000,4.000000,4.000000,4.000000,4.000000,4.000000,4.000000,4.000000,4.000000,4.000000,100.000000,,,,,,,,,,,,,,,,,19.000000,0.000000,0.431654,0.543457,-0.419617,0.585022,1.004517,-0.019045,0.059578,-14.731874,-38.715813,61.440380
1703503016.959242,1703503748.800640,77.000000,0.000000,4295.256348,4291.666504,4314.743652,4323.461426,4282.436035,4296.666504,4283.205078,4279.487305,4267.051270,4272.179688,4525.897461,4503.846191,4425.256348,4447.307617,7227.000000,3.000000,61.000000,,,,0.000000,4.000000,4.000000,4.000000,4.000000,4.000000,4.000000,4.000000,4.000000,4.000000,4.000000,4.000000,4.000000,4.000000,4.000000,100.000000,,,,,,,,,,,,,,,,,,,,,,,,,,,,
1703503016.967050,1703503748.808548,78.000000,0.000000,4293.333496,4291.794922,4313.461426,4324.615234,4292.436035,4303.717773,4289.230957,4274.358887,4263.846191,4271.794922,4524.358887,4504.487305,4420.641113,4447.051270,6047.000000,3.000000,61.000000,,,,0.000000,4.000000,4.000000,4.000000,4.000000,4.000000,4.000000,4.000000,4.000000,4.000000,4.000000,4.000000,4.000000,4.000000,4.000000,100.000000,,,,,,,,,,,,,,,,,,,,,,,,,,,,
1703503016.974858,1703503748.816356,79.000000,0.000000,4293.717773,4295.000000,4315.384766,4329.615234,4297.436035,4312.179688,4293.461426,4276.794922,4274.358887,4279.102539,4533.077148,4507.436035,4428.077148,4455.769043,6325.000000,3.000000,61.000000,,,,0.000000,4.000000,4.000000,4.000000,4.000000,4.000000,4.000000,4.000000,4.000000,4.000000,4.000000,4.000000,4.000000,4.000000,4.000000,100.000000,,,,,,,,,,,,,,,,,,,,,,,,,,,,
1703503016.982666,1703503748.824263,80.000000,0.000000,4299.615234,4298.717773,4322.692383,4338.077148,4295.512695,4312.307617,4296.666504,4290.512695,4288.589844,4293.589844,4543.589844,4513.461426,4436.666504,4463.205078,6840.000000,3.000000,61.000000,,,,0.000000,4.000000,4.000000,4.000000,4.000000,4.000000,4.000000,4.000000,4.000000,4.000000,4.000000,4.000000,4.000000,4.000000,4.000000,100.000000,,,,,,,,,,,,,,,,,20.000000,0.000000,0.432093,0.543701,-0.419189,0.584778,1.001587,-0.035161,0.059578,-14.742021,-38.694229,61.463009
1703503016.990475,1703503748.832071,81.000000,0.000000,4307.179688,4301.666504,4327.436035,4344.487305,4299.615234,4306.410156,4297.307617,4310.769043,4307.948730,4306.666504,4554.102539,4521.025879,4443.077148,4471.025879,7227.000000,3.000000,61.000000,,,,0.000000,4.000000,4.000000,4.000000,4.000000,4.000000,4.000000,4.000000,4.000000,4.000000,4.000000,4.000000,4.000000,4.000000,4.000000,100.000000,,,,,,,,,,,,,,,,,,,,,,,,,,,,
1703503016.998283,1703503748.839979,82.000000,0.000000,4306.922852,4305.769043,4326.025879,4342.820313,4304.615234,4304.615234,4295.641113,4324.230957,4324.615234,4312.179688,4558.846191,4527.692383,4444.358887,4471.794922,6047.000000,3.000000,61.000000,,,,0.000000,4.000000,4.000000,4.000000,4.000000,4.000000,4.000000,4.000000,4.000000,4.000000,4.000000,4.000000,4.000000,4.000000,4.000000,100.000000,,,,,,,,,,,,,,,,,,,,,,,,,,,,
1703503017.006091,1703503748.847787,83.000000,0.000000,4313.461426,4311.538574,4330.384766,4345.384766,4301.538574,4304.102539,4293.461426,4331.666504,4331.538574,4320.000000,4565.641113,4538.333496,4451.794922,4477.051270,6325.000000,3.000000,61.000000,,,,0.000000,4.000000,4.000000,4.000000,4.000000,4.000000,4.000000,4.000000,4.000000,4.000000,4.000000,4.000000,4.000000,4.000000,4.000000,100.000000,,,,,,,,,,,,,,,,,,,,,,,,,,,,
1703503017.013899,1703503748.855695,84.000000,0.000000,4327.563965,4312.692383,4338.333496,4353.717773,4296.922852,4299.487305,4290.769043,4337.692383,4333.205078,4325.128418,4582.436035,4551.922852,4469.871582,4493.333496,6840.000000,3.000000,61.000000,,,,0.000000,4.000000,4.000000,4.000000,4.000000,4.000000,4.000000,4.000000,4.000000,4.000000,4.000000,4.000000,4.000000,4.000000,4.000000,100.000000,,,,,,,,,,,,,,,,,21.000000,0.000000,0.432565,0.543823,-0.418884,0.584534,1.001587,-0.015139,0.065438,-14.834485,-38.758141,61.566708
1703503017.021707,1703503748.863503,85.000000,0.000000,4329.102539,4309.102539,4342.436035,4354.102539,4295.641113,4293.461426,4284.102539,4330.128418,4321.153809,4309.487305,4582.820313,4550.512695,4469.615234,4490.256348,7227.000000,3.000000,61.000000,,,,0.000000,4.000000,4.000000,4.000000,4.000000,4.000000,4.000000,4.000000,4.000000,4.000000,4.000000,4.000000,4.000000,4.000000,4.000000,100.000000,,,,,,,,,,,,,,,,,,,,,,,,,,,,
1703503017.029515,1703503748.871411,86.000000,0.000000,4321.282227,4310.897461,4343.717773,4349.871582,4296.410156,4292.307617,4280.000000,4315.000000,4301.410156,4292.179688,4567.563965,4537.307617,4456.922852,4474.743652,6047.000000,3.000000,61.000000,,,,0.000000,4.000000,4.000000,4.000000,4.000000,4.000000,4.000000,4.000000,4.000000,4.000000,4.000000,4.000000,4.000000,4.000000,4.000000,100.000000,,,,,,,,,,,,,,,,,,,,,,,,,,,,
1703503017.037323,1703503748.879219,87.000000,0.000000,4320.512695,4313.461426,4343.077148,4349.102539,4294.871582,4293.205078,4281.538574,4307.692383,4294.743652,4292.307617,4560.256348,4534.743652,4451.922852,4475.641113,6325.000000,3.000000,61.000000,,,,0.000000,4.000000,4.000000,4.000000,4.000000,4.000000,4.000000,4.000000,4.000000,4.000000,4.000000,4.000000,4.000000,4.000000,4.000000,100.000000,,,,,,,,,,,,,,,,,,,,,,,,,,,,
1703503017.045131,1703503748.886927,88.000000,0.000000,4324.102539,4314.871582,4342.692383,4353.717773,4297.051270,4294.102539,4282.436035,4307.820313,4294.102539,4295.128418,4561.025879,4538.974121,4451.025879,4478.589844,6840.000000,3.000000,61.000000,,,,0.000000,4.000000,4.000000,4.000000,4.000000,4.000000,4.000000,4.000000,4.000000,4.000000,4.000000,4.000000,4.000000,4.000000,4.000000,100.000000,,,,,,,,,,,,,,,,,22.000000,0.000000,0.432942,0.543945,-0.418762,0.584229,0.989867,-0.014162,0.066414,-14.701036,-38.732327,61.443371
1703503017.052939,1703503748.894735,89.000000,0.000000,4317.820313,4316.410156,4342.563965,4354.102539,4305.128418,4299.230957,4285.512695,4307.307617,4293.461426,4294.615234,4568.205078,4538.461426,4455.769043,4475.512695,7227.000000,3.000000,61.000000,,,,0.000000,4.000000,4.000000,4.000000,4.000000,4.000000,4.000000,4.000000,4.000000,4.000000,4.000000,4.000000,4.000000,4.000000,4.000000,100.000000,,,,,,,,,,,,,,,,,,,,,,,,,,,,
1703503017.060747,1703503748.902443,90.000000,0.000000,4312.051270,4313.461426,4341.410156,4346.538574,4306.794922,4303.717773,4286.538574,4300.641113,4292.948730,4286.282227,4568.846191,4533.333496,4456.666504,4474.230957,6047.000000,3.000000,61.000000,,,,0.000000,4.000000,4.000000,4.000000,4.000000,4.000000,4.000000,4.000000,4.000000,4.000000,4.000000,4.000000,4.000000,4.000000,4.000000,100.000000,,,,,,,,,,,,,,,,,,,,,,,,,,,,
1703503017.068555,1703503748.910251,91.000000,0.000000,4324.230957,4314.230957,4338.589844,4343.205078,4303.974121,4304.871582,4280.769043,4293.974121,4291.153809,4279.230957,4560.512695,4531.538574,4449.743652,4476.282227,6325.000000,3.000000,61.000000,,,,0.000000,4.000000,4.000000,4.000000,4.000000,4.000000,4.000000,4.000000,4.000000,4.000000,4.000000,4.000000,4.000000,4.000000,4.000000,100.000000,,,,,,,,,,,,,,,,,,,,,,,,,,,,
1703503017.076363,1703503748.917959,92.000000,0.000000,4334.615234,4320.769043,4343.461426,4351.922852,4305.769043,4304.102539,4283.333496,4294.230957,4292.436035,4291.922852,4566.666504,4537.179688,4455.769043,4485.769043,6840.000000,3.000000,61.000000,,,,0.000000,4.000000,4.000000,4.000000,4.000000,4.000000,4.000000,4.000000,4.000000,4.000000,4.000000,4.000000,4.000000,4.000000,4.000000,100.000000,,,,,,,,,,,,,,,,,23.000000,0.000000,0.433124,0.543884,-0.418823,0.584106,0.998657,-0.016115,0.066414,-14.680933,-38.559093,61.432365
1703503017.084171,1703503748.925767,93.000000,0.000000,4332.820313,4327.563965,4353.589844,4362.948730,4309.487305,4306.282227,4293.717773,4295.897461,4297.179688,4305.128418,4576.025879,4542.436035,4465.641113,4495.000000,7227.000000,3.000000,61.000000,,,,0.000000,4.000000,4.000000,4.000000,4.000000,4.000000,4.000000,4.000000,4.000000,4.000000,4.000000,4.000000,4.000000,4.000000,4.000000,100.000000,,,,,,,,,,,,,,,,,,,,,,,,,,,,
1703503017.091979,1703503748.933475,94.000000,0.000000,4333.974121,4334.871582,4352.948730,4367.307617,4310.769043,4308.333496,4288.974121,4298.077148,4303.974121,4301.666504,4569.871582,4537.563965,4460.000000,4488.461426,6047.000000,3.000000,61.000000,,,,0.000000,4.000000,4.000000,4.000000,4.000000,4.000000,4.000000,4.000000,4.000000,4.000000,4.000000,4.000000,4.000000,4.000000,4.000000,100.000000,,,,,,,,,,,,,,,,,,,,,,,,,,,,
1703503017.099787,1703503748.941383,95.000000,0.000000,4337.307617,4335.641113,4348.717773,4366.666504,4309.358887,4302.051270,4278.717773,4301.666504,4308.846191,4298.461426,4567.948730,4533.717773,4454.102539,4477.436035,6325.000000,3.000000,61.000000,,,,0.000000,4.000000,4.000000,4.000000,4.000000,4.000000,4.000000,4.000000,4.000000,4.000000,4.000000,4.000000,4.000000,4.000000,4.000000,100.000000,,,,,,,,,,,,,,,,,,,,,,,,,,,,
1703503017.107595,1703503748.949191,96.000000,0.000000,4336.538574,4331.666504,4354.743652,4366.922852,4311.666504,4296.153809,4280.897461,4311.153809,4316.153809,4305.897461,4580.769043,4543.589844,4462.436035,4482.436035,6840.000000,3.000000,61.000000,,,,0.000000,4.000000,4.000000,4.000000,4.000000,4.000000,4.000000,4.000000,4.000000,4.000000,4.000000,4.000000,4.000000,4.000000,4.000000,100.000000,,,,,,,,,,,,,,,,,24.000000,0.000000,0.433119,0.543823,-0.418823,0.584167,1.002075,-0.020999,0.058113,-14.729506,-38.553185,61.489128
1703503017.115403,1703503748.957099,97.000000,0.000000,4334.871582,4333.846191,4359.615234,4369.487305,4312.692383,4296.282227,4281.410156,4327.307617,4324.615234,4309.487305,4590.641113,4556.794922,4474.358887,4495.256348,7227.000000,3.000000,61.000000,,,,0.000000,4.000000,4.000000,4.000000,4.000000,4.000000,4.000000,4.000000,4.000000,4.000000,4.000000,4.000000,4.000000,4.000000,4.000000,100.000000,1.000000,100.000000,4.000000,4.000000,4.000000,4.000000,4.000000,4.000000,4.000000,4.000000,4.000000,4.000000,4.000000,4.000000,4.000000,4.000000,,,,,,,,,,,,
1703503017.123212,1703503748.964907,98.000000,0.000000,4330.769043,4328.589844,4353.205078,4356.025879,4300.897461,4296.153809,4278.846191,4328.589844,4318.974121,4302.179688,4590.000000,4554.230957,4473.077148,4495.384766,6047.000000,3.000000,61.000000,,,,0.000000,4.000000,4.000000,4.000000,4.000000,4.000000,4.000000,4.000000,4.000000,4.000000,4.000000,4.000000,4.000000,4.000000,4.000000,100.000000,,,,,,,,,,,,,,,,,,,,,,,,,,,,
1703503017.131019,1703503748.972715,99.000000,0.000000,4324.487305,4313.717773,4344.102539,4329.230957,4290.897461,4293.589844,4280.000000,4315.128418,4310.000000,4295.384766,4584.487305,4540.641113,4462.692383,4489.743652,6325.000000,3.000000,61.000000,,,,0.000000,4.000000,4.000000,4.000000,4.000000,4.000000,4.000000,4.000000,4.000000,4.000000,4.000000,4.000000,4.000000,4.000000,4.000000,100.000000,,,,,,,,,,,,,,,,,,,,,,,,,,,,
1703503017.138828,1703503748.980423,100.000000,0.000000,4321.794922,4313.205078,4343.333496,4320.128418,4294.871582,4295.512695,4280.769043,4312.051270,4307.307617,4290.512695,4575.256348,4536.538574,4452.692383,4485.769043,6840.000000,3.000000,61.000000,,,,0.000000,4.000000,4.000000,4.000000,4.000000,4.000000,4.000000,4.000000,4.000000,4.000000,4.000000,4.000000,4.000000,4.000000,4.000000,100.000000,,,,,,,,,,,,,,,,,25.000000,0.000000,0.432977,0.543823,-0.418884,0.584229,1.002564,-0.037114,0.058601,-14.839889,-38.481201,61.723549
1703503017.146636,1703503748.988331,101.000000,0.000000,4324.487305,4323.974121,4348.589844,4327.051270,4299.743652,4299.615234,4279.487305,4310.128418,4300.512695,4284.230957,4569.230957,4535.641113,4452.051270,4479.102539,7227.000000,3.000000,61.000000,,,,0.000000,4.000000,4.000000,4.000000,4.000000,4.000000,4.000000,4.000000,4.000000,4.000000,4.000000,4.000000,4.000000,4.000000,4.000000,100.000000,,,,,,,,,,,,,,,,,,,,,,,,,,,,
1703503017.154444,1703503748.996139,102.000000,0.000000,4328.077148,4327.692383,4346.282227,4327.307617,4299.230957,4303.589844,4280.897461,4296.153809,4293.333496,4282.179688,4571.922852,4525.512695,4455.897461,4474.871582,6047.000000,3.000000,61.000000,,,,0.000000,4.000000,4.000000,4.000000,4.000000,4.000000,4.000000,4.000000,4.000000,4.000000,4.000000,4.000000,4.000000,4.000000,4.000000,100.000000,,,,,,,,,,,,,,,,,,,,,,,,,,,,
1703503017.162252,1703503749.004046,103.000000,0.000000,4326.153809,4327.179688,4340.000000,4323.846191,4300.128418,4306.538574,4283.461426,4284.358887,4289.615234,4277.307617,4566.025879,4516.794922,4444.487305,4468.205078,6325.000000,3.000000,61.000000,,,,0.000000,4.000000,4.000000,4.000000,4.000000,4.000000,4.000000,4.000000,4.000000,4.000000,4.000000,4.000000,4.000000,4.000000,4.000000,100.000000,,,,,,,,,,,,,,,,,,,,,,,,,,,,
1703503017.170060,1703503749.011854,104.000000,0.000000,4325.256348,4332.179688,4341.794922,4326.666504,4300.000000,4307.436035,4283.461426,4278.333496,4286.794922,4270.897461,4558.205078,4519.743652,4433.974121,4464.743652,6840.000000,3.000000,61.000000,,,,0.000000,4.000000,4.000000,4.000000,4.000000,4.000000,4.000000,4.000000,4.000000,4.000000,4.000000,4.000000,4.000000,4.000000,4.000000,100.000000,,,,,,,,,,,,,,,,,26.000000,0.000000,0.432865,0.543640,-0.419067,0.584351,0.993285,-0.020022,0.058113,-14.922566,-38.483078,61.634529
1703503017.177868,1703503749.019762,105.000000,0.000000,4326.025879,4335.384766,4342.307617,4324.615234,4297.436035,4307.179688,4282.051270,4277.563965,4295.000000,4278.077148,4563.205078,4523.205078,4440.641113,4468.846191,7227.000000,3.000000,61.000000,,,,0.000000,4.000000,4.000000,4.000000,4.000000,4.000000,4.000000,4.000000,4.000000,4.000000,4.000000,4.000000,4.000000,4.000000,4.000000,100.000000,,,,,,,,,,,,,,,,,,,,,,,,,,,,
1703503017.185676,1703503749.027570,106.000000,0.000000,4322.948730,4330.128418,4335.384766,4320.769043,4295.897461,4301.025879,4280.769043,4285.384766,4307.948730,4285.128418,4567.436035,4518.717773,4444.230957,4468.333496,6047.000000,3.000000,61.000000,,,,0.000000,4.000000,4.000000,4.000000,4.000000,4.000000,4.000000,4.000000,4.000000,4.000000,4.000000,4.000000,4.000000,4.000000,4.000000,100.000000,,,,,,,,,,,,,,,,,,,,,,,,,,,,
1703503017.193484,1703503749.035478,107.000000,0.000000,4322.436035,4325.128418,4336.410156,4324.743652,4296.410156,4294.743652,4277.948730,4293.846191,4310.384766,4286.153809,4573.974121,4525.128418,4449.615234,4472.436035,6325.000000,3.000000,61.000000,,,,0.000000,4.000000,4.000000,4.000000,4.000000,4.000000,4.000000,4.000000,4.000000,4.000000,4.000000,4.000000,4.000000,4.000000,4.000000,100.000000,,,,,,,,,,,,,,,,,,,,,,,,,,,,
1703503017.201292,1703503749.043286,108.000000,0.000000,4326.153809,4325.000000,4345.128418,4328.846191,4294.102539,4293.974121,4276.666504,4298.205078,4310.384766,4284.487305,4576.666504,4538.589844,4451.538574,4477.051270,6840.000000,3.000000,61.000000,,,,0.000000,4.000000,4.000000,4.000000,4.000000,4.000000,4.000000,4.000000,4.000000,4.000000,4.000000,4.000000,4.000000,4.000000,4.000000,100.000000,,,,,,,,,,,,,,,,,27.000000,0.000000,0.432458,0.543579,-0.419312,0.584534,0.986449,-0.032230,0.052741,-14.930310,-38.384773,61.487743
1703503017.209100,1703503749.050994,109.000000,0.000000,4325.256348,4321.025879,4345.769043,4328.461426,4290.128418,4290.384766,4278.077148,4306.410156,4311.666504,4280.769043,4567.692383,4538.077148,4437.692383,4472.051270,7227.000000,3.000000,61.000000,,,,0.000000,4.000000,4.000000,4.000000,4.000000,4.000000,4.000000,4.000000,4.000000,4.000000,4.000000,4.000000,4.000000,4.000000,4.000000,100.000000,,,,,,,,,,,,,,,,,,,,,,,,,,,,
1703503017.216908,1703503749.058802,110.000000,0.000000,4317.436035,4311.538574,4341.282227,4325.128418,4289.102539,4287.563965,4278.974121,4315.256348,4310.897461,4285.000000,4569.102539,4536.922852,4435.769043,4471.282227,6047.000000,3.000000,61.000000,,,,0.000000,4.000000,4.000000,4.000000,4.000000,4.000000,4.000000,4.000000,4.000000,4.000000,4.000000,4.000000,4.000000,4.000000,4.000000,100.000000,,,,,,,,,,,,,,,,,,,,,,,,,,,,
1703503017.224716,1703503749.066510,111.000000,0.000000,4311.025879,4307.692383,4340.256348,4322.179688,4288.205078,4291.410156,4280.512695,4315.512695,4311.922852,4289.102539,4576.410156,4539.487305,4447.820313,4471.153809,6325.000000,3.000000,61.000000,,,,0.000000,4.000000,4.000000,4.000000,4.000000,4.000000,4.000000,4.000000,4.000000,4.000000,4.000000,4.000000,4.000000,4.000000,4.000000,100.000000,,,,,,,,,,,,,,,,,,,,,,,,,,,,
1703503017.232524,1703503749.074318,112.000000,0.000000,4308.974121,4313.205078,4333.974121,4323.333496,4291.282227,4295.384766,4282.563965,4313.333496,4313.589844,4284.230957,4571.794922,4531.410156,4444.615234,4461.153809,6840.000000,3.000000,61.000000,,,,0.000000,4.000000,4.000000,4.000000,4.000000,4.000000,4.000000,4.000000,4.000000,4.000000,4.000000,4.000000,4.000000,4.000000,4.000000,100.000000,,,,,,,,,,,,,,,,,28.000000,0.000000,0.432233,0.543701,-0.419556,0.584412,0.985960,-0.029789,0.054206,-15.053946,-38.479630,61.505634
1703503017.240332,1703503749.082026,113.000000,0.000000,4308.717773,4318.974121,4326.153809,4326.794922,4295.769043,4295.128418,4282.820313,4308.205078,4304.487305,4277.179688,4564.615234,4514.615234,4433.589844,4456.666504,7227.000000,3.000000,61.000000,,,,0.000000,4.000000,4.000000,4.000000,4.000000,4.000000,4.000000,4.000000,4.000000,4.000000,4.000000,4.000000,4.000000,4.000000,4.000000,100.000000,,,,,,,,,,,,,,,,,,,,,,,,,,,,
1703503017.248140,1703503749.089834,114.000000,0.000000,4310.641113,4318.846191,4328.589844,4328.717773,4293.077148,4295.897461,4281.538574,4296.666504,4291.538574,4274.487305,4565.128418,4504.358887,4434.102539,4459.743652,6047.000000,3.000000,61.000000,,,,0.000000,4.000000,4.000000,4.000000,4.000000,4.000000,4.000000,4.000000,4.000000,4.000000,4.000000,4.000000,4.000000,4.000000,4.000000,100.000000,,,,,,,,,,,,,,,,,,,,,,,,,,,,
1703503017.255948,1703503749.097542,115.000000,0.000000,4311.794922,4320.128418,4328.974121,4327.051270,4292.436035,4296.025879,4278.846191,4291.282227,4296.410156,4283.333496,4573.333496,4508.461426,4444.487305,4465.641113,6325.000000,3.000000,61.000000,,,,0.000000,4.000000,4.000000,4.000000,4.000000,4.000000,4.000000,4.000000,4.000000,4.000000,4.000000,4.000000,4.000000,4.000000,4.000000,100.000000,,,,,,,,,,,,,,,,,,,,,,,,,,,,
1703503017.263756,1703503749.105350,116.000000,0.000000,4312.692383,4323.974121,4325.128418,4326.410156,4296.153809,4293.974121,4278.333496,4297.307617,4305.641113,4293.717773,4580.256348,4517.948730,4452.179688,4473.717773,6840.000000,3.000000,61.000000,,,,0.000000,4.000000,4.000000,4.000000,4.000000,4.000000,4.000000,4.000000,4.000000,4.000000,4.000000,4.000000,4.000000,4.000000,4.000000,100.000000,,,,,,,,,,,,,,,,,29.000000,0.000000,0.432061,0.543762,-0.419739,0.584351,0.994262,-0.034184,0.056159,-14.998551,-38.414997,61.571739
1703503017.271565,1703503749.113058,117.000000,0.000000,4314.743652,4327.051270,4324.615234,4333.333496,4301.410156,4294.230957,4278.205078,4296.282227,4296.153809,4283.461426,4570.769043,4512.692383,4445.256348,4468.205078,7227.000000,3.000000,61.000000,,,,0.000000,4.000000,4.000000,4.000000,4.000000,4.000000,4.000000,4.000000,4.000000,4.000000,4.000000,4.000000,4.000000,4.000000,4.000000,100.000000,,,,,,,,,,,,,,,,,,,,,,,,,,,,
1703503017.279373,1703503749.120866,118.000000,0.000000,4314.358887,4328.717773,4325.128418,4340.128418,4303.461426,4295.256348,4274.487305,4286.922852,4288.077148,4272.692383,4561.922852,4502.563965,4434.615234,4457.563965,6047.000000,3.000000,61.000000,,,,0.000000,4.000000,4.000000,4.000000,4.000000,4.000000,4.000000,4.000000,4.000000,4.000000,4.000000,4.000000,4.000000,4.000000,4.000000,100.000000,,,,,,,,,,,,,,,,,,,,,,,,,,,,
1703503017.287181,1703503749.128574,119.000000,0.000000,4313.333496,4325.512695,4332.563965,4338.589844,4297.436035,4292.179688,4267.436035,4290.769043,4300.384766,4285.897461,4574.615234,4516.282227,4443.461426,4466.538574,6325.000000,3.000000,61.000000,,,,0.000000,4.000000,4.000000,4.000000,4.000000,4.000000,4.000000,4.000000,4.000000,4.000000,4.000000,4.000000,4.000000,4.000000,4.000000,100.000000,,,,,,,,,,,,,,,,,,,,,,,,,,,,
1703503017.294989,1703503749.136382,120.000000,0.000000,4321.922852,4325.769043,4343.077148,4342.948730,4294.743652,4286.538574,4264.487305,4302.563965,4315.128418,4297.179688,4590.000000,4533.589844,4459.487305,4481.922852,6840.000000,3.000000,61.000000,,,,0.000000,4.000000,4.000000,4.000000,4.000000,4.000000,4.000000,4.000000,4.000000,4.000000,4.000000,4.000000,4.000000,4.000000,4.000000,100.000000,,,,,,,,,,,,,,,,,30.000000,0.000000,0.431960,0.543701,-0.419922,0.584351,0.998169,-0.037114,0.053229,-15.065363,-38.456833,61.697899
1703503017.302797,1703503749.144090,121.000000,0.000000,4330.000000,4332.436035,4345.512695,4351.410156,4295.128418,4280.000000,4266.410156,4302.051270,4309.358887,4289.102539,4584.743652,4527.692383,4450.769043,4475.384766,7227.000000,3.000000,61.000000,,,,0.000000,4.000000,4.000000,4.000000,4.000000,4.000000,4.000000,4.000000,4.000000,4.000000,4.000000,4.000000,4.000000,4.000000,4.000000,100.000000,,,,,,,,,,,,,,,,,,,,,,,,,,,,
1703503017.310605,1703503749.151898,122.000000,0.000000,4323.589844,4332.179688,4341.410156,4348.333496,4288.333496,4277.563965,4265.897461,4291.922852,4296.538574,4277.948730,4569.102539,4518.205078,4431.282227,4463.717773,6047.000000,3.000000,61.000000,,,,0.000000,4.000000,4.000000,4.000000,4.000000,4.000000,4.000000,4.000000,4.000000,4.000000,4.000000,4.000000,4.000000,4.000000,4.000000,100.000000,,,,,,,,,,,,,,,,,,,,,,,,,,,,
1703503017.318413,1703503749.159607,123.000000,0.000000,4312.179688,4317.307617,4336.922852,4341.538574,4285.769043,4285.000000,4268.974121,4293.589844,4296.538574,4276.153809,4566.538574,4519.487305,4433.589844,4469.743652,6325.000000,3.000000,61.000000,,,,0.000000,4.000000,4.000000,4.000000,4.000000,4.000000,4.000000,4.000000,4.000000,4.000000,4.000000,4.000000,4.000000,4.000000,4.000000,100.000000,,,,,,,,,,,,,,,,,,,,,,,,,,,,
1703503017.326221,1703503749.167514,124.000000,0.000000,4307.820313,4305.769043,4335.769043,4338.589844,4290.384766,4295.000000,4283.974121,4309.230957,4302.563965,4279.230957,4572.948730,4524.230957,4438.077148,4475.769043,6840.000000,3.000000,61.000000,,,,0.000000,4.000000,4.000000,4.000000,4.000000,4.000000,4.000000,4.000000,4.000000,4.000000,4.000000,4.000000,4.000000,4.000000,4.000000,100.000000,,,,,,,,,,,,,,,,,31.000000,0.000000,0.431670,0.543884,-0.419983,0.584351,0.985472,-0.030765,0.047369,-14.975493,-38.444481,61.711441
1703503017.334029,1703503749.175322,125.000000,0.000000,4311.282227,4317.179688,4335.256348,4337.436035,4292.692383,4298.205078,4290.897461,4314.230957,4302.820313,4279.743652,4573.589844,4527.051270,4429.358887,4473.461426,7227.000000,3.000000,61.000000,,,,0.000000,4.000000,4.000000,4.000000,4.000000,4.000000,4.000000,4.000000,4.000000,4.000000,4.000000,4.000000,4.000000,4.000000,4.000000,100.000000,,,,,,,,,,,,,,,,,,,,,,,,,,,,
1703503017.341837,1703503749.183230,126.000000,0.000000,4311.025879,4327.692383,4330.641113,4337.820313,4295.897461,4297.436035,4283.333496,4300.256348,4297.692383,4273.461426,4566.794922,4521.025879,4425.384766,4468.333496,6047.000000,3.000000,61.000000,,,,0.000000,4.000000,4.000000,4.000000,4.000000,4.000000,4.000000,4.000000,4.000000,4.000000,4.000000,4.000000,4.000000,4.000000,4.000000,100.000000,,,,,,,,,,,,,,,,,,,,,,,,,,,,
1703503017.349645,1703503749.191038,127.000000,0.000000,4309.358887,4320.128418,4324.743652,4338.333496,4296.410156,4296.282227,4279.615234,4284.487305,4291.666504,4269.743652,4562.563965,4508.589844,4430.000000,4463.333496,61.000000,3.000000,61.000000,,,,0.000000,4.000000,4.000000,4.000000,4.000000,4.000000,4.000000,4.000000,4.000000,4.000000,4.000000,4.000000,4.000000,4.000000,4.000000,100.000000,,,,,,,,,,,,,,,,,,,,,,,,,,,,
1703503017.357453,1703503749.198946,0.000000,0.000000,4321.025879,4321.538574,4327.307617,4341.282227,4294.230957,4294.615234,4278.333496,4279.358887,4296.538574,4280.000000,4574.102539,4508.974121,4440.641113,4470.641113,5258.000000,3.000000,61.000000,,,,0.000000,4.000000,4.000000,4.000000,4.000000,4.000000,4.000000,4.000000,4.000000,4.000000,4.000000,4.000000,4.000000,4.000000,4.000000,100.000000,,,,,,,,,,,,,,,,,0.000000,0.000000,0.431533,0.543945,-0.420044,0.584351,0.993774,-0.016604,0.047857,-15.094610,-38.366699,61.790298
1703503017.365261,1703503749.206754,1.000000,0.000000,4332.692383,4330.384766,4335.897461,4347.179688,4295.641113,4295.769043,4276.666504,4277.692383,4301.538574,4288.205078,4584.615234,4520.897461,4450.256348,4481.922852,5509.000000,3.000000,61.000000,,,,0.000000,4.000000,4.000000,4.000000,4.000000,4.000000,4.000000,4.000000,4.000000,4.000000,4.000000,4.000000,4.000000,4.000000,4.000000,100.000000,,,,,,,,,,,,,,,,,,,,,,,,,,,,
1703503017.373069,1703503749.214662,2.000000,0.000000,4328.974121,4323.717773,4338.717773,4351.666504,4297.179688,4296.025879,4274.102539,4275.641113,4297.948730,4287.820313,4582.820313,4522.563965,4446.025879,4478.974121,5394.000000,3.000000,61.000000,,,,0.000000,4.000000,4.000000,4.000000,4.000000,4.000000,4.000000,4.000000,4.000000,4.000000,4.000000,4.000000,4.000000,4.000000,4.000000,100.000000,,,,,,,,,,,,,,,,,,,,,,,,,,,,
1703503017.380877,1703503749.222470,3.000000,0.000000,4323.461426,4319.102539,4337.307617,4355.128418,4298.589844,4286.025879,4269.871582,4275.000000,4297.948730,4289.743652,4583.974121,4519.358887,4445.256348,4476.538574,5370.000000,3.000000,61.000000,,,,0.000000,4.000000,4.000000,4.000000,4.000000,4.000000,4.000000,4.000000,4.000000,4.000000,4.000000,4.000000,4.000000,4.000000,4.000000,100.000000,,,,,,,,,,,,,,,,,,,,,,,,,,,,
1703503017.388685,1703503749.230378,4.000000,0.000000,4327.820313,4329.615234,4338.589844,4361.153809,4298.846191,4277.179688,4268.846191,4279.102539,4300.512695,4285.512695,4582.820313,4521.025879,4445.128418,4479.487305,5307.000000,3.000000,61.000000,,,,0.000000,4.000000,4.000000,4.000000,4.000000,4.000000,4.000000,4.000000,4.000000,4.000000,4.000000,4.000000,4.000000,4.000000,4.000000,100.000000,,,,,,,,,,,,,,,,,1.000000,0.000000,0.431604,0.544067,-0.419983,0.584229,0.993285,-0.032230,0.060066,-15.218483,-38.480030,61.794601
1703503017.396493,1703503749.238186,5.000000,0.000000,4325.769043,4329.230957,4335.897461,4362.051270,4294.230957,4278.589844,4271.410156,4288.077148,4301.153809,4277.436035,4573.077148,4517.820313,4430.641113,4474.871582,4959.000000,3.000000,61.000000,,,,0.000000,4.000000,4.000000,4.000000,4.000000,4.000000,4.000000,4.000000,4.000000,4.000000,4.000000,4.000000,4.000000,4.000000,4.000000,100.000000,,,,,,,,,,,,,,,,,,,,,,,,,,,,
1703503017.404302,1703503749.246094,6.000000,0.000000,4312.820313,4315.384766,4327.179688,4357.692383,4292.436035,4278.077148,4274.871582,4297.436035,4305.384766,4279.743652,4568.717773,4511.153809,4423.846191,4467.820313,3911.000000,3.000000,61.000000,,,,0.000000,4.000000,4.000000,4.000000,4.000000,4.000000,4.000000,4.000000,4.000000,4.000000,4.000000,4.000000,4.000000,4.000000,4.000000,100.000000,,,,,,,,,,,,,,,,,,,,,,,,,,,,
1703503017.412110,1703503749.253902,7.000000,0.000000,4307.948730,4308.717773,4324.487305,4356.282227,4295.769043,4278.717773,4277.051270,4305.641113,4310.128418,4281.922852,4571.538574,4511.666504,4430.000000,4462.948730,5038.000000,3.000000,61.000000,,,,0.000000,4.000000,4.000000,4.000000,4.000000,4.000000,4.000000,4.000000,4.000000,4.000000,4.000000,4.000000,4.000000,4.000000,4.000000,100.000000,,,,,,,,,,,,,,,,,,,,,,,,,,,,
1703503017.419917,1703503749.261610,8.000000,0.000000,4311.025879,4309.487305,4326.794922,4357.307617,4295.897461,4288.205078,4280.641113,4307.948730,4310.384766,4282.692383,4572.563965,4517.692383,4432.307617,4464.615234,5018.000000,3.000000,61.000000,,,,0.000000,4.000000,4.000000,4.000000,4.000000,4.000000,4.000000,4.000000,4.000000,4.000000,4.000000,4.000000,4.000000,4.000000,4.000000,100.000000,,,,,,,,,,,,,,,,,2.000000,0.000000,0.431605,0.544189,-0.419739,0.584290,0.976682,-0.026370,0.053717,-15.329967,-38.548695,61.748474
1703503017.427726,1703503749.269418,9.000000,0.000000,4310.769043,4308.461426,4329.358887,4360.897461,4295.641113,4296.666504,4289.358887,4301.538574,4302.692383,4278.205078,4566.666504,4519.615234,4427.307617,4471.153809,5482.000000,3.000000,61.000000,,,,0.000000,4.000000,4.000000,4.000000,4.000000,4.000000,4.000000,4.000000,4.000000,4.000000,4.000000,4.000000,4.000000,4.000000,4.000000,100.000000,,,,,,,,,,,,,,,,,,,,,,,,,,,,
1703503017.435534,1703503749.277126,10.000000,0.000000,4310.512695,4307.692383,4329.743652,4365.897461,4302.307617,4301.922852,4295.000000,4292.820313,4293.461426,4266.794922,4565.128418,4521.025879,4430.641113,4477.436035,6040.000000,3.000000,61.000000,,,,0.000000,4.000000,4.000000,4.000000,4.000000,4.000000,4.000000,4.000000,4.000000,4.000000,4.000000,4.000000,4.000000,4.000000,4.000000,100.000000,,,,,,,,,,,,,,,,,,,,,,,,,,,,
1703503017.443342,1703503749.284934,11.000000,0.000000,4310.000000,4309.230957,4324.230957,4366.410156,4302.692383,4301.922852,4289.743652,4285.128418,4291.538574,4262.436035,4563.205078,4518.077148,4428.717773,4471.538574,6317.000000,3.000000,61.000000,,,,0.000000,4.000000,4.000000,4.000000,4.000000,4.000000,4.000000,4.000000,4.000000,4.000000,4.000000,4.000000,4.000000,4.000000,4.000000,100.000000,,,,,,,,,,,,,,,,,,,,,,,,,,,,
1703503017.451150,1703503749.292642,12.000000,0.000000,4305.641113,4309.230957,4320.128418,4364.743652,4296.538574,4300.384766,4285.769043,4276.538574,4292.307617,4261.410156,4545.256348,4505.256348,4407.051270,4454.487305,6828.000000,3.000000,61.000000,,,,0.000000,4.000000,4.000000,4.000000,4.000000,4.000000,4.000000,4.000000,4.000000,4.000000,4.000000,4.000000,4.000000,4.000000,4.000000,100.000000,,,,,,,,,,,,,,,,,3.000000,0.000000,0.431766,0.544006,-0.419556,0.584473,0.991332,-0.039556,0.062019,-15.246971,-38.610493,61.873627
1703503017.458958,1703503749.300450,13.000000,0.000000,4310.769043,4309.743652,4325.000000,4366.922852,4303.846191,4306.794922,4289.487305,4274.487305,4292.692383,4266.922852,4542.051270,4505.897461,4407.307617,4457.307617,7222.000000,3.000000,61.000000,,,,0.000000,4.000000,4.000000,4.000000,4.000000,4.000000,4.000000,4.000000,4.000000,4.000000,4.000000,4.000000,4.000000,4.000000,4.000000,100.000000,,,,,,,,,,,,,,,,,,,,,,,,,,,,
1703503017.466766,1703503749.308158,14.000000,0.000000,4322.307617,4312.436035,4335.641113,4369.487305,4312.692383,4307.563965,4288.589844,4278.461426,4299.487305,4276.538574,4563.974121,4523.717773,4430.641113,4476.410156,6040.000000,3.000000,61.000000,,,,0.000000,4.000000,4.000000,4.000000,4.000000,4.000000,4.000000,4.000000,4.000000,4.000000,4.000000,4.000000,4.000000,4.000000,4.000000,100.000000,,,,,,,,,,,,,,,,,,,,,,,,,,,,
1703503017.474574,1703503749.315966,15.000000,0.000000,4324.358887,4312.051270,4344.102539,4370.897461,4305.384766,4296.153809,4278.717773,4285.769043,4311.666504,4282.948730,4579.615234,4536.922852,4440.769043,4487.692383,6317.000000,3.000000,61.000000,,,,0.000000,4.000000,4.000000,4.000000,4.000000,4.000000,4.000000,4.000000,4.000000,4.000000,4.000000,4.000000,4.000000,4.000000,4.000000,100.000000,,,,,,,,,,,,,,,,,,,,,,,,,,,,
1703503017.482382,1703503749.323674,16.000000,0.000000,4325.897461,4313.461426,4346.666504,4373.974121,4298.077148,4287.692383,4268.077148,4301.794922,4322.051270,4295.897461,4590.384766,4548.333496,4446.794922,4500.256348,0.000000,3.000000,61.000000,,,,0.000000,4.000000,4.000000,4.000000,4.000000,4.000000,4.000000,4.000000,4.000000,4.000000,4.000000,4.000000,4.000000,4.000000,4.000000,100.000000,,,,,,,,,,,,,,,,,4.000000,0.000000,0.432108,0.543640,-0.419678,0.584473,0.982542,-0.023440,0.066903,-15.338941,-38.516109,61.802929
1703503017.490190,1703503749.331482,17.000000,0.000000,4328.846191,4313.846191,4348.461426,4372.948730,4299.487305,4282.563965,4267.436035,4313.205078,4320.128418,4300.897461,4596.666504,4556.025879,4453.589844,4508.077148,0.000000,3.000000,61.000000,,,,0.000000,4.000000,4.000000,4.000000,4.000000,4.000000,4.000000,4.000000,4.000000,4.000000,4.000000,4.000000,4.000000,4.000000,4.000000,100.000000,,,,,,,,,,,,,,,,,,,,,,,,,,,,
1703503017.497998,1703503749.339190,18.000000,0.000000,4314.615234,4304.487305,4344.743652,4363.461426,4299.102539,4277.307617,4272.563965,4309.871582,4307.692383,4286.538574,4583.333496,4546.153809,4443.205078,4494.102539,0.000000,3.000000,61.000000,,,,0.000000,4.000000,4.000000,4.000000,4.000000,4.000000,4.000000,4.000000,4.000000,4.000000,4.000000,4.000000,4.000000,4.000000,4.000000,100.000000,,,,,,,,,,,,,,,,,,,,,,,,,,,,
1703503017.505806,1703503749.347098,19.000000,0.000000,4296.922852,4287.307617,4329.102539,4349.871582,4294.487305,4277.563965,4276.410156,4303.205078,4298.589844,4271.922852,4564.487305,4524.102539,4424.102539,4474.871582,0.000000,3.000000,61.000000,,,,0.000000,4.000000,4.000000,4.000000,4.000000,4.000000,4.000000,4.000000,4.000000,4.000000,4.000000,4.000000,4.000000,4.000000,4.000000,100.000000,,,,,,,,,,,,,,,,,,,,,,,,,,,,
1703503017.513614,1703503749.354906,20.000000,0.000000,4297.436035,4279.743652,4322.436035,4341.794922,4290.256348,4282.307617,4281.794922,4296.410156,4292.563965,4270.512695,4554.615234,4508.846191,4412.179688,4463.846191,0.000000,3.000000,61.000000,,,,0.000000,4.000000,4.000000,4.000000,4.000000,4.000000,4.000000,4.000000,4.000000,4.000000,4.000000,4.000000,4.000000,4.000000,4.000000,100.000000,,,,,,,,,,,,,,,,,5.000000,0.000000,0.432432,0.543213,-0.419983,0.584412,0.991332,-0.027835,0.051764,-15.288380,-38.597832,61.822636
1703503017.521422,1703503749.362714,21.000000,0.000000,4299.102539,4285.000000,4322.948730,4344.102539,4291.282227,4287.051270,4283.589844,4294.871582,4289.487305,4269.871582,4550.128418,4504.615234,4406.538574,4457.692383,0.000000,3.000000,61.000000,,,,0.000000,4.000000,4.000000,4.000000,4.000000,4.000000,4.000000,4.000000,4.000000,4.000000,4.000000,4.000000,4.000000,4.000000,4.000000,100.000000,,,,,,,,,,,,,,,,,,,,,,,,,,,,
1703503017.529230,1703503749.370422,22.000000,0.000000,4292.820313,4282.948730,4315.769043,4344.871582,4294.102539,4285.512695,4281.538574,4294.743652,4290.512695,4266.282227,4550.512695,4502.436035,4408.846191,4456.282227,0.000000,3.000000,61.000000,,,,0.000000,4.000000,4.000000,4.000000,4.000000,4.000000,4.000000,4.000000,4.000000,4.000000,4.000000,4.000000,4.000000,4.000000,4.000000,100.000000,,,,,,,,,,,,,,,,,,,,,,,,,,,,
1703503017.537038,1703503749.378330,23.000000,0.000000,4287.948730,4279.102539,4311.282227,4338.461426,4293.333496,4282.051270,4281.153809,4286.538574,4291.666504,4266.025879,4551.794922,4499.743652,4413.974121,4455.128418,0.000000,3.000000,61.000000,,,,0.000000,4.000000,4.000000,4.000000,4.000000,4.000000,4.000000,4.000000,4.000000,4.000000,4.000000,4.000000,4.000000,4.000000,4.000000,100.000000,,,,,,,,,,,,,,,,,,,,,,,,,,,,
1703503017.544846,1703503749.386138,24.000000,0.000000,4291.025879,4289.102539,4316.666504,4340.641113,4295.256348,4286.666504,4281.282227,4277.179688,4291.922852,4267.563965,4550.897461,4499.743652,4415.897461,4455.256348,0.000000,3.000000,61.000000,,,,0.000000,4.000000,4.000000,4.000000,4.000000,4.000000,4.000000,4.000000,4.000000,4.000000,4.000000,4.000000,4.000000,4.000000,4.000000,100.000000,,,,,,,,,,,,,,,,,6.000000,0.000000,0.432708,0.543030,-0.420105,0.584290,0.973263,-0.022464,0.053717,-15.242875,-38.538048,61.923706
1703503017.552655,1703503749.394045,25.000000,0.000000,4303.589844,4298.077148,4325.641113,4351.410156,4302.948730,4293.717773,4279.871582,4275.000000,4291.282227,4269.871582,4552.820313,4503.846191,4414.230957,4460.000000,0.000000,3.000000,61.000000,,,,0.000000,4.000000,4.000000,4.000000,4.000000,4.000000,4.000000,4.000000,4.000000,4.000000,4.000000,4.000000,4.000000,4.000000,4.000000,100.000000,,,,,,,,,,,,,,,,,,,,,,,,,,,,
1703503017.560463,1703503749.401853,26.000000,0.000000,4315.384766,4299.487305,4333.461426,4351.538574,4308.461426,4293.205078,4278.589844,4280.000000,4299.102539,4280.641113,4566.666504,4513.717773,4418.974121,4471.282227,0.000000,3.000000,61.000000,,,,0.000000,4.000000,4.000000,4.000000,4.000000,4.000000,4.000000,4.000000,4.000000,4.000000,4.000000,4.000000,4.000000,4.000000,4.000000,100.000000,,,,,,,,,,,,,,,,,,,,,,,,,,,,
1703503017.568271,1703503749.409761,27.000000,0.000000,4313.846191,4302.307617,4339.487305,4343.846191,4305.256348,4287.436035,4276.794922,4287.948730,4308.461426,4292.051270,4581.410156,4522.692383,4429.871582,4480.000000,0.000000,3.000000,61.000000,,,,0.000000,4.000000,4.000000,4.000000,4.000000,4.000000,4.000000,4.000000,4.000000,4.000000,4.000000,4.000000,4.000000,4.000000,4.000000,100.000000,,,,,,,,,,,,,,,,,,,,,,,,,,,,
1703503017.576079,1703503749.417569,28.000000,0.000000,4308.461426,4301.922852,4336.794922,4340.641113,4297.820313,4280.384766,4272.820313,4296.794922,4307.179688,4290.512695,4580.897461,4520.128418,4430.256348,4477.948730,0.000000,3.000000,61.000000,,,,0.000000,4.000000,4.000000,4.000000,4.000000,4.000000,4.000000,4.000000,4.000000,4.000000,4.000000,4.000000,4.000000,4.000000,4.000000,100.000000,,,,,,,,,,,,,,,,,7.000000,0.000000,0.432785,0.542969,-0.420105,0.584290,0.986449,-0.021487,0.059578,-15.068587,-38.617577,61.848003
1703503017.583887,1703503749.425477,29.000000,0.000000,4311.153809,4297.820313,4330.256348,4341.025879,4296.025879,4278.205078,4270.769043,4310.641113,4311.282227,4291.153809,4582.436035,4523.205078,4429.487305,4480.128418,0.000000,3.000000,61.000000,,,,0.000000,4.000000,4.000000,4.000000,4.000000,4.000000,4.000000,4.000000,4.000000,4.000000,4.000000,4.000000,4.000000,4.000000,4.000000,100.000000,,,,,,,,,,,,,,,,,,,,,,,,,,,,
1703503017.591695,1703503749.433285,30.000000,0.000000,4313.589844,4300.512695,4333.333496,4343.974121,4297.051270,4280.128418,4275.384766,4319.871582,4310.641113,4292.307617,4586.282227,4528.589844,4431.282227,4485.769043,0.000000,3.000000,61.000000,,,,0.000000,4.000000,4.000000,4.000000,4.000000,4.000000,4.000000,4.000000,4.000000,4.000000,4.000000,4.000000,4.000000,4.000000,4.000000,100.000000,,,,,,,,,,,,,,,,,,,,,,,,,,,,
1703503017.599503,1703503749.441193,31.000000,0.000000,4301.410156,4297.692383,4328.077148,4339.487305,4296.410156,4278.077148,4279.230957,4314.358887,4300.256348,4279.615234,4573.205078,4510.769043,4420.897461,4472.948730,0.000000,3.000000,61.000000,,,,0.000000,4.000000,4.000000,4.000000,4.000000,4.000000,4.000000,4.000000,4.000000,4.000000,4.000000,4.000000,4.000000,4.000000,4.000000,100.000000,,,,,,,,,,,,,,,,,,,,,,,,,,,,
1703503017.607311,1703503749.449001,32.000000,0.000000,4279.615234,4288.461426,4308.589844,4325.897461,4294.358887,4281.025879,4277.436035,4309.743652,4300.384766,4275.641113,4561.410156,4493.077148,4410.000000,4453.846191,0.000000,3.000000,61.000000,,,,0.000000,4.000000,4.000000,4.000000,4.000000,4.000000,4.000000,4.000000,4.000000,4.000000,4.000000,4.000000,4.000000,4.000000,4.000000,100.000000,,,,,,,,,,,,,,,,,8.000000,0.000000,0.432826,0.543030,-0.419983,0.584290,0.990844,-0.005860,0.064461,-15.078396,-38.639153,61.829868
1703503017.615119,1703503749.456709,33.000000,0.000000,4281.153809,4289.615234,4309.871582,4329.487305,4296.666504,4289.871582,4278.974121,4311.538574,4302.179688,4281.922852,4566.282227,4502.051270,4416.282227,4455.897461,0.000000,3.000000,61.000000,,,,0.000000,4.000000,4.000000,4.000000,4.000000,4.000000,4.000000,4.000000,4.000000,4.000000,4.000000,4.000000,4.000000,4.000000,4.000000,100.000000,1.000000,100.000000,4.000000,4.000000,4.000000,4.000000,4.000000,4.000000,4.000000,4.000000,4.000000,4.000000,4.000000,4.000000,4.000000,4.000000,,,,,,,,,,,,
1703503017.622927,1703503749.464517,34.000000,0.000000,4301.282227,4295.641113,4330.128418,4346.666504,4305.897461,4295.384766,4284.743652,4303.717773,4295.769043,4279.358887,4571.410156,4512.948730,4427.436035,4471.538574,0.000000,3.000000,61.000000,,,,0.000000,4.000000,4.000000,4.000000,4.000000,4.000000,4.000000,4.000000,4.000000,4.000000,4.000000,4.000000,4.000000,4.000000,4.000000,100.000000,,,,,,,,,,,,,,,,,,,,,,,,,,,,
1703503017.630735,1703503749.472225,35.000000,0.000000,4302.179688,4296.282227,4335.000000,4346.922852,4306.922852,4290.769043,4285.769043,4292.436035,4287.820313,4273.589844,4566.538574,4507.179688,4425.897461,4470.384766,0.000000,3.000000,61.000000,,,,0.000000,4.000000,4.000000,4.000000,4.000000,4.000000,4.000000,4.000000,4.000000,4.000000,4.000000,4.000000,4.000000,4.000000,4.000000,100.000000,,,,,,,,,,,,,,,,,,,,,,,,,,,,
1703503017.638543,1703503749.480033,36.000000,0.000000,4295.512695,4294.615234,4328.846191,4338.461426,4297.436035,4285.128418,4282.051270,4289.358887,4282.563965,4274.615234,4565.769043,4505.256348,4423.974121,4465.897461,0.000000,3.000000,61.000000,,,,0.000000,4.000000,4.000000,4.000000,4.000000,4.000000,4.000000,4.000000,4.000000,4.000000,4.000000,4.000000,4.000000,4.000000,4.000000,100.000000,,,,,,,,,,,,,,,,,9.000000,0.000000,0.432709,0.543152,-0.419861,0.584351,0.991820,-0.024417,0.057136,-15.020556,-38.558571,61.913548
1703503017.646351,1703503749.487741,37.000000,0.000000,4301.282227,4294.230957,4328.974121,4339.487305,4295.769043,4284.102539,4278.589844,4288.461426,4283.846191,4277.820313,4572.563965,4516.538574,4429.871582,4479.615234,0.000000,3.000000,61.000000,,,,0.000000,4.000000,4.000000,4.000000,4.000000,4.000000,4.000000,4.000000,4.000000,4.000000,4.000000,4.000000,4.000000,4.000000,4.000000,100.000000,,,,,,,,,,,,,,,,,,,,,,,,,,,,
1703503017.654159,1703503749.495549,38.000000,0.000000,4308.461426,4297.948730,4334.102539,4342.820313,4300.000000,4282.820313,4277.563965,4285.769043,4289.743652,4277.436035,4573.717773,4521.410156,4432.051270,4486.153809,0.000000,3.000000,61.000000,,,,0.000000,4.000000,4.000000,4.000000,4.000000,4.000000,4.000000,4.000000,4.000000,4.000000,4.000000,4.000000,4.000000,4.000000,4.000000,100.000000,,,,,,,,,,,,,,,,,,,,,,,,,,,,
1703503017.661967,1703503749.503257,39.000000,0.000000,4311.025879,4308.333496,4338.846191,4347.307617,4305.769043,4287.307617,4276.666504,4288.846191,4298.077148,4285.000000,4579.102539,4520.641113,4436.153809,4481.538574,0.000000,3.000000,61.000000,,,,0.000000,4.000000,4.000000,4.000000,4.000000,4.000000,4.000000,4.000000,4.000000,4.000000,4.000000,4.000000,4.000000,4.000000,4.000000,100.000000,,,,,,,,,,,,,,,,,,,,,,,,,,,,
1703503017.669775,1703503749.511165,40.000000,0.000000,4314.871582,4315.769043,4340.641113,4354.487305,4315.641113,4294.102539,4278.333496,4304.230957,4316.922852,4304.102539,4591.153809,4528.717773,4447.820313,4489.743652,0.000000,3.000000,61.000000,,,,0.000000,4.000000,4.000000,4.000000,4.000000,4.000000,4.000000,4.000000,4.000000,4.000000,4.000000,4.000000,4.000000,4.000000,4.000000,100.000000,,,,,,,,,,,,,,,,,10.000000,0.000000,0.432852,0.543274,-0.419556,0.584351,0.987914,-0.036137,0.058601,-14.918500,-38.469379,62.088860
1703503017.677583,1703503749.518973,41.000000,0.000000,4317.436035,4312.051270,4338.846191,4355.897461,4321.282227,4298.077148,4286.282227,4321.538574,4332.307617,4314.487305,4594.230957,4532.692383,4452.563965,4496.538574,0.000000,3.000000,61.000000,,,,0.000000,4.000000,4.000000,4.000000,4.000000,4.000000,4.000000,4.000000,4.000000,4.000000,4.000000,4.000000,4.000000,4.000000,4.000000,100.000000,,,,,,,,,,,,,,,,,,,,,,,,,,,,
1703503017.685392,1703503749.526881,42.000000,0.000000,4312.948730,4308.589844,4335.000000,4356.538574,4321.666504,4302.563965,4292.563965,4329.615234,4330.641113,4311.666504,4595.769043,4525.897461,4454.487305,4491.410156,0.000000,3.000000,61.000000,,,,0.000000,4.000000,4.000000,4.000000,4.000000,4.000000,4.000000,4.000000,4.000000,4.000000,4.000000,4.000000,4.000000,4.000000,4.000000,100.000000,,,,,,,,,,,,,,,,,,,,,,,,,,,,
1703503017.693200,1703503749.534689,43.000000,0.000000,4311.282227,4309.487305,4335.128418,4359.102539,4318.461426,4307.563965,4294.871582,4329.230957,4325.256348,4306.794922,4595.512695,4525.769043,4455.256348,4488.205078,0.000000,3.000000,61.000000,,,,0.000000,4.000000,4.000000,4.000000,4.000000,4.000000,4.000000,4.000000,4.000000,4.000000,4.000000,4.000000,4.000000,4.000000,4.000000,100.000000,,,,,,,,,,,,,,,,,,,,,,,,,,,,
1703503017.701007,1703503749.542497,44.000000,0.000000,4316.410156,4309.871582,4338.461426,4358.589844,4316.794922,4309.358887,4295.512695,4329.102539,4326.025879,4308.077148,4588.717773,4524.615234,4449.487305,4487.179688,0.000000,3.000000,61.000000,,,,0.000000,4.000000,4.000000,4.000000,4.000000,4.000000,4.000000,4.000000,4.000000,4.000000,4.000000,4.000000,4.000000,4.000000,4.000000,100.000000,,,,,,,,,,,,,,,,,11.000000,0.000000,0.432876,0.543396,-0.419373,0.584351,0.985960,-0.025394,0.062019,-14.876651,-38.622440,62.229977
1703503017.708816,1703503749.550205,45.000000,0.000000,4314.230957,4308.846191,4335.897461,4360.384766,4320.128418,4309.871582,4298.205078,4332.692383,4327.563965,4311.666504,4589.487305,4520.512695,4448.846191,4489.487305,0.000000,3.000000,61.000000,,,,0.000000,4.000000,4.000000,4.000000,4.000000,4.000000,4.000000,4.000000,4.000000,4.000000,4.000000,4.000000,4.000000,4.000000,4.000000,100.000000,,,,,,,,,,,,,,,,,,,,,,,,,,,,
1703503017.716624,1703503749.558013,46.000000,0.000000,4310.128418,4308.333496,4334.230957,4366.153809,4320.512695,4313.077148,4301.922852,4328.717773,4321.282227,4304.358887,4592.307617,4525.000000,4450.897461,4490.897461,0.000000,3.000000,61.000000,,,,0.000000,4.000000,4.000000,4.000000,4.000000,4.000000,4.000000,4.000000,4.000000,4.000000,4.000000,4.000000,4.000000,4.000000,4.000000,100.000000,,,,,,,,,,,,,,,,,,,,,,,,,,,,
1703503017.724432,1703503749.565721,47.000000,0.000000,4320.128418,4311.794922,4340.256348,4367.307617,4318.461426,4310.897461,4298.589844,4314.230957,4310.641113,4292.820313,4588.717773,4530.769043,4450.384766,4488.846191,0.000000,3.000000,61.000000,,,,0.000000,4.000000,4.000000,4.000000,4.000000,4.000000,4.000000,4.000000,4.000000,4.000000,4.000000,4.000000,4.000000,4.000000,4.000000,100.000000,,,,,,,,,,,,,,,,,,,,,,,,,,,,
1703503017.732240,1703503749.573629,48.000000,0.000000,4328.205078,4312.820313,4346.282227,4364.358887,4314.871582,4302.051270,4294.230957,4302.307617,4302.051270,4293.205078,4587.307617,4531.153809,4450.512695,4490.641113,0.000000,3.000000,61.000000,,,,0.000000,4.000000,4.000000,4.000000,4.000000,4.000000,4.000000,4.000000,4.000000,4.000000,4.000000,4.000000,4.000000,4.000000,4.000000,100.000000,,,,,,,,,,,,,,,,,12.000000,0.000000,0.432924,0.543518,-0.419250,0.584290,0.998169,-0.029300,0.061043,-14.788985,-38.526863,62.256977
1703503017.740048,1703503749.581437,49.000000,0.000000,4322.307617,4308.846191,4350.769043,4366.282227,4312.307617,4293.461426,4291.410156,4301.410156,4298.846191,4295.641113,4588.333496,4534.615234,4451.282227,4492.436035,0.000000,3.000000,61.000000,,,,0.000000,4.000000,4.000000,4.000000,4.000000,4.000000,4.000000,4.000000,4.000000,4.000000,4.000000,4.000000,4.000000,4.000000,4.000000,100.000000,,,,,,,,,,,,,,,,,,,,,,,,,,,,
1703503017.747856,1703503749.589345,50.000000,0.000000,4324.871582,4312.307617,4355.512695,4375.641113,4313.846191,4293.077148,4287.051270,4303.589844,4301.794922,4292.692383,4594.102539,4544.487305,4455.512695,4497.820313,0.000000,3.000000,61.000000,,,,0.000000,4.000000,4.000000,4.000000,4.000000,4.000000,4.000000,4.000000,4.000000,4.000000,4.000000,4.000000,4.000000,4.000000,4.000000,100.000000,,,,,,,,,,,,,,,,,,,,,,,,,,,,
1703503017.755664,1703503749.597153,51.000000,0.000000,4335.128418,4323.846191,4362.307617,4383.333496,4315.897461,4295.512695,4285.384766,4304.487305,4299.615234,4293.333496,4604.230957,4553.333496,4461.538574,4507.692383,0.000000,3.000000,61.000000,,,,0.000000,4.000000,4.000000,4.000000,4.000000,4.000000,4.000000,4.000000,4.000000,4.000000,4.000000,4.000000,4.000000,4.000000,4.000000,100.000000,,,,,,,,,,,,,,,,,,,,,,,,,,,,
1703503017.763472,1703503749.605060,52.000000,0.000000,4333.205078,4323.461426,4366.794922,4381.282227,4317.179688,4294.230957,4287.307617,4306.410156,4304.230957,4302.948730,4612.436035,4558.846191,4467.692383,4513.205078,0.000000,3.000000,61.000000,,,,0.000000,4.000000,4.000000,4.000000,4.000000,4.000000,4.000000,4.000000,4.000000,4.000000,4.000000,4.000000,4.000000,4.000000,4.000000,100.000000,,,,,,,,,,,,,,,,,13.000000,0.000000,0.433041,0.543396,-0.419373,0.584229,0.996704,-0.034184,0.066414,-14.810087,-38.707512,62.214611
1703503017.771280,1703503749.612868,53.000000,0.000000,4325.897461,4312.820313,4362.563965,4377.436035,4320.641113,4294.487305,4288.717773,4309.487305,4321.538574,4312.307617,4616.538574,4559.102539,4475.641113,4510.384766,0.000000,3.000000,61.000000,,,,0.000000,4.000000,4.000000,4.000000,4.000000,4.000000,4.000000,4.000000,4.000000,4.000000,4.000000,4.000000,4.000000,4.000000,4.000000,100.000000,,,,,,,,,,,,,,,,,,,,,,,,,,,,
1703503017.779088,1703503749.620776,54.000000,0.000000,4323.846191,4309.358887,4352.820313,4374.871582,4322.436035,4298.717773,4290.256348,4311.410156,4322.820313,4308.974121,4611.025879,4550.128418,4472.436035,4499.615234,0.000000,3.000000,61.000000,,,,0.000000,4.000000,4.000000,4.000000,4.000000,4.000000,4.000000,4.000000,4.000000,4.000000,4.000000,4.000000,4.000000,4.000000,4.000000,100.000000,,,,,,,,,,,,,,,,,,,,,,,,,,,,
1703503017.786896,1703503749.628584,55.000000,0.000000,4319.871582,4304.743652,4343.205078,4364.358887,4316.153809,4302.692383,4290.897461,4309.743652,4312.820313,4304.615234,4601.282227,4535.897461,4460.384766,4490.128418,0.000000,3.000000,61.000000,,,,0.000000,4.000000,4.000000,4.000000,4.000000,4.000000,4.000000,4.000000,4.000000,4.000000,4.000000,4.000000,4.000000,4.000000,4.000000,100.000000,,,,,,,,,,,,,,,,,,,,,,,,,,,,
1703503017.794704,1703503749.636292,56.000000,0.000000,4310.769043,4295.000000,4338.461426,4353.974121,4311.025879,4303.846191,4291.922852,4309.358887,4318.077148,4308.333496,4596.282227,4528.974121,4456.538574,4487.948730,0.000000,3.000000,61.000000,,,,0.000000,4.000000,4.000000,4.000000,4.000000,4.000000,4.000000,4.000000,4.000000,4.000000,4.000000,4.000000,4.000000,4.000000,4.000000,100.000000,,,,,,,,,,,,,,,,,14.000000,0.000000,0.432917,0.543335,-0.419495,0.584290,0.990844,-0.020510,0.056159,-14.762411,-38.903427,62.159817
1703503017.802512,1703503749.644200,57.000000,0.000000,4310.897461,4299.487305,4341.794922,4357.563965,4313.846191,4306.025879,4294.743652,4312.563965,4325.256348,4309.102539,4597.307617,4536.922852,4457.436035,4492.179688,0.000000,3.000000,61.000000,,,,0.000000,4.000000,4.000000,4.000000,4.000000,4.000000,4.000000,4.000000,4.000000,4.000000,4.000000,4.000000,4.000000,4.000000,4.000000,100.000000,,,,,,,,,,,,,,,,,,,,,,,,,,,,
1703503017.810320,1703503749.652009,58.000000,0.000000,4318.077148,4308.333496,4346.666504,4359.871582,4319.102539,4308.589844,4296.025879,4316.410156,4327.436035,4309.358887,4604.358887,4541.538574,4460.384766,4497.820313,0.000000,3.000000,61.000000,,,,0.000000,4.000000,4.000000,4.000000,4.000000,4.000000,4.000000,4.000000,4.000000,4.000000,4.000000,4.000000,4.000000,4.000000,4.000000,100.000000,,,,,,,,,,,,,,,,,,,,,,,,,,,,
1703503017.818128,1703503749.659817,59.000000,0.000000,4321.025879,4303.333496,4352.820313,4356.153809,4316.153809,4303.589844,4292.436035,4314.102539,4325.769043,4310.000000,4607.179688,4539.743652,4465.000000,4498.461426,0.000000,3.000000,61.000000,,,,0.000000,4.000000,4.000000,4.000000,4.000000,4.000000,4.000000,4.000000,4.000000,4.000000,4.000000,4.000000,4.000000,4.000000,4.000000,100.000000,,,,,,,,,,,,,,,,,,,,,,,,,,,,
1703503017.825936,1703503749.667525,60.000000,0.000000,4324.615234,4303.589844,4360.897461,4360.512695,4310.769043,4297.179688,4286.666504,4306.153809,4316.410156,4307.948730,4605.769043,4543.717773,4467.820313,4500.641113,0.000000,3.000000,61.000000,,,,0.000000,4.000000,4.000000,4.000000,4.000000,4.000000,4.000000,4.000000,4.000000,4.000000,4.000000,4.000000,4.000000,4.000000,4.000000,100.000000,,,,,,,,,,,,,,,,,15.000000,0.000000,0.432893,0.543213,-0.419678,0.584290,0.993774,-0.027835,0.061531,-14.686171,-38.779751,62.143837
1703503017.833744,1703503749.675333,61.000000,0.000000,4328.846191,4313.333496,4364.230957,4367.948730,4308.846191,4294.615234,4285.897461,4297.051270,4308.205078,4299.230957,4605.769043,4544.487305,4462.948730,4504.871582,0.000000,3.000000,61.000000,,,,0.000000,4.000000,4.000000,4.000000,4.000000,4.000000,4.000000,4.000000,4.000000,4.000000,4.000000,4.000000,4.000000,4.000000,4.000000,100.000000,,,,,,,,,,,,,,,,,,,,,,,,,,,,
1703503017.841553,1703503749.683041,62.000000,0.000000,4330.384766,4307.307617,4366.922852,4367.307617,4303.205078,4292.563965,4289.871582,4285.769043,4297.307617,4283.205078,4598.974121,4540.000000,4445.897461,4500.897461,0.000000,3.000000,61.000000,,,,0.000000,4.000000,4.000000,4.000000,4.000000,4.000000,4.000000,4.000000,4.000000,4.000000,4.000000,4.000000,4.000000,4.000000,4.000000,100.000000,,,,,,,,,,,,,,,,,,,,,,,,,,,,
1703503017.849361,1703503749.690849,63.000000,0.000000,4324.358887,4296.410156,4366.153809,4361.410156,4301.666504,4291.538574,4290.769043,4277.307617,4279.102539,4271.153809,4586.025879,4533.717773,4424.102539,4488.974121,0.000000,3.000000,61.000000,,,,0.000000,4.000000,4.000000,4.000000,4.000000,4.000000,4.000000,4.000000,4.000000,4.000000,4.000000,4.000000,4.000000,4.000000,4.000000,100.000000,,,,,,,,,,,,,,,,,,,,,,,,,,,,
1703503017.857169,1703503749.698557,64.000000,0.000000,4315.256348,4296.410156,4360.256348,4357.820313,4304.743652,4292.820313,4291.410156,4276.794922,4268.589844,4265.000000,4579.615234,4525.897461,4412.179688,4480.000000,5258.000000,3.000000,61.000000,,,,0.000000,4.000000,4.000000,4.000000,4.000000,4.000000,4.000000,4.000000,4.000000,4.000000,4.000000,4.000000,4.000000,4.000000,4.000000,100.000000,,,,,,,,,,,,,,,,,16.000000,0.000000,0.432633,0.543213,-0.419861,0.584351,0.992309,-0.029300,0.057136,-14.867554,-38.668442,62.129452
1703503017.864977,1703503749.706365,65.000000,0.000000,4317.179688,4296.410156,4356.410156,4360.000000,4306.410156,4297.820313,4293.717773,4293.717773,4284.230957,4275.000000,4589.358887,4527.051270,4423.333496,4484.615234,5509.000000,3.000000,61.000000,,,,0.000000,4.000000,4.000000,4.000000,4.000000,4.000000,4.000000,4.000000,4.000000,4.000000,4.000000,4.000000,4.000000,4.000000,4.000000,100.000000,,,,,,,,,,,,,,,,,,,,,,,,,,,,
1703503017.872785,1703503749.714073,66.000000,0.000000,4314.230957,4293.846191,4349.871582,4360.128418,4311.794922,4304.487305,4293.461426,4324.487305,4318.846191,4301.025879,4604.871582,4537.948730,4438.077148,4488.846191,5394.000000,3.000000,61.000000,,,,0.000000,4.000000,4.000000,4.000000,4.000000,4.000000,4.000000,4.000000,4.000000,4.000000,4.000000,4.000000,4.000000,4.000000,4.000000,100.000000,,,,,,,,,,,,,,,,,,,,,,,,,,,,
1703503017.880593,1703503749.721981,67.000000,0.000000,4296.666504,4291.666504,4339.358887,4351.025879,4313.333496,4308.717773,4292.692383,4340.000000,4338.333496,4310.641113,4607.051270,4536.153809,4438.846191,4481.794922,5377.000000,3.000000,61.000000,,,,0.000000,4.000000,4.000000,4.000000,4.000000,4.000000,4.000000,4.000000,4.000000,4.000000,4.000000,4.000000,4.000000,4.000000,4.000000,100.000000,,,,,,,,,,,,,,,,,,,,,,,,,,,,
1703503017.888401,1703503749.729789,68.000000,0.000000,4294.615234,4289.743652,4329.871582,4340.000000,4309.743652,4310.384766,4292.820313,4333.205078,4340.256348,4305.000000,4602.692383,4524.102539,4440.256348,4475.512695,5303.000000,3.000000,61.000000,,,,0.000000,4.000000,4.000000,4.000000,4.000000,4.000000,4.000000,4.000000,4.000000,4.000000,4.000000,4.000000,4.000000,4.000000,4.000000,100.000000,,,,,,,,,,,,,,,,,17.000000,0.000000,0.432544,0.543152,-0.419861,0.584473,0.991820,-0.042486,0.061043,-14.930798,-38.584930,62.099842
1703503017.896209,1703503749.737597,69.000000,0.000000,4308.846191,4292.820313,4324.102539,4340.256348,4309.615234,4311.538574,4292.948730,4327.692383,4339.743652,4309.230957,4600.000000,4520.384766,4440.000000,4475.000000,4959.000000,3.000000,61.000000,,,,0.000000,4.000000,4.000000,4.000000,4.000000,4.000000,4.000000,4.000000,4.000000,4.000000,4.000000,4.000000,4.000000,4.000000,4.000000,100.000000,,,,,,,,,,,,,,,,,,,,,,,,,,,,
1703503017.904017,1703503749.745305,70.000000,0.000000,4312.948730,4295.897461,4330.384766,4345.769043,4311.538574,4309.615234,4292.948730,4328.461426,4336.666504,4309.743652,4596.794922,4523.974121,4433.077148,4477.179688,3911.000000,3.000000,61.000000,,,,0.000000,4.000000,4.000000,4.000000,4.000000,4.000000,4.000000,4.000000,4.000000,4.000000,4.000000,4.000000,4.000000,4.000000,4.000000,100.000000,,,,,,,,,,,,,,,,,,,,,,,,,,,,
1703503017.911825,1703503749.753213,71.000000,0.000000,4316.410156,4297.307617,4342.307617,4349.487305,4309.615234,4303.846191,4291.153809,4328.461426,4335.897461,4308.077148,4610.897461,4536.153809,4447.948730,4496.025879,5038.000000,3.000000,61.000000,,,,0.000000,4.000000,4.000000,4.000000,4.000000,4.000000,4.000000,4.000000,4.000000,4.000000,4.000000,4.000000,4.000000,4.000000,4.000000,100.000000,,,,,,,,,,,,,,,,,,,,,,,,,,,,
1703503017.919633,1703503749.761021,72.000000,0.000000,4327.563965,4303.461426,4343.974121,4354.743652,4302.563965,4297.563965,4287.307617,4324.487305,4332.692383,4312.692383,4626.538574,4547.436035,4465.512695,4514.358887,5018.000000,3.000000,61.000000,,,,0.000000,4.000000,4.000000,4.000000,4.000000,4.000000,4.000000,4.000000,4.000000,4.000000,4.000000,4.000000,4.000000,4.000000,4.000000,100.000000,,,,,,,,,,,,,,,,,18.000000,0.000000,0.432325,0.543091,-0.420166,0.584473,0.988402,-0.033207,0.060066,-14.954385,-38.659771,61.973190
1703503017.927441,1703503749.768929,73.000000,0.000000,4327.692383,4303.461426,4342.563965,4357.563965,4299.230957,4294.743652,4284.102539,4314.230957,4318.461426,4303.974121,4618.589844,4548.205078,4456.282227,4510.128418,5490.000000,3.000000,61.000000,,,,0.000000,4.000000,4.000000,4.000000,4.000000,4.000000,4.000000,4.000000,4.000000,4.000000,4.000000,4.000000,4.000000,4.000000,4.000000,100.000000,,,,,,,,,,,,,,,,,,,,,,,,,,,,
1703503017.935249,1703503749.776737,74.000000,0.000000,4325.512695,4296.922852,4351.410156,4355.000000,4304.487305,4295.512695,4287.307617,4303.846191,4305.384766,4291.922852,4613.589844,4553.846191,4453.717773,4510.512695,6045.000000,3.000000,61.000000,,,,0.000000,4.000000,4.000000,4.000000,4.000000,4.000000,4.000000,4.000000,4.000000,4.000000,4.000000,4.000000,4.000000,4.000000,4.000000,100.000000,,,,,,,,,,,,,,,,,,,,,,,,,,,,
1703503017.943057,1703503749.784644,75.000000,0.000000,4334.358887,4298.974121,4357.563965,4356.794922,4307.051270,4294.743652,4288.205078,4296.282227,4297.948730,4291.282227,4613.077148,4556.025879,4463.333496,4515.641113,6320.000000,3.000000,61.000000,,,,0.000000,4.000000,4.000000,4.000000,4.000000,4.000000,4.000000,4.000000,4.000000,4.000000,4.000000,4.000000,4.000000,4.000000,4.000000,100.000000,,,,,,,,,,,,,,,,,,,,,,,,,,,,
1703503017.950865,1703503749.792452,76.000000,0.000000,4333.077148,4301.025879,4351.794922,4359.230957,4305.128418,4292.948730,4282.563965,4291.282227,4294.871582,4290.128418,4605.256348,4546.282227,4459.615234,4512.692383,6831.000000,3.000000,61.000000,,,,0.000000,4.000000,4.000000,4.000000,4.000000,4.000000,4.000000,4.000000,4.000000,4.000000,4.000000,4.000000,4.000000,4.000000,4.000000,100.000000,,,,,,,,,,,,,,,,,19.000000,0.000000,0.432129,0.543152,-0.420288,0.584473,0.987914,-0.021975,0.057624,-15.075613,-38.593796,61.975872
1703503017.958673,1703503749.800360,77.000000,0.000000,4322.179688,4293.846191,4347.692383,4355.256348,4300.641113,4292.307617,4284.743652,4295.512695,4297.692383,4282.051270,4595.897461,4540.000000,4442.563965,4507.051270,7226.000000,3.000000,61.000000,,,,0.000000,4.000000,4.000000,4.000000,4.000000,4.000000,4.000000,4.000000,4.000000,4.000000,4.000000,4.000000,4.000000,4.000000,4.000000,100.000000,,,,,,,,,,,,,,,,,,,,,,,,,,,,
1703503017.966481,1703503749.808168,78.000000,0.000000,4319.871582,4293.589844,4346.282227,4352.179688,4298.077148,4292.948730,4289.230957,4306.282227,4302.948730,4278.205078,4587.563965,4533.461426,4426.666504,4493.717773,6045.000000,3.000000,61.000000,,,,0.000000,4.000000,4.000000,4.000000,4.000000,4.000000,4.000000,4.000000,4.000000,4.000000,4.000000,4.000000,4.000000,4.000000,4.000000,100.000000,,,,,,,,,,,,,,,,,,,,,,,,,,,,
1703503017.974290,1703503749.815876,79.000000,0.000000,4316.025879,4291.153809,4336.153809,4349.743652,4299.487305,4293.333496,4286.410156,4316.922852,4311.666504,4290.512695,4589.102539,4522.051270,4429.487305,4485.128418,6320.000000,3.000000,61.000000,,,,0.000000,4.000000,4.000000,4.000000,4.000000,4.000000,4.000000,4.000000,4.000000,4.000000,4.000000,4.000000,4.000000,4.000000,4.000000,100.000000,,,,,,,,,,,,,,,,,,,,,,,,,,,,
1703503017.982098,1703503749.823684,80.000000,0.000000,4307.307617,4281.153809,4332.179688,4343.974121,4300.128418,4295.769043,4287.820313,4323.461426,4319.743652,4297.436035,4592.179688,4519.230957,4435.256348,4488.717773,6831.000000,3.000000,61.000000,,,,0.000000,4.000000,4.000000,4.000000,4.000000,4.000000,4.000000,4.000000,4.000000,4.000000,4.000000,4.000000,4.000000,4.000000,4.000000,100.000000,,,,,,,,,,,,,,,,,20.000000,0.000000,0.432035,0.543274,-0.420227,0.584473,0.984984,-0.037114,0.061531,-14.984718,-38.517750,61.961617
1703503017.989906,1703503749.831392,81.000000,0.000000,4312.051270,4285.769043,4341.025879,4337.820313,4301.922852,4303.717773,4291.922852,4321.922852,4320.641113,4292.307617,4589.615234,4529.487305,4432.436035,4491.153809,7226.000000,3.000000,61.000000,,,,0.000000,4.000000,4.000000,4.000000,4.000000,4.000000,4.000000,4.000000,4.000000,4.000000,4.000000,4.000000,4.000000,4.000000,4.000000,100.000000,,,,,,,,,,,,,,,,,,,,,,,,,,,,
1703503017.997714,1703503749.839200,82.000000,0.000000,4321.282227,4292.820313,4345.256348,4329.615234,4303.205078,4306.025879,4293.461426,4314.615234,4319.743652,4296.538574,4592.948730,4536.410156,4438.205078,4488.461426,6045.000000,3.000000,61.000000,,,,0.000000,4.000000,4.000000,4.000000,4.000000,4.000000,4.000000,4.000000,4.000000,4.000000,4.000000,4.000000,4.000000,4.000000,4.000000,100.000000,,,,,,,,,,,,,,,,,,,,,,,,,,,,
1703503018.005522,1703503749.846908,83.000000,0.000000,4323.333496,4290.897461,4345.512695,4325.256348,4299.487305,4298.717773,4292.563965,4306.666504,4313.461426,4301.666504,4603.077148,4538.974121,4450.769043,4494.871582,6320.000000,3.000000,61.000000,,,,0.000000,4.000000,4.000000,4.000000,4.000000,4.000000,4.000000,4.000000,4.000000,4.000000,4.000000,4.000000,4.000000,4.000000,4.000000,100.000000,,,,,,,,,,,,,,,,,,,,,,,,,,,,
1703503018.013330,1703503749.854716,84.000000,0.000000,4325.256348,4296.538574,4353.205078,4330.384766,4298.589844,4293.717773,4284.358887,4293.461426,4297.307617,4290.384766,4602.563965,4540.128418,4447.820313,4505.256348,6831.000000,3.000000,61.000000,,,,0.000000,4.000000,4.000000,4.000000,4.000000,4.000000,4.000000,4.000000,4.000000,4.000000,4.000000,4.000000,4.000000,4.000000,4.000000,100.000000,,,,,,,,,,,,,,,,,21.000000,0.000000,0.431995,0.543335,-0.420105,0.584534,0.986449,-0.026859,0.052252,-14.969580,-38.632641,61.932121
1703503018.021138,1703503749.862424,85.000000,0.000000,4326.666504,4300.769043,4358.333496,4330.384766,4301.538574,4295.897461,4282.563965,4278.717773,4281.282227,4274.743652,4586.282227,4530.512695,4430.384766,4499.487305,7226.000000,3.000000,61.000000,,,,0.000000,4.000000,4.000000,4.000000,4.000000,4.000000,4.000000,4.000000,4.000000,4.000000,4.000000,4.000000,4.000000,4.000000,4.000000,100.000000,,,,,,,,,,,,,,,,,,,,,,,,,,,,
1703503018.028946,1703503749.870232,86.000000,0.000000,4324.743652,4293.589844,4350.897461,4324.358887,4298.205078,4300.384766,4290.256348,4273.717773,4277.820313,4268.077148,4577.051270,4521.025879,4423.846191,4488.717773,6045.000000,3.000000,61.000000,,,,0.000000,4.000000,4.000000,4.000000,4.000000,4.000000,4.000000,4.000000,4.000000,4.000000,4.000000,4.000000,4.000000,4.000000,4.000000,100.000000,,,,,,,,,,,,,,,,,,,,,,,,,,,,
1703503018.036754,1703503749.877940,87.000000,0.000000,4319.487305,4292.179688,4343.589844,4324.487305,4295.000000,4304.615234,4290.384766,4279.487305,4281.025879,4268.846191,4583.077148,4522.563965,4429.743652,4489.230957,6320.000000,3.000000,61.000000,,,,0.000000,4.000000,4.000000,4.000000,4.000000,4.000000,4.000000,4.000000,4.000000,4.000000,4.000000,4.000000,4.000000,4.000000,4.000000,100.000000,,,,,,,,,,,,,,,,,,,,,,,,,,,,
1703503018.044562,1703503749.885748,88.000000,0.000000,4314.487305,4292.307617,4343.077148,4320.897461,4296.025879,4305.000000,4290.769043,4288.077148,4281.794922,4273.717773,4588.461426,4525.897461,4431.153809,4487.436035,6831.000000,3.000000,61.000000,,,,0.000000,4.000000,4.000000,4.000000,4.000000,4.000000,4.000000,4.000000,4.000000,4.000000,4.000000,4.000000,4.000000,4.000000,4.000000,100.000000,,,,,,,,,,,,,,,,,22.000000,0.000000,0.431977,0.543396,-0.420044,0.584534,0.995239,-0.028812,0.048834,-14.972622,-38.719376,61.922245
1703503018.052370,1703503749.893457,89.000000,0.000000,4306.282227,4280.256348,4333.589844,4311.153809,4295.769043,4304.743652,4295.128418,4299.615234,4291.282227,4278.974121,4584.358887,4521.538574,4425.897461,4477.820313,7226.000000,3.000000,61.000000,,,,0.000000,4.000000,4.000000,4.000000,4.000000,4.000000,4.000000,4.000000,4.000000,4.000000,4.000000,4.000000,4.000000,4.000000,4.000000,100.000000,,,,,,,,,,,,,,,,,,,,,,,,,,,,
1703503018.060178,1703503749.901264,90.000000,0.000000,4295.512695,4275.256348,4319.615234,4307.436035,4293.717773,4309.358887,4294.743652,4306.922852,4302.692383,4277.307617,4575.769043,4505.769043,4414.230957,4469.487305,6045.000000,3.000000,61.000000,,,,0.000000,4.000000,4.000000,4.000000,4.000000,4.000000,4.000000,4.000000,4.000000,4.000000,4.000000,4.000000,4.000000,4.000000,4.000000,100.000000,,,,,,,,,,,,,,,,,,,,,,,,,,,,
1703503018.067986,1703503749.908973,91.000000,0.000000,4289.743652,4279.487305,4313.205078,4311.410156,4298.333496,4311.410156,4295.512695,4305.384766,4297.692383,4268.717773,4565.256348,4489.487305,4401.794922,4459.871582,6320.000000,3.000000,61.000000,,,,0.000000,4.000000,4.000000,4.000000,4.000000,4.000000,4.000000,4.000000,4.000000,4.000000,4.000000,4.000000,4.000000,4.000000,4.000000,100.000000,,,,,,,,,,,,,,,,,,,,,,,,,,,,
1703503018.075794,1703503749.916880,92.000000,0.000000,4290.256348,4277.948730,4312.179688,4314.615234,4306.666504,4310.384766,4299.358887,4305.641113,4297.436035,4268.974121,4563.974121,4494.743652,4403.717773,4455.641113,6831.000000,3.000000,61.000000,,,,0.000000,4.000000,4.000000,4.000000,4.000000,4.000000,4.000000,4.000000,4.000000,4.000000,4.000000,4.000000,4.000000,4.000000,4.000000,100.000000,,,,,,,,,,,,,,,,,23.000000,0.000000,0.432007,0.543335,-0.419922,0.584656,0.975705,-0.023929,0.055183,-14.875360,-38.447437,61.980019
1703503018.083602,1703503749.924688,93.000000,0.000000,4299.743652,4280.128418,4322.820313,4321.538574,4303.846191,4309.230957,4297.436035,4307.563965,4309.743652,4280.256348,4574.358887,4511.538574,4414.871582,4466.666504,7226.000000,3.000000,61.000000,,,,0.000000,4.000000,4.000000,4.000000,4.000000,4.000000,4.000000,4.000000,4.000000,4.000000,4.000000,4.000000,4.000000,4.000000,4.000000,100.000000,,,,,,,,,,,,,,,,,,,,,,,,,,,,
1703503018.091410,1703503749.932496,94.000000,0.000000,4314.487305,4292.307617,4337.051270,4331.153809,4300.384766,4306.666504,4292.692383,4299.487305,4308.205078,4285.000000,4573.717773,4509.230957,4419.358887,4476.282227,6045.000000,3.000000,61.000000,,,,0.000000,4.000000,4.000000,4.000000,4.000000,4.000000,4.000000,4.000000,4.000000,4.000000,4.000000,4.000000,4.000000,4.000000,4.000000,100.000000,,,,,,,,,,,,,,,,,,,,,,,,,,,,
1703503018.099218,1703503749.940204,95.000000,0.000000,4322.179688,4298.589844,4338.846191,4332.179688,4304.358887,4303.205078,4292.948730,4285.512695,4294.230957,4275.512695,4567.051270,4505.000000,4419.615234,4475.897461,6320.000000,3.000000,61.000000,,,,0.000000,4.000000,4.000000,4.000000,4.000000,4.000000,4.000000,4.000000,4.000000,4.000000,4.000000,4.000000,4.000000,4.000000,4.000000,100.000000,,,,,,,,,,,,,,,,,,,,,,,,,,,,
1703503018.107026,1703503749.948112,96.000000,0.000000,4322.563965,4297.820313,4342.563965,4327.179688,4300.512695,4297.820313,4288.846191,4275.512695,4281.538574,4267.563965,4569.871582,4517.051270,4419.871582,4478.974121,6831.000000,3.000000,61.000000,,,,0.000000,4.000000,4.000000,4.000000,4.000000,4.000000,4.000000,4.000000,4.000000,4.000000,4.000000,4.000000,4.000000,4.000000,4.000000,100.000000,,,,,,,,,,,,,,,,,24.000000,0.000000,0.432060,0.543396,-0.420044,0.584473,0.992309,-0.026370,0.049811,-14.737823,-38.702694,62.032017
1703503018.114834,1703503749.955920,97.000000,0.000000,4323.461426,4300.128418,4350.512695,4326.410156,4295.769043,4293.205078,4281.153809,4274.102539,4276.410156,4274.743652,4579.487305,4521.282227,4426.410156,4491.025879,7226.000000,3.000000,61.000000,,,,0.000000,4.000000,4.000000,4.000000,4.000000,4.000000,4.000000,4.000000,4.000000,4.000000,4.000000,4.000000,4.000000,4.000000,4.000000,100.000000,1.000000,100.000000,4.000000,4.000000,4.000000,4.000000,4.000000,4.000000,4.000000,4.000000,4.000000,4.000000,4.000000,4.000000,4.000000,4.000000,,,,,,,,,,,,
1703503018.122643,1703503749.963828,98.000000,0.000000,4320.128418,4298.717773,4347.436035,4330.769043,4297.179688,4293.205078,4284.230957,4275.897461,4278.333496,4277.948730,4579.102539,4511.666504,4426.794922,4491.922852,6045.000000,3.000000,61.000000,,,,0.000000,4.000000,4.000000,4.000000,4.000000,4.000000,4.000000,4.000000,4.000000,4.000000,4.000000,4.000000,4.000000,4.000000,4.000000,100.000000,,,,,,,,,,,,,,,,,,,,,,,,,,,,
1703503018.130451,1703503749.971636,99.000000,0.000000,4308.205078,4288.717773,4337.563965,4326.794922,4294.230957,4298.461426,4289.102539,4277.436035,4276.025879,4264.743652,4565.128418,4502.563965,4409.615234,4475.128418,6320.000000,3.000000,61.000000,,,,0.000000,4.000000,4.000000,4.000000,4.000000,4.000000,4.000000,4.000000,4.000000,4.000000,4.000000,4.000000,4.000000,4.000000,4.000000,100.000000,,,,,,,,,,,,,,,,,,,,,,,,,,,,
1703503018.138259,1703503749.979544,100.000000,0.000000,4299.230957,4279.871582,4328.717773,4313.333496,4291.922852,4306.153809,4287.820313,4290.769043,4280.128418,4262.820313,4563.974121,4502.563965,4406.538574,4469.615234,6831.000000,3.000000,61.000000,,,,0.000000,4.000000,4.000000,4.000000,4.000000,4.000000,4.000000,4.000000,4.000000,4.000000,4.000000,4.000000,4.000000,4.000000,4.000000,100.000000,,,,,,,,,,,,,,,,,25.000000,0.000000,0.431958,0.543579,-0.420166,0.584290,0.988402,-0.021975,0.054206,-14.830708,-38.599091,62.028816
1703503018.146067,1703503749.987352,101.000000,0.000000,4295.769043,4279.487305,4325.256348,4307.436035,4294.615234,4310.384766,4292.179688,4320.384766,4301.410156,4284.615234,4582.563965,4513.205078,4425.512695,4476.025879,7226.000000,3.000000,61.000000,,,,0.000000,4.000000,4.000000,4.000000,4.000000,4.000000,4.000000,4.000000,4.000000,4.000000,4.000000,4.000000,4.000000,4.000000,4.000000,100.000000,,,,,,,,,,,,,,,,,,,,,,,,,,,,
1703503018.153875,1703503749.995260,102.000000,0.000000,4294.743652,4286.922852,4325.897461,4315.897461,4298.461426,4311.025879,4296.794922,4339.102539,4325.769043,4307.179688,4598.974121,4522.179688,4436.153809,4478.974121,6045.000000,3.000000,61.000000,,,,0.000000,4.000000,4.000000,4.000000,4.000000,4.000000,4.000000,4.000000,4.000000,4.000000,4.000000,4.000000,4.000000,4.000000,4.000000,100.000000,,,,,,,,,,,,,,,,,,,,,,,,,,,,
1703503018.161683,1703503750.003068,103.000000,0.000000,4300.897461,4294.230957,4326.922852,4329.102539,4307.051270,4311.282227,4294.743652,4333.589844,4330.512695,4306.922852,4592.820313,4521.025879,4428.077148,4477.820313,6320.000000,3.000000,61.000000,,,,0.000000,4.000000,4.000000,4.000000,4.000000,4.000000,4.000000,4.000000,4.000000,4.000000,4.000000,4.000000,4.000000,4.000000,4.000000,100.000000,,,,,,,,,,,,,,,,,,,,,,,,,,,,
1703503018.169491,1703503750.010776,104.000000,0.000000,4316.538574,4299.230957,4336.025879,4338.205078,4312.436035,4311.538574,4293.077148,4321.282227,4318.717773,4296.025879,4583.717773,4520.000000,4424.871582,4478.717773,6831.000000,3.000000,61.000000,,,,0.000000,4.000000,4.000000,4.000000,4.000000,4.000000,4.000000,4.000000,4.000000,4.000000,4.000000,4.000000,4.000000,4.000000,4.000000,100.000000,,,,,,,,,,,,,,,,,26.000000,0.000000,0.431870,0.543762,-0.420105,0.584229,0.983518,-0.022952,0.051764,-14.897637,-38.572517,61.959267
1703503018.177299,1703503750.018584,105.000000,0.000000,4322.563965,4300.384766,4345.897461,4339.615234,4309.230957,4307.948730,4289.230957,4314.487305,4313.717773,4301.794922,4593.461426,4525.000000,4437.307617,4484.358887,7226.000000,3.000000,61.000000,,,,0.000000,4.000000,4.000000,4.000000,4.000000,4.000000,4.000000,4.000000,4.000000,4.000000,4.000000,4.000000,4.000000,4.000000,4.000000,100.000000,,,,,,,,,,,,,,,,,,,,,,,,,,,,
1703503018.185107,1703503750.026292,106.000000,0.000000,4314.102539,4299.615234,4342.563965,4335.897461,4302.948730,4301.282227,4282.820313,4301.282227,4305.641113,4301.794922,4595.256348,4520.256348,4437.820313,4484.230957,6045.000000,3.000000,61.000000,,,,0.000000,4.000000,4.000000,4.000000,4.000000,4.000000,4.000000,4.000000,4.000000,4.000000,4.000000,4.000000,4.000000,4.000000,4.000000,100.000000,,,,,,,,,,,,,,,,,,,,,,,,,,,,
1703503018.192915,1703503750.034100,107.000000,0.000000,4313.717773,4296.538574,4339.871582,4334.871582,4296.410156,4295.384766,4280.128418,4281.666504,4283.717773,4280.512695,4583.205078,4515.641113,4430.897461,4483.077148,6320.000000,3.000000,61.000000,,,,0.000000,4.000000,4.000000,4.000000,4.000000,4.000000,4.000000,4.000000,4.000000,4.000000,4.000000,4.000000,4.000000,4.000000,4.000000,100.000000,,,,,,,,,,,,,,,,,,,,,,,,,,,,
1703503018.200723,1703503750.041808,108.000000,0.000000,4310.512695,4282.820313,4342.948730,4327.692383,4292.948730,4292.692383,4278.461426,4274.230957,4273.846191,4274.743652,4583.589844,4517.563965,4437.179688,4484.615234,6831.000000,3.000000,61.000000,,,,0.000000,4.000000,4.000000,4.000000,4.000000,4.000000,4.000000,4.000000,4.000000,4.000000,4.000000,4.000000,4.000000,4.000000,4.000000,100.000000,,,,,,,,,,,,,,,,,27.000000,0.000000,0.431853,0.543945,-0.419800,0.584290,0.987425,-0.042486,0.058601,-14.974540,-38.515263,61.880009
1703503018.208531,1703503750.049616,109.000000,0.000000,4301.922852,4275.769043,4342.307617,4321.410156,4292.563965,4293.974121,4281.922852,4279.230957,4280.000000,4279.743652,4586.025879,4511.282227,4438.333496,4481.666504,7226.000000,3.000000,61.000000,,,,0.000000,4.000000,4.000000,4.000000,4.000000,4.000000,4.000000,4.000000,4.000000,4.000000,4.000000,4.000000,4.000000,4.000000,4.000000,100.000000,,,,,,,,,,,,,,,,,,,,,,,,,,,,
1703503018.216339,1703503750.057324,110.000000,0.000000,4307.948730,4290.000000,4340.512695,4330.000000,4292.051270,4298.589844,4288.974121,4279.615234,4275.256348,4268.333496,4578.846191,4507.563965,4428.717773,4477.948730,6045.000000,3.000000,61.000000,,,,0.000000,4.000000,4.000000,4.000000,4.000000,4.000000,4.000000,4.000000,4.000000,4.000000,4.000000,4.000000,4.000000,4.000000,4.000000,100.000000,,,,,,,,,,,,,,,,,,,,,,,,,,,,
1703503018.224147,1703503750.065232,111.000000,0.000000,4312.307617,4293.846191,4340.256348,4333.205078,4292.051270,4302.179688,4293.846191,4276.153809,4261.410156,4257.820313,4572.436035,4508.717773,4422.179688,4476.410156,6320.000000,3.000000,61.000000,,,,0.000000,4.000000,4.000000,4.000000,4.000000,4.000000,4.000000,4.000000,4.000000,4.000000,4.000000,4.000000,4.000000,4.000000,4.000000,100.000000,,,,,,,,,,,,,,,,,,,,,,,,,,,,
1703503018.231955,1703503750.073040,112.000000,0.000000,4304.230957,4281.794922,4340.000000,4329.743652,4294.487305,4306.282227,4296.794922,4285.641113,4265.512695,4262.948730,4573.077148,4505.641113,4421.282227,4476.410156,6831.000000,3.000000,61.000000,,,,0.000000,4.000000,4.000000,4.000000,4.000000,4.000000,4.000000,4.000000,4.000000,4.000000,4.000000,4.000000,4.000000,4.000000,4.000000,100.000000,,,,,,,,,,,,,,,,,28.000000,0.000000,0.431902,0.543945,-0.419495,0.584473,1.002564,-0.018069,0.057136,-15.027086,-38.580406,61.825340
1703503018.239763,1703503750.080948,113.000000,0.000000,4302.436035,4286.410156,4339.102539,4332.948730,4296.538574,4311.025879,4297.563965,4305.128418,4288.077148,4276.922852,4582.948730,4509.871582,4427.179688,4479.615234,7226.000000,3.000000,61.000000,,,,0.000000,4.000000,4.000000,4.000000,4.000000,4.000000,4.000000,4.000000,4.000000,4.000000,4.000000,4.000000,4.000000,4.000000,4.000000,100.000000,,,,,,,,,,,,,,,,,,,,,,,,,,,,
1703503018.247571,1703503750.088756,114.000000,0.000000,4308.461426,4293.974121,4339.102539,4332.563965,4293.589844,4309.487305,4298.461426,4309.102539,4301.282227,4285.641113,4581.666504,4519.487305,4427.563965,4480.384766,6045.000000,3.000000,61.000000,,,,0.000000,4.000000,4.000000,4.000000,4.000000,4.000000,4.000000,4.000000,4.000000,4.000000,4.000000,4.000000,4.000000,4.000000,4.000000,100.000000,,,,,,,,,,,,,,,,,,,,,,,,,,,,
1703503018.255380,1703503750.096664,115.000000,0.000000,4308.461426,4289.615234,4340.641113,4330.128418,4298.333496,4306.025879,4296.025879,4299.743652,4295.769043,4281.153809,4571.153809,4517.051270,4418.974121,4479.615234,6320.000000,3.000000,61.000000,,,,0.000000,4.000000,4.000000,4.000000,4.000000,4.000000,4.000000,4.000000,4.000000,4.000000,4.000000,4.000000,4.000000,4.000000,4.000000,100.000000,,,,,,,,,,,,,,,,,,,,,,,,,,,,
1703503018.263188,1703503750.104471,116.000000,0.000000,4313.205078,4296.538574,4350.000000,4340.000000,4309.487305,4304.102539,4287.692383,4296.025879,4293.333496,4279.615234,4579.871582,4515.641113,4424.358887,4490.256348,6831.000000,3.000000,61.000000,,,,0.000000,4.000000,4.000000,4.000000,4.000000,4.000000,4.000000,4.000000,4.000000,4.000000,4.000000,4.000000,4.000000,4.000000,4.000000,100.000000,,,,,,,,,,,,,,,,,29.000000,0.000000,0.431896,0.543884,-0.419495,0.584534,0.990844,-0.039556,0.061531,-15.024378,-38.755699,61.659473
1703503018.270996,1703503750.112279,117.000000,0.000000,4324.615234,4309.743652,4361.538574,4347.563965,4305.256348,4298.077148,4279.871582,4288.717773,4294.358887,4279.743652,4585.000000,4521.666504,4432.051270,4495.128418,7226.000000,3.000000,61.000000,,,,0.000000,4.000000,4.000000,4.000000,4.000000,4.000000,4.000000,4.000000,4.000000,4.000000,4.000000,4.000000,4.000000,4.000000,4.000000,100.000000,,,,,,,,,,,,,,,,,,,,,,,,,,,,
1703503018.278804,1703503750.119988,118.000000,0.000000,4329.743652,4310.000000,4362.948730,4342.307617,4299.358887,4292.179688,4277.692383,4279.102539,4294.358887,4281.282227,4580.897461,4523.333496,4435.512695,4491.153809,6045.000000,3.000000,61.000000,,,,0.000000,4.000000,4.000000,4.000000,4.000000,4.000000,4.000000,4.000000,4.000000,4.000000,4.000000,4.000000,4.000000,4.000000,4.000000,100.000000,,,,,,,,,,,,,,,,,,,,,,,,,,,,
1703503018.286612,1703503750.127895,119.000000,0.000000,4328.717773,4306.282227,4363.077148,4342.179688,4304.743652,4288.205078,4276.410156,4282.179688,4298.205078,4291.153809,4586.922852,4525.384766,4441.794922,4494.615234,6320.000000,3.000000,61.000000,,,,0.000000,4.000000,4.000000,4.000000,4.000000,4.000000,4.000000,4.000000,4.000000,4.000000,4.000000,4.000000,4.000000,4.000000,4.000000,100.000000,,,,,,,,,,,,,,,,,,,,,,,,,,,,
1703503018.294420,1703503750.135703,120.000000,0.000000,4325.256348,4307.563965,4363.077148,4342.820313,4306.153809,4279.615234,4268.205078,4278.589844,4292.692383,4290.512695,4581.794922,4522.179688,4432.179688,4490.000000,6831.000000,3.000000,61.000000,,,,0.000000,4.000000,4.000000,4.000000,4.000000,4.000000,4.000000,4.000000,4.000000,4.000000,4.000000,4.000000,4.000000,4.000000,4.000000,100.000000,,,,,,,,,,,,,,,,,30.000000,0.000000,0.431943,0.543640,-0.419678,0.584595,0.988402,-0.028324,0.062508,-15.021940,-38.830128,61.710194
1703503018.302228,1703503750.143611,121.000000,0.000000,4316.794922,4305.512695,4350.512695,4334.871582,4301.282227,4277.692383,4263.077148,4262.820313,4277.436035,4272.820313,4565.512695,4510.256348,4415.769043,4477.051270,7226.000000,3.000000,61.000000,,,,0.000000,4.000000,4.000000,4.000000,4.000000,4.000000,4.000000,4.000000,4.000000,4.000000,4.000000,4.000000,4.000000,4.000000,4.000000,100.000000,,,,,,,,,,,,,,,,,,,,,,,,,,,,
1703503018.310036,1703503750.151419,122.000000,0.000000,4308.846191,4294.230957,4339.230957,4325.384766,4297.179688,4290.000000,4272.051270,4259.230957,4269.487305,4263.333496,4559.487305,4501.922852,4410.897461,4469.871582,6045.000000,3.000000,61.000000,,,,0.000000,4.000000,4.000000,4.000000,4.000000,4.000000,4.000000,4.000000,4.000000,4.000000,4.000000,4.000000,4.000000,4.000000,4.000000,100.000000,,,,,,,,,,,,,,,,,,,,,,,,,,,,
1703503018.317844,1703503750.159327,123.000000,0.000000,4305.256348,4283.077148,4340.256348,4318.205078,4295.000000,4296.538574,4281.410156,4266.794922,4270.769043,4264.871582,4555.641113,4498.461426,4406.666504,4466.666504,6320.000000,3.000000,61.000000,,,,0.000000,4.000000,4.000000,4.000000,4.000000,4.000000,4.000000,4.000000,4.000000,4.000000,4.000000,4.000000,4.000000,4.000000,4.000000,100.000000,,,,,,,,,,,,,,,,,,,,,,,,,,,,
1703503018.325652,1703503750.167135,124.000000,0.000000,4295.897461,4277.179688,4338.589844,4311.153809,4294.487305,4294.743652,4280.897461,4268.461426,4267.948730,4257.820313,4547.051270,4490.128418,4396.922852,4460.769043,6831.000000,3.000000,61.000000,,,,0.000000,4.000000,4.000000,4.000000,4.000000,4.000000,4.000000,4.000000,4.000000,4.000000,4.000000,4.000000,4.000000,4.000000,4.000000,100.000000,,,,,,,,,,,,,,,,,31.000000,0.000000,0.432207,0.543213,-0.420044,0.584534,0.991820,-0.036626,0.057624,-14.936413,-38.780449,61.672504
1703503018.333460,1703503750.175043,125.000000,0.000000,4293.717773,4276.153809,4337.820313,4308.077148,4294.358887,4303.077148,4281.538574,4272.436035,4267.692383,4255.128418,4549.230957,4488.205078,4397.692383,4462.179688,7226.000000,3.000000,61.000000,,,,0.000000,4.000000,4.000000,4.000000,4.000000,4.000000,4.000000,4.000000,4.000000,4.000000,4.000000,4.000000,4.000000,4.000000,4.000000,100.000000,,,,,,,,,,,,,,,,,,,,,,,,,,,,
1703503018.341268,1703503750.182851,126.000000,0.000000,4303.846191,4279.871582,4342.179688,4311.282227,4295.256348,4314.230957,4285.000000,4286.282227,4284.358887,4272.692383,4563.589844,4504.615234,4411.282227,4475.128418,6045.000000,3.000000,61.000000,,,,0.000000,4.000000,4.000000,4.000000,4.000000,4.000000,4.000000,4.000000,4.000000,4.000000,4.000000,4.000000,4.000000,4.000000,4.000000,100.000000,,,,,,,,,,,,,,,,,,,,,,,,,,,,
1703503018.349076,1703503750.190759,127.000000,0.000000,4301.666504,4280.897461,4341.922852,4308.333496,4294.358887,4309.487305,4284.871582,4292.563965,4293.717773,4277.436035,4567.820313,4508.846191,4412.692383,4474.871582,61.000000,3.000000,61.000000,,,,0.000000,4.000000,4.000000,4.000000,4.000000,4.000000,4.000000,4.000000,4.000000,4.000000,4.000000,4.000000,4.000000,4.000000,4.000000,100.000000,,,,,,,,,,,,,,,,,,,,,,,,,,,,
1703503018.356884,1703503750.198667,0.000000,0.000000,4291.794922,4277.307617,4338.589844,4299.487305,4292.179688,4296.794922,4278.205078,4286.538574,4288.589844,4264.487305,4562.051270,4496.282227,4402.692383,4463.461426,5260.000000,3.000000,61.000000,,,,0.000000,4.000000,4.000000,4.000000,4.000000,4.000000,4.000000,4.000000,4.000000,4.000000,4.000000,4.000000,4.000000,4.000000,4.000000,100.000000,,,,,,,,,,,,,,,,,0.000000,0.000000,0.432129,0.543152,-0.420288,0.584473,1.005494,-0.020510,0.047857,-14.926105,-38.702404,61.621922
