title:فارس اعلى, start timestamp:1703505137.022393, stop timestamp:1703505147.688194, headset type:EPOCX, headset serial:E50206EF, headset firmware:720, channels:67, sampling rate:eeg_128;mot_32, samples:1367      , version:2.2, 
Timestamp,OriginalTimestamp,EEG.Counter,EEG.Interpolated,EEG.AF3,EEG.F7,EEG.F3,EEG.FC5,EEG.T7,EEG.P7,EEG.O1,EEG.O2,EEG.P8,EEG.T8,EEG.FC6,EEG.F4,EEG.F8,EEG.AF4,EEG.RawCq,EEG.Battery,EEG.BatteryPercent,MarkerIndex,MarkerType,MarkerValueInt,EEG.MarkerHardware,CQ.AF3,CQ.F7,CQ.F3,CQ.FC5,CQ.T7,CQ.P7,CQ.O1,CQ.O2,CQ.P8,CQ.T8,CQ.FC6,CQ.F4,CQ.F8,CQ.AF4,CQ.Overall,EQ.SampleRateQuality,EQ.OVERALL,EQ.AF3,EQ.F7,EQ.F3,EQ.FC5,EQ.T7,EQ.P7,EQ.O1,EQ.O2,EQ.P8,EQ.T8,EQ.FC6,EQ.F4,EQ.F8,EQ.AF4,MOT.CounterMems,MOT.InterpolatedMems,MOT.Q0,MOT.Q1,MOT.Q2,MOT.Q3,MOT.AccX,MOT.AccY,MOT.AccZ,MOT.MagX,MOT.MagY,MOT.MagZ
1703505137.022393,1703505137.023546,68.000000,0.000000,4290.384766,4263.974121,4309.358887,4321.666504,4292.436035,4264.230957,4253.974121,4273.205078,4260.000000,4260.128418,4540.384766,4469.615234,4359.743652,4430.641113,5298.000000,3.000000,56.000000,,,,0.000000,4.000000,4.000000,4.000000,4.000000,4.000000,4.000000,4.000000,4.000000,4.000000,4.000000,4.000000,4.000000,4.000000,4.000000,100.000000,,,,,,,,,,,,,,,,,17.000000,0.000000,0.339169,-0.717224,-0.128418,-0.595032,0.923453,-0.309120,-0.049811,-7.350456,-45.402328,57.880192
1703505137.030201,1703505137.031354,69.000000,0.000000,4288.077148,4264.102539,4310.512695,4315.512695,4295.384766,4260.641113,4246.922852,4273.717773,4260.000000,4255.384766,4529.230957,4463.589844,4356.410156,4425.897461,5135.000000,3.000000,56.000000,,,,0.000000,4.000000,4.000000,4.000000,4.000000,4.000000,4.000000,4.000000,4.000000,4.000000,4.000000,4.000000,4.000000,4.000000,4.000000,100.000000,,,,,,,,,,,,,,,,,,,,,,,,,,,,
1703505137.038009,1703505137.039162,70.000000,0.000000,4285.128418,4258.333496,4310.641113,4304.230957,4293.974121,4256.538574,4247.436035,4271.025879,4254.102539,4252.179688,4526.666504,4464.871582,4356.794922,4428.974121,3869.000000,3.000000,56.000000,,,,0.000000,4.000000,4.000000,4.000000,4.000000,4.000000,4.000000,4.000000,4.000000,4.000000,4.000000,4.000000,4.000000,4.000000,4.000000,100.000000,,,,,,,,,,,,,,,,,,,,,,,,,,,,
1703505137.045817,1703505137.046870,71.000000,0.000000,4282.948730,4249.487305,4308.077148,4296.410156,4295.256348,4250.384766,4248.461426,4267.820313,4247.179688,4249.743652,4523.333496,4470.000000,4360.897461,4430.897461,5160.000000,3.000000,56.000000,,,,0.000000,4.000000,4.000000,4.000000,4.000000,4.000000,4.000000,4.000000,4.000000,4.000000,4.000000,4.000000,4.000000,4.000000,4.000000,100.000000,,,,,,,,,,,,,,,,,,,,,,,,,,,,
1703505137.053625,1703505137.054678,72.000000,0.000000,4281.922852,4250.256348,4307.179688,4295.769043,4293.846191,4249.487305,4247.436035,4268.589844,4247.436035,4247.563965,4520.256348,4476.025879,4361.410156,4436.538574,5420.000000,3.000000,56.000000,,,,0.000000,4.000000,4.000000,4.000000,4.000000,4.000000,4.000000,4.000000,4.000000,4.000000,4.000000,4.000000,4.000000,4.000000,4.000000,100.000000,,,,,,,,,,,,,,,,,18.000000,0.000000,0.338888,-0.716553,-0.126953,-0.596313,0.936638,-0.306678,-0.045416,-7.415410,-45.362095,57.825508
1703505137.061433,1703505137.062386,73.000000,0.000000,4280.256348,4251.666504,4304.615234,4297.051270,4289.871582,4251.153809,4248.077148,4268.077148,4245.897461,4244.487305,4519.615234,4471.794922,4353.589844,4435.512695,5519.000000,3.000000,56.000000,,,,0.000000,4.000000,4.000000,4.000000,4.000000,4.000000,4.000000,4.000000,4.000000,4.000000,4.000000,4.000000,4.000000,4.000000,4.000000,100.000000,,,,,,,,,,,,,,,,,,,,,,,,,,,,
1703505137.069241,1703505137.070294,74.000000,0.000000,4281.282227,4251.025879,4299.487305,4295.000000,4290.897461,4250.769043,4245.897461,4269.743652,4247.692383,4246.922852,4525.769043,4466.153809,4356.666504,4432.051270,6070.000000,3.000000,56.000000,,,,0.000000,4.000000,4.000000,4.000000,4.000000,4.000000,4.000000,4.000000,4.000000,4.000000,4.000000,4.000000,4.000000,4.000000,4.000000,100.000000,,,,,,,,,,,,,,,,,,,,,,,,,,,,
1703505137.077049,1703505137.078102,75.000000,0.000000,4278.461426,4244.743652,4296.666504,4284.102539,4287.051270,4246.666504,4241.153809,4270.641113,4250.384766,4250.256348,4521.666504,4460.384766,4356.282227,4426.153809,6389.000000,3.000000,56.000000,,,,0.000000,4.000000,4.000000,4.000000,4.000000,4.000000,4.000000,4.000000,4.000000,4.000000,4.000000,4.000000,4.000000,4.000000,4.000000,100.000000,,,,,,,,,,,,,,,,,,,,,,,,,,,,
1703505137.084857,1703505137.085910,76.000000,0.000000,4273.205078,4234.102539,4293.717773,4273.077148,4277.179688,4239.230957,4236.282227,4265.384766,4244.871582,4244.871582,4506.922852,4451.025879,4344.615234,4416.922852,6883.000000,3.000000,56.000000,,,,0.000000,4.000000,4.000000,4.000000,4.000000,4.000000,4.000000,4.000000,4.000000,4.000000,4.000000,4.000000,4.000000,4.000000,4.000000,100.000000,,,,,,,,,,,,,,,,,19.000000,0.000000,0.339475,-0.716003,-0.125610,-0.596924,0.951776,-0.314980,-0.053229,-7.390536,-45.325886,57.942955
1703505137.092665,1703505137.093618,77.000000,0.000000,4274.487305,4236.666504,4295.512695,4272.436035,4277.948730,4235.128418,4236.794922,4262.820313,4245.769043,4242.948730,4512.051270,4452.563965,4349.615234,4419.871582,7196.000000,3.000000,56.000000,,,,0.000000,4.000000,4.000000,4.000000,4.000000,4.000000,4.000000,4.000000,4.000000,4.000000,4.000000,4.000000,4.000000,4.000000,4.000000,100.000000,,,,,,,,,,,,,,,,,,,,,,,,,,,,
1703505137.100473,1703505137.101426,78.000000,0.000000,4279.871582,4245.641113,4302.179688,4275.256348,4283.717773,4235.512695,4240.769043,4265.384766,4251.538574,4250.641113,4524.230957,4460.384766,4355.384766,4425.256348,6070.000000,3.000000,56.000000,,,,0.000000,4.000000,4.000000,4.000000,4.000000,4.000000,4.000000,4.000000,4.000000,4.000000,4.000000,4.000000,4.000000,4.000000,4.000000,100.000000,,,,,,,,,,,,,,,,,,,,,,,,,,,,
1703505137.108281,1703505137.109134,79.000000,0.000000,4278.461426,4239.102539,4297.179688,4271.153809,4279.230957,4232.563965,4236.410156,4264.615234,4246.153809,4250.256348,4516.666504,4454.871582,4343.974121,4417.820313,6389.000000,3.000000,56.000000,,,,0.000000,4.000000,4.000000,4.000000,4.000000,4.000000,4.000000,4.000000,4.000000,4.000000,4.000000,4.000000,4.000000,4.000000,4.000000,100.000000,,,,,,,,,,,,,,,,,,,,,,,,,,,,
1703505137.116089,1703505137.116942,80.000000,0.000000,4266.282227,4228.077148,4288.974121,4263.589844,4272.436035,4229.358887,4231.282227,4258.461426,4235.512695,4237.436035,4503.717773,4441.410156,4337.948730,4407.948730,6883.000000,3.000000,56.000000,,,,0.000000,4.000000,4.000000,4.000000,4.000000,4.000000,4.000000,4.000000,4.000000,4.000000,4.000000,4.000000,4.000000,4.000000,4.000000,100.000000,,,,,,,,,,,,,,,,,20.000000,0.000000,0.340820,-0.715698,-0.124573,-0.596741,0.936638,-0.343792,-0.039556,-7.434815,-45.276630,57.981995
1703505137.123897,1703505137.124650,81.000000,0.000000,4261.794922,4233.333496,4293.077148,4260.128418,4273.717773,4233.205078,4235.128418,4250.512695,4232.179688,4230.512695,4503.205078,4437.307617,4339.230957,4404.358887,7196.000000,3.000000,56.000000,,,,0.000000,4.000000,4.000000,4.000000,4.000000,4.000000,4.000000,4.000000,4.000000,4.000000,4.000000,4.000000,4.000000,4.000000,4.000000,100.000000,,,,,,,,,,,,,,,,,,,,,,,,,,,,
1703505137.131705,1703505137.132458,82.000000,0.000000,4270.384766,4240.384766,4297.051270,4261.025879,4279.358887,4234.358887,4236.922852,4247.179688,4233.589844,4231.538574,4506.025879,4442.179688,4335.128418,4404.743652,6070.000000,3.000000,56.000000,,,,0.000000,4.000000,4.000000,4.000000,4.000000,4.000000,4.000000,4.000000,4.000000,4.000000,4.000000,4.000000,4.000000,4.000000,4.000000,100.000000,,,,,,,,,,,,,,,,,,,,,,,,,,,,
1703505137.139514,1703505137.140166,83.000000,0.000000,4279.615234,4239.102539,4297.051270,4264.487305,4278.589844,4228.846191,4231.922852,4250.641113,4230.256348,4224.487305,4505.384766,4448.333496,4332.051270,4411.922852,6389.000000,3.000000,56.000000,,,,0.000000,4.000000,4.000000,4.000000,4.000000,4.000000,4.000000,4.000000,4.000000,4.000000,4.000000,4.000000,4.000000,4.000000,4.000000,100.000000,,,,,,,,,,,,,,,,,,,,,,,,,,,,
1703505137.147322,1703505137.148074,84.000000,0.000000,4278.333496,4239.615234,4296.538574,4263.461426,4270.128418,4228.077148,4230.128418,4246.922852,4223.333496,4217.436035,4501.538574,4446.666504,4330.897461,4412.563965,6883.000000,3.000000,56.000000,,,,0.000000,4.000000,4.000000,4.000000,4.000000,4.000000,4.000000,4.000000,4.000000,4.000000,4.000000,4.000000,4.000000,4.000000,4.000000,100.000000,,,,,,,,,,,,,,,,,21.000000,0.000000,0.342016,-0.715454,-0.124451,-0.596375,0.942498,-0.352582,-0.038091,-7.391334,-45.348969,57.967129
1703505137.155130,1703505137.155882,85.000000,0.000000,4273.205078,4242.563965,4293.717773,4261.025879,4266.410156,4230.641113,4232.563965,4237.563965,4218.717773,4215.897461,4495.897461,4436.666504,4330.256348,4408.717773,7196.000000,3.000000,56.000000,,,,0.000000,4.000000,4.000000,4.000000,4.000000,4.000000,4.000000,4.000000,4.000000,4.000000,4.000000,4.000000,4.000000,4.000000,4.000000,100.000000,,,,,,,,,,,,,,,,,,,,,,,,,,,,
1703505137.162938,1703505137.163790,86.000000,0.000000,4275.769043,4242.436035,4291.538574,4263.333496,4260.769043,4228.333496,4227.051270,4230.000000,4211.922852,4207.436035,4486.282227,4427.820313,4324.743652,4407.948730,6070.000000,3.000000,56.000000,,,,0.000000,4.000000,4.000000,4.000000,4.000000,4.000000,4.000000,4.000000,4.000000,4.000000,4.000000,4.000000,4.000000,4.000000,4.000000,100.000000,,,,,,,,,,,,,,,,,,,,,,,,,,,,
1703505137.170746,1703505137.171598,87.000000,0.000000,4278.846191,4239.743652,4288.717773,4265.128418,4252.948730,4227.692383,4215.897461,4228.846191,4208.974121,4206.666504,4485.769043,4430.000000,4321.153809,4409.743652,6389.000000,3.000000,56.000000,,,,0.000000,4.000000,4.000000,4.000000,4.000000,4.000000,4.000000,4.000000,4.000000,4.000000,4.000000,4.000000,4.000000,4.000000,4.000000,100.000000,,,,,,,,,,,,,,,,,,,,,,,,,,,,
1703505137.178554,1703505137.179506,88.000000,0.000000,4281.153809,4243.589844,4290.000000,4264.102539,4257.436035,4232.307617,4214.102539,4239.871582,4223.205078,4225.512695,4505.512695,4442.436035,4337.692383,4419.358887,6883.000000,3.000000,56.000000,,,,0.000000,4.000000,4.000000,4.000000,4.000000,4.000000,4.000000,4.000000,4.000000,4.000000,4.000000,4.000000,4.000000,4.000000,4.000000,100.000000,,,,,,,,,,,,,,,,,22.000000,0.000000,0.342419,-0.715454,-0.124512,-0.596130,0.922476,-0.366744,-0.048346,-7.518867,-45.247406,57.837082
1703505137.186362,1703505137.187314,89.000000,0.000000,4289.358887,4249.871582,4295.641113,4268.846191,4271.153809,4232.307617,4219.487305,4249.102539,4236.666504,4234.487305,4515.641113,4445.512695,4354.487305,4429.615234,7196.000000,3.000000,56.000000,,,,0.000000,4.000000,4.000000,4.000000,4.000000,4.000000,4.000000,4.000000,4.000000,4.000000,4.000000,4.000000,4.000000,4.000000,4.000000,100.000000,,,,,,,,,,,,,,,,,,,,,,,,,,,,
1703505137.194170,1703505137.195222,90.000000,0.000000,4296.282227,4250.512695,4295.641113,4276.410156,4271.794922,4234.615234,4223.846191,4247.820313,4234.743652,4229.487305,4513.205078,4447.692383,4349.487305,4438.846191,6070.000000,3.000000,56.000000,,,,0.000000,4.000000,4.000000,4.000000,4.000000,4.000000,4.000000,4.000000,4.000000,4.000000,4.000000,4.000000,4.000000,4.000000,4.000000,100.000000,,,,,,,,,,,,,,,,,,,,,,,,,,,,
1703505137.201978,1703505137.203030,91.000000,0.000000,4294.871582,4248.205078,4294.615234,4274.871582,4268.333496,4243.333496,4229.615234,4249.743652,4232.307617,4232.051270,4520.769043,4453.717773,4346.025879,4440.256348,6389.000000,3.000000,56.000000,,,,0.000000,4.000000,4.000000,4.000000,4.000000,4.000000,4.000000,4.000000,4.000000,4.000000,4.000000,4.000000,4.000000,4.000000,4.000000,100.000000,,,,,,,,,,,,,,,,,,,,,,,,,,,,
1703505137.209786,1703505137.210938,92.000000,0.000000,4293.333496,4248.205078,4297.051270,4267.820313,4270.897461,4245.897461,4233.846191,4259.358887,4237.948730,4238.461426,4528.461426,4454.358887,4355.641113,4436.153809,6883.000000,3.000000,56.000000,,,,0.000000,4.000000,4.000000,4.000000,4.000000,4.000000,4.000000,4.000000,4.000000,4.000000,4.000000,4.000000,4.000000,4.000000,4.000000,100.000000,,,,,,,,,,,,,,,,,23.000000,0.000000,0.342965,-0.715637,-0.124878,-0.595520,0.939079,-0.363326,-0.052252,-7.300314,-45.339333,57.903374
1703505137.217594,1703505137.218746,93.000000,0.000000,4290.769043,4247.692383,4295.256348,4263.974121,4266.025879,4241.922852,4233.077148,4263.461426,4237.179688,4233.846191,4524.358887,4453.205078,4353.205078,4434.871582,7196.000000,3.000000,56.000000,,,,0.000000,4.000000,4.000000,4.000000,4.000000,4.000000,4.000000,4.000000,4.000000,4.000000,4.000000,4.000000,4.000000,4.000000,4.000000,100.000000,,,,,,,,,,,,,,,,,,,,,,,,,,,,
1703505137.225402,1703505137.226454,94.000000,0.000000,4285.512695,4241.922852,4292.179688,4267.307617,4265.512695,4243.333496,4233.589844,4259.487305,4229.871582,4223.974121,4521.922852,4452.051270,4338.461426,4428.333496,6070.000000,3.000000,56.000000,,,,0.000000,4.000000,4.000000,4.000000,4.000000,4.000000,4.000000,4.000000,4.000000,4.000000,4.000000,4.000000,4.000000,4.000000,4.000000,100.000000,,,,,,,,,,,,,,,,,,,,,,,,,,,,
1703505137.233210,1703505137.234262,95.000000,0.000000,4292.563965,4248.589844,4300.128418,4280.512695,4272.948730,4249.230957,4240.128418,4264.102539,4238.717773,4237.436035,4540.641113,4460.641113,4350.769043,4434.358887,6389.000000,3.000000,56.000000,,,,0.000000,4.000000,4.000000,4.000000,4.000000,4.000000,4.000000,4.000000,4.000000,4.000000,4.000000,4.000000,4.000000,4.000000,4.000000,100.000000,,,,,,,,,,,,,,,,,,,,,,,,,,,,
1703505137.241018,1703505137.241970,96.000000,0.000000,4310.128418,4263.717773,4317.307617,4292.820313,4280.512695,4251.282227,4248.974121,4274.743652,4251.410156,4257.563965,4564.230957,4483.333496,4376.538574,4453.333496,6883.000000,3.000000,56.000000,,,,0.000000,4.000000,4.000000,4.000000,4.000000,4.000000,4.000000,4.000000,4.000000,4.000000,4.000000,4.000000,4.000000,4.000000,4.000000,100.000000,,,,,,,,,,,,,,,,,24.000000,0.000000,0.342851,-0.715820,-0.125305,-0.595276,0.922964,-0.354047,-0.041997,-7.303616,-45.405399,57.896370
1703505137.248826,1703505137.249778,97.000000,0.000000,4315.769043,4268.717773,4326.153809,4297.307617,4292.820313,4251.410156,4252.051270,4280.897461,4249.743652,4252.563965,4572.563965,4492.948730,4381.153809,4458.461426,7196.000000,3.000000,56.000000,,,,0.000000,4.000000,4.000000,4.000000,4.000000,4.000000,4.000000,4.000000,4.000000,4.000000,4.000000,4.000000,4.000000,4.000000,4.000000,100.000000,,,,,,,,,,,,,,,,,,,,,,,,,,,,
1703505137.256634,1703505137.257486,98.000000,0.000000,4301.538574,4261.410156,4316.282227,4294.487305,4293.333496,4250.512695,4248.846191,4275.641113,4243.333496,4240.384766,4565.769043,4480.384766,4369.871582,4445.384766,6070.000000,3.000000,56.000000,,,,0.000000,4.000000,4.000000,4.000000,4.000000,4.000000,4.000000,4.000000,4.000000,4.000000,4.000000,4.000000,4.000000,4.000000,4.000000,100.000000,,,,,,,,,,,,,,,,,,,,,,,,,,,,
1703505137.264442,1703505137.265294,99.000000,0.000000,4292.051270,4258.717773,4306.538574,4289.871582,4286.025879,4250.769043,4247.948730,4264.358887,4240.512695,4240.641113,4560.384766,4470.128418,4362.051270,4435.769043,6389.000000,3.000000,56.000000,,,,0.000000,4.000000,4.000000,4.000000,4.000000,4.000000,4.000000,4.000000,4.000000,4.000000,4.000000,4.000000,4.000000,4.000000,4.000000,100.000000,,,,,,,,,,,,,,,,,,,,,,,,,,,,
1703505137.272251,1703505137.273002,100.000000,0.000000,4300.256348,4268.589844,4308.846191,4296.922852,4296.794922,4258.333496,4251.538574,4269.743652,4250.128418,4254.358887,4572.307617,4474.102539,4374.358887,4443.974121,6883.000000,3.000000,56.000000,,,,0.000000,4.000000,4.000000,4.000000,4.000000,4.000000,4.000000,4.000000,4.000000,4.000000,4.000000,4.000000,4.000000,4.000000,4.000000,100.000000,,,,,,,,,,,,,,,,,25.000000,0.000000,0.342352,-0.715759,-0.125854,-0.595520,0.917104,-0.334513,-0.043951,-7.173254,-45.431526,57.773399
1703505137.280059,1703505137.280810,101.000000,0.000000,4307.948730,4272.307617,4316.282227,4310.897461,4308.333496,4264.358887,4258.589844,4288.461426,4266.794922,4271.282227,4588.333496,4485.512695,4395.641113,4459.358887,7196.000000,3.000000,56.000000,,,,0.000000,4.000000,4.000000,4.000000,4.000000,4.000000,4.000000,4.000000,4.000000,4.000000,4.000000,4.000000,4.000000,4.000000,4.000000,100.000000,,,,,,,,,,,,,,,,,,,,,,,,,,,,
1703505137.287866,1703505137.288518,102.000000,0.000000,4306.025879,4265.897461,4318.461426,4313.205078,4297.820313,4262.692383,4263.077148,4293.077148,4269.871582,4275.897461,4589.615234,4491.794922,4397.692383,4457.948730,6070.000000,3.000000,56.000000,,,,0.000000,4.000000,4.000000,4.000000,4.000000,4.000000,4.000000,4.000000,4.000000,4.000000,4.000000,4.000000,4.000000,4.000000,4.000000,100.000000,,,,,,,,,,,,,,,,,,,,,,,,,,,,
1703505137.295675,1703505137.296326,103.000000,0.000000,4303.205078,4261.794922,4312.307617,4305.641113,4292.051270,4261.153809,4260.769043,4289.358887,4269.358887,4267.563965,4583.461426,4488.333496,4389.230957,4451.025879,6389.000000,3.000000,56.000000,,,,0.000000,4.000000,4.000000,4.000000,4.000000,4.000000,4.000000,4.000000,4.000000,4.000000,4.000000,4.000000,4.000000,4.000000,4.000000,100.000000,,,,,,,,,,,,,,,,,,,,,,,,,,,,
1703505137.303483,1703505137.304034,104.000000,0.000000,4306.153809,4260.512695,4312.692383,4303.077148,4302.179688,4263.589844,4261.282227,4291.410156,4273.717773,4263.461426,4578.589844,4487.948730,4385.512695,4455.641113,6883.000000,3.000000,56.000000,,,,0.000000,4.000000,4.000000,4.000000,4.000000,4.000000,4.000000,4.000000,4.000000,4.000000,4.000000,4.000000,4.000000,4.000000,4.000000,100.000000,,,,,,,,,,,,,,,,,26.000000,0.000000,0.341680,-0.715759,-0.126526,-0.595764,0.928824,-0.335979,-0.055671,-7.255929,-45.471706,57.962727
1703505137.311291,1703505137.311842,105.000000,0.000000,4315.641113,4265.512695,4323.333496,4308.333496,4308.205078,4265.512695,4265.128418,4294.487305,4273.333496,4271.794922,4579.743652,4497.051270,4388.974121,4461.538574,7196.000000,3.000000,56.000000,,,,0.000000,4.000000,4.000000,4.000000,4.000000,4.000000,4.000000,4.000000,4.000000,4.000000,4.000000,4.000000,4.000000,4.000000,4.000000,100.000000,,,,,,,,,,,,,,,,,,,,,,,,,,,,
1703505137.319099,1703505137.319550,106.000000,0.000000,4326.025879,4277.948730,4330.000000,4313.333496,4307.820313,4266.282227,4267.307617,4296.922852,4277.948730,4279.871582,4590.128418,4508.461426,4400.512695,4471.794922,6070.000000,3.000000,56.000000,,,,0.000000,4.000000,4.000000,4.000000,4.000000,4.000000,4.000000,4.000000,4.000000,4.000000,4.000000,4.000000,4.000000,4.000000,4.000000,100.000000,,,,,,,,,,,,,,,,,,,,,,,,,,,,
1703505137.326907,1703505137.327458,107.000000,0.000000,4324.871582,4274.871582,4327.307617,4311.282227,4305.128418,4264.871582,4265.512695,4297.948730,4279.230957,4274.102539,4591.025879,4507.436035,4400.128418,4476.282227,6389.000000,3.000000,56.000000,,,,0.000000,4.000000,4.000000,4.000000,4.000000,4.000000,4.000000,4.000000,4.000000,4.000000,4.000000,4.000000,4.000000,4.000000,4.000000,100.000000,,,,,,,,,,,,,,,,,,,,,,,,,,,,
1703505137.334715,1703505137.335266,108.000000,0.000000,4316.410156,4262.948730,4323.846191,4307.436035,4305.641113,4264.615234,4262.436035,4293.077148,4267.307617,4264.358887,4580.128418,4500.512695,4385.769043,4467.051270,6883.000000,3.000000,56.000000,,,,0.000000,4.000000,4.000000,4.000000,4.000000,4.000000,4.000000,4.000000,4.000000,4.000000,4.000000,4.000000,4.000000,4.000000,4.000000,100.000000,,,,,,,,,,,,,,,,,27.000000,0.000000,0.341312,-0.715637,-0.126770,-0.596069,0.934684,-0.332560,-0.059089,-7.330336,-45.541203,58.016453
1703505137.342523,1703505137.343174,109.000000,0.000000,4322.692383,4272.948730,4333.461426,4314.871582,4310.000000,4272.179688,4269.102539,4294.487305,4267.948730,4273.333496,4587.436035,4512.948730,4394.102539,4474.230957,7196.000000,3.000000,56.000000,,,,0.000000,4.000000,4.000000,4.000000,4.000000,4.000000,4.000000,4.000000,4.000000,4.000000,4.000000,4.000000,4.000000,4.000000,4.000000,100.000000,,,,,,,,,,,,,,,,,,,,,,,,,,,,
1703505137.350331,1703505137.350982,110.000000,0.000000,4335.641113,4283.333496,4342.307617,4322.692383,4316.666504,4279.358887,4280.256348,4299.102539,4281.538574,4284.615234,4604.230957,4526.794922,4414.358887,4492.179688,6070.000000,3.000000,56.000000,,,,0.000000,4.000000,4.000000,4.000000,4.000000,4.000000,4.000000,4.000000,4.000000,4.000000,4.000000,4.000000,4.000000,4.000000,4.000000,100.000000,,,,,,,,,,,,,,,,,,,,,,,,,,,,
1703505137.358139,1703505137.358889,111.000000,0.000000,4333.077148,4274.743652,4338.717773,4322.948730,4320.000000,4279.102539,4282.179688,4296.410156,4279.230957,4282.307617,4606.025879,4519.230957,4415.769043,4493.333496,6389.000000,3.000000,56.000000,,,,0.000000,4.000000,4.000000,4.000000,4.000000,4.000000,4.000000,4.000000,4.000000,4.000000,4.000000,4.000000,4.000000,4.000000,4.000000,100.000000,,,,,,,,,,,,,,,,,,,,,,,,,,,,
1703505137.365947,1703505137.366697,112.000000,0.000000,4325.641113,4273.717773,4338.205078,4321.153809,4312.307617,4278.205078,4279.230957,4293.717773,4266.922852,4273.077148,4592.051270,4508.461426,4404.230957,4483.589844,6883.000000,3.000000,56.000000,,,,0.000000,4.000000,4.000000,4.000000,4.000000,4.000000,4.000000,4.000000,4.000000,4.000000,4.000000,4.000000,4.000000,4.000000,4.000000,100.000000,,,,,,,,,,,,,,,,,28.000000,0.000000,0.341014,-0.715576,-0.126770,-0.596313,0.925406,-0.332560,-0.045904,-7.413969,-45.470413,58.131474
1703505137.373755,1703505137.374605,113.000000,0.000000,4327.307617,4282.307617,4336.794922,4313.846191,4312.820313,4279.615234,4278.846191,4295.512695,4267.307617,4266.025879,4582.436035,4506.666504,4394.487305,4477.692383,7196.000000,3.000000,56.000000,,,,0.000000,4.000000,4.000000,4.000000,4.000000,4.000000,4.000000,4.000000,4.000000,4.000000,4.000000,4.000000,4.000000,4.000000,4.000000,100.000000,,,,,,,,,,,,,,,,,,,,,,,,,,,,
1703505137.381563,1703505137.382413,114.000000,0.000000,4327.436035,4279.102539,4331.410156,4312.179688,4318.077148,4279.615234,4285.256348,4302.051270,4279.871582,4275.128418,4595.256348,4511.025879,4400.512695,4478.205078,6070.000000,3.000000,56.000000,,,,0.000000,4.000000,4.000000,4.000000,4.000000,4.000000,4.000000,4.000000,4.000000,4.000000,4.000000,4.000000,4.000000,4.000000,4.000000,100.000000,,,,,,,,,,,,,,,,,,,,,,,,,,,,
1703505137.389371,1703505137.390321,115.000000,0.000000,4324.102539,4274.102539,4334.230957,4319.871582,4313.461426,4279.230957,4290.897461,4307.436035,4284.358887,4283.205078,4603.461426,4512.307617,4403.205078,4475.897461,6389.000000,3.000000,56.000000,,,,0.000000,4.000000,4.000000,4.000000,4.000000,4.000000,4.000000,4.000000,4.000000,4.000000,4.000000,4.000000,4.000000,4.000000,4.000000,100.000000,,,,,,,,,,,,,,,,,,,,,,,,,,,,
1703505137.397179,1703505137.398129,116.000000,0.000000,4324.102539,4277.820313,4334.871582,4317.948730,4313.717773,4279.102539,4284.743652,4305.769043,4281.538574,4280.897461,4592.179688,4508.205078,4391.153809,4471.794922,6883.000000,3.000000,56.000000,,,,0.000000,4.000000,4.000000,4.000000,4.000000,4.000000,4.000000,4.000000,4.000000,4.000000,4.000000,4.000000,4.000000,4.000000,4.000000,100.000000,,,,,,,,,,,,,,,,,29.000000,0.000000,0.340613,-0.715454,-0.126526,-0.596741,0.934684,-0.325723,-0.057624,-7.455905,-45.440041,58.101662
1703505137.404987,1703505137.406037,117.000000,0.000000,4320.897461,4275.128418,4329.743652,4305.641113,4317.051270,4277.436035,4281.153809,4299.743652,4283.461426,4276.794922,4585.256348,4505.897461,4385.128418,4467.051270,7196.000000,3.000000,56.000000,,,,0.000000,4.000000,4.000000,4.000000,4.000000,4.000000,4.000000,4.000000,4.000000,4.000000,4.000000,4.000000,4.000000,4.000000,4.000000,100.000000,,,,,,,,,,,,,,,,,,,,,,,,,,,,
1703505137.412795,1703505137.413845,118.000000,0.000000,4317.948730,4267.436035,4329.743652,4306.025879,4312.051270,4278.717773,4287.692383,4300.641113,4285.256348,4272.051270,4587.563965,4507.948730,4391.538574,4462.436035,6070.000000,3.000000,56.000000,,,,0.000000,4.000000,4.000000,4.000000,4.000000,4.000000,4.000000,4.000000,4.000000,4.000000,4.000000,4.000000,4.000000,4.000000,4.000000,100.000000,,,,,,,,,,,,,,,,,,,,,,,,,,,,
1703505137.420603,1703505137.421553,119.000000,0.000000,4322.307617,4265.000000,4327.051270,4308.077148,4307.820313,4278.205078,4285.512695,4305.256348,4281.666504,4270.000000,4586.922852,4508.077148,4396.282227,4467.692383,6389.000000,3.000000,56.000000,,,,0.000000,4.000000,4.000000,4.000000,4.000000,4.000000,4.000000,4.000000,4.000000,4.000000,4.000000,4.000000,4.000000,4.000000,4.000000,100.000000,,,,,,,,,,,,,,,,,,,,,,,,,,,,
1703505137.428412,1703505137.429361,120.000000,0.000000,4325.256348,4263.717773,4326.666504,4299.487305,4306.666504,4273.333496,4278.077148,4300.000000,4278.205078,4267.307617,4582.692383,4507.051270,4389.743652,4472.179688,6883.000000,3.000000,56.000000,,,,0.000000,4.000000,4.000000,4.000000,4.000000,4.000000,4.000000,4.000000,4.000000,4.000000,4.000000,4.000000,4.000000,4.000000,4.000000,100.000000,,,,,,,,,,,,,,,,,30.000000,0.000000,0.340313,-0.715393,-0.126526,-0.596985,0.922476,-0.319375,-0.041997,-7.410315,-45.246037,58.241493
1703505137.436220,1703505137.437069,121.000000,0.000000,4325.897461,4266.794922,4335.128418,4300.512695,4308.717773,4275.641113,4278.846191,4295.128418,4278.974121,4263.333496,4582.692383,4507.820313,4386.282227,4469.487305,7196.000000,3.000000,56.000000,,,,0.000000,4.000000,4.000000,4.000000,4.000000,4.000000,4.000000,4.000000,4.000000,4.000000,4.000000,4.000000,4.000000,4.000000,4.000000,100.000000,,,,,,,,,,,,,,,,,,,,,,,,,,,,
1703505137.444028,1703505137.444877,122.000000,0.000000,4329.743652,4274.615234,4338.717773,4310.641113,4315.128418,4280.384766,4281.922852,4293.717773,4276.410156,4263.717773,4582.692383,4509.743652,4391.025879,4473.205078,6070.000000,3.000000,56.000000,,,,0.000000,4.000000,4.000000,4.000000,4.000000,4.000000,4.000000,4.000000,4.000000,4.000000,4.000000,4.000000,4.000000,4.000000,4.000000,100.000000,,,,,,,,,,,,,,,,,,,,,,,,,,,,
1703505137.451836,1703505137.452585,123.000000,0.000000,4335.128418,4279.358887,4337.563965,4310.769043,4313.461426,4272.820313,4280.897461,4285.897461,4265.512695,4260.256348,4575.641113,4509.487305,4388.717773,4478.589844,6389.000000,3.000000,56.000000,,,,0.000000,4.000000,4.000000,4.000000,4.000000,4.000000,4.000000,4.000000,4.000000,4.000000,4.000000,4.000000,4.000000,4.000000,4.000000,100.000000,,,,,,,,,,,,,,,,,,,,,,,,,,,,
1703505137.459644,1703505137.460393,124.000000,0.000000,4330.897461,4277.692383,4333.205078,4302.436035,4310.769043,4264.358887,4278.974121,4277.051270,4260.384766,4249.743652,4572.948730,4503.205078,4384.358887,4475.641113,6883.000000,3.000000,56.000000,,,,0.000000,4.000000,4.000000,4.000000,4.000000,4.000000,4.000000,4.000000,4.000000,4.000000,4.000000,4.000000,4.000000,4.000000,4.000000,100.000000,,,,,,,,,,,,,,,,,31.000000,0.000000,0.339986,-0.715149,-0.126770,-0.597412,0.932243,-0.332072,-0.047857,-7.269283,-45.121433,58.417347
1703505137.467452,1703505137.468101,125.000000,0.000000,4315.000000,4270.000000,4323.974121,4296.666504,4312.307617,4264.871582,4278.333496,4276.666504,4261.666504,4246.538574,4567.436035,4493.333496,4384.487305,4466.666504,7196.000000,3.000000,56.000000,,,,0.000000,4.000000,4.000000,4.000000,4.000000,4.000000,4.000000,4.000000,4.000000,4.000000,4.000000,4.000000,4.000000,4.000000,4.000000,100.000000,,,,,,,,,,,,,,,,,,,,,,,,,,,,
1703505137.475260,1703505137.475909,126.000000,0.000000,4307.436035,4264.743652,4314.487305,4293.333496,4307.307617,4263.846191,4276.282227,4276.025879,4259.102539,4250.256348,4556.922852,4483.461426,4382.436035,4458.077148,6070.000000,3.000000,56.000000,,,,0.000000,4.000000,4.000000,4.000000,4.000000,4.000000,4.000000,4.000000,4.000000,4.000000,4.000000,4.000000,4.000000,4.000000,4.000000,100.000000,,,,,,,,,,,,,,,,,,,,,,,,,,,,
1703505137.483068,1703505137.483617,127.000000,0.000000,4316.410156,4266.410156,4310.256348,4292.563965,4303.974121,4262.692383,4273.717773,4275.897461,4260.769043,4253.589844,4565.384766,4483.461426,4385.384766,4465.384766,56.000000,3.000000,56.000000,,,,0.000000,4.000000,4.000000,4.000000,4.000000,4.000000,4.000000,4.000000,4.000000,4.000000,4.000000,4.000000,4.000000,4.000000,4.000000,100.000000,1.000000,75.000000,4.000000,4.000000,4.000000,4.000000,1.000000,4.000000,4.000000,4.000000,4.000000,4.000000,4.000000,4.000000,4.000000,4.000000,,,,,,,,,,,,
1703505137.490876,1703505137.491425,0.000000,0.000000,4321.922852,4267.051270,4313.205078,4293.205078,4306.282227,4263.461426,4276.153809,4280.000000,4270.000000,4261.153809,4580.000000,4486.153809,4396.794922,4475.000000,5190.000000,3.000000,56.000000,,,,0.000000,4.000000,4.000000,4.000000,4.000000,4.000000,4.000000,4.000000,4.000000,4.000000,4.000000,4.000000,4.000000,4.000000,4.000000,100.000000,,,,,,,,,,,,,,,,,0.000000,0.000000,0.339850,-0.714966,-0.127014,-0.597656,0.932731,-0.321328,-0.052252,-7.242355,-45.175957,58.525612
1703505137.498684,1703505137.499133,1.000000,0.000000,4318.333496,4268.717773,4312.307617,4291.025879,4307.820313,4261.282227,4278.205078,4281.025879,4278.589844,4274.487305,4581.282227,4484.102539,4405.641113,4470.256348,5547.000000,3.000000,56.000000,,,,0.000000,4.000000,4.000000,4.000000,4.000000,4.000000,4.000000,4.000000,4.000000,4.000000,4.000000,4.000000,4.000000,4.000000,4.000000,100.000000,,,,,,,,,,,,,,,,,,,,,,,,,,,,
1703505137.506492,1703505137.507041,2.000000,0.000000,4318.974121,4273.333496,4308.717773,4289.358887,4306.153809,4263.846191,4278.461426,4287.179688,4283.846191,4279.743652,4583.974121,4488.717773,4408.846191,4471.025879,5382.000000,3.000000,56.000000,,,,0.000000,4.000000,4.000000,4.000000,4.000000,4.000000,4.000000,4.000000,4.000000,4.000000,4.000000,4.000000,4.000000,4.000000,4.000000,100.000000,,,,,,,,,,,,,,,,,,,,,,,,,,,,
1703505137.514300,1703505137.514849,3.000000,0.000000,4320.512695,4270.256348,4310.897461,4293.589844,4305.128418,4274.230957,4283.846191,4292.307617,4281.538574,4270.641113,4583.974121,4487.820313,4403.974121,4471.538574,5485.000000,3.000000,56.000000,,,,0.000000,4.000000,4.000000,4.000000,4.000000,4.000000,4.000000,4.000000,4.000000,4.000000,4.000000,4.000000,4.000000,4.000000,4.000000,100.000000,,,,,,,,,,,,,,,,,,,,,,,,,,,,
1703505137.522108,1703505137.522757,4.000000,0.000000,4310.000000,4262.051270,4311.282227,4291.794922,4309.615234,4278.333496,4291.410156,4296.410156,4284.487305,4268.717773,4582.563965,4482.179688,4401.153809,4458.846191,5293.000000,3.000000,56.000000,,,,0.000000,4.000000,4.000000,4.000000,4.000000,4.000000,4.000000,4.000000,4.000000,4.000000,4.000000,4.000000,4.000000,4.000000,4.000000,100.000000,,,,,,,,,,,,,,,,,1.000000,0.000000,0.339629,-0.714966,-0.127319,-0.597717,0.939568,-0.330607,-0.037602,-7.184786,-45.075027,58.489716
1703505137.529916,1703505137.530565,5.000000,0.000000,4303.461426,4259.871582,4314.358887,4283.717773,4315.384766,4273.717773,4295.512695,4307.051270,4297.436035,4281.282227,4592.563965,4492.179688,4411.666504,4456.538574,5136.000000,3.000000,56.000000,,,,0.000000,4.000000,4.000000,4.000000,4.000000,4.000000,4.000000,4.000000,4.000000,4.000000,4.000000,4.000000,4.000000,4.000000,4.000000,100.000000,,,,,,,,,,,,,,,,,,,,,,,,,,,,
1703505137.537724,1703505137.538473,6.000000,0.000000,4310.897461,4263.717773,4327.051270,4288.589844,4309.871582,4270.897461,4293.717773,4308.589844,4295.641113,4284.743652,4596.538574,4502.179688,4420.128418,4471.794922,3869.000000,3.000000,56.000000,,,,0.000000,4.000000,4.000000,4.000000,4.000000,4.000000,4.000000,4.000000,4.000000,4.000000,4.000000,4.000000,4.000000,4.000000,4.000000,100.000000,,,,,,,,,,,,,,,,,,,,,,,,,,,,
1703505137.545532,1703505137.546281,7.000000,0.000000,4313.717773,4265.256348,4330.000000,4290.641113,4303.333496,4271.025879,4290.128418,4296.538574,4278.461426,4269.102539,4585.512695,4494.358887,4412.436035,4474.358887,5148.000000,3.000000,56.000000,,,,0.000000,4.000000,4.000000,4.000000,4.000000,4.000000,4.000000,4.000000,4.000000,4.000000,4.000000,4.000000,4.000000,4.000000,4.000000,100.000000,,,,,,,,,,,,,,,,,,,,,,,,,,,,
1703505137.553340,1703505137.554189,8.000000,0.000000,4309.615234,4262.948730,4325.384766,4282.179688,4307.179688,4274.871582,4291.538574,4288.846191,4273.333496,4261.410156,4580.512695,4490.769043,4403.589844,4461.794922,5412.000000,3.000000,56.000000,,,,0.000000,4.000000,4.000000,4.000000,4.000000,4.000000,4.000000,4.000000,4.000000,4.000000,4.000000,4.000000,4.000000,4.000000,4.000000,100.000000,,,,,,,,,,,,,,,,,2.000000,0.000000,0.339428,-0.714905,-0.127625,-0.597839,0.928824,-0.325235,-0.044439,-7.049641,-45.184193,58.374077
1703505137.561149,1703505137.561997,9.000000,0.000000,4309.102539,4267.179688,4324.615234,4280.769043,4310.000000,4280.769043,4294.871582,4296.282227,4285.897461,4273.846191,4587.948730,4497.563965,4413.589844,4461.410156,5514.000000,3.000000,56.000000,,,,0.000000,4.000000,4.000000,4.000000,4.000000,4.000000,4.000000,4.000000,4.000000,4.000000,4.000000,4.000000,4.000000,4.000000,4.000000,100.000000,,,,,,,,,,,,,,,,,,,,,,,,,,,,
1703505137.568957,1703505137.569904,10.000000,0.000000,4312.692383,4277.692383,4327.563965,4285.000000,4309.871582,4280.512695,4297.179688,4305.512695,4296.538574,4288.333496,4599.487305,4505.769043,4427.820313,4475.256348,6058.000000,3.000000,56.000000,,,,0.000000,4.000000,4.000000,4.000000,4.000000,4.000000,4.000000,4.000000,4.000000,4.000000,4.000000,4.000000,4.000000,4.000000,4.000000,100.000000,,,,,,,,,,,,,,,,,,,,,,,,,,,,
1703505137.576764,1703505137.577712,11.000000,0.000000,4314.358887,4279.358887,4326.538574,4283.077148,4311.025879,4280.384766,4296.153809,4304.358887,4296.794922,4291.282227,4596.666504,4506.282227,4421.794922,4477.692383,6387.000000,3.000000,56.000000,,,,0.000000,4.000000,4.000000,4.000000,4.000000,4.000000,4.000000,4.000000,4.000000,4.000000,4.000000,4.000000,4.000000,4.000000,4.000000,100.000000,,,,,,,,,,,,,,,,,,,,,,,,,,,,
1703505137.584573,1703505137.585620,12.000000,0.000000,4312.563965,4275.641113,4319.102539,4284.102539,4315.256348,4285.384766,4296.794922,4299.871582,4294.615234,4289.358887,4586.538574,4496.922852,4412.820313,4472.051270,6870.000000,3.000000,56.000000,,,,0.000000,4.000000,4.000000,4.000000,4.000000,4.000000,4.000000,4.000000,4.000000,4.000000,4.000000,4.000000,4.000000,4.000000,4.000000,100.000000,,,,,,,,,,,,,,,,,3.000000,0.000000,0.339443,-0.714905,-0.127869,-0.597778,0.937614,-0.330118,-0.045416,-7.228010,-45.115772,58.270004
1703505137.592381,1703505137.593428,13.000000,0.000000,4312.948730,4277.307617,4320.641113,4290.897461,4318.974121,4285.769043,4304.230957,4300.641113,4293.333496,4283.589844,4586.025879,4494.102539,4412.563965,4473.461426,7189.000000,3.000000,56.000000,,,,0.000000,4.000000,4.000000,4.000000,4.000000,4.000000,4.000000,4.000000,4.000000,4.000000,4.000000,4.000000,4.000000,4.000000,4.000000,100.000000,,,,,,,,,,,,,,,,,,,,,,,,,,,,
1703505137.600189,1703505137.601136,14.000000,0.000000,4312.948730,4278.461426,4326.794922,4287.820313,4317.051270,4280.512695,4308.077148,4305.128418,4296.794922,4277.563965,4587.436035,4500.128418,4406.666504,4472.179688,6058.000000,3.000000,56.000000,,,,0.000000,4.000000,4.000000,4.000000,4.000000,4.000000,4.000000,4.000000,4.000000,4.000000,4.000000,4.000000,4.000000,4.000000,4.000000,100.000000,,,,,,,,,,,,,,,,,,,,,,,,,,,,
1703505137.607997,1703505137.608944,15.000000,0.000000,4313.717773,4277.051270,4326.922852,4287.436035,4308.974121,4280.512695,4306.666504,4309.743652,4306.410156,4285.384766,4592.692383,4506.666504,4410.000000,4473.333496,6387.000000,3.000000,56.000000,,,,0.000000,4.000000,4.000000,4.000000,4.000000,4.000000,4.000000,4.000000,4.000000,4.000000,4.000000,4.000000,4.000000,4.000000,4.000000,100.000000,,,,,,,,,,,,,,,,,,,,,,,,,,,,
1703505137.615805,1703505137.616652,16.000000,0.000000,4316.922852,4277.948730,4329.871582,4295.897461,4308.846191,4281.922852,4309.358887,4313.077148,4305.897461,4287.179688,4595.769043,4509.743652,4420.000000,4477.307617,0.000000,3.000000,56.000000,,,,0.000000,4.000000,4.000000,4.000000,4.000000,4.000000,4.000000,4.000000,4.000000,4.000000,4.000000,4.000000,4.000000,4.000000,4.000000,100.000000,,,,,,,,,,,,,,,,,4.000000,0.000000,0.339115,-0.714966,-0.128113,-0.597839,0.922476,-0.326212,-0.054206,-7.255209,-45.054195,58.409668
1703505137.623613,1703505137.624460,17.000000,0.000000,4313.717773,4276.794922,4333.461426,4296.025879,4316.666504,4283.333496,4310.641113,4310.128418,4294.615234,4276.538574,4585.641113,4505.897461,4412.051270,4473.333496,0.000000,3.000000,56.000000,,,,0.000000,4.000000,4.000000,4.000000,4.000000,4.000000,4.000000,4.000000,4.000000,4.000000,4.000000,4.000000,4.000000,4.000000,4.000000,100.000000,,,,,,,,,,,,,,,,,,,,,,,,,,,,
1703505137.631421,1703505137.632168,18.000000,0.000000,4312.820313,4274.358887,4335.769043,4294.487305,4313.205078,4288.717773,4311.794922,4307.820313,4293.589844,4277.563965,4587.179688,4511.794922,4410.512695,4472.820313,0.000000,3.000000,56.000000,,,,0.000000,4.000000,4.000000,4.000000,4.000000,4.000000,4.000000,4.000000,4.000000,4.000000,4.000000,4.000000,4.000000,4.000000,4.000000,100.000000,,,,,,,,,,,,,,,,,,,,,,,,,,,,
1703505137.639229,1703505137.640076,19.000000,0.000000,4323.205078,4282.051270,4342.948730,4306.025879,4311.538574,4292.307617,4314.871582,4305.769043,4294.358887,4282.692383,4600.256348,4521.282227,4421.922852,4477.692383,0.000000,3.000000,56.000000,,,,0.000000,4.000000,4.000000,4.000000,4.000000,4.000000,4.000000,4.000000,4.000000,4.000000,4.000000,4.000000,4.000000,4.000000,4.000000,100.000000,,,,,,,,,,,,,,,,,,,,,,,,,,,,
1703505137.647037,1703505137.647884,20.000000,0.000000,4326.282227,4291.025879,4343.846191,4312.563965,4323.205078,4288.589844,4314.102539,4296.794922,4280.256348,4277.051270,4595.641113,4518.333496,4418.717773,4477.436035,0.000000,3.000000,56.000000,,,,0.000000,4.000000,4.000000,4.000000,4.000000,4.000000,4.000000,4.000000,4.000000,4.000000,4.000000,4.000000,4.000000,4.000000,4.000000,100.000000,,,,,,,,,,,,,,,,,5.000000,0.000000,0.339115,-0.714966,-0.128113,-0.597839,0.947381,-0.321328,-0.048346,-7.196355,-45.165443,58.335369
1703505137.654845,1703505137.655792,21.000000,0.000000,4320.128418,4285.897461,4341.922852,4306.666504,4329.743652,4284.102539,4315.641113,4289.615234,4266.282227,4268.077148,4583.461426,4512.820313,4408.205078,4472.820313,0.000000,3.000000,56.000000,,,,0.000000,4.000000,4.000000,4.000000,4.000000,4.000000,4.000000,4.000000,4.000000,4.000000,4.000000,4.000000,4.000000,4.000000,4.000000,100.000000,,,,,,,,,,,,,,,,,,,,,,,,,,,,
1703505137.662653,1703505137.663600,22.000000,0.000000,4321.282227,4276.794922,4343.205078,4307.051270,4318.077148,4282.051270,4317.436035,4289.487305,4269.102539,4264.743652,4580.000000,4511.410156,4408.333496,4472.820313,0.000000,3.000000,56.000000,,,,0.000000,4.000000,4.000000,4.000000,4.000000,4.000000,4.000000,4.000000,4.000000,4.000000,4.000000,4.000000,4.000000,4.000000,4.000000,100.000000,,,,,,,,,,,,,,,,,,,,,,,,,,,,
1703505137.670461,1703505137.671408,23.000000,0.000000,4322.051270,4278.461426,4336.922852,4305.769043,4310.000000,4280.000000,4311.794922,4291.538574,4278.077148,4270.000000,4575.000000,4507.948730,4412.307617,4475.641113,0.000000,3.000000,56.000000,,,,0.000000,4.000000,4.000000,4.000000,4.000000,4.000000,4.000000,4.000000,4.000000,4.000000,4.000000,4.000000,4.000000,4.000000,4.000000,100.000000,,,,,,,,,,,,,,,,,,,,,,,,,,,,
1703505137.678269,1703505137.679116,24.000000,0.000000,4315.512695,4281.025879,4329.230957,4297.563965,4319.230957,4280.512695,4309.743652,4293.205078,4283.717773,4278.205078,4569.358887,4502.820313,4410.512695,4467.563965,0.000000,3.000000,56.000000,,,,0.000000,4.000000,4.000000,4.000000,4.000000,4.000000,4.000000,4.000000,4.000000,4.000000,4.000000,4.000000,4.000000,4.000000,4.000000,100.000000,,,,,,,,,,,,,,,,,6.000000,0.000000,0.339269,-0.714966,-0.127991,-0.597778,0.943475,-0.326212,-0.051276,-7.126719,-45.132233,58.251831
1703505137.686077,1703505137.686924,25.000000,0.000000,4309.487305,4273.846191,4326.153809,4294.487305,4323.333496,4280.897461,4311.153809,4296.922852,4290.769043,4281.666504,4570.641113,4499.487305,4410.256348,4460.641113,0.000000,3.000000,56.000000,,,,0.000000,4.000000,4.000000,4.000000,4.000000,4.000000,4.000000,4.000000,4.000000,4.000000,4.000000,4.000000,4.000000,4.000000,4.000000,100.000000,,,,,,,,,,,,,,,,,,,,,,,,,,,,
1703505137.693885,1703505137.694632,26.000000,0.000000,4304.487305,4265.641113,4321.538574,4291.153809,4312.436035,4277.820313,4306.922852,4300.512695,4291.666504,4280.256348,4566.666504,4493.717773,4410.512695,4463.846191,0.000000,3.000000,56.000000,,,,0.000000,4.000000,4.000000,4.000000,4.000000,4.000000,4.000000,4.000000,4.000000,4.000000,4.000000,4.000000,4.000000,4.000000,4.000000,100.000000,,,,,,,,,,,,,,,,,,,,,,,,,,,,
1703505137.701693,1703505137.702540,27.000000,0.000000,4300.897461,4261.922852,4315.384766,4281.153809,4307.820313,4275.128418,4299.230957,4297.436035,4280.641113,4276.794922,4552.563965,4485.128418,4404.358887,4461.153809,0.000000,3.000000,56.000000,,,,0.000000,4.000000,4.000000,4.000000,4.000000,4.000000,4.000000,4.000000,4.000000,4.000000,4.000000,4.000000,4.000000,4.000000,4.000000,100.000000,,,,,,,,,,,,,,,,,,,,,,,,,,,,
1703505137.709501,1703505137.710348,28.000000,0.000000,4302.820313,4264.102539,4313.717773,4277.820313,4316.666504,4271.794922,4298.717773,4294.102539,4278.589844,4278.974121,4548.589844,4484.230957,4401.666504,4458.205078,0.000000,3.000000,56.000000,,,,0.000000,4.000000,4.000000,4.000000,4.000000,4.000000,4.000000,4.000000,4.000000,4.000000,4.000000,4.000000,4.000000,4.000000,4.000000,100.000000,,,,,,,,,,,,,,,,,7.000000,0.000000,0.339355,-0.715027,-0.127991,-0.597656,0.918081,-0.320352,-0.039556,-7.130714,-45.069008,58.159981
1703505137.717310,1703505137.718256,29.000000,0.000000,4306.025879,4265.128418,4317.436035,4281.922852,4314.871582,4266.025879,4301.410156,4294.743652,4281.410156,4282.436035,4552.563965,4487.692383,4402.179688,4462.692383,0.000000,3.000000,56.000000,,,,0.000000,4.000000,4.000000,4.000000,4.000000,4.000000,4.000000,4.000000,4.000000,4.000000,4.000000,4.000000,4.000000,4.000000,4.000000,100.000000,,,,,,,,,,,,,,,,,,,,,,,,,,,,
1703505137.725118,1703505137.726064,30.000000,0.000000,4308.461426,4265.000000,4319.358887,4285.256348,4304.102539,4262.436035,4296.922852,4288.077148,4273.846191,4280.000000,4549.487305,4485.000000,4402.820313,4468.461426,0.000000,3.000000,56.000000,,,,0.000000,4.000000,4.000000,4.000000,4.000000,4.000000,4.000000,4.000000,4.000000,4.000000,4.000000,4.000000,4.000000,4.000000,4.000000,100.000000,,,,,,,,,,,,,,,,,,,,,,,,,,,,
1703505137.732926,1703505137.733972,31.000000,0.000000,4314.358887,4271.666504,4322.051270,4290.000000,4308.589844,4262.820313,4291.282227,4279.615234,4270.897461,4276.794922,4547.563965,4484.358887,4405.128418,4473.461426,0.000000,3.000000,56.000000,,,,0.000000,4.000000,4.000000,4.000000,4.000000,4.000000,4.000000,4.000000,4.000000,4.000000,4.000000,4.000000,4.000000,4.000000,4.000000,100.000000,,,,,,,,,,,,,,,,,,,,,,,,,,,,
1703505137.740734,1703505137.741780,32.000000,0.000000,4326.794922,4282.948730,4329.615234,4296.666504,4316.538574,4263.846191,4294.743652,4279.487305,4270.000000,4274.102539,4549.743652,4492.179688,4405.512695,4480.769043,0.000000,3.000000,56.000000,,,,0.000000,4.000000,4.000000,4.000000,4.000000,4.000000,4.000000,4.000000,4.000000,4.000000,4.000000,4.000000,4.000000,4.000000,4.000000,100.000000,,,,,,,,,,,,,,,,,8.000000,0.000000,0.339509,-0.715027,-0.127869,-0.597595,0.921499,-0.334513,-0.049811,-7.167643,-44.895439,58.243984
1703505137.748542,1703505137.749687,33.000000,0.000000,4327.179688,4283.205078,4331.153809,4296.153809,4312.948730,4265.384766,4297.179688,4272.820313,4253.846191,4265.128418,4544.102539,4491.025879,4399.102539,4483.077148,0.000000,3.000000,56.000000,,,,0.000000,4.000000,4.000000,4.000000,4.000000,4.000000,4.000000,4.000000,4.000000,4.000000,4.000000,4.000000,4.000000,4.000000,4.000000,100.000000,,,,,,,,,,,,,,,,,,,,,,,,,,,,
1703505137.756350,1703505137.757495,34.000000,0.000000,4312.563965,4273.846191,4325.000000,4287.948730,4315.128418,4263.205078,4294.102539,4260.128418,4236.410156,4255.384766,4534.358887,4483.589844,4392.436035,4475.256348,0.000000,3.000000,56.000000,,,,0.000000,4.000000,4.000000,4.000000,4.000000,4.000000,4.000000,4.000000,4.000000,4.000000,4.000000,4.000000,4.000000,4.000000,4.000000,100.000000,,,,,,,,,,,,,,,,,,,,,,,,,,,,
1703505137.764158,1703505137.765403,35.000000,0.000000,4316.282227,4279.615234,4327.051270,4292.948730,4330.769043,4263.589844,4297.307617,4270.128418,4251.794922,4264.487305,4543.077148,4491.666504,4405.641113,4482.436035,0.000000,3.000000,56.000000,,,,0.000000,4.000000,4.000000,4.000000,4.000000,4.000000,4.000000,4.000000,4.000000,4.000000,4.000000,4.000000,4.000000,4.000000,4.000000,100.000000,,,,,,,,,,,,,,,,,,,,,,,,,,,,
1703505137.771966,1703505137.773211,36.000000,0.000000,4327.436035,4283.589844,4331.922852,4297.563965,4331.153809,4268.333496,4300.897461,4290.897461,4278.589844,4284.615234,4561.025879,4500.769043,4422.436035,4498.333496,0.000000,3.000000,56.000000,,,,0.000000,4.000000,4.000000,4.000000,4.000000,4.000000,4.000000,4.000000,4.000000,4.000000,4.000000,4.000000,4.000000,4.000000,4.000000,100.000000,,,,,,,,,,,,,,,,,9.000000,0.000000,0.339752,-0.715210,-0.127625,-0.597290,0.932731,-0.332560,-0.046881,-7.167545,-44.855896,58.236252
1703505137.779774,1703505137.780919,37.000000,0.000000,4315.641113,4268.589844,4326.153809,4277.563965,4309.871582,4263.846191,4296.666504,4288.461426,4274.102539,4284.871582,4550.641113,4488.205078,4407.307617,4484.230957,0.000000,3.000000,56.000000,,,,0.000000,4.000000,4.000000,4.000000,4.000000,4.000000,4.000000,4.000000,4.000000,4.000000,4.000000,4.000000,4.000000,4.000000,4.000000,100.000000,,,,,,,,,,,,,,,,,,,,,,,,,,,,
1703505137.787582,1703505137.788727,38.000000,0.000000,4299.102539,4261.282227,4314.358887,4262.307617,4302.820313,4258.461426,4292.436035,4278.461426,4264.102539,4269.615234,4526.282227,4473.974121,4388.333496,4465.384766,0.000000,3.000000,56.000000,,,,0.000000,4.000000,4.000000,4.000000,4.000000,4.000000,4.000000,4.000000,4.000000,4.000000,4.000000,4.000000,4.000000,4.000000,4.000000,100.000000,,,,,,,,,,,,,,,,,,,,,,,,,,,,
1703505137.795390,1703505137.796435,39.000000,0.000000,4296.922852,4268.077148,4307.563965,4267.692383,4309.358887,4263.974121,4294.615234,4281.282227,4269.358887,4262.948730,4520.512695,4471.410156,4390.897461,4468.205078,0.000000,3.000000,56.000000,,,,0.000000,4.000000,4.000000,4.000000,4.000000,4.000000,4.000000,4.000000,4.000000,4.000000,4.000000,4.000000,4.000000,4.000000,4.000000,100.000000,,,,,,,,,,,,,,,,,,,,,,,,,,,,
1703505137.803198,1703505137.804243,40.000000,0.000000,4298.974121,4267.051270,4308.205078,4268.077148,4303.589844,4266.025879,4294.230957,4283.717773,4269.871582,4264.230957,4522.051270,4468.077148,4390.384766,4465.641113,0.000000,3.000000,56.000000,,,,0.000000,4.000000,4.000000,4.000000,4.000000,4.000000,4.000000,4.000000,4.000000,4.000000,4.000000,4.000000,4.000000,4.000000,4.000000,100.000000,,,,,,,,,,,,,,,,,10.000000,0.000000,0.339889,-0.715454,-0.127319,-0.596985,0.931754,-0.324747,-0.052741,-7.234124,-44.803638,58.245960
1703505137.811006,1703505137.811951,41.000000,0.000000,4300.384766,4261.794922,4309.615234,4262.179688,4296.025879,4263.205078,4290.897461,4284.615234,4273.589844,4270.384766,4524.102539,4470.128418,4390.256348,4465.769043,0.000000,3.000000,56.000000,,,,0.000000,4.000000,4.000000,4.000000,4.000000,4.000000,4.000000,4.000000,4.000000,4.000000,4.000000,4.000000,4.000000,4.000000,4.000000,100.000000,,,,,,,,,,,,,,,,,,,,,,,,,,,,
1703505137.818814,1703505137.819759,42.000000,0.000000,4302.948730,4264.102539,4314.487305,4267.436035,4297.820313,4260.769043,4292.692383,4285.256348,4277.820313,4271.922852,4525.512695,4481.538574,4395.769043,4477.563965,0.000000,3.000000,56.000000,,,,0.000000,4.000000,4.000000,4.000000,4.000000,4.000000,4.000000,4.000000,4.000000,4.000000,4.000000,4.000000,4.000000,4.000000,4.000000,100.000000,,,,,,,,,,,,,,,,,,,,,,,,,,,,
1703505137.826622,1703505137.827467,43.000000,0.000000,4298.077148,4263.846191,4315.641113,4264.871582,4298.717773,4254.743652,4288.333496,4273.717773,4259.615234,4259.871582,4516.153809,4477.051270,4387.820313,4467.948730,0.000000,3.000000,56.000000,,,,0.000000,4.000000,4.000000,4.000000,4.000000,4.000000,4.000000,4.000000,4.000000,4.000000,4.000000,4.000000,4.000000,4.000000,4.000000,100.000000,,,,,,,,,,,,,,,,,,,,,,,,,,,,
1703505137.834430,1703505137.835275,44.000000,0.000000,4290.256348,4260.512695,4309.871582,4250.897461,4291.538574,4250.128418,4282.179688,4261.794922,4244.487305,4254.358887,4505.769043,4462.307617,4380.256348,4452.692383,0.000000,3.000000,56.000000,,,,0.000000,4.000000,4.000000,4.000000,4.000000,4.000000,4.000000,4.000000,4.000000,4.000000,4.000000,4.000000,4.000000,4.000000,4.000000,100.000000,,,,,,,,,,,,,,,,,11.000000,0.000000,0.340000,-0.715637,-0.127136,-0.596741,0.926383,-0.326700,-0.057624,-7.427378,-44.923275,58.288033
1703505137.842238,1703505137.842984,45.000000,0.000000,4295.641113,4261.922852,4313.974121,4252.307617,4293.333496,4251.410156,4287.563965,4262.948730,4247.307617,4255.512695,4504.102539,4461.666504,4382.179688,4458.846191,0.000000,3.000000,56.000000,,,,0.000000,4.000000,4.000000,4.000000,4.000000,4.000000,4.000000,4.000000,4.000000,4.000000,4.000000,4.000000,4.000000,4.000000,4.000000,100.000000,,,,,,,,,,,,,,,,,,,,,,,,,,,,
1703505137.850047,1703505137.850792,46.000000,0.000000,4307.307617,4266.282227,4320.641113,4264.871582,4303.333496,4250.128418,4291.282227,4265.128418,4246.922852,4250.128418,4504.102539,4470.384766,4382.179688,4467.820313,0.000000,3.000000,56.000000,,,,0.000000,4.000000,4.000000,4.000000,4.000000,4.000000,4.000000,4.000000,4.000000,4.000000,4.000000,4.000000,4.000000,4.000000,4.000000,100.000000,,,,,,,,,,,,,,,,,,,,,,,,,,,,
1703505137.857854,1703505137.858500,47.000000,0.000000,4303.717773,4265.512695,4315.000000,4264.102539,4300.897461,4247.436035,4289.487305,4263.333496,4242.692383,4238.461426,4497.051270,4471.282227,4375.769043,4461.794922,0.000000,3.000000,56.000000,,,,0.000000,4.000000,4.000000,4.000000,4.000000,4.000000,4.000000,4.000000,4.000000,4.000000,4.000000,4.000000,4.000000,4.000000,4.000000,100.000000,,,,,,,,,,,,,,,,,,,,,,,,,,,,
1703505137.865662,1703505137.866308,48.000000,0.000000,4298.846191,4261.025879,4309.230957,4256.538574,4293.974121,4250.769043,4290.512695,4263.461426,4243.461426,4236.922852,4489.487305,4466.666504,4370.769043,4456.025879,0.000000,3.000000,56.000000,,,,0.000000,4.000000,4.000000,4.000000,4.000000,4.000000,4.000000,4.000000,4.000000,4.000000,4.000000,4.000000,4.000000,4.000000,4.000000,100.000000,,,,,,,,,,,,,,,,,12.000000,0.000000,0.340109,-0.715698,-0.127075,-0.596619,0.930778,-0.321328,-0.053717,-7.567974,-45.047615,58.425896
1703505137.873471,1703505137.874016,49.000000,0.000000,4310.897461,4264.102539,4312.051270,4260.769043,4297.051270,4253.205078,4291.922852,4274.102539,4255.128418,4252.436035,4499.487305,4473.333496,4382.820313,4474.102539,0.000000,3.000000,56.000000,,,,0.000000,4.000000,4.000000,4.000000,4.000000,4.000000,4.000000,4.000000,4.000000,4.000000,4.000000,4.000000,4.000000,4.000000,4.000000,100.000000,,,,,,,,,,,,,,,,,,,,,,,,,,,,
1703505137.881279,1703505137.881824,50.000000,0.000000,4313.077148,4266.538574,4316.410156,4262.436035,4297.820313,4249.871582,4291.153809,4279.615234,4263.333496,4261.410156,4508.461426,4478.846191,4390.897461,4485.769043,0.000000,3.000000,56.000000,,,,0.000000,4.000000,4.000000,4.000000,4.000000,4.000000,4.000000,4.000000,4.000000,4.000000,4.000000,4.000000,4.000000,4.000000,4.000000,100.000000,,,,,,,,,,,,,,,,,,,,,,,,,,,,
1703505137.889087,1703505137.889532,51.000000,0.000000,4296.794922,4260.384766,4308.974121,4251.153809,4291.282227,4250.512695,4287.307617,4272.820313,4258.974121,4251.410156,4493.974121,4465.128418,4375.641113,4465.384766,0.000000,3.000000,56.000000,,,,0.000000,4.000000,4.000000,4.000000,4.000000,4.000000,4.000000,4.000000,4.000000,4.000000,4.000000,4.000000,4.000000,4.000000,4.000000,100.000000,,,,,,,,,,,,,,,,,,,,,,,,,,,,
1703505137.896895,1703505137.897340,52.000000,0.000000,4290.769043,4259.487305,4299.615234,4244.743652,4292.563965,4256.025879,4287.692383,4266.538574,4257.948730,4242.051270,4484.358887,4454.358887,4369.487305,4454.871582,0.000000,3.000000,56.000000,,,,0.000000,4.000000,4.000000,4.000000,4.000000,4.000000,4.000000,4.000000,4.000000,4.000000,4.000000,4.000000,4.000000,4.000000,4.000000,100.000000,,,,,,,,,,,,,,,,,13.000000,0.000000,0.339958,-0.715759,-0.127136,-0.596619,0.919057,-0.323282,-0.052741,-7.694510,-44.959518,58.349972
1703505137.904703,1703505137.905048,53.000000,0.000000,4293.461426,4261.794922,4303.333496,4250.512695,4297.436035,4263.077148,4290.769043,4269.615234,4263.077148,4248.974121,4493.846191,4458.333496,4376.025879,4461.666504,0.000000,3.000000,56.000000,,,,0.000000,4.000000,4.000000,4.000000,4.000000,4.000000,4.000000,4.000000,4.000000,4.000000,4.000000,4.000000,4.000000,4.000000,4.000000,100.000000,,,,,,,,,,,,,,,,,,,,,,,,,,,,
1703505137.912511,1703505137.912856,54.000000,0.000000,4293.461426,4261.153809,4309.871582,4257.820313,4293.717773,4263.205078,4285.256348,4274.871582,4266.794922,4261.666504,4503.461426,4466.538574,4378.461426,4466.282227,0.000000,3.000000,56.000000,,,,0.000000,4.000000,4.000000,4.000000,4.000000,4.000000,4.000000,4.000000,4.000000,4.000000,4.000000,4.000000,4.000000,4.000000,4.000000,100.000000,,,,,,,,,,,,,,,,,,,,,,,,,,,,
1703505137.920319,1703505137.920564,55.000000,0.000000,4302.179688,4268.974121,4314.743652,4262.051270,4288.974121,4255.128418,4282.692383,4272.692383,4267.307617,4260.128418,4510.512695,4471.282227,4380.512695,4476.922852,0.000000,3.000000,56.000000,,,,0.000000,4.000000,4.000000,4.000000,4.000000,4.000000,4.000000,4.000000,4.000000,4.000000,4.000000,4.000000,4.000000,4.000000,4.000000,100.000000,,,,,,,,,,,,,,,,,,,,,,,,,,,,
1703505137.928127,1703505137.928472,56.000000,0.000000,4310.384766,4278.846191,4317.692383,4264.487305,4292.051270,4253.333496,4287.820313,4262.820313,4256.922852,4242.563965,4507.563965,4465.641113,4371.794922,4476.410156,0.000000,3.000000,56.000000,,,,0.000000,4.000000,4.000000,4.000000,4.000000,4.000000,4.000000,4.000000,4.000000,4.000000,4.000000,4.000000,4.000000,4.000000,4.000000,100.000000,,,,,,,,,,,,,,,,,14.000000,0.000000,0.339890,-0.715515,-0.127258,-0.596924,0.931266,-0.340862,-0.048346,-7.741725,-45.063568,58.264977
1703505137.935935,1703505137.936280,57.000000,0.000000,4305.641113,4277.436035,4314.230957,4260.384766,4294.230957,4261.282227,4287.436035,4256.538574,4245.384766,4237.563965,4501.666504,4463.333496,4366.025879,4464.743652,0.000000,3.000000,56.000000,,,,0.000000,4.000000,4.000000,4.000000,4.000000,4.000000,4.000000,4.000000,4.000000,4.000000,4.000000,4.000000,4.000000,4.000000,4.000000,100.000000,,,,,,,,,,,,,,,,,,,,,,,,,,,,
1703505137.943743,1703505137.944187,58.000000,0.000000,4304.615234,4278.461426,4318.333496,4262.436035,4295.128418,4262.820313,4289.615234,4262.948730,4249.102539,4252.563965,4515.512695,4475.897461,4381.410156,4472.051270,0.000000,3.000000,56.000000,,,,0.000000,4.000000,4.000000,4.000000,4.000000,4.000000,4.000000,4.000000,4.000000,4.000000,4.000000,4.000000,4.000000,4.000000,4.000000,100.000000,,,,,,,,,,,,,,,,,,,,,,,,,,,,
1703505137.951551,1703505137.951995,59.000000,0.000000,4312.563965,4280.897461,4326.794922,4271.410156,4298.974121,4258.717773,4295.256348,4264.487305,4248.589844,4250.769043,4524.743652,4480.512695,4385.512695,4482.307617,0.000000,3.000000,56.000000,,,,0.000000,4.000000,4.000000,4.000000,4.000000,4.000000,4.000000,4.000000,4.000000,4.000000,4.000000,4.000000,4.000000,4.000000,4.000000,100.000000,,,,,,,,,,,,,,,,,,,,,,,,,,,,
1703505137.959359,1703505137.959903,60.000000,0.000000,4310.384766,4268.846191,4323.974121,4268.077148,4291.025879,4259.743652,4291.666504,4258.974121,4240.128418,4235.641113,4510.512695,4474.358887,4369.358887,4476.538574,0.000000,3.000000,56.000000,,,,0.000000,4.000000,4.000000,4.000000,4.000000,4.000000,4.000000,4.000000,4.000000,4.000000,4.000000,4.000000,4.000000,4.000000,4.000000,100.000000,,,,,,,,,,,,,,,,,15.000000,0.000000,0.339780,-0.715393,-0.127380,-0.597107,0.937614,-0.325723,-0.052741,-7.600886,-44.840546,58.288479
1703505137.967167,1703505137.967711,61.000000,0.000000,4305.641113,4258.717773,4325.128418,4260.384766,4279.871582,4256.153809,4287.307617,4263.333496,4243.333496,4238.333496,4505.128418,4477.307617,4369.358887,4471.282227,0.000000,3.000000,56.000000,,,,0.000000,4.000000,4.000000,4.000000,4.000000,4.000000,4.000000,4.000000,4.000000,4.000000,4.000000,4.000000,4.000000,4.000000,4.000000,100.000000,,,,,,,,,,,,,,,,,,,,,,,,,,,,
1703505137.974975,1703505137.975619,62.000000,0.000000,4308.717773,4261.153809,4325.256348,4263.846191,4283.077148,4248.077148,4283.974121,4266.922852,4247.563965,4247.179688,4519.358887,4480.000000,4377.692383,4473.077148,0.000000,3.000000,56.000000,,,,0.000000,4.000000,4.000000,4.000000,4.000000,4.000000,4.000000,4.000000,4.000000,4.000000,4.000000,4.000000,4.000000,4.000000,4.000000,100.000000,,,,,,,,,,,,,,,,,,,,,,,,,,,,
1703505137.982783,1703505137.983427,63.000000,0.000000,4311.666504,4265.384766,4315.769043,4268.205078,4284.743652,4252.179688,4280.897461,4263.717773,4248.717773,4247.307617,4521.025879,4475.512695,4367.820313,4477.307617,0.000000,3.000000,56.000000,,,,0.000000,4.000000,4.000000,4.000000,4.000000,4.000000,4.000000,4.000000,4.000000,4.000000,4.000000,4.000000,4.000000,4.000000,4.000000,100.000000,1.000000,66.666664,4.000000,4.000000,4.000000,4.000000,1.000000,3.000000,4.000000,4.000000,4.000000,4.000000,4.000000,4.000000,4.000000,4.000000,,,,,,,,,,,,
1703505137.990591,1703505137.991335,64.000000,0.000000,4313.077148,4272.179688,4313.717773,4265.641113,4278.974121,4261.153809,4284.615234,4267.307617,4258.077148,4251.794922,4508.846191,4472.948730,4350.897461,4479.615234,5185.000000,3.000000,56.000000,,,,0.000000,4.000000,4.000000,4.000000,4.000000,4.000000,4.000000,4.000000,4.000000,4.000000,4.000000,4.000000,4.000000,4.000000,4.000000,100.000000,,,,,,,,,,,,,,,,,16.000000,0.000000,0.339776,-0.715271,-0.127502,-0.597229,0.943475,-0.322305,-0.047857,-7.624131,-44.839825,58.409630
1703505137.998399,1703505137.999243,65.000000,0.000000,4312.307617,4273.077148,4319.230957,4265.769043,4280.384766,4261.794922,4288.589844,4278.461426,4267.179688,4266.025879,4512.692383,4473.461426,4343.589844,4477.563965,5544.000000,3.000000,56.000000,,,,0.000000,4.000000,4.000000,4.000000,4.000000,4.000000,4.000000,4.000000,4.000000,4.000000,4.000000,4.000000,4.000000,4.000000,4.000000,100.000000,,,,,,,,,,,,,,,,,,,,,,,,,,,,
1703505138.006208,1703505138.007051,66.000000,0.000000,4309.358887,4264.102539,4320.769043,4266.538574,4281.794922,4259.615234,4287.820313,4274.615234,4262.051270,4267.051270,4516.153809,4469.615234,4336.922852,4473.077148,5384.000000,3.000000,56.000000,,,,0.000000,4.000000,4.000000,4.000000,4.000000,4.000000,4.000000,4.000000,4.000000,4.000000,4.000000,4.000000,4.000000,4.000000,4.000000,100.000000,,,,,,,,,,,,,,,,,,,,,,,,,,,,
1703505138.014016,1703505138.014859,67.000000,0.000000,4310.000000,4265.897461,4317.436035,4265.641113,4282.820313,4263.846191,4288.589844,4262.436035,4258.846191,4261.410156,4512.307617,4468.205078,4333.717773,4475.128418,5485.000000,3.000000,56.000000,,,,0.000000,4.000000,4.000000,4.000000,4.000000,4.000000,4.000000,4.000000,4.000000,4.000000,4.000000,4.000000,4.000000,4.000000,4.000000,100.000000,,,,,,,,,,,,,,,,,,,,,,,,,,,,
1703505138.021824,1703505138.022567,68.000000,0.000000,4310.384766,4272.820313,4319.487305,4266.410156,4286.282227,4266.153809,4293.077148,4266.153809,4262.820313,4263.589844,4516.153809,4473.205078,4337.820313,4477.563965,5273.000000,3.000000,56.000000,,,,0.000000,4.000000,4.000000,4.000000,4.000000,4.000000,4.000000,4.000000,4.000000,4.000000,4.000000,4.000000,4.000000,4.000000,4.000000,100.000000,,,,,,,,,,,,,,,,,17.000000,0.000000,0.339865,-0.715149,-0.127380,-0.597351,0.923941,-0.338420,-0.037114,-7.745051,-44.772507,58.468666
1703505138.029632,1703505138.030375,69.000000,0.000000,4305.769043,4266.666504,4320.512695,4267.692383,4281.410156,4263.205078,4294.358887,4263.717773,4251.410156,4254.743652,4507.051270,4464.871582,4330.512695,4462.820313,5136.000000,3.000000,56.000000,,,,0.000000,4.000000,4.000000,4.000000,4.000000,4.000000,4.000000,4.000000,4.000000,4.000000,4.000000,4.000000,4.000000,4.000000,4.000000,100.000000,,,,,,,,,,,,,,,,,,,,,,,,,,,,
1703505138.037440,1703505138.038083,70.000000,0.000000,4304.230957,4262.051270,4313.461426,4269.102539,4277.436035,4262.692383,4291.282227,4252.563965,4240.512695,4245.769043,4496.282227,4457.563965,4324.871582,4458.846191,3867.000000,3.000000,56.000000,,,,0.000000,4.000000,4.000000,4.000000,4.000000,4.000000,4.000000,4.000000,4.000000,4.000000,4.000000,4.000000,4.000000,4.000000,4.000000,100.000000,,,,,,,,,,,,,,,,,,,,,,,,,,,,
1703505138.045248,1703505138.045891,71.000000,0.000000,4306.410156,4264.743652,4312.692383,4265.256348,4278.077148,4264.743652,4289.615234,4255.128418,4244.102539,4245.512695,4502.436035,4464.102539,4331.410156,4468.461426,5148.000000,3.000000,56.000000,,,,0.000000,4.000000,4.000000,4.000000,4.000000,4.000000,4.000000,4.000000,4.000000,4.000000,4.000000,4.000000,4.000000,4.000000,4.000000,100.000000,,,,,,,,,,,,,,,,,,,,,,,,,,,,
1703505138.053056,1703505138.053599,72.000000,0.000000,4307.820313,4265.512695,4319.743652,4267.179688,4276.922852,4263.589844,4292.692383,4258.589844,4241.153809,4235.769043,4504.102539,4466.282227,4329.743652,4465.512695,5412.000000,3.000000,56.000000,,,,0.000000,4.000000,4.000000,4.000000,4.000000,4.000000,4.000000,4.000000,4.000000,4.000000,4.000000,4.000000,4.000000,4.000000,4.000000,100.000000,,,,,,,,,,,,,,,,,18.000000,0.000000,0.340104,-0.715210,-0.127258,-0.597168,0.935661,-0.330607,-0.046392,-7.837213,-44.861923,58.488468
1703505138.060864,1703505138.061407,73.000000,0.000000,4309.871582,4266.538574,4317.307617,4275.384766,4279.102539,4256.922852,4291.538574,4253.974121,4230.256348,4227.051270,4495.641113,4463.974121,4323.717773,4462.051270,5511.000000,3.000000,56.000000,,,,0.000000,4.000000,4.000000,4.000000,4.000000,4.000000,4.000000,4.000000,4.000000,4.000000,4.000000,4.000000,4.000000,4.000000,4.000000,100.000000,,,,,,,,,,,,,,,,,,,,,,,,,,,,
1703505138.068672,1703505138.069115,74.000000,0.000000,4307.820313,4267.436035,4310.641113,4271.666504,4282.051270,4250.641113,4282.307617,4254.102539,4230.512695,4237.307617,4491.153809,4463.205078,4322.948730,4461.922852,6058.000000,3.000000,56.000000,,,,0.000000,4.000000,4.000000,4.000000,4.000000,4.000000,4.000000,4.000000,4.000000,4.000000,4.000000,4.000000,4.000000,4.000000,4.000000,100.000000,,,,,,,,,,,,,,,,,,,,,,,,,,,,
1703505138.076480,1703505138.077023,75.000000,0.000000,4305.256348,4265.128418,4312.948730,4263.589844,4273.846191,4249.615234,4278.333496,4263.974121,4246.025879,4250.256348,4501.153809,4468.717773,4332.051270,4464.743652,6389.000000,3.000000,56.000000,,,,0.000000,4.000000,4.000000,4.000000,4.000000,4.000000,4.000000,4.000000,4.000000,4.000000,4.000000,4.000000,4.000000,4.000000,4.000000,100.000000,,,,,,,,,,,,,,,,,,,,,,,,,,,,
1703505138.084288,1703505138.084831,76.000000,0.000000,4307.692383,4265.384766,4314.102539,4264.743652,4265.256348,4250.641113,4285.384766,4266.025879,4253.974121,4250.512695,4515.512695,4474.871582,4344.230957,4472.051270,6893.000000,3.000000,56.000000,,,,0.000000,4.000000,4.000000,4.000000,4.000000,4.000000,4.000000,4.000000,4.000000,4.000000,4.000000,4.000000,4.000000,4.000000,4.000000,100.000000,,,,,,,,,,,,,,,,,19.000000,0.000000,0.339952,-0.715271,-0.127319,-0.597168,0.931754,-0.326700,-0.051276,-7.553492,-44.992397,58.572952
1703505138.092096,1703505138.092739,77.000000,0.000000,4305.128418,4270.000000,4310.512695,4267.692383,4271.794922,4253.077148,4290.256348,4255.641113,4246.153809,4246.922852,4509.487305,4463.333496,4345.641113,4467.436035,7194.000000,3.000000,56.000000,,,,0.000000,4.000000,4.000000,4.000000,4.000000,4.000000,4.000000,4.000000,4.000000,4.000000,4.000000,4.000000,4.000000,4.000000,4.000000,100.000000,,,,,,,,,,,,,,,,,,,,,,,,,,,,
1703505138.099904,1703505138.100547,78.000000,0.000000,4299.871582,4274.871582,4306.153809,4263.974121,4279.871582,4258.846191,4287.692383,4252.563965,4243.461426,4246.410156,4495.641113,4448.717773,4342.820313,4458.589844,6058.000000,3.000000,56.000000,,,,0.000000,4.000000,4.000000,4.000000,4.000000,4.000000,4.000000,4.000000,4.000000,4.000000,4.000000,4.000000,4.000000,4.000000,4.000000,100.000000,,,,,,,,,,,,,,,,,,,,,,,,,,,,
1703505138.107712,1703505138.108455,79.000000,0.000000,4303.717773,4275.512695,4307.948730,4264.230957,4277.436035,4263.205078,4289.615234,4261.794922,4252.436035,4245.897461,4502.051270,4455.512695,4344.615234,4464.102539,6389.000000,3.000000,56.000000,,,,0.000000,4.000000,4.000000,4.000000,4.000000,4.000000,4.000000,4.000000,4.000000,4.000000,4.000000,4.000000,4.000000,4.000000,4.000000,100.000000,,,,,,,,,,,,,,,,,,,,,,,,,,,,
1703505138.115520,1703505138.116262,80.000000,0.000000,4309.615234,4276.153809,4313.333496,4273.589844,4277.820313,4262.820313,4293.461426,4266.794922,4258.717773,4250.512695,4512.307617,4464.358887,4348.461426,4469.871582,6893.000000,3.000000,56.000000,,,,0.000000,4.000000,4.000000,4.000000,4.000000,4.000000,4.000000,4.000000,4.000000,4.000000,4.000000,4.000000,4.000000,4.000000,4.000000,100.000000,,,,,,,,,,,,,,,,,20.000000,0.000000,0.339974,-0.715210,-0.127319,-0.597229,0.937126,-0.331095,-0.053229,-7.514809,-45.026493,58.482327
1703505138.123328,1703505138.124170,81.000000,0.000000,4307.692383,4279.615234,4310.769043,4277.692383,4280.897461,4262.820313,4291.410156,4261.025879,4253.333496,4253.077148,4506.666504,4461.666504,4351.282227,4467.051270,7194.000000,3.000000,56.000000,,,,0.000000,4.000000,4.000000,4.000000,4.000000,4.000000,4.000000,4.000000,4.000000,4.000000,4.000000,4.000000,4.000000,4.000000,4.000000,100.000000,,,,,,,,,,,,,,,,,,,,,,,,,,,,
1703505138.131136,1703505138.131978,82.000000,0.000000,4304.102539,4276.538574,4308.846191,4275.897461,4275.641113,4263.974121,4289.102539,4259.358887,4245.128418,4244.102539,4496.538574,4459.102539,4346.410156,4463.333496,6058.000000,3.000000,56.000000,,,,0.000000,4.000000,4.000000,4.000000,4.000000,4.000000,4.000000,4.000000,4.000000,4.000000,4.000000,4.000000,4.000000,4.000000,4.000000,100.000000,,,,,,,,,,,,,,,,,,,,,,,,,,,,
1703505138.138945,1703505138.139886,83.000000,0.000000,4305.256348,4273.974121,4310.897461,4279.358887,4276.153809,4266.282227,4290.641113,4260.256348,4245.641113,4240.641113,4493.974121,4456.666504,4343.974121,4461.282227,6389.000000,3.000000,56.000000,,,,0.000000,4.000000,4.000000,4.000000,4.000000,4.000000,4.000000,4.000000,4.000000,4.000000,4.000000,4.000000,4.000000,4.000000,4.000000,100.000000,,,,,,,,,,,,,,,,,,,,,,,,,,,,
1703505138.146752,1703505138.147694,84.000000,0.000000,4311.153809,4280.897461,4316.282227,4286.666504,4283.461426,4267.692383,4296.794922,4263.077148,4252.179688,4250.897461,4507.948730,4466.794922,4360.769043,4474.358887,6893.000000,3.000000,56.000000,,,,0.000000,4.000000,4.000000,4.000000,4.000000,4.000000,4.000000,4.000000,4.000000,4.000000,4.000000,4.000000,4.000000,4.000000,4.000000,100.000000,,,,,,,,,,,,,,,,,21.000000,0.000000,0.339740,-0.715332,-0.127258,-0.597229,0.929313,-0.326700,-0.046881,-7.396661,-44.890511,58.600758
1703505138.154560,1703505138.155602,85.000000,0.000000,4315.256348,4278.461426,4320.897461,4281.922852,4279.615234,4264.871582,4297.563965,4267.179688,4252.179688,4254.743652,4516.025879,4477.436035,4370.128418,4481.282227,7194.000000,3.000000,56.000000,,,,0.000000,4.000000,4.000000,4.000000,4.000000,4.000000,4.000000,4.000000,4.000000,4.000000,4.000000,4.000000,4.000000,4.000000,4.000000,100.000000,,,,,,,,,,,,,,,,,,,,,,,,,,,,
1703505138.162369,1703505138.163410,86.000000,0.000000,4306.410156,4265.641113,4315.256348,4274.743652,4277.820313,4261.538574,4291.410156,4263.846191,4245.000000,4244.615234,4501.153809,4468.846191,4354.743652,4465.769043,6058.000000,3.000000,56.000000,,,,0.000000,4.000000,4.000000,4.000000,4.000000,4.000000,4.000000,4.000000,4.000000,4.000000,4.000000,4.000000,4.000000,4.000000,4.000000,100.000000,,,,,,,,,,,,,,,,,,,,,,,,,,,,
1703505138.170177,1703505138.171318,87.000000,0.000000,4298.717773,4263.461426,4311.282227,4278.461426,4277.307617,4260.512695,4292.563965,4260.256348,4239.615234,4232.563965,4491.153809,4460.641113,4343.846191,4457.051270,6389.000000,3.000000,56.000000,,,,0.000000,4.000000,4.000000,4.000000,4.000000,4.000000,4.000000,4.000000,4.000000,4.000000,4.000000,4.000000,4.000000,4.000000,4.000000,100.000000,,,,,,,,,,,,,,,,,,,,,,,,,,,,
1703505138.177985,1703505138.179126,88.000000,0.000000,4301.282227,4268.333496,4310.128418,4280.897461,4266.538574,4261.282227,4292.948730,4261.025879,4239.615234,4228.717773,4491.025879,4459.615234,4343.461426,4456.538574,6893.000000,3.000000,56.000000,,,,0.000000,4.000000,4.000000,4.000000,4.000000,4.000000,4.000000,4.000000,4.000000,4.000000,4.000000,4.000000,4.000000,4.000000,4.000000,100.000000,,,,,,,,,,,,,,,,,22.000000,0.000000,0.339806,-0.715271,-0.127136,-0.597290,0.920523,-0.332560,-0.043951,-7.406995,-45.018124,58.557350
1703505138.185793,1703505138.186834,89.000000,0.000000,4294.743652,4264.871582,4305.897461,4276.282227,4267.820313,4262.692383,4288.333496,4261.666504,4245.769043,4234.615234,4486.153809,4456.025879,4342.179688,4447.563965,7194.000000,3.000000,56.000000,,,,0.000000,4.000000,4.000000,4.000000,4.000000,4.000000,4.000000,4.000000,4.000000,4.000000,4.000000,4.000000,4.000000,4.000000,4.000000,100.000000,,,,,,,,,,,,,,,,,,,,,,,,,,,,
1703505138.193601,1703505138.194642,90.000000,0.000000,4281.794922,4259.358887,4305.769043,4275.256348,4280.384766,4262.948730,4290.128418,4263.589844,4258.077148,4248.205078,4489.871582,4456.666504,4349.615234,4441.153809,6058.000000,3.000000,56.000000,,,,0.000000,4.000000,4.000000,4.000000,4.000000,4.000000,4.000000,4.000000,4.000000,4.000000,4.000000,4.000000,4.000000,4.000000,4.000000,100.000000,,,,,,,,,,,,,,,,,,,,,,,,,,,,
1703505138.201409,1703505138.202350,91.000000,0.000000,4277.436035,4252.436035,4303.333496,4276.922852,4271.153809,4263.717773,4290.384766,4271.410156,4271.153809,4259.102539,4506.025879,4461.794922,4363.717773,4443.717773,6389.000000,3.000000,56.000000,,,,0.000000,4.000000,4.000000,4.000000,4.000000,4.000000,4.000000,4.000000,4.000000,4.000000,4.000000,4.000000,4.000000,4.000000,4.000000,100.000000,,,,,,,,,,,,,,,,,,,,,,,,,,,,
1703505138.209217,1703505138.210258,92.000000,0.000000,4277.820313,4247.051270,4301.025879,4274.487305,4258.974121,4266.282227,4288.846191,4276.153809,4271.922852,4257.948730,4507.948730,4460.256348,4364.487305,4444.358887,6893.000000,3.000000,56.000000,,,,0.000000,4.000000,4.000000,4.000000,4.000000,4.000000,4.000000,4.000000,4.000000,4.000000,4.000000,4.000000,4.000000,4.000000,4.000000,100.000000,,,,,,,,,,,,,,,,,23.000000,0.000000,0.339915,-0.715332,-0.127075,-0.597168,0.922964,-0.324258,-0.052741,-7.299629,-44.966312,58.668282
1703505138.217025,1703505138.218066,93.000000,0.000000,4278.205078,4255.769043,4302.948730,4274.871582,4273.077148,4267.179688,4293.461426,4268.589844,4263.077148,4250.512695,4499.230957,4452.820313,4361.922852,4443.077148,7194.000000,3.000000,56.000000,,,,0.000000,4.000000,4.000000,4.000000,4.000000,4.000000,4.000000,4.000000,4.000000,4.000000,4.000000,4.000000,4.000000,4.000000,4.000000,100.000000,,,,,,,,,,,,,,,,,,,,,,,,,,,,
1703505138.224833,1703505138.225974,94.000000,0.000000,4279.230957,4266.282227,4300.897461,4279.230957,4283.333496,4266.025879,4296.538574,4263.461426,4262.051270,4253.974121,4500.897461,4448.205078,4365.000000,4442.563965,6058.000000,3.000000,56.000000,,,,0.000000,4.000000,4.000000,4.000000,4.000000,4.000000,4.000000,4.000000,4.000000,4.000000,4.000000,4.000000,4.000000,4.000000,4.000000,100.000000,,,,,,,,,,,,,,,,,,,,,,,,,,,,
1703505138.232641,1703505138.233782,95.000000,0.000000,4276.666504,4262.563965,4296.922852,4279.230957,4272.436035,4265.641113,4293.461426,4264.871582,4259.743652,4248.333496,4497.820313,4448.333496,4353.333496,4431.410156,6389.000000,3.000000,56.000000,,,,0.000000,4.000000,4.000000,4.000000,4.000000,4.000000,4.000000,4.000000,4.000000,4.000000,4.000000,4.000000,4.000000,4.000000,4.000000,100.000000,,,,,,,,,,,,,,,,,,,,,,,,,,,,
1703505138.240449,1703505138.241590,96.000000,0.000000,4276.538574,4258.717773,4297.179688,4277.307617,4269.743652,4265.384766,4292.307617,4256.410156,4243.717773,4228.589844,4486.410156,4447.051270,4341.538574,4423.589844,6893.000000,3.000000,56.000000,,,,0.000000,4.000000,4.000000,4.000000,4.000000,4.000000,4.000000,4.000000,4.000000,4.000000,4.000000,4.000000,4.000000,4.000000,4.000000,100.000000,,,,,,,,,,,,,,,,,24.000000,0.000000,0.339914,-0.715271,-0.127136,-0.597229,0.934196,-0.351117,-0.050299,-7.269666,-44.986347,58.718121
1703505138.248257,1703505138.249298,97.000000,0.000000,4280.000000,4262.820313,4299.487305,4277.307617,4276.538574,4263.077148,4291.282227,4245.641113,4232.820313,4226.666504,4484.487305,4443.589844,4347.820313,4435.512695,7194.000000,3.000000,56.000000,,,,0.000000,4.000000,4.000000,4.000000,4.000000,4.000000,4.000000,4.000000,4.000000,4.000000,4.000000,4.000000,4.000000,4.000000,4.000000,100.000000,,,,,,,,,,,,,,,,,,,,,,,,,,,,
1703505138.256065,1703505138.257106,98.000000,0.000000,4283.846191,4263.974121,4305.897461,4281.282227,4274.230957,4260.641113,4286.025879,4247.436035,4233.205078,4231.666504,4486.538574,4447.307617,4347.563965,4443.974121,6058.000000,3.000000,56.000000,,,,0.000000,4.000000,4.000000,4.000000,4.000000,4.000000,4.000000,4.000000,4.000000,4.000000,4.000000,4.000000,4.000000,4.000000,4.000000,100.000000,,,,,,,,,,,,,,,,,,,,,,,,,,,,
1703505138.263873,1703505138.264814,99.000000,0.000000,4291.025879,4262.820313,4312.179688,4289.487305,4268.717773,4261.025879,4283.974121,4248.846191,4231.922852,4223.077148,4486.666504,4455.384766,4343.974121,4447.307617,6389.000000,3.000000,56.000000,,,,0.000000,4.000000,4.000000,4.000000,4.000000,4.000000,4.000000,4.000000,4.000000,4.000000,4.000000,4.000000,4.000000,4.000000,4.000000,100.000000,,,,,,,,,,,,,,,,,,,,,,,,,,,,
1703505138.271681,1703505138.272622,100.000000,0.000000,4298.333496,4267.179688,4311.794922,4295.512695,4272.948730,4263.589844,4288.589844,4246.922852,4229.230957,4221.025879,4490.000000,4460.512695,4353.717773,4458.846191,6893.000000,3.000000,56.000000,,,,0.000000,4.000000,4.000000,4.000000,4.000000,4.000000,4.000000,4.000000,4.000000,4.000000,4.000000,4.000000,4.000000,4.000000,4.000000,100.000000,,,,,,,,,,,,,,,,,25.000000,0.000000,0.339632,-0.715332,-0.127258,-0.597290,0.929313,-0.330607,-0.046392,-7.409366,-45.054379,58.596310
1703505138.279489,1703505138.280330,101.000000,0.000000,4297.692383,4272.563965,4312.051270,4294.743652,4281.153809,4263.974121,4294.230957,4254.230957,4237.307617,4237.179688,4495.384766,4462.948730,4359.743652,4462.692383,7194.000000,3.000000,56.000000,,,,0.000000,4.000000,4.000000,4.000000,4.000000,4.000000,4.000000,4.000000,4.000000,4.000000,4.000000,4.000000,4.000000,4.000000,4.000000,100.000000,,,,,,,,,,,,,,,,,,,,,,,,,,,,
1703505138.287297,1703505138.288238,102.000000,0.000000,4294.615234,4273.333496,4312.563965,4293.717773,4280.256348,4262.948730,4295.256348,4262.820313,4252.436035,4252.307617,4502.307617,4466.922852,4363.717773,4458.974121,6058.000000,3.000000,56.000000,,,,0.000000,4.000000,4.000000,4.000000,4.000000,4.000000,4.000000,4.000000,4.000000,4.000000,4.000000,4.000000,4.000000,4.000000,4.000000,100.000000,,,,,,,,,,,,,,,,,,,,,,,,,,,,
1703505138.295106,1703505138.296046,103.000000,0.000000,4297.692383,4274.871582,4311.922852,4295.384766,4278.589844,4268.717773,4293.846191,4259.102539,4250.384766,4246.153809,4501.025879,4463.846191,4367.692383,4458.589844,6389.000000,3.000000,56.000000,,,,0.000000,4.000000,4.000000,4.000000,4.000000,4.000000,4.000000,4.000000,4.000000,4.000000,4.000000,4.000000,4.000000,4.000000,4.000000,100.000000,,,,,,,,,,,,,,,,,,,,,,,,,,,,
1703505138.302914,1703505138.303953,104.000000,0.000000,4296.282227,4276.794922,4311.794922,4297.307617,4288.717773,4276.922852,4296.282227,4256.538574,4246.153809,4236.538574,4495.256348,4457.179688,4363.589844,4456.410156,6893.000000,3.000000,56.000000,,,,0.000000,4.000000,4.000000,4.000000,4.000000,4.000000,4.000000,4.000000,4.000000,4.000000,4.000000,4.000000,4.000000,4.000000,4.000000,100.000000,,,,,,,,,,,,,,,,,26.000000,0.000000,0.339458,-0.715149,-0.127319,-0.597595,0.943963,-0.332072,-0.050299,-7.651763,-45.082275,58.553345
1703505138.310722,1703505138.311761,105.000000,0.000000,4288.846191,4271.153809,4310.769043,4296.025879,4292.179688,4274.358887,4303.077148,4269.615234,4262.051270,4246.538574,4503.846191,4465.769043,4365.000000,4454.358887,7194.000000,3.000000,56.000000,,,,0.000000,4.000000,4.000000,4.000000,4.000000,4.000000,4.000000,4.000000,4.000000,4.000000,4.000000,4.000000,4.000000,4.000000,4.000000,100.000000,,,,,,,,,,,,,,,,,,,,,,,,,,,,
1703505138.318530,1703505138.319669,106.000000,0.000000,4292.436035,4265.769043,4313.205078,4299.358887,4281.794922,4270.384766,4305.384766,4282.820313,4274.487305,4257.051270,4512.820313,4475.512695,4373.846191,4460.384766,6058.000000,3.000000,56.000000,,,,0.000000,4.000000,4.000000,4.000000,4.000000,4.000000,4.000000,4.000000,4.000000,4.000000,4.000000,4.000000,4.000000,4.000000,4.000000,100.000000,,,,,,,,,,,,,,,,,,,,,,,,,,,,
1703505138.326338,1703505138.327577,107.000000,0.000000,4294.487305,4267.179688,4312.436035,4306.538574,4278.846191,4275.769043,4303.974121,4281.410156,4268.717773,4249.615234,4508.205078,4471.666504,4375.512695,4460.512695,6389.000000,3.000000,56.000000,,,,0.000000,4.000000,4.000000,4.000000,4.000000,4.000000,4.000000,4.000000,4.000000,4.000000,4.000000,4.000000,4.000000,4.000000,4.000000,100.000000,,,,,,,,,,,,,,,,,,,,,,,,,,,,
1703505138.334146,1703505138.335386,108.000000,0.000000,4282.051270,4266.025879,4308.589844,4305.769043,4283.461426,4280.897461,4305.128418,4277.179688,4262.820313,4246.282227,4498.846191,4464.871582,4369.230957,4448.077148,6893.000000,3.000000,56.000000,,,,0.000000,4.000000,4.000000,4.000000,4.000000,4.000000,4.000000,4.000000,4.000000,4.000000,4.000000,4.000000,4.000000,4.000000,4.000000,100.000000,,,,,,,,,,,,,,,,,27.000000,0.000000,0.339439,-0.715027,-0.127197,-0.597778,0.943475,-0.333048,-0.040044,-7.603253,-45.157379,58.548008
1703505138.341954,1703505138.343194,109.000000,0.000000,4276.282227,4262.948730,4308.205078,4302.436035,4281.538574,4277.051270,4301.282227,4278.461426,4266.153809,4254.743652,4495.512695,4464.358887,4367.820313,4441.922852,7194.000000,3.000000,56.000000,,,,0.000000,4.000000,4.000000,4.000000,4.000000,4.000000,4.000000,4.000000,4.000000,4.000000,4.000000,4.000000,4.000000,4.000000,4.000000,100.000000,,,,,,,,,,,,,,,,,,,,,,,,,,,,
1703505138.349762,1703505138.350902,110.000000,0.000000,4281.410156,4265.769043,4308.461426,4300.641113,4278.333496,4267.179688,4294.230957,4272.307617,4256.410156,4247.692383,4490.384766,4464.615234,4362.563965,4443.589844,6058.000000,3.000000,56.000000,,,,0.000000,4.000000,4.000000,4.000000,4.000000,4.000000,4.000000,4.000000,4.000000,4.000000,4.000000,4.000000,4.000000,4.000000,4.000000,100.000000,,,,,,,,,,,,,,,,,,,,,,,,,,,,
1703505138.357570,1703505138.358710,111.000000,0.000000,4281.922852,4261.794922,4310.256348,4297.436035,4277.436035,4263.461426,4295.000000,4262.051270,4234.487305,4229.615234,4474.487305,4461.410156,4345.256348,4437.436035,6389.000000,3.000000,56.000000,,,,0.000000,4.000000,4.000000,4.000000,4.000000,4.000000,4.000000,4.000000,4.000000,4.000000,4.000000,4.000000,4.000000,4.000000,4.000000,100.000000,,,,,,,,,,,,,,,,,,,,,,,,,,,,
1703505138.365378,1703505138.366418,112.000000,0.000000,4276.666504,4251.666504,4313.077148,4291.282227,4272.948730,4262.051270,4291.922852,4263.461426,4230.769043,4226.410156,4465.769043,4462.563965,4342.179688,4433.461426,6893.000000,3.000000,56.000000,,,,0.000000,4.000000,4.000000,4.000000,4.000000,4.000000,4.000000,4.000000,4.000000,4.000000,4.000000,4.000000,4.000000,4.000000,4.000000,100.000000,,,,,,,,,,,,,,,,,28.000000,0.000000,0.339118,-0.715088,-0.127136,-0.597900,0.929801,-0.319375,-0.045416,-7.642928,-45.091644,58.459873
1703505138.373186,1703505138.374226,113.000000,0.000000,4268.974121,4246.410156,4312.051270,4283.205078,4266.410156,4250.256348,4281.666504,4260.128418,4230.641113,4225.769043,4460.000000,4457.820313,4348.461426,4434.615234,7194.000000,3.000000,56.000000,,,,0.000000,4.000000,4.000000,4.000000,4.000000,4.000000,4.000000,4.000000,4.000000,4.000000,4.000000,4.000000,4.000000,4.000000,4.000000,100.000000,,,,,,,,,,,,,,,,,,,,,,,,,,,,
1703505138.380994,1703505138.381934,114.000000,0.000000,4265.897461,4248.589844,4306.153809,4285.384766,4267.436035,4246.410156,4277.436035,4247.948730,4220.897461,4222.436035,4448.461426,4447.820313,4344.358887,4428.461426,6058.000000,3.000000,56.000000,,,,0.000000,4.000000,4.000000,4.000000,4.000000,4.000000,4.000000,4.000000,4.000000,4.000000,4.000000,4.000000,4.000000,4.000000,4.000000,100.000000,,,,,,,,,,,,,,,,,,,,,,,,,,,,
1703505138.388802,1703505138.389742,115.000000,0.000000,4277.436035,4260.256348,4301.922852,4297.179688,4276.538574,4256.410156,4282.051270,4250.512695,4227.692383,4236.794922,4454.230957,4449.358887,4352.692383,4434.102539,6389.000000,3.000000,56.000000,,,,0.000000,4.000000,4.000000,4.000000,4.000000,4.000000,4.000000,4.000000,4.000000,4.000000,4.000000,4.000000,4.000000,4.000000,4.000000,100.000000,,,,,,,,,,,,,,,,,,,,,,,,,,,,
1703505138.396610,1703505138.397450,116.000000,0.000000,4281.282227,4265.000000,4301.410156,4299.871582,4282.563965,4255.769043,4289.487305,4259.615234,4244.487305,4251.538574,4463.333496,4453.205078,4365.512695,4441.538574,6893.000000,3.000000,56.000000,,,,0.000000,4.000000,4.000000,4.000000,4.000000,4.000000,4.000000,4.000000,4.000000,4.000000,4.000000,4.000000,4.000000,4.000000,4.000000,100.000000,,,,,,,,,,,,,,,,,29.000000,0.000000,0.339137,-0.714966,-0.127197,-0.598022,0.932243,-0.325723,-0.049811,-7.445302,-45.065811,58.480553
1703505138.404418,1703505138.405258,117.000000,0.000000,4269.230957,4255.641113,4297.563965,4291.538574,4278.333496,4252.692383,4289.230957,4257.692383,4247.179688,4247.563965,4453.461426,4445.000000,4359.102539,4429.615234,7194.000000,3.000000,56.000000,,,,0.000000,4.000000,4.000000,4.000000,4.000000,4.000000,4.000000,4.000000,4.000000,4.000000,4.000000,4.000000,4.000000,4.000000,4.000000,100.000000,,,,,,,,,,,,,,,,,,,,,,,,,,,,
1703505138.412226,1703505138.412966,118.000000,0.000000,4261.922852,4247.692383,4291.410156,4285.769043,4268.205078,4261.153809,4285.641113,4262.051270,4246.922852,4246.538574,4451.153809,4440.256348,4353.461426,4423.077148,6058.000000,3.000000,56.000000,,,,0.000000,4.000000,4.000000,4.000000,4.000000,4.000000,4.000000,4.000000,4.000000,4.000000,4.000000,4.000000,4.000000,4.000000,4.000000,100.000000,,,,,,,,,,,,,,,,,,,,,,,,,,,,
1703505138.420034,1703505138.420774,119.000000,0.000000,4262.051270,4248.077148,4291.538574,4284.743652,4266.538574,4263.205078,4289.615234,4276.282227,4251.922852,4256.025879,4458.333496,4446.410156,4354.358887,4427.051270,6389.000000,3.000000,56.000000,,,,0.000000,4.000000,4.000000,4.000000,4.000000,4.000000,4.000000,4.000000,4.000000,4.000000,4.000000,4.000000,4.000000,4.000000,4.000000,100.000000,,,,,,,,,,,,,,,,,,,,,,,,,,,,
1703505138.427843,1703505138.428482,120.000000,0.000000,4267.436035,4252.179688,4293.846191,4290.641113,4275.000000,4261.922852,4294.358887,4280.512695,4261.282227,4264.615234,4458.333496,4454.871582,4356.153809,4433.333496,6893.000000,3.000000,56.000000,,,,0.000000,4.000000,4.000000,4.000000,4.000000,4.000000,4.000000,4.000000,4.000000,4.000000,4.000000,4.000000,4.000000,4.000000,4.000000,100.000000,,,,,,,,,,,,,,,,,30.000000,0.000000,0.338966,-0.714905,-0.127136,-0.598206,0.927359,-0.330118,-0.041997,-7.450772,-45.175896,58.282497
1703505138.435650,1703505138.436290,121.000000,0.000000,4278.077148,4259.102539,4297.307617,4298.589844,4276.538574,4265.769043,4294.487305,4278.846191,4266.666504,4262.051270,4459.358887,4462.436035,4355.897461,4443.077148,7194.000000,3.000000,56.000000,,,,0.000000,4.000000,4.000000,4.000000,4.000000,4.000000,4.000000,4.000000,4.000000,4.000000,4.000000,4.000000,4.000000,4.000000,4.000000,100.000000,,,,,,,,,,,,,,,,,,,,,,,,,,,,
1703505138.443458,1703505138.443998,122.000000,0.000000,4277.692383,4263.205078,4299.358887,4298.461426,4272.307617,4263.589844,4293.589844,4276.282227,4255.897461,4249.102539,4455.256348,4456.538574,4341.025879,4438.717773,6058.000000,3.000000,56.000000,,,,0.000000,4.000000,4.000000,4.000000,4.000000,4.000000,4.000000,4.000000,4.000000,4.000000,4.000000,4.000000,4.000000,4.000000,4.000000,100.000000,,,,,,,,,,,,,,,,,,,,,,,,,,,,
1703505138.451267,1703505138.451806,123.000000,0.000000,4265.000000,4256.282227,4295.384766,4295.512695,4273.333496,4261.025879,4292.307617,4272.051270,4248.205078,4245.256348,4445.384766,4448.589844,4326.538574,4423.333496,6389.000000,3.000000,56.000000,,,,0.000000,4.000000,4.000000,4.000000,4.000000,4.000000,4.000000,4.000000,4.000000,4.000000,4.000000,4.000000,4.000000,4.000000,4.000000,100.000000,,,,,,,,,,,,,,,,,,,,,,,,,,,,
1703505138.459075,1703505138.459514,124.000000,0.000000,4262.563965,4249.743652,4296.666504,4295.641113,4269.743652,4263.333496,4292.948730,4269.358887,4251.922852,4250.256348,4443.846191,4456.410156,4329.871582,4424.358887,6893.000000,3.000000,56.000000,,,,0.000000,4.000000,4.000000,4.000000,4.000000,4.000000,4.000000,4.000000,4.000000,4.000000,4.000000,4.000000,4.000000,4.000000,4.000000,100.000000,,,,,,,,,,,,,,,,,31.000000,0.000000,0.339140,-0.714844,-0.127014,-0.598206,0.936638,-0.327677,-0.047857,-7.305695,-45.091640,58.370914
1703505138.466883,1703505138.467422,125.000000,0.000000,4268.717773,4251.282227,4302.436035,4296.282227,4263.077148,4262.563965,4291.282227,4265.769043,4247.051270,4244.102539,4447.436035,4462.179688,4330.000000,4432.563965,7194.000000,3.000000,56.000000,,,,0.000000,4.000000,4.000000,4.000000,4.000000,4.000000,4.000000,4.000000,4.000000,4.000000,4.000000,4.000000,4.000000,4.000000,4.000000,100.000000,,,,,,,,,,,,,,,,,,,,,,,,,,,,
1703505138.474691,1703505138.475230,126.000000,0.000000,4264.102539,4250.256348,4298.461426,4292.179688,4266.282227,4260.000000,4283.717773,4261.153809,4241.025879,4240.000000,4449.358887,4456.538574,4323.717773,4425.769043,6058.000000,3.000000,56.000000,,,,0.000000,4.000000,4.000000,4.000000,4.000000,4.000000,4.000000,4.000000,4.000000,4.000000,4.000000,4.000000,4.000000,4.000000,4.000000,100.000000,,,,,,,,,,,,,,,,,,,,,,,,,,,,
1703505138.482499,1703505138.483138,127.000000,0.000000,4260.000000,4247.563965,4294.615234,4289.358887,4266.282227,4257.820313,4277.692383,4257.820313,4243.846191,4246.666504,4450.256348,4449.230957,4325.384766,4418.077148,56.000000,3.000000,56.000000,,,,0.000000,4.000000,4.000000,4.000000,4.000000,4.000000,4.000000,4.000000,4.000000,4.000000,4.000000,4.000000,4.000000,4.000000,4.000000,100.000000,1.000000,83.333336,4.000000,4.000000,4.000000,4.000000,3.000000,3.000000,4.000000,4.000000,4.000000,4.000000,4.000000,4.000000,4.000000,4.000000,,,,,,,,,,,,
1703505138.490307,1703505138.490946,0.000000,0.000000,4262.820313,4245.897461,4295.256348,4293.077148,4260.512695,4257.436035,4276.794922,4258.205078,4246.282227,4250.641113,4450.000000,4447.051270,4326.794922,4423.461426,5178.000000,3.000000,56.000000,,,,0.000000,4.000000,4.000000,4.000000,4.000000,4.000000,4.000000,4.000000,4.000000,4.000000,4.000000,4.000000,4.000000,4.000000,4.000000,100.000000,,,,,,,,,,,,,,,,,0.000000,0.000000,0.339463,-0.714844,-0.127014,-0.598022,0.943475,-0.333048,-0.047369,-7.391792,-44.982475,58.283825
1703505138.498115,1703505138.498854,1.000000,0.000000,4262.563965,4249.487305,4293.846191,4296.025879,4262.436035,4260.641113,4284.871582,4263.077148,4249.743652,4250.256348,4447.436035,4449.871582,4322.436035,4426.666504,5554.000000,3.000000,56.000000,,,,0.000000,4.000000,4.000000,4.000000,4.000000,4.000000,4.000000,4.000000,4.000000,4.000000,4.000000,4.000000,4.000000,4.000000,4.000000,100.000000,,,,,,,,,,,,,,,,,,,,,,,,,,,,
1703505138.505923,1703505138.506662,2.000000,0.000000,4263.717773,4257.820313,4292.051270,4296.282227,4267.692383,4263.589844,4293.846191,4270.000000,4257.179688,4250.641113,4450.512695,4451.282227,4323.333496,4425.512695,5394.000000,3.000000,56.000000,,,,0.000000,4.000000,4.000000,4.000000,4.000000,4.000000,4.000000,4.000000,4.000000,4.000000,4.000000,4.000000,4.000000,4.000000,4.000000,100.000000,,,,,,,,,,,,,,,,,,,,,,,,,,,,
1703505138.513731,1703505138.514570,3.000000,0.000000,4265.897461,4257.820313,4292.307617,4297.179688,4266.794922,4261.922852,4293.846191,4275.384766,4263.461426,4252.820313,4455.769043,4450.000000,4326.794922,4428.077148,5482.000000,3.000000,56.000000,,,,0.000000,4.000000,4.000000,4.000000,4.000000,4.000000,4.000000,4.000000,4.000000,4.000000,4.000000,4.000000,4.000000,4.000000,4.000000,100.000000,,,,,,,,,,,,,,,,,,,,,,,,,,,,
1703505138.521539,1703505138.522378,4.000000,0.000000,4258.846191,4245.512695,4291.794922,4292.307617,4263.974121,4261.025879,4292.051270,4278.205078,4265.512695,4251.025879,4448.717773,4447.563965,4315.384766,4419.102539,5300.000000,3.000000,56.000000,,,,0.000000,4.000000,4.000000,4.000000,4.000000,4.000000,4.000000,4.000000,4.000000,4.000000,4.000000,4.000000,4.000000,4.000000,4.000000,100.000000,,,,,,,,,,,,,,,,,1.000000,0.000000,0.339715,-0.715027,-0.127319,-0.597595,0.927848,-0.333048,-0.053717,-7.535946,-45.100895,58.222107
1703505138.529347,1703505138.530285,5.000000,0.000000,4255.128418,4247.563965,4291.153809,4293.205078,4263.461426,4265.384766,4294.871582,4280.000000,4263.717773,4248.461426,4446.282227,4447.563965,4310.384766,4413.589844,5133.000000,3.000000,56.000000,,,,0.000000,4.000000,4.000000,4.000000,4.000000,4.000000,4.000000,4.000000,4.000000,4.000000,4.000000,4.000000,4.000000,4.000000,4.000000,100.000000,,,,,,,,,,,,,,,,,,,,,,,,,,,,
1703505138.537155,1703505138.538093,6.000000,0.000000,4260.769043,4257.563965,4291.922852,4300.897461,4263.333496,4266.282227,4295.256348,4277.307617,4262.563965,4248.077148,4456.153809,4453.974121,4321.282227,4423.717773,3864.000000,3.000000,56.000000,,,,0.000000,4.000000,4.000000,4.000000,4.000000,4.000000,4.000000,4.000000,4.000000,4.000000,4.000000,4.000000,4.000000,4.000000,4.000000,100.000000,,,,,,,,,,,,,,,,,,,,,,,,,,,,
1703505138.544963,1703505138.545801,7.000000,0.000000,4261.410156,4250.897461,4293.717773,4298.717773,4262.692383,4261.025879,4289.743652,4274.871582,4264.615234,4247.307617,4456.025879,4458.333496,4317.948730,4421.025879,5148.000000,3.000000,56.000000,,,,0.000000,4.000000,4.000000,4.000000,4.000000,4.000000,4.000000,4.000000,4.000000,4.000000,4.000000,4.000000,4.000000,4.000000,4.000000,100.000000,,,,,,,,,,,,,,,,,,,,,,,,,,,,
1703505138.552771,1703505138.553609,8.000000,0.000000,4260.128418,4249.743652,4293.846191,4297.179688,4260.000000,4259.487305,4289.487305,4274.615234,4263.589844,4246.538574,4452.563965,4459.102539,4313.461426,4415.641113,5410.000000,3.000000,56.000000,,,,0.000000,4.000000,4.000000,4.000000,4.000000,4.000000,4.000000,4.000000,4.000000,4.000000,4.000000,4.000000,4.000000,4.000000,4.000000,100.000000,,,,,,,,,,,,,,,,,2.000000,0.000000,0.339733,-0.715088,-0.127502,-0.597473,0.927359,-0.325235,-0.055183,-7.632351,-45.090805,58.249897
1703505138.560579,1703505138.561317,9.000000,0.000000,4267.820313,4264.102539,4298.974121,4307.820313,4258.589844,4264.743652,4295.641113,4268.846191,4251.410156,4239.358887,4455.384766,4460.000000,4318.589844,4426.794922,5505.000000,3.000000,56.000000,,,,0.000000,4.000000,4.000000,4.000000,4.000000,4.000000,4.000000,4.000000,4.000000,4.000000,4.000000,4.000000,4.000000,4.000000,4.000000,100.000000,,,,,,,,,,,,,,,,,,,,,,,,,,,,
1703505138.568387,1703505138.569125,10.000000,0.000000,4275.128418,4267.692383,4306.025879,4316.153809,4265.641113,4270.641113,4296.410156,4259.230957,4238.974121,4229.102539,4450.897461,4457.307617,4312.563965,4428.205078,6062.000000,3.000000,56.000000,,,,0.000000,4.000000,4.000000,4.000000,4.000000,4.000000,4.000000,4.000000,4.000000,4.000000,4.000000,4.000000,4.000000,4.000000,4.000000,100.000000,,,,,,,,,,,,,,,,,,,,,,,,,,,,
1703505138.576195,1703505138.576834,11.000000,0.000000,4273.846191,4262.051270,4309.487305,4319.230957,4273.589844,4274.871582,4295.641113,4260.256348,4242.820313,4228.717773,4451.025879,4460.256348,4309.487305,4422.692383,6392.000000,3.000000,56.000000,,,,0.000000,4.000000,4.000000,4.000000,4.000000,4.000000,4.000000,4.000000,4.000000,4.000000,4.000000,4.000000,4.000000,4.000000,4.000000,100.000000,,,,,,,,,,,,,,,,,,,,,,,,,,,,
1703505138.584004,1703505138.584642,12.000000,0.000000,4280.769043,4271.666504,4315.897461,4332.051270,4277.436035,4278.461426,4302.436035,4272.179688,4255.000000,4238.333496,4469.230957,4475.000000,4330.512695,4435.897461,6888.000000,3.000000,56.000000,,,,0.000000,4.000000,4.000000,4.000000,4.000000,4.000000,4.000000,4.000000,4.000000,4.000000,4.000000,4.000000,4.000000,4.000000,4.000000,100.000000,,,,,,,,,,,,,,,,,3.000000,0.000000,0.339706,-0.715210,-0.127747,-0.597290,0.923453,-0.331583,-0.052741,-7.619116,-44.998394,58.191574
1703505138.591812,1703505138.592350,13.000000,0.000000,4290.641113,4283.589844,4317.051270,4340.769043,4280.128418,4282.179688,4305.512695,4279.615234,4265.256348,4247.179688,4481.666504,4482.692383,4345.000000,4452.307617,7196.000000,3.000000,56.000000,,,,0.000000,4.000000,4.000000,4.000000,4.000000,4.000000,4.000000,4.000000,4.000000,4.000000,4.000000,4.000000,4.000000,4.000000,4.000000,100.000000,,,,,,,,,,,,,,,,,,,,,,,,,,,,
1703505138.599620,1703505138.600158,14.000000,0.000000,4282.820313,4273.846191,4312.820313,4332.563965,4276.794922,4286.538574,4304.487305,4282.051270,4273.205078,4253.461426,4479.871582,4480.512695,4335.384766,4447.179688,6062.000000,3.000000,56.000000,,,,0.000000,4.000000,4.000000,4.000000,4.000000,4.000000,4.000000,4.000000,4.000000,4.000000,4.000000,4.000000,4.000000,4.000000,4.000000,100.000000,,,,,,,,,,,,,,,,,,,,,,,,,,,,
1703505138.607428,1703505138.607866,15.000000,0.000000,4276.666504,4270.512695,4311.282227,4332.179688,4268.589844,4290.384766,4307.179688,4284.230957,4278.846191,4255.256348,4476.282227,4479.743652,4328.077148,4436.282227,6392.000000,3.000000,56.000000,,,,0.000000,4.000000,4.000000,4.000000,4.000000,4.000000,4.000000,4.000000,4.000000,4.000000,4.000000,4.000000,4.000000,4.000000,4.000000,100.000000,,,,,,,,,,,,,,,,,,,,,,,,,,,,
1703505138.615236,1703505138.615674,16.000000,0.000000,4281.538574,4279.487305,4304.743652,4335.000000,4264.230957,4288.589844,4305.641113,4284.743652,4276.538574,4250.256348,4473.205078,4474.358887,4329.871582,4437.948730,0.000000,3.000000,56.000000,,,,0.000000,4.000000,4.000000,4.000000,4.000000,4.000000,4.000000,4.000000,4.000000,4.000000,4.000000,4.000000,4.000000,4.000000,4.000000,100.000000,,,,,,,,,,,,,,,,,4.000000,0.000000,0.339620,-0.715149,-0.127747,-0.597412,0.936149,-0.333048,-0.038579,-7.673871,-45.181885,58.072418
1703505138.623044,1703505138.623382,17.000000,0.000000,4275.384766,4273.205078,4302.051270,4325.128418,4265.128418,4282.179688,4303.846191,4282.692383,4270.769043,4248.846191,4468.333496,4466.922852,4326.666504,4436.538574,0.000000,3.000000,56.000000,,,,0.000000,4.000000,4.000000,4.000000,4.000000,4.000000,4.000000,4.000000,4.000000,4.000000,4.000000,4.000000,4.000000,4.000000,4.000000,100.000000,,,,,,,,,,,,,,,,,,,,,,,,,,,,
1703505138.630852,1703505138.631190,18.000000,0.000000,4261.153809,4258.333496,4303.974121,4317.179688,4269.871582,4282.948730,4304.487305,4283.077148,4271.922852,4251.794922,4464.487305,4463.974121,4321.922852,4424.358887,0.000000,3.000000,56.000000,,,,0.000000,4.000000,4.000000,4.000000,4.000000,4.000000,4.000000,4.000000,4.000000,4.000000,4.000000,4.000000,4.000000,4.000000,4.000000,100.000000,,,,,,,,,,,,,,,,,,,,,,,,,,,,
1703505138.638660,1703505138.638898,19.000000,0.000000,4260.000000,4260.256348,4297.563965,4318.717773,4266.922852,4282.563965,4300.384766,4282.051270,4273.077148,4247.820313,4465.384766,4460.897461,4323.846191,4421.153809,0.000000,3.000000,56.000000,,,,0.000000,4.000000,4.000000,4.000000,4.000000,4.000000,4.000000,4.000000,4.000000,4.000000,4.000000,4.000000,4.000000,4.000000,4.000000,100.000000,,,,,,,,,,,,,,,,,,,,,,,,,,,,
1703505138.646468,1703505138.646806,20.000000,0.000000,4266.153809,4264.487305,4294.871582,4316.538574,4252.436035,4269.358887,4294.102539,4273.589844,4265.384766,4239.487305,4460.512695,4453.205078,4318.846191,4419.102539,0.000000,3.000000,56.000000,,,,0.000000,4.000000,4.000000,4.000000,4.000000,4.000000,4.000000,4.000000,4.000000,4.000000,4.000000,4.000000,4.000000,4.000000,4.000000,100.000000,,,,,,,,,,,,,,,,,5.000000,0.000000,0.339374,-0.715149,-0.128113,-0.597473,0.931266,-0.326212,-0.045416,-7.573151,-45.197033,58.081841
1703505138.654276,1703505138.654614,21.000000,0.000000,4260.641113,4255.384766,4294.743652,4309.743652,4247.436035,4261.282227,4289.743652,4263.717773,4252.820313,4232.307617,4446.922852,4440.000000,4306.282227,4406.153809,0.000000,3.000000,56.000000,,,,0.000000,4.000000,4.000000,4.000000,4.000000,4.000000,4.000000,4.000000,4.000000,4.000000,4.000000,4.000000,4.000000,4.000000,4.000000,100.000000,,,,,,,,,,,,,,,,,,,,,,,,,,,,
1703505138.662084,1703505138.662521,22.000000,0.000000,4248.077148,4247.692383,4283.589844,4301.025879,4251.922852,4266.153809,4290.512695,4254.615234,4237.051270,4216.282227,4432.051270,4426.794922,4291.794922,4393.333496,0.000000,3.000000,56.000000,,,,0.000000,4.000000,4.000000,4.000000,4.000000,4.000000,4.000000,4.000000,4.000000,4.000000,4.000000,4.000000,4.000000,4.000000,4.000000,100.000000,,,,,,,,,,,,,,,,,,,,,,,,,,,,
1703505138.669892,1703505138.670329,23.000000,0.000000,4247.307617,4247.051270,4274.743652,4292.307617,4245.384766,4266.025879,4290.769043,4246.922852,4227.307617,4203.589844,4425.769043,4423.077148,4282.436035,4388.589844,0.000000,3.000000,56.000000,,,,0.000000,4.000000,4.000000,4.000000,4.000000,4.000000,4.000000,4.000000,4.000000,4.000000,4.000000,4.000000,4.000000,4.000000,4.000000,100.000000,,,,,,,,,,,,,,,,,,,,,,,,,,,,
1703505138.677700,1703505138.678237,24.000000,0.000000,4260.128418,4249.487305,4279.871582,4292.179688,4240.641113,4258.205078,4283.846191,4249.615234,4234.743652,4210.769043,4437.820313,4435.000000,4292.948730,4401.794922,0.000000,3.000000,56.000000,,,,0.000000,4.000000,4.000000,4.000000,4.000000,4.000000,4.000000,4.000000,4.000000,4.000000,4.000000,4.000000,4.000000,4.000000,4.000000,100.000000,,,,,,,,,,,,,,,,,6.000000,0.000000,0.339069,-0.715271,-0.129089,-0.597290,0.937614,-0.339885,-0.046881,-7.449169,-45.177326,58.173656
1703505138.685508,1703505138.686045,25.000000,0.000000,4265.128418,4249.615234,4287.179688,4292.563965,4245.256348,4258.333496,4280.641113,4257.051270,4243.333496,4218.974121,4444.102539,4441.025879,4300.769043,4413.846191,0.000000,3.000000,56.000000,,,,0.000000,4.000000,4.000000,4.000000,4.000000,4.000000,4.000000,4.000000,4.000000,4.000000,4.000000,4.000000,4.000000,4.000000,4.000000,100.000000,,,,,,,,,,,,,,,,,,,,,,,,,,,,
1703505138.693316,1703505138.693953,26.000000,0.000000,4260.384766,4251.282227,4291.666504,4293.974121,4250.256348,4263.589844,4286.025879,4258.846191,4245.769043,4218.974121,4440.256348,4435.641113,4294.358887,4408.461426,0.000000,3.000000,56.000000,,,,0.000000,4.000000,4.000000,4.000000,4.000000,4.000000,4.000000,4.000000,4.000000,4.000000,4.000000,4.000000,4.000000,4.000000,4.000000,100.000000,,,,,,,,,,,,,,,,,,,,,,,,,,,,
1703505138.701124,1703505138.701761,27.000000,0.000000,4270.897461,4260.897461,4300.641113,4307.179688,4255.256348,4265.128418,4292.820313,4265.769043,4257.179688,4229.358887,4458.205078,4450.256348,4305.897461,4417.436035,0.000000,3.000000,56.000000,,,,0.000000,4.000000,4.000000,4.000000,4.000000,4.000000,4.000000,4.000000,4.000000,4.000000,4.000000,4.000000,4.000000,4.000000,4.000000,100.000000,,,,,,,,,,,,,,,,,,,,,,,,,,,,
1703505138.708932,1703505138.709669,28.000000,0.000000,4286.410156,4267.948730,4309.871582,4317.948730,4257.436035,4267.820313,4297.692383,4275.641113,4266.153809,4243.846191,4478.974121,4472.307617,4325.641113,4436.025879,0.000000,3.000000,56.000000,,,,0.000000,4.000000,4.000000,4.000000,4.000000,4.000000,4.000000,4.000000,4.000000,4.000000,4.000000,4.000000,4.000000,4.000000,4.000000,100.000000,,,,,,,,,,,,,,,,,7.000000,0.000000,0.338985,-0.715393,-0.129761,-0.597046,0.928336,-0.328653,-0.041021,-7.570919,-45.259594,58.222958
1703505138.716740,1703505138.717477,29.000000,0.000000,4288.077148,4272.051270,4311.666504,4319.358887,4260.128418,4276.794922,4302.051270,4279.615234,4271.410156,4248.589844,4478.461426,4475.384766,4331.794922,4440.769043,0.000000,3.000000,56.000000,,,,0.000000,4.000000,4.000000,4.000000,4.000000,4.000000,4.000000,4.000000,4.000000,4.000000,4.000000,4.000000,4.000000,4.000000,4.000000,100.000000,,,,,,,,,,,,,,,,,,,,,,,,,,,,
1703505138.724548,1703505138.725385,30.000000,0.000000,4289.358887,4277.179688,4315.384766,4323.205078,4265.641113,4282.436035,4305.769043,4279.230957,4275.641113,4251.666504,4477.948730,4472.948730,4332.563965,4442.307617,0.000000,3.000000,56.000000,,,,0.000000,4.000000,4.000000,4.000000,4.000000,4.000000,4.000000,4.000000,4.000000,4.000000,4.000000,4.000000,4.000000,4.000000,4.000000,100.000000,,,,,,,,,,,,,,,,,,,,,,,,,,,,
1703505138.732356,1703505138.733193,31.000000,0.000000,4292.948730,4278.077148,4316.794922,4326.410156,4263.717773,4279.743652,4307.307617,4272.563965,4268.333496,4249.487305,4477.948730,4471.025879,4329.230957,4443.077148,0.000000,3.000000,56.000000,,,,0.000000,4.000000,4.000000,4.000000,4.000000,4.000000,4.000000,4.000000,4.000000,4.000000,4.000000,4.000000,4.000000,4.000000,4.000000,100.000000,,,,,,,,,,,,,,,,,,,,,,,,,,,,
1703505138.740165,1703505138.740901,32.000000,0.000000,4289.871582,4277.436035,4310.256348,4324.871582,4259.358887,4278.846191,4306.282227,4269.615234,4260.000000,4245.128418,4474.230957,4468.974121,4329.743652,4442.692383,0.000000,3.000000,56.000000,,,,0.000000,4.000000,4.000000,4.000000,4.000000,4.000000,4.000000,4.000000,4.000000,4.000000,4.000000,4.000000,4.000000,4.000000,4.000000,100.000000,,,,,,,,,,,,,,,,,8.000000,0.000000,0.338986,-0.715576,-0.130432,-0.596680,0.925894,-0.324258,-0.048346,-7.547160,-45.300301,58.317329
1703505138.747973,1703505138.748709,33.000000,0.000000,4290.128418,4278.333496,4312.948730,4324.487305,4266.922852,4277.563965,4305.897461,4274.487305,4263.461426,4246.538574,4480.769043,4473.077148,4340.256348,4446.282227,0.000000,3.000000,56.000000,,,,0.000000,4.000000,4.000000,4.000000,4.000000,4.000000,4.000000,4.000000,4.000000,4.000000,4.000000,4.000000,4.000000,4.000000,4.000000,100.000000,,,,,,,,,,,,,,,,,,,,,,,,,,,,
1703505138.755781,1703505138.756417,34.000000,0.000000,4295.897461,4281.410156,4320.000000,4327.179688,4274.871582,4280.256348,4307.820313,4275.384766,4266.538574,4252.179688,4492.051270,4481.153809,4349.487305,4452.820313,0.000000,3.000000,56.000000,,,,0.000000,4.000000,4.000000,4.000000,4.000000,4.000000,4.000000,4.000000,4.000000,4.000000,4.000000,4.000000,4.000000,4.000000,4.000000,100.000000,,,,,,,,,,,,,,,,,,,,,,,,,,,,
1703505138.763589,1703505138.764225,35.000000,0.000000,4297.692383,4284.358887,4322.436035,4333.589844,4272.692383,4289.615234,4310.641113,4271.025879,4260.769043,4251.410156,4498.461426,4487.820313,4353.589844,4463.846191,0.000000,3.000000,56.000000,,,,0.000000,4.000000,4.000000,4.000000,4.000000,4.000000,4.000000,4.000000,4.000000,4.000000,4.000000,4.000000,4.000000,4.000000,4.000000,100.000000,,,,,,,,,,,,,,,,,,,,,,,,,,,,
1703505138.771397,1703505138.771933,36.000000,0.000000,4305.384766,4292.307617,4330.256348,4350.128418,4278.974121,4292.051270,4316.538574,4273.589844,4260.641113,4247.307617,4504.871582,4494.487305,4359.230957,4475.769043,0.000000,3.000000,56.000000,,,,0.000000,4.000000,4.000000,4.000000,4.000000,4.000000,4.000000,4.000000,4.000000,4.000000,4.000000,4.000000,4.000000,4.000000,4.000000,100.000000,,,,,,,,,,,,,,,,,9.000000,0.000000,0.338972,-0.715759,-0.130859,-0.596375,0.929313,-0.333537,-0.049811,-7.425777,-45.103607,58.218929
1703505138.779205,1703505138.779841,37.000000,0.000000,4314.358887,4304.743652,4333.589844,4364.102539,4292.563965,4290.641113,4320.769043,4278.077148,4269.102539,4257.948730,4511.153809,4496.922852,4366.153809,4478.974121,0.000000,3.000000,56.000000,,,,0.000000,4.000000,4.000000,4.000000,4.000000,4.000000,4.000000,4.000000,4.000000,4.000000,4.000000,4.000000,4.000000,4.000000,4.000000,100.000000,,,,,,,,,,,,,,,,,,,,,,,,,,,,
1703505138.787013,1703505138.787649,38.000000,0.000000,4310.128418,4307.307617,4332.051270,4365.769043,4294.358887,4293.974121,4323.846191,4276.666504,4272.051270,4265.512695,4507.436035,4495.000000,4365.512695,4472.563965,0.000000,3.000000,56.000000,,,,0.000000,4.000000,4.000000,4.000000,4.000000,4.000000,4.000000,4.000000,4.000000,4.000000,4.000000,4.000000,4.000000,4.000000,4.000000,100.000000,,,,,,,,,,,,,,,,,,,,,,,,,,,,
1703505138.794821,1703505138.795557,39.000000,0.000000,4309.743652,4307.820313,4339.871582,4370.128418,4291.410156,4298.974121,4328.333496,4279.743652,4277.179688,4263.333496,4506.410156,4501.025879,4369.615234,4476.922852,0.000000,3.000000,56.000000,,,,0.000000,4.000000,4.000000,4.000000,4.000000,4.000000,4.000000,4.000000,4.000000,4.000000,4.000000,4.000000,4.000000,4.000000,4.000000,100.000000,,,,,,,,,,,,,,,,,,,,,,,,,,,,
1703505138.802629,1703505138.803365,40.000000,0.000000,4314.743652,4308.589844,4344.871582,4375.256348,4289.487305,4302.051270,4328.077148,4291.794922,4291.666504,4274.102539,4518.461426,4510.384766,4379.743652,4488.205078,0.000000,3.000000,56.000000,,,,0.000000,4.000000,4.000000,4.000000,4.000000,4.000000,4.000000,4.000000,4.000000,4.000000,4.000000,4.000000,4.000000,4.000000,4.000000,100.000000,,,,,,,,,,,,,,,,,10.000000,0.000000,0.338867,-0.715820,-0.130798,-0.596375,0.931754,-0.327677,-0.062508,-7.483200,-45.209911,58.163704
1703505138.810437,1703505138.811173,41.000000,0.000000,4312.820313,4303.846191,4337.307617,4372.307617,4287.179688,4305.769043,4326.153809,4298.589844,4302.051270,4286.282227,4524.615234,4510.128418,4377.563965,4480.384766,0.000000,3.000000,56.000000,,,,0.000000,4.000000,4.000000,4.000000,4.000000,4.000000,4.000000,4.000000,4.000000,4.000000,4.000000,4.000000,4.000000,4.000000,4.000000,100.000000,,,,,,,,,,,,,,,,,,,,,,,,,,,,
1703505138.818245,1703505138.818881,42.000000,0.000000,4310.769043,4303.589844,4330.641113,4364.871582,4289.871582,4308.333496,4326.282227,4295.256348,4303.589844,4281.282227,4521.282227,4502.307617,4375.384766,4475.000000,0.000000,3.000000,56.000000,,,,0.000000,4.000000,4.000000,4.000000,4.000000,4.000000,4.000000,4.000000,4.000000,4.000000,4.000000,4.000000,4.000000,4.000000,4.000000,100.000000,,,,,,,,,,,,,,,,,,,,,,,,,,,,
1703505138.826053,1703505138.826689,43.000000,0.000000,4310.769043,4305.769043,4333.205078,4360.000000,4292.051270,4306.538574,4326.922852,4296.666504,4302.692383,4275.128418,4520.641113,4505.256348,4383.846191,4486.025879,0.000000,3.000000,56.000000,,,,0.000000,4.000000,4.000000,4.000000,4.000000,4.000000,4.000000,4.000000,4.000000,4.000000,4.000000,4.000000,4.000000,4.000000,4.000000,100.000000,,,,,,,,,,,,,,,,,,,,,,,,,,,,
1703505138.833861,1703505138.834397,44.000000,0.000000,4313.205078,4302.436035,4336.410156,4355.256348,4291.025879,4303.717773,4324.487305,4298.461426,4298.974121,4275.384766,4522.051270,4507.692383,4384.230957,4486.153809,0.000000,3.000000,56.000000,,,,0.000000,4.000000,4.000000,4.000000,4.000000,4.000000,4.000000,4.000000,4.000000,4.000000,4.000000,4.000000,4.000000,4.000000,4.000000,100.000000,,,,,,,,,,,,,,,,,11.000000,0.000000,0.338823,-0.715942,-0.130798,-0.596252,0.940544,-0.329630,-0.053229,-7.601546,-45.205585,58.097332
1703505138.841669,1703505138.842205,45.000000,0.000000,4309.102539,4293.589844,4328.333496,4346.794922,4290.641113,4301.538574,4321.153809,4292.179688,4290.384766,4266.922852,4518.333496,4497.307617,4375.384766,4473.461426,0.000000,3.000000,56.000000,,,,0.000000,4.000000,4.000000,4.000000,4.000000,4.000000,4.000000,4.000000,4.000000,4.000000,4.000000,4.000000,4.000000,4.000000,4.000000,100.000000,,,,,,,,,,,,,,,,,,,,,,,,,,,,
1703505138.849477,1703505138.849913,46.000000,0.000000,4298.717773,4284.615234,4322.179688,4337.692383,4285.512695,4299.615234,4321.282227,4289.230957,4281.794922,4257.307617,4509.487305,4494.615234,4371.922852,4471.410156,0.000000,3.000000,56.000000,,,,0.000000,4.000000,4.000000,4.000000,4.000000,4.000000,4.000000,4.000000,4.000000,4.000000,4.000000,4.000000,4.000000,4.000000,4.000000,100.000000,,,,,,,,,,,,,,,,,,,,,,,,,,,,
1703505138.857285,1703505138.857821,47.000000,0.000000,4298.461426,4280.769043,4332.179688,4338.717773,4281.025879,4296.666504,4321.153809,4293.077148,4286.922852,4266.922852,4511.538574,4504.230957,4378.333496,4478.717773,0.000000,3.000000,56.000000,,,,0.000000,4.000000,4.000000,4.000000,4.000000,4.000000,4.000000,4.000000,4.000000,4.000000,4.000000,4.000000,4.000000,4.000000,4.000000,100.000000,,,,,,,,,,,,,,,,,,,,,,,,,,,,
1703505138.865093,1703505138.865629,48.000000,0.000000,4309.615234,4288.333496,4339.743652,4348.333496,4280.769043,4294.230957,4322.692383,4296.153809,4301.922852,4286.153809,4531.922852,4516.153809,4394.615234,4488.333496,0.000000,3.000000,56.000000,,,,0.000000,4.000000,4.000000,4.000000,4.000000,4.000000,4.000000,4.000000,4.000000,4.000000,4.000000,4.000000,4.000000,4.000000,4.000000,100.000000,,,,,,,,,,,,,,,,,12.000000,0.000000,0.338778,-0.716003,-0.130859,-0.596191,0.939079,-0.326212,-0.050787,-7.491392,-45.168362,58.154266
1703505138.872902,1703505138.873536,49.000000,0.000000,4315.897461,4296.794922,4340.641113,4350.256348,4279.615234,4294.230957,4323.846191,4296.794922,4303.205078,4287.307617,4545.256348,4521.922852,4401.282227,4495.128418,0.000000,3.000000,56.000000,,,,0.000000,4.000000,4.000000,4.000000,4.000000,4.000000,4.000000,4.000000,4.000000,4.000000,4.000000,4.000000,4.000000,4.000000,4.000000,100.000000,,,,,,,,,,,,,,,,,,,,,,,,,,,,
1703505138.880710,1703505138.881344,50.000000,0.000000,4314.230957,4295.769043,4341.666504,4349.230957,4286.282227,4297.436035,4320.641113,4295.256348,4293.974121,4278.461426,4539.487305,4521.922852,4396.410156,4493.461426,0.000000,3.000000,56.000000,,,,0.000000,4.000000,4.000000,4.000000,4.000000,4.000000,4.000000,4.000000,4.000000,4.000000,4.000000,4.000000,4.000000,4.000000,4.000000,100.000000,,,,,,,,,,,,,,,,,,,,,,,,,,,,
1703505138.888518,1703505138.889252,51.000000,0.000000,4310.769043,4296.666504,4340.897461,4352.948730,4292.820313,4299.743652,4320.512695,4291.282227,4294.615234,4283.333496,4536.922852,4517.436035,4399.358887,4492.179688,0.000000,3.000000,56.000000,,,,0.000000,4.000000,4.000000,4.000000,4.000000,4.000000,4.000000,4.000000,4.000000,4.000000,4.000000,4.000000,4.000000,4.000000,4.000000,100.000000,,,,,,,,,,,,,,,,,,,,,,,,,,,,
1703505138.896326,1703505138.897060,52.000000,0.000000,4310.512695,4301.410156,4341.282227,4354.743652,4283.717773,4296.538574,4319.102539,4289.743652,4295.128418,4285.256348,4539.743652,4511.794922,4399.615234,4492.563965,0.000000,3.000000,56.000000,,,,0.000000,4.000000,4.000000,4.000000,4.000000,4.000000,4.000000,4.000000,4.000000,4.000000,4.000000,4.000000,4.000000,4.000000,4.000000,100.000000,,,,,,,,,,,,,,,,,13.000000,0.000000,0.338512,-0.716187,-0.131104,-0.596069,0.939568,-0.309608,-0.064461,-7.492253,-45.151527,58.355507
1703505138.904134,1703505138.904968,53.000000,0.000000,4317.179688,4302.948730,4342.948730,4355.897461,4277.179688,4295.000000,4313.205078,4293.589844,4294.615234,4278.461426,4541.666504,4518.974121,4397.948730,4497.436035,0.000000,3.000000,56.000000,,,,0.000000,4.000000,4.000000,4.000000,4.000000,4.000000,4.000000,4.000000,4.000000,4.000000,4.000000,4.000000,4.000000,4.000000,4.000000,100.000000,,,,,,,,,,,,,,,,,,,,,,,,,,,,
1703505138.911942,1703505138.912776,54.000000,0.000000,4321.410156,4300.384766,4344.615234,4356.153809,4282.563965,4295.897461,4313.461426,4296.025879,4297.436035,4279.102539,4545.769043,4525.897461,4400.256348,4498.974121,0.000000,3.000000,56.000000,,,,0.000000,4.000000,4.000000,4.000000,4.000000,4.000000,4.000000,4.000000,4.000000,4.000000,4.000000,4.000000,4.000000,4.000000,4.000000,100.000000,,,,,,,,,,,,,,,,,,,,,,,,,,,,
1703505138.919750,1703505138.920684,55.000000,0.000000,4311.922852,4295.512695,4341.153809,4347.692383,4279.871582,4293.589844,4313.461426,4292.436035,4296.282227,4275.128418,4538.333496,4517.563965,4391.538574,4489.487305,0.000000,3.000000,56.000000,,,,0.000000,4.000000,4.000000,4.000000,4.000000,4.000000,4.000000,4.000000,4.000000,4.000000,4.000000,4.000000,4.000000,4.000000,4.000000,100.000000,,,,,,,,,,,,,,,,,,,,,,,,,,,,
1703505138.927558,1703505138.928492,56.000000,0.000000,4308.717773,4295.641113,4336.794922,4337.820313,4275.128418,4292.179688,4309.230957,4292.307617,4294.358887,4263.589844,4523.461426,4513.205078,4378.717773,4485.512695,0.000000,3.000000,56.000000,,,,0.000000,4.000000,4.000000,4.000000,4.000000,4.000000,4.000000,4.000000,4.000000,4.000000,4.000000,4.000000,4.000000,4.000000,4.000000,100.000000,,,,,,,,,,,,,,,,,14.000000,0.000000,0.338440,-0.716125,-0.131897,-0.596008,0.927848,-0.328165,-0.044927,-7.493027,-45.386372,58.419956
1703505138.935366,1703505138.936300,57.000000,0.000000,4317.051270,4300.256348,4341.538574,4344.358887,4283.974121,4295.256348,4314.230957,4295.256348,4295.128418,4263.589844,4522.692383,4519.230957,4379.615234,4487.948730,0.000000,3.000000,56.000000,,,,0.000000,4.000000,4.000000,4.000000,4.000000,4.000000,4.000000,4.000000,4.000000,4.000000,4.000000,4.000000,4.000000,4.000000,4.000000,100.000000,,,,,,,,,,,,,,,,,,,,,,,,,,,,
1703505138.943174,1703505138.944108,58.000000,0.000000,4314.487305,4301.922852,4343.205078,4352.051270,4289.102539,4296.922852,4321.282227,4293.589844,4295.897461,4268.846191,4530.256348,4515.256348,4384.358887,4486.025879,0.000000,3.000000,56.000000,,,,0.000000,4.000000,4.000000,4.000000,4.000000,4.000000,4.000000,4.000000,4.000000,4.000000,4.000000,4.000000,4.000000,4.000000,4.000000,100.000000,,,,,,,,,,,,,,,,,,,,,,,,,,,,
1703505138.950982,1703505138.951816,59.000000,0.000000,4303.333496,4295.641113,4338.717773,4346.153809,4286.794922,4296.538574,4321.922852,4291.538574,4292.692383,4263.333496,4523.974121,4506.153809,4376.410156,4476.538574,0.000000,3.000000,56.000000,,,,0.000000,4.000000,4.000000,4.000000,4.000000,4.000000,4.000000,4.000000,4.000000,4.000000,4.000000,4.000000,4.000000,4.000000,4.000000,100.000000,,,,,,,,,,,,,,,,,,,,,,,,,,,,
1703505138.958790,1703505138.959624,60.000000,0.000000,4306.025879,4291.922852,4338.717773,4347.692383,4289.615234,4300.384766,4321.538574,4290.512695,4288.717773,4258.077148,4517.307617,4506.794922,4372.436035,4472.307617,0.000000,3.000000,56.000000,,,,0.000000,4.000000,4.000000,4.000000,4.000000,4.000000,4.000000,4.000000,4.000000,4.000000,4.000000,4.000000,4.000000,4.000000,4.000000,100.000000,,,,,,,,,,,,,,,,,15.000000,0.000000,0.338297,-0.715820,-0.132813,-0.596252,0.929801,-0.320352,-0.062508,-7.627058,-45.297737,58.477959
1703505138.966598,1703505138.967332,61.000000,0.000000,4313.205078,4298.589844,4342.179688,4362.179688,4294.358887,4309.358887,4325.512695,4291.282227,4291.282227,4261.025879,4528.846191,4515.256348,4382.436035,4483.974121,0.000000,3.000000,56.000000,,,,0.000000,4.000000,4.000000,4.000000,4.000000,4.000000,4.000000,4.000000,4.000000,4.000000,4.000000,4.000000,4.000000,4.000000,4.000000,100.000000,,,,,,,,,,,,,,,,,,,,,,,,,,,,
1703505138.974406,1703505138.975140,62.000000,0.000000,4310.000000,4304.102539,4345.769043,4368.205078,4296.410156,4314.230957,4333.077148,4293.333496,4292.820313,4264.102539,4534.615234,4522.563965,4387.179688,4489.615234,0.000000,3.000000,56.000000,,,,0.000000,4.000000,4.000000,4.000000,4.000000,4.000000,4.000000,4.000000,4.000000,4.000000,4.000000,4.000000,4.000000,4.000000,4.000000,100.000000,,,,,,,,,,,,,,,,,,,,,,,,,,,,
1703505138.982214,1703505138.982848,63.000000,0.000000,4310.256348,4303.717773,4345.897461,4365.641113,4301.794922,4311.410156,4333.974121,4298.974121,4297.307617,4272.692383,4533.589844,4524.615234,4386.410156,4484.615234,0.000000,3.000000,56.000000,,,,0.000000,4.000000,4.000000,4.000000,4.000000,4.000000,4.000000,4.000000,4.000000,4.000000,4.000000,4.000000,4.000000,4.000000,4.000000,100.000000,1.000000,100.000000,4.000000,4.000000,4.000000,4.000000,4.000000,4.000000,4.000000,4.000000,4.000000,4.000000,4.000000,4.000000,4.000000,4.000000,,,,,,,,,,,,
1703505138.990022,1703505138.990656,64.000000,0.000000,4312.436035,4300.384766,4345.897461,4363.717773,4307.307617,4309.358887,4330.769043,4304.743652,4306.282227,4283.461426,4539.487305,4526.794922,4391.666504,4488.077148,5170.000000,3.000000,56.000000,,,,0.000000,4.000000,4.000000,4.000000,4.000000,4.000000,4.000000,4.000000,4.000000,4.000000,4.000000,4.000000,4.000000,4.000000,4.000000,100.000000,,,,,,,,,,,,,,,,,16.000000,0.000000,0.338488,-0.715515,-0.133423,-0.596375,0.949335,-0.336467,-0.059578,-7.564352,-45.251297,58.463497
1703505138.997830,1703505138.998364,65.000000,0.000000,4309.743652,4295.769043,4350.000000,4365.512695,4302.820313,4310.769043,4333.974121,4304.358887,4309.102539,4291.025879,4542.307617,4530.512695,4396.922852,4490.128418,5539.000000,3.000000,56.000000,,,,0.000000,4.000000,4.000000,4.000000,4.000000,4.000000,4.000000,4.000000,4.000000,4.000000,4.000000,4.000000,4.000000,4.000000,4.000000,100.000000,,,,,,,,,,,,,,,,,,,,,,,,,,,,
1703505139.005638,1703505139.006172,66.000000,0.000000,4312.692383,4297.307617,4352.563965,4367.563965,4300.256348,4311.794922,4336.410156,4306.410156,4318.846191,4304.230957,4549.230957,4535.000000,4408.461426,4491.410156,5374.000000,3.000000,56.000000,,,,0.000000,4.000000,4.000000,4.000000,4.000000,4.000000,4.000000,4.000000,4.000000,4.000000,4.000000,4.000000,4.000000,4.000000,4.000000,100.000000,,,,,,,,,,,,,,,,,,,,,,,,,,,,
1703505139.013446,1703505139.013880,67.000000,0.000000,4320.641113,4305.256348,4354.743652,4365.000000,4305.641113,4311.410156,4336.025879,4316.025879,4330.128418,4313.077148,4558.717773,4544.102539,4422.948730,4506.282227,5472.000000,3.000000,56.000000,,,,0.000000,4.000000,4.000000,4.000000,4.000000,4.000000,4.000000,4.000000,4.000000,4.000000,4.000000,4.000000,4.000000,4.000000,4.000000,100.000000,,,,,,,,,,,,,,,,,,,,,,,,,,,,
1703505139.021254,1703505139.021688,68.000000,0.000000,4318.589844,4304.230957,4352.563965,4363.846191,4309.358887,4310.128418,4334.743652,4312.436035,4320.128418,4301.794922,4546.410156,4539.487305,4412.820313,4507.307617,5275.000000,3.000000,56.000000,,,,0.000000,4.000000,4.000000,4.000000,4.000000,4.000000,4.000000,4.000000,4.000000,4.000000,4.000000,4.000000,4.000000,4.000000,4.000000,100.000000,,,,,,,,,,,,,,,,,17.000000,0.000000,0.338353,-0.715454,-0.133545,-0.596497,0.919546,-0.319375,-0.054206,-7.274584,-45.242832,58.533813
1703505139.029063,1703505139.029396,69.000000,0.000000,4310.128418,4295.897461,4343.846191,4366.922852,4306.282227,4310.384766,4329.230957,4299.871582,4304.871582,4292.307617,4532.563965,4522.179688,4400.000000,4492.051270,5128.000000,3.000000,56.000000,,,,0.000000,4.000000,4.000000,4.000000,4.000000,4.000000,4.000000,4.000000,4.000000,4.000000,4.000000,4.000000,4.000000,4.000000,4.000000,100.000000,,,,,,,,,,,,,,,,,,,,,,,,,,,,
1703505139.036871,1703505139.037204,70.000000,0.000000,4310.897461,4300.256348,4341.153809,4370.128418,4302.436035,4310.897461,4327.820313,4302.692383,4303.333496,4296.153809,4536.282227,4518.461426,4403.974121,4489.358887,3861.000000,3.000000,56.000000,,,,0.000000,4.000000,4.000000,4.000000,4.000000,4.000000,4.000000,4.000000,4.000000,4.000000,4.000000,4.000000,4.000000,4.000000,4.000000,100.000000,,,,,,,,,,,,,,,,,,,,,,,,,,,,
