title:الما اعلى, start timestamp:1703405292.572235, stop timestamp:1703405303.331730, headset type:EPOCX, headset serial:E50206EF, headset firmware:720, channels:67, sampling rate:eeg_128;mot_32, samples:1379      , version:2.2, 
Timestamp,OriginalTimestamp,EEG.Counter,EEG.Interpolated,EEG.AF3,EEG.F7,EEG.F3,EEG.FC5,EEG.T7,EEG.P7,EEG.O1,EEG.O2,EEG.P8,EEG.T8,EEG.FC6,EEG.F4,EEG.F8,EEG.AF4,EEG.RawCq,EEG.Battery,EEG.BatteryPercent,MarkerIndex,MarkerType,MarkerValueInt,EEG.MarkerHardware,CQ.AF3,CQ.F7,CQ.F3,CQ.FC5,CQ.T7,CQ.P7,CQ.O1,CQ.O2,CQ.P8,CQ.T8,CQ.FC6,CQ.F4,CQ.F8,CQ.AF4,CQ.Overall,EQ.SampleRateQuality,EQ.OVERALL,EQ.AF3,EQ.F7,EQ.F3,EQ.FC5,EQ.T7,EQ.P7,EQ.O1,EQ.O2,EQ.P8,EQ.T8,EQ.FC6,EQ.F4,EQ.F8,EQ.AF4,MOT.CounterMems,MOT.InterpolatedMems,MOT.Q0,MOT.Q1,MOT.Q2,MOT.Q3,MOT.AccX,MOT.AccY,MOT.AccZ,MOT.MagX,MOT.MagY,MOT.MagZ
1703405292.572235,1703405292.572347,118.000000,0.000000,4196.794922,4122.051270,4270.641113,4227.820313,4154.743652,4153.461426,4250.769043,4169.230957,4162.820313,4161.410156,4638.205078,4477.820313,4420.000000,4534.102539,5918.000000,4.000000,82.000000,,,,0.000000,4.000000,4.000000,4.000000,4.000000,4.000000,4.000000,2.000000,4.000000,4.000000,4.000000,4.000000,4.000000,4.000000,4.000000,83.333336,,,,,,,,,,,,,,,,,,,,,,,,,,,,
1703405292.580043,1703405292.580255,119.000000,0.000000,4181.922852,4118.205078,4264.358887,4229.358887,4149.102539,4154.358887,4248.205078,4160.512695,4148.461426,4145.384766,4620.128418,4460.769043,4415.128418,4520.512695,6168.000000,4.000000,82.000000,,,,0.000000,4.000000,4.000000,4.000000,4.000000,4.000000,4.000000,2.000000,4.000000,4.000000,4.000000,4.000000,4.000000,4.000000,4.000000,83.333336,,,,,,,,,,,,,,,,,,,,,,,,,,,,
1703405292.587851,1703405292.588063,120.000000,0.000000,4182.692383,4118.205078,4263.846191,4225.641113,4152.563965,4163.589844,4248.846191,4155.512695,4155.641113,4165.897461,4623.589844,4454.487305,4426.025879,4521.410156,6651.000000,4.000000,82.000000,,,,0.000000,4.000000,4.000000,4.000000,4.000000,4.000000,4.000000,2.000000,4.000000,4.000000,4.000000,4.000000,4.000000,4.000000,4.000000,83.333336,,,,,,,,,,,,,,,,,30.000000,0.000000,0.681577,-0.142029,-0.706482,-0.127136,0.992797,-0.028324,-0.030277,-14.447713,-38.591621,62.568314
1703405292.595659,1703405292.595971,121.000000,0.000000,4188.077148,4118.846191,4265.128418,4215.000000,4155.128418,4170.256348,4250.384766,4160.384766,4167.179688,4171.922852,4631.794922,4457.948730,4421.153809,4526.538574,6588.000000,4.000000,82.000000,,,,0.000000,4.000000,4.000000,4.000000,4.000000,4.000000,4.000000,2.000000,4.000000,4.000000,4.000000,4.000000,4.000000,4.000000,4.000000,83.333336,,,,,,,,,,,,,,,,,,,,,,,,,,,,
1703405292.603468,1703405292.603779,122.000000,0.000000,4186.153809,4122.307617,4264.358887,4221.282227,4152.563965,4166.922852,4249.230957,4155.384766,4137.051270,4140.897461,4622.179688,4457.307617,4398.846191,4524.230957,5918.000000,4.000000,82.000000,,,,0.000000,4.000000,4.000000,4.000000,4.000000,4.000000,4.000000,2.000000,4.000000,4.000000,4.000000,4.000000,4.000000,4.000000,4.000000,83.333336,,,,,,,,,,,,,,,,,,,,,,,,,,,,
1703405292.611276,1703405292.611687,123.000000,0.000000,4183.461426,4121.666504,4263.717773,4232.692383,4152.563965,4165.769043,4247.563965,4144.871582,4118.333496,4138.589844,4611.666504,4454.358887,4395.897461,4520.256348,6168.000000,4.000000,82.000000,,,,0.000000,4.000000,4.000000,4.000000,4.000000,4.000000,4.000000,2.000000,4.000000,4.000000,4.000000,4.000000,4.000000,4.000000,4.000000,83.333336,,,,,,,,,,,,,,,,,,,,,,,,,,,,
1703405292.619084,1703405292.619494,124.000000,0.000000,4189.358887,4120.512695,4265.769043,4229.487305,4153.717773,4170.512695,4247.436035,4140.641113,4134.358887,4145.000000,4620.256348,4456.153809,4413.717773,4521.282227,6651.000000,4.000000,82.000000,,,,0.000000,4.000000,4.000000,4.000000,4.000000,4.000000,4.000000,2.000000,4.000000,4.000000,4.000000,4.000000,4.000000,4.000000,4.000000,83.333336,,,,,,,,,,,,,,,,,31.000000,0.000000,0.681802,-0.142273,-0.706238,-0.127014,0.985472,-0.035161,-0.044927,-14.552942,-38.682461,62.578148
1703405292.626892,1703405292.627402,125.000000,0.000000,4201.025879,4129.615234,4271.538574,4228.205078,4154.743652,4170.384766,4252.179688,4137.692383,4131.282227,4117.051270,4626.025879,4459.871582,4421.153809,4531.410156,6588.000000,4.000000,82.000000,,,,0.000000,4.000000,4.000000,4.000000,4.000000,4.000000,4.000000,2.000000,4.000000,4.000000,4.000000,4.000000,4.000000,4.000000,4.000000,83.333336,,,,,,,,,,,,,,,,,,,,,,,,,,,,
1703405292.634700,1703405292.635210,126.000000,0.000000,4207.692383,4142.051270,4274.615234,4236.538574,4161.666504,4173.333496,4254.615234,4140.512695,4126.410156,4124.102539,4616.538574,4462.948730,4410.128418,4539.743652,5918.000000,4.000000,82.000000,,,,0.000000,4.000000,4.000000,4.000000,4.000000,4.000000,4.000000,2.000000,4.000000,4.000000,4.000000,4.000000,4.000000,4.000000,4.000000,83.333336,,,,,,,,,,,,,,,,,,,,,,,,,,,,
1703405292.642508,1703405292.643118,127.000000,0.000000,4206.025879,4142.820313,4274.871582,4235.256348,4166.794922,4184.230957,4247.179688,4148.846191,4154.230957,4176.538574,4621.666504,4465.769043,4403.846191,4537.307617,82.000000,4.000000,82.000000,,,,0.000000,4.000000,4.000000,4.000000,4.000000,4.000000,4.000000,2.000000,4.000000,4.000000,4.000000,4.000000,4.000000,4.000000,4.000000,83.333336,,,,,,,,,,,,,,,,,,,,,,,,,,,,
1703405292.650316,1703405292.650926,0.000000,0.000000,4201.922852,4134.743652,4273.205078,4229.615234,4159.102539,4187.436035,4252.179688,4153.461426,4167.692383,4182.179688,4634.615234,4466.666504,4410.384766,4535.256348,4762.000000,4.000000,82.000000,,,,0.000000,4.000000,4.000000,4.000000,4.000000,4.000000,4.000000,2.000000,4.000000,4.000000,4.000000,4.000000,4.000000,4.000000,4.000000,83.333336,,,,,,,,,,,,,,,,,0.000000,0.000000,0.682006,-0.142700,-0.705933,-0.127136,0.998657,-0.052741,-0.037114,-14.514315,-38.730881,62.453667
1703405292.658124,1703405292.658834,1.000000,0.000000,4198.077148,4132.051270,4270.256348,4230.256348,4152.692383,4182.820313,4254.871582,4154.615234,4152.051270,4152.436035,4626.666504,4462.692383,4413.333496,4537.948730,5410.000000,4.000000,82.000000,,,,0.000000,4.000000,4.000000,4.000000,4.000000,4.000000,4.000000,2.000000,4.000000,4.000000,4.000000,4.000000,4.000000,4.000000,4.000000,83.333336,,,,,,,,,,,,,,,,,,,,,,,,,,,,
1703405292.665932,1703405292.666642,2.000000,0.000000,4200.384766,4138.974121,4269.743652,4237.692383,4158.333496,4182.051270,4187.820313,4155.256348,4154.615234,4152.307617,4620.128418,4456.794922,4411.025879,4535.641113,5121.000000,4.000000,82.000000,,,,0.000000,4.000000,4.000000,4.000000,4.000000,4.000000,4.000000,2.000000,4.000000,4.000000,4.000000,4.000000,4.000000,4.000000,4.000000,83.333336,,,,,,,,,,,,,,,,,,,,,,,,,,,,
1703405292.673740,1703405292.674450,3.000000,0.000000,4202.948730,4143.974121,4273.205078,4247.563965,4162.948730,4186.025879,4100.769043,4157.307617,4156.282227,4154.358887,4619.615234,4457.820313,4410.641113,4528.717773,5328.000000,4.000000,82.000000,,,,0.000000,4.000000,4.000000,4.000000,4.000000,4.000000,4.000000,2.000000,4.000000,4.000000,4.000000,4.000000,4.000000,4.000000,4.000000,83.333336,,,,,,,,,,,,,,,,,,,,,,,,,,,,
1703405292.681548,1703405292.682258,4.000000,0.000000,4197.179688,4139.358887,4274.358887,4240.897461,4160.256348,4188.461426,4089.230713,4157.051270,4135.256348,4139.102539,4607.563965,4459.102539,4405.128418,4523.333496,5088.000000,4.000000,82.000000,,,,0.000000,4.000000,4.000000,4.000000,4.000000,4.000000,4.000000,2.000000,4.000000,4.000000,4.000000,4.000000,4.000000,4.000000,4.000000,83.333336,,,,,,,,,,,,,,,,,1.000000,0.000000,0.682226,-0.142883,-0.705627,-0.127441,0.985472,-0.036137,-0.045416,-14.429550,-38.724457,62.224968
1703405292.689356,1703405292.689966,5.000000,0.000000,4197.179688,4139.487305,4274.102539,4236.538574,4159.102539,4187.948730,4109.102539,4150.000000,4128.974121,4136.666504,4606.794922,4456.153809,4397.179688,4522.563965,4597.000000,4.000000,82.000000,,,,0.000000,4.000000,4.000000,4.000000,4.000000,4.000000,4.000000,2.000000,4.000000,4.000000,4.000000,4.000000,4.000000,4.000000,4.000000,83.333336,,,,,,,,,,,,,,,,,,,,,,,,,,,,
1703405292.697164,1703405292.697774,6.000000,0.000000,4205.000000,4144.230957,4277.436035,4242.948730,4157.820313,4187.307617,4106.666504,4139.358887,4136.282227,4131.666504,4617.051270,4452.179688,4393.333496,4528.974121,1469.000000,4.000000,82.000000,,,,0.000000,4.000000,4.000000,4.000000,4.000000,4.000000,4.000000,2.000000,4.000000,4.000000,4.000000,4.000000,4.000000,4.000000,4.000000,83.333336,,,,,,,,,,,,,,,,,,,,,,,,,,,,
1703405292.704972,1703405292.705482,7.000000,0.000000,4205.512695,4142.948730,4274.871582,4236.410156,4153.974121,4187.948730,4107.436035,4137.307617,4140.384766,4125.512695,4616.538574,4452.436035,4396.666504,4535.128418,5177.000000,4.000000,82.000000,,,,0.000000,4.000000,4.000000,4.000000,4.000000,4.000000,4.000000,2.000000,4.000000,4.000000,4.000000,4.000000,4.000000,4.000000,4.000000,83.333336,,,,,,,,,,,,,,,,,,,,,,,,,,,,
1703405292.712780,1703405292.713290,8.000000,0.000000,4202.307617,4142.563965,4268.846191,4228.974121,4154.487305,4187.948730,4113.333496,4141.153809,4140.256348,4139.615234,4616.922852,4458.717773,4408.461426,4536.538574,5048.000000,4.000000,82.000000,,,,0.000000,4.000000,4.000000,4.000000,4.000000,4.000000,4.000000,2.000000,4.000000,4.000000,4.000000,4.000000,4.000000,4.000000,4.000000,83.333336,,,,,,,,,,,,,,,,,2.000000,0.000000,0.682307,-0.142883,-0.705505,-0.127686,0.985472,-0.037114,-0.035161,-14.486595,-38.602013,62.185802
1703405292.720588,1703405292.720998,9.000000,0.000000,4201.410156,4143.461426,4270.128418,4235.769043,4157.820313,4192.179688,4113.846191,4143.717773,4140.000000,4157.051270,4621.025879,4461.538574,4408.589844,4535.000000,5135.000000,4.000000,82.000000,,,,0.000000,4.000000,4.000000,4.000000,4.000000,4.000000,4.000000,2.000000,4.000000,4.000000,4.000000,4.000000,4.000000,4.000000,4.000000,83.333336,1.000000,66.666664,4.000000,4.000000,4.000000,4.000000,4.000000,4.000000,1.000000,4.000000,4.000000,3.000000,4.000000,4.000000,4.000000,4.000000,,,,,,,,,,,,
1703405292.728396,1703405292.728806,10.000000,0.000000,4201.794922,4142.692383,4272.436035,4235.641113,4157.179688,4200.897461,4120.641113,4150.641113,4142.436035,4156.794922,4615.897461,4458.717773,4395.128418,4534.487305,5933.000000,4.000000,82.000000,,,,0.000000,4.000000,4.000000,4.000000,4.000000,4.000000,4.000000,2.000000,4.000000,4.000000,4.000000,4.000000,4.000000,4.000000,4.000000,83.333336,,,,,,,,,,,,,,,,,,,,,,,,,,,,
1703405292.736204,1703405292.736514,11.000000,0.000000,4205.641113,4143.205078,4269.102539,4232.179688,4154.102539,4199.615234,4121.153809,4156.794922,4149.487305,4153.077148,4612.051270,4456.922852,4393.461426,4534.743652,6173.000000,4.000000,82.000000,,,,0.000000,4.000000,4.000000,4.000000,4.000000,4.000000,4.000000,2.000000,4.000000,4.000000,4.000000,4.000000,4.000000,4.000000,4.000000,83.333336,,,,,,,,,,,,,,,,,,,,,,,,,,,,
1703405292.744012,1703405292.744322,12.000000,0.000000,4211.794922,4142.307617,4268.461426,4233.333496,4151.282227,4189.102539,4116.666504,4155.000000,4157.436035,4153.077148,4620.000000,4461.025879,4402.820313,4535.256348,6663.000000,4.000000,82.000000,,,,0.000000,4.000000,4.000000,4.000000,4.000000,4.000000,4.000000,2.000000,4.000000,4.000000,4.000000,4.000000,4.000000,4.000000,4.000000,83.333336,,,,,,,,,,,,,,,,,3.000000,0.000000,0.682704,-0.142822,-0.705078,-0.127991,0.982542,-0.029300,-0.025882,-14.471269,-38.591812,62.167221
1703405292.751820,1703405292.752030,13.000000,0.000000,4216.794922,4143.846191,4275.512695,4229.102539,4150.512695,4187.307617,4121.922852,4155.512695,4159.615234,4154.102539,4629.230957,4469.358887,4409.615234,4545.128418,6589.000000,4.000000,82.000000,,,,0.000000,4.000000,4.000000,4.000000,4.000000,4.000000,4.000000,2.000000,4.000000,4.000000,4.000000,4.000000,4.000000,4.000000,4.000000,83.333336,,,,,,,,,,,,,,,,,,,,,,,,,,,,
1703405292.759628,1703405292.759838,14.000000,0.000000,4220.384766,4150.000000,4277.948730,4233.846191,4153.846191,4194.487305,4126.410156,4160.769043,4159.871582,4152.307617,4632.307617,4475.256348,4414.102539,4554.230957,5933.000000,4.000000,82.000000,,,,0.000000,4.000000,4.000000,4.000000,4.000000,4.000000,4.000000,2.000000,4.000000,4.000000,4.000000,4.000000,4.000000,4.000000,4.000000,83.333336,,,,,,,,,,,,,,,,,,,,,,,,,,,,
1703405292.767437,1703405292.767546,15.000000,0.000000,4220.128418,4155.769043,4273.461426,4247.436035,4154.743652,4198.717773,4126.153809,4160.000000,4153.589844,4139.230957,4629.230957,4472.179688,4415.128418,4551.025879,6173.000000,4.000000,82.000000,,,,0.000000,4.000000,4.000000,4.000000,4.000000,4.000000,4.000000,2.000000,4.000000,4.000000,4.000000,4.000000,4.000000,4.000000,4.000000,83.333336,,,,,,,,,,,,,,,,,,,,,,,,,,,,
1703405292.775245,1703405292.775354,16.000000,0.000000,4221.922852,4163.717773,4274.615234,4249.743652,4156.282227,4200.512695,4131.922852,4154.871582,4148.846191,4141.410156,4630.897461,4468.717773,4414.102539,4551.922852,0.000000,4.000000,82.000000,,,,0.000000,4.000000,4.000000,4.000000,4.000000,4.000000,4.000000,2.000000,4.000000,4.000000,4.000000,4.000000,4.000000,4.000000,4.000000,83.333336,,,,,,,,,,,,,,,,,4.000000,0.000000,0.683062,-0.142700,-0.704712,-0.128235,0.987425,-0.033207,-0.033207,-14.607475,-38.399296,62.167168
1703405292.783053,1703405292.783062,17.000000,0.000000,4225.384766,4168.077148,4276.922852,4244.615234,4162.436035,4201.922852,4134.487305,4155.384766,4158.461426,4167.051270,4635.897461,4469.102539,4412.051270,4555.897461,0.000000,4.000000,82.000000,,,,0.000000,4.000000,4.000000,4.000000,4.000000,4.000000,4.000000,2.000000,4.000000,4.000000,4.000000,4.000000,4.000000,4.000000,4.000000,83.333336,,,,,,,,,,,,,,,,,,,,,,,,,,,,
1703405292.790861,1703405292.790970,18.000000,0.000000,4218.589844,4155.512695,4269.615234,4235.384766,4159.487305,4201.666504,4128.589844,4157.307617,4153.333496,4165.512695,4626.025879,4464.358887,4402.692383,4544.102539,0.000000,4.000000,82.000000,,,,0.000000,4.000000,4.000000,4.000000,4.000000,4.000000,4.000000,2.000000,4.000000,4.000000,4.000000,4.000000,4.000000,4.000000,4.000000,83.333336,,,,,,,,,,,,,,,,,,,,,,,,,,,,
1703405292.798669,1703405292.798778,19.000000,0.000000,4212.948730,4148.077148,4267.563965,4225.384766,4152.051270,4202.051270,4129.871582,4153.846191,4135.256348,4147.051270,4613.846191,4466.410156,4397.948730,4537.436035,0.000000,4.000000,82.000000,,,,0.000000,4.000000,4.000000,4.000000,4.000000,4.000000,4.000000,2.000000,4.000000,4.000000,4.000000,4.000000,4.000000,4.000000,4.000000,83.333336,,,,,,,,,,,,,,,,,,,,,,,,,,,,
1703405292.806477,1703405292.806686,20.000000,0.000000,4217.436035,4156.666504,4275.384766,4228.077148,4154.871582,4203.461426,4138.205078,4156.666504,4145.256348,4160.512695,4620.384766,4476.025879,4402.051270,4547.436035,0.000000,4.000000,82.000000,,,,0.000000,4.000000,4.000000,4.000000,4.000000,4.000000,4.000000,2.000000,4.000000,4.000000,4.000000,4.000000,4.000000,4.000000,4.000000,83.333336,,,,,,,,,,,,,,,,,5.000000,0.000000,0.683322,-0.142578,-0.704407,-0.128662,0.997680,-0.021975,-0.018069,-14.663394,-38.442699,61.983784
1703405292.814285,1703405292.814594,21.000000,0.000000,4207.948730,4155.384766,4270.256348,4232.436035,4159.743652,4204.487305,4140.128418,4163.077148,4161.666504,4158.589844,4620.384766,4470.897461,4392.948730,4537.436035,0.000000,4.000000,82.000000,,,,0.000000,4.000000,4.000000,4.000000,4.000000,4.000000,4.000000,2.000000,4.000000,4.000000,4.000000,4.000000,4.000000,4.000000,4.000000,83.333336,,,,,,,,,,,,,,,,,,,,,,,,,,,,
1703405292.822093,1703405292.822402,22.000000,0.000000,4193.589844,4146.922852,4258.717773,4228.205078,4156.282227,4203.461426,4139.230957,4161.025879,4153.846191,4112.179688,4603.717773,4457.179688,4381.922852,4518.077148,0.000000,4.000000,82.000000,,,,0.000000,4.000000,4.000000,4.000000,4.000000,4.000000,4.000000,2.000000,4.000000,4.000000,4.000000,4.000000,4.000000,4.000000,4.000000,83.333336,,,,,,,,,,,,,,,,,,,,,,,,,,,,
1703405292.829901,1703405292.830210,23.000000,0.000000,4205.769043,4152.563965,4266.282227,4228.974121,4150.128418,4201.410156,4140.256348,4157.563965,4153.205078,4114.358887,4606.282227,4458.077148,4393.846191,4530.000000,0.000000,4.000000,82.000000,,,,0.000000,4.000000,4.000000,4.000000,4.000000,4.000000,4.000000,2.000000,4.000000,4.000000,4.000000,4.000000,4.000000,4.000000,4.000000,83.333336,,,,,,,,,,,,,,,,,,,,,,,,,,,,
1703405292.837709,1703405292.838118,24.000000,0.000000,4222.051270,4162.307617,4277.948730,4235.384766,4151.538574,4201.282227,4140.897461,4160.000000,4164.615234,4170.256348,4622.179688,4464.358887,4400.769043,4544.487305,0.000000,4.000000,82.000000,,,,0.000000,4.000000,4.000000,4.000000,4.000000,4.000000,4.000000,2.000000,4.000000,4.000000,4.000000,4.000000,4.000000,4.000000,4.000000,83.333336,,,,,,,,,,,,,,,,,6.000000,0.000000,0.683544,-0.142334,-0.704163,-0.129089,0.987425,-0.026370,-0.021487,-14.713721,-38.481766,62.152073
1703405292.845517,1703405292.845926,25.000000,0.000000,4218.589844,4162.436035,4276.794922,4234.487305,4155.897461,4202.820313,4140.897461,4159.487305,4154.358887,4178.974121,4613.846191,4465.000000,4387.820313,4539.358887,0.000000,4.000000,82.000000,,,,0.000000,4.000000,4.000000,4.000000,4.000000,4.000000,4.000000,2.000000,4.000000,4.000000,4.000000,4.000000,4.000000,4.000000,4.000000,83.333336,,,,,,,,,,,,,,,,,,,,,,,,,,,,
1703405292.853325,1703405292.853834,26.000000,0.000000,4211.666504,4157.307617,4273.205078,4230.256348,4151.025879,4200.256348,4142.051270,4155.769043,4140.769043,4145.000000,4599.358887,4465.897461,4384.230957,4537.436035,0.000000,4.000000,82.000000,,,,0.000000,4.000000,4.000000,4.000000,4.000000,4.000000,4.000000,2.000000,4.000000,4.000000,4.000000,4.000000,4.000000,4.000000,4.000000,83.333336,,,,,,,,,,,,,,,,,,,,,,,,,,,,
1703405292.861133,1703405292.861642,27.000000,0.000000,4207.563965,4154.230957,4273.974121,4233.205078,4144.358887,4197.436035,4145.128418,4154.102539,4140.256348,4129.871582,4602.820313,4460.769043,4390.641113,4533.717773,0.000000,4.000000,82.000000,,,,0.000000,4.000000,4.000000,4.000000,4.000000,4.000000,4.000000,2.000000,4.000000,4.000000,4.000000,4.000000,4.000000,4.000000,4.000000,83.333336,,,,,,,,,,,,,,,,,,,,,,,,,,,,
1703405292.868941,1703405292.869350,28.000000,0.000000,4201.410156,4155.128418,4273.461426,4236.666504,4150.384766,4201.666504,4147.179688,4152.692383,4137.307617,4131.025879,4601.282227,4455.256348,4387.179688,4521.025879,0.000000,4.000000,82.000000,,,,0.000000,4.000000,4.000000,4.000000,4.000000,4.000000,4.000000,2.000000,4.000000,4.000000,4.000000,4.000000,4.000000,4.000000,4.000000,83.333336,,,,,,,,,,,,,,,,,7.000000,0.000000,0.683792,-0.141907,-0.703918,-0.129578,0.999145,-0.026859,-0.021487,-14.542349,-38.483589,62.053532
1703405292.876749,1703405292.877158,29.000000,0.000000,4201.666504,4160.769043,4271.025879,4234.487305,4156.410156,4204.871582,4144.743652,4153.974121,4137.692383,4133.205078,4596.282227,4462.307617,4378.461426,4520.512695,0.000000,4.000000,82.000000,,,,0.000000,4.000000,4.000000,4.000000,4.000000,4.000000,4.000000,2.000000,4.000000,4.000000,4.000000,4.000000,4.000000,4.000000,4.000000,83.333336,,,,,,,,,,,,,,,,,,,,,,,,,,,,
1703405292.884557,1703405292.884866,30.000000,0.000000,4209.230957,4166.410156,4270.128418,4237.563965,4152.820313,4202.820313,4147.692383,4154.487305,4139.358887,4133.461426,4604.230957,4466.794922,4380.128418,4523.333496,0.000000,4.000000,82.000000,,,,0.000000,4.000000,4.000000,4.000000,4.000000,4.000000,4.000000,2.000000,4.000000,4.000000,4.000000,4.000000,4.000000,4.000000,4.000000,83.333336,,,,,,,,,,,,,,,,,,,,,,,,,,,,
1703405292.892365,1703405292.892674,31.000000,0.000000,4214.487305,4170.000000,4271.794922,4247.563965,4154.102539,4203.589844,4155.000000,4149.871582,4138.077148,4130.256348,4611.794922,4461.282227,4391.922852,4511.922852,0.000000,4.000000,82.000000,,,,0.000000,4.000000,4.000000,4.000000,4.000000,4.000000,4.000000,2.000000,4.000000,4.000000,4.000000,4.000000,4.000000,4.000000,4.000000,83.333336,,,,,,,,,,,,,,,,,,,,,,,,,,,,
1703405292.900174,1703405292.900382,32.000000,0.000000,4218.077148,4171.153809,4278.333496,4244.487305,4155.769043,4203.077148,4155.000000,4150.512695,4141.538574,4143.461426,4613.974121,4466.282227,4396.666504,4509.102539,0.000000,4.000000,82.000000,,,,0.000000,4.000000,4.000000,4.000000,4.000000,4.000000,4.000000,2.000000,4.000000,4.000000,4.000000,4.000000,4.000000,4.000000,4.000000,83.333336,,,,,,,,,,,,,,,,,8.000000,0.000000,0.683998,-0.141541,-0.703735,-0.129883,1.004517,-0.028324,-0.020022,-14.604781,-38.485229,62.048180
1703405292.907982,1703405292.908190,33.000000,0.000000,4213.974121,4172.563965,4279.102539,4240.000000,4152.179688,4199.358887,4151.794922,4156.153809,4146.666504,4155.000000,4612.563965,4470.769043,4383.205078,4509.358887,0.000000,4.000000,82.000000,,,,0.000000,4.000000,4.000000,4.000000,4.000000,4.000000,4.000000,2.000000,4.000000,4.000000,4.000000,4.000000,4.000000,4.000000,4.000000,83.333336,,,,,,,,,,,,,,,,,,,,,,,,,,,,
1703405292.915789,1703405292.915898,34.000000,0.000000,4203.846191,4167.179688,4271.025879,4244.871582,4151.922852,4199.358887,4156.922852,4156.666504,4145.897461,4141.922852,4603.077148,4457.436035,4371.025879,4496.410156,0.000000,4.000000,82.000000,,,,0.000000,4.000000,4.000000,4.000000,4.000000,4.000000,4.000000,2.000000,4.000000,4.000000,4.000000,4.000000,4.000000,4.000000,4.000000,83.333336,,,,,,,,,,,,,,,,,,,,,,,,,,,,
1703405292.923598,1703405292.923806,35.000000,0.000000,4199.487305,4157.051270,4269.743652,4239.743652,4148.589844,4202.692383,4162.820313,4155.384766,4140.641113,4131.922852,4597.051270,4450.384766,4374.230957,4488.974121,0.000000,4.000000,82.000000,,,,0.000000,4.000000,4.000000,4.000000,4.000000,4.000000,4.000000,2.000000,4.000000,4.000000,4.000000,4.000000,4.000000,4.000000,4.000000,83.333336,,,,,,,,,,,,,,,,,,,,,,,,,,,,
1703405292.931406,1703405292.931614,36.000000,0.000000,4202.051270,4160.128418,4273.974121,4233.846191,4143.205078,4203.205078,4160.256348,4154.871582,4141.153809,4134.230957,4604.871582,4459.871582,4386.794922,4491.922852,0.000000,4.000000,82.000000,,,,0.000000,4.000000,4.000000,4.000000,4.000000,4.000000,4.000000,2.000000,4.000000,4.000000,4.000000,4.000000,4.000000,4.000000,4.000000,83.333336,,,,,,,,,,,,,,,,,9.000000,0.000000,0.684039,-0.141479,-0.703674,-0.130066,0.998657,-0.023440,-0.028324,-14.644303,-38.386707,62.060028
1703405292.939214,1703405292.939522,37.000000,0.000000,4211.025879,4171.025879,4274.615234,4245.256348,4152.436035,4203.461426,4158.974121,4151.666504,4139.230957,4142.051270,4614.743652,4460.512695,4396.410156,4498.461426,0.000000,4.000000,82.000000,,,,0.000000,4.000000,4.000000,4.000000,4.000000,4.000000,4.000000,2.000000,4.000000,4.000000,4.000000,4.000000,4.000000,4.000000,4.000000,83.333336,,,,,,,,,,,,,,,,,,,,,,,,,,,,
1703405292.947022,1703405292.947330,38.000000,0.000000,4217.820313,4173.717773,4272.563965,4249.358887,4167.051270,4205.384766,4163.077148,4151.794922,4136.410156,4156.794922,4617.307617,4457.179688,4395.769043,4500.641113,0.000000,4.000000,82.000000,,,,0.000000,4.000000,4.000000,4.000000,4.000000,4.000000,4.000000,2.000000,4.000000,4.000000,4.000000,4.000000,4.000000,4.000000,4.000000,83.333336,,,,,,,,,,,,,,,,,,,,,,,,,,,,
1703405292.954830,1703405292.955138,39.000000,0.000000,4213.205078,4170.256348,4272.051270,4234.487305,4164.102539,4203.717773,4163.461426,4155.128418,4148.717773,4151.153809,4618.205078,4462.948730,4387.948730,4496.538574,0.000000,4.000000,82.000000,,,,0.000000,4.000000,4.000000,4.000000,4.000000,4.000000,4.000000,2.000000,4.000000,4.000000,4.000000,4.000000,4.000000,4.000000,4.000000,83.333336,,,,,,,,,,,,,,,,,,,,,,,,,,,,
1703405292.962638,1703405292.962846,40.000000,0.000000,4200.769043,4162.436035,4270.897461,4226.025879,4151.794922,4200.512695,4162.563965,4155.897461,4148.205078,4130.769043,4613.974121,4464.871582,4382.563965,4492.692383,0.000000,4.000000,82.000000,,,,0.000000,4.000000,4.000000,4.000000,4.000000,4.000000,4.000000,2.000000,4.000000,4.000000,4.000000,4.000000,4.000000,4.000000,4.000000,83.333336,,,,,,,,,,,,,,,,,10.000000,0.000000,0.684130,-0.141418,-0.703552,-0.130310,0.989379,-0.019534,-0.027347,-14.579873,-38.314701,62.020691
1703405292.970446,1703405292.970754,41.000000,0.000000,4197.307617,4158.974121,4269.230957,4235.000000,4150.769043,4199.871582,4168.589844,4157.436035,4126.794922,4134.871582,4597.051270,4457.051270,4374.487305,4487.307617,0.000000,4.000000,82.000000,,,,0.000000,4.000000,4.000000,4.000000,4.000000,4.000000,4.000000,2.000000,4.000000,4.000000,4.000000,4.000000,4.000000,4.000000,4.000000,83.333336,,,,,,,,,,,,,,,,,,,,,,,,,,,,
1703405292.978254,1703405292.978562,42.000000,0.000000,4201.538574,4168.333496,4268.589844,4243.461426,4154.743652,4199.487305,4172.179688,4159.230957,4133.077148,4139.358887,4581.410156,4448.333496,4355.256348,4475.897461,0.000000,4.000000,82.000000,,,,0.000000,4.000000,4.000000,4.000000,4.000000,4.000000,4.000000,2.000000,4.000000,4.000000,4.000000,4.000000,4.000000,4.000000,4.000000,83.333336,,,,,,,,,,,,,,,,,,,,,,,,,,,,
1703405292.986062,1703405292.986470,43.000000,0.000000,4201.538574,4174.487305,4268.846191,4238.333496,4153.333496,4198.717773,4168.333496,4156.922852,4155.897461,4117.820313,4580.769043,4444.743652,4339.358887,4471.922852,0.000000,4.000000,82.000000,,,,0.000000,4.000000,4.000000,4.000000,4.000000,4.000000,4.000000,2.000000,4.000000,4.000000,4.000000,4.000000,4.000000,4.000000,4.000000,83.333336,,,,,,,,,,,,,,,,,,,,,,,,,,,,
1703405292.993870,1703405292.994278,44.000000,0.000000,4198.974121,4170.512695,4267.307617,4232.563965,4152.179688,4199.743652,4171.025879,4154.743652,4147.820313,4109.102539,4585.769043,4446.282227,4341.538574,4473.333496,0.000000,4.000000,82.000000,,,,0.000000,4.000000,4.000000,4.000000,4.000000,4.000000,4.000000,2.000000,4.000000,4.000000,4.000000,4.000000,4.000000,4.000000,4.000000,83.333336,,,,,,,,,,,,,,,,,11.000000,0.000000,0.684206,-0.141357,-0.703491,-0.130310,1.002075,-0.028324,-0.020022,-14.738552,-38.416565,61.985291
1703405293.001678,1703405293.002186,45.000000,0.000000,4196.025879,4169.102539,4264.871582,4231.410156,4156.025879,4201.538574,4176.794922,4153.333496,4135.769043,4125.641113,4587.051270,4450.128418,4351.282227,4467.307617,0.000000,4.000000,82.000000,,,,0.000000,4.000000,4.000000,4.000000,4.000000,4.000000,4.000000,2.000000,4.000000,4.000000,4.000000,4.000000,4.000000,4.000000,4.000000,83.333336,,,,,,,,,,,,,,,,,,,,,,,,,,,,
1703405293.009486,1703405293.009994,46.000000,0.000000,4200.000000,4170.128418,4272.692383,4234.871582,4156.282227,4202.051270,4175.256348,4150.512695,4143.974121,4138.974121,4597.179688,4456.025879,4363.589844,4475.000000,0.000000,4.000000,82.000000,,,,0.000000,4.000000,4.000000,4.000000,4.000000,4.000000,4.000000,2.000000,4.000000,4.000000,4.000000,4.000000,4.000000,4.000000,4.000000,83.333336,,,,,,,,,,,,,,,,,,,,,,,,,,,,
1703405293.017294,1703405293.017901,47.000000,0.000000,4213.846191,4178.077148,4286.794922,4248.461426,4154.358887,4203.589844,4174.871582,4151.282227,4144.102539,4142.307617,4617.820313,4469.230957,4383.205078,4502.436035,0.000000,4.000000,82.000000,,,,0.000000,4.000000,4.000000,4.000000,4.000000,4.000000,4.000000,2.000000,4.000000,4.000000,4.000000,4.000000,4.000000,4.000000,4.000000,83.333336,,,,,,,,,,,,,,,,,,,,,,,,,,,,
1703405293.025102,1703405293.025709,48.000000,0.000000,4220.128418,4189.487305,4288.846191,4254.615234,4160.128418,4203.333496,4178.974121,4152.307617,4137.436035,4139.871582,4620.641113,4474.230957,4392.948730,4508.077148,0.000000,4.000000,82.000000,,,,0.000000,4.000000,4.000000,4.000000,4.000000,4.000000,4.000000,2.000000,4.000000,4.000000,4.000000,4.000000,4.000000,4.000000,4.000000,83.333336,,,,,,,,,,,,,,,,,12.000000,0.000000,0.684381,-0.141174,-0.703369,-0.130249,0.985472,-0.020999,-0.024417,-14.831364,-38.424908,62.036758
1703405293.032910,1703405293.033617,49.000000,0.000000,4216.025879,4188.846191,4281.794922,4250.256348,4168.333496,4201.025879,4179.743652,4154.358887,4142.563965,4143.077148,4609.487305,4463.333496,4383.846191,4495.256348,0.000000,4.000000,82.000000,,,,0.000000,4.000000,4.000000,4.000000,4.000000,4.000000,4.000000,2.000000,4.000000,4.000000,4.000000,4.000000,4.000000,4.000000,4.000000,83.333336,,,,,,,,,,,,,,,,,,,,,,,,,,,,
1703405293.040718,1703405293.041425,50.000000,0.000000,4219.358887,4187.307617,4278.205078,4250.769043,4166.153809,4201.153809,4180.641113,4162.563965,4151.666504,4151.666504,4600.641113,4456.666504,4373.589844,4490.000000,0.000000,4.000000,82.000000,,,,0.000000,4.000000,4.000000,4.000000,4.000000,4.000000,4.000000,2.000000,4.000000,4.000000,4.000000,4.000000,4.000000,4.000000,4.000000,83.333336,,,,,,,,,,,,,,,,,,,,,,,,,,,,
1703405293.048526,1703405293.049133,51.000000,0.000000,4217.692383,4185.769043,4276.666504,4245.384766,4156.282227,4200.641113,4187.563965,4164.743652,4151.153809,4140.256348,4587.179688,4452.179688,4357.436035,4483.077148,0.000000,4.000000,82.000000,,,,0.000000,4.000000,4.000000,4.000000,4.000000,4.000000,4.000000,2.000000,4.000000,4.000000,4.000000,4.000000,4.000000,4.000000,4.000000,83.333336,,,,,,,,,,,,,,,,,,,,,,,,,,,,
1703405293.056334,1703405293.056941,52.000000,0.000000,4202.307617,4172.692383,4269.871582,4235.384766,4153.205078,4197.692383,4187.820313,4153.717773,4135.512695,4121.666504,4576.025879,4440.897461,4338.717773,4471.153809,0.000000,4.000000,82.000000,,,,0.000000,4.000000,4.000000,4.000000,4.000000,4.000000,4.000000,2.000000,4.000000,4.000000,4.000000,4.000000,4.000000,4.000000,4.000000,83.333336,,,,,,,,,,,,,,,,,13.000000,0.000000,0.684529,-0.141174,-0.703247,-0.130127,0.991820,-0.026859,-0.026370,-14.614894,-38.432419,62.083084
1703405293.064143,1703405293.064649,53.000000,0.000000,4202.436035,4168.333496,4268.846191,4242.563965,4157.948730,4196.794922,4180.769043,4140.897461,4119.358887,4119.487305,4578.589844,4436.153809,4339.230957,4468.077148,0.000000,4.000000,82.000000,,,,0.000000,4.000000,4.000000,4.000000,4.000000,4.000000,4.000000,2.000000,4.000000,4.000000,4.000000,4.000000,4.000000,4.000000,4.000000,83.333336,,,,,,,,,,,,,,,,,,,,,,,,,,,,
1703405293.071951,1703405293.072457,54.000000,0.000000,4217.820313,4181.025879,4276.666504,4250.256348,4158.974121,4198.846191,4182.179688,4135.897461,4121.410156,4122.820313,4584.743652,4444.743652,4349.358887,4475.512695,0.000000,4.000000,82.000000,,,,0.000000,4.000000,4.000000,4.000000,4.000000,4.000000,4.000000,2.000000,4.000000,4.000000,4.000000,4.000000,4.000000,4.000000,4.000000,83.333336,,,,,,,,,,,,,,,,,,,,,,,,,,,,
1703405293.079759,1703405293.080165,55.000000,0.000000,4217.307617,4188.077148,4278.589844,4245.384766,4159.615234,4200.769043,4189.615234,4141.794922,4138.846191,4124.487305,4592.820313,4451.538574,4355.512695,4483.846191,0.000000,4.000000,82.000000,,,,0.000000,4.000000,4.000000,4.000000,4.000000,4.000000,4.000000,2.000000,4.000000,4.000000,4.000000,4.000000,4.000000,4.000000,4.000000,83.333336,,,,,,,,,,,,,,,,,,,,,,,,,,,,
1703405293.087567,1703405293.087973,56.000000,0.000000,4208.205078,4184.358887,4275.897461,4247.051270,4158.846191,4201.410156,4191.410156,4157.436035,4154.230957,4136.153809,4609.871582,4455.641113,4365.897461,4490.769043,0.000000,4.000000,82.000000,,,,0.000000,4.000000,4.000000,4.000000,4.000000,4.000000,4.000000,2.000000,4.000000,4.000000,4.000000,4.000000,4.000000,4.000000,4.000000,83.333336,,,,,,,,,,,,,,,,,14.000000,0.000000,0.684730,-0.141113,-0.703064,-0.130127,0.983030,-0.009767,-0.029300,-14.653404,-38.372509,62.174774
1703405293.095375,1703405293.095681,57.000000,0.000000,4216.666504,4183.974121,4281.794922,4249.102539,4152.948730,4202.436035,4191.666504,4166.922852,4157.820313,4148.717773,4620.000000,4461.153809,4378.205078,4494.871582,0.000000,4.000000,82.000000,,,,0.000000,4.000000,4.000000,4.000000,4.000000,4.000000,4.000000,2.000000,4.000000,4.000000,4.000000,4.000000,4.000000,4.000000,4.000000,83.333336,,,,,,,,,,,,,,,,,,,,,,,,,,,,
1703405293.103183,1703405293.103489,58.000000,0.000000,4229.230957,4193.461426,4292.563965,4247.820313,4159.743652,4203.333496,4196.282227,4160.641113,4153.974121,4154.358887,4616.794922,4465.512695,4384.487305,4495.128418,0.000000,4.000000,82.000000,,,,0.000000,4.000000,4.000000,4.000000,4.000000,4.000000,4.000000,2.000000,4.000000,4.000000,4.000000,4.000000,4.000000,4.000000,4.000000,83.333336,,,,,,,,,,,,,,,,,,,,,,,,,,,,
1703405293.110991,1703405293.111198,59.000000,0.000000,4223.077148,4198.461426,4291.922852,4251.410156,4169.358887,4202.436035,4199.358887,4154.102539,4145.384766,4152.948730,4610.384766,4467.179688,4379.230957,4494.871582,0.000000,4.000000,82.000000,,,,0.000000,4.000000,4.000000,4.000000,4.000000,4.000000,4.000000,2.000000,4.000000,4.000000,4.000000,4.000000,4.000000,4.000000,4.000000,83.333336,,,,,,,,,,,,,,,,,,,,,,,,,,,,
1703405293.118799,1703405293.119005,60.000000,0.000000,4217.051270,4188.974121,4281.538574,4250.000000,4160.256348,4200.128418,4197.051270,4151.666504,4130.769043,4141.794922,4598.461426,4460.384766,4360.256348,4491.025879,0.000000,4.000000,82.000000,,,,0.000000,4.000000,4.000000,4.000000,4.000000,4.000000,4.000000,2.000000,4.000000,4.000000,4.000000,4.000000,4.000000,4.000000,4.000000,83.333336,,,,,,,,,,,,,,,,,15.000000,0.000000,0.684794,-0.141052,-0.703003,-0.130188,0.973752,-0.028324,-0.006348,-14.604731,-38.285259,62.173965
1703405293.126607,1703405293.126714,61.000000,0.000000,4227.948730,4185.512695,4281.410156,4246.410156,4158.974121,4199.487305,4198.205078,4151.153809,4137.051270,4133.589844,4595.256348,4457.948730,4352.948730,4491.410156,0.000000,4.000000,82.000000,,,,0.000000,4.000000,4.000000,4.000000,4.000000,4.000000,4.000000,2.000000,4.000000,4.000000,4.000000,4.000000,4.000000,4.000000,4.000000,83.333336,,,,,,,,,,,,,,,,,,,,,,,,,,,,
1703405293.134415,1703405293.134522,62.000000,0.000000,4229.615234,4193.589844,4285.128418,4250.641113,4169.230957,4199.230957,4200.512695,4154.358887,4153.974121,4128.461426,4600.769043,4460.512695,4363.717773,4493.717773,0.000000,4.000000,82.000000,,,,0.000000,4.000000,4.000000,4.000000,4.000000,4.000000,4.000000,2.000000,4.000000,4.000000,4.000000,4.000000,4.000000,4.000000,4.000000,83.333336,,,,,,,,,,,,,,,,,,,,,,,,,,,,
1703405293.142223,1703405293.142230,63.000000,0.000000,4215.128418,4191.153809,4278.846191,4253.846191,4159.743652,4197.051270,4199.230957,4156.410156,4143.205078,4125.000000,4600.897461,4455.000000,4365.000000,4488.846191,0.000000,4.000000,82.000000,,,,0.000000,4.000000,4.000000,4.000000,4.000000,4.000000,4.000000,2.000000,4.000000,4.000000,4.000000,4.000000,4.000000,4.000000,4.000000,83.333336,,,,,,,,,,,,,,,,,,,,,,,,,,,,
1703405293.150031,1703405293.150038,64.000000,0.000000,4217.563965,4185.512695,4282.563965,4246.666504,4153.974121,4196.410156,4201.922852,4156.025879,4138.974121,4143.205078,4606.153809,4457.051270,4365.641113,4491.025879,4757.000000,4.000000,82.000000,,,,0.000000,4.000000,4.000000,4.000000,4.000000,4.000000,4.000000,2.000000,4.000000,4.000000,4.000000,4.000000,4.000000,4.000000,4.000000,83.333336,,,,,,,,,,,,,,,,,16.000000,0.000000,0.685107,-0.141052,-0.702698,-0.130188,1.011354,-0.025882,-0.019534,-14.510924,-38.206734,62.223236
1703405293.157839,1703405293.157746,65.000000,0.000000,4235.128418,4191.538574,4297.307617,4249.230957,4167.436035,4198.333496,4201.410156,4157.051270,4158.077148,4157.563965,4618.846191,4467.563965,4378.589844,4506.025879,5387.000000,4.000000,82.000000,,,,0.000000,4.000000,4.000000,4.000000,4.000000,4.000000,4.000000,2.000000,4.000000,4.000000,4.000000,4.000000,4.000000,4.000000,4.000000,83.333336,,,,,,,,,,,,,,,,,,,,,,,,,,,,
1703405293.165647,1703405293.165654,66.000000,0.000000,4234.615234,4195.000000,4293.974121,4260.384766,4164.487305,4196.538574,4198.205078,4152.179688,4150.512695,4142.820313,4618.461426,4462.179688,4378.077148,4510.128418,5121.000000,4.000000,82.000000,,,,0.000000,4.000000,4.000000,4.000000,4.000000,4.000000,4.000000,2.000000,4.000000,4.000000,4.000000,4.000000,4.000000,4.000000,4.000000,83.333336,,,,,,,,,,,,,,,,,,,,,,,,,,,,
1703405293.173455,1703405293.173461,67.000000,0.000000,4221.025879,4186.922852,4283.717773,4255.128418,4151.666504,4193.205078,4201.794922,4141.794922,4129.743652,4137.179688,4608.333496,4452.692383,4365.897461,4493.846191,5327.000000,4.000000,82.000000,,,,0.000000,4.000000,4.000000,4.000000,4.000000,4.000000,4.000000,2.000000,4.000000,4.000000,4.000000,4.000000,4.000000,4.000000,4.000000,83.333336,,,,,,,,,,,,,,,,,,,,,,,,,,,,
1703405293.181263,1703405293.181269,68.000000,0.000000,4221.282227,4182.692383,4288.589844,4247.436035,4154.871582,4196.153809,4204.102539,4141.794922,4140.256348,4154.615234,4610.000000,4459.487305,4373.205078,4487.948730,5088.000000,4.000000,82.000000,,,,0.000000,4.000000,4.000000,4.000000,4.000000,4.000000,4.000000,2.000000,4.000000,4.000000,4.000000,4.000000,4.000000,4.000000,4.000000,83.333336,,,,,,,,,,,,,,,,,17.000000,0.000000,0.685232,-0.141052,-0.702576,-0.130188,0.985960,-0.032719,-0.019045,-14.426498,-38.219391,62.217579
1703405293.189071,1703405293.188978,69.000000,0.000000,4231.922852,4191.410156,4292.307617,4248.589844,4161.922852,4199.487305,4199.615234,4146.282227,4146.153809,4154.358887,4612.436035,4462.051270,4383.077148,4501.282227,4597.000000,4.000000,82.000000,,,,0.000000,4.000000,4.000000,4.000000,4.000000,4.000000,4.000000,2.000000,4.000000,4.000000,4.000000,4.000000,4.000000,4.000000,4.000000,83.333336,,,,,,,,,,,,,,,,,,,,,,,,,,,,
1703405293.196880,1703405293.196885,70.000000,0.000000,4233.077148,4201.538574,4286.538574,4250.128418,4164.230957,4198.589844,4203.717773,4141.666504,4131.794922,4135.384766,4602.820313,4451.922852,4368.974121,4500.000000,1469.000000,4.000000,82.000000,,,,0.000000,4.000000,4.000000,4.000000,4.000000,4.000000,4.000000,2.000000,4.000000,4.000000,4.000000,4.000000,4.000000,4.000000,4.000000,83.333336,,,,,,,,,,,,,,,,,,,,,,,,,,,,
1703405293.204687,1703405293.204693,71.000000,0.000000,4227.563965,4203.333496,4285.512695,4257.436035,4166.282227,4200.256348,4212.820313,4141.794922,4133.974121,4127.051270,4596.922852,4451.922852,4354.743652,4486.538574,5182.000000,4.000000,82.000000,,,,0.000000,4.000000,4.000000,4.000000,4.000000,4.000000,4.000000,2.000000,4.000000,4.000000,4.000000,4.000000,4.000000,4.000000,4.000000,83.333336,,,,,,,,,,,,,,,,,,,,,,,,,,,,
1703405293.212495,1703405293.212601,72.000000,0.000000,4229.615234,4203.589844,4287.051270,4269.358887,4168.717773,4204.102539,4213.205078,4153.461426,4144.743652,4122.563965,4601.666504,4460.000000,4364.230957,4495.769043,5043.000000,4.000000,82.000000,,,,0.000000,4.000000,4.000000,4.000000,4.000000,4.000000,4.000000,2.000000,4.000000,4.000000,4.000000,4.000000,4.000000,4.000000,4.000000,83.333336,,,,,,,,,,,,,,,,,18.000000,0.000000,0.685292,-0.141235,-0.702515,-0.130005,1.008424,-0.029300,-0.020022,-14.550515,-38.164120,62.279152
1703405293.220304,1703405293.220409,73.000000,0.000000,4235.512695,4206.666504,4281.153809,4265.897461,4169.615234,4202.436035,4209.871582,4153.461426,4137.820313,4125.641113,4606.025879,4455.128418,4383.333496,4509.487305,5141.000000,4.000000,82.000000,,,,0.000000,4.000000,4.000000,4.000000,4.000000,4.000000,4.000000,2.000000,4.000000,4.000000,4.000000,4.000000,4.000000,4.000000,4.000000,83.333336,1.000000,83.333336,4.000000,4.000000,4.000000,4.000000,4.000000,4.000000,2.000000,4.000000,4.000000,4.000000,4.000000,4.000000,4.000000,4.000000,,,,,,,,,,,,
1703405293.228112,1703405293.228317,74.000000,0.000000,4230.641113,4205.641113,4273.974121,4260.000000,4169.230957,4198.846191,4206.282227,4141.538574,4129.871582,4142.692383,4602.563965,4441.282227,4385.769043,4494.487305,5930.000000,4.000000,82.000000,,,,0.000000,4.000000,4.000000,4.000000,4.000000,4.000000,4.000000,2.000000,4.000000,4.000000,4.000000,4.000000,4.000000,4.000000,4.000000,83.333336,,,,,,,,,,,,,,,,,,,,,,,,,,,,
1703405293.235920,1703405293.236125,75.000000,0.000000,4226.410156,4203.077148,4278.333496,4267.051270,4170.256348,4198.461426,4205.256348,4144.358887,4148.333496,4156.538574,4607.051270,4444.743652,4375.897461,4486.794922,6179.000000,4.000000,82.000000,,,,0.000000,4.000000,4.000000,4.000000,4.000000,4.000000,4.000000,2.000000,4.000000,4.000000,4.000000,4.000000,4.000000,4.000000,4.000000,83.333336,,,,,,,,,,,,,,,,,,,,,,,,,,,,
1703405293.243728,1703405293.244033,76.000000,0.000000,4235.512695,4204.358887,4287.692383,4260.384766,4169.358887,4198.846191,4211.922852,4157.179688,4153.205078,4158.846191,4618.461426,4459.743652,4370.641113,4504.487305,6653.000000,4.000000,82.000000,,,,0.000000,4.000000,4.000000,4.000000,4.000000,4.000000,4.000000,2.000000,4.000000,4.000000,4.000000,4.000000,4.000000,4.000000,4.000000,83.333336,,,,,,,,,,,,,,,,,19.000000,0.000000,0.685291,-0.141296,-0.702515,-0.129944,0.979123,-0.023440,-0.025394,-14.495463,-38.197708,62.301239
1703405293.251536,1703405293.251841,77.000000,0.000000,4231.538574,4201.025879,4285.384766,4249.743652,4156.666504,4196.794922,4217.820313,4152.307617,4123.717773,4146.025879,4609.487305,4456.538574,4366.922852,4502.051270,6604.000000,4.000000,82.000000,,,,0.000000,4.000000,4.000000,4.000000,4.000000,4.000000,4.000000,2.000000,4.000000,4.000000,4.000000,4.000000,4.000000,4.000000,4.000000,83.333336,,,,,,,,,,,,,,,,,,,,,,,,,,,,
1703405293.259344,1703405293.259549,78.000000,0.000000,4214.102539,4193.589844,4281.538574,4258.205078,4149.743652,4195.128418,4216.282227,4138.333496,4120.000000,4136.922852,4593.461426,4446.794922,4361.666504,4487.436035,5930.000000,4.000000,82.000000,,,,0.000000,4.000000,4.000000,4.000000,4.000000,4.000000,4.000000,2.000000,4.000000,4.000000,4.000000,4.000000,4.000000,4.000000,4.000000,83.333336,,,,,,,,,,,,,,,,,,,,,,,,,,,,
1703405293.267152,1703405293.267357,79.000000,0.000000,4223.974121,4197.307617,4290.256348,4265.000000,4164.871582,4196.922852,4214.743652,4139.743652,4143.846191,4136.282227,4598.589844,4457.179688,4364.871582,4499.230957,6179.000000,4.000000,82.000000,,,,0.000000,4.000000,4.000000,4.000000,4.000000,4.000000,4.000000,2.000000,4.000000,4.000000,4.000000,4.000000,4.000000,4.000000,4.000000,83.333336,,,,,,,,,,,,,,,,,,,,,,,,,,,,
1703405293.274960,1703405293.275065,80.000000,0.000000,4238.717773,4200.000000,4293.461426,4253.589844,4168.717773,4198.205078,4219.358887,4148.717773,4143.717773,4134.615234,4606.794922,4465.256348,4365.641113,4511.538574,6653.000000,4.000000,82.000000,,,,0.000000,4.000000,4.000000,4.000000,4.000000,4.000000,4.000000,2.000000,4.000000,4.000000,4.000000,4.000000,4.000000,4.000000,4.000000,83.333336,,,,,,,,,,,,,,,,,20.000000,0.000000,0.685450,-0.141296,-0.702393,-0.129761,0.997680,-0.027347,-0.026370,-14.479251,-38.177937,62.104446
1703405293.282768,1703405293.282973,81.000000,0.000000,4221.794922,4188.846191,4286.666504,4244.102539,4158.589844,4197.307617,4222.563965,4151.794922,4139.487305,4141.025879,4599.230957,4458.333496,4357.948730,4502.692383,6604.000000,4.000000,82.000000,,,,0.000000,4.000000,4.000000,4.000000,4.000000,4.000000,4.000000,2.000000,4.000000,4.000000,4.000000,4.000000,4.000000,4.000000,4.000000,83.333336,,,,,,,,,,,,,,,,,,,,,,,,,,,,
1703405293.290576,1703405293.290781,82.000000,0.000000,4211.025879,4183.333496,4290.000000,4250.256348,4162.051270,4198.205078,4222.563965,4154.358887,4156.282227,4151.410156,4599.102539,4463.461426,4361.282227,4504.102539,5930.000000,4.000000,82.000000,,,,0.000000,4.000000,4.000000,4.000000,4.000000,4.000000,4.000000,2.000000,4.000000,4.000000,4.000000,4.000000,4.000000,4.000000,4.000000,83.333336,,,,,,,,,,,,,,,,,,,,,,,,,,,,
1703405293.298384,1703405293.298590,83.000000,0.000000,4220.384766,4184.230957,4296.410156,4249.102539,4162.307617,4201.538574,4225.897461,4156.410156,4152.563965,4142.692383,4605.384766,4470.256348,4361.794922,4509.487305,6179.000000,4.000000,82.000000,,,,0.000000,4.000000,4.000000,4.000000,4.000000,4.000000,4.000000,2.000000,4.000000,4.000000,4.000000,4.000000,4.000000,4.000000,4.000000,83.333336,,,,,,,,,,,,,,,,,,,,,,,,,,,,
1703405293.306192,1703405293.306398,84.000000,0.000000,4216.922852,4179.487305,4290.384766,4241.538574,4151.794922,4199.743652,4230.256348,4153.589844,4130.897461,4131.538574,4599.230957,4459.743652,4347.820313,4497.692383,6653.000000,4.000000,82.000000,,,,0.000000,4.000000,4.000000,4.000000,4.000000,4.000000,4.000000,2.000000,4.000000,4.000000,4.000000,4.000000,4.000000,4.000000,4.000000,83.333336,,,,,,,,,,,,,,,,,21.000000,0.000000,0.685486,-0.141235,-0.702393,-0.129639,1.007447,-0.024905,-0.021487,-14.381326,-38.243477,62.060669
1703405293.314000,1703405293.314206,85.000000,0.000000,4213.589844,4180.641113,4285.897461,4250.000000,4156.922852,4198.461426,4230.512695,4153.589844,4129.102539,4133.205078,4600.000000,4455.641113,4349.487305,4495.128418,6604.000000,4.000000,82.000000,,,,0.000000,4.000000,4.000000,4.000000,4.000000,4.000000,4.000000,2.000000,4.000000,4.000000,4.000000,4.000000,4.000000,4.000000,4.000000,83.333336,,,,,,,,,,,,,,,,,,,,,,,,,,,,
1703405293.321808,1703405293.321914,86.000000,0.000000,4225.256348,4191.538574,4289.358887,4262.436035,4169.871582,4200.384766,4230.897461,4158.333496,4143.717773,4127.436035,4608.333496,4462.436035,4365.128418,4505.512695,5930.000000,4.000000,82.000000,,,,0.000000,4.000000,4.000000,4.000000,4.000000,4.000000,4.000000,2.000000,4.000000,4.000000,4.000000,4.000000,4.000000,4.000000,4.000000,83.333336,,,,,,,,,,,,,,,,,,,,,,,,,,,,
1703405293.329616,1703405293.329822,87.000000,0.000000,4228.205078,4195.512695,4288.589844,4259.615234,4168.974121,4193.205078,4229.743652,4157.692383,4147.692383,4125.512695,4608.717773,4460.128418,4361.025879,4505.897461,6179.000000,4.000000,82.000000,,,,0.000000,4.000000,4.000000,4.000000,4.000000,4.000000,4.000000,2.000000,4.000000,4.000000,4.000000,4.000000,4.000000,4.000000,4.000000,83.333336,,,,,,,,,,,,,,,,,,,,,,,,,,,,
1703405293.337424,1703405293.337630,88.000000,0.000000,4227.179688,4196.538574,4287.179688,4258.461426,4168.589844,4189.615234,4226.410156,4153.589844,4137.051270,4137.820313,4605.769043,4457.692383,4353.461426,4504.615234,6653.000000,4.000000,82.000000,,,,0.000000,4.000000,4.000000,4.000000,4.000000,4.000000,4.000000,2.000000,4.000000,4.000000,4.000000,4.000000,4.000000,4.000000,4.000000,83.333336,,,,,,,,,,,,,,,,,22.000000,0.000000,0.685562,-0.141113,-0.702332,-0.129700,0.988402,-0.033207,-0.019534,-14.426526,-38.219128,62.021271
1703405293.345232,1703405293.345438,89.000000,0.000000,4230.256348,4201.410156,4290.256348,4265.641113,4167.692383,4197.692383,4228.461426,4155.641113,4135.897461,4151.025879,4603.077148,4462.436035,4359.743652,4506.922852,6604.000000,4.000000,82.000000,,,,0.000000,4.000000,4.000000,4.000000,4.000000,4.000000,4.000000,2.000000,4.000000,4.000000,4.000000,4.000000,4.000000,4.000000,4.000000,83.333336,,,,,,,,,,,,,,,,,,,,,,,,,,,,
1703405293.353040,1703405293.353146,90.000000,0.000000,4222.179688,4196.410156,4288.717773,4255.128418,4162.436035,4193.846191,4233.205078,4155.000000,4142.820313,4151.025879,4601.538574,4456.666504,4352.692383,4497.179688,5930.000000,4.000000,82.000000,,,,0.000000,4.000000,4.000000,4.000000,4.000000,4.000000,4.000000,2.000000,4.000000,4.000000,4.000000,4.000000,4.000000,4.000000,4.000000,83.333336,,,,,,,,,,,,,,,,,,,,,,,,,,,,
1703405293.360849,1703405293.361054,91.000000,0.000000,4214.487305,4188.846191,4284.358887,4243.333496,4165.000000,4184.615234,4230.128418,4144.743652,4138.846191,4141.922852,4606.666504,4449.102539,4337.948730,4486.025879,6179.000000,4.000000,82.000000,,,,0.000000,4.000000,4.000000,4.000000,4.000000,4.000000,4.000000,2.000000,4.000000,4.000000,4.000000,4.000000,4.000000,4.000000,4.000000,83.333336,,,,,,,,,,,,,,,,,,,,,,,,,,,,
1703405293.368657,1703405293.368862,92.000000,0.000000,4226.025879,4195.128418,4288.846191,4256.666504,4169.871582,4193.461426,4230.769043,4138.974121,4132.948730,4146.282227,4616.410156,4454.743652,4346.794922,4495.769043,6653.000000,4.000000,82.000000,,,,0.000000,4.000000,4.000000,4.000000,4.000000,4.000000,4.000000,2.000000,4.000000,4.000000,4.000000,4.000000,4.000000,4.000000,4.000000,83.333336,,,,,,,,,,,,,,,,,23.000000,0.000000,0.685478,-0.140991,-0.702393,-0.129944,1.004029,-0.019534,-0.018557,-14.467207,-38.197216,61.902477
1703405293.376465,1703405293.376770,93.000000,0.000000,4237.820313,4208.205078,4296.153809,4270.256348,4170.769043,4203.205078,4243.333496,4144.230957,4139.358887,4152.051270,4621.282227,4462.948730,4363.205078,4508.846191,6604.000000,4.000000,82.000000,,,,0.000000,4.000000,4.000000,4.000000,4.000000,4.000000,4.000000,2.000000,4.000000,4.000000,4.000000,4.000000,4.000000,4.000000,4.000000,83.333336,,,,,,,,,,,,,,,,,,,,,,,,,,,,
1703405293.384273,1703405293.384578,94.000000,0.000000,4230.128418,4202.692383,4292.179688,4261.922852,4169.743652,4200.000000,4247.307617,4142.563965,4142.436035,4141.153809,4613.717773,4462.436035,4357.948730,4503.589844,5930.000000,4.000000,82.000000,,,,0.000000,4.000000,4.000000,4.000000,4.000000,4.000000,4.000000,2.000000,4.000000,4.000000,4.000000,4.000000,4.000000,4.000000,4.000000,83.333336,,,,,,,,,,,,,,,,,,,,,,,,,,,,
1703405293.392081,1703405293.392485,95.000000,0.000000,4214.615234,4186.025879,4282.307617,4251.794922,4168.589844,4194.230957,4238.846191,4135.641113,4138.717773,4132.820313,4601.922852,4453.589844,4344.230957,4486.538574,6179.000000,4.000000,82.000000,,,,0.000000,4.000000,4.000000,4.000000,4.000000,4.000000,4.000000,2.000000,4.000000,4.000000,4.000000,4.000000,4.000000,4.000000,4.000000,83.333336,,,,,,,,,,,,,,,,,,,,,,,,,,,,
1703405293.399889,1703405293.400293,96.000000,0.000000,4205.769043,4182.948730,4274.358887,4247.692383,4164.230957,4188.205078,4236.666504,4144.615234,4134.487305,4131.153809,4596.538574,4440.512695,4335.128418,4475.641113,6653.000000,4.000000,82.000000,,,,0.000000,4.000000,4.000000,4.000000,4.000000,4.000000,4.000000,2.000000,4.000000,4.000000,4.000000,4.000000,4.000000,4.000000,4.000000,83.333336,,,,,,,,,,,,,,,,,24.000000,0.000000,0.685555,-0.140869,-0.702332,-0.130005,0.995239,-0.029789,-0.024417,-14.420486,-38.144161,62.045563
1703405293.407697,1703405293.408201,97.000000,0.000000,4198.846191,4182.692383,4269.487305,4233.717773,4156.922852,4189.615234,4238.205078,4152.948730,4124.358887,4110.000000,4592.948730,4424.615234,4327.307617,4468.589844,6604.000000,4.000000,82.000000,,,,0.000000,4.000000,4.000000,4.000000,4.000000,4.000000,4.000000,2.000000,4.000000,4.000000,4.000000,4.000000,4.000000,4.000000,4.000000,83.333336,,,,,,,,,,,,,,,,,,,,,,,,,,,,
1703405293.415505,1703405293.416009,98.000000,0.000000,4188.846191,4170.897461,4264.102539,4226.922852,4150.769043,4198.589844,4237.820313,4146.794922,4124.358887,4099.743652,4582.692383,4415.897461,4320.256348,4460.256348,5930.000000,4.000000,82.000000,,,,0.000000,4.000000,4.000000,4.000000,4.000000,4.000000,4.000000,2.000000,4.000000,4.000000,4.000000,4.000000,4.000000,4.000000,4.000000,83.333336,,,,,,,,,,,,,,,,,,,,,,,,,,,,
1703405293.423313,1703405293.423917,99.000000,0.000000,4185.384766,4163.333496,4261.922852,4239.230957,4153.333496,4201.794922,4243.205078,4145.000000,4124.230957,4116.922852,4582.948730,4424.743652,4319.615234,4461.922852,6179.000000,4.000000,82.000000,,,,0.000000,4.000000,4.000000,4.000000,4.000000,4.000000,4.000000,2.000000,4.000000,4.000000,4.000000,4.000000,4.000000,4.000000,4.000000,83.333336,,,,,,,,,,,,,,,,,,,,,,,,,,,,
1703405293.431121,1703405293.431725,100.000000,0.000000,4203.333496,4177.179688,4279.487305,4251.410156,4164.743652,4197.692383,4244.487305,4147.563965,4111.153809,4133.205078,4600.000000,4445.641113,4336.025879,4481.666504,6653.000000,4.000000,82.000000,,,,0.000000,4.000000,4.000000,4.000000,4.000000,4.000000,4.000000,2.000000,4.000000,4.000000,4.000000,4.000000,4.000000,4.000000,4.000000,83.333336,,,,,,,,,,,,,,,,,25.000000,0.000000,0.685693,-0.140747,-0.702209,-0.130066,0.995727,-0.021487,-0.020022,-14.495105,-38.179745,62.174339
1703405293.438929,1703405293.439433,101.000000,0.000000,4231.282227,4196.538574,4301.410156,4257.692383,4165.384766,4190.897461,4237.563965,4137.820313,4118.717773,4137.948730,4611.025879,4460.000000,4352.948730,4504.615234,6604.000000,4.000000,82.000000,,,,0.000000,4.000000,4.000000,4.000000,4.000000,4.000000,4.000000,2.000000,4.000000,4.000000,4.000000,4.000000,4.000000,4.000000,4.000000,83.333336,,,,,,,,,,,,,,,,,,,,,,,,,,,,
1703405293.446737,1703405293.447241,102.000000,0.000000,4233.717773,4200.256348,4300.641113,4264.358887,4156.282227,4183.333496,4241.922852,4135.897461,4149.102539,4136.282227,4609.615234,4462.179688,4351.538574,4507.948730,5930.000000,4.000000,82.000000,,,,0.000000,4.000000,4.000000,4.000000,4.000000,4.000000,4.000000,2.000000,4.000000,4.000000,4.000000,4.000000,4.000000,4.000000,4.000000,83.333336,,,,,,,,,,,,,,,,,,,,,,,,,,,,
1703405293.454545,1703405293.454949,103.000000,0.000000,4219.615234,4196.538574,4292.820313,4259.102539,4160.256348,4186.153809,4250.256348,4153.333496,4161.538574,4145.897461,4617.820313,4465.000000,4357.436035,4503.717773,6179.000000,4.000000,82.000000,,,,0.000000,4.000000,4.000000,4.000000,4.000000,4.000000,4.000000,2.000000,4.000000,4.000000,4.000000,4.000000,4.000000,4.000000,4.000000,83.333336,,,,,,,,,,,,,,,,,,,,,,,,,,,,
1703405293.462353,1703405293.462757,104.000000,0.000000,4225.128418,4199.230957,4296.282227,4247.948730,4171.794922,4195.512695,4247.820313,4159.230957,4151.666504,4148.846191,4629.358887,4471.666504,4371.538574,4511.153809,6653.000000,4.000000,82.000000,,,,0.000000,4.000000,4.000000,4.000000,4.000000,4.000000,4.000000,2.000000,4.000000,4.000000,4.000000,4.000000,4.000000,4.000000,4.000000,83.333336,,,,,,,,,,,,,,,,,26.000000,0.000000,0.685642,-0.140747,-0.702271,-0.130005,0.980100,-0.036137,-0.022952,-14.495594,-38.278439,62.256905
1703405293.470161,1703405293.470465,105.000000,0.000000,4236.282227,4202.692383,4295.897461,4255.641113,4169.487305,4197.307617,4248.717773,4151.410156,4145.641113,4134.102539,4626.410156,4474.487305,4365.769043,4515.641113,6604.000000,4.000000,82.000000,,,,0.000000,4.000000,4.000000,4.000000,4.000000,4.000000,4.000000,2.000000,4.000000,4.000000,4.000000,4.000000,4.000000,4.000000,4.000000,83.333336,,,,,,,,,,,,,,,,,,,,,,,,,,,,
1703405293.477969,1703405293.478273,106.000000,0.000000,4232.563965,4196.410156,4290.641113,4264.358887,4164.487305,4198.333496,4251.025879,4152.820313,4148.333496,4138.974121,4624.230957,4470.256348,4360.897461,4511.794922,5930.000000,4.000000,82.000000,,,,0.000000,4.000000,4.000000,4.000000,4.000000,4.000000,4.000000,2.000000,4.000000,4.000000,4.000000,4.000000,4.000000,4.000000,4.000000,83.333336,,,,,,,,,,,,,,,,,,,,,,,,,,,,
1703405293.485777,1703405293.485981,107.000000,0.000000,4227.179688,4188.589844,4290.641113,4253.205078,4169.102539,4197.820313,4248.589844,4159.230957,4153.846191,4160.128418,4627.179688,4460.512695,4373.717773,4508.333496,6179.000000,4.000000,82.000000,,,,0.000000,4.000000,4.000000,4.000000,4.000000,4.000000,4.000000,2.000000,4.000000,4.000000,4.000000,4.000000,4.000000,4.000000,4.000000,83.333336,,,,,,,,,,,,,,,,,,,,,,,,,,,,
1703405293.493585,1703405293.493889,108.000000,0.000000,4217.820313,4185.256348,4281.922852,4245.769043,4170.641113,4190.641113,4247.051270,4159.871582,4152.436035,4158.589844,4619.871582,4449.871582,4368.461426,4498.333496,6653.000000,4.000000,82.000000,,,,0.000000,4.000000,4.000000,4.000000,4.000000,4.000000,4.000000,2.000000,4.000000,4.000000,4.000000,4.000000,4.000000,4.000000,4.000000,83.333336,,,,,,,,,,,,,,,,,27.000000,0.000000,0.685653,-0.140808,-0.702271,-0.129883,0.997680,-0.027347,-0.020999,-14.496035,-38.283928,62.331215
1703405293.501393,1703405293.501697,109.000000,0.000000,4200.000000,4183.974121,4269.358887,4248.589844,4166.025879,4185.769043,4246.794922,4155.128418,4135.384766,4145.128418,4607.179688,4439.615234,4343.846191,4483.077148,6604.000000,4.000000,82.000000,,,,0.000000,4.000000,4.000000,4.000000,4.000000,4.000000,4.000000,2.000000,4.000000,4.000000,4.000000,4.000000,4.000000,4.000000,4.000000,83.333336,,,,,,,,,,,,,,,,,,,,,,,,,,,,
1703405293.509201,1703405293.509505,110.000000,0.000000,4205.897461,4190.128418,4273.077148,4245.769043,4169.358887,4188.077148,4250.000000,4153.717773,4125.128418,4143.589844,4603.717773,4439.358887,4338.846191,4485.512695,5930.000000,4.000000,82.000000,,,,0.000000,4.000000,4.000000,4.000000,4.000000,4.000000,4.000000,2.000000,4.000000,4.000000,4.000000,4.000000,4.000000,4.000000,4.000000,83.333336,,,,,,,,,,,,,,,,,,,,,,,,,,,,
1703405293.517010,1703405293.517213,111.000000,0.000000,4223.333496,4200.512695,4283.077148,4252.051270,4170.897461,4188.077148,4252.563965,4154.743652,4134.102539,4141.410156,4605.384766,4450.769043,4352.436035,4494.743652,6179.000000,4.000000,82.000000,,,,0.000000,4.000000,4.000000,4.000000,4.000000,4.000000,4.000000,2.000000,4.000000,4.000000,4.000000,4.000000,4.000000,4.000000,4.000000,83.333336,,,,,,,,,,,,,,,,,,,,,,,,,,,,
1703405293.524818,1703405293.525021,112.000000,0.000000,4215.769043,4200.641113,4283.589844,4264.743652,4158.205078,4179.871582,4248.974121,4148.333496,4140.769043,4128.205078,4607.307617,4454.230957,4353.333496,4490.769043,6653.000000,4.000000,82.000000,,,,0.000000,4.000000,4.000000,4.000000,4.000000,4.000000,4.000000,2.000000,4.000000,4.000000,4.000000,4.000000,4.000000,4.000000,4.000000,83.333336,,,,,,,,,,,,,,,,,28.000000,0.000000,0.685700,-0.140747,-0.702271,-0.129700,1.000122,-0.021487,-0.026859,-14.629765,-38.288868,62.448093
1703405293.532626,1703405293.532729,113.000000,0.000000,4215.512695,4201.282227,4290.769043,4267.692383,4155.384766,4178.846191,4250.128418,4143.205078,4139.615234,4130.384766,4612.563965,4459.743652,4348.717773,4496.282227,6604.000000,4.000000,82.000000,,,,0.000000,4.000000,4.000000,4.000000,4.000000,4.000000,4.000000,2.000000,4.000000,4.000000,4.000000,4.000000,4.000000,4.000000,4.000000,83.333336,,,,,,,,,,,,,,,,,,,,,,,,,,,,
1703405293.540434,1703405293.540637,114.000000,0.000000,4241.153809,4214.230957,4312.051270,4273.205078,4172.820313,4187.948730,4259.230957,4150.128418,4135.384766,4149.358887,4618.589844,4478.974121,4357.692383,4520.256348,5930.000000,4.000000,82.000000,,,,0.000000,4.000000,4.000000,4.000000,4.000000,4.000000,4.000000,2.000000,4.000000,4.000000,4.000000,4.000000,4.000000,4.000000,4.000000,83.333336,,,,,,,,,,,,,,,,,,,,,,,,,,,,
1703405293.548242,1703405293.548445,115.000000,0.000000,4251.794922,4218.974121,4318.717773,4278.974121,4178.461426,4190.897461,4256.666504,4157.436035,4119.615234,4138.205078,4620.384766,4483.846191,4366.794922,4530.384766,6179.000000,4.000000,82.000000,,,,0.000000,4.000000,4.000000,4.000000,4.000000,4.000000,4.000000,2.000000,4.000000,4.000000,4.000000,4.000000,4.000000,4.000000,4.000000,83.333336,,,,,,,,,,,,,,,,,,,,,,,,,,,,
1703405293.556050,1703405293.556353,116.000000,0.000000,4230.000000,4203.333496,4302.948730,4261.282227,4162.563965,4184.102539,4252.820313,4149.871582,4114.230957,4108.461426,4611.025879,4466.282227,4358.205078,4511.410156,6653.000000,4.000000,82.000000,,,,0.000000,4.000000,4.000000,4.000000,4.000000,4.000000,4.000000,2.000000,4.000000,4.000000,4.000000,4.000000,4.000000,4.000000,4.000000,83.333336,,,,,,,,,,,,,,,,,29.000000,0.000000,0.685661,-0.140686,-0.702332,-0.129639,0.990355,-0.037602,-0.035649,-14.600121,-38.226646,62.536617
1703405293.563858,1703405293.564161,117.000000,0.000000,4208.846191,4183.205078,4286.922852,4240.641113,4151.153809,4182.948730,4258.333496,4140.128418,4137.436035,4124.358887,4601.538574,4452.692383,4345.256348,4488.205078,6604.000000,4.000000,82.000000,,,,0.000000,4.000000,4.000000,4.000000,4.000000,4.000000,4.000000,2.000000,4.000000,4.000000,4.000000,4.000000,4.000000,4.000000,4.000000,83.333336,,,,,,,,,,,,,,,,,,,,,,,,,,,,
1703405293.571666,1703405293.572069,118.000000,0.000000,4212.692383,4185.000000,4283.589844,4252.179688,4156.025879,4184.871582,4257.307617,4142.692383,4147.692383,4152.051270,4599.615234,4449.743652,4342.692383,4489.358887,5930.000000,4.000000,82.000000,,,,0.000000,4.000000,4.000000,4.000000,4.000000,4.000000,4.000000,2.000000,4.000000,4.000000,4.000000,4.000000,4.000000,4.000000,4.000000,83.333336,,,,,,,,,,,,,,,,,,,,,,,,,,,,
1703405293.579474,1703405293.579877,119.000000,0.000000,4221.538574,4200.128418,4289.102539,4266.666504,4159.487305,4178.077148,4254.871582,4153.333496,4140.384766,4141.794922,4605.512695,4451.538574,4342.948730,4502.436035,6179.000000,4.000000,82.000000,,,,0.000000,4.000000,4.000000,4.000000,4.000000,4.000000,4.000000,2.000000,4.000000,4.000000,4.000000,4.000000,4.000000,4.000000,4.000000,83.333336,,,,,,,,,,,,,,,,,,,,,,,,,,,,
1703405293.587282,1703405293.587785,120.000000,0.000000,4212.307617,4195.000000,4290.641113,4254.358887,4155.256348,4172.051270,4259.743652,4160.128418,4141.666504,4134.230957,4611.410156,4454.102539,4341.666504,4496.794922,6653.000000,4.000000,82.000000,,,,0.000000,4.000000,4.000000,4.000000,4.000000,4.000000,4.000000,2.000000,4.000000,4.000000,4.000000,4.000000,4.000000,4.000000,4.000000,83.333336,,,,,,,,,,,,,,,,,30.000000,0.000000,0.685611,-0.140625,-0.702393,-0.129639,0.996215,-0.032719,-0.019534,-14.690109,-38.353981,62.582954
1703405293.595090,1703405293.595593,121.000000,0.000000,4205.000000,4180.769043,4284.743652,4244.615234,4157.563965,4174.743652,4260.897461,4155.384766,4137.948730,4140.256348,4601.922852,4452.051270,4344.871582,4481.410156,6604.000000,4.000000,82.000000,,,,0.000000,4.000000,4.000000,4.000000,4.000000,4.000000,4.000000,2.000000,4.000000,4.000000,4.000000,4.000000,4.000000,4.000000,4.000000,83.333336,,,,,,,,,,,,,,,,,,,,,,,,,,,,
1703405293.602898,1703405293.603500,122.000000,0.000000,4213.333496,4183.846191,4285.641113,4250.256348,4162.563965,4179.358887,4259.615234,4154.615234,4142.179688,4142.948730,4597.820313,4455.256348,4350.384766,4490.897461,5930.000000,4.000000,82.000000,,,,0.000000,4.000000,4.000000,4.000000,4.000000,4.000000,4.000000,2.000000,4.000000,4.000000,4.000000,4.000000,4.000000,4.000000,4.000000,83.333336,,,,,,,,,,,,,,,,,,,,,,,,,,,,
1703405293.610706,1703405293.611308,123.000000,0.000000,4217.307617,4187.948730,4295.000000,4246.666504,4159.615234,4182.948730,4262.948730,4160.128418,4158.717773,4145.897461,4614.615234,4464.615234,4355.128418,4510.256348,6179.000000,4.000000,82.000000,,,,0.000000,4.000000,4.000000,4.000000,4.000000,4.000000,4.000000,2.000000,4.000000,4.000000,4.000000,4.000000,4.000000,4.000000,4.000000,83.333336,,,,,,,,,,,,,,,,,,,,,,,,,,,,
1703405293.618514,1703405293.619016,124.000000,0.000000,4220.897461,4191.282227,4297.307617,4249.615234,4162.436035,4186.922852,4263.205078,4154.871582,4145.897461,4140.384766,4618.461426,4463.205078,4357.692383,4511.410156,6653.000000,4.000000,82.000000,,,,0.000000,4.000000,4.000000,4.000000,4.000000,4.000000,4.000000,2.000000,4.000000,4.000000,4.000000,4.000000,4.000000,4.000000,4.000000,83.333336,,,,,,,,,,,,,,,,,31.000000,0.000000,0.685611,-0.140625,-0.702393,-0.129639,0.982542,-0.028324,-0.026859,-14.637765,-38.301918,62.541325
1703405293.626322,1703405293.626824,125.000000,0.000000,4236.922852,4211.922852,4296.922852,4271.922852,4174.871582,4188.333496,4261.794922,4140.000000,4121.922852,4135.769043,4603.717773,4459.615234,4357.820313,4508.077148,6604.000000,4.000000,82.000000,,,,0.000000,4.000000,4.000000,4.000000,4.000000,4.000000,4.000000,2.000000,4.000000,4.000000,4.000000,4.000000,4.000000,4.000000,4.000000,83.333336,,,,,,,,,,,,,,,,,,,,,,,,,,,,
1703405293.634130,1703405293.634533,126.000000,0.000000,4239.102539,4219.487305,4300.000000,4274.615234,4176.410156,4185.641113,4261.922852,4132.563965,4127.820313,4141.153809,4601.922852,4458.846191,4359.102539,4508.717773,5930.000000,4.000000,82.000000,,,,0.000000,4.000000,4.000000,4.000000,4.000000,4.000000,4.000000,2.000000,4.000000,4.000000,4.000000,4.000000,4.000000,4.000000,4.000000,83.333336,,,,,,,,,,,,,,,,,,,,,,,,,,,,
1703405293.641938,1703405293.642340,127.000000,0.000000,4222.307617,4200.384766,4294.102539,4258.077148,4165.641113,4184.743652,4262.051270,4140.897461,4139.871582,4140.384766,4606.025879,4451.666504,4358.589844,4503.077148,82.000000,4.000000,82.000000,,,,0.000000,4.000000,4.000000,4.000000,4.000000,4.000000,4.000000,2.000000,4.000000,4.000000,4.000000,4.000000,4.000000,4.000000,4.000000,83.333336,,,,,,,,,,,,,,,,,,,,,,,,,,,,
1703405293.649747,1703405293.650049,0.000000,0.000000,4211.025879,4188.077148,4278.717773,4251.025879,4157.948730,4181.666504,4264.102539,4154.615234,4137.820313,4139.230957,4603.589844,4447.820313,4348.077148,4493.974121,4761.000000,4.000000,82.000000,,,,0.000000,4.000000,4.000000,4.000000,4.000000,4.000000,4.000000,2.000000,4.000000,4.000000,4.000000,4.000000,4.000000,4.000000,4.000000,83.333336,,,,,,,,,,,,,,,,,0.000000,0.000000,0.685523,-0.140503,-0.702515,-0.129578,0.992309,-0.018557,-0.038091,-14.623988,-38.305058,62.503860
1703405293.657555,1703405293.657857,1.000000,0.000000,4203.461426,4186.538574,4270.897461,4240.769043,4154.615234,4173.589844,4266.025879,4158.846191,4139.230957,4140.512695,4601.025879,4447.179688,4336.153809,4483.589844,5370.000000,4.000000,82.000000,,,,0.000000,4.000000,4.000000,4.000000,4.000000,4.000000,4.000000,2.000000,4.000000,4.000000,4.000000,4.000000,4.000000,4.000000,4.000000,83.333336,,,,,,,,,,,,,,,,,,,,,,,,,,,,
1703405293.665362,1703405293.665565,2.000000,0.000000,4197.307617,4183.589844,4270.384766,4232.948730,4155.384766,4174.487305,4265.897461,4159.615234,4146.153809,4133.333496,4595.384766,4441.153809,4331.410156,4474.487305,5125.000000,4.000000,82.000000,,,,0.000000,4.000000,4.000000,4.000000,4.000000,4.000000,4.000000,2.000000,4.000000,4.000000,4.000000,4.000000,4.000000,4.000000,4.000000,83.333336,,,,,,,,,,,,,,,,,,,,,,,,,,,,
1703405293.673171,1703405293.673373,3.000000,0.000000,4195.000000,4179.743652,4269.102539,4241.538574,4156.282227,4182.563965,4266.538574,4164.487305,4146.666504,4138.974121,4588.974121,4433.077148,4328.461426,4471.025879,5320.000000,4.000000,82.000000,,,,0.000000,4.000000,4.000000,4.000000,4.000000,4.000000,4.000000,2.000000,4.000000,4.000000,4.000000,4.000000,4.000000,4.000000,4.000000,83.333336,,,,,,,,,,,,,,,,,,,,,,,,,,,,
1703405293.680979,1703405293.681081,4.000000,0.000000,4197.307617,4183.461426,4272.948730,4250.512695,4162.307617,4183.974121,4269.615234,4162.436035,4141.410156,4153.461426,4593.205078,4436.282227,4333.461426,4471.282227,5091.000000,4.000000,82.000000,,,,0.000000,4.000000,4.000000,4.000000,4.000000,4.000000,4.000000,2.000000,4.000000,4.000000,4.000000,4.000000,4.000000,4.000000,4.000000,83.333336,,,,,,,,,,,,,,,,,1.000000,0.000000,0.685525,-0.140381,-0.702515,-0.129700,0.989379,-0.026859,-0.026859,-14.844923,-38.257885,62.553474
1703405293.688787,1703405293.688889,5.000000,0.000000,4207.436035,4193.333496,4282.179688,4252.307617,4169.871582,4182.051270,4268.077148,4152.307617,4139.871582,4148.846191,4600.128418,4448.846191,4346.666504,4479.743652,4597.000000,4.000000,82.000000,,,,0.000000,4.000000,4.000000,4.000000,4.000000,4.000000,4.000000,2.000000,4.000000,4.000000,4.000000,4.000000,4.000000,4.000000,4.000000,83.333336,,,,,,,,,,,,,,,,,,,,,,,,,,,,
1703405293.696595,1703405293.696597,6.000000,0.000000,4218.846191,4200.256348,4292.436035,4258.333496,4169.487305,4183.717773,4268.205078,4150.512695,4142.436035,4141.922852,4601.282227,4459.230957,4355.384766,4497.307617,1469.000000,4.000000,82.000000,,,,0.000000,4.000000,4.000000,4.000000,4.000000,4.000000,4.000000,2.000000,4.000000,4.000000,4.000000,4.000000,4.000000,4.000000,4.000000,83.333336,,,,,,,,,,,,,,,,,,,,,,,,,,,,
1703405293.704403,1703405293.704405,7.000000,0.000000,4226.410156,4200.897461,4302.179688,4266.282227,4167.820313,4184.743652,4272.307617,4155.384766,4143.846191,4140.000000,4602.436035,4467.436035,4359.871582,4510.256348,5188.000000,4.000000,82.000000,,,,0.000000,4.000000,4.000000,4.000000,4.000000,4.000000,4.000000,2.000000,4.000000,4.000000,4.000000,4.000000,4.000000,4.000000,4.000000,83.333336,,,,,,,,,,,,,,,,,,,,,,,,,,,,
1703405293.712211,1703405293.712113,8.000000,0.000000,4233.077148,4200.897461,4305.897461,4263.846191,4166.282227,4181.153809,4271.025879,4153.846191,4136.025879,4127.307617,4602.820313,4471.538574,4359.487305,4512.051270,5050.000000,4.000000,82.000000,,,,0.000000,4.000000,4.000000,4.000000,4.000000,4.000000,4.000000,2.000000,4.000000,4.000000,4.000000,4.000000,4.000000,4.000000,4.000000,83.333336,,,,,,,,,,,,,,,,,2.000000,0.000000,0.685600,-0.140320,-0.702454,-0.129700,0.991820,-0.038579,-0.015627,-14.793764,-38.148766,62.414795
1703405293.720019,1703405293.720021,9.000000,0.000000,4236.025879,4202.948730,4298.974121,4261.794922,4166.538574,4175.256348,4266.282227,4149.615234,4125.769043,4117.436035,4602.692383,4470.641113,4352.692383,4509.102539,5145.000000,4.000000,82.000000,,,,0.000000,4.000000,4.000000,4.000000,4.000000,4.000000,4.000000,2.000000,4.000000,4.000000,4.000000,4.000000,4.000000,4.000000,4.000000,83.333336,1.000000,58.333332,4.000000,4.000000,4.000000,4.000000,4.000000,3.000000,1.000000,4.000000,4.000000,3.000000,4.000000,4.000000,4.000000,4.000000,,,,,,,,,,,,
1703405293.727827,1703405293.727829,10.000000,0.000000,4231.922852,4204.230957,4294.871582,4266.282227,4168.717773,4171.410156,4265.512695,4151.666504,4126.410156,4126.666504,4601.538574,4468.077148,4348.077148,4509.230957,5935.000000,4.000000,82.000000,,,,0.000000,4.000000,4.000000,4.000000,4.000000,4.000000,4.000000,2.000000,4.000000,4.000000,4.000000,4.000000,4.000000,4.000000,4.000000,83.333336,,,,,,,,,,,,,,,,,,,,,,,,,,,,
1703405293.735635,1703405293.735736,11.000000,0.000000,4225.000000,4200.000000,4298.205078,4263.077148,4166.538574,4171.666504,4270.000000,4157.948730,4134.615234,4138.846191,4598.589844,4467.307617,4350.000000,4510.512695,6180.000000,4.000000,82.000000,,,,0.000000,4.000000,4.000000,4.000000,4.000000,4.000000,4.000000,2.000000,4.000000,4.000000,4.000000,4.000000,4.000000,4.000000,4.000000,83.333336,,,,,,,,,,,,,,,,,,,,,,,,,,,,
1703405293.743443,1703405293.743544,12.000000,0.000000,4217.307617,4188.717773,4293.205078,4250.384766,4158.717773,4170.641113,4275.769043,4160.256348,4142.179688,4131.538574,4598.974121,4458.077148,4349.615234,4502.051270,6659.000000,4.000000,82.000000,,,,0.000000,4.000000,4.000000,4.000000,4.000000,4.000000,4.000000,2.000000,4.000000,4.000000,4.000000,4.000000,4.000000,4.000000,4.000000,83.333336,,,,,,,,,,,,,,,,,3.000000,0.000000,0.685586,-0.140442,-0.702454,-0.129639,0.995727,-0.024905,-0.027835,-14.664388,-38.183887,62.456646
1703405293.751251,1703405293.751452,13.000000,0.000000,4211.410156,4182.051270,4283.846191,4245.256348,4153.974121,4171.025879,4282.948730,4156.538574,4136.922852,4119.230957,4600.641113,4444.615234,4342.948730,4487.948730,6608.000000,4.000000,82.000000,,,,0.000000,4.000000,4.000000,4.000000,4.000000,4.000000,4.000000,2.000000,4.000000,4.000000,4.000000,4.000000,4.000000,4.000000,4.000000,83.333336,,,,,,,,,,,,,,,,,,,,,,,,,,,,
1703405293.759059,1703405293.759260,14.000000,0.000000,4214.871582,4186.410156,4285.512695,4244.871582,4154.871582,4172.692383,4280.512695,4154.615234,4127.563965,4128.461426,4598.077148,4445.384766,4339.743652,4487.051270,5935.000000,4.000000,82.000000,,,,0.000000,4.000000,4.000000,4.000000,4.000000,4.000000,4.000000,2.000000,4.000000,4.000000,4.000000,4.000000,4.000000,4.000000,4.000000,83.333336,,,,,,,,,,,,,,,,,,,,,,,,,,,,
1703405293.766867,1703405293.767168,15.000000,0.000000,4216.025879,4185.641113,4289.615234,4239.871582,4155.384766,4170.641113,4270.384766,4153.974121,4132.692383,4141.794922,4598.717773,4447.820313,4342.307617,4493.846191,6180.000000,4.000000,82.000000,,,,0.000000,4.000000,4.000000,4.000000,4.000000,4.000000,4.000000,2.000000,4.000000,4.000000,4.000000,4.000000,4.000000,4.000000,4.000000,83.333336,,,,,,,,,,,,,,,,,,,,,,,,,,,,
1703405293.774675,1703405293.774976,16.000000,0.000000,4207.051270,4178.077148,4281.410156,4240.384766,4154.358887,4169.615234,4270.512695,4151.922852,4143.589844,4137.692383,4597.948730,4441.282227,4344.871582,4487.436035,0.000000,4.000000,82.000000,,,,0.000000,4.000000,4.000000,4.000000,4.000000,4.000000,4.000000,2.000000,4.000000,4.000000,4.000000,4.000000,4.000000,4.000000,4.000000,83.333336,,,,,,,,,,,,,,,,,4.000000,0.000000,0.685536,-0.140381,-0.702515,-0.129639,0.977170,-0.032719,-0.015627,-14.681282,-38.382168,62.494316
1703405293.782483,1703405293.782884,17.000000,0.000000,4210.897461,4187.820313,4278.846191,4250.256348,4158.333496,4173.717773,4278.589844,4152.692383,4142.692383,4136.025879,4590.128418,4442.820313,4350.897461,4487.051270,0.000000,4.000000,82.000000,,,,0.000000,4.000000,4.000000,4.000000,4.000000,4.000000,4.000000,2.000000,4.000000,4.000000,4.000000,4.000000,4.000000,4.000000,4.000000,83.333336,,,,,,,,,,,,,,,,,,,,,,,,,,,,
1703405293.790291,1703405293.790692,18.000000,0.000000,4231.153809,4210.769043,4294.102539,4260.641113,4175.000000,4176.410156,4279.871582,4156.025879,4135.897461,4141.025879,4592.692383,4457.436035,4359.871582,4506.794922,0.000000,4.000000,82.000000,,,,0.000000,4.000000,4.000000,4.000000,4.000000,4.000000,4.000000,2.000000,4.000000,4.000000,4.000000,4.000000,4.000000,4.000000,4.000000,83.333336,,,,,,,,,,,,,,,,,,,,,,,,,,,,
1703405293.798099,1703405293.798600,19.000000,0.000000,4240.897461,4216.794922,4305.256348,4265.512695,4185.256348,4177.563965,4273.461426,4154.743652,4135.897461,4137.307617,4607.563965,4466.410156,4365.897461,4524.102539,0.000000,4.000000,82.000000,,,,0.000000,4.000000,4.000000,4.000000,4.000000,4.000000,4.000000,2.000000,4.000000,4.000000,4.000000,4.000000,4.000000,4.000000,4.000000,83.333336,,,,,,,,,,,,,,,,,,,,,,,,,,,,
1703405293.805907,1703405293.806408,20.000000,0.000000,4234.871582,4209.102539,4300.897461,4265.769043,4175.897461,4183.461426,4276.025879,4152.948730,4146.666504,4138.205078,4617.179688,4467.051270,4372.179688,4523.589844,0.000000,4.000000,82.000000,,,,0.000000,4.000000,4.000000,4.000000,4.000000,4.000000,4.000000,2.000000,4.000000,4.000000,4.000000,4.000000,4.000000,4.000000,4.000000,83.333336,,,,,,,,,,,,,,,,,5.000000,0.000000,0.685636,-0.140198,-0.702454,-0.129639,0.993774,-0.027835,-0.021487,-14.829821,-38.427284,62.444885
1703405293.813716,1703405293.814116,21.000000,0.000000,4226.153809,4206.922852,4291.922852,4261.282227,4166.666504,4183.077148,4286.666504,4153.846191,4154.102539,4141.025879,4615.128418,4459.615234,4370.512695,4512.692383,0.000000,4.000000,82.000000,,,,0.000000,4.000000,4.000000,4.000000,4.000000,4.000000,4.000000,2.000000,4.000000,4.000000,4.000000,4.000000,4.000000,4.000000,4.000000,83.333336,,,,,,,,,,,,,,,,,,,,,,,,,,,,
1703405293.821524,1703405293.821924,22.000000,0.000000,4216.153809,4199.871582,4284.615234,4251.794922,4168.589844,4173.974121,4281.153809,4151.538574,4142.307617,4134.102539,4603.974121,4444.871582,4360.512695,4504.358887,0.000000,4.000000,82.000000,,,,0.000000,4.000000,4.000000,4.000000,4.000000,4.000000,4.000000,2.000000,4.000000,4.000000,4.000000,4.000000,4.000000,4.000000,4.000000,83.333336,,,,,,,,,,,,,,,,,,,,,,,,,,,,
1703405293.829332,1703405293.829632,23.000000,0.000000,4211.538574,4188.717773,4282.692383,4248.077148,4168.846191,4168.333496,4279.230957,4149.230957,4132.563965,4137.692383,4598.974121,4443.846191,4357.051270,4503.077148,0.000000,4.000000,82.000000,,,,0.000000,4.000000,4.000000,4.000000,4.000000,4.000000,4.000000,2.000000,4.000000,4.000000,4.000000,4.000000,4.000000,4.000000,4.000000,83.333336,,,,,,,,,,,,,,,,,,,,,,,,,,,,
1703405293.837140,1703405293.837440,24.000000,0.000000,4216.410156,4191.282227,4286.538574,4254.871582,4165.384766,4169.102539,4325.897461,4153.589844,4142.563965,4154.615234,4610.641113,4455.384766,4358.589844,4506.410156,0.000000,4.000000,82.000000,,,,0.000000,4.000000,4.000000,4.000000,4.000000,4.000000,4.000000,2.000000,4.000000,4.000000,4.000000,4.000000,4.000000,4.000000,4.000000,83.333336,,,,,,,,,,,,,,,,,6.000000,0.000000,0.685749,-0.140259,-0.702332,-0.129639,0.996215,-0.029300,-0.023929,-14.930172,-38.167889,62.417061
1703405293.844948,1703405293.845148,25.000000,0.000000,4213.589844,4196.282227,4292.179688,4258.846191,4166.922852,4169.102539,4378.846191,4157.820313,4146.538574,4161.410156,4618.717773,4459.871582,4362.692383,4507.179688,0.000000,4.000000,82.000000,,,,0.000000,4.000000,4.000000,4.000000,4.000000,4.000000,4.000000,2.000000,4.000000,4.000000,4.000000,4.000000,4.000000,4.000000,4.000000,83.333336,,,,,,,,,,,,,,,,,,,,,,,,,,,,
1703405293.852756,1703405293.852956,26.000000,0.000000,4214.102539,4194.615234,4295.128418,4250.384766,4166.922852,4167.563965,4377.179688,4156.153809,4142.436035,4150.384766,4616.538574,4459.871582,4368.333496,4509.230957,0.000000,4.000000,82.000000,,,,0.000000,4.000000,4.000000,4.000000,4.000000,4.000000,4.000000,2.000000,4.000000,4.000000,4.000000,4.000000,4.000000,4.000000,4.000000,83.333336,,,,,,,,,,,,,,,,,,,,,,,,,,,,
1703405293.860564,1703405293.860664,27.000000,0.000000,4224.487305,4198.717773,4296.025879,4244.358887,4165.897461,4172.948730,4362.948730,4156.282227,4146.153809,4143.974121,4616.282227,4462.436035,4367.563965,4511.538574,0.000000,4.000000,82.000000,,,,0.000000,4.000000,4.000000,4.000000,4.000000,4.000000,4.000000,2.000000,4.000000,4.000000,4.000000,4.000000,4.000000,4.000000,4.000000,83.333336,,,,,,,,,,,,,,,,,,,,,,,,,,,,
1703405293.868372,1703405293.868472,28.000000,0.000000,4224.487305,4203.077148,4296.025879,4254.743652,4170.897461,4179.487305,4368.205078,4157.179688,4143.974121,4143.333496,4608.461426,4458.974121,4358.205078,4507.051270,0.000000,4.000000,82.000000,,,,0.000000,4.000000,4.000000,4.000000,4.000000,4.000000,4.000000,2.000000,4.000000,4.000000,4.000000,4.000000,4.000000,4.000000,4.000000,83.333336,,,,,,,,,,,,,,,,,7.000000,0.000000,0.685847,-0.140503,-0.702209,-0.129517,1.000610,-0.023440,-0.031742,-14.987155,-38.217766,62.525356
1703405293.876180,1703405293.876180,29.000000,0.000000,4224.358887,4201.410156,4301.025879,4268.846191,4172.692383,4176.794922,4367.563965,4153.846191,4137.051270,4135.128418,4598.717773,4458.333496,4355.897461,4512.179688,0.000000,4.000000,82.000000,,,,0.000000,4.000000,4.000000,4.000000,4.000000,4.000000,4.000000,2.000000,4.000000,4.000000,4.000000,4.000000,4.000000,4.000000,4.000000,83.333336,,,,,,,,,,,,,,,,,,,,,,,,,,,,
1703405293.883988,1703405293.883988,30.000000,0.000000,4235.000000,4203.589844,4307.179688,4265.769043,4167.307617,4170.256348,4358.333496,4150.512695,4136.794922,4123.205078,4603.077148,4466.410156,4361.666504,4525.128418,0.000000,4.000000,82.000000,,,,0.000000,4.000000,4.000000,4.000000,4.000000,4.000000,4.000000,2.000000,4.000000,4.000000,4.000000,4.000000,4.000000,4.000000,4.000000,83.333336,,,,,,,,,,,,,,,,,,,,,,,,,,,,
1703405293.891796,1703405293.891696,31.000000,0.000000,4232.307617,4201.922852,4299.102539,4254.102539,4166.666504,4169.615234,4356.666504,4152.307617,4133.205078,4123.717773,4605.512695,4461.922852,4360.512695,4520.512695,0.000000,4.000000,82.000000,,,,0.000000,4.000000,4.000000,4.000000,4.000000,4.000000,4.000000,2.000000,4.000000,4.000000,4.000000,4.000000,4.000000,4.000000,4.000000,83.333336,,,,,,,,,,,,,,,,,,,,,,,,,,,,
1703405293.899604,1703405293.899504,32.000000,0.000000,4214.743652,4189.230957,4287.051270,4249.358887,4168.077148,4171.922852,4357.307617,4152.179688,4121.282227,4136.025879,4598.077148,4450.000000,4352.436035,4505.769043,0.000000,4.000000,82.000000,,,,0.000000,4.000000,4.000000,4.000000,4.000000,4.000000,4.000000,2.000000,4.000000,4.000000,4.000000,4.000000,4.000000,4.000000,4.000000,83.333336,,,,,,,,,,,,,,,,,8.000000,0.000000,0.685810,-0.140686,-0.702209,-0.129517,0.991332,-0.034672,-0.029300,-15.038439,-38.179321,62.456154
1703405293.907412,1703405293.907212,33.000000,0.000000,4205.384766,4183.205078,4286.410156,4246.282227,4160.128418,4172.820313,4357.307617,4147.179688,4125.384766,4130.256348,4601.410156,4451.025879,4350.897461,4504.871582,0.000000,4.000000,82.000000,,,,0.000000,4.000000,4.000000,4.000000,4.000000,4.000000,4.000000,2.000000,4.000000,4.000000,4.000000,4.000000,4.000000,4.000000,4.000000,83.333336,,,,,,,,,,,,,,,,,,,,,,,,,,,,
1703405293.915220,1703405293.915020,34.000000,0.000000,4203.461426,4184.102539,4287.179688,4244.102539,4155.769043,4174.487305,4355.769043,4156.282227,4147.179688,4122.692383,4615.897461,4459.871582,4360.897461,4510.897461,0.000000,4.000000,82.000000,,,,0.000000,4.000000,4.000000,4.000000,4.000000,4.000000,4.000000,2.000000,4.000000,4.000000,4.000000,4.000000,4.000000,4.000000,4.000000,83.333336,,,,,,,,,,,,,,,,,,,,,,,,,,,,
1703405293.923028,1703405293.922728,35.000000,0.000000,4206.025879,4181.794922,4283.846191,4247.692383,4162.307617,4173.333496,4352.307617,4169.102539,4151.410156,4143.077148,4619.743652,4464.230957,4366.922852,4514.487305,0.000000,4.000000,82.000000,,,,0.000000,4.000000,4.000000,4.000000,4.000000,4.000000,4.000000,2.000000,4.000000,4.000000,4.000000,4.000000,4.000000,4.000000,4.000000,83.333336,,,,,,,,,,,,,,,,,,,,,,,,,,,,
1703405293.930836,1703405293.930636,36.000000,0.000000,4211.410156,4182.948730,4285.641113,4247.051270,4166.153809,4169.230957,4352.179688,4162.948730,4143.461426,4162.307617,4615.256348,4462.692383,4364.743652,4520.897461,0.000000,4.000000,82.000000,,,,0.000000,4.000000,4.000000,4.000000,4.000000,4.000000,4.000000,2.000000,4.000000,4.000000,4.000000,4.000000,4.000000,4.000000,4.000000,83.333336,,,,,,,,,,,,,,,,,9.000000,0.000000,0.685857,-0.140625,-0.702209,-0.129333,0.995727,-0.029300,-0.017092,-15.151262,-38.328056,62.410538
1703405293.938644,1703405293.938444,37.000000,0.000000,4212.436035,4192.563965,4293.205078,4251.410156,4166.922852,4171.666504,4354.358887,4158.077148,4147.179688,4156.794922,4621.153809,4467.179688,4371.282227,4525.897461,0.000000,4.000000,82.000000,,,,0.000000,4.000000,4.000000,4.000000,4.000000,4.000000,4.000000,2.000000,4.000000,4.000000,4.000000,4.000000,4.000000,4.000000,4.000000,83.333336,,,,,,,,,,,,,,,,,,,,,,,,,,,,
1703405293.946453,1703405293.946352,38.000000,0.000000,4214.230957,4198.717773,4290.641113,4259.871582,4171.538574,4180.000000,4353.974121,4168.589844,4156.538574,4150.512695,4627.307617,4470.897461,4379.358887,4524.230957,0.000000,4.000000,82.000000,,,,0.000000,4.000000,4.000000,4.000000,4.000000,4.000000,4.000000,2.000000,4.000000,4.000000,4.000000,4.000000,4.000000,4.000000,4.000000,83.333336,,,,,,,,,,,,,,,,,,,,,,,,,,,,
1703405293.954260,1703405293.954160,39.000000,0.000000,4221.282227,4202.948730,4288.846191,4254.615234,4174.487305,4180.384766,4351.666504,4171.794922,4153.077148,4154.102539,4621.410156,4465.897461,4374.230957,4523.205078,0.000000,4.000000,82.000000,,,,0.000000,4.000000,4.000000,4.000000,4.000000,4.000000,4.000000,2.000000,4.000000,4.000000,4.000000,4.000000,4.000000,4.000000,4.000000,83.333336,,,,,,,,,,,,,,,,,,,,,,,,,,,,
1703405293.962068,1703405293.962068,40.000000,0.000000,4222.307617,4202.820313,4297.563965,4247.692383,4170.897461,4172.051270,4348.846191,4159.487305,4142.436035,4137.820313,4618.205078,4461.025879,4364.102539,4525.256348,0.000000,4.000000,82.000000,,,,0.000000,4.000000,4.000000,4.000000,4.000000,4.000000,4.000000,2.000000,4.000000,4.000000,4.000000,4.000000,4.000000,4.000000,4.000000,83.333336,,,,,,,,,,,,,,,,,10.000000,0.000000,0.685867,-0.140686,-0.702209,-0.129211,0.984495,-0.038091,-0.018557,-15.086136,-38.411919,62.469486
1703405293.969877,1703405293.969876,41.000000,0.000000,4211.922852,4192.436035,4298.589844,4257.179688,4166.282227,4169.102539,4347.307617,4152.948730,4138.333496,4120.897461,4616.282227,4463.717773,4361.410156,4523.846191,0.000000,4.000000,82.000000,,,,0.000000,4.000000,4.000000,4.000000,4.000000,4.000000,4.000000,2.000000,4.000000,4.000000,4.000000,4.000000,4.000000,4.000000,4.000000,83.333336,,,,,,,,,,,,,,,,,,,,,,,,,,,,
1703405293.977685,1703405293.977783,42.000000,0.000000,4209.743652,4191.282227,4290.641113,4267.436035,4163.205078,4175.256348,4346.666504,4157.948730,4138.717773,4138.205078,4615.000000,4464.743652,4367.179688,4523.333496,0.000000,4.000000,82.000000,,,,0.000000,4.000000,4.000000,4.000000,4.000000,4.000000,4.000000,2.000000,4.000000,4.000000,4.000000,4.000000,4.000000,4.000000,4.000000,83.333336,,,,,,,,,,,,,,,,,,,,,,,,,,,,
1703405293.985493,1703405293.985591,43.000000,0.000000,4220.128418,4201.025879,4287.948730,4263.717773,4161.282227,4178.077148,4347.307617,4158.717773,4137.692383,4145.256348,4615.641113,4456.538574,4367.436035,4521.794922,0.000000,4.000000,82.000000,,,,0.000000,4.000000,4.000000,4.000000,4.000000,4.000000,4.000000,2.000000,4.000000,4.000000,4.000000,4.000000,4.000000,4.000000,4.000000,83.333336,,,,,,,,,,,,,,,,,,,,,,,,,,,,
1703405293.993301,1703405293.993499,44.000000,0.000000,4217.563965,4194.230957,4286.922852,4253.205078,4159.358887,4172.820313,4346.410156,4156.153809,4136.538574,4119.102539,4607.692383,4450.128418,4353.589844,4511.922852,0.000000,4.000000,82.000000,,,,0.000000,4.000000,4.000000,4.000000,4.000000,4.000000,4.000000,2.000000,4.000000,4.000000,4.000000,4.000000,4.000000,4.000000,4.000000,83.333336,,,,,,,,,,,,,,,,,11.000000,0.000000,0.685880,-0.140625,-0.702209,-0.129211,0.988890,-0.027347,-0.020022,-14.910855,-38.404060,62.655869
1703405294.001109,1703405294.001307,45.000000,0.000000,4196.794922,4172.307617,4280.641113,4241.153809,4155.769043,4170.512695,4344.230957,4163.974121,4140.256348,4116.025879,4600.641113,4451.538574,4339.871582,4503.333496,0.000000,4.000000,82.000000,,,,0.000000,4.000000,4.000000,4.000000,4.000000,4.000000,4.000000,2.000000,4.000000,4.000000,4.000000,4.000000,4.000000,4.000000,4.000000,83.333336,,,,,,,,,,,,,,,,,,,,,,,,,,,,
1703405294.008917,1703405294.009015,46.000000,0.000000,4196.922852,4175.384766,4280.641113,4242.436035,4152.179688,4171.922852,4342.948730,4171.794922,4141.922852,4142.563965,4610.769043,4460.128418,4349.358887,4508.589844,0.000000,4.000000,82.000000,,,,0.000000,4.000000,4.000000,4.000000,4.000000,4.000000,4.000000,2.000000,4.000000,4.000000,4.000000,4.000000,4.000000,4.000000,4.000000,83.333336,,,,,,,,,,,,,,,,,,,,,,,,,,,,
1703405294.016725,1703405294.016823,47.000000,0.000000,4215.384766,4188.205078,4285.128418,4250.641113,4151.025879,4170.384766,4341.794922,4162.563965,4138.974121,4141.410156,4617.820313,4462.692383,4361.410156,4511.666504,0.000000,4.000000,82.000000,,,,0.000000,4.000000,4.000000,4.000000,4.000000,4.000000,4.000000,2.000000,4.000000,4.000000,4.000000,4.000000,4.000000,4.000000,4.000000,83.333336,,,,,,,,,,,,,,,,,,,,,,,,,,,,
1703405294.024533,1703405294.024531,48.000000,0.000000,4208.461426,4175.256348,4285.641113,4247.563965,4150.769043,4168.333496,4339.487305,4154.871582,4139.230957,4123.717773,4608.846191,4457.948730,4344.743652,4503.333496,0.000000,4.000000,82.000000,,,,0.000000,4.000000,4.000000,4.000000,4.000000,4.000000,4.000000,2.000000,4.000000,4.000000,4.000000,4.000000,4.000000,4.000000,4.000000,83.333336,,,,,,,,,,,,,,,,,12.000000,0.000000,0.685918,-0.140686,-0.702148,-0.129272,0.995239,-0.043951,-0.030277,-15.136436,-38.513653,62.656948
1703405294.032341,1703405294.032339,49.000000,0.000000,4194.102539,4170.000000,4286.282227,4248.077148,4151.282227,4165.769043,4336.538574,4157.436035,4136.922852,4126.410156,4609.743652,4460.512695,4338.205078,4507.179688,0.000000,4.000000,82.000000,,,,0.000000,4.000000,4.000000,4.000000,4.000000,4.000000,4.000000,2.000000,4.000000,4.000000,4.000000,4.000000,4.000000,4.000000,4.000000,83.333336,,,,,,,,,,,,,,,,,,,,,,,,,,,,
1703405294.040149,1703405294.040047,50.000000,0.000000,4206.794922,4185.256348,4289.615234,4251.410156,4151.538574,4163.077148,4334.358887,4155.897461,4135.256348,4129.487305,4618.333496,4463.077148,4366.666504,4523.077148,0.000000,4.000000,82.000000,,,,0.000000,4.000000,4.000000,4.000000,4.000000,4.000000,4.000000,2.000000,4.000000,4.000000,4.000000,4.000000,4.000000,4.000000,4.000000,83.333336,,,,,,,,,,,,,,,,,,,,,,,,,,,,
1703405294.047957,1703405294.047955,51.000000,0.000000,4222.051270,4186.153809,4291.794922,4245.384766,4152.692383,4166.025879,4333.717773,4150.897461,4136.538574,4127.948730,4616.538574,4457.436035,4383.461426,4526.538574,0.000000,4.000000,82.000000,,,,0.000000,4.000000,4.000000,4.000000,4.000000,4.000000,4.000000,2.000000,4.000000,4.000000,4.000000,4.000000,4.000000,4.000000,4.000000,83.333336,,,,,,,,,,,,,,,,,,,,,,,,,,,,
1703405294.055765,1703405294.055763,52.000000,0.000000,4221.538574,4178.846191,4290.641113,4248.461426,4156.410156,4169.871582,4334.487305,4152.563965,4134.487305,4135.769043,4617.051270,4457.692383,4375.769043,4526.025879,0.000000,4.000000,82.000000,,,,0.000000,4.000000,4.000000,4.000000,4.000000,4.000000,4.000000,2.000000,4.000000,4.000000,4.000000,4.000000,4.000000,4.000000,4.000000,83.333336,,,,,,,,,,,,,,,,,13.000000,0.000000,0.685971,-0.140564,-0.702087,-0.129456,0.988402,-0.030765,-0.014650,-15.206126,-38.528954,62.524590
1703405294.063573,1703405294.063671,53.000000,0.000000,4214.871582,4181.666504,4288.333496,4257.820313,4157.948730,4168.077148,4336.666504,4162.820313,4137.948730,4137.307617,4628.974121,4466.794922,4376.666504,4531.538574,0.000000,4.000000,82.000000,,,,0.000000,4.000000,4.000000,4.000000,4.000000,4.000000,4.000000,2.000000,4.000000,4.000000,4.000000,4.000000,4.000000,4.000000,4.000000,83.333336,,,,,,,,,,,,,,,,,,,,,,,,,,,,
1703405294.071381,1703405294.071479,54.000000,0.000000,4208.077148,4175.000000,4288.461426,4248.846191,4155.000000,4168.717773,4337.692383,4170.897461,4144.615234,4127.563965,4632.563965,4467.307617,4384.615234,4529.358887,0.000000,4.000000,82.000000,,,,0.000000,4.000000,4.000000,4.000000,4.000000,4.000000,4.000000,2.000000,4.000000,4.000000,4.000000,4.000000,4.000000,4.000000,4.000000,83.333336,,,,,,,,,,,,,,,,,,,,,,,,,,,,
1703405294.079189,1703405294.079387,55.000000,0.000000,4202.692383,4164.615234,4292.563965,4242.563965,4149.487305,4170.128418,4338.589844,4169.102539,4143.717773,4131.922852,4621.794922,4464.743652,4380.256348,4521.025879,0.000000,4.000000,82.000000,,,,0.000000,4.000000,4.000000,4.000000,4.000000,4.000000,4.000000,2.000000,4.000000,4.000000,4.000000,4.000000,4.000000,4.000000,4.000000,83.333336,,,,,,,,,,,,,,,,,,,,,,,,,,,,
1703405294.086997,1703405294.087195,56.000000,0.000000,4201.025879,4167.051270,4291.794922,4247.820313,4147.436035,4168.974121,4338.461426,4166.025879,4135.512695,4141.794922,4625.000000,4471.282227,4373.974121,4520.769043,0.000000,4.000000,82.000000,,,,0.000000,4.000000,4.000000,4.000000,4.000000,4.000000,4.000000,2.000000,4.000000,4.000000,4.000000,4.000000,4.000000,4.000000,4.000000,83.333336,,,,,,,,,,,,,,,,,14.000000,0.000000,0.686146,-0.140625,-0.701904,-0.129456,0.994262,-0.039067,-0.026859,-15.052180,-38.626060,62.488796
1703405294.094805,1703405294.095103,57.000000,0.000000,4205.256348,4168.077148,4287.563965,4237.436035,4150.512695,4170.512695,4337.307617,4168.589844,4136.025879,4135.384766,4640.128418,4477.179688,4374.615234,4527.820313,0.000000,4.000000,82.000000,,,,0.000000,4.000000,4.000000,4.000000,4.000000,4.000000,4.000000,2.000000,4.000000,4.000000,4.000000,4.000000,4.000000,4.000000,4.000000,83.333336,,,,,,,,,,,,,,,,,,,,,,,,,,,,
1703405294.102613,1703405294.102911,58.000000,0.000000,4215.000000,4173.205078,4291.666504,4236.666504,4156.794922,4172.692383,4337.948730,4169.487305,4149.743652,4142.948730,4646.794922,4477.051270,4385.641113,4538.077148,0.000000,4.000000,82.000000,,,,0.000000,4.000000,4.000000,4.000000,4.000000,4.000000,4.000000,2.000000,4.000000,4.000000,4.000000,4.000000,4.000000,4.000000,4.000000,83.333336,,,,,,,,,,,,,,,,,,,,,,,,,,,,
1703405294.110422,1703405294.110819,59.000000,0.000000,4222.820313,4185.256348,4296.282227,4257.307617,4160.384766,4172.179688,4335.512695,4161.794922,4145.897461,4157.820313,4638.333496,4467.948730,4397.820313,4538.974121,0.000000,4.000000,82.000000,,,,0.000000,4.000000,4.000000,4.000000,4.000000,4.000000,4.000000,2.000000,4.000000,4.000000,4.000000,4.000000,4.000000,4.000000,4.000000,83.333336,,,,,,,,,,,,,,,,,,,,,,,,,,,,
1703405294.118230,1703405294.118627,60.000000,0.000000,4225.000000,4186.025879,4291.410156,4259.358887,4156.282227,4168.974121,4328.461426,4151.410156,4121.922852,4144.358887,4622.307617,4457.563965,4390.769043,4526.922852,0.000000,4.000000,82.000000,,,,0.000000,4.000000,4.000000,4.000000,4.000000,4.000000,4.000000,2.000000,4.000000,4.000000,4.000000,4.000000,4.000000,4.000000,4.000000,83.333336,,,,,,,,,,,,,,,,,15.000000,0.000000,0.686157,-0.140625,-0.701904,-0.129395,0.987914,-0.032719,-0.012697,-15.046963,-38.680119,62.373249
1703405294.126037,1703405294.126535,61.000000,0.000000,4229.871582,4182.563965,4292.948730,4247.692383,4155.769043,4168.974121,4326.794922,4149.358887,4120.128418,4132.692383,4619.358887,4461.410156,4378.846191,4528.717773,0.000000,4.000000,82.000000,,,,0.000000,4.000000,4.000000,4.000000,4.000000,4.000000,4.000000,2.000000,4.000000,4.000000,4.000000,4.000000,4.000000,4.000000,4.000000,83.333336,,,,,,,,,,,,,,,,,,,,,,,,,,,,
1703405294.133846,1703405294.134342,62.000000,0.000000,4230.512695,4185.128418,4301.666504,4251.025879,4160.000000,4172.948730,4332.051270,4154.358887,4139.871582,4141.922852,4629.743652,4467.436035,4381.538574,4538.974121,0.000000,4.000000,82.000000,,,,0.000000,4.000000,4.000000,4.000000,4.000000,4.000000,4.000000,2.000000,4.000000,4.000000,4.000000,4.000000,4.000000,4.000000,4.000000,83.333336,,,,,,,,,,,,,,,,,,,,,,,,,,,,
1703405294.141654,1703405294.142250,63.000000,0.000000,4220.128418,4182.051270,4295.897461,4250.000000,4159.358887,4172.179688,4332.051270,4156.410156,4143.717773,4141.410156,4629.615234,4460.512695,4381.794922,4528.461426,0.000000,4.000000,82.000000,,,,0.000000,4.000000,4.000000,4.000000,4.000000,4.000000,4.000000,2.000000,4.000000,4.000000,4.000000,4.000000,4.000000,4.000000,4.000000,83.333336,,,,,,,,,,,,,,,,,,,,,,,,,,,,
1703405294.149462,1703405294.150058,64.000000,0.000000,4213.589844,4176.666504,4286.282227,4241.153809,4152.948730,4166.538574,4325.641113,4155.769043,4135.769043,4135.769043,4617.307617,4453.205078,4372.563965,4519.102539,4757.000000,4.000000,82.000000,,,,0.000000,4.000000,4.000000,4.000000,4.000000,4.000000,4.000000,2.000000,4.000000,4.000000,4.000000,4.000000,4.000000,4.000000,4.000000,83.333336,,,,,,,,,,,,,,,,,16.000000,0.000000,0.686256,-0.140808,-0.701782,-0.129333,0.986449,-0.028812,-0.017092,-15.092266,-38.595440,62.319260
1703405294.157270,1703405294.157966,65.000000,0.000000,4217.307617,4182.307617,4290.256348,4251.282227,4152.307617,4166.666504,4325.256348,4155.256348,4129.358887,4135.000000,4611.025879,4454.487305,4371.410156,4524.102539,5357.000000,4.000000,82.000000,,,,0.000000,4.000000,4.000000,4.000000,4.000000,4.000000,4.000000,2.000000,4.000000,4.000000,4.000000,4.000000,4.000000,4.000000,4.000000,83.333336,,,,,,,,,,,,,,,,,,,,,,,,,,,,
1703405294.165078,1703405294.165774,66.000000,0.000000,4219.871582,4188.846191,4293.333496,4267.179688,4160.897461,4172.436035,4327.692383,4158.333496,4127.436035,4126.538574,4618.077148,4457.820313,4379.230957,4526.538574,5120.000000,4.000000,82.000000,,,,0.000000,4.000000,4.000000,4.000000,4.000000,4.000000,4.000000,2.000000,4.000000,4.000000,4.000000,4.000000,4.000000,4.000000,4.000000,83.333336,,,,,,,,,,,,,,,,,,,,,,,,,,,,
1703405294.172886,1703405294.173682,67.000000,0.000000,4215.256348,4187.436035,4288.205078,4262.820313,4169.743652,4174.102539,4325.384766,4168.717773,4147.563965,4132.051270,4631.025879,4462.820313,4386.282227,4528.205078,5318.000000,4.000000,82.000000,,,,0.000000,4.000000,4.000000,4.000000,4.000000,4.000000,4.000000,2.000000,4.000000,4.000000,4.000000,4.000000,4.000000,4.000000,4.000000,83.333336,,,,,,,,,,,,,,,,,,,,,,,,,,,,
1703405294.180694,1703405294.181490,68.000000,0.000000,4220.897461,4190.000000,4290.000000,4254.615234,4169.358887,4171.410156,4323.717773,4172.051270,4158.717773,4153.205078,4635.128418,4468.461426,4392.563965,4536.282227,5091.000000,4.000000,82.000000,,,,0.000000,4.000000,4.000000,4.000000,4.000000,4.000000,4.000000,2.000000,4.000000,4.000000,4.000000,4.000000,4.000000,4.000000,4.000000,83.333336,,,,,,,,,,,,,,,,,17.000000,0.000000,0.686220,-0.140930,-0.701782,-0.129395,0.998657,-0.035649,-0.011720,-15.083039,-38.435898,62.354000
1703405294.188502,1703405294.189398,69.000000,0.000000,4236.922852,4199.230957,4299.871582,4256.922852,4159.615234,4169.358887,4326.666504,4160.384766,4137.563965,4153.974121,4629.743652,4468.589844,4399.871582,4544.871582,4587.000000,4.000000,82.000000,,,,0.000000,4.000000,4.000000,4.000000,4.000000,4.000000,4.000000,2.000000,4.000000,4.000000,4.000000,4.000000,4.000000,4.000000,4.000000,83.333336,,,,,,,,,,,,,,,,,,,,,,,,,,,,
1703405294.196310,1703405294.197306,70.000000,0.000000,4238.077148,4201.410156,4299.871582,4255.641113,4151.922852,4172.563965,4326.410156,4147.051270,4119.230957,4141.025879,4625.128418,4464.871582,4396.666504,4542.820313,1461.000000,4.000000,82.000000,,,,0.000000,4.000000,4.000000,4.000000,4.000000,4.000000,4.000000,2.000000,4.000000,4.000000,4.000000,4.000000,4.000000,4.000000,4.000000,83.333336,,,,,,,,,,,,,,,,,,,,,,,,,,,,
1703405294.204118,1703405294.205114,71.000000,0.000000,4227.820313,4195.256348,4290.256348,4249.230957,4158.717773,4173.974121,4321.922852,4143.846191,4119.230957,4141.666504,4619.102539,4456.153809,4379.358887,4530.000000,5170.000000,4.000000,82.000000,,,,0.000000,4.000000,4.000000,4.000000,4.000000,4.000000,4.000000,2.000000,4.000000,4.000000,4.000000,4.000000,4.000000,4.000000,4.000000,83.333336,,,,,,,,,,,,,,,,,,,,,,,,,,,,
1703405294.211926,1703405294.212922,72.000000,0.000000,4220.512695,4188.717773,4280.641113,4249.358887,4169.615234,4172.307617,4321.410156,4146.282227,4126.153809,4139.358887,4612.692383,4446.666504,4369.358887,4520.256348,5046.000000,4.000000,82.000000,,,,0.000000,4.000000,4.000000,4.000000,4.000000,4.000000,4.000000,2.000000,4.000000,4.000000,4.000000,4.000000,4.000000,4.000000,4.000000,83.333336,,,,,,,,,,,,,,,,,18.000000,0.000000,0.686157,-0.140930,-0.701843,-0.129395,0.996704,-0.030765,-0.012209,-14.974735,-38.475639,62.401932
1703405294.219734,1703405294.220630,73.000000,0.000000,4213.333496,4184.487305,4274.230957,4250.256348,4165.641113,4176.666504,4322.563965,4151.922852,4136.666504,4123.846191,4615.512695,4446.666504,4374.743652,4521.666504,5121.000000,4.000000,82.000000,,,,0.000000,4.000000,4.000000,4.000000,4.000000,4.000000,4.000000,2.000000,4.000000,4.000000,4.000000,4.000000,4.000000,4.000000,4.000000,83.333336,1.000000,66.666664,4.000000,4.000000,4.000000,4.000000,4.000000,4.000000,1.000000,4.000000,4.000000,3.000000,4.000000,4.000000,4.000000,4.000000,,,,,,,,,,,,
1703405294.227542,1703405294.228438,74.000000,0.000000,4216.666504,4189.487305,4278.589844,4246.794922,4160.641113,4183.974121,4323.717773,4161.282227,4140.512695,4122.436035,4622.820313,4456.410156,4387.307617,4531.794922,5925.000000,4.000000,82.000000,,,,0.000000,4.000000,4.000000,4.000000,4.000000,4.000000,4.000000,2.000000,4.000000,4.000000,4.000000,4.000000,4.000000,4.000000,4.000000,83.333336,,,,,,,,,,,,,,,,,,,,,,,,,,,,
1703405294.235350,1703405294.236146,75.000000,0.000000,4231.922852,4200.512695,4295.128418,4248.846191,4170.000000,4186.282227,4324.743652,4170.256348,4141.922852,4141.153809,4630.128418,4466.794922,4396.282227,4540.641113,6172.000000,4.000000,82.000000,,,,0.000000,4.000000,4.000000,4.000000,4.000000,4.000000,4.000000,2.000000,4.000000,4.000000,4.000000,4.000000,4.000000,4.000000,4.000000,83.333336,,,,,,,,,,,,,,,,,,,,,,,,,,,,
1703405294.243158,1703405294.243954,76.000000,0.000000,4237.179688,4204.358887,4305.000000,4259.743652,4176.282227,4185.384766,4323.974121,4170.128418,4155.512695,4155.128418,4634.871582,4470.256348,4392.563965,4542.563965,6644.000000,4.000000,82.000000,,,,0.000000,4.000000,4.000000,4.000000,4.000000,4.000000,4.000000,2.000000,4.000000,4.000000,4.000000,4.000000,4.000000,4.000000,4.000000,83.333336,,,,,,,,,,,,,,,,,19.000000,0.000000,0.686080,-0.140808,-0.701965,-0.129272,0.987914,-0.023929,-0.024905,-15.043929,-38.478077,62.495071
1703405294.250966,1703405294.251663,77.000000,0.000000,4233.717773,4202.436035,4295.641113,4265.897461,4172.051270,4180.897461,4322.179688,4161.922852,4157.307617,4152.307617,4626.922852,4462.051270,4383.205078,4540.128418,6583.000000,4.000000,82.000000,,,,0.000000,4.000000,4.000000,4.000000,4.000000,4.000000,4.000000,2.000000,4.000000,4.000000,4.000000,4.000000,4.000000,4.000000,4.000000,83.333336,,,,,,,,,,,,,,,,,,,,,,,,,,,,
1703405294.258774,1703405294.259471,78.000000,0.000000,4232.692383,4200.769043,4283.205078,4263.717773,4164.230957,4173.974121,4321.794922,4150.384766,4135.769043,4138.846191,4613.333496,4448.717773,4379.230957,4533.461426,5925.000000,4.000000,82.000000,,,,0.000000,4.000000,4.000000,4.000000,4.000000,4.000000,4.000000,2.000000,4.000000,4.000000,4.000000,4.000000,4.000000,4.000000,4.000000,83.333336,,,,,,,,,,,,,,,,,,,,,,,,,,,,
1703405294.266583,1703405294.267179,79.000000,0.000000,4227.692383,4198.461426,4282.436035,4259.102539,4157.692383,4172.307617,4320.769043,4147.051270,4132.692383,4135.256348,4611.538574,4446.922852,4378.333496,4524.230957,6172.000000,4.000000,82.000000,,,,0.000000,4.000000,4.000000,4.000000,4.000000,4.000000,4.000000,2.000000,4.000000,4.000000,4.000000,4.000000,4.000000,4.000000,4.000000,83.333336,,,,,,,,,,,,,,,,,,,,,,,,,,,,
1703405294.274391,1703405294.274987,80.000000,0.000000,4222.820313,4195.512695,4289.102539,4258.974121,4161.410156,4176.538574,4319.487305,4160.128418,4153.333496,4141.794922,4620.128418,4455.897461,4376.282227,4527.692383,6644.000000,4.000000,82.000000,,,,0.000000,4.000000,4.000000,4.000000,4.000000,4.000000,4.000000,2.000000,4.000000,4.000000,4.000000,4.000000,4.000000,4.000000,4.000000,83.333336,,,,,,,,,,,,,,,,,20.000000,0.000000,0.686070,-0.140747,-0.701965,-0.129395,0.992797,-0.024417,-0.020022,-15.106202,-38.480270,62.528900
1703405294.282199,1703405294.282695,81.000000,0.000000,4229.487305,4199.358887,4300.384766,4265.128418,4170.384766,4180.897461,4321.282227,4173.205078,4155.384766,4133.974121,4626.410156,4466.025879,4380.256348,4547.307617,6583.000000,4.000000,82.000000,,,,0.000000,4.000000,4.000000,4.000000,4.000000,4.000000,4.000000,2.000000,4.000000,4.000000,4.000000,4.000000,4.000000,4.000000,4.000000,83.333336,,,,,,,,,,,,,,,,,,,,,,,,,,,,
1703405294.290007,1703405294.290602,82.000000,0.000000,4235.641113,4204.615234,4304.743652,4262.436035,4168.205078,4185.000000,4321.538574,4171.794922,4142.179688,4122.307617,4627.563965,4472.948730,4384.102539,4552.436035,5925.000000,4.000000,82.000000,,,,0.000000,4.000000,4.000000,4.000000,4.000000,4.000000,4.000000,2.000000,4.000000,4.000000,4.000000,4.000000,4.000000,4.000000,4.000000,83.333336,,,,,,,,,,,,,,,,,,,,,,,,,,,,
1703405294.297815,1703405294.298410,83.000000,0.000000,4232.563965,4196.153809,4291.794922,4247.563965,4164.871582,4188.077148,4318.846191,4170.641113,4143.717773,4119.230957,4619.102539,4469.615234,4380.384766,4542.948730,6172.000000,4.000000,82.000000,,,,0.000000,4.000000,4.000000,4.000000,4.000000,4.000000,4.000000,2.000000,4.000000,4.000000,4.000000,4.000000,4.000000,4.000000,4.000000,83.333336,,,,,,,,,,,,,,,,,,,,,,,,,,,,
1703405294.305623,1703405294.306318,84.000000,0.000000,4229.230957,4187.563965,4279.743652,4243.461426,4169.743652,4188.205078,4318.846191,4176.153809,4156.538574,4121.922852,4607.051270,4457.179688,4378.333496,4535.256348,6644.000000,4.000000,82.000000,,,,0.000000,4.000000,4.000000,4.000000,4.000000,4.000000,4.000000,2.000000,4.000000,4.000000,4.000000,4.000000,4.000000,4.000000,4.000000,83.333336,,,,,,,,,,,,,,,,,21.000000,0.000000,0.686081,-0.140747,-0.701965,-0.129333,0.989379,-0.028812,-0.018069,-15.095582,-38.465576,62.459343
1703405294.313431,1703405294.314126,85.000000,0.000000,4224.615234,4193.589844,4282.179688,4251.282227,4171.538574,4183.077148,4317.948730,4176.025879,4159.230957,4140.128418,4611.794922,4447.563965,4376.025879,4528.589844,6583.000000,4.000000,82.000000,,,,0.000000,4.000000,4.000000,4.000000,4.000000,4.000000,4.000000,2.000000,4.000000,4.000000,4.000000,4.000000,4.000000,4.000000,4.000000,83.333336,,,,,,,,,,,,,,,,,,,,,,,,,,,,
1703405294.321239,1703405294.322034,86.000000,0.000000,4217.820313,4193.589844,4282.692383,4250.384766,4163.077148,4174.358887,4314.487305,4168.846191,4150.641113,4160.128418,4627.179688,4447.948730,4368.974121,4523.205078,5925.000000,4.000000,82.000000,,,,0.000000,4.000000,4.000000,4.000000,4.000000,4.000000,4.000000,2.000000,4.000000,4.000000,4.000000,4.000000,4.000000,4.000000,4.000000,83.333336,,,,,,,,,,,,,,,,,,,,,,,,,,,,
1703405294.329047,1703405294.329842,87.000000,0.000000,4217.179688,4184.871582,4280.128418,4247.692383,4158.974121,4170.512695,4315.000000,4168.717773,4150.000000,4163.077148,4629.615234,4451.666504,4368.333496,4525.512695,6172.000000,4.000000,82.000000,,,,0.000000,4.000000,4.000000,4.000000,4.000000,4.000000,4.000000,2.000000,4.000000,4.000000,4.000000,4.000000,4.000000,4.000000,4.000000,83.333336,,,,,,,,,,,,,,,,,,,,,,,,,,,,
1703405294.336855,1703405294.337750,88.000000,0.000000,4221.666504,4187.051270,4287.948730,4249.871582,4160.384766,4171.794922,4314.230957,4170.769043,4151.410156,4153.846191,4619.615234,4454.102539,4376.538574,4530.256348,6644.000000,4.000000,82.000000,,,,0.000000,4.000000,4.000000,4.000000,4.000000,4.000000,4.000000,2.000000,4.000000,4.000000,4.000000,4.000000,4.000000,4.000000,4.000000,83.333336,,,,,,,,,,,,,,,,,22.000000,0.000000,0.686018,-0.140808,-0.702026,-0.129272,0.991332,-0.025394,-0.025882,-15.136024,-38.452351,62.563408
1703405294.344663,1703405294.345558,89.000000,0.000000,4222.563965,4192.307617,4293.461426,4247.436035,4159.358887,4172.436035,4312.436035,4171.025879,4143.846191,4136.153809,4612.436035,4456.538574,4375.256348,4527.820313,6583.000000,4.000000,82.000000,,,,0.000000,4.000000,4.000000,4.000000,4.000000,4.000000,4.000000,2.000000,4.000000,4.000000,4.000000,4.000000,4.000000,4.000000,4.000000,83.333336,,,,,,,,,,,,,,,,,,,,,,,,,,,,
1703405294.352471,1703405294.353466,90.000000,0.000000,4214.102539,4188.333496,4283.974121,4247.307617,4162.692383,4172.692383,4314.743652,4171.410156,4139.615234,4119.102539,4607.563965,4456.538574,4362.563965,4522.692383,5925.000000,4.000000,82.000000,,,,0.000000,4.000000,4.000000,4.000000,4.000000,4.000000,4.000000,2.000000,4.000000,4.000000,4.000000,4.000000,4.000000,4.000000,4.000000,83.333336,,,,,,,,,,,,,,,,,,,,,,,,,,,,
1703405294.360279,1703405294.361274,91.000000,0.000000,4202.820313,4186.666504,4272.179688,4252.051270,4167.179688,4172.307617,4311.410156,4165.897461,4142.820313,4121.666504,4599.358887,4448.846191,4361.153809,4518.717773,6172.000000,4.000000,82.000000,,,,0.000000,4.000000,4.000000,4.000000,4.000000,4.000000,4.000000,2.000000,4.000000,4.000000,4.000000,4.000000,4.000000,4.000000,4.000000,83.333336,,,,,,,,,,,,,,,,,,,,,,,,,,,,
1703405294.368087,1703405294.369182,92.000000,0.000000,4198.589844,4185.897461,4267.820313,4249.358887,4164.487305,4170.769043,4306.794922,4155.000000,4138.974121,4125.897461,4596.922852,4436.922852,4369.102539,4511.666504,6644.000000,4.000000,82.000000,,,,0.000000,4.000000,4.000000,4.000000,4.000000,4.000000,4.000000,2.000000,4.000000,4.000000,4.000000,4.000000,4.000000,4.000000,4.000000,83.333336,,,,,,,,,,,,,,,,,23.000000,0.000000,0.686018,-0.140808,-0.702026,-0.129272,0.987914,-0.019534,-0.036137,-15.172421,-38.473782,62.523735
1703405294.375895,1703405294.376990,93.000000,0.000000,4198.589844,4182.436035,4263.717773,4246.282227,4165.256348,4171.794922,4311.410156,4149.615234,4132.692383,4126.410156,4603.846191,4431.282227,4365.000000,4504.358887,6583.000000,4.000000,82.000000,,,,0.000000,4.000000,4.000000,4.000000,4.000000,4.000000,4.000000,2.000000,4.000000,4.000000,4.000000,4.000000,4.000000,4.000000,4.000000,83.333336,,,,,,,,,,,,,,,,,,,,,,,,,,,,
1703405294.383703,1703405294.384698,94.000000,0.000000,4198.205078,4184.487305,4261.025879,4247.307617,4172.307617,4172.948730,4311.282227,4151.282227,4135.000000,4147.436035,4608.077148,4434.487305,4363.717773,4509.358887,5925.000000,4.000000,82.000000,,,,0.000000,4.000000,4.000000,4.000000,4.000000,4.000000,4.000000,2.000000,4.000000,4.000000,4.000000,4.000000,4.000000,4.000000,4.000000,83.333336,,,,,,,,,,,,,,,,,,,,,,,,,,,,
1703405294.391511,1703405294.392506,95.000000,0.000000,4201.025879,4185.769043,4265.641113,4244.102539,4171.794922,4171.282227,4302.948730,4152.563965,4136.538574,4160.000000,4603.333496,4439.230957,4377.820313,4518.077148,6172.000000,4.000000,82.000000,,,,0.000000,4.000000,4.000000,4.000000,4.000000,4.000000,4.000000,2.000000,4.000000,4.000000,4.000000,4.000000,4.000000,4.000000,4.000000,83.333336,,,,,,,,,,,,,,,,,,,,,,,,,,,,
1703405294.399319,1703405294.400214,96.000000,0.000000,4201.025879,4183.589844,4268.589844,4242.820313,4168.974121,4171.282227,4303.077148,4153.589844,4134.871582,4145.769043,4603.846191,4437.563965,4381.794922,4512.820313,6644.000000,4.000000,82.000000,,,,0.000000,4.000000,4.000000,4.000000,4.000000,4.000000,4.000000,2.000000,4.000000,4.000000,4.000000,4.000000,4.000000,4.000000,4.000000,83.333336,,,,,,,,,,,,,,,,,24.000000,0.000000,0.685977,-0.140869,-0.702087,-0.129089,0.995727,-0.030765,-0.033696,-15.171846,-38.509739,62.638027
1703405294.407128,1703405294.408022,97.000000,0.000000,4196.666504,4183.205078,4265.000000,4248.333496,4168.717773,4171.538574,4307.948730,4152.820313,4127.436035,4131.922852,4604.102539,4434.743652,4366.025879,4503.846191,6583.000000,4.000000,82.000000,,,,0.000000,4.000000,4.000000,4.000000,4.000000,4.000000,4.000000,2.000000,4.000000,4.000000,4.000000,4.000000,4.000000,4.000000,4.000000,83.333336,,,,,,,,,,,,,,,,,,,,,,,,,,,,
1703405294.414935,1703405294.415730,98.000000,0.000000,4200.128418,4185.256348,4265.769043,4248.846191,4168.077148,4169.487305,4306.282227,4152.051270,4121.666504,4116.025879,4594.358887,4439.230957,4358.077148,4505.641113,5925.000000,4.000000,82.000000,,,,0.000000,4.000000,4.000000,4.000000,4.000000,4.000000,4.000000,2.000000,4.000000,4.000000,4.000000,4.000000,4.000000,4.000000,4.000000,83.333336,,,,,,,,,,,,,,,,,,,,,,,,,,,,
1703405294.422743,1703405294.423538,99.000000,0.000000,4203.461426,4186.922852,4275.256348,4246.282227,4166.282227,4167.692383,4303.589844,4154.487305,4131.282227,4106.410156,4591.282227,4445.000000,4358.333496,4508.205078,6172.000000,4.000000,82.000000,,,,0.000000,4.000000,4.000000,4.000000,4.000000,4.000000,4.000000,2.000000,4.000000,4.000000,4.000000,4.000000,4.000000,4.000000,4.000000,83.333336,,,,,,,,,,,,,,,,,,,,,,,,,,,,
1703405294.430552,1703405294.431246,100.000000,0.000000,4203.717773,4186.538574,4280.384766,4246.282227,4156.666504,4164.230957,4304.358887,4155.769043,4142.436035,4125.641113,4599.615234,4446.794922,4351.794922,4504.358887,6644.000000,4.000000,82.000000,,,,0.000000,4.000000,4.000000,4.000000,4.000000,4.000000,4.000000,2.000000,4.000000,4.000000,4.000000,4.000000,4.000000,4.000000,4.000000,83.333336,,,,,,,,,,,,,,,,,25.000000,0.000000,0.685863,-0.140930,-0.702209,-0.128967,0.992797,-0.014650,-0.031254,-15.287994,-38.608765,62.640892
1703405294.438360,1703405294.439054,101.000000,0.000000,4209.743652,4185.769043,4277.179688,4244.102539,4154.487305,4161.794922,4304.102539,4157.948730,4141.410156,4147.051270,4604.358887,4446.922852,4356.282227,4505.897461,6583.000000,4.000000,82.000000,,,,0.000000,4.000000,4.000000,4.000000,4.000000,4.000000,4.000000,2.000000,4.000000,4.000000,4.000000,4.000000,4.000000,4.000000,4.000000,83.333336,,,,,,,,,,,,,,,,,,,,,,,,,,,,
1703405294.446168,1703405294.446762,102.000000,0.000000,4208.205078,4183.205078,4274.871582,4242.051270,4162.179688,4165.897461,4300.897461,4157.820313,4132.179688,4141.410156,4602.563965,4444.102539,4368.589844,4509.615234,5925.000000,4.000000,82.000000,,,,0.000000,4.000000,4.000000,4.000000,4.000000,4.000000,4.000000,2.000000,4.000000,4.000000,4.000000,4.000000,4.000000,4.000000,4.000000,83.333336,,,,,,,,,,,,,,,,,,,,,,,,,,,,
1703405294.453976,1703405294.454570,103.000000,0.000000,4200.769043,4182.820313,4275.384766,4246.282227,4160.769043,4168.077148,4298.589844,4152.051270,4125.769043,4134.358887,4601.538574,4440.384766,4364.487305,4509.358887,6172.000000,4.000000,82.000000,,,,0.000000,4.000000,4.000000,4.000000,4.000000,4.000000,4.000000,2.000000,4.000000,4.000000,4.000000,4.000000,4.000000,4.000000,4.000000,83.333336,,,,,,,,,,,,,,,,,,,,,,,,,,,,
1703405294.461784,1703405294.462278,104.000000,0.000000,4201.538574,4183.717773,4273.974121,4249.358887,4156.282227,4160.641113,4298.846191,4149.487305,4129.871582,4144.102539,4604.230957,4438.717773,4355.769043,4508.333496,6644.000000,4.000000,82.000000,,,,0.000000,4.000000,4.000000,4.000000,4.000000,4.000000,4.000000,2.000000,4.000000,4.000000,4.000000,4.000000,4.000000,4.000000,4.000000,83.333336,,,,,,,,,,,,,,,,,26.000000,0.000000,0.685800,-0.140686,-0.702332,-0.128906,1.003541,-0.046392,-0.027835,-15.209195,-38.664555,62.643467
1703405294.469592,1703405294.470086,105.000000,0.000000,4198.077148,4176.153809,4269.230957,4244.743652,4162.307617,4156.282227,4300.769043,4152.436035,4136.282227,4139.487305,4602.692383,4437.307617,4358.974121,4502.692383,6583.000000,4.000000,82.000000,,,,0.000000,4.000000,4.000000,4.000000,4.000000,4.000000,4.000000,2.000000,4.000000,4.000000,4.000000,4.000000,4.000000,4.000000,4.000000,83.333336,,,,,,,,,,,,,,,,,,,,,,,,,,,,
1703405294.477400,1703405294.477794,106.000000,0.000000,4192.051270,4171.538574,4269.743652,4241.666504,4167.563965,4160.897461,4297.179688,4152.179688,4135.128418,4119.871582,4593.461426,4433.717773,4359.871582,4498.205078,5925.000000,4.000000,82.000000,,,,0.000000,4.000000,4.000000,4.000000,4.000000,4.000000,4.000000,2.000000,4.000000,4.000000,4.000000,4.000000,4.000000,4.000000,4.000000,83.333336,,,,,,,,,,,,,,,,,,,,,,,,,,,,
1703405294.485208,1703405294.485702,107.000000,0.000000,4199.358887,4181.666504,4279.102539,4249.102539,4164.230957,4165.769043,4293.461426,4151.025879,4132.692383,4121.153809,4590.384766,4436.025879,4350.256348,4503.333496,6172.000000,4.000000,82.000000,,,,0.000000,4.000000,4.000000,4.000000,4.000000,4.000000,4.000000,2.000000,4.000000,4.000000,4.000000,4.000000,4.000000,4.000000,4.000000,83.333336,,,,,,,,,,,,,,,,,,,,,,,,,,,,
1703405294.493016,1703405294.493510,108.000000,0.000000,4204.487305,4188.461426,4283.717773,4250.000000,4164.871582,4169.743652,4295.128418,4155.256348,4136.410156,4139.743652,4599.487305,4445.000000,4349.230957,4508.333496,6644.000000,4.000000,82.000000,,,,0.000000,4.000000,4.000000,4.000000,4.000000,4.000000,4.000000,2.000000,4.000000,4.000000,4.000000,4.000000,4.000000,4.000000,4.000000,83.333336,,,,,,,,,,,,,,,,,27.000000,0.000000,0.685944,-0.140869,-0.702209,-0.128601,0.995727,-0.020999,-0.018557,-15.121609,-38.598099,62.745789
1703405294.500824,1703405294.501418,109.000000,0.000000,4200.641113,4183.333496,4276.410156,4239.743652,4165.256348,4165.128418,4296.538574,4155.769043,4136.025879,4142.051270,4604.487305,4445.897461,4360.384766,4507.563965,6583.000000,4.000000,82.000000,,,,0.000000,4.000000,4.000000,4.000000,4.000000,4.000000,4.000000,2.000000,4.000000,4.000000,4.000000,4.000000,4.000000,4.000000,4.000000,83.333336,,,,,,,,,,,,,,,,,,,,,,,,,,,,
1703405294.508632,1703405294.509226,110.000000,0.000000,4199.487305,4180.512695,4270.256348,4237.307617,4161.025879,4157.307617,4296.153809,4152.307617,4132.563965,4131.794922,4600.128418,4441.922852,4366.410156,4507.563965,5925.000000,4.000000,82.000000,,,,0.000000,4.000000,4.000000,4.000000,4.000000,4.000000,4.000000,2.000000,4.000000,4.000000,4.000000,4.000000,4.000000,4.000000,4.000000,83.333336,,,,,,,,,,,,,,,,,,,,,,,,,,,,
1703405294.516440,1703405294.517134,111.000000,0.000000,4201.538574,4184.230957,4273.461426,4248.974121,4164.102539,4164.230957,4296.666504,4161.025879,4143.077148,4142.051270,4602.820313,4445.000000,4367.820313,4508.717773,6172.000000,4.000000,82.000000,,,,0.000000,4.000000,4.000000,4.000000,4.000000,4.000000,4.000000,2.000000,4.000000,4.000000,4.000000,4.000000,4.000000,4.000000,4.000000,83.333336,,,,,,,,,,,,,,,,,,,,,,,,,,,,
1703405294.524248,1703405294.524941,112.000000,0.000000,4207.436035,4190.641113,4280.128418,4257.051270,4172.692383,4170.000000,4298.461426,4172.948730,4155.000000,4156.666504,4614.230957,4449.358887,4376.410156,4512.179688,6644.000000,4.000000,82.000000,,,,0.000000,4.000000,4.000000,4.000000,4.000000,4.000000,4.000000,2.000000,4.000000,4.000000,4.000000,4.000000,4.000000,4.000000,4.000000,83.333336,,,,,,,,,,,,,,,,,28.000000,0.000000,0.685843,-0.141113,-0.702271,-0.128540,0.981077,-0.038091,-0.021487,-15.242782,-38.521622,62.854542
1703405294.532056,1703405294.532849,113.000000,0.000000,4208.717773,4193.717773,4280.256348,4254.102539,4173.717773,4159.615234,4296.025879,4164.230957,4145.384766,4139.743652,4613.333496,4440.512695,4379.615234,4514.615234,6583.000000,4.000000,82.000000,,,,0.000000,4.000000,4.000000,4.000000,4.000000,4.000000,4.000000,2.000000,4.000000,4.000000,4.000000,4.000000,4.000000,4.000000,4.000000,83.333336,,,,,,,,,,,,,,,,,,,,,,,,,,,,
1703405294.539864,1703405294.540657,114.000000,0.000000,4198.717773,4186.282227,4272.948730,4246.410156,4170.256348,4157.051270,4291.794922,4151.922852,4132.179688,4115.128418,4597.051270,4429.358887,4368.077148,4506.153809,5925.000000,4.000000,82.000000,,,,0.000000,4.000000,4.000000,4.000000,4.000000,4.000000,4.000000,2.000000,4.000000,4.000000,4.000000,4.000000,4.000000,4.000000,4.000000,83.333336,,,,,,,,,,,,,,,,,,,,,,,,,,,,
1703405294.547672,1703405294.548565,115.000000,0.000000,4199.102539,4183.974121,4271.410156,4244.871582,4170.512695,4167.820313,4287.692383,4154.358887,4138.077148,4127.307617,4593.589844,4434.743652,4361.282227,4502.179688,6172.000000,4.000000,82.000000,,,,0.000000,4.000000,4.000000,4.000000,4.000000,4.000000,4.000000,2.000000,4.000000,4.000000,4.000000,4.000000,4.000000,4.000000,4.000000,83.333336,,,,,,,,,,,,,,,,,,,,,,,,,,,,
1703405294.555480,1703405294.556373,116.000000,0.000000,4214.230957,4195.512695,4279.230957,4257.436035,4171.666504,4165.769043,4284.743652,4155.128418,4143.077148,4154.358887,4607.051270,4446.282227,4365.897461,4516.153809,6644.000000,4.000000,82.000000,,,,0.000000,4.000000,4.000000,4.000000,4.000000,4.000000,4.000000,2.000000,4.000000,4.000000,4.000000,4.000000,4.000000,4.000000,4.000000,83.333336,,,,,,,,,,,,,,,,,29.000000,0.000000,0.685754,-0.141296,-0.702332,-0.128479,0.983030,-0.041509,-0.030277,-15.085170,-38.452793,62.869087
1703405294.563289,1703405294.564281,117.000000,0.000000,4218.589844,4200.897461,4284.871582,4265.384766,4172.179688,4154.230957,4285.384766,4149.871582,4134.871582,4154.871582,4611.666504,4449.615234,4368.846191,4527.179688,6583.000000,4.000000,82.000000,,,,0.000000,4.000000,4.000000,4.000000,4.000000,4.000000,4.000000,2.000000,4.000000,4.000000,4.000000,4.000000,4.000000,4.000000,4.000000,83.333336,,,,,,,,,,,,,,,,,,,,,,,,,,,,
1703405294.571097,1703405294.572089,118.000000,0.000000,4214.487305,4195.256348,4285.128418,4259.871582,4170.897461,4153.717773,4285.128418,4151.538574,4134.487305,4148.717773,4610.897461,4450.641113,4373.589844,4526.410156,5925.000000,4.000000,82.000000,,,,0.000000,4.000000,4.000000,4.000000,4.000000,4.000000,4.000000,2.000000,4.000000,4.000000,4.000000,4.000000,4.000000,4.000000,4.000000,83.333336,,,,,,,,,,,,,,,,,,,,,,,,,,,,
1703405294.578905,1703405294.579797,119.000000,0.000000,4216.922852,4192.051270,4282.307617,4255.641113,4170.384766,4159.230957,4282.051270,4157.179688,4140.256348,4151.794922,4616.922852,4456.153809,4381.282227,4524.615234,6172.000000,4.000000,82.000000,,,,0.000000,4.000000,4.000000,4.000000,4.000000,4.000000,4.000000,2.000000,4.000000,4.000000,4.000000,4.000000,4.000000,4.000000,4.000000,83.333336,,,,,,,,,,,,,,,,,,,,,,,,,,,,
1703405294.586713,1703405294.587605,120.000000,0.000000,4213.589844,4189.743652,4280.641113,4248.717773,4172.051270,4159.871582,4283.077148,4158.589844,4137.948730,4145.000000,4615.641113,4456.282227,4377.179688,4523.974121,6644.000000,4.000000,82.000000,,,,0.000000,4.000000,4.000000,4.000000,4.000000,4.000000,4.000000,2.000000,4.000000,4.000000,4.000000,4.000000,4.000000,4.000000,4.000000,83.333336,,,,,,,,,,,,,,,,,30.000000,0.000000,0.685902,-0.141296,-0.702209,-0.128357,0.984007,-0.020510,-0.025882,-15.059986,-38.457516,62.748848
1703405294.594521,1703405294.595313,121.000000,0.000000,4205.256348,4181.922852,4280.256348,4242.051270,4170.769043,4155.256348,4285.128418,4156.025879,4132.948730,4133.717773,4606.410156,4449.358887,4363.717773,4522.692383,6583.000000,4.000000,82.000000,,,,0.000000,4.000000,4.000000,4.000000,4.000000,4.000000,4.000000,2.000000,4.000000,4.000000,4.000000,4.000000,4.000000,4.000000,4.000000,83.333336,,,,,,,,,,,,,,,,,,,,,,,,,,,,
