title:محمد اعلى, start timestamp:1703415806.495439, stop timestamp:1703415817.278358, headset type:EPOCX, headset serial:E50206EF, headset firmware:720, channels:67, sampling rate:eeg_128;mot_32, samples:1382      , version:2.2, 
Timestamp,OriginalTimestamp,EEG.Counter,EEG.Interpolated,EEG.AF3,EEG.F7,EEG.F3,EEG.FC5,EEG.T7,EEG.P7,EEG.O1,EEG.O2,EEG.P8,EEG.T8,EEG.FC6,EEG.F4,EEG.F8,EEG.AF4,EEG.RawCq,EEG.Battery,EEG.BatteryPercent,MarkerIndex,MarkerType,MarkerValueInt,EEG.MarkerHardware,CQ.AF3,CQ.F7,CQ.F3,CQ.FC5,CQ.T7,CQ.P7,CQ.O1,CQ.O2,CQ.P8,CQ.T8,CQ.FC6,CQ.F4,CQ.F8,CQ.AF4,CQ.Overall,EQ.SampleRateQuality,EQ.OVERALL,EQ.AF3,EQ.F7,EQ.F3,EQ.FC5,EQ.T7,EQ.P7,EQ.O1,EQ.O2,EQ.P8,EQ.T8,EQ.FC6,EQ.F4,EQ.F8,EQ.AF4,MOT.CounterMems,MOT.InterpolatedMems,MOT.Q0,MOT.Q1,MOT.Q2,MOT.Q3,MOT.AccX,MOT.AccY,MOT.AccZ,MOT.MagX,MOT.MagY,MOT.MagZ
1703415806.495439,1703415806.495604,63.000000,0.000000,4297.179688,4681.410156,4343.589844,4324.102539,4261.410156,4233.205078,4252.692383,4212.436035,4189.871582,4192.179688,4563.846191,4491.282227,4348.846191,4571.282227,0.000000,2.000000,52.000000,,,,0.000000,4.000000,4.000000,4.000000,4.000000,4.000000,4.000000,4.000000,4.000000,4.000000,4.000000,4.000000,4.000000,4.000000,4.000000,100.000000,,,,,,,,,,,,,,,,,,,,,,,,,,,,
1703415806.503247,1703415806.503512,64.000000,0.000000,4280.641113,4676.025879,4334.871582,4325.384766,4271.025879,4240.897461,4260.512695,4213.461426,4190.128418,4185.256348,4567.179688,4488.846191,4337.820313,4568.974121,5536.000000,2.000000,52.000000,,,,0.000000,4.000000,4.000000,4.000000,4.000000,4.000000,4.000000,4.000000,4.000000,4.000000,4.000000,4.000000,4.000000,4.000000,4.000000,100.000000,,,,,,,,,,,,,,,,,16.000000,0.000000,0.687607,0.199463,-0.654297,0.243530,0.987914,-0.053717,0.067879,-15.230753,-41.152897,65.644806
1703415806.511055,1703415806.511320,65.000000,0.000000,4265.000000,4678.717773,4326.153809,4320.128418,4280.000000,4247.948730,4263.717773,4214.871582,4199.230957,4184.871582,4572.436035,4478.333496,4333.205078,4560.256348,5499.000000,2.000000,52.000000,,,,0.000000,4.000000,4.000000,4.000000,4.000000,4.000000,4.000000,4.000000,4.000000,4.000000,4.000000,4.000000,4.000000,4.000000,4.000000,100.000000,,,,,,,,,,,,,,,,,,,,,,,,,,,,
1703415806.518863,1703415806.519028,66.000000,0.000000,4257.820313,4673.077148,4327.436035,4309.102539,4267.307617,4242.820313,4255.897461,4216.282227,4197.820313,4186.025879,4570.128418,4476.153809,4331.410156,4551.922852,5382.000000,2.000000,52.000000,,,,0.000000,4.000000,4.000000,4.000000,4.000000,4.000000,4.000000,4.000000,4.000000,4.000000,4.000000,4.000000,4.000000,4.000000,4.000000,100.000000,,,,,,,,,,,,,,,,,,,,,,,,,,,,
1703415806.526671,1703415806.526836,67.000000,0.000000,4250.128418,4657.563965,4329.102539,4300.641113,4259.615234,4231.922852,4250.897461,4214.871582,4190.641113,4180.512695,4554.487305,4475.769043,4317.692383,4544.102539,5278.000000,2.000000,52.000000,,,,0.000000,4.000000,4.000000,4.000000,4.000000,4.000000,4.000000,4.000000,4.000000,4.000000,4.000000,4.000000,4.000000,4.000000,4.000000,100.000000,,,,,,,,,,,,,,,,,,,,,,,,,,,,
1703415806.534479,1703415806.534544,68.000000,0.000000,4238.333496,4649.743652,4328.205078,4302.436035,4274.358887,4237.051270,4256.025879,4215.128418,4197.051270,4185.256348,4559.615234,4475.384766,4310.128418,4538.461426,5267.000000,2.000000,52.000000,,,,0.000000,4.000000,4.000000,4.000000,4.000000,4.000000,4.000000,4.000000,4.000000,4.000000,4.000000,4.000000,4.000000,4.000000,4.000000,100.000000,,,,,,,,,,,,,,,,,17.000000,0.000000,0.687615,0.199585,-0.654297,0.243408,0.996704,-0.053717,0.063973,-15.274344,-41.137608,65.780319
1703415806.542287,1703415806.542352,69.000000,0.000000,4229.871582,4647.179688,4326.538574,4306.666504,4274.871582,4249.743652,4260.000000,4222.948730,4204.743652,4196.025879,4574.102539,4480.769043,4309.615234,4532.820313,4839.000000,2.000000,52.000000,,,,0.000000,4.000000,4.000000,4.000000,4.000000,4.000000,4.000000,4.000000,4.000000,4.000000,4.000000,4.000000,4.000000,4.000000,4.000000,100.000000,,,,,,,,,,,,,,,,,,,,,,,,,,,,
1703415806.550095,1703415806.550060,70.000000,0.000000,4217.692383,4629.871582,4316.153809,4293.974121,4259.102539,4243.461426,4256.922852,4229.230957,4200.897461,4194.487305,4560.897461,4480.128418,4300.769043,4525.897461,3847.000000,2.000000,52.000000,,,,0.000000,4.000000,4.000000,4.000000,4.000000,4.000000,4.000000,4.000000,4.000000,4.000000,4.000000,4.000000,4.000000,4.000000,4.000000,100.000000,,,,,,,,,,,,,,,,,,,,,,,,,,,,
1703415806.557903,1703415806.557868,71.000000,0.000000,4202.436035,4616.282227,4307.436035,4281.282227,4261.666504,4233.205078,4256.410156,4229.487305,4200.384766,4190.000000,4549.102539,4469.230957,4289.615234,4520.000000,5268.000000,2.000000,52.000000,,,,0.000000,4.000000,4.000000,4.000000,4.000000,4.000000,4.000000,4.000000,4.000000,4.000000,4.000000,4.000000,4.000000,4.000000,4.000000,100.000000,,,,,,,,,,,,,,,,,,,,,,,,,,,,
1703415806.565711,1703415806.565576,72.000000,0.000000,4198.974121,4625.384766,4309.871582,4288.846191,4270.128418,4240.256348,4262.307617,4229.871582,4203.333496,4189.743652,4557.307617,4467.948730,4281.922852,4515.897461,5389.000000,2.000000,52.000000,,,,0.000000,4.000000,4.000000,4.000000,4.000000,4.000000,4.000000,4.000000,4.000000,4.000000,4.000000,4.000000,4.000000,4.000000,4.000000,100.000000,,,,,,,,,,,,,,,,,18.000000,0.000000,0.687861,0.199707,-0.654114,0.243103,0.989379,-0.044927,0.067879,-15.313577,-41.173847,65.702293
1703415806.573519,1703415806.573384,73.000000,0.000000,4200.256348,4627.820313,4309.487305,4297.948730,4265.641113,4243.461426,4262.563965,4230.897461,4200.256348,4186.025879,4558.205078,4474.230957,4275.897461,4510.641113,5318.000000,2.000000,52.000000,,,,0.000000,4.000000,4.000000,4.000000,4.000000,4.000000,4.000000,4.000000,4.000000,4.000000,4.000000,4.000000,4.000000,4.000000,4.000000,100.000000,,,,,,,,,,,,,,,,,,,,,,,,,,,,
1703415806.581327,1703415806.581092,74.000000,0.000000,4192.563965,4617.307617,4310.769043,4294.102539,4263.974121,4235.256348,4258.205078,4229.615234,4199.358887,4191.410156,4552.820313,4477.051270,4276.025879,4510.000000,5926.000000,2.000000,52.000000,,,,0.000000,4.000000,4.000000,4.000000,4.000000,4.000000,4.000000,4.000000,4.000000,4.000000,4.000000,4.000000,4.000000,4.000000,4.000000,100.000000,,,,,,,,,,,,,,,,,,,,,,,,,,,,
1703415806.589135,1703415806.588900,75.000000,0.000000,4179.743652,4613.077148,4309.743652,4283.461426,4258.205078,4233.974121,4254.743652,4229.615234,4204.743652,4206.025879,4556.794922,4477.436035,4273.205078,4506.282227,6274.000000,2.000000,52.000000,,,,0.000000,4.000000,4.000000,4.000000,4.000000,4.000000,4.000000,4.000000,4.000000,4.000000,4.000000,4.000000,4.000000,4.000000,4.000000,100.000000,,,,,,,,,,,,,,,,,,,,,,,,,,,,
1703415806.596943,1703415806.596608,76.000000,0.000000,4176.666504,4608.846191,4298.974121,4274.487305,4250.384766,4233.717773,4252.563965,4227.820313,4207.307617,4197.179688,4555.256348,4471.025879,4263.333496,4494.230957,6810.000000,2.000000,52.000000,,,,0.000000,4.000000,4.000000,4.000000,4.000000,4.000000,4.000000,4.000000,4.000000,4.000000,4.000000,4.000000,4.000000,4.000000,4.000000,100.000000,,,,,,,,,,,,,,,,,19.000000,0.000000,0.687736,0.200012,-0.654175,0.243042,0.982542,-0.034672,0.073251,-15.232219,-41.173126,65.682060
1703415806.604751,1703415806.604416,77.000000,0.000000,4182.563965,4600.000000,4299.358887,4275.512695,4260.897461,4232.563965,4254.487305,4223.846191,4203.717773,4187.692383,4553.205078,4466.025879,4257.692383,4495.000000,7342.000000,2.000000,52.000000,,,,0.000000,4.000000,4.000000,4.000000,4.000000,4.000000,4.000000,4.000000,4.000000,4.000000,4.000000,4.000000,4.000000,4.000000,4.000000,100.000000,,,,,,,,,,,,,,,,,,,,,,,,,,,,
1703415806.612559,1703415806.612124,78.000000,0.000000,4177.179688,4594.743652,4308.846191,4277.692383,4274.743652,4242.179688,4262.051270,4226.282227,4202.051270,4200.000000,4559.102539,4473.333496,4255.384766,4497.692383,5926.000000,2.000000,52.000000,,,,0.000000,4.000000,4.000000,4.000000,4.000000,4.000000,4.000000,4.000000,4.000000,4.000000,4.000000,4.000000,4.000000,4.000000,4.000000,100.000000,,,,,,,,,,,,,,,,,,,,,,,,,,,,
1703415806.620367,1703415806.620033,79.000000,0.000000,4159.615234,4591.794922,4301.410156,4269.871582,4268.461426,4251.666504,4266.153809,4225.641113,4202.563965,4197.948730,4556.282227,4473.717773,4249.743652,4483.717773,6274.000000,2.000000,52.000000,,,,0.000000,4.000000,4.000000,4.000000,4.000000,4.000000,4.000000,4.000000,4.000000,4.000000,4.000000,4.000000,4.000000,4.000000,4.000000,100.000000,,,,,,,,,,,,,,,,,,,,,,,,,,,,
1703415806.628176,1703415806.627841,80.000000,0.000000,4149.358887,4582.051270,4290.384766,4260.256348,4251.025879,4243.077148,4255.641113,4215.769043,4193.333496,4185.000000,4544.615234,4458.333496,4241.025879,4472.307617,6810.000000,2.000000,52.000000,,,,0.000000,4.000000,4.000000,4.000000,4.000000,4.000000,4.000000,4.000000,4.000000,4.000000,4.000000,4.000000,4.000000,4.000000,4.000000,100.000000,,,,,,,,,,,,,,,,,20.000000,0.000000,0.687679,0.200134,-0.654175,0.243103,0.984495,-0.051276,0.063484,-15.208997,-41.222481,65.663857
1703415806.635984,1703415806.635749,81.000000,0.000000,4144.743652,4571.410156,4293.461426,4261.922852,4250.000000,4236.794922,4249.487305,4210.769043,4182.563965,4186.794922,4538.717773,4455.256348,4228.461426,4475.769043,7342.000000,2.000000,52.000000,,,,0.000000,4.000000,4.000000,4.000000,4.000000,4.000000,4.000000,4.000000,4.000000,4.000000,4.000000,4.000000,4.000000,4.000000,4.000000,100.000000,,,,,,,,,,,,,,,,,,,,,,,,,,,,
1703415806.643792,1703415806.643557,82.000000,0.000000,4144.487305,4568.974121,4295.128418,4261.538574,4264.743652,4244.743652,4261.282227,4213.717773,4187.307617,4187.179688,4537.307617,4458.589844,4217.051270,4476.410156,5926.000000,2.000000,52.000000,,,,0.000000,4.000000,4.000000,4.000000,4.000000,4.000000,4.000000,4.000000,4.000000,4.000000,4.000000,4.000000,4.000000,4.000000,4.000000,100.000000,,,,,,,,,,,,,,,,,,,,,,,,,,,,
1703415806.651600,1703415806.651465,83.000000,0.000000,4149.615234,4572.563965,4292.563965,4257.051270,4269.871582,4249.230957,4267.179688,4215.128418,4200.128418,4182.179688,4534.743652,4452.179688,4217.179688,4472.051270,6274.000000,2.000000,52.000000,,,,0.000000,4.000000,4.000000,4.000000,4.000000,4.000000,4.000000,4.000000,4.000000,4.000000,4.000000,4.000000,4.000000,4.000000,4.000000,100.000000,,,,,,,,,,,,,,,,,,,,,,,,,,,,
1703415806.659408,1703415806.659273,84.000000,0.000000,4147.051270,4569.743652,4292.820313,4258.077148,4251.282227,4242.692383,4252.948730,4214.743652,4202.563965,4186.282227,4535.897461,4452.948730,4216.410156,4471.794922,6810.000000,2.000000,52.000000,,,,0.000000,4.000000,4.000000,4.000000,4.000000,4.000000,4.000000,4.000000,4.000000,4.000000,4.000000,4.000000,4.000000,4.000000,4.000000,100.000000,1.000000,41.666668,4.000000,1.000000,4.000000,4.000000,4.000000,3.000000,4.000000,4.000000,4.000000,4.000000,4.000000,4.000000,1.000000,4.000000,21.000000,0.000000,0.687571,0.200134,-0.654175,0.243408,0.994750,-0.048346,0.059578,-15.038097,-41.333565,65.597473
1703415806.667216,1703415806.667182,85.000000,0.000000,4145.641113,4561.025879,4296.153809,4261.153809,4241.153809,4241.538574,4246.410156,4218.333496,4199.102539,4188.461426,4540.128418,4459.743652,4205.128418,4473.461426,7342.000000,2.000000,52.000000,,,,0.000000,4.000000,4.000000,4.000000,4.000000,4.000000,4.000000,4.000000,4.000000,4.000000,4.000000,4.000000,4.000000,4.000000,4.000000,100.000000,,,,,,,,,,,,,,,,,,,,,,,,,,,,
1703415806.675024,1703415806.674990,86.000000,0.000000,4153.846191,4556.922852,4295.128418,4260.128418,4257.307617,4249.871582,4255.384766,4221.538574,4202.436035,4184.230957,4542.436035,4460.384766,4199.102539,4474.871582,5926.000000,2.000000,52.000000,,,,0.000000,4.000000,4.000000,4.000000,4.000000,4.000000,4.000000,4.000000,4.000000,4.000000,4.000000,4.000000,4.000000,4.000000,4.000000,100.000000,,,,,,,,,,,,,,,,,,,,,,,,,,,,
1703415806.682832,1703415806.682898,87.000000,0.000000,4153.589844,4553.846191,4284.230957,4260.897461,4266.025879,4248.717773,4257.820313,4218.717773,4203.717773,4187.179688,4538.077148,4456.666504,4203.717773,4471.282227,6274.000000,2.000000,52.000000,,,,0.000000,4.000000,4.000000,4.000000,4.000000,4.000000,4.000000,4.000000,4.000000,4.000000,4.000000,4.000000,4.000000,4.000000,4.000000,100.000000,,,,,,,,,,,,,,,,,,,,,,,,,,,,
1703415806.690640,1703415806.690706,88.000000,0.000000,4145.897461,4553.333496,4280.769043,4263.205078,4259.358887,4247.948730,4256.153809,4216.794922,4198.333496,4194.615234,4538.974121,4458.974121,4208.974121,4467.436035,6810.000000,2.000000,52.000000,,,,0.000000,4.000000,4.000000,4.000000,4.000000,4.000000,4.000000,4.000000,4.000000,4.000000,4.000000,4.000000,4.000000,4.000000,4.000000,100.000000,,,,,,,,,,,,,,,,,22.000000,0.000000,0.687625,0.200073,-0.654114,0.243469,0.981077,-0.054206,0.066903,-15.117620,-41.533543,65.637726
1703415806.698448,1703415806.698613,89.000000,0.000000,4150.000000,4553.589844,4293.077148,4262.307617,4256.922852,4258.461426,4261.282227,4222.051270,4198.974121,4193.205078,4552.179688,4471.922852,4210.128418,4474.358887,7342.000000,2.000000,52.000000,,,,0.000000,4.000000,4.000000,4.000000,4.000000,4.000000,4.000000,4.000000,4.000000,4.000000,4.000000,4.000000,4.000000,4.000000,4.000000,100.000000,,,,,,,,,,,,,,,,,,,,,,,,,,,,
1703415806.706256,1703415806.706421,90.000000,0.000000,4163.846191,4555.384766,4296.538574,4262.563965,4266.410156,4262.563965,4266.410156,4221.282227,4200.128418,4186.282227,4555.769043,4477.563965,4206.794922,4481.410156,5926.000000,2.000000,52.000000,,,,0.000000,4.000000,4.000000,4.000000,4.000000,4.000000,4.000000,4.000000,4.000000,4.000000,4.000000,4.000000,4.000000,4.000000,4.000000,100.000000,,,,,,,,,,,,,,,,,,,,,,,,,,,,
1703415806.714064,1703415806.714329,91.000000,0.000000,4167.436035,4555.512695,4282.051270,4266.666504,4274.358887,4259.102539,4263.717773,4213.461426,4190.256348,4186.666504,4545.512695,4463.846191,4196.666504,4473.974121,6274.000000,2.000000,52.000000,,,,0.000000,4.000000,4.000000,4.000000,4.000000,4.000000,4.000000,4.000000,4.000000,4.000000,4.000000,4.000000,4.000000,4.000000,4.000000,100.000000,,,,,,,,,,,,,,,,,,,,,,,,,,,,
1703415806.721872,1703415806.722137,92.000000,0.000000,4160.897461,4545.256348,4274.102539,4263.589844,4268.205078,4259.743652,4261.410156,4212.436035,4184.615234,4183.846191,4530.128418,4449.615234,4187.307617,4462.948730,6810.000000,2.000000,52.000000,,,,0.000000,4.000000,4.000000,4.000000,4.000000,4.000000,4.000000,4.000000,4.000000,4.000000,4.000000,4.000000,4.000000,4.000000,4.000000,100.000000,,,,,,,,,,,,,,,,,23.000000,0.000000,0.687622,0.200134,-0.654053,0.243591,0.994750,-0.051276,0.061043,-15.122525,-41.313522,65.607285
1703415806.729680,1703415806.729845,93.000000,0.000000,4154.615234,4535.897461,4277.307617,4252.563965,4256.282227,4261.282227,4259.743652,4212.051270,4193.717773,4175.641113,4523.846191,4452.436035,4183.333496,4460.256348,7342.000000,2.000000,52.000000,,,,0.000000,4.000000,4.000000,4.000000,4.000000,4.000000,4.000000,4.000000,4.000000,4.000000,4.000000,4.000000,4.000000,4.000000,4.000000,100.000000,,,,,,,,,,,,,,,,,,,,,,,,,,,,
1703415806.737488,1703415806.737653,94.000000,0.000000,4156.153809,4536.666504,4277.563965,4251.025879,4264.615234,4259.230957,4259.871582,4209.102539,4200.641113,4181.153809,4536.538574,4458.717773,4184.871582,4461.410156,5926.000000,2.000000,52.000000,,,,0.000000,4.000000,4.000000,4.000000,4.000000,4.000000,4.000000,4.000000,4.000000,4.000000,4.000000,4.000000,4.000000,4.000000,4.000000,100.000000,,,,,,,,,,,,,,,,,,,,,,,,,,,,
1703415806.745296,1703415806.745361,95.000000,0.000000,4165.256348,4541.922852,4276.666504,4262.436035,4282.307617,4260.641113,4263.589844,4212.820313,4198.589844,4190.000000,4538.974121,4455.256348,4186.153809,4460.641113,6274.000000,2.000000,52.000000,,,,0.000000,4.000000,4.000000,4.000000,4.000000,4.000000,4.000000,4.000000,4.000000,4.000000,4.000000,4.000000,4.000000,4.000000,4.000000,100.000000,,,,,,,,,,,,,,,,,,,,,,,,,,,,
1703415806.753104,1703415806.753169,96.000000,0.000000,4166.153809,4539.871582,4276.153809,4262.820313,4269.102539,4262.948730,4257.563965,4218.333496,4200.256348,4181.666504,4522.820313,4451.666504,4184.358887,4461.153809,6810.000000,2.000000,52.000000,,,,0.000000,4.000000,4.000000,4.000000,4.000000,4.000000,4.000000,4.000000,4.000000,4.000000,4.000000,4.000000,4.000000,4.000000,4.000000,100.000000,,,,,,,,,,,,,,,,,24.000000,0.000000,0.687666,0.200134,-0.654053,0.243469,0.983518,-0.051276,0.072274,-15.110272,-41.432171,65.679886
1703415806.760913,1703415806.760877,97.000000,0.000000,4155.384766,4527.692383,4275.641113,4251.025879,4253.077148,4262.692383,4247.692383,4217.820313,4198.846191,4177.948730,4527.307617,4457.307617,4179.871582,4463.589844,7342.000000,2.000000,52.000000,,,,0.000000,4.000000,4.000000,4.000000,4.000000,4.000000,4.000000,4.000000,4.000000,4.000000,4.000000,4.000000,4.000000,4.000000,4.000000,100.000000,,,,,,,,,,,,,,,,,,,,,,,,,,,,
1703415806.768721,1703415806.768786,98.000000,0.000000,4153.846191,4519.230957,4276.794922,4247.307617,4265.000000,4262.436035,4247.436035,4215.897461,4190.641113,4188.333496,4540.641113,4459.615234,4174.358887,4454.230957,5926.000000,2.000000,52.000000,,,,0.000000,4.000000,4.000000,4.000000,4.000000,4.000000,4.000000,4.000000,4.000000,4.000000,4.000000,4.000000,4.000000,4.000000,4.000000,100.000000,,,,,,,,,,,,,,,,,,,,,,,,,,,,
1703415806.776528,1703415806.776594,99.000000,0.000000,4160.384766,4520.512695,4276.794922,4250.512695,4275.512695,4263.077148,4250.769043,4215.769043,4192.692383,4188.077148,4530.384766,4451.922852,4171.538574,4443.461426,6274.000000,2.000000,52.000000,,,,0.000000,4.000000,4.000000,4.000000,4.000000,4.000000,4.000000,4.000000,4.000000,4.000000,4.000000,4.000000,4.000000,4.000000,4.000000,100.000000,,,,,,,,,,,,,,,,,,,,,,,,,,,,
1703415806.784337,1703415806.784502,100.000000,0.000000,4146.922852,4515.128418,4274.102539,4245.897461,4267.436035,4261.794922,4249.358887,4214.230957,4195.641113,4173.077148,4521.282227,4445.256348,4165.384766,4444.743652,6810.000000,2.000000,52.000000,,,,0.000000,4.000000,4.000000,4.000000,4.000000,4.000000,4.000000,4.000000,4.000000,4.000000,4.000000,4.000000,4.000000,4.000000,4.000000,100.000000,,,,,,,,,,,,,,,,,25.000000,0.000000,0.687696,0.199829,-0.654114,0.243469,0.996704,-0.046881,0.068368,-15.099246,-41.372288,65.628563
1703415806.792145,1703415806.792310,101.000000,0.000000,4135.641113,4503.461426,4278.205078,4241.282227,4257.563965,4259.102539,4246.410156,4215.000000,4191.282227,4167.948730,4521.666504,4448.077148,4161.794922,4444.487305,7342.000000,2.000000,52.000000,,,,0.000000,4.000000,4.000000,4.000000,4.000000,4.000000,4.000000,4.000000,4.000000,4.000000,4.000000,4.000000,4.000000,4.000000,4.000000,100.000000,,,,,,,,,,,,,,,,,,,,,,,,,,,,
1703415806.799953,1703415806.800218,102.000000,0.000000,4153.974121,4503.717773,4281.410156,4250.128418,4265.384766,4260.384766,4247.692383,4215.769043,4196.282227,4178.461426,4518.461426,4458.205078,4167.820313,4446.025879,5926.000000,2.000000,52.000000,,,,0.000000,4.000000,4.000000,4.000000,4.000000,4.000000,4.000000,4.000000,4.000000,4.000000,4.000000,4.000000,4.000000,4.000000,4.000000,100.000000,,,,,,,,,,,,,,,,,,,,,,,,,,,,
1703415806.807761,1703415806.808026,103.000000,0.000000,4171.794922,4510.769043,4280.897461,4257.820313,4277.307617,4264.102539,4251.025879,4211.538574,4198.461426,4187.692383,4526.282227,4461.282227,4169.487305,4454.487305,6274.000000,2.000000,52.000000,,,,0.000000,4.000000,4.000000,4.000000,4.000000,4.000000,4.000000,4.000000,4.000000,4.000000,4.000000,4.000000,4.000000,4.000000,4.000000,100.000000,,,,,,,,,,,,,,,,,,,,,,,,,,,,
1703415806.815569,1703415806.815934,104.000000,0.000000,4171.410156,4511.025879,4287.051270,4250.000000,4271.153809,4263.846191,4251.922852,4210.769043,4186.922852,4188.205078,4538.974121,4458.077148,4167.563965,4461.538574,6810.000000,2.000000,52.000000,,,,0.000000,4.000000,4.000000,4.000000,4.000000,4.000000,4.000000,4.000000,4.000000,4.000000,4.000000,4.000000,4.000000,4.000000,4.000000,100.000000,,,,,,,,,,,,,,,,,26.000000,0.000000,0.687624,0.199951,-0.654175,0.243408,0.984007,-0.035649,0.062019,-14.922654,-41.435059,65.582375
1703415806.823377,1703415806.823743,105.000000,0.000000,4168.974121,4499.487305,4288.333496,4242.820313,4258.717773,4263.974121,4251.153809,4213.717773,4186.282227,4179.487305,4536.282227,4458.974121,4172.051270,4461.666504,7342.000000,2.000000,52.000000,,,,0.000000,4.000000,4.000000,4.000000,4.000000,4.000000,4.000000,4.000000,4.000000,4.000000,4.000000,4.000000,4.000000,4.000000,4.000000,100.000000,,,,,,,,,,,,,,,,,,,,,,,,,,,,
1703415806.831185,1703415806.831651,106.000000,0.000000,4175.769043,4490.769043,4285.897461,4249.230957,4262.820313,4268.077148,4252.179688,4214.487305,4199.487305,4174.230957,4533.846191,4462.563965,4173.077148,4460.128418,5926.000000,2.000000,52.000000,,,,0.000000,4.000000,4.000000,4.000000,4.000000,4.000000,4.000000,4.000000,4.000000,4.000000,4.000000,4.000000,4.000000,4.000000,4.000000,100.000000,,,,,,,,,,,,,,,,,,,,,,,,,,,,
1703415806.838993,1703415806.839459,107.000000,0.000000,4168.461426,4491.922852,4287.563965,4248.205078,4267.692383,4266.538574,4251.025879,4214.102539,4200.641113,4182.692383,4536.538574,4458.461426,4169.102539,4455.000000,6274.000000,2.000000,52.000000,,,,0.000000,4.000000,4.000000,4.000000,4.000000,4.000000,4.000000,4.000000,4.000000,4.000000,4.000000,4.000000,4.000000,4.000000,4.000000,100.000000,,,,,,,,,,,,,,,,,,,,,,,,,,,,
1703415806.846801,1703415806.847367,108.000000,0.000000,4146.153809,4489.102539,4285.641113,4236.282227,4263.461426,4266.025879,4250.512695,4211.794922,4193.846191,4190.000000,4526.538574,4448.846191,4166.410156,4446.666504,6810.000000,2.000000,52.000000,,,,0.000000,4.000000,4.000000,4.000000,4.000000,4.000000,4.000000,4.000000,4.000000,4.000000,4.000000,4.000000,4.000000,4.000000,4.000000,100.000000,,,,,,,,,,,,,,,,,27.000000,0.000000,0.687549,0.200012,-0.654236,0.243408,0.995727,-0.050787,0.070809,-14.913722,-41.441551,65.640808
1703415806.854609,1703415806.855175,109.000000,0.000000,4155.256348,4486.282227,4282.307617,4236.922852,4270.897461,4273.846191,4253.974121,4206.153809,4191.666504,4187.179688,4518.717773,4451.025879,4160.000000,4443.461426,7342.000000,2.000000,52.000000,,,,0.000000,4.000000,4.000000,4.000000,4.000000,4.000000,4.000000,4.000000,4.000000,4.000000,4.000000,4.000000,4.000000,4.000000,4.000000,100.000000,,,,,,,,,,,,,,,,,,,,,,,,,,,,
1703415806.862417,1703415806.863083,110.000000,0.000000,4183.077148,4489.743652,4284.102539,4245.000000,4281.794922,4275.256348,4253.717773,4202.692383,4187.948730,4185.128418,4523.846191,4454.743652,4153.974121,4443.077148,5926.000000,2.000000,52.000000,,,,0.000000,4.000000,4.000000,4.000000,4.000000,4.000000,4.000000,4.000000,4.000000,4.000000,4.000000,4.000000,4.000000,4.000000,4.000000,100.000000,,,,,,,,,,,,,,,,,,,,,,,,,,,,
1703415806.870225,1703415806.870892,111.000000,0.000000,4175.384766,4484.871582,4288.974121,4246.922852,4279.102539,4266.282227,4250.641113,4203.717773,4188.205078,4182.820313,4521.153809,4448.974121,4157.179688,4442.307617,6274.000000,2.000000,52.000000,,,,0.000000,4.000000,4.000000,4.000000,4.000000,4.000000,4.000000,4.000000,4.000000,4.000000,4.000000,4.000000,4.000000,4.000000,4.000000,100.000000,,,,,,,,,,,,,,,,,,,,,,,,,,,,
1703415806.878033,1703415806.878799,112.000000,0.000000,4161.794922,4475.256348,4293.333496,4243.974121,4265.769043,4261.025879,4251.153809,4204.487305,4195.000000,4184.102539,4517.692383,4449.487305,4162.820313,4441.410156,6810.000000,2.000000,52.000000,,,,0.000000,4.000000,4.000000,4.000000,4.000000,4.000000,4.000000,4.000000,4.000000,4.000000,4.000000,4.000000,4.000000,4.000000,4.000000,100.000000,,,,,,,,,,,,,,,,,28.000000,0.000000,0.687416,0.200195,-0.654297,0.243469,0.988890,-0.054206,0.062019,-14.789017,-41.580730,65.593391
1703415806.885841,1703415806.886607,113.000000,0.000000,4178.077148,4477.948730,4295.000000,4247.563965,4264.102539,4264.743652,4252.436035,4203.077148,4193.333496,4192.436035,4526.025879,4455.000000,4160.641113,4443.077148,7342.000000,2.000000,52.000000,,,,0.000000,4.000000,4.000000,4.000000,4.000000,4.000000,4.000000,4.000000,4.000000,4.000000,4.000000,4.000000,4.000000,4.000000,4.000000,100.000000,,,,,,,,,,,,,,,,,,,,,,,,,,,,
1703415806.893649,1703415806.894316,114.000000,0.000000,4182.692383,4477.051270,4291.282227,4252.820313,4276.025879,4266.922852,4251.025879,4200.897461,4183.846191,4191.538574,4528.205078,4451.794922,4155.512695,4445.641113,5926.000000,2.000000,52.000000,,,,0.000000,4.000000,4.000000,4.000000,4.000000,4.000000,4.000000,4.000000,4.000000,4.000000,4.000000,4.000000,4.000000,4.000000,4.000000,100.000000,,,,,,,,,,,,,,,,,,,,,,,,,,,,
1703415806.901457,1703415806.902123,115.000000,0.000000,4163.461426,4463.333496,4285.000000,4241.538574,4268.974121,4261.666504,4250.256348,4200.128418,4182.436035,4181.153809,4519.230957,4451.538574,4153.333496,4444.615234,6274.000000,2.000000,52.000000,,,,0.000000,4.000000,4.000000,4.000000,4.000000,4.000000,4.000000,4.000000,4.000000,4.000000,4.000000,4.000000,4.000000,4.000000,4.000000,100.000000,,,,,,,,,,,,,,,,,,,,,,,,,,,,
1703415806.909265,1703415806.909832,116.000000,0.000000,4166.666504,4456.666504,4285.641113,4234.615234,4255.512695,4258.589844,4251.410156,4202.436035,4186.922852,4183.333496,4523.077148,4461.794922,4153.846191,4441.153809,6810.000000,2.000000,52.000000,,,,0.000000,4.000000,4.000000,4.000000,4.000000,4.000000,4.000000,4.000000,4.000000,4.000000,4.000000,4.000000,4.000000,4.000000,4.000000,100.000000,,,,,,,,,,,,,,,,,29.000000,0.000000,0.687416,0.200317,-0.654236,0.243530,0.983030,-0.055671,0.064949,-14.993448,-41.455990,65.667389
1703415806.917073,1703415806.917740,117.000000,0.000000,4177.820313,4459.615234,4285.641113,4245.128418,4266.282227,4260.384766,4252.051270,4208.461426,4187.179688,4189.358887,4535.000000,4463.077148,4158.846191,4439.871582,7342.000000,2.000000,52.000000,,,,0.000000,4.000000,4.000000,4.000000,4.000000,4.000000,4.000000,4.000000,4.000000,4.000000,4.000000,4.000000,4.000000,4.000000,4.000000,100.000000,,,,,,,,,,,,,,,,,,,,,,,,,,,,
1703415806.924882,1703415806.925548,118.000000,0.000000,4173.589844,4458.974121,4281.666504,4249.102539,4277.563965,4262.436035,4254.743652,4214.487305,4188.589844,4183.589844,4531.410156,4455.000000,4163.589844,4444.358887,5926.000000,2.000000,52.000000,,,,0.000000,4.000000,4.000000,4.000000,4.000000,4.000000,4.000000,4.000000,4.000000,4.000000,4.000000,4.000000,4.000000,4.000000,4.000000,100.000000,,,,,,,,,,,,,,,,,,,,,,,,,,,,
1703415806.932690,1703415806.933356,119.000000,0.000000,4176.410156,4460.000000,4284.487305,4242.692383,4266.666504,4271.025879,4259.230957,4210.256348,4189.743652,4187.179688,4520.128418,4452.820313,4161.666504,4446.794922,6274.000000,2.000000,52.000000,,,,0.000000,4.000000,4.000000,4.000000,4.000000,4.000000,4.000000,4.000000,4.000000,4.000000,4.000000,4.000000,4.000000,4.000000,4.000000,100.000000,,,,,,,,,,,,,,,,,,,,,,,,,,,,
1703415806.940498,1703415806.941064,120.000000,0.000000,4180.769043,4460.512695,4295.256348,4249.487305,4261.410156,4281.538574,4257.820313,4204.358887,4188.205078,4200.384766,4523.974121,4461.794922,4157.948730,4446.666504,6810.000000,2.000000,52.000000,,,,0.000000,4.000000,4.000000,4.000000,4.000000,4.000000,4.000000,4.000000,4.000000,4.000000,4.000000,4.000000,4.000000,4.000000,4.000000,100.000000,,,,,,,,,,,,,,,,,30.000000,0.000000,0.687497,0.200439,-0.654114,0.243530,0.996704,-0.061043,0.062508,-15.110770,-41.543724,65.683983
1703415806.948306,1703415806.948872,121.000000,0.000000,4172.179688,4447.307617,4295.128418,4252.179688,4265.384766,4276.282227,4252.820313,4204.743652,4186.922852,4193.077148,4529.615234,4462.307617,4156.794922,4440.769043,7342.000000,2.000000,52.000000,,,,0.000000,4.000000,4.000000,4.000000,4.000000,4.000000,4.000000,4.000000,4.000000,4.000000,4.000000,4.000000,4.000000,4.000000,4.000000,100.000000,,,,,,,,,,,,,,,,,,,,,,,,,,,,
1703415806.956114,1703415806.956580,122.000000,0.000000,4165.384766,4432.051270,4283.077148,4237.307617,4266.538574,4272.948730,4256.538574,4205.769043,4185.641113,4180.256348,4524.102539,4445.384766,4156.538574,4431.538574,5926.000000,2.000000,52.000000,,,,0.000000,4.000000,4.000000,4.000000,4.000000,4.000000,4.000000,4.000000,4.000000,4.000000,4.000000,4.000000,4.000000,4.000000,4.000000,100.000000,,,,,,,,,,,,,,,,,,,,,,,,,,,,
1703415806.963922,1703415806.964388,123.000000,0.000000,4168.589844,4430.384766,4277.563965,4228.717773,4266.794922,4279.615234,4262.692383,4207.179688,4187.179688,4192.179688,4521.922852,4439.102539,4152.948730,4434.102539,6274.000000,2.000000,52.000000,,,,0.000000,4.000000,4.000000,4.000000,4.000000,4.000000,4.000000,4.000000,4.000000,4.000000,4.000000,4.000000,4.000000,4.000000,4.000000,100.000000,,,,,,,,,,,,,,,,,,,,,,,,,,,,
1703415806.971730,1703415806.972096,124.000000,0.000000,4170.000000,4434.871582,4279.230957,4232.051270,4261.410156,4272.820313,4260.256348,4205.641113,4187.179688,4201.153809,4521.922852,4444.102539,4143.205078,4439.358887,6810.000000,2.000000,52.000000,,,,0.000000,4.000000,4.000000,4.000000,4.000000,4.000000,4.000000,4.000000,4.000000,4.000000,4.000000,4.000000,4.000000,4.000000,4.000000,100.000000,,,,,,,,,,,,,,,,,31.000000,0.000000,0.687458,0.200500,-0.654114,0.243591,0.993774,-0.054206,0.070809,-15.283027,-41.306019,65.632248
1703415806.979538,1703415806.979904,125.000000,0.000000,4169.358887,4435.000000,4280.897461,4240.384766,4266.153809,4265.512695,4260.641113,4201.538574,4184.230957,4187.692383,4520.384766,4443.333496,4146.410156,4434.487305,7342.000000,2.000000,52.000000,,,,0.000000,4.000000,4.000000,4.000000,4.000000,4.000000,4.000000,4.000000,4.000000,4.000000,4.000000,4.000000,4.000000,4.000000,4.000000,100.000000,,,,,,,,,,,,,,,,,,,,,,,,,,,,
1703415806.987346,1703415806.987612,126.000000,0.000000,4168.846191,4431.666504,4281.282227,4247.563965,4281.922852,4277.179688,4265.897461,4200.897461,4182.820313,4185.769043,4524.615234,4441.538574,4161.153809,4430.128418,5926.000000,2.000000,52.000000,,,,0.000000,4.000000,4.000000,4.000000,4.000000,4.000000,4.000000,4.000000,4.000000,4.000000,4.000000,4.000000,4.000000,4.000000,4.000000,100.000000,,,,,,,,,,,,,,,,,,,,,,,,,,,,
1703415806.995154,1703415806.995520,127.000000,0.000000,4166.794922,4430.897461,4281.153809,4247.948730,4277.563965,4278.205078,4263.717773,4201.153809,4184.230957,4185.384766,4521.282227,4442.051270,4151.282227,4434.102539,52.000000,2.000000,52.000000,,,,0.000000,4.000000,4.000000,4.000000,4.000000,4.000000,4.000000,4.000000,4.000000,4.000000,4.000000,4.000000,4.000000,4.000000,4.000000,100.000000,,,,,,,,,,,,,,,,,,,,,,,,,,,,
1703415807.002962,1703415807.003329,0.000000,0.000000,4173.846191,4432.179688,4287.307617,4245.384766,4260.384766,4265.384766,4258.717773,4201.666504,4186.153809,4171.025879,4509.487305,4450.128418,4134.871582,4433.589844,5546.000000,2.000000,52.000000,,,,0.000000,4.000000,4.000000,4.000000,4.000000,4.000000,4.000000,4.000000,4.000000,4.000000,4.000000,4.000000,4.000000,4.000000,4.000000,100.000000,,,,,,,,,,,,,,,,,0.000000,0.000000,0.687595,0.200378,-0.654053,0.243469,0.990355,-0.053229,0.073251,-15.188057,-41.408749,65.652359
1703415807.010770,1703415807.011237,1.000000,0.000000,4182.307617,4429.230957,4295.000000,4245.256348,4262.179688,4266.153809,4259.743652,4200.897461,4185.512695,4176.538574,4511.922852,4455.128418,4142.179688,4428.461426,5495.000000,2.000000,52.000000,,,,0.000000,4.000000,4.000000,4.000000,4.000000,4.000000,4.000000,4.000000,4.000000,4.000000,4.000000,4.000000,4.000000,4.000000,4.000000,100.000000,,,,,,,,,,,,,,,,,,,,,,,,,,,,
1703415807.018578,1703415807.019045,2.000000,0.000000,4185.897461,4427.179688,4294.358887,4248.333496,4270.256348,4271.153809,4261.410156,4203.205078,4189.743652,4203.461426,4527.820313,4451.282227,4156.666504,4433.717773,5405.000000,2.000000,52.000000,,,,0.000000,4.000000,4.000000,4.000000,4.000000,4.000000,4.000000,4.000000,4.000000,4.000000,4.000000,4.000000,4.000000,4.000000,4.000000,100.000000,,,,,,,,,,,,,,,,,,,,,,,,,,,,
1703415807.026386,1703415807.026953,3.000000,0.000000,4187.179688,4426.922852,4288.717773,4245.128418,4264.487305,4267.179688,4260.512695,4211.922852,4201.794922,4209.871582,4538.846191,4456.538574,4165.897461,4444.743652,5318.000000,2.000000,52.000000,,,,0.000000,4.000000,4.000000,4.000000,4.000000,4.000000,4.000000,4.000000,4.000000,4.000000,4.000000,4.000000,4.000000,4.000000,4.000000,100.000000,,,,,,,,,,,,,,,,,,,,,,,,,,,,
1703415807.034194,1703415807.034761,4.000000,0.000000,4186.410156,4421.794922,4289.615234,4237.692383,4260.256348,4265.128418,4260.384766,4216.922852,4204.358887,4198.846191,4539.102539,4464.615234,4169.358887,4442.563965,5250.000000,2.000000,52.000000,,,,0.000000,4.000000,4.000000,4.000000,4.000000,4.000000,4.000000,4.000000,4.000000,4.000000,4.000000,4.000000,4.000000,4.000000,4.000000,100.000000,,,,,,,,,,,,,,,,,1.000000,0.000000,0.687700,0.200439,-0.653992,0.243286,0.998657,-0.051276,0.067391,-15.119251,-41.384541,65.720459
1703415807.042002,1703415807.042669,5.000000,0.000000,4185.769043,4417.563965,4294.230957,4239.230957,4266.538574,4267.051270,4260.769043,4212.820313,4199.102539,4199.743652,4533.589844,4463.589844,4167.436035,4436.153809,4839.000000,2.000000,52.000000,,,,0.000000,4.000000,4.000000,4.000000,4.000000,4.000000,4.000000,4.000000,4.000000,4.000000,4.000000,4.000000,4.000000,4.000000,4.000000,100.000000,,,,,,,,,,,,,,,,,,,,,,,,,,,,
1703415807.049810,1703415807.050478,6.000000,0.000000,4187.563965,4417.692383,4295.641113,4252.948730,4269.230957,4268.077148,4260.641113,4214.871582,4198.589844,4206.025879,4533.717773,4467.948730,4166.794922,4443.333496,3847.000000,2.000000,52.000000,,,,0.000000,4.000000,4.000000,4.000000,4.000000,4.000000,4.000000,4.000000,4.000000,4.000000,4.000000,4.000000,4.000000,4.000000,4.000000,100.000000,,,,,,,,,,,,,,,,,,,,,,,,,,,,
1703415807.057619,1703415807.058385,7.000000,0.000000,4187.820313,4413.589844,4292.820313,4252.179688,4260.641113,4268.461426,4260.384766,4215.384766,4192.948730,4198.974121,4532.563965,4470.512695,4162.051270,4447.436035,5275.000000,2.000000,52.000000,,,,0.000000,4.000000,4.000000,4.000000,4.000000,4.000000,4.000000,4.000000,4.000000,4.000000,4.000000,4.000000,4.000000,4.000000,4.000000,100.000000,,,,,,,,,,,,,,,,,,,,,,,,,,,,
1703415807.065426,1703415807.066193,8.000000,0.000000,4185.128418,4401.153809,4285.128418,4234.487305,4256.666504,4265.641113,4260.512695,4205.512695,4183.077148,4189.358887,4526.025879,4461.282227,4152.436035,4442.051270,5399.000000,2.000000,52.000000,,,,0.000000,4.000000,4.000000,4.000000,4.000000,4.000000,4.000000,4.000000,4.000000,4.000000,4.000000,4.000000,4.000000,4.000000,4.000000,100.000000,,,,,,,,,,,,,,,,,2.000000,0.000000,0.687826,0.200500,-0.653931,0.243042,0.998169,-0.045904,0.062996,-15.240660,-41.362755,65.915077
1703415807.073234,1703415807.074101,9.000000,0.000000,4186.153809,4392.051270,4277.436035,4233.077148,4264.743652,4262.436035,4260.769043,4205.128418,4184.487305,4196.922852,4528.461426,4456.922852,4150.384766,4443.205078,5354.000000,2.000000,52.000000,,,,0.000000,4.000000,4.000000,4.000000,4.000000,4.000000,4.000000,4.000000,4.000000,4.000000,4.000000,4.000000,4.000000,4.000000,4.000000,100.000000,,,,,,,,,,,,,,,,,,,,,,,,,,,,
1703415807.081043,1703415807.081909,10.000000,0.000000,4183.333496,4397.948730,4281.794922,4249.102539,4270.512695,4261.794922,4260.128418,4215.512695,4194.102539,4204.743652,4543.974121,4460.641113,4156.922852,4445.641113,5971.000000,2.000000,52.000000,,,,0.000000,4.000000,4.000000,4.000000,4.000000,4.000000,4.000000,4.000000,4.000000,4.000000,4.000000,4.000000,4.000000,4.000000,4.000000,100.000000,,,,,,,,,,,,,,,,,,,,,,,,,,,,
1703415807.088851,1703415807.089617,11.000000,0.000000,4175.000000,4397.436035,4291.666504,4248.589844,4264.615234,4253.461426,4261.025879,4221.282227,4201.025879,4189.487305,4542.692383,4463.205078,4155.769043,4441.410156,6287.000000,2.000000,52.000000,,,,0.000000,4.000000,4.000000,4.000000,4.000000,4.000000,4.000000,4.000000,4.000000,4.000000,4.000000,4.000000,4.000000,4.000000,4.000000,100.000000,,,,,,,,,,,,,,,,,,,,,,,,,,,,
1703415807.096659,1703415807.097425,12.000000,0.000000,4168.717773,4383.333496,4289.743652,4233.333496,4258.846191,4248.333496,4264.871582,4218.974121,4200.512695,4186.153809,4526.153809,4462.948730,4145.000000,4432.692383,6790.000000,2.000000,52.000000,,,,0.000000,4.000000,4.000000,4.000000,4.000000,4.000000,4.000000,4.000000,4.000000,4.000000,4.000000,4.000000,4.000000,4.000000,4.000000,100.000000,,,,,,,,,,,,,,,,,3.000000,0.000000,0.687739,0.200623,-0.654053,0.242859,1.001099,-0.041509,0.074716,-15.216594,-41.393147,66.006905
1703415807.104467,1703415807.105133,13.000000,0.000000,4168.846191,4382.948730,4281.666504,4232.436035,4262.563965,4255.769043,4267.692383,4216.794922,4197.563965,4212.563965,4527.051270,4463.461426,4149.102539,4426.666504,7341.000000,2.000000,52.000000,,,,0.000000,4.000000,4.000000,4.000000,4.000000,4.000000,4.000000,4.000000,4.000000,4.000000,4.000000,4.000000,4.000000,4.000000,4.000000,100.000000,,,,,,,,,,,,,,,,,,,,,,,,,,,,
1703415807.112275,1703415807.112941,14.000000,0.000000,4177.563965,4386.025879,4278.846191,4237.179688,4265.384766,4261.282227,4268.717773,4214.615234,4199.358887,4213.589844,4531.538574,4459.487305,4161.282227,4429.487305,5971.000000,2.000000,52.000000,,,,0.000000,4.000000,4.000000,4.000000,4.000000,4.000000,4.000000,4.000000,4.000000,4.000000,4.000000,4.000000,4.000000,4.000000,4.000000,100.000000,,,,,,,,,,,,,,,,,,,,,,,,,,,,
1703415807.120083,1703415807.120649,15.000000,0.000000,4180.256348,4375.256348,4278.333496,4232.051270,4264.871582,4257.820313,4267.563965,4206.922852,4199.743652,4186.538574,4523.589844,4448.846191,4152.051270,4427.436035,6287.000000,2.000000,52.000000,,,,0.000000,4.000000,4.000000,4.000000,4.000000,4.000000,4.000000,4.000000,4.000000,4.000000,4.000000,4.000000,4.000000,4.000000,4.000000,100.000000,,,,,,,,,,,,,,,,,,,,,,,,,,,,
1703415807.127891,1703415807.128457,16.000000,0.000000,4174.487305,4372.692383,4277.051270,4230.128418,4261.794922,4258.077148,4264.615234,4201.153809,4196.794922,4185.128418,4517.692383,4446.025879,4139.871582,4421.410156,0.000000,2.000000,52.000000,,,,0.000000,4.000000,4.000000,4.000000,4.000000,4.000000,4.000000,4.000000,4.000000,4.000000,4.000000,4.000000,4.000000,4.000000,4.000000,100.000000,,,,,,,,,,,,,,,,,4.000000,0.000000,0.687761,0.200623,-0.654053,0.242798,0.992797,-0.044927,0.062996,-15.178267,-41.353832,65.939545
1703415807.135699,1703415807.136165,17.000000,0.000000,4185.897461,4383.077148,4285.128418,4243.974121,4258.333496,4261.282227,4264.615234,4207.563965,4196.153809,4195.000000,4521.922852,4457.948730,4149.102539,4434.743652,0.000000,2.000000,52.000000,,,,0.000000,4.000000,4.000000,4.000000,4.000000,4.000000,4.000000,4.000000,4.000000,4.000000,4.000000,4.000000,4.000000,4.000000,4.000000,100.000000,,,,,,,,,,,,,,,,,,,,,,,,,,,,
1703415807.143507,1703415807.143973,18.000000,0.000000,4203.846191,4386.025879,4294.358887,4258.461426,4264.358887,4257.307617,4265.897461,4214.358887,4195.000000,4188.333496,4534.230957,4468.461426,4162.692383,4451.538574,0.000000,2.000000,52.000000,,,,0.000000,4.000000,4.000000,4.000000,4.000000,4.000000,4.000000,4.000000,4.000000,4.000000,4.000000,4.000000,4.000000,4.000000,4.000000,100.000000,,,,,,,,,,,,,,,,,,,,,,,,,,,,
1703415807.151315,1703415807.151681,19.000000,0.000000,4199.230957,4381.025879,4289.102539,4252.948730,4271.922852,4250.769043,4263.974121,4207.307617,4189.615234,4186.025879,4538.205078,4464.102539,4158.461426,4444.487305,0.000000,2.000000,52.000000,,,,0.000000,4.000000,4.000000,4.000000,4.000000,4.000000,4.000000,4.000000,4.000000,4.000000,4.000000,4.000000,4.000000,4.000000,4.000000,100.000000,,,,,,,,,,,,,,,,,,,,,,,,,,,,
1703415807.159123,1703415807.159489,20.000000,0.000000,4204.871582,4384.102539,4289.871582,4252.436035,4268.077148,4249.615234,4263.717773,4200.897461,4185.897461,4195.897461,4532.051270,4458.333496,4154.871582,4440.256348,0.000000,2.000000,52.000000,,,,0.000000,4.000000,4.000000,4.000000,4.000000,4.000000,4.000000,4.000000,4.000000,4.000000,4.000000,4.000000,4.000000,4.000000,4.000000,100.000000,1.000000,41.666668,3.000000,1.000000,4.000000,3.000000,4.000000,3.000000,4.000000,4.000000,4.000000,4.000000,4.000000,4.000000,1.000000,4.000000,5.000000,0.000000,0.687685,0.200684,-0.654114,0.242798,0.989867,-0.054694,0.062508,-15.227108,-41.451782,65.928925
1703415807.166931,1703415807.167198,21.000000,0.000000,4232.436035,4388.461426,4301.538574,4268.974121,4262.051270,4252.820313,4265.128418,4203.077148,4188.846191,4198.461426,4533.589844,4467.563965,4165.897461,4458.846191,0.000000,2.000000,52.000000,,,,0.000000,4.000000,4.000000,4.000000,4.000000,4.000000,4.000000,4.000000,4.000000,4.000000,4.000000,4.000000,4.000000,4.000000,4.000000,100.000000,,,,,,,,,,,,,,,,,,,,,,,,,,,,
1703415807.174739,1703415807.175005,22.000000,0.000000,4241.025879,4380.384766,4300.384766,4264.102539,4262.307617,4253.205078,4262.820313,4200.512695,4187.820313,4190.897461,4540.769043,4472.307617,4170.512695,4464.230957,0.000000,2.000000,52.000000,,,,0.000000,4.000000,4.000000,4.000000,4.000000,4.000000,4.000000,4.000000,4.000000,4.000000,4.000000,4.000000,4.000000,4.000000,4.000000,100.000000,,,,,,,,,,,,,,,,,,,,,,,,,,,,
1703415807.182547,1703415807.182714,23.000000,0.000000,4234.487305,4371.794922,4292.820313,4249.358887,4267.179688,4252.692383,4261.410156,4195.384766,4184.102539,4188.205078,4531.922852,4463.846191,4158.333496,4447.179688,0.000000,2.000000,52.000000,,,,0.000000,4.000000,4.000000,4.000000,4.000000,4.000000,4.000000,4.000000,4.000000,4.000000,4.000000,4.000000,4.000000,4.000000,4.000000,100.000000,,,,,,,,,,,,,,,,,,,,,,,,,,,,
1703415807.190355,1703415807.190522,24.000000,0.000000,4229.615234,4374.615234,4294.102539,4256.025879,4270.897461,4251.025879,4264.102539,4198.846191,4186.410156,4192.692383,4519.615234,4463.461426,4150.128418,4440.384766,0.000000,2.000000,52.000000,,,,0.000000,4.000000,4.000000,4.000000,4.000000,4.000000,4.000000,4.000000,4.000000,4.000000,4.000000,4.000000,4.000000,4.000000,4.000000,100.000000,,,,,,,,,,,,,,,,,6.000000,0.000000,0.687729,0.200806,-0.654053,0.242737,1.001099,-0.048834,0.056159,-15.121063,-41.506603,65.936035
1703415807.198163,1703415807.198230,25.000000,0.000000,4227.563965,4371.410156,4298.717773,4261.538574,4258.205078,4247.051270,4265.000000,4203.974121,4190.128418,4191.922852,4525.128418,4469.615234,4154.487305,4451.666504,0.000000,2.000000,52.000000,,,,0.000000,4.000000,4.000000,4.000000,4.000000,4.000000,4.000000,4.000000,4.000000,4.000000,4.000000,4.000000,4.000000,4.000000,4.000000,100.000000,,,,,,,,,,,,,,,,,,,,,,,,,,,,
1703415807.205971,1703415807.206138,26.000000,0.000000,4234.487305,4357.692383,4295.256348,4254.871582,4246.538574,4246.025879,4262.307617,4203.205078,4187.692383,4184.358887,4534.615234,4462.820313,4155.384766,4464.358887,0.000000,2.000000,52.000000,,,,0.000000,4.000000,4.000000,4.000000,4.000000,4.000000,4.000000,4.000000,4.000000,4.000000,4.000000,4.000000,4.000000,4.000000,4.000000,100.000000,,,,,,,,,,,,,,,,,,,,,,,,,,,,
1703415807.213779,1703415807.213946,27.000000,0.000000,4235.128418,4353.461426,4285.769043,4247.948730,4258.205078,4247.051270,4258.974121,4199.615234,4183.974121,4183.205078,4528.974121,4455.384766,4155.256348,4459.487305,0.000000,2.000000,52.000000,,,,0.000000,4.000000,4.000000,4.000000,4.000000,4.000000,4.000000,4.000000,4.000000,4.000000,4.000000,4.000000,4.000000,4.000000,4.000000,100.000000,,,,,,,,,,,,,,,,,,,,,,,,,,,,
1703415807.221588,1703415807.221854,28.000000,0.000000,4222.820313,4354.615234,4286.666504,4248.461426,4269.102539,4247.179688,4257.563965,4200.641113,4189.743652,4189.102539,4517.820313,4459.487305,4153.205078,4449.230957,0.000000,2.000000,52.000000,,,,0.000000,4.000000,4.000000,4.000000,4.000000,4.000000,4.000000,4.000000,4.000000,4.000000,4.000000,4.000000,4.000000,4.000000,4.000000,100.000000,,,,,,,,,,,,,,,,,7.000000,0.000000,0.687652,0.200745,-0.654175,0.242676,0.981565,-0.047369,0.067391,-15.242290,-41.472610,65.809097
1703415807.229396,1703415807.229662,29.000000,0.000000,4217.820313,4355.128418,4295.128418,4257.307617,4266.410156,4248.589844,4260.384766,4207.307617,4194.871582,4190.641113,4527.436035,4460.769043,4147.948730,4456.282227,0.000000,2.000000,52.000000,,,,0.000000,4.000000,4.000000,4.000000,4.000000,4.000000,4.000000,4.000000,4.000000,4.000000,4.000000,4.000000,4.000000,4.000000,4.000000,100.000000,,,,,,,,,,,,,,,,,,,,,,,,,,,,
1703415807.237203,1703415807.237570,30.000000,0.000000,4216.666504,4357.563965,4293.205078,4257.563965,4264.871582,4251.666504,4261.922852,4207.179688,4191.282227,4187.563965,4539.871582,4457.692383,4151.153809,4464.743652,0.000000,2.000000,52.000000,,,,0.000000,4.000000,4.000000,4.000000,4.000000,4.000000,4.000000,4.000000,4.000000,4.000000,4.000000,4.000000,4.000000,4.000000,4.000000,100.000000,,,,,,,,,,,,,,,,,,,,,,,,,,,,
1703415807.245012,1703415807.245379,31.000000,0.000000,4210.000000,4352.051270,4289.102539,4247.051270,4263.589844,4249.871582,4260.512695,4202.436035,4192.563965,4188.461426,4536.025879,4457.179688,4157.179688,4465.128418,0.000000,2.000000,52.000000,,,,0.000000,4.000000,4.000000,4.000000,4.000000,4.000000,4.000000,4.000000,4.000000,4.000000,4.000000,4.000000,4.000000,4.000000,4.000000,100.000000,,,,,,,,,,,,,,,,,,,,,,,,,,,,
1703415807.252820,1703415807.253286,32.000000,0.000000,4210.000000,4340.000000,4292.179688,4246.538574,4260.000000,4250.000000,4261.538574,4208.205078,4198.717773,4189.358887,4534.743652,4458.974121,4153.205078,4469.230957,0.000000,2.000000,52.000000,,,,0.000000,4.000000,4.000000,4.000000,4.000000,4.000000,4.000000,4.000000,4.000000,4.000000,4.000000,4.000000,4.000000,4.000000,4.000000,100.000000,,,,,,,,,,,,,,,,,8.000000,0.000000,0.687656,0.200806,-0.654175,0.242615,0.994262,-0.047857,0.079600,-15.218061,-41.492016,65.744850
1703415807.260628,1703415807.261094,33.000000,0.000000,4212.563965,4338.974121,4293.077148,4251.153809,4263.077148,4258.077148,4265.897461,4217.948730,4199.487305,4181.922852,4532.436035,4460.384766,4148.974121,4468.974121,0.000000,2.000000,52.000000,,,,0.000000,4.000000,4.000000,4.000000,4.000000,4.000000,4.000000,4.000000,4.000000,4.000000,4.000000,4.000000,4.000000,4.000000,4.000000,100.000000,,,,,,,,,,,,,,,,,,,,,,,,,,,,
1703415807.268436,1703415807.269002,34.000000,0.000000,4215.128418,4348.333496,4289.102539,4251.410156,4262.820313,4258.333496,4267.436035,4218.205078,4200.512695,4183.846191,4529.102539,4461.538574,4161.794922,4470.897461,0.000000,2.000000,52.000000,,,,0.000000,4.000000,4.000000,4.000000,4.000000,4.000000,4.000000,4.000000,4.000000,4.000000,4.000000,4.000000,4.000000,4.000000,4.000000,100.000000,,,,,,,,,,,,,,,,,,,,,,,,,,,,
1703415807.276244,1703415807.276811,35.000000,0.000000,4233.461426,4349.230957,4293.205078,4253.077148,4252.179688,4248.333496,4263.077148,4212.563965,4197.563965,4200.128418,4538.461426,4463.846191,4174.487305,4491.538574,0.000000,2.000000,52.000000,,,,0.000000,4.000000,4.000000,4.000000,4.000000,4.000000,4.000000,4.000000,4.000000,4.000000,4.000000,4.000000,4.000000,4.000000,4.000000,100.000000,,,,,,,,,,,,,,,,,,,,,,,,,,,,
1703415807.284052,1703415807.284519,36.000000,0.000000,4267.820313,4350.256348,4304.358887,4255.384766,4250.641113,4246.025879,4260.128418,4211.666504,4188.717773,4204.230957,4545.256348,4475.641113,4176.538574,4517.563965,0.000000,2.000000,52.000000,,,,0.000000,4.000000,4.000000,4.000000,4.000000,4.000000,4.000000,4.000000,4.000000,4.000000,4.000000,4.000000,4.000000,4.000000,4.000000,100.000000,,,,,,,,,,,,,,,,,9.000000,0.000000,0.687692,0.200806,-0.654114,0.242676,0.992309,-0.043462,0.055671,-15.146255,-41.542812,65.687035
1703415807.291860,1703415807.292327,37.000000,0.000000,4304.743652,4363.846191,4313.846191,4267.563965,4264.230957,4251.282227,4264.615234,4217.179688,4192.051270,4199.358887,4552.051270,4499.487305,4191.666504,4543.717773,0.000000,2.000000,52.000000,,,,0.000000,4.000000,4.000000,4.000000,4.000000,4.000000,4.000000,4.000000,4.000000,4.000000,4.000000,4.000000,4.000000,4.000000,4.000000,100.000000,,,,,,,,,,,,,,,,,,,,,,,,,,,,
1703415807.299668,1703415807.300035,38.000000,0.000000,4320.256348,4370.641113,4316.922852,4274.102539,4270.256348,4249.743652,4263.717773,4213.974121,4190.769043,4201.794922,4566.922852,4504.102539,4206.922852,4562.179688,0.000000,2.000000,52.000000,,,,0.000000,4.000000,4.000000,4.000000,4.000000,4.000000,4.000000,4.000000,4.000000,4.000000,4.000000,4.000000,4.000000,4.000000,4.000000,100.000000,,,,,,,,,,,,,,,,,,,,,,,,,,,,
1703415807.307476,1703415807.307943,39.000000,0.000000,4307.948730,4356.666504,4319.871582,4263.077148,4259.743652,4246.025879,4252.563965,4200.769043,4175.384766,4202.436035,4565.641113,4485.769043,4197.436035,4555.128418,0.000000,2.000000,52.000000,,,,0.000000,4.000000,4.000000,4.000000,4.000000,4.000000,4.000000,4.000000,4.000000,4.000000,4.000000,4.000000,4.000000,4.000000,4.000000,100.000000,,,,,,,,,,,,,,,,,,,,,,,,,,,,
1703415807.315284,1703415807.315751,40.000000,0.000000,4299.871582,4348.205078,4322.820313,4271.025879,4257.051270,4244.487305,4250.897461,4198.205078,4177.436035,4197.820313,4550.641113,4488.077148,4183.461426,4544.615234,0.000000,2.000000,52.000000,,,,0.000000,4.000000,4.000000,4.000000,4.000000,4.000000,4.000000,4.000000,4.000000,4.000000,4.000000,4.000000,4.000000,4.000000,4.000000,100.000000,,,,,,,,,,,,,,,,,10.000000,0.000000,0.687675,0.200989,-0.654053,0.242737,0.988890,-0.053717,0.071786,-15.214963,-41.471867,65.884995
1703415807.323092,1703415807.323559,41.000000,0.000000,4298.717773,4354.230957,4316.922852,4283.589844,4262.436035,4245.384766,4261.410156,4203.846191,4187.179688,4190.256348,4552.179688,4499.102539,4185.641113,4539.102539,0.000000,2.000000,52.000000,,,,0.000000,4.000000,4.000000,4.000000,4.000000,4.000000,4.000000,4.000000,4.000000,4.000000,4.000000,4.000000,4.000000,4.000000,4.000000,100.000000,,,,,,,,,,,,,,,,,,,,,,,,,,,,
1703415807.330900,1703415807.331267,42.000000,0.000000,4285.897461,4348.717773,4310.128418,4267.307617,4257.692383,4246.410156,4263.717773,4205.641113,4182.307617,4184.358887,4561.410156,4488.077148,4191.025879,4527.692383,0.000000,2.000000,52.000000,,,,0.000000,4.000000,4.000000,4.000000,4.000000,4.000000,4.000000,4.000000,4.000000,4.000000,4.000000,4.000000,4.000000,4.000000,4.000000,100.000000,,,,,,,,,,,,,,,,,,,,,,,,,,,,
1703415807.338708,1703415807.339176,43.000000,0.000000,4271.025879,4335.641113,4306.538574,4259.358887,4254.743652,4241.282227,4260.256348,4210.256348,4181.794922,4185.769043,4554.615234,4472.179688,4182.051270,4521.025879,0.000000,2.000000,52.000000,,,,0.000000,4.000000,4.000000,4.000000,4.000000,4.000000,4.000000,4.000000,4.000000,4.000000,4.000000,4.000000,4.000000,4.000000,4.000000,100.000000,,,,,,,,,,,,,,,,,,,,,,,,,,,,
1703415807.346516,1703415807.346984,44.000000,0.000000,4255.256348,4331.025879,4292.436035,4266.410156,4260.000000,4239.230957,4261.538574,4213.461426,4189.358887,4191.666504,4539.230957,4463.846191,4166.153809,4510.384766,0.000000,2.000000,52.000000,,,,0.000000,4.000000,4.000000,4.000000,4.000000,4.000000,4.000000,4.000000,4.000000,4.000000,4.000000,4.000000,4.000000,4.000000,4.000000,100.000000,,,,,,,,,,,,,,,,,11.000000,0.000000,0.687675,0.200989,-0.654053,0.242737,0.990844,-0.047857,0.067391,-15.110133,-41.524677,65.896500
1703415807.354324,1703415807.354892,45.000000,0.000000,4237.051270,4325.512695,4277.307617,4255.384766,4262.563965,4244.871582,4263.717773,4213.205078,4188.974121,4196.153809,4538.461426,4459.358887,4167.563965,4493.717773,0.000000,2.000000,52.000000,,,,0.000000,4.000000,4.000000,4.000000,4.000000,4.000000,4.000000,4.000000,4.000000,4.000000,4.000000,4.000000,4.000000,4.000000,4.000000,100.000000,,,,,,,,,,,,,,,,,,,,,,,,,,,,
1703415807.362132,1703415807.362700,46.000000,0.000000,4229.615234,4313.974121,4276.410156,4250.000000,4263.077148,4247.051270,4264.102539,4213.846191,4186.666504,4188.846191,4543.333496,4460.256348,4173.717773,4485.256348,0.000000,2.000000,52.000000,,,,0.000000,4.000000,4.000000,4.000000,4.000000,4.000000,4.000000,4.000000,4.000000,4.000000,4.000000,4.000000,4.000000,4.000000,4.000000,100.000000,,,,,,,,,,,,,,,,,,,,,,,,,,,,
1703415807.369940,1703415807.370608,47.000000,0.000000,4221.538574,4312.179688,4281.153809,4262.051270,4266.538574,4244.230957,4264.102539,4212.307617,4193.461426,4184.487305,4537.179688,4460.000000,4167.436035,4480.256348,0.000000,2.000000,52.000000,,,,0.000000,4.000000,4.000000,4.000000,4.000000,4.000000,4.000000,4.000000,4.000000,4.000000,4.000000,4.000000,4.000000,4.000000,4.000000,100.000000,,,,,,,,,,,,,,,,,,,,,,,,,,,,
1703415807.377749,1703415807.378416,48.000000,0.000000,4202.820313,4312.820313,4279.871582,4259.102539,4261.666504,4242.179688,4263.717773,4210.512695,4199.615234,4196.538574,4535.641113,4456.410156,4165.769043,4468.461426,0.000000,2.000000,52.000000,,,,0.000000,4.000000,4.000000,4.000000,4.000000,4.000000,4.000000,4.000000,4.000000,4.000000,4.000000,4.000000,4.000000,4.000000,4.000000,100.000000,,,,,,,,,,,,,,,,,12.000000,0.000000,0.687606,0.201050,-0.654175,0.242554,0.982053,-0.033696,0.068368,-15.049120,-41.572212,65.906845
1703415807.385557,1703415807.386324,49.000000,0.000000,4198.846191,4301.538574,4279.230957,4245.897461,4257.307617,4241.410156,4264.871582,4208.846191,4193.589844,4201.666504,4541.922852,4456.025879,4166.922852,4455.512695,0.000000,2.000000,52.000000,,,,0.000000,4.000000,4.000000,4.000000,4.000000,4.000000,4.000000,4.000000,4.000000,4.000000,4.000000,4.000000,4.000000,4.000000,4.000000,100.000000,,,,,,,,,,,,,,,,,,,,,,,,,,,,
1703415807.393365,1703415807.394133,50.000000,0.000000,4206.025879,4294.871582,4279.615234,4245.512695,4260.000000,4243.717773,4265.512695,4205.512695,4186.282227,4193.205078,4536.153809,4461.025879,4158.974121,4453.974121,0.000000,2.000000,52.000000,,,,0.000000,4.000000,4.000000,4.000000,4.000000,4.000000,4.000000,4.000000,4.000000,4.000000,4.000000,4.000000,4.000000,4.000000,4.000000,100.000000,,,,,,,,,,,,,,,,,,,,,,,,,,,,
1703415807.401173,1703415807.402041,51.000000,0.000000,4198.461426,4296.666504,4277.563965,4249.615234,4251.922852,4247.179688,4262.179688,4206.282227,4187.948730,4187.948730,4529.615234,4459.230957,4155.512695,4456.282227,0.000000,2.000000,52.000000,,,,0.000000,4.000000,4.000000,4.000000,4.000000,4.000000,4.000000,4.000000,4.000000,4.000000,4.000000,4.000000,4.000000,4.000000,4.000000,100.000000,,,,,,,,,,,,,,,,,,,,,,,,,,,,
1703415807.408981,1703415807.409849,52.000000,0.000000,4193.846191,4296.666504,4276.410156,4250.384766,4252.820313,4247.307617,4260.897461,4212.820313,4194.102539,4190.384766,4536.410156,4450.128418,4157.307617,4453.461426,0.000000,2.000000,52.000000,,,,0.000000,4.000000,4.000000,4.000000,4.000000,4.000000,4.000000,4.000000,4.000000,4.000000,4.000000,4.000000,4.000000,4.000000,4.000000,100.000000,,,,,,,,,,,,,,,,,13.000000,0.000000,0.687723,0.201416,-0.654053,0.242249,0.991820,-0.042974,0.057136,-15.127542,-41.698322,65.916161
1703415807.416789,1703415807.417757,53.000000,0.000000,4199.358887,4292.692383,4276.794922,4249.743652,4265.256348,4248.077148,4264.871582,4218.589844,4201.282227,4194.615234,4545.128418,4448.205078,4160.000000,4450.128418,0.000000,2.000000,52.000000,,,,0.000000,4.000000,4.000000,4.000000,4.000000,4.000000,4.000000,4.000000,4.000000,4.000000,4.000000,4.000000,4.000000,4.000000,4.000000,100.000000,,,,,,,,,,,,,,,,,,,,,,,,,,,,
1703415807.424597,1703415807.425565,54.000000,0.000000,4191.282227,4284.743652,4275.384766,4248.333496,4254.743652,4241.025879,4259.358887,4213.461426,4197.307617,4193.333496,4537.307617,4448.205078,4157.948730,4447.563965,0.000000,2.000000,52.000000,,,,0.000000,4.000000,4.000000,4.000000,4.000000,4.000000,4.000000,4.000000,4.000000,4.000000,4.000000,4.000000,4.000000,4.000000,4.000000,100.000000,,,,,,,,,,,,,,,,,,,,,,,,,,,,
1703415807.432405,1703415807.433473,55.000000,0.000000,4175.000000,4275.897461,4273.077148,4248.717773,4242.436035,4230.512695,4251.153809,4202.563965,4185.512695,4186.538574,4522.307617,4441.538574,4145.512695,4443.077148,0.000000,2.000000,52.000000,,,,0.000000,4.000000,4.000000,4.000000,4.000000,4.000000,4.000000,4.000000,4.000000,4.000000,4.000000,4.000000,4.000000,4.000000,4.000000,100.000000,,,,,,,,,,,,,,,,,,,,,,,,,,,,
1703415807.440213,1703415807.441282,56.000000,0.000000,4172.179688,4280.000000,4273.846191,4252.692383,4263.846191,4238.333496,4258.846191,4199.871582,4186.282227,4183.974121,4525.384766,4443.077148,4143.077148,4439.358887,0.000000,2.000000,52.000000,,,,0.000000,4.000000,4.000000,4.000000,4.000000,4.000000,4.000000,4.000000,4.000000,4.000000,4.000000,4.000000,4.000000,4.000000,4.000000,100.000000,,,,,,,,,,,,,,,,,14.000000,0.000000,0.687915,0.201721,-0.653870,0.241943,0.989867,-0.041997,0.062508,-15.181454,-41.595158,65.941216
1703415807.448021,1703415807.449090,57.000000,0.000000,4175.256348,4283.205078,4272.051270,4253.589844,4275.769043,4253.974121,4269.102539,4204.615234,4188.974121,4190.384766,4537.307617,4447.307617,4156.282227,4435.641113,0.000000,2.000000,52.000000,,,,0.000000,4.000000,4.000000,4.000000,4.000000,4.000000,4.000000,4.000000,4.000000,4.000000,4.000000,4.000000,4.000000,4.000000,4.000000,100.000000,,,,,,,,,,,,,,,,,,,,,,,,,,,,
1703415807.455829,1703415807.456898,58.000000,0.000000,4170.641113,4267.051270,4266.025879,4246.410156,4249.871582,4246.025879,4262.948730,4201.922852,4184.102539,4192.436035,4529.358887,4445.897461,4158.589844,4427.179688,0.000000,2.000000,52.000000,,,,0.000000,4.000000,4.000000,4.000000,4.000000,4.000000,4.000000,4.000000,4.000000,4.000000,4.000000,4.000000,4.000000,4.000000,4.000000,100.000000,,,,,,,,,,,,,,,,,,,,,,,,,,,,
1703415807.463637,1703415807.464606,59.000000,0.000000,4174.230957,4265.256348,4267.436035,4245.641113,4242.051270,4230.000000,4257.307617,4199.743652,4184.615234,4189.743652,4513.846191,4444.358887,4149.743652,4427.820313,0.000000,2.000000,52.000000,,,,0.000000,4.000000,4.000000,4.000000,4.000000,4.000000,4.000000,4.000000,4.000000,4.000000,4.000000,4.000000,4.000000,4.000000,4.000000,100.000000,,,,,,,,,,,,,,,,,,,,,,,,,,,,
1703415807.471445,1703415807.472514,60.000000,0.000000,4186.666504,4282.436035,4276.666504,4253.333496,4260.512695,4237.051270,4262.307617,4208.205078,4190.897461,4193.205078,4524.102539,4445.641113,4151.410156,4438.205078,0.000000,2.000000,52.000000,,,,0.000000,4.000000,4.000000,4.000000,4.000000,4.000000,4.000000,4.000000,4.000000,4.000000,4.000000,4.000000,4.000000,4.000000,4.000000,100.000000,,,,,,,,,,,,,,,,,15.000000,0.000000,0.687947,0.201904,-0.653870,0.241699,1.000122,-0.024905,0.072763,-15.163308,-41.718975,65.897095
1703415807.479253,1703415807.480322,61.000000,0.000000,4184.102539,4277.307617,4281.538574,4252.948730,4270.384766,4248.461426,4266.153809,4216.538574,4197.307617,4198.846191,4541.538574,4451.666504,4157.820313,4445.384766,0.000000,2.000000,52.000000,,,,0.000000,4.000000,4.000000,4.000000,4.000000,4.000000,4.000000,4.000000,4.000000,4.000000,4.000000,4.000000,4.000000,4.000000,4.000000,100.000000,,,,,,,,,,,,,,,,,,,,,,,,,,,,
1703415807.487061,1703415807.488230,62.000000,0.000000,4170.384766,4259.358887,4278.589844,4246.922852,4261.922852,4240.000000,4265.512695,4217.563965,4198.717773,4192.179688,4539.230957,4455.256348,4154.358887,4444.230957,0.000000,2.000000,52.000000,,,,0.000000,4.000000,4.000000,4.000000,4.000000,4.000000,4.000000,4.000000,4.000000,4.000000,4.000000,4.000000,4.000000,4.000000,4.000000,100.000000,,,,,,,,,,,,,,,,,,,,,,,,,,,,
1703415807.494869,1703415807.496038,63.000000,0.000000,4167.436035,4260.641113,4273.717773,4248.333496,4247.179688,4228.077148,4261.282227,4217.307617,4196.282227,4189.102539,4533.589844,4448.846191,4151.794922,4439.358887,0.000000,2.000000,52.000000,,,,0.000000,4.000000,4.000000,4.000000,4.000000,4.000000,4.000000,4.000000,4.000000,4.000000,4.000000,4.000000,4.000000,4.000000,4.000000,100.000000,,,,,,,,,,,,,,,,,,,,,,,,,,,,
1703415807.502677,1703415807.503846,64.000000,0.000000,4172.563965,4267.307617,4274.487305,4251.538574,4247.948730,4230.769043,4259.358887,4215.897461,4192.307617,4197.179688,4533.717773,4446.922852,4156.025879,4436.922852,5539.000000,2.000000,52.000000,,,,0.000000,4.000000,4.000000,4.000000,4.000000,4.000000,4.000000,4.000000,4.000000,4.000000,4.000000,4.000000,4.000000,4.000000,4.000000,100.000000,,,,,,,,,,,,,,,,,16.000000,0.000000,0.687867,0.201904,-0.653931,0.241760,0.991332,-0.038091,0.069833,-15.096977,-41.580410,65.824051
1703415807.510485,1703415807.511555,65.000000,0.000000,4166.153809,4256.538574,4276.538574,4246.410156,4250.384766,4235.769043,4259.871582,4207.692383,4187.563965,4187.179688,4525.512695,4448.717773,4154.615234,4428.717773,5499.000000,2.000000,52.000000,,,,0.000000,4.000000,4.000000,4.000000,4.000000,4.000000,4.000000,4.000000,4.000000,4.000000,4.000000,4.000000,4.000000,4.000000,4.000000,100.000000,,,,,,,,,,,,,,,,,,,,,,,,,,,,
1703415807.518294,1703415807.519362,66.000000,0.000000,4166.282227,4247.179688,4275.897461,4244.743652,4244.358887,4231.410156,4258.974121,4204.102539,4185.256348,4178.077148,4520.641113,4443.461426,4149.743652,4429.743652,5389.000000,2.000000,52.000000,,,,0.000000,4.000000,4.000000,4.000000,4.000000,4.000000,4.000000,4.000000,4.000000,4.000000,4.000000,4.000000,4.000000,4.000000,4.000000,100.000000,,,,,,,,,,,,,,,,,,,,,,,,,,,,
1703415807.526101,1703415807.527071,67.000000,0.000000,4183.461426,4258.717773,4276.922852,4256.666504,4252.820313,4233.333496,4259.487305,4211.282227,4185.769043,4200.128418,4532.563965,4447.692383,4157.051270,4444.487305,5340.000000,2.000000,52.000000,,,,0.000000,4.000000,4.000000,4.000000,4.000000,4.000000,4.000000,4.000000,4.000000,4.000000,4.000000,4.000000,4.000000,4.000000,4.000000,100.000000,,,,,,,,,,,,,,,,,,,,,,,,,,,,
1703415807.533909,1703415807.534879,68.000000,0.000000,4184.102539,4267.948730,4273.974121,4262.692383,4263.974121,4242.179688,4263.077148,4216.025879,4188.077148,4204.358887,4533.846191,4458.205078,4160.256348,4438.974121,5260.000000,2.000000,52.000000,,,,0.000000,4.000000,4.000000,4.000000,4.000000,4.000000,4.000000,4.000000,4.000000,4.000000,4.000000,4.000000,4.000000,4.000000,4.000000,100.000000,,,,,,,,,,,,,,,,,17.000000,0.000000,0.687882,0.201782,-0.653931,0.241821,0.984495,-0.029789,0.067391,-15.103947,-41.605701,65.824974
1703415807.541718,1703415807.542587,69.000000,0.000000,4174.615234,4255.641113,4269.358887,4253.717773,4254.358887,4240.769043,4261.410156,4216.666504,4195.256348,4186.282227,4528.205078,4460.512695,4155.000000,4425.512695,4848.000000,2.000000,52.000000,,,,0.000000,4.000000,4.000000,4.000000,4.000000,4.000000,4.000000,4.000000,4.000000,4.000000,4.000000,4.000000,4.000000,4.000000,4.000000,100.000000,,,,,,,,,,,,,,,,,,,,,,,,,,,,
1703415807.549526,1703415807.550395,70.000000,0.000000,4183.461426,4246.282227,4278.077148,4251.538574,4249.615234,4230.000000,4253.205078,4218.589844,4201.025879,4193.333496,4537.563965,4463.461426,4162.051270,4443.205078,3844.000000,2.000000,52.000000,,,,0.000000,4.000000,4.000000,4.000000,4.000000,4.000000,4.000000,4.000000,4.000000,4.000000,4.000000,4.000000,4.000000,4.000000,4.000000,100.000000,,,,,,,,,,,,,,,,,,,,,,,,,,,,
1703415807.557334,1703415807.558103,71.000000,0.000000,4192.307617,4250.384766,4281.922852,4263.846191,4256.922852,4228.461426,4248.333496,4218.333496,4196.922852,4206.153809,4545.256348,4464.358887,4172.820313,4464.615234,5275.000000,2.000000,52.000000,,,,0.000000,4.000000,4.000000,4.000000,4.000000,4.000000,4.000000,4.000000,4.000000,4.000000,4.000000,4.000000,4.000000,4.000000,4.000000,100.000000,,,,,,,,,,,,,,,,,,,,,,,,,,,,
1703415807.565142,1703415807.566011,72.000000,0.000000,4187.179688,4251.025879,4269.102539,4264.102539,4250.000000,4240.384766,4251.410156,4214.871582,4192.179688,4195.897461,4537.179688,4458.974121,4162.179688,4451.794922,5389.000000,2.000000,52.000000,,,,0.000000,4.000000,4.000000,4.000000,4.000000,4.000000,4.000000,4.000000,4.000000,4.000000,4.000000,4.000000,4.000000,4.000000,4.000000,100.000000,,,,,,,,,,,,,,,,,18.000000,0.000000,0.687968,0.201538,-0.653870,0.241943,0.995239,-0.045416,0.073739,-15.210218,-41.628468,65.942482
1703415807.572950,1703415807.573819,73.000000,0.000000,4187.436035,4245.256348,4269.230957,4250.512695,4246.025879,4248.974121,4255.128418,4215.897461,4194.358887,4191.922852,4534.743652,4461.025879,4150.769043,4436.922852,5338.000000,2.000000,52.000000,,,,0.000000,4.000000,4.000000,4.000000,4.000000,4.000000,4.000000,4.000000,4.000000,4.000000,4.000000,4.000000,4.000000,4.000000,4.000000,100.000000,,,,,,,,,,,,,,,,,,,,,,,,,,,,
1703415807.580758,1703415807.581727,74.000000,0.000000,4188.589844,4235.384766,4278.974121,4245.641113,4252.051270,4247.820313,4252.179688,4218.077148,4200.256348,4198.333496,4541.922852,4467.692383,4163.205078,4446.666504,5973.000000,2.000000,52.000000,,,,0.000000,4.000000,4.000000,4.000000,4.000000,4.000000,4.000000,4.000000,4.000000,4.000000,4.000000,4.000000,4.000000,4.000000,4.000000,100.000000,,,,,,,,,,,,,,,,,,,,,,,,,,,,
1703415807.588566,1703415807.589535,75.000000,0.000000,4183.717773,4231.410156,4276.794922,4251.410156,4249.358887,4246.282227,4250.256348,4216.538574,4203.717773,4199.358887,4540.000000,4463.461426,4173.974121,4459.743652,6274.000000,2.000000,52.000000,,,,0.000000,4.000000,4.000000,4.000000,4.000000,4.000000,4.000000,4.000000,4.000000,4.000000,4.000000,4.000000,4.000000,4.000000,4.000000,100.000000,,,,,,,,,,,,,,,,,,,,,,,,,,,,
1703415807.596374,1703415807.597443,76.000000,0.000000,4185.641113,4238.717773,4276.794922,4254.358887,4249.358887,4247.563965,4253.333496,4216.794922,4200.897461,4206.538574,4543.333496,4463.077148,4171.666504,4461.666504,6810.000000,2.000000,52.000000,,,,0.000000,4.000000,4.000000,4.000000,4.000000,4.000000,4.000000,4.000000,4.000000,4.000000,4.000000,4.000000,4.000000,4.000000,4.000000,100.000000,,,,,,,,,,,,,,,,,19.000000,0.000000,0.687947,0.201538,-0.653870,0.242004,0.989867,-0.052252,0.065438,-15.239197,-41.632286,65.981567
1703415807.604182,1703415807.605252,77.000000,0.000000,4190.512695,4240.128418,4278.077148,4253.333496,4253.461426,4246.666504,4251.794922,4215.384766,4201.410156,4211.794922,4550.641113,4467.436035,4171.794922,4456.666504,7337.000000,2.000000,52.000000,,,,0.000000,4.000000,4.000000,4.000000,4.000000,4.000000,4.000000,4.000000,4.000000,4.000000,4.000000,4.000000,4.000000,4.000000,4.000000,100.000000,,,,,,,,,,,,,,,,,,,,,,,,,,,,
1703415807.611990,1703415807.613060,78.000000,0.000000,4186.153809,4229.358887,4269.871582,4251.410156,4249.102539,4243.974121,4248.205078,4207.692383,4198.333496,4196.794922,4536.538574,4457.307617,4167.692383,4446.025879,5973.000000,2.000000,52.000000,,,,0.000000,4.000000,4.000000,4.000000,4.000000,4.000000,4.000000,4.000000,4.000000,4.000000,4.000000,4.000000,4.000000,4.000000,4.000000,100.000000,,,,,,,,,,,,,,,,,,,,,,,,,,,,
1703415807.619798,1703415807.620868,79.000000,0.000000,4174.102539,4219.871582,4262.820313,4244.102539,4247.179688,4246.025879,4249.230957,4205.384766,4188.077148,4181.922852,4516.153809,4450.128418,4154.358887,4437.436035,6274.000000,2.000000,52.000000,,,,0.000000,4.000000,4.000000,4.000000,4.000000,4.000000,4.000000,4.000000,4.000000,4.000000,4.000000,4.000000,4.000000,4.000000,4.000000,100.000000,,,,,,,,,,,,,,,,,,,,,,,,,,,,
1703415807.627606,1703415807.628676,80.000000,0.000000,4168.461426,4217.692383,4265.128418,4240.641113,4247.820313,4249.743652,4251.153809,4211.922852,4191.922852,4182.820313,4521.410156,4453.333496,4150.000000,4439.230957,6810.000000,2.000000,52.000000,,,,0.000000,4.000000,4.000000,4.000000,4.000000,4.000000,4.000000,4.000000,4.000000,4.000000,4.000000,4.000000,4.000000,4.000000,4.000000,100.000000,,,,,,,,,,,,,,,,,20.000000,0.000000,0.688022,0.201355,-0.653870,0.241943,0.999634,-0.042974,0.071786,-15.265277,-41.669056,66.150078
1703415807.635414,1703415807.636484,81.000000,0.000000,4172.692383,4221.666504,4263.461426,4244.102539,4239.743652,4248.077148,4249.743652,4212.307617,4202.051270,4192.051270,4537.948730,4449.743652,4159.615234,4440.512695,7337.000000,2.000000,52.000000,,,,0.000000,4.000000,4.000000,4.000000,4.000000,4.000000,4.000000,4.000000,4.000000,4.000000,4.000000,4.000000,4.000000,4.000000,4.000000,100.000000,,,,,,,,,,,,,,,,,,,,,,,,,,,,
1703415807.643222,1703415807.644193,82.000000,0.000000,4171.794922,4227.436035,4261.666504,4244.871582,4237.948730,4248.205078,4249.230957,4209.871582,4200.512695,4202.307617,4541.153809,4449.615234,4168.461426,4443.589844,5973.000000,2.000000,52.000000,,,,0.000000,4.000000,4.000000,4.000000,4.000000,4.000000,4.000000,4.000000,4.000000,4.000000,4.000000,4.000000,4.000000,4.000000,4.000000,100.000000,,,,,,,,,,,,,,,,,,,,,,,,,,,,
1703415807.651030,1703415807.652000,83.000000,0.000000,4165.384766,4227.563965,4270.256348,4249.230957,4247.948730,4256.666504,4250.769043,4215.384766,4199.102539,4205.769043,4539.230957,4461.282227,4172.436035,4457.820313,6274.000000,2.000000,52.000000,,,,0.000000,4.000000,4.000000,4.000000,4.000000,4.000000,4.000000,4.000000,4.000000,4.000000,4.000000,4.000000,4.000000,4.000000,4.000000,100.000000,,,,,,,,,,,,,,,,,,,,,,,,,,,,
1703415807.658838,1703415807.659709,84.000000,0.000000,4170.000000,4222.948730,4273.846191,4254.358887,4252.307617,4257.307617,4251.922852,4219.102539,4202.436035,4202.179688,4539.487305,4464.230957,4172.179688,4465.384766,6810.000000,2.000000,52.000000,,,,0.000000,4.000000,4.000000,4.000000,4.000000,4.000000,4.000000,4.000000,4.000000,4.000000,4.000000,4.000000,4.000000,4.000000,4.000000,100.000000,1.000000,41.666668,3.000000,1.000000,4.000000,3.000000,4.000000,3.000000,4.000000,4.000000,4.000000,4.000000,4.000000,4.000000,1.000000,4.000000,21.000000,0.000000,0.688054,0.201172,-0.653870,0.242004,0.989867,-0.045416,0.062996,-15.288750,-41.752151,66.135071
1703415807.666646,1703415807.667517,85.000000,0.000000,4181.153809,4218.205078,4265.128418,4251.410156,4253.077148,4246.538574,4251.410156,4214.358887,4200.256348,4199.230957,4537.051270,4454.487305,4168.205078,4452.307617,7337.000000,2.000000,52.000000,,,,0.000000,4.000000,4.000000,4.000000,4.000000,4.000000,4.000000,4.000000,4.000000,4.000000,4.000000,4.000000,4.000000,4.000000,4.000000,100.000000,,,,,,,,,,,,,,,,,,,,,,,,,,,,
1703415807.674455,1703415807.675225,86.000000,0.000000,4182.948730,4219.358887,4259.230957,4249.358887,4257.820313,4243.461426,4250.897461,4211.025879,4198.846191,4199.871582,4534.102539,4451.538574,4168.717773,4443.846191,5973.000000,2.000000,52.000000,,,,0.000000,4.000000,4.000000,4.000000,4.000000,4.000000,4.000000,4.000000,4.000000,4.000000,4.000000,4.000000,4.000000,4.000000,4.000000,100.000000,,,,,,,,,,,,,,,,,,,,,,,,,,,,
1703415807.682263,1703415807.683033,87.000000,0.000000,4181.538574,4222.820313,4266.282227,4253.077148,4257.692383,4249.102539,4252.692383,4215.512695,4202.820313,4205.384766,4541.666504,4465.128418,4182.179688,4457.692383,6274.000000,2.000000,52.000000,,,,0.000000,4.000000,4.000000,4.000000,4.000000,4.000000,4.000000,4.000000,4.000000,4.000000,4.000000,4.000000,4.000000,4.000000,4.000000,100.000000,,,,,,,,,,,,,,,,,,,,,,,,,,,,
1703415807.690071,1703415807.690741,88.000000,0.000000,4186.794922,4216.794922,4273.461426,4250.641113,4245.384766,4248.846191,4252.563965,4216.025879,4197.436035,4202.179688,4542.051270,4475.384766,4184.358887,4464.358887,6810.000000,2.000000,52.000000,,,,0.000000,4.000000,4.000000,4.000000,4.000000,4.000000,4.000000,4.000000,4.000000,4.000000,4.000000,4.000000,4.000000,4.000000,4.000000,100.000000,,,,,,,,,,,,,,,,,22.000000,0.000000,0.688127,0.201172,-0.653748,0.242126,0.992309,-0.040044,0.065438,-15.276541,-41.726936,66.138229
1703415807.697879,1703415807.698549,89.000000,0.000000,4184.615234,4212.307617,4267.563965,4249.102539,4235.256348,4246.922852,4249.358887,4205.897461,4188.461426,4188.205078,4526.666504,4464.487305,4167.179688,4448.846191,7337.000000,2.000000,52.000000,,,,0.000000,4.000000,4.000000,4.000000,4.000000,4.000000,4.000000,4.000000,4.000000,4.000000,4.000000,4.000000,4.000000,4.000000,4.000000,100.000000,,,,,,,,,,,,,,,,,,,,,,,,,,,,
1703415807.705687,1703415807.706257,90.000000,0.000000,4173.461426,4217.179688,4260.256348,4252.307617,4240.000000,4247.948730,4254.487305,4205.641113,4193.717773,4185.897461,4528.589844,4455.128418,4168.589844,4445.512695,5973.000000,2.000000,52.000000,,,,0.000000,4.000000,4.000000,4.000000,4.000000,4.000000,4.000000,4.000000,4.000000,4.000000,4.000000,4.000000,4.000000,4.000000,4.000000,100.000000,,,,,,,,,,,,,,,,,,,,,,,,,,,,
1703415807.713495,1703415807.714065,91.000000,0.000000,4177.692383,4221.153809,4261.666504,4250.641113,4253.717773,4248.461426,4261.153809,4213.846191,4201.282227,4197.436035,4543.333496,4461.410156,4187.051270,4460.897461,6274.000000,2.000000,52.000000,,,,0.000000,4.000000,4.000000,4.000000,4.000000,4.000000,4.000000,4.000000,4.000000,4.000000,4.000000,4.000000,4.000000,4.000000,4.000000,100.000000,,,,,,,,,,,,,,,,,,,,,,,,,,,,
1703415807.721303,1703415807.721773,92.000000,0.000000,4188.461426,4214.871582,4264.102539,4251.025879,4253.205078,4249.358887,4254.871582,4208.974121,4197.563965,4202.307617,4540.000000,4465.641113,4187.436035,4464.487305,6810.000000,2.000000,52.000000,,,,0.000000,4.000000,4.000000,4.000000,4.000000,4.000000,4.000000,4.000000,4.000000,4.000000,4.000000,4.000000,4.000000,4.000000,4.000000,100.000000,,,,,,,,,,,,,,,,,23.000000,0.000000,0.688070,0.201294,-0.653748,0.242188,0.991820,-0.037114,0.062019,-15.232221,-41.737576,66.224403
1703415807.729111,1703415807.729581,93.000000,0.000000,4186.538574,4204.871582,4262.563965,4252.692383,4238.974121,4244.358887,4247.436035,4201.025879,4194.615234,4195.769043,4533.846191,4464.743652,4175.641113,4458.974121,7337.000000,2.000000,52.000000,,,,0.000000,4.000000,4.000000,4.000000,4.000000,4.000000,4.000000,4.000000,4.000000,4.000000,4.000000,4.000000,4.000000,4.000000,4.000000,100.000000,,,,,,,,,,,,,,,,,,,,,,,,,,,,
1703415807.736919,1703415807.737289,94.000000,0.000000,4180.384766,4201.922852,4264.871582,4247.948730,4240.256348,4234.487305,4250.256348,4207.948730,4199.102539,4192.307617,4541.666504,4466.153809,4179.102539,4460.256348,5973.000000,2.000000,52.000000,,,,0.000000,4.000000,4.000000,4.000000,4.000000,4.000000,4.000000,4.000000,4.000000,4.000000,4.000000,4.000000,4.000000,4.000000,4.000000,100.000000,,,,,,,,,,,,,,,,,,,,,,,,,,,,
1703415807.744727,1703415807.745097,95.000000,0.000000,4177.436035,4203.333496,4264.102539,4243.846191,4250.128418,4231.538574,4251.794922,4213.461426,4203.589844,4197.692383,4545.512695,4463.589844,4188.333496,4460.256348,6274.000000,2.000000,52.000000,,,,0.000000,4.000000,4.000000,4.000000,4.000000,4.000000,4.000000,4.000000,4.000000,4.000000,4.000000,4.000000,4.000000,4.000000,4.000000,100.000000,,,,,,,,,,,,,,,,,,,,,,,,,,,,
1703415807.752535,1703415807.752805,96.000000,0.000000,4178.974121,4202.563965,4258.333496,4248.333496,4244.230957,4239.230957,4248.461426,4205.769043,4197.563965,4202.563965,4537.179688,4455.641113,4182.563965,4455.256348,6810.000000,2.000000,52.000000,,,,0.000000,4.000000,4.000000,4.000000,4.000000,4.000000,4.000000,4.000000,4.000000,4.000000,4.000000,4.000000,4.000000,4.000000,4.000000,100.000000,,,,,,,,,,,,,,,,,24.000000,0.000000,0.688181,0.201111,-0.653687,0.242188,0.989379,-0.044927,0.047369,-15.258998,-41.730484,66.035301
1703415807.760343,1703415807.760713,97.000000,0.000000,4185.128418,4198.974121,4258.974121,4248.461426,4229.871582,4239.615234,4247.307617,4198.846191,4186.282227,4198.333496,4533.846191,4454.358887,4175.384766,4457.179688,7337.000000,2.000000,52.000000,,,,0.000000,4.000000,4.000000,4.000000,4.000000,4.000000,4.000000,4.000000,4.000000,4.000000,4.000000,4.000000,4.000000,4.000000,4.000000,100.000000,,,,,,,,,,,,,,,,,,,,,,,,,,,,
1703415807.768151,1703415807.768521,98.000000,0.000000,4186.282227,4196.025879,4261.410156,4243.589844,4229.487305,4230.384766,4248.461426,4199.871582,4189.615234,4196.153809,4537.179688,4462.948730,4182.436035,4460.384766,5973.000000,2.000000,52.000000,,,,0.000000,4.000000,4.000000,4.000000,4.000000,4.000000,4.000000,4.000000,4.000000,4.000000,4.000000,4.000000,4.000000,4.000000,4.000000,100.000000,,,,,,,,,,,,,,,,,,,,,,,,,,,,
1703415807.775959,1703415807.776429,99.000000,0.000000,4180.641113,4196.025879,4261.538574,4251.666504,4239.230957,4227.948730,4247.563965,4201.025879,4198.846191,4203.717773,4537.820313,4462.307617,4188.589844,4456.794922,6274.000000,2.000000,52.000000,,,,0.000000,4.000000,4.000000,4.000000,4.000000,4.000000,4.000000,4.000000,4.000000,4.000000,4.000000,4.000000,4.000000,4.000000,4.000000,100.000000,,,,,,,,,,,,,,,,,,,,,,,,,,,,
1703415807.783767,1703415807.784237,100.000000,0.000000,4182.948730,4199.615234,4263.333496,4264.487305,4243.589844,4231.025879,4247.563965,4201.153809,4199.230957,4207.692383,4546.153809,4455.512695,4192.307617,4463.717773,6810.000000,2.000000,52.000000,,,,0.000000,4.000000,4.000000,4.000000,4.000000,4.000000,4.000000,4.000000,4.000000,4.000000,4.000000,4.000000,4.000000,4.000000,4.000000,100.000000,,,,,,,,,,,,,,,,,25.000000,0.000000,0.688158,0.200867,-0.653809,0.242126,1.002075,-0.041021,0.068368,-15.366432,-41.640770,66.031769
1703415807.791575,1703415807.792146,101.000000,0.000000,4194.358887,4201.025879,4265.769043,4263.077148,4248.974121,4234.871582,4256.153809,4204.487305,4201.666504,4205.128418,4556.794922,4465.256348,4205.512695,4480.000000,7337.000000,2.000000,52.000000,,,,0.000000,4.000000,4.000000,4.000000,4.000000,4.000000,4.000000,4.000000,4.000000,4.000000,4.000000,4.000000,4.000000,4.000000,4.000000,100.000000,,,,,,,,,,,,,,,,,,,,,,,,,,,,
1703415807.799383,1703415807.799954,102.000000,0.000000,4199.358887,4197.179688,4260.256348,4250.641113,4246.153809,4235.641113,4260.384766,4203.461426,4203.461426,4205.384766,4548.333496,4473.333496,4203.589844,4477.179688,5973.000000,2.000000,52.000000,,,,0.000000,4.000000,4.000000,4.000000,4.000000,4.000000,4.000000,4.000000,4.000000,4.000000,4.000000,4.000000,4.000000,4.000000,4.000000,100.000000,,,,,,,,,,,,,,,,,,,,,,,,,,,,
1703415807.807191,1703415807.807862,103.000000,0.000000,4199.102539,4199.487305,4259.102539,4250.256348,4237.307617,4235.384766,4253.974121,4203.333496,4200.256348,4211.282227,4542.820313,4471.922852,4196.538574,4470.256348,6274.000000,2.000000,52.000000,,,,0.000000,4.000000,4.000000,4.000000,4.000000,4.000000,4.000000,4.000000,4.000000,4.000000,4.000000,4.000000,4.000000,4.000000,4.000000,100.000000,,,,,,,,,,,,,,,,,,,,,,,,,,,,
1703415807.814999,1703415807.815670,104.000000,0.000000,4201.666504,4204.615234,4270.641113,4255.641113,4235.128418,4235.512695,4250.256348,4208.717773,4201.538574,4213.461426,4555.897461,4476.922852,4205.769043,4478.333496,6810.000000,2.000000,52.000000,,,,0.000000,4.000000,4.000000,4.000000,4.000000,4.000000,4.000000,4.000000,4.000000,4.000000,4.000000,4.000000,4.000000,4.000000,4.000000,100.000000,,,,,,,,,,,,,,,,,26.000000,0.000000,0.688151,0.200745,-0.653809,0.242249,0.984007,-0.052252,0.068368,-15.313122,-41.543362,65.961922
1703415807.822807,1703415807.823577,105.000000,0.000000,4201.922852,4200.000000,4271.666504,4251.153809,4237.051270,4233.589844,4250.384766,4207.563965,4201.794922,4211.794922,4560.512695,4475.384766,4209.102539,4479.743652,7337.000000,2.000000,52.000000,,,,0.000000,4.000000,4.000000,4.000000,4.000000,4.000000,4.000000,4.000000,4.000000,4.000000,4.000000,4.000000,4.000000,4.000000,4.000000,100.000000,,,,,,,,,,,,,,,,,,,,,,,,,,,,
1703415807.830616,1703415807.831385,106.000000,0.000000,4203.717773,4196.538574,4262.307617,4254.358887,4243.461426,4233.461426,4249.102539,4202.436035,4198.077148,4206.922852,4549.487305,4467.179688,4203.717773,4475.000000,5973.000000,2.000000,52.000000,,,,0.000000,4.000000,4.000000,4.000000,4.000000,4.000000,4.000000,4.000000,4.000000,4.000000,4.000000,4.000000,4.000000,4.000000,4.000000,100.000000,,,,,,,,,,,,,,,,,,,,,,,,,,,,
1703415807.838424,1703415807.839093,107.000000,0.000000,4219.743652,4202.436035,4267.179688,4265.000000,4248.589844,4235.512695,4250.384766,4204.615234,4201.410156,4194.615234,4540.384766,4472.948730,4210.000000,4486.025879,6274.000000,2.000000,52.000000,,,,0.000000,4.000000,4.000000,4.000000,4.000000,4.000000,4.000000,4.000000,4.000000,4.000000,4.000000,4.000000,4.000000,4.000000,4.000000,100.000000,,,,,,,,,,,,,,,,,,,,,,,,,,,,
1703415807.846232,1703415807.846901,108.000000,0.000000,4247.307617,4205.000000,4279.487305,4264.102539,4239.358887,4229.615234,4249.871582,4206.153809,4203.717773,4191.153809,4548.589844,4484.230957,4222.179688,4505.897461,6810.000000,2.000000,52.000000,,,,0.000000,4.000000,4.000000,4.000000,4.000000,4.000000,4.000000,4.000000,4.000000,4.000000,4.000000,4.000000,4.000000,4.000000,4.000000,100.000000,,,,,,,,,,,,,,,,,27.000000,0.000000,0.688176,0.200562,-0.653748,0.242493,0.994262,-0.041509,0.072274,-15.265143,-41.489025,65.865730
1703415807.854040,1703415807.854610,109.000000,0.000000,4272.820313,4206.794922,4280.000000,4258.846191,4226.410156,4225.128418,4246.282227,4200.384766,4198.974121,4204.230957,4564.743652,4479.615234,4230.512695,4519.102539,7337.000000,2.000000,52.000000,,,,0.000000,4.000000,4.000000,4.000000,4.000000,4.000000,4.000000,4.000000,4.000000,4.000000,4.000000,4.000000,4.000000,4.000000,4.000000,100.000000,,,,,,,,,,,,,,,,,,,,,,,,,,,,
1703415807.861848,1703415807.862418,110.000000,0.000000,4288.717773,4213.333496,4278.333496,4262.948730,4229.871582,4230.897461,4248.077148,4199.871582,4199.230957,4209.871582,4565.256348,4476.410156,4242.051270,4530.128418,5973.000000,2.000000,52.000000,,,,0.000000,4.000000,4.000000,4.000000,4.000000,4.000000,4.000000,4.000000,4.000000,4.000000,4.000000,4.000000,4.000000,4.000000,4.000000,100.000000,,,,,,,,,,,,,,,,,,,,,,,,,,,,
1703415807.869656,1703415807.870126,111.000000,0.000000,4303.974121,4218.589844,4284.487305,4264.615234,4238.846191,4227.948730,4249.102539,4204.358887,4200.384766,4192.436035,4558.589844,4488.205078,4245.256348,4540.128418,6274.000000,2.000000,52.000000,,,,0.000000,4.000000,4.000000,4.000000,4.000000,4.000000,4.000000,4.000000,4.000000,4.000000,4.000000,4.000000,4.000000,4.000000,4.000000,100.000000,,,,,,,,,,,,,,,,,,,,,,,,,,,,
1703415807.877464,1703415807.877934,112.000000,0.000000,4320.897461,4216.666504,4292.307617,4262.307617,4230.256348,4220.512695,4245.769043,4197.692383,4191.025879,4182.179688,4558.717773,4490.512695,4234.871582,4543.974121,6810.000000,2.000000,52.000000,,,,0.000000,4.000000,4.000000,4.000000,4.000000,4.000000,4.000000,4.000000,4.000000,4.000000,4.000000,4.000000,4.000000,4.000000,4.000000,100.000000,,,,,,,,,,,,,,,,,28.000000,0.000000,0.688252,0.200500,-0.653687,0.242493,1.007936,-0.051764,0.062508,-15.221962,-41.440121,66.012489
1703415807.885272,1703415807.885642,113.000000,0.000000,4323.589844,4207.563965,4296.538574,4263.846191,4220.641113,4225.256348,4246.153809,4191.282227,4180.769043,4193.717773,4554.743652,4485.897461,4234.102539,4545.256348,7337.000000,2.000000,52.000000,,,,0.000000,4.000000,4.000000,4.000000,4.000000,4.000000,4.000000,4.000000,4.000000,4.000000,4.000000,4.000000,4.000000,4.000000,4.000000,100.000000,,,,,,,,,,,,,,,,,,,,,,,,,,,,
1703415807.893080,1703415807.893450,114.000000,0.000000,4310.128418,4205.897461,4296.025879,4261.282227,4228.846191,4235.128418,4248.589844,4197.948730,4185.000000,4201.666504,4556.666504,4490.384766,4245.000000,4544.102539,5973.000000,2.000000,52.000000,,,,0.000000,4.000000,4.000000,4.000000,4.000000,4.000000,4.000000,4.000000,4.000000,4.000000,4.000000,4.000000,4.000000,4.000000,4.000000,100.000000,,,,,,,,,,,,,,,,,,,,,,,,,,,,
1703415807.900888,1703415807.901158,115.000000,0.000000,4304.102539,4215.384766,4295.512695,4262.948730,4248.589844,4242.436035,4249.615234,4206.410156,4197.692383,4208.717773,4572.051270,4495.000000,4251.538574,4541.153809,6274.000000,2.000000,52.000000,,,,0.000000,4.000000,4.000000,4.000000,4.000000,4.000000,4.000000,4.000000,4.000000,4.000000,4.000000,4.000000,4.000000,4.000000,4.000000,100.000000,,,,,,,,,,,,,,,,,,,,,,,,,,,,
1703415807.908696,1703415807.909066,116.000000,0.000000,4300.384766,4214.358887,4293.077148,4272.179688,4252.436035,4239.358887,4249.358887,4205.897461,4202.948730,4216.538574,4574.230957,4495.641113,4245.641113,4538.077148,6810.000000,2.000000,52.000000,,,,0.000000,4.000000,4.000000,4.000000,4.000000,4.000000,4.000000,4.000000,4.000000,4.000000,4.000000,4.000000,4.000000,4.000000,4.000000,100.000000,,,,,,,,,,,,,,,,,29.000000,0.000000,0.688256,0.200562,-0.653687,0.242432,0.992309,-0.044927,0.068856,-15.416432,-41.329441,66.094574
1703415807.916504,1703415807.916874,117.000000,0.000000,4281.153809,4199.102539,4292.436035,4272.820313,4234.102539,4231.282227,4247.179688,4201.538574,4195.000000,4201.922852,4557.820313,4494.487305,4238.077148,4531.794922,7337.000000,2.000000,52.000000,,,,0.000000,4.000000,4.000000,4.000000,4.000000,4.000000,4.000000,4.000000,4.000000,4.000000,4.000000,4.000000,4.000000,4.000000,4.000000,100.000000,,,,,,,,,,,,,,,,,,,,,,,,,,,,
1703415807.924312,1703415807.924782,118.000000,0.000000,4267.307617,4198.974121,4293.461426,4265.641113,4232.436035,4237.948730,4245.641113,4200.128418,4189.487305,4184.615234,4549.487305,4486.153809,4230.769043,4520.897461,5973.000000,2.000000,52.000000,,,,0.000000,4.000000,4.000000,4.000000,4.000000,4.000000,4.000000,4.000000,4.000000,4.000000,4.000000,4.000000,4.000000,4.000000,4.000000,100.000000,,,,,,,,,,,,,,,,,,,,,,,,,,,,
1703415807.932120,1703415807.932590,119.000000,0.000000,4263.333496,4206.794922,4281.666504,4265.512695,4248.205078,4251.794922,4253.974121,4201.922852,4196.922852,4200.128418,4557.820313,4478.205078,4231.922852,4512.948730,6274.000000,2.000000,52.000000,,,,0.000000,4.000000,4.000000,4.000000,4.000000,4.000000,4.000000,4.000000,4.000000,4.000000,4.000000,4.000000,4.000000,4.000000,4.000000,100.000000,,,,,,,,,,,,,,,,,,,,,,,,,,,,
1703415807.939928,1703415807.940498,120.000000,0.000000,4246.666504,4197.051270,4263.717773,4266.794922,4243.205078,4252.051270,4262.436035,4202.436035,4204.230957,4206.666504,4556.794922,4472.051270,4235.897461,4496.282227,6810.000000,2.000000,52.000000,,,,0.000000,4.000000,4.000000,4.000000,4.000000,4.000000,4.000000,4.000000,4.000000,4.000000,4.000000,4.000000,4.000000,4.000000,4.000000,100.000000,,,,,,,,,,,,,,,,,30.000000,0.000000,0.688273,0.200500,-0.653687,0.242432,0.994262,-0.038579,0.058113,-15.324789,-41.363167,66.035118
1703415807.947736,1703415807.948307,121.000000,0.000000,4229.615234,4184.615234,4260.128418,4260.256348,4230.256348,4248.717773,4255.897461,4199.358887,4199.230957,4189.487305,4540.000000,4460.769043,4226.922852,4481.538574,7337.000000,2.000000,52.000000,,,,0.000000,4.000000,4.000000,4.000000,4.000000,4.000000,4.000000,4.000000,4.000000,4.000000,4.000000,4.000000,4.000000,4.000000,4.000000,100.000000,,,,,,,,,,,,,,,,,,,,,,,,,,,,
1703415807.955544,1703415807.956215,122.000000,0.000000,4231.282227,4184.615234,4264.871582,4258.974121,4240.769043,4249.487305,4248.077148,4196.153809,4189.487305,4194.743652,4535.897461,4456.666504,4222.692383,4484.358887,5973.000000,2.000000,52.000000,,,,0.000000,4.000000,4.000000,4.000000,4.000000,4.000000,4.000000,4.000000,4.000000,4.000000,4.000000,4.000000,4.000000,4.000000,4.000000,100.000000,,,,,,,,,,,,,,,,,,,,,,,,,,,,
1703415807.963352,1703415807.964023,123.000000,0.000000,4232.820313,4191.282227,4265.128418,4268.205078,4253.333496,4250.641113,4252.051270,4191.410156,4186.153809,4207.820313,4542.051270,4461.282227,4231.666504,4485.897461,6274.000000,2.000000,52.000000,,,,0.000000,4.000000,4.000000,4.000000,4.000000,4.000000,4.000000,4.000000,4.000000,4.000000,4.000000,4.000000,4.000000,4.000000,4.000000,100.000000,,,,,,,,,,,,,,,,,,,,,,,,,,,,
1703415807.971161,1703415807.971931,124.000000,0.000000,4221.666504,4190.769043,4262.820313,4262.692383,4247.563965,4246.538574,4252.179688,4185.897461,4186.025879,4203.333496,4539.615234,4458.717773,4229.358887,4477.563965,6810.000000,2.000000,52.000000,,,,0.000000,4.000000,4.000000,4.000000,4.000000,4.000000,4.000000,4.000000,4.000000,4.000000,4.000000,4.000000,4.000000,4.000000,4.000000,100.000000,,,,,,,,,,,,,,,,,31.000000,0.000000,0.688260,0.200745,-0.653625,0.242432,0.984495,-0.049322,0.060554,-15.308977,-41.376850,66.048271
1703415807.978969,1703415807.979739,125.000000,0.000000,4211.794922,4180.000000,4261.153809,4248.333496,4242.436035,4235.512695,4245.256348,4189.358887,4185.897461,4197.563965,4533.589844,4454.102539,4216.025879,4470.128418,7337.000000,2.000000,52.000000,,,,0.000000,4.000000,4.000000,4.000000,4.000000,4.000000,4.000000,4.000000,4.000000,4.000000,4.000000,4.000000,4.000000,4.000000,4.000000,100.000000,,,,,,,,,,,,,,,,,,,,,,,,,,,,
1703415807.986776,1703415807.987647,126.000000,0.000000,4204.615234,4173.333496,4259.743652,4255.769043,4237.948730,4230.769043,4246.025879,4200.000000,4192.692383,4201.282227,4532.563965,4458.717773,4221.410156,4469.358887,5973.000000,2.000000,52.000000,,,,0.000000,4.000000,4.000000,4.000000,4.000000,4.000000,4.000000,4.000000,4.000000,4.000000,4.000000,4.000000,4.000000,4.000000,4.000000,100.000000,,,,,,,,,,,,,,,,,,,,,,,,,,,,
1703415807.994585,1703415807.995456,127.000000,0.000000,4201.153809,4173.974121,4261.922852,4266.282227,4231.666504,4235.128418,4250.000000,4207.436035,4202.307617,4202.948730,4535.512695,4467.563965,4230.641113,4471.282227,52.000000,2.000000,52.000000,,,,0.000000,4.000000,4.000000,4.000000,4.000000,4.000000,4.000000,4.000000,4.000000,4.000000,4.000000,4.000000,4.000000,4.000000,4.000000,100.000000,,,,,,,,,,,,,,,,,,,,,,,,,,,,
1703415808.002393,1703415808.003363,0.000000,0.000000,4204.871582,4167.948730,4261.922852,4253.974121,4227.692383,4232.051270,4247.051270,4205.256348,4197.179688,4194.230957,4540.128418,4462.307617,4213.589844,4466.025879,5536.000000,2.000000,52.000000,,,,0.000000,4.000000,4.000000,4.000000,4.000000,4.000000,4.000000,4.000000,4.000000,4.000000,4.000000,4.000000,4.000000,4.000000,4.000000,100.000000,,,,,,,,,,,,,,,,,0.000000,0.000000,0.688370,0.200745,-0.653442,0.242615,0.994262,-0.056648,0.069344,-15.128079,-41.339165,66.026779
1703415808.010201,1703415808.011171,1.000000,0.000000,4199.615234,4157.051270,4254.615234,4249.230957,4227.051270,4224.871582,4244.615234,4200.384766,4186.153809,4190.769043,4540.897461,4452.948730,4204.487305,4452.436035,5495.000000,2.000000,52.000000,,,,0.000000,4.000000,4.000000,4.000000,4.000000,4.000000,4.000000,4.000000,4.000000,4.000000,4.000000,4.000000,4.000000,4.000000,4.000000,100.000000,,,,,,,,,,,,,,,,,,,,,,,,,,,,
1703415808.018009,1703415808.018879,2.000000,0.000000,4187.563965,4156.666504,4247.436035,4264.102539,4235.128418,4230.384766,4249.102539,4200.128418,4186.666504,4193.974121,4530.641113,4455.128418,4214.358887,4448.846191,5390.000000,2.000000,52.000000,,,,0.000000,4.000000,4.000000,4.000000,4.000000,4.000000,4.000000,4.000000,4.000000,4.000000,4.000000,4.000000,4.000000,4.000000,4.000000,100.000000,,,,,,,,,,,,,,,,,,,,,,,,,,,,
1703415808.025817,1703415808.026687,3.000000,0.000000,4183.461426,4156.025879,4248.333496,4263.846191,4238.077148,4237.051270,4252.179688,4200.512695,4186.538574,4188.333496,4520.897461,4452.820313,4207.563965,4453.077148,5350.000000,2.000000,52.000000,,,,0.000000,4.000000,4.000000,4.000000,4.000000,4.000000,4.000000,4.000000,4.000000,4.000000,4.000000,4.000000,4.000000,4.000000,4.000000,100.000000,,,,,,,,,,,,,,,,,,,,,,,,,,,,
1703415808.033625,1703415808.034396,4.000000,0.000000,4185.897461,4150.897461,4252.179688,4256.025879,4229.358887,4233.589844,4249.743652,4199.871582,4187.179688,4187.948730,4527.436035,4447.820313,4201.538574,4456.025879,5257.000000,2.000000,52.000000,,,,0.000000,4.000000,4.000000,4.000000,4.000000,4.000000,4.000000,4.000000,4.000000,4.000000,4.000000,4.000000,4.000000,4.000000,4.000000,100.000000,,,,,,,,,,,,,,,,,1.000000,0.000000,0.688243,0.200684,-0.653503,0.242859,0.983518,-0.038091,0.068856,-15.298605,-41.405247,66.024101
1703415808.041433,1703415808.042203,5.000000,0.000000,4188.077148,4153.974121,4249.487305,4259.487305,4229.487305,4231.282227,4250.256348,4195.512695,4190.512695,4194.871582,4533.717773,4448.589844,4215.000000,4459.487305,4844.000000,2.000000,52.000000,,,,0.000000,4.000000,4.000000,4.000000,4.000000,4.000000,4.000000,4.000000,4.000000,4.000000,4.000000,4.000000,4.000000,4.000000,4.000000,100.000000,,,,,,,,,,,,,,,,,,,,,,,,,,,,
1703415808.049241,1703415808.049912,6.000000,0.000000,4183.974121,4156.282227,4244.487305,4261.025879,4237.692383,4231.666504,4251.025879,4190.769043,4189.102539,4189.871582,4528.717773,4443.461426,4221.025879,4456.410156,3847.000000,2.000000,52.000000,,,,0.000000,4.000000,4.000000,4.000000,4.000000,4.000000,4.000000,4.000000,4.000000,4.000000,4.000000,4.000000,4.000000,4.000000,4.000000,100.000000,,,,,,,,,,,,,,,,,,,,,,,,,,,,
1703415808.057049,1703415808.057820,7.000000,0.000000,4185.897461,4156.410156,4254.743652,4260.897461,4236.153809,4233.077148,4251.153809,4195.769043,4192.051270,4190.769043,4526.666504,4448.333496,4220.128418,4462.563965,5268.000000,2.000000,52.000000,,,,0.000000,4.000000,4.000000,4.000000,4.000000,4.000000,4.000000,4.000000,4.000000,4.000000,4.000000,4.000000,4.000000,4.000000,4.000000,100.000000,,,,,,,,,,,,,,,,,,,,,,,,,,,,
1703415808.064857,1703415808.065628,8.000000,0.000000,4192.948730,4159.358887,4264.615234,4263.717773,4228.846191,4233.205078,4250.128418,4199.871582,4193.077148,4198.461426,4524.871582,4460.641113,4220.897461,4472.692383,5384.000000,2.000000,52.000000,,,,0.000000,4.000000,4.000000,4.000000,4.000000,4.000000,4.000000,4.000000,4.000000,4.000000,4.000000,4.000000,4.000000,4.000000,4.000000,100.000000,,,,,,,,,,,,,,,,,2.000000,0.000000,0.688164,0.200684,-0.653564,0.242920,0.994750,-0.045416,0.062508,-15.168744,-41.364723,65.955025
1703415808.072665,1703415808.073436,9.000000,0.000000,4184.615234,4156.025879,4254.230957,4259.871582,4231.410156,4234.358887,4249.871582,4197.948730,4191.153809,4192.307617,4525.641113,4452.948730,4216.666504,4463.205078,5305.000000,2.000000,52.000000,,,,0.000000,4.000000,4.000000,4.000000,4.000000,4.000000,4.000000,4.000000,4.000000,4.000000,4.000000,4.000000,4.000000,4.000000,4.000000,100.000000,,,,,,,,,,,,,,,,,,,,,,,,,,,,
1703415808.080473,1703415808.081144,10.000000,0.000000,4174.615234,4149.102539,4250.512695,4256.410156,4237.692383,4242.436035,4253.589844,4205.641113,4196.153809,4192.307617,4540.128418,4440.512695,4220.256348,4456.922852,5936.000000,2.000000,52.000000,,,,0.000000,4.000000,4.000000,4.000000,4.000000,4.000000,4.000000,4.000000,4.000000,4.000000,4.000000,4.000000,4.000000,4.000000,4.000000,100.000000,,,,,,,,,,,,,,,,,,,,,,,,,,,,
1703415808.088281,1703415808.088952,11.000000,0.000000,4185.256348,4150.897461,4264.102539,4261.538574,4234.871582,4245.897461,4257.179688,4216.025879,4200.384766,4203.205078,4542.051270,4448.717773,4229.102539,4468.846191,6264.000000,2.000000,52.000000,,,,0.000000,4.000000,4.000000,4.000000,4.000000,4.000000,4.000000,4.000000,4.000000,4.000000,4.000000,4.000000,4.000000,4.000000,4.000000,100.000000,,,,,,,,,,,,,,,,,,,,,,,,,,,,
1703415808.096089,1703415808.096660,12.000000,0.000000,4197.692383,4157.179688,4266.025879,4267.051270,4234.871582,4238.461426,4256.153809,4218.077148,4200.384766,4202.948730,4532.436035,4460.897461,4232.051270,4475.256348,6800.000000,2.000000,52.000000,,,,0.000000,4.000000,4.000000,4.000000,4.000000,4.000000,4.000000,4.000000,4.000000,4.000000,4.000000,4.000000,4.000000,4.000000,4.000000,100.000000,,,,,,,,,,,,,,,,,3.000000,0.000000,0.688174,0.200500,-0.653564,0.243042,0.996215,-0.041997,0.071786,-14.951870,-41.244919,65.809525
1703415808.103897,1703415808.104468,13.000000,0.000000,4191.794922,4156.153809,4260.512695,4265.512695,4240.769043,4235.641113,4252.307617,4218.589844,4204.230957,4207.051270,4543.974121,4458.846191,4239.871582,4472.563965,7344.000000,2.000000,52.000000,,,,0.000000,4.000000,4.000000,4.000000,4.000000,4.000000,4.000000,4.000000,4.000000,4.000000,4.000000,4.000000,4.000000,4.000000,4.000000,100.000000,,,,,,,,,,,,,,,,,,,,,,,,,,,,
1703415808.111705,1703415808.112176,14.000000,0.000000,4185.897461,4153.205078,4263.589844,4263.461426,4237.563965,4242.948730,4253.333496,4218.846191,4205.384766,4217.563965,4560.384766,4457.948730,4249.358887,4478.461426,5936.000000,2.000000,52.000000,,,,0.000000,4.000000,4.000000,4.000000,4.000000,4.000000,4.000000,4.000000,4.000000,4.000000,4.000000,4.000000,4.000000,4.000000,4.000000,100.000000,,,,,,,,,,,,,,,,,,,,,,,,,,,,
1703415808.119513,1703415808.119984,15.000000,0.000000,4188.205078,4155.256348,4263.077148,4264.871582,4232.820313,4247.051270,4256.666504,4216.794922,4202.179688,4221.410156,4556.538574,4460.384766,4248.717773,4484.871582,6264.000000,2.000000,52.000000,,,,0.000000,4.000000,4.000000,4.000000,4.000000,4.000000,4.000000,4.000000,4.000000,4.000000,4.000000,4.000000,4.000000,4.000000,4.000000,100.000000,,,,,,,,,,,,,,,,,,,,,,,,,,,,
1703415808.127322,1703415808.127692,16.000000,0.000000,4189.487305,4152.051270,4261.025879,4262.563965,4235.384766,4247.692383,4255.000000,4213.589844,4201.922852,4218.717773,4553.077148,4453.717773,4246.922852,4476.410156,0.000000,2.000000,52.000000,,,,0.000000,4.000000,4.000000,4.000000,4.000000,4.000000,4.000000,4.000000,4.000000,4.000000,4.000000,4.000000,4.000000,4.000000,4.000000,100.000000,,,,,,,,,,,,,,,,,4.000000,0.000000,0.688225,0.200500,-0.653442,0.243225,0.988890,-0.050299,0.074228,-15.106683,-41.270424,65.761902
1703415808.135130,1703415808.135500,17.000000,0.000000,4188.205078,4139.487305,4265.128418,4261.282227,4231.922852,4248.974121,4250.641113,4211.666504,4199.230957,4206.922852,4552.563965,4451.282227,4248.974121,4466.410156,0.000000,2.000000,52.000000,,,,0.000000,4.000000,4.000000,4.000000,4.000000,4.000000,4.000000,4.000000,4.000000,4.000000,4.000000,4.000000,4.000000,4.000000,4.000000,100.000000,,,,,,,,,,,,,,,,,,,,,,,,,,,,
1703415808.142938,1703415808.143208,18.000000,0.000000,4184.358887,4134.230957,4266.410156,4260.256348,4227.179688,4248.846191,4250.256348,4214.230957,4200.128418,4197.051270,4541.794922,4458.205078,4246.025879,4467.307617,0.000000,2.000000,52.000000,,,,0.000000,4.000000,4.000000,4.000000,4.000000,4.000000,4.000000,4.000000,4.000000,4.000000,4.000000,4.000000,4.000000,4.000000,4.000000,100.000000,,,,,,,,,,,,,,,,,,,,,,,,,,,,
1703415808.150746,1703415808.151116,19.000000,0.000000,4184.102539,4137.051270,4264.230957,4251.666504,4235.000000,4249.230957,4252.051270,4215.897461,4200.769043,4204.230957,4543.077148,4457.692383,4242.820313,4473.717773,0.000000,2.000000,52.000000,,,,0.000000,4.000000,4.000000,4.000000,4.000000,4.000000,4.000000,4.000000,4.000000,4.000000,4.000000,4.000000,4.000000,4.000000,4.000000,100.000000,,,,,,,,,,,,,,,,,,,,,,,,,,,,
1703415808.158554,1703415808.158925,20.000000,0.000000,4180.769043,4130.256348,4261.538574,4247.948730,4235.000000,4241.922852,4249.487305,4210.897461,4189.230957,4206.025879,4554.230957,4449.615234,4244.615234,4468.974121,0.000000,2.000000,52.000000,,,,0.000000,4.000000,4.000000,4.000000,4.000000,4.000000,4.000000,4.000000,4.000000,4.000000,4.000000,4.000000,4.000000,4.000000,4.000000,100.000000,1.000000,41.666668,4.000000,1.000000,4.000000,4.000000,3.000000,4.000000,4.000000,4.000000,4.000000,4.000000,4.000000,4.000000,1.000000,4.000000,5.000000,0.000000,0.688381,0.200562,-0.653259,0.243225,0.984007,-0.045416,0.075204,-15.146014,-41.310051,65.819046
1703415808.166362,1703415808.166833,21.000000,0.000000,4172.948730,4121.282227,4264.230957,4258.589844,4224.871582,4233.333496,4249.230957,4210.128418,4185.384766,4186.025879,4545.641113,4449.615234,4237.436035,4459.871582,0.000000,2.000000,52.000000,,,,0.000000,4.000000,4.000000,4.000000,4.000000,4.000000,4.000000,4.000000,4.000000,4.000000,4.000000,4.000000,4.000000,4.000000,4.000000,100.000000,,,,,,,,,,,,,,,,,,,,,,,,,,,,
1703415808.174170,1703415808.174641,22.000000,0.000000,4169.230957,4123.077148,4264.615234,4265.128418,4228.205078,4237.563965,4250.641113,4218.333496,4194.102539,4185.512695,4536.922852,4451.153809,4232.820313,4460.128418,0.000000,2.000000,52.000000,,,,0.000000,4.000000,4.000000,4.000000,4.000000,4.000000,4.000000,4.000000,4.000000,4.000000,4.000000,4.000000,4.000000,4.000000,4.000000,100.000000,,,,,,,,,,,,,,,,,,,,,,,,,,,,
1703415808.181978,1703415808.182549,23.000000,0.000000,4163.974121,4121.538574,4250.897461,4252.436035,4232.307617,4243.077148,4249.230957,4214.358887,4190.000000,4200.641113,4534.230957,4440.641113,4237.051270,4452.692383,0.000000,2.000000,52.000000,,,,0.000000,4.000000,4.000000,4.000000,4.000000,4.000000,4.000000,4.000000,4.000000,4.000000,4.000000,4.000000,4.000000,4.000000,4.000000,100.000000,,,,,,,,,,,,,,,,,,,,,,,,,,,,
1703415808.189786,1703415808.190357,24.000000,0.000000,4164.102539,4116.922852,4240.128418,4243.333496,4227.179688,4246.922852,4250.512695,4203.461426,4182.948730,4196.410156,4523.077148,4431.282227,4235.897461,4447.692383,0.000000,2.000000,52.000000,,,,0.000000,4.000000,4.000000,4.000000,4.000000,4.000000,4.000000,4.000000,4.000000,4.000000,4.000000,4.000000,4.000000,4.000000,4.000000,100.000000,,,,,,,,,,,,,,,,,6.000000,0.000000,0.688291,0.200623,-0.653381,0.243103,0.990355,-0.062019,0.079111,-15.081413,-41.379044,65.620476
1703415808.197594,1703415808.198265,25.000000,0.000000,4176.922852,4126.410156,4246.282227,4253.333496,4229.358887,4257.692383,4255.641113,4205.769043,4191.794922,4192.436035,4529.743652,4442.820313,4238.974121,4462.179688,0.000000,2.000000,52.000000,,,,0.000000,4.000000,4.000000,4.000000,4.000000,4.000000,4.000000,4.000000,4.000000,4.000000,4.000000,4.000000,4.000000,4.000000,4.000000,100.000000,,,,,,,,,,,,,,,,,,,,,,,,,,,,
1703415808.205402,1703415808.206073,26.000000,0.000000,4188.974121,4139.358887,4252.179688,4262.436035,4234.102539,4266.410156,4260.128418,4209.615234,4195.000000,4202.436035,4547.948730,4459.487305,4258.461426,4466.922852,0.000000,2.000000,52.000000,,,,0.000000,4.000000,4.000000,4.000000,4.000000,4.000000,4.000000,4.000000,4.000000,4.000000,4.000000,4.000000,4.000000,4.000000,4.000000,100.000000,,,,,,,,,,,,,,,,,,,,,,,,,,,,
1703415808.213210,1703415808.213781,27.000000,0.000000,4195.128418,4139.871582,4249.743652,4259.358887,4229.871582,4266.282227,4261.282227,4202.179688,4190.897461,4205.256348,4546.922852,4456.282227,4266.794922,4460.897461,0.000000,2.000000,52.000000,,,,0.000000,4.000000,4.000000,4.000000,4.000000,4.000000,4.000000,4.000000,4.000000,4.000000,4.000000,4.000000,4.000000,4.000000,4.000000,100.000000,,,,,,,,,,,,,,,,,,,,,,,,,,,,
1703415808.221018,1703415808.221589,28.000000,0.000000,4201.153809,4137.948730,4250.641113,4257.563965,4227.307617,4261.282227,4257.948730,4199.102539,4194.230957,4198.717773,4545.384766,4451.666504,4259.358887,4471.153809,0.000000,2.000000,52.000000,,,,0.000000,4.000000,4.000000,4.000000,4.000000,4.000000,4.000000,4.000000,4.000000,4.000000,4.000000,4.000000,4.000000,4.000000,4.000000,100.000000,,,,,,,,,,,,,,,,,7.000000,0.000000,0.688357,0.200867,-0.653259,0.243042,0.987914,-0.034672,0.062019,-15.023272,-41.441139,65.608429
1703415808.228826,1703415808.229297,29.000000,0.000000,4200.384766,4138.846191,4251.410156,4261.922852,4234.102539,4252.563965,4255.512695,4210.769043,4203.589844,4202.563965,4557.179688,4459.871582,4267.179688,4481.922852,0.000000,2.000000,52.000000,,,,0.000000,4.000000,4.000000,4.000000,4.000000,4.000000,4.000000,4.000000,4.000000,4.000000,4.000000,4.000000,4.000000,4.000000,4.000000,100.000000,,,,,,,,,,,,,,,,,,,,,,,,,,,,
1703415808.236634,1703415808.237105,30.000000,0.000000,4197.307617,4137.820313,4247.820313,4263.333496,4245.256348,4248.077148,4259.871582,4226.025879,4209.743652,4215.512695,4564.358887,4465.512695,4281.410156,4476.282227,0.000000,2.000000,52.000000,,,,0.000000,4.000000,4.000000,4.000000,4.000000,4.000000,4.000000,4.000000,4.000000,4.000000,4.000000,4.000000,4.000000,4.000000,4.000000,100.000000,,,,,,,,,,,,,,,,,,,,,,,,,,,,
1703415808.244442,1703415808.244813,31.000000,0.000000,4202.692383,4139.615234,4249.358887,4264.230957,4245.512695,4251.282227,4264.871582,4229.102539,4208.077148,4221.794922,4560.384766,4468.717773,4283.589844,4475.000000,0.000000,2.000000,52.000000,,,,0.000000,4.000000,4.000000,4.000000,4.000000,4.000000,4.000000,4.000000,4.000000,4.000000,4.000000,4.000000,4.000000,4.000000,4.000000,100.000000,,,,,,,,,,,,,,,,,,,,,,,,,,,,
1703415808.252250,1703415808.252621,32.000000,0.000000,4197.051270,4134.615234,4251.153809,4262.307617,4231.922852,4250.000000,4260.769043,4221.666504,4200.128418,4215.384766,4554.358887,4467.948730,4278.974121,4477.692383,0.000000,2.000000,52.000000,,,,0.000000,4.000000,4.000000,4.000000,4.000000,4.000000,4.000000,4.000000,4.000000,4.000000,4.000000,4.000000,4.000000,4.000000,4.000000,100.000000,,,,,,,,,,,,,,,,,8.000000,0.000000,0.688496,0.201111,-0.653015,0.243103,0.993774,-0.046392,0.066414,-14.887611,-41.497025,65.730919
1703415808.260058,1703415808.260329,33.000000,0.000000,4188.461426,4123.974121,4248.717773,4261.538574,4227.436035,4244.615234,4255.769043,4218.205078,4198.589844,4212.692383,4557.820313,4464.487305,4275.897461,4476.538574,0.000000,2.000000,52.000000,,,,0.000000,4.000000,4.000000,4.000000,4.000000,4.000000,4.000000,4.000000,4.000000,4.000000,4.000000,4.000000,4.000000,4.000000,4.000000,100.000000,,,,,,,,,,,,,,,,,,,,,,,,,,,,
1703415808.267866,1703415808.268137,34.000000,0.000000,4197.692383,4128.717773,4252.051270,4269.487305,4234.743652,4244.102539,4257.179688,4219.102539,4202.563965,4219.871582,4563.461426,4464.487305,4280.256348,4478.077148,0.000000,2.000000,52.000000,,,,0.000000,4.000000,4.000000,4.000000,4.000000,4.000000,4.000000,4.000000,4.000000,4.000000,4.000000,4.000000,4.000000,4.000000,4.000000,100.000000,,,,,,,,,,,,,,,,,,,,,,,,,,,,
1703415808.275674,1703415808.275845,35.000000,0.000000,4200.769043,4136.922852,4261.025879,4272.563965,4233.205078,4248.461426,4255.256348,4216.153809,4200.769043,4215.769043,4554.358887,4463.846191,4284.743652,4479.871582,0.000000,2.000000,52.000000,,,,0.000000,4.000000,4.000000,4.000000,4.000000,4.000000,4.000000,4.000000,4.000000,4.000000,4.000000,4.000000,4.000000,4.000000,4.000000,100.000000,,,,,,,,,,,,,,,,,,,,,,,,,,,,
1703415808.283482,1703415808.283753,36.000000,0.000000,4194.615234,4128.717773,4260.897461,4265.000000,4225.256348,4246.282227,4249.102539,4216.282227,4200.128418,4214.358887,4548.333496,4463.461426,4282.820313,4480.897461,0.000000,2.000000,52.000000,,,,0.000000,4.000000,4.000000,4.000000,4.000000,4.000000,4.000000,4.000000,4.000000,4.000000,4.000000,4.000000,4.000000,4.000000,4.000000,100.000000,,,,,,,,,,,,,,,,,9.000000,0.000000,0.688540,0.201233,-0.652954,0.243042,0.999634,-0.035649,0.078135,-14.848850,-41.597324,65.707825
1703415808.291291,1703415808.291561,37.000000,0.000000,4201.025879,4120.128418,4255.641113,4260.769043,4225.897461,4237.820313,4249.615234,4217.179688,4199.230957,4215.769043,4558.205078,4461.538574,4276.922852,4478.974121,0.000000,2.000000,52.000000,,,,0.000000,4.000000,4.000000,4.000000,4.000000,4.000000,4.000000,4.000000,4.000000,4.000000,4.000000,4.000000,4.000000,4.000000,4.000000,100.000000,,,,,,,,,,,,,,,,,,,,,,,,,,,,
1703415808.299099,1703415808.299369,38.000000,0.000000,4207.436035,4129.230957,4259.743652,4269.230957,4232.948730,4239.102539,4258.077148,4216.025879,4200.769043,4206.410156,4564.615234,4458.717773,4278.589844,4475.000000,0.000000,2.000000,52.000000,,,,0.000000,4.000000,4.000000,4.000000,4.000000,4.000000,4.000000,4.000000,4.000000,4.000000,4.000000,4.000000,4.000000,4.000000,4.000000,100.000000,,,,,,,,,,,,,,,,,,,,,,,,,,,,
1703415808.306907,1703415808.307077,39.000000,0.000000,4200.256348,4136.666504,4263.205078,4273.333496,4237.051270,4246.794922,4263.077148,4215.384766,4201.025879,4209.615234,4553.077148,4458.846191,4280.769043,4472.051270,0.000000,2.000000,52.000000,,,,0.000000,4.000000,4.000000,4.000000,4.000000,4.000000,4.000000,4.000000,4.000000,4.000000,4.000000,4.000000,4.000000,4.000000,4.000000,100.000000,,,,,,,,,,,,,,,,,,,,,,,,,,,,
1703415808.314715,1703415808.314885,40.000000,0.000000,4198.077148,4131.922852,4259.615234,4266.282227,4233.717773,4246.282227,4261.794922,4217.436035,4195.769043,4217.051270,4544.487305,4458.974121,4278.077148,4472.563965,0.000000,2.000000,52.000000,,,,0.000000,4.000000,4.000000,4.000000,4.000000,4.000000,4.000000,4.000000,4.000000,4.000000,4.000000,4.000000,4.000000,4.000000,4.000000,100.000000,,,,,,,,,,,,,,,,,10.000000,0.000000,0.688507,0.201294,-0.653015,0.242920,0.991332,-0.042974,0.065438,-14.763966,-41.620926,65.753708
1703415808.322523,1703415808.322593,41.000000,0.000000,4199.230957,4125.641113,4259.102539,4263.974121,4232.563965,4240.128418,4261.410156,4213.974121,4192.436035,4205.769043,4551.025879,4457.563965,4278.846191,4477.948730,0.000000,2.000000,52.000000,,,,0.000000,4.000000,4.000000,4.000000,4.000000,4.000000,4.000000,4.000000,4.000000,4.000000,4.000000,4.000000,4.000000,4.000000,4.000000,100.000000,,,,,,,,,,,,,,,,,,,,,,,,,,,,
1703415808.330331,1703415808.330502,42.000000,0.000000,4198.077148,4125.384766,4265.641113,4266.538574,4229.871582,4236.410156,4259.743652,4206.282227,4189.102539,4195.641113,4547.948730,4460.641113,4277.179688,4475.897461,0.000000,2.000000,52.000000,,,,0.000000,4.000000,4.000000,4.000000,4.000000,4.000000,4.000000,4.000000,4.000000,4.000000,4.000000,4.000000,4.000000,4.000000,4.000000,100.000000,,,,,,,,,,,,,,,,,,,,,,,,,,,,
1703415808.338139,1703415808.338310,43.000000,0.000000,4201.538574,4126.153809,4266.666504,4265.000000,4218.974121,4233.333496,4254.615234,4205.512695,4188.589844,4200.256348,4541.666504,4461.282227,4272.179688,4465.256348,0.000000,2.000000,52.000000,,,,0.000000,4.000000,4.000000,4.000000,4.000000,4.000000,4.000000,4.000000,4.000000,4.000000,4.000000,4.000000,4.000000,4.000000,4.000000,100.000000,,,,,,,,,,,,,,,,,,,,,,,,,,,,
1703415808.345947,1703415808.346218,44.000000,0.000000,4199.871582,4121.666504,4259.743652,4267.948730,4219.871582,4232.563965,4254.487305,4214.102539,4194.358887,4201.153809,4545.384766,4456.922852,4274.487305,4466.025879,0.000000,2.000000,52.000000,,,,0.000000,4.000000,4.000000,4.000000,4.000000,4.000000,4.000000,4.000000,4.000000,4.000000,4.000000,4.000000,4.000000,4.000000,4.000000,100.000000,,,,,,,,,,,,,,,,,11.000000,0.000000,0.688521,0.201172,-0.653015,0.242981,0.981565,-0.049811,0.068368,-14.704235,-41.575500,65.645004
1703415808.353755,1703415808.354026,45.000000,0.000000,4201.666504,4123.333496,4263.205078,4277.820313,4238.589844,4235.128418,4261.153809,4220.641113,4205.384766,4207.051270,4548.333496,4463.205078,4282.179688,4484.615234,0.000000,2.000000,52.000000,,,,0.000000,4.000000,4.000000,4.000000,4.000000,4.000000,4.000000,4.000000,4.000000,4.000000,4.000000,4.000000,4.000000,4.000000,4.000000,100.000000,,,,,,,,,,,,,,,,,,,,,,,,,,,,
1703415808.361563,1703415808.361934,46.000000,0.000000,4203.333496,4125.641113,4262.948730,4272.692383,4233.974121,4235.000000,4258.461426,4213.717773,4201.538574,4217.692383,4545.641113,4463.077148,4280.641113,4490.641113,0.000000,2.000000,52.000000,,,,0.000000,4.000000,4.000000,4.000000,4.000000,4.000000,4.000000,4.000000,4.000000,4.000000,4.000000,4.000000,4.000000,4.000000,4.000000,100.000000,,,,,,,,,,,,,,,,,,,,,,,,,,,,
1703415808.369371,1703415808.369742,47.000000,0.000000,4189.743652,4117.692383,4250.512695,4260.128418,4212.820313,4232.179688,4248.717773,4201.282227,4187.307617,4200.128418,4540.000000,4444.358887,4272.051270,4474.615234,0.000000,2.000000,52.000000,,,,0.000000,4.000000,4.000000,4.000000,4.000000,4.000000,4.000000,4.000000,4.000000,4.000000,4.000000,4.000000,4.000000,4.000000,4.000000,100.000000,,,,,,,,,,,,,,,,,,,,,,,,,,,,
1703415808.377179,1703415808.377651,48.000000,0.000000,4188.461426,4119.615234,4251.922852,4265.641113,4226.922852,4228.589844,4248.461426,4199.743652,4192.051270,4197.051270,4543.205078,4446.538574,4281.410156,4474.871582,0.000000,2.000000,52.000000,,,,0.000000,4.000000,4.000000,4.000000,4.000000,4.000000,4.000000,4.000000,4.000000,4.000000,4.000000,4.000000,4.000000,4.000000,4.000000,100.000000,,,,,,,,,,,,,,,,,12.000000,0.000000,0.688467,0.200989,-0.653015,0.243286,0.989379,-0.042486,0.069833,-14.867146,-41.751282,65.463837
1703415808.384987,1703415808.385459,49.000000,0.000000,4210.384766,4136.538574,4266.282227,4280.000000,4245.256348,4230.000000,4252.692383,4206.153809,4203.717773,4228.974121,4558.846191,4469.615234,4306.794922,4492.436035,0.000000,2.000000,52.000000,,,,0.000000,4.000000,4.000000,4.000000,4.000000,4.000000,4.000000,4.000000,4.000000,4.000000,4.000000,4.000000,4.000000,4.000000,4.000000,100.000000,,,,,,,,,,,,,,,,,,,,,,,,,,,,
1703415808.392795,1703415808.393367,50.000000,0.000000,4221.410156,4138.205078,4268.333496,4283.974121,4225.384766,4234.358887,4249.615234,4200.256348,4193.077148,4228.333496,4562.436035,4469.358887,4312.436035,4495.128418,0.000000,2.000000,52.000000,,,,0.000000,4.000000,4.000000,4.000000,4.000000,4.000000,4.000000,4.000000,4.000000,4.000000,4.000000,4.000000,4.000000,4.000000,4.000000,100.000000,,,,,,,,,,,,,,,,,,,,,,,,,,,,
1703415808.400603,1703415808.401175,51.000000,0.000000,4216.282227,4124.487305,4262.179688,4277.051270,4215.897461,4235.256348,4246.025879,4192.436035,4181.666504,4204.230957,4557.436035,4457.436035,4303.077148,4493.077148,0.000000,2.000000,52.000000,,,,0.000000,4.000000,4.000000,4.000000,4.000000,4.000000,4.000000,4.000000,4.000000,4.000000,4.000000,4.000000,4.000000,4.000000,4.000000,100.000000,,,,,,,,,,,,,,,,,,,,,,,,,,,,
1703415808.408411,1703415808.409082,52.000000,0.000000,4209.871582,4120.897461,4259.358887,4267.307617,4231.282227,4231.538574,4247.436035,4197.692383,4194.743652,4210.897461,4562.051270,4459.487305,4301.282227,4490.256348,0.000000,2.000000,52.000000,,,,0.000000,4.000000,4.000000,4.000000,4.000000,4.000000,4.000000,4.000000,4.000000,4.000000,4.000000,4.000000,4.000000,4.000000,4.000000,100.000000,,,,,,,,,,,,,,,,,13.000000,0.000000,0.688553,0.200745,-0.652954,0.243408,0.996704,-0.048834,0.064949,-14.897098,-41.676155,65.417458
1703415808.416219,1703415808.416890,53.000000,0.000000,4199.615234,4120.897461,4257.948730,4262.051270,4232.051270,4234.871582,4249.487305,4202.436035,4202.563965,4217.820313,4560.897461,4461.410156,4299.743652,4484.358887,0.000000,2.000000,52.000000,,,,0.000000,4.000000,4.000000,4.000000,4.000000,4.000000,4.000000,4.000000,4.000000,4.000000,4.000000,4.000000,4.000000,4.000000,4.000000,100.000000,,,,,,,,,,,,,,,,,,,,,,,,,,,,
1703415808.424028,1703415808.424599,54.000000,0.000000,4196.538574,4114.230957,4257.820313,4265.769043,4221.666504,4242.307617,4251.410156,4205.512695,4200.897461,4203.205078,4550.384766,4456.538574,4295.000000,4484.871582,0.000000,2.000000,52.000000,,,,0.000000,4.000000,4.000000,4.000000,4.000000,4.000000,4.000000,4.000000,4.000000,4.000000,4.000000,4.000000,4.000000,4.000000,4.000000,100.000000,,,,,,,,,,,,,,,,,,,,,,,,,,,,
1703415808.431836,1703415808.432406,55.000000,0.000000,4202.051270,4107.179688,4249.102539,4263.205078,4216.666504,4235.897461,4249.358887,4204.358887,4195.641113,4197.179688,4542.051270,4443.077148,4287.307617,4471.922852,0.000000,2.000000,52.000000,,,,0.000000,4.000000,4.000000,4.000000,4.000000,4.000000,4.000000,4.000000,4.000000,4.000000,4.000000,4.000000,4.000000,4.000000,4.000000,100.000000,,,,,,,,,,,,,,,,,,,,,,,,,,,,
1703415808.439644,1703415808.440115,56.000000,0.000000,4199.487305,4105.000000,4242.436035,4254.487305,4218.205078,4231.538574,4245.641113,4199.102539,4186.410156,4202.307617,4538.589844,4436.025879,4282.692383,4459.743652,0.000000,2.000000,52.000000,,,,0.000000,4.000000,4.000000,4.000000,4.000000,4.000000,4.000000,4.000000,4.000000,4.000000,4.000000,4.000000,4.000000,4.000000,4.000000,100.000000,,,,,,,,,,,,,,,,,14.000000,0.000000,0.688527,0.200684,-0.652954,0.243530,1.004029,-0.040044,0.071786,-14.924054,-41.691872,65.492378
1703415808.447452,1703415808.447923,57.000000,0.000000,4197.051270,4112.436035,4258.461426,4262.692383,4228.333496,4240.000000,4248.461426,4203.717773,4192.692383,4202.307617,4550.512695,4451.922852,4292.692383,4479.487305,0.000000,2.000000,52.000000,,,,0.000000,4.000000,4.000000,4.000000,4.000000,4.000000,4.000000,4.000000,4.000000,4.000000,4.000000,4.000000,4.000000,4.000000,4.000000,100.000000,,,,,,,,,,,,,,,,,,,,,,,,,,,,
1703415808.455260,1703415808.455631,58.000000,0.000000,4201.410156,4122.051270,4271.410156,4278.461426,4233.205078,4241.282227,4251.666504,4211.153809,4202.948730,4197.692383,4559.230957,4462.692383,4301.666504,4487.051270,0.000000,2.000000,52.000000,,,,0.000000,4.000000,4.000000,4.000000,4.000000,4.000000,4.000000,4.000000,4.000000,4.000000,4.000000,4.000000,4.000000,4.000000,4.000000,100.000000,,,,,,,,,,,,,,,,,,,,,,,,,,,,
1703415808.463068,1703415808.463539,59.000000,0.000000,4204.230957,4124.615234,4265.897461,4276.153809,4231.025879,4233.974121,4250.769043,4207.051270,4199.871582,4203.846191,4551.282227,4458.205078,4293.974121,4474.487305,0.000000,2.000000,52.000000,,,,0.000000,4.000000,4.000000,4.000000,4.000000,4.000000,4.000000,4.000000,4.000000,4.000000,4.000000,4.000000,4.000000,4.000000,4.000000,100.000000,,,,,,,,,,,,,,,,,,,,,,,,,,,,
1703415808.470876,1703415808.471347,60.000000,0.000000,4199.615234,4121.922852,4259.102539,4262.051270,4232.307617,4232.436035,4249.358887,4200.128418,4191.410156,4213.846191,4548.333496,4455.000000,4291.666504,4478.846191,0.000000,2.000000,52.000000,,,,0.000000,4.000000,4.000000,4.000000,4.000000,4.000000,4.000000,4.000000,4.000000,4.000000,4.000000,4.000000,4.000000,4.000000,4.000000,100.000000,,,,,,,,,,,,,,,,,15.000000,0.000000,0.688577,0.200439,-0.652954,0.243591,0.995239,-0.043951,0.082530,-14.914982,-41.622684,65.393135
1703415808.478684,1703415808.479255,61.000000,0.000000,4201.794922,4119.230957,4261.922852,4264.230957,4230.641113,4233.077148,4247.563965,4198.077148,4189.102539,4209.871582,4552.563965,4454.743652,4299.871582,4485.128418,0.000000,2.000000,52.000000,,,,0.000000,4.000000,4.000000,4.000000,4.000000,4.000000,4.000000,4.000000,4.000000,4.000000,4.000000,4.000000,4.000000,4.000000,4.000000,100.000000,,,,,,,,,,,,,,,,,,,,,,,,,,,,
1703415808.486492,1703415808.487063,62.000000,0.000000,4218.717773,4123.846191,4269.487305,4277.692383,4229.230957,4232.436035,4245.769043,4199.102539,4188.974121,4203.846191,4555.256348,4457.563965,4298.205078,4483.333496,0.000000,2.000000,52.000000,,,,0.000000,4.000000,4.000000,4.000000,4.000000,4.000000,4.000000,4.000000,4.000000,4.000000,4.000000,4.000000,4.000000,4.000000,4.000000,100.000000,,,,,,,,,,,,,,,,,,,,,,,,,,,,
1703415808.494300,1703415808.494971,63.000000,0.000000,4216.410156,4124.102539,4268.077148,4273.846191,4227.436035,4231.922852,4246.410156,4197.820313,4184.102539,4202.820313,4552.179688,4457.307617,4293.717773,4482.563965,0.000000,2.000000,52.000000,,,,0.000000,4.000000,4.000000,4.000000,4.000000,4.000000,4.000000,4.000000,4.000000,4.000000,4.000000,4.000000,4.000000,4.000000,4.000000,100.000000,,,,,,,,,,,,,,,,,,,,,,,,,,,,
1703415808.502108,1703415808.502780,64.000000,0.000000,4196.153809,4114.615234,4263.589844,4261.794922,4210.769043,4227.307617,4247.436035,4196.922852,4183.974121,4207.051270,4547.307617,4457.307617,4301.025879,4481.282227,5541.000000,2.000000,52.000000,,,,0.000000,4.000000,4.000000,4.000000,4.000000,4.000000,4.000000,4.000000,4.000000,4.000000,4.000000,4.000000,4.000000,4.000000,4.000000,100.000000,,,,,,,,,,,,,,,,,16.000000,0.000000,0.688552,0.200378,-0.652954,0.243713,0.977170,-0.047369,0.080576,-14.906817,-41.560417,65.387161
1703415808.509916,1703415808.510688,65.000000,0.000000,4203.333496,4116.410156,4275.128418,4268.461426,4209.487305,4232.051270,4249.871582,4206.153809,4196.282227,4210.769043,4558.717773,4474.743652,4312.307617,4489.487305,5519.000000,2.000000,52.000000,,,,0.000000,4.000000,4.000000,4.000000,4.000000,4.000000,4.000000,4.000000,4.000000,4.000000,4.000000,4.000000,4.000000,4.000000,4.000000,100.000000,,,,,,,,,,,,,,,,,,,,,,,,,,,,
1703415808.517724,1703415808.518496,66.000000,0.000000,4227.563965,4127.692383,4287.563965,4283.205078,4231.153809,4242.179688,4253.333496,4219.230957,4205.256348,4205.128418,4570.000000,4483.589844,4311.538574,4499.358887,5399.000000,2.000000,52.000000,,,,0.000000,4.000000,4.000000,4.000000,4.000000,4.000000,4.000000,4.000000,4.000000,4.000000,4.000000,4.000000,4.000000,4.000000,4.000000,100.000000,,,,,,,,,,,,,,,,,,,,,,,,,,,,
