title:رشيد اعلى, start timestamp:1703406901.010985, stop timestamp:1703406911.692401, headset type:EPOCX, headset serial:E50206EF, headset firmware:720, channels:67, sampling rate:eeg_128;mot_32, samples:1369      , version:2.2, 
Timestamp,OriginalTimestamp,EEG.Counter,EEG.Interpolated,EEG.AF3,EEG.F7,EEG.F3,EEG.FC5,EEG.T7,EEG.P7,EEG.O1,EEG.O2,EEG.P8,EEG.T8,EEG.FC6,EEG.F4,EEG.F8,EEG.AF4,EEG.RawCq,EEG.Battery,EEG.BatteryPercent,MarkerIndex,MarkerType,MarkerValueInt,EEG.MarkerHardware,CQ.AF3,CQ.F7,CQ.F3,CQ.FC5,CQ.T7,CQ.P7,CQ.O1,CQ.O2,CQ.P8,CQ.T8,CQ.FC6,CQ.F4,CQ.F8,CQ.AF4,CQ.Overall,EQ.SampleRateQuality,EQ.OVERALL,EQ.AF3,EQ.F7,EQ.F3,EQ.FC5,EQ.T7,EQ.P7,EQ.O1,EQ.O2,EQ.P8,EQ.T8,EQ.FC6,EQ.F4,EQ.F8,EQ.AF4,MOT.CounterMems,MOT.InterpolatedMems,MOT.Q0,MOT.Q1,MOT.Q2,MOT.Q3,MOT.AccX,MOT.AccY,MOT.AccZ,MOT.MagX,MOT.MagY,MOT.MagZ
1703406901.010985,1703406901.011819,6.000000,0.000000,4187.820313,4142.948730,4286.666504,4232.307617,4152.179688,4114.487305,4186.282227,4163.333496,4159.487305,4167.307617,4630.256348,4458.974121,4429.358887,4515.128418,2521.000000,4.000000,77.000000,,,,0.000000,4.000000,4.000000,4.000000,4.000000,4.000000,4.000000,4.000000,4.000000,4.000000,4.000000,4.000000,4.000000,4.000000,4.000000,100.000000,,,,,,,,,,,,,,,,,,,,,,,,,,,,
1703406901.018793,1703406901.019527,7.000000,0.000000,4188.846191,4142.436035,4289.615234,4232.436035,4155.000000,4116.538574,4182.179688,4162.051270,4159.871582,4168.717773,4626.538574,4458.461426,4427.820313,4512.820313,5374.000000,4.000000,77.000000,,,,0.000000,4.000000,4.000000,4.000000,4.000000,4.000000,4.000000,4.000000,4.000000,4.000000,4.000000,4.000000,4.000000,4.000000,4.000000,100.000000,,,,,,,,,,,,,,,,,,,,,,,,,,,,
1703406901.026601,1703406901.027335,8.000000,0.000000,4183.077148,4137.692383,4288.717773,4231.410156,4155.897461,4112.948730,4180.384766,4153.846191,4155.897461,4155.384766,4621.410156,4452.563965,4413.717773,4503.974121,4837.000000,4.000000,77.000000,,,,0.000000,4.000000,4.000000,4.000000,4.000000,4.000000,4.000000,4.000000,4.000000,4.000000,4.000000,4.000000,4.000000,4.000000,4.000000,100.000000,,,,,,,,,,,,,,,,,2.000000,0.000000,0.592566,0.320190,-0.606506,0.422485,0.989379,-0.133317,0.053229,-13.779209,-42.255405,64.105759
1703406901.034409,1703406901.035043,9.000000,0.000000,4190.769043,4144.230957,4288.589844,4236.538574,4155.128418,4117.051270,4181.666504,4150.897461,4153.333496,4151.025879,4624.743652,4453.333496,4414.358887,4512.692383,5207.000000,4.000000,77.000000,,,,0.000000,4.000000,4.000000,4.000000,4.000000,4.000000,4.000000,4.000000,4.000000,4.000000,4.000000,4.000000,4.000000,4.000000,4.000000,100.000000,,,,,,,,,,,,,,,,,,,,,,,,,,,,
1703406901.042217,1703406901.042851,10.000000,0.000000,4200.000000,4152.692383,4292.563965,4241.538574,4154.871582,4121.025879,4180.769043,4154.102539,4156.538574,4163.589844,4628.974121,4462.051270,4421.794922,4521.410156,5836.000000,4.000000,77.000000,,,,0.000000,4.000000,4.000000,4.000000,4.000000,4.000000,4.000000,4.000000,4.000000,4.000000,4.000000,4.000000,4.000000,4.000000,4.000000,100.000000,,,,,,,,,,,,,,,,,,,,,,,,,,,,
1703406901.050025,1703406901.050559,11.000000,0.000000,4190.641113,4144.871582,4292.307617,4237.436035,4155.128418,4116.153809,4176.282227,4153.333496,4154.871582,4168.205078,4626.538574,4459.871582,4415.384766,4511.025879,6112.000000,4.000000,77.000000,,,,0.000000,4.000000,4.000000,4.000000,4.000000,4.000000,4.000000,4.000000,4.000000,4.000000,4.000000,4.000000,4.000000,4.000000,4.000000,100.000000,,,,,,,,,,,,,,,,,,,,,,,,,,,,
1703406901.057833,1703406901.058367,12.000000,0.000000,4186.153809,4137.948730,4290.256348,4234.871582,4156.922852,4113.589844,4178.974121,4153.333496,4157.948730,4165.384766,4628.461426,4456.282227,4413.589844,4510.128418,6523.000000,4.000000,77.000000,,,,0.000000,4.000000,4.000000,4.000000,4.000000,4.000000,4.000000,4.000000,4.000000,4.000000,4.000000,4.000000,4.000000,4.000000,4.000000,100.000000,,,,,,,,,,,,,,,,,3.000000,0.000000,0.592877,0.320374,-0.606445,0.421997,0.986449,-0.118667,0.051764,-13.767955,-42.363197,64.161850
1703406901.065642,1703406901.066075,13.000000,0.000000,4191.153809,4140.384766,4291.410156,4236.538574,4157.692383,4116.282227,4186.153809,4160.769043,4166.922852,4170.512695,4633.461426,4461.410156,4419.871582,4517.948730,7030.000000,4.000000,77.000000,,,,0.000000,4.000000,4.000000,4.000000,4.000000,4.000000,4.000000,4.000000,4.000000,4.000000,4.000000,4.000000,4.000000,4.000000,4.000000,100.000000,,,,,,,,,,,,,,,,,,,,,,,,,,,,
1703406901.073449,1703406901.073883,14.000000,0.000000,4185.000000,4137.051270,4290.128418,4232.436035,4150.641113,4115.256348,4184.102539,4159.871582,4161.282227,4170.000000,4631.282227,4461.538574,4414.102539,4508.846191,5836.000000,4.000000,77.000000,,,,0.000000,4.000000,4.000000,4.000000,4.000000,4.000000,4.000000,4.000000,4.000000,4.000000,4.000000,4.000000,4.000000,4.000000,4.000000,100.000000,1.000000,75.000000,4.000000,4.000000,4.000000,4.000000,4.000000,1.000000,4.000000,4.000000,4.000000,4.000000,4.000000,4.000000,4.000000,4.000000,,,,,,,,,,,,
1703406901.081257,1703406901.081591,15.000000,0.000000,4182.307617,4135.128418,4288.846191,4229.102539,4146.794922,4115.641113,4182.179688,4156.794922,4153.077148,4160.897461,4632.563965,4456.153809,4410.897461,4504.358887,6112.000000,4.000000,77.000000,,,,0.000000,4.000000,4.000000,4.000000,4.000000,4.000000,4.000000,4.000000,4.000000,4.000000,4.000000,4.000000,4.000000,4.000000,4.000000,100.000000,,,,,,,,,,,,,,,,,,,,,,,,,,,,
1703406901.089066,1703406901.089399,16.000000,0.000000,4186.153809,4139.102539,4285.000000,4231.922852,4153.974121,4117.436035,4185.512695,4162.820313,4156.025879,4155.769043,4630.769043,4450.384766,4414.358887,4509.615234,0.000000,4.000000,77.000000,,,,0.000000,4.000000,4.000000,4.000000,4.000000,4.000000,4.000000,4.000000,4.000000,4.000000,4.000000,4.000000,4.000000,4.000000,4.000000,100.000000,,,,,,,,,,,,,,,,,4.000000,0.000000,0.593068,0.320618,-0.606384,0.421631,0.980100,-0.125504,0.048834,-13.874493,-42.360214,64.162331
1703406901.096874,1703406901.097107,17.000000,0.000000,4178.333496,4138.077148,4278.717773,4231.025879,4152.692383,4119.230957,4185.512695,4165.897461,4157.179688,4156.410156,4622.307617,4445.512695,4407.307617,4505.769043,0.000000,4.000000,77.000000,,,,0.000000,4.000000,4.000000,4.000000,4.000000,4.000000,4.000000,4.000000,4.000000,4.000000,4.000000,4.000000,4.000000,4.000000,4.000000,100.000000,,,,,,,,,,,,,,,,,,,,,,,,,,,,
1703406901.104682,1703406901.104915,18.000000,0.000000,4174.230957,4135.641113,4280.256348,4229.230957,4144.487305,4123.974121,4184.102539,4162.051270,4154.615234,4157.307617,4624.743652,4448.077148,4400.769043,4503.077148,0.000000,4.000000,77.000000,,,,0.000000,4.000000,4.000000,4.000000,4.000000,4.000000,4.000000,4.000000,4.000000,4.000000,4.000000,4.000000,4.000000,4.000000,4.000000,100.000000,,,,,,,,,,,,,,,,,,,,,,,,,,,,
1703406901.112490,1703406901.112624,19.000000,0.000000,4177.563965,4135.897461,4283.974121,4231.025879,4143.333496,4124.358887,4185.000000,4157.820313,4154.230957,4152.051270,4625.897461,4450.384766,4399.743652,4505.512695,0.000000,4.000000,77.000000,,,,0.000000,4.000000,4.000000,4.000000,4.000000,4.000000,4.000000,4.000000,4.000000,4.000000,4.000000,4.000000,4.000000,4.000000,4.000000,100.000000,,,,,,,,,,,,,,,,,,,,,,,,,,,,
1703406901.120298,1703406901.120531,20.000000,0.000000,4174.102539,4137.051270,4282.563965,4231.025879,4145.128418,4118.589844,4181.153809,4153.974121,4153.717773,4151.282227,4617.179688,4445.641113,4401.410156,4504.871582,0.000000,4.000000,77.000000,,,,0.000000,4.000000,4.000000,4.000000,4.000000,4.000000,4.000000,4.000000,4.000000,4.000000,4.000000,4.000000,4.000000,4.000000,4.000000,100.000000,,,,,,,,,,,,,,,,,5.000000,0.000000,0.593261,0.320618,-0.606323,0.421448,0.956171,-0.125015,0.063973,-13.653709,-42.307526,64.329430
1703406901.128106,1703406901.128339,21.000000,0.000000,4174.230957,4137.307617,4282.820313,4230.384766,4147.436035,4115.897461,4175.384766,4148.717773,4153.717773,4160.000000,4619.615234,4443.846191,4408.461426,4506.410156,0.000000,4.000000,77.000000,,,,0.000000,4.000000,4.000000,4.000000,4.000000,4.000000,4.000000,4.000000,4.000000,4.000000,4.000000,4.000000,4.000000,4.000000,4.000000,100.000000,,,,,,,,,,,,,,,,,,,,,,,,,,,,
1703406901.135914,1703406901.136247,22.000000,0.000000,4182.179688,4137.436035,4285.000000,4232.179688,4151.410156,4118.461426,4173.846191,4143.974121,4152.820313,4163.333496,4626.025879,4445.769043,4411.153809,4506.794922,0.000000,4.000000,77.000000,,,,0.000000,4.000000,4.000000,4.000000,4.000000,4.000000,4.000000,4.000000,4.000000,4.000000,4.000000,4.000000,4.000000,4.000000,4.000000,100.000000,,,,,,,,,,,,,,,,,,,,,,,,,,,,
1703406901.143722,1703406901.144055,23.000000,0.000000,4186.666504,4139.871582,4284.358887,4233.974121,4152.563965,4123.717773,4172.948730,4140.256348,4151.922852,4159.230957,4621.538574,4446.153809,4404.487305,4507.436035,0.000000,4.000000,77.000000,,,,0.000000,4.000000,4.000000,4.000000,4.000000,4.000000,4.000000,4.000000,4.000000,4.000000,4.000000,4.000000,4.000000,4.000000,4.000000,100.000000,,,,,,,,,,,,,,,,,,,,,,,,,,,,
1703406901.151530,1703406901.151963,24.000000,0.000000,4181.538574,4139.615234,4281.153809,4231.153809,4151.666504,4123.589844,4174.871582,4144.743652,4154.230957,4157.307617,4617.563965,4442.307617,4397.948730,4506.025879,0.000000,4.000000,77.000000,,,,0.000000,4.000000,4.000000,4.000000,4.000000,4.000000,4.000000,4.000000,4.000000,4.000000,4.000000,4.000000,4.000000,4.000000,4.000000,100.000000,,,,,,,,,,,,,,,,,6.000000,0.000000,0.593283,0.320496,-0.606323,0.421509,0.976682,-0.141619,0.053717,-13.721672,-42.343437,64.179825
1703406901.159338,1703406901.159771,25.000000,0.000000,4171.538574,4135.128418,4273.333496,4227.179688,4152.179688,4120.769043,4180.128418,4152.307617,4154.743652,4155.256348,4614.487305,4433.077148,4396.282227,4496.410156,0.000000,4.000000,77.000000,,,,0.000000,4.000000,4.000000,4.000000,4.000000,4.000000,4.000000,4.000000,4.000000,4.000000,4.000000,4.000000,4.000000,4.000000,4.000000,100.000000,,,,,,,,,,,,,,,,,,,,,,,,,,,,
1703406901.167146,1703406901.167679,26.000000,0.000000,4167.948730,4136.025879,4269.358887,4228.589844,4151.538574,4121.794922,4183.589844,4155.641113,4153.846191,4152.948730,4613.077148,4434.743652,4397.307617,4490.769043,0.000000,4.000000,77.000000,,,,0.000000,4.000000,4.000000,4.000000,4.000000,4.000000,4.000000,4.000000,4.000000,4.000000,4.000000,4.000000,4.000000,4.000000,4.000000,100.000000,,,,,,,,,,,,,,,,,,,,,,,,,,,,
1703406901.174954,1703406901.175487,27.000000,0.000000,4172.563965,4140.384766,4274.102539,4232.948730,4153.077148,4123.717773,4185.128418,4158.717773,4155.256348,4154.615234,4617.051270,4443.846191,4395.512695,4494.487305,0.000000,4.000000,77.000000,,,,0.000000,4.000000,4.000000,4.000000,4.000000,4.000000,4.000000,4.000000,4.000000,4.000000,4.000000,4.000000,4.000000,4.000000,4.000000,100.000000,,,,,,,,,,,,,,,,,,,,,,,,,,,,
1703406901.182762,1703406901.183395,28.000000,0.000000,4169.743652,4136.282227,4272.436035,4231.410156,4155.000000,4122.436035,4182.692383,4156.153809,4154.487305,4154.230957,4609.230957,4437.307617,4388.333496,4490.897461,0.000000,4.000000,77.000000,,,,0.000000,4.000000,4.000000,4.000000,4.000000,4.000000,4.000000,4.000000,4.000000,4.000000,4.000000,4.000000,4.000000,4.000000,4.000000,100.000000,,,,,,,,,,,,,,,,,7.000000,0.000000,0.593252,0.320313,-0.606323,0.421692,0.981565,-0.109877,0.060554,-13.849505,-42.475761,64.145172
1703406901.190570,1703406901.191203,29.000000,0.000000,4166.538574,4134.487305,4268.461426,4228.846191,4153.333496,4121.153809,4182.179688,4153.205078,4153.717773,4153.589844,4601.538574,4429.358887,4385.769043,4487.563965,0.000000,4.000000,77.000000,,,,0.000000,4.000000,4.000000,4.000000,4.000000,4.000000,4.000000,4.000000,4.000000,4.000000,4.000000,4.000000,4.000000,4.000000,4.000000,100.000000,,,,,,,,,,,,,,,,,,,,,,,,,,,,
1703406901.198378,1703406901.198911,30.000000,0.000000,4171.922852,4140.512695,4273.717773,4231.025879,4153.974121,4124.230957,4183.333496,4156.025879,4156.794922,4156.025879,4610.641113,4436.153809,4388.461426,4492.692383,0.000000,4.000000,77.000000,,,,0.000000,4.000000,4.000000,4.000000,4.000000,4.000000,4.000000,4.000000,4.000000,4.000000,4.000000,4.000000,4.000000,4.000000,4.000000,100.000000,,,,,,,,,,,,,,,,,,,,,,,,,,,,
1703406901.206186,1703406901.206719,31.000000,0.000000,4172.307617,4140.000000,4273.974121,4231.666504,4152.179688,4124.230957,4179.743652,4155.128418,4156.025879,4154.743652,4613.589844,4437.563965,4386.282227,4492.179688,0.000000,4.000000,77.000000,,,,0.000000,4.000000,4.000000,4.000000,4.000000,4.000000,4.000000,4.000000,4.000000,4.000000,4.000000,4.000000,4.000000,4.000000,4.000000,100.000000,,,,,,,,,,,,,,,,,,,,,,,,,,,,
1703406901.213994,1703406901.214427,32.000000,0.000000,4175.128418,4138.589844,4270.000000,4230.897461,4150.512695,4121.282227,4177.948730,4151.025879,4153.717773,4153.589844,4611.410156,4433.846191,4388.974121,4493.589844,0.000000,4.000000,77.000000,,,,0.000000,4.000000,4.000000,4.000000,4.000000,4.000000,4.000000,4.000000,4.000000,4.000000,4.000000,4.000000,4.000000,4.000000,4.000000,100.000000,,,,,,,,,,,,,,,,,8.000000,0.000000,0.593264,0.320129,-0.606323,0.421814,0.992309,-0.130875,0.060066,-13.864554,-42.461517,64.147324
1703406901.221803,1703406901.222235,33.000000,0.000000,4186.666504,4149.615234,4276.025879,4233.205078,4156.025879,4122.307617,4177.692383,4153.077148,4155.384766,4162.307617,4620.512695,4440.897461,4401.410156,4504.743652,0.000000,4.000000,77.000000,,,,0.000000,4.000000,4.000000,4.000000,4.000000,4.000000,4.000000,4.000000,4.000000,4.000000,4.000000,4.000000,4.000000,4.000000,4.000000,100.000000,,,,,,,,,,,,,,,,,,,,,,,,,,,,
1703406901.229611,1703406901.229943,34.000000,0.000000,4188.461426,4152.179688,4280.000000,4233.717773,4160.128418,4126.025879,4173.077148,4154.230957,4155.512695,4169.230957,4623.461426,4442.436035,4405.641113,4508.846191,0.000000,4.000000,77.000000,,,,0.000000,4.000000,4.000000,4.000000,4.000000,4.000000,4.000000,4.000000,4.000000,4.000000,4.000000,4.000000,4.000000,4.000000,4.000000,100.000000,,,,,,,,,,,,,,,,,,,,,,,,,,,,
1703406901.237419,1703406901.237751,35.000000,0.000000,4181.538574,4140.512695,4277.307617,4231.410156,4155.897461,4125.897461,4173.461426,4151.794922,4152.820313,4161.410156,4614.615234,4434.615234,4396.282227,4501.153809,0.000000,4.000000,77.000000,,,,0.000000,4.000000,4.000000,4.000000,4.000000,4.000000,4.000000,4.000000,4.000000,4.000000,4.000000,4.000000,4.000000,4.000000,4.000000,100.000000,,,,,,,,,,,,,,,,,,,,,,,,,,,,
1703406901.245227,1703406901.245459,36.000000,0.000000,4181.538574,4136.922852,4276.666504,4231.410156,4151.922852,4124.487305,4179.102539,4152.436035,4152.436035,4152.948730,4613.461426,4434.230957,4389.743652,4496.794922,0.000000,4.000000,77.000000,,,,0.000000,4.000000,4.000000,4.000000,4.000000,4.000000,4.000000,4.000000,4.000000,4.000000,4.000000,4.000000,4.000000,4.000000,4.000000,100.000000,,,,,,,,,,,,,,,,,9.000000,0.000000,0.593148,0.320068,-0.606384,0.421936,0.985960,-0.135759,0.056648,-13.828099,-42.398701,64.182594
1703406901.253035,1703406901.253367,37.000000,0.000000,4177.179688,4137.563965,4274.487305,4229.102539,4154.743652,4131.153809,4179.871582,4155.384766,4153.205078,4153.333496,4615.128418,4434.102539,4388.077148,4494.871582,0.000000,4.000000,77.000000,,,,0.000000,4.000000,4.000000,4.000000,4.000000,4.000000,4.000000,4.000000,4.000000,4.000000,4.000000,4.000000,4.000000,4.000000,4.000000,100.000000,,,,,,,,,,,,,,,,,,,,,,,,,,,,
1703406901.260843,1703406901.261175,38.000000,0.000000,4167.692383,4131.666504,4272.051270,4225.256348,4156.282227,4133.846191,4179.230957,4162.820313,4154.743652,4153.846191,4611.153809,4432.563965,4385.769043,4493.077148,0.000000,4.000000,77.000000,,,,0.000000,4.000000,4.000000,4.000000,4.000000,4.000000,4.000000,4.000000,4.000000,4.000000,4.000000,4.000000,4.000000,4.000000,4.000000,100.000000,,,,,,,,,,,,,,,,,,,,,,,,,,,,
1703406901.268651,1703406901.268983,39.000000,0.000000,4174.102539,4134.615234,4275.641113,4230.512695,4151.922852,4130.256348,4183.589844,4168.077148,4159.358887,4154.743652,4614.743652,4441.025879,4389.102539,4501.410156,0.000000,4.000000,77.000000,,,,0.000000,4.000000,4.000000,4.000000,4.000000,4.000000,4.000000,4.000000,4.000000,4.000000,4.000000,4.000000,4.000000,4.000000,4.000000,100.000000,,,,,,,,,,,,,,,,,,,,,,,,,,,,
1703406901.276459,1703406901.276691,40.000000,0.000000,4189.615234,4149.615234,4281.153809,4237.307617,4151.538574,4133.589844,4184.102539,4161.538574,4160.897461,4160.384766,4627.692383,4450.256348,4398.846191,4511.282227,0.000000,4.000000,77.000000,,,,0.000000,4.000000,4.000000,4.000000,4.000000,4.000000,4.000000,4.000000,4.000000,4.000000,4.000000,4.000000,4.000000,4.000000,4.000000,100.000000,,,,,,,,,,,,,,,,,10.000000,0.000000,0.593115,0.320129,-0.606384,0.421936,0.985960,-0.134294,0.056159,-13.745289,-42.342163,64.214333
1703406901.284267,1703406901.284499,41.000000,0.000000,4190.512695,4153.717773,4281.666504,4234.487305,4156.025879,4136.666504,4181.538574,4154.358887,4156.538574,4159.102539,4627.948730,4446.025879,4400.256348,4510.000000,0.000000,4.000000,77.000000,,,,0.000000,4.000000,4.000000,4.000000,4.000000,4.000000,4.000000,4.000000,4.000000,4.000000,4.000000,4.000000,4.000000,4.000000,4.000000,100.000000,,,,,,,,,,,,,,,,,,,,,,,,,,,,
1703406901.292075,1703406901.292207,42.000000,0.000000,4184.102539,4149.102539,4276.025879,4231.666504,4154.230957,4131.025879,4181.282227,4154.358887,4155.000000,4153.205078,4616.538574,4440.000000,4394.487305,4505.641113,0.000000,4.000000,77.000000,,,,0.000000,4.000000,4.000000,4.000000,4.000000,4.000000,4.000000,4.000000,4.000000,4.000000,4.000000,4.000000,4.000000,4.000000,4.000000,100.000000,,,,,,,,,,,,,,,,,,,,,,,,,,,,
1703406901.299883,1703406901.300015,43.000000,0.000000,4191.538574,4150.512695,4274.102539,4233.846191,4150.128418,4126.410156,4179.230957,4154.230957,4157.436035,4158.205078,4618.205078,4442.436035,4398.205078,4508.589844,0.000000,4.000000,77.000000,,,,0.000000,4.000000,4.000000,4.000000,4.000000,4.000000,4.000000,4.000000,4.000000,4.000000,4.000000,4.000000,4.000000,4.000000,4.000000,100.000000,,,,,,,,,,,,,,,,,,,,,,,,,,,,
1703406901.307691,1703406901.307723,44.000000,0.000000,4203.461426,4153.717773,4278.589844,4232.820313,4152.948730,4130.897461,4177.051270,4152.436035,4157.436035,4161.410156,4628.974121,4444.615234,4404.871582,4511.410156,0.000000,4.000000,77.000000,,,,0.000000,4.000000,4.000000,4.000000,4.000000,4.000000,4.000000,4.000000,4.000000,4.000000,4.000000,4.000000,4.000000,4.000000,4.000000,100.000000,,,,,,,,,,,,,,,,,11.000000,0.000000,0.593033,0.320129,-0.606506,0.421875,0.988890,-0.127457,0.067391,-13.854094,-42.374615,64.209564
1703406901.315499,1703406901.315531,45.000000,0.000000,4200.641113,4153.461426,4280.512695,4231.538574,4155.512695,4133.205078,4176.666504,4153.205078,4156.025879,4156.922852,4628.589844,4444.102539,4402.179688,4508.974121,0.000000,4.000000,77.000000,,,,0.000000,4.000000,4.000000,4.000000,4.000000,4.000000,4.000000,4.000000,4.000000,4.000000,4.000000,4.000000,4.000000,4.000000,4.000000,100.000000,,,,,,,,,,,,,,,,,,,,,,,,,,,,
1703406901.323307,1703406901.323239,46.000000,0.000000,4189.871582,4153.461426,4278.589844,4232.436035,4152.436035,4136.282227,4175.897461,4153.077148,4155.641113,4157.948730,4623.846191,4443.461426,4395.384766,4507.563965,0.000000,4.000000,77.000000,,,,0.000000,4.000000,4.000000,4.000000,4.000000,4.000000,4.000000,4.000000,4.000000,4.000000,4.000000,4.000000,4.000000,4.000000,4.000000,100.000000,,,,,,,,,,,,,,,,,,,,,,,,,,,,
1703406901.331115,1703406901.331147,47.000000,0.000000,4188.461426,4155.641113,4280.000000,4232.179688,4151.025879,4140.000000,4175.256348,4151.922852,4156.025879,4167.563965,4627.948730,4445.384766,4396.025879,4508.717773,0.000000,4.000000,77.000000,,,,0.000000,4.000000,4.000000,4.000000,4.000000,4.000000,4.000000,4.000000,4.000000,4.000000,4.000000,4.000000,4.000000,4.000000,4.000000,100.000000,,,,,,,,,,,,,,,,,,,,,,,,,,,,
1703406901.338923,1703406901.338955,48.000000,0.000000,4193.846191,4156.025879,4283.974121,4231.922852,4155.384766,4135.384766,4178.717773,4159.487305,4156.410156,4168.717773,4631.666504,4447.436035,4400.256348,4509.487305,0.000000,4.000000,77.000000,,,,0.000000,4.000000,4.000000,4.000000,4.000000,4.000000,4.000000,4.000000,4.000000,4.000000,4.000000,4.000000,4.000000,4.000000,4.000000,100.000000,,,,,,,,,,,,,,,,,12.000000,0.000000,0.593113,0.320374,-0.606384,0.421753,0.976682,-0.121109,0.074228,-13.985351,-42.320484,64.155273
1703406901.346731,1703406901.346863,49.000000,0.000000,4189.743652,4152.307617,4281.153809,4230.512695,4156.025879,4130.641113,4182.563965,4166.153809,4155.384766,4158.077148,4625.897461,4445.000000,4394.230957,4507.692383,0.000000,4.000000,77.000000,,,,0.000000,4.000000,4.000000,4.000000,4.000000,4.000000,4.000000,4.000000,4.000000,4.000000,4.000000,4.000000,4.000000,4.000000,4.000000,100.000000,,,,,,,,,,,,,,,,,,,,,,,,,,,,
1703406901.354539,1703406901.354671,50.000000,0.000000,4185.128418,4150.128418,4274.102539,4228.589844,4152.179688,4133.589844,4181.538574,4160.897461,4155.384766,4153.077148,4621.666504,4442.563965,4386.666504,4506.666504,0.000000,4.000000,77.000000,,,,0.000000,4.000000,4.000000,4.000000,4.000000,4.000000,4.000000,4.000000,4.000000,4.000000,4.000000,4.000000,4.000000,4.000000,4.000000,100.000000,,,,,,,,,,,,,,,,,,,,,,,,,,,,
1703406901.362347,1703406901.362578,51.000000,0.000000,4190.000000,4152.820313,4275.256348,4230.641113,4153.205078,4138.461426,4183.717773,4154.487305,4156.922852,4155.769043,4624.615234,4444.743652,4390.256348,4509.358887,0.000000,4.000000,77.000000,,,,0.000000,4.000000,4.000000,4.000000,4.000000,4.000000,4.000000,4.000000,4.000000,4.000000,4.000000,4.000000,4.000000,4.000000,4.000000,100.000000,,,,,,,,,,,,,,,,,,,,,,,,,,,,
1703406901.370155,1703406901.370386,52.000000,0.000000,4195.897461,4153.333496,4278.717773,4233.717773,4154.615234,4137.692383,4184.871582,4157.179688,4161.025879,4160.769043,4627.948730,4447.051270,4396.153809,4514.743652,0.000000,4.000000,77.000000,,,,0.000000,4.000000,4.000000,4.000000,4.000000,4.000000,4.000000,4.000000,4.000000,4.000000,4.000000,4.000000,4.000000,4.000000,4.000000,100.000000,,,,,,,,,,,,,,,,,13.000000,0.000000,0.593325,0.320374,-0.606262,0.421631,0.981077,-0.121109,0.064461,-13.870149,-42.421772,64.206413
1703406901.377964,1703406901.378294,53.000000,0.000000,4198.974121,4150.897461,4277.692383,4233.333496,4151.282227,4136.282227,4183.846191,4163.717773,4165.256348,4163.333496,4626.922852,4445.769043,4393.589844,4519.102539,0.000000,4.000000,77.000000,,,,0.000000,4.000000,4.000000,4.000000,4.000000,4.000000,4.000000,4.000000,4.000000,4.000000,4.000000,4.000000,4.000000,4.000000,4.000000,100.000000,,,,,,,,,,,,,,,,,,,,,,,,,,,,
1703406901.385772,1703406901.386102,54.000000,0.000000,4202.948730,4153.974121,4278.846191,4234.230957,4152.948730,4137.820313,4185.512695,4168.077148,4168.205078,4165.512695,4629.743652,4447.051270,4393.461426,4521.666504,0.000000,4.000000,77.000000,,,,0.000000,4.000000,4.000000,4.000000,4.000000,4.000000,4.000000,4.000000,4.000000,4.000000,4.000000,4.000000,4.000000,4.000000,4.000000,100.000000,,,,,,,,,,,,,,,,,,,,,,,,,,,,
1703406901.393580,1703406901.393810,55.000000,0.000000,4204.230957,4157.948730,4280.512695,4237.051270,4156.794922,4138.589844,4184.743652,4167.051270,4169.230957,4170.000000,4634.487305,4449.615234,4398.717773,4524.743652,0.000000,4.000000,77.000000,,,,0.000000,4.000000,4.000000,4.000000,4.000000,4.000000,4.000000,4.000000,4.000000,4.000000,4.000000,4.000000,4.000000,4.000000,4.000000,100.000000,,,,,,,,,,,,,,,,,,,,,,,,,,,,
1703406901.401388,1703406901.401618,56.000000,0.000000,4200.769043,4154.358887,4279.358887,4235.512695,4150.384766,4138.077148,4182.820313,4158.717773,4164.615234,4167.820313,4626.153809,4447.563965,4398.717773,4525.000000,0.000000,4.000000,77.000000,,,,0.000000,4.000000,4.000000,4.000000,4.000000,4.000000,4.000000,4.000000,4.000000,4.000000,4.000000,4.000000,4.000000,4.000000,4.000000,100.000000,,,,,,,,,,,,,,,,,14.000000,0.000000,0.593342,0.320190,-0.606384,0.421570,0.982053,-0.131852,0.057136,-13.783134,-42.496262,63.985771
1703406901.409196,1703406901.409326,57.000000,0.000000,4198.974121,4151.282227,4279.487305,4234.102539,4146.153809,4140.128418,4181.794922,4152.179688,4156.922852,4158.846191,4617.436035,4446.025879,4395.256348,4520.897461,0.000000,4.000000,77.000000,,,,0.000000,4.000000,4.000000,4.000000,4.000000,4.000000,4.000000,4.000000,4.000000,4.000000,4.000000,4.000000,4.000000,4.000000,4.000000,100.000000,,,,,,,,,,,,,,,,,,,,,,,,,,,,
1703406901.417004,1703406901.417134,58.000000,0.000000,4201.025879,4155.256348,4280.512695,4234.743652,4153.333496,4144.615234,4182.563965,4152.307617,4151.922852,4154.743652,4621.922852,4445.000000,4394.615234,4519.871582,0.000000,4.000000,77.000000,,,,0.000000,4.000000,4.000000,4.000000,4.000000,4.000000,4.000000,4.000000,4.000000,4.000000,4.000000,4.000000,4.000000,4.000000,4.000000,100.000000,,,,,,,,,,,,,,,,,,,,,,,,,,,,
1703406901.424812,1703406901.424842,59.000000,0.000000,4201.282227,4158.333496,4279.743652,4234.358887,4156.153809,4142.051270,4183.846191,4153.461426,4154.615234,4158.205078,4628.205078,4446.025879,4401.922852,4520.897461,0.000000,4.000000,77.000000,,,,0.000000,4.000000,4.000000,4.000000,4.000000,4.000000,4.000000,4.000000,4.000000,4.000000,4.000000,4.000000,4.000000,4.000000,4.000000,100.000000,,,,,,,,,,,,,,,,,,,,,,,,,,,,
1703406901.432620,1703406901.432650,60.000000,0.000000,4198.589844,4155.128418,4283.717773,4239.487305,4151.410156,4140.000000,4184.230957,4154.615234,4159.871582,4155.769043,4626.794922,4449.358887,4407.563965,4518.846191,0.000000,4.000000,77.000000,,,,0.000000,4.000000,4.000000,4.000000,4.000000,4.000000,4.000000,4.000000,4.000000,4.000000,4.000000,4.000000,4.000000,4.000000,4.000000,100.000000,,,,,,,,,,,,,,,,,15.000000,0.000000,0.593136,0.320190,-0.606628,0.421509,0.983030,-0.133317,0.059578,-13.738154,-42.529968,63.970528
1703406901.440428,1703406901.440358,61.000000,0.000000,4199.102539,4153.205078,4289.102539,4246.410156,4149.358887,4148.974121,4185.128418,4161.153809,4160.512695,4152.179688,4625.384766,4451.538574,4402.563965,4517.051270,0.000000,4.000000,77.000000,,,,0.000000,4.000000,4.000000,4.000000,4.000000,4.000000,4.000000,4.000000,4.000000,4.000000,4.000000,4.000000,4.000000,4.000000,4.000000,100.000000,,,,,,,,,,,,,,,,,,,,,,,,,,,,
1703406901.448236,1703406901.448166,62.000000,0.000000,4200.000000,4154.230957,4287.563965,4240.512695,4150.512695,4156.922852,4187.051270,4166.410156,4157.307617,4153.974121,4623.333496,4450.256348,4396.025879,4513.077148,0.000000,4.000000,77.000000,,,,0.000000,4.000000,4.000000,4.000000,4.000000,4.000000,4.000000,4.000000,4.000000,4.000000,4.000000,4.000000,4.000000,4.000000,4.000000,100.000000,,,,,,,,,,,,,,,,,,,,,,,,,,,,
1703406901.456044,1703406901.455874,63.000000,0.000000,4191.794922,4147.307617,4280.512695,4228.974121,4151.153809,4154.102539,4186.153809,4160.000000,4154.615234,4152.820313,4617.307617,4444.358887,4396.025879,4505.512695,0.000000,4.000000,77.000000,,,,0.000000,4.000000,4.000000,4.000000,4.000000,4.000000,4.000000,4.000000,4.000000,4.000000,4.000000,4.000000,4.000000,4.000000,4.000000,100.000000,,,,,,,,,,,,,,,,,,,,,,,,,,,,
1703406901.463852,1703406901.463682,64.000000,0.000000,4185.512695,4142.692383,4277.948730,4229.358887,4153.461426,4152.820313,4185.000000,4153.589844,4157.051270,4152.692383,4614.743652,4441.025879,4396.794922,4503.846191,4807.000000,4.000000,77.000000,,,,0.000000,4.000000,4.000000,4.000000,4.000000,4.000000,4.000000,4.000000,4.000000,4.000000,4.000000,4.000000,4.000000,4.000000,4.000000,100.000000,,,,,,,,,,,,,,,,,16.000000,0.000000,0.593084,0.320251,-0.606689,0.421448,0.983518,-0.141131,0.059089,-13.697672,-42.526970,64.040146
1703406901.471660,1703406901.471391,65.000000,0.000000,4187.436035,4149.230957,4282.563965,4236.410156,4153.974121,4160.641113,4192.563965,4156.538574,4159.102539,4155.512695,4614.615234,4442.948730,4395.512695,4507.948730,5267.000000,4.000000,77.000000,,,,0.000000,4.000000,4.000000,4.000000,4.000000,4.000000,4.000000,4.000000,4.000000,4.000000,4.000000,4.000000,4.000000,4.000000,4.000000,100.000000,,,,,,,,,,,,,,,,,,,,,,,,,,,,
1703406901.479468,1703406901.479199,66.000000,0.000000,4186.794922,4153.461426,4282.692383,4235.769043,4152.051270,4163.333496,4196.410156,4157.307617,4158.205078,4155.256348,4610.897461,4443.461426,4396.153809,4505.512695,5258.000000,4.000000,77.000000,,,,0.000000,4.000000,4.000000,4.000000,4.000000,4.000000,4.000000,4.000000,4.000000,4.000000,4.000000,4.000000,4.000000,4.000000,4.000000,100.000000,,,,,,,,,,,,,,,,,,,,,,,,,,,,
1703406901.487276,1703406901.486907,67.000000,0.000000,4190.128418,4153.461426,4282.051270,4233.974121,4153.974121,4161.153809,4195.256348,4153.333496,4155.384766,4153.461426,4612.692383,4445.769043,4396.794922,4504.358887,5258.000000,4.000000,77.000000,,,,0.000000,4.000000,4.000000,4.000000,4.000000,4.000000,4.000000,4.000000,4.000000,4.000000,4.000000,4.000000,4.000000,4.000000,4.000000,100.000000,,,,,,,,,,,,,,,,,,,,,,,,,,,,
1703406901.495084,1703406901.494814,68.000000,0.000000,4199.230957,4157.307617,4286.538574,4241.282227,4156.666504,4164.615234,4195.897461,4154.871582,4154.487305,4155.128418,4620.000000,4457.436035,4402.179688,4514.358887,5006.000000,4.000000,77.000000,,,,0.000000,4.000000,4.000000,4.000000,4.000000,4.000000,4.000000,4.000000,4.000000,4.000000,4.000000,4.000000,4.000000,4.000000,4.000000,100.000000,,,,,,,,,,,,,,,,,17.000000,0.000000,0.593103,0.320251,-0.606628,0.421509,0.972775,-0.138200,0.067879,-13.811238,-42.507607,63.969463
1703406901.502892,1703406901.502622,69.000000,0.000000,4201.666504,4157.436035,4285.769043,4247.436035,4153.846191,4165.128418,4192.563965,4156.025879,4153.974121,4155.000000,4621.666504,4460.897461,4411.282227,4519.102539,2606.000000,4.000000,77.000000,,,,0.000000,4.000000,4.000000,4.000000,4.000000,4.000000,4.000000,4.000000,4.000000,4.000000,4.000000,4.000000,4.000000,4.000000,4.000000,100.000000,,,,,,,,,,,,,,,,,,,,,,,,,,,,
1703406901.510700,1703406901.510530,70.000000,0.000000,4200.256348,4154.487305,4283.974121,4242.307617,4150.769043,4161.153809,4191.153809,4146.922852,4147.307617,4154.358887,4617.307617,4448.974121,4409.615234,4515.641113,2523.000000,4.000000,77.000000,,,,0.000000,4.000000,4.000000,4.000000,4.000000,4.000000,4.000000,4.000000,4.000000,4.000000,4.000000,4.000000,4.000000,4.000000,4.000000,100.000000,,,,,,,,,,,,,,,,,,,,,,,,,,,,
1703406901.518509,1703406901.518338,71.000000,0.000000,4202.692383,4162.563965,4288.846191,4238.333496,4153.974121,4161.153809,4192.692383,4139.743652,4144.358887,4155.769043,4615.128418,4449.487305,4400.897461,4518.846191,5374.000000,4.000000,77.000000,,,,0.000000,4.000000,4.000000,4.000000,4.000000,4.000000,4.000000,4.000000,4.000000,4.000000,4.000000,4.000000,4.000000,4.000000,4.000000,100.000000,,,,,,,,,,,,,,,,,,,,,,,,,,,,
1703406901.526317,1703406901.526246,72.000000,0.000000,4202.051270,4167.051270,4288.846191,4243.205078,4155.512695,4160.769043,4189.358887,4146.282227,4149.102539,4151.922852,4617.948730,4459.102539,4402.948730,4519.871582,4839.000000,4.000000,77.000000,,,,0.000000,4.000000,4.000000,4.000000,4.000000,4.000000,4.000000,4.000000,4.000000,4.000000,4.000000,4.000000,4.000000,4.000000,4.000000,100.000000,,,,,,,,,,,,,,,,,18.000000,0.000000,0.593093,0.320190,-0.606628,0.421570,0.994750,-0.125504,0.067879,-13.763448,-42.623512,64.089180
1703406901.534124,1703406901.534054,73.000000,0.000000,4199.743652,4161.025879,4282.179688,4242.948730,4152.436035,4160.000000,4190.128418,4158.333496,4160.256348,4157.179688,4625.000000,4460.512695,4410.000000,4515.512695,5207.000000,4.000000,77.000000,,,,0.000000,4.000000,4.000000,4.000000,4.000000,4.000000,4.000000,4.000000,4.000000,4.000000,4.000000,4.000000,4.000000,4.000000,4.000000,100.000000,,,,,,,,,,,,,,,,,,,,,,,,,,,,
1703406901.541933,1703406901.541962,74.000000,0.000000,4201.410156,4158.077148,4282.179688,4235.384766,4152.692383,4167.051270,4197.948730,4162.051270,4168.205078,4169.230957,4629.358887,4460.641113,4405.769043,4521.025879,5836.000000,4.000000,77.000000,,,,0.000000,4.000000,4.000000,4.000000,4.000000,4.000000,4.000000,4.000000,4.000000,4.000000,4.000000,4.000000,4.000000,4.000000,4.000000,100.000000,,,,,,,,,,,,,,,,,,,,,,,,,,,,
1703406901.549741,1703406901.549770,75.000000,0.000000,4199.358887,4160.000000,4281.282227,4233.077148,4155.128418,4176.538574,4197.563965,4160.384766,4162.820313,4162.948730,4624.358887,4459.230957,4398.333496,4521.666504,6112.000000,4.000000,77.000000,,,,0.000000,4.000000,4.000000,4.000000,4.000000,4.000000,4.000000,4.000000,4.000000,4.000000,4.000000,4.000000,4.000000,4.000000,4.000000,100.000000,,,,,,,,,,,,,,,,,,,,,,,,,,,,
1703406901.557549,1703406901.557678,76.000000,0.000000,4195.384766,4157.051270,4275.256348,4233.205078,4153.974121,4176.025879,4195.128418,4153.846191,4152.563965,4148.461426,4616.410156,4449.230957,4396.538574,4508.974121,6523.000000,4.000000,77.000000,,,,0.000000,4.000000,4.000000,4.000000,4.000000,4.000000,4.000000,4.000000,4.000000,4.000000,4.000000,4.000000,4.000000,4.000000,4.000000,100.000000,,,,,,,,,,,,,,,,,19.000000,0.000000,0.593219,0.320313,-0.606567,0.421387,0.974240,-0.124527,0.055671,-13.737103,-42.594494,64.130264
1703406901.565357,1703406901.565486,77.000000,0.000000,4197.820313,4153.461426,4277.948730,4231.794922,4152.051270,4174.230957,4200.000000,4142.820313,4150.641113,4150.512695,4616.153809,4444.102539,4396.538574,4508.846191,7030.000000,4.000000,77.000000,,,,0.000000,4.000000,4.000000,4.000000,4.000000,4.000000,4.000000,4.000000,4.000000,4.000000,4.000000,4.000000,4.000000,4.000000,4.000000,100.000000,,,,,,,,,,,,,,,,,,,,,,,,,,,,
1703406901.573165,1703406901.573394,78.000000,0.000000,4201.538574,4159.743652,4286.666504,4236.922852,4151.025879,4179.615234,4199.743652,4139.871582,4152.820313,4154.871582,4621.153809,4451.794922,4398.846191,4520.769043,5836.000000,4.000000,77.000000,,,,0.000000,4.000000,4.000000,4.000000,4.000000,4.000000,4.000000,4.000000,4.000000,4.000000,4.000000,4.000000,4.000000,4.000000,4.000000,100.000000,1.000000,75.000000,4.000000,4.000000,4.000000,4.000000,4.000000,1.000000,4.000000,4.000000,4.000000,4.000000,4.000000,4.000000,4.000000,4.000000,,,,,,,,,,,,
1703406901.580973,1703406901.581202,79.000000,0.000000,4202.051270,4168.205078,4286.282227,4245.769043,4151.538574,4180.000000,4200.000000,4141.153809,4150.384766,4151.410156,4624.743652,4456.282227,4403.333496,4522.948730,6112.000000,4.000000,77.000000,,,,0.000000,4.000000,4.000000,4.000000,4.000000,4.000000,4.000000,4.000000,4.000000,4.000000,4.000000,4.000000,4.000000,4.000000,4.000000,100.000000,,,,,,,,,,,,,,,,,,,,,,,,,,,,
1703406901.588781,1703406901.588910,80.000000,0.000000,4205.769043,4170.512695,4284.358887,4247.436035,4158.717773,4175.897461,4201.922852,4140.256348,4150.256348,4155.769043,4624.743652,4455.128418,4403.077148,4521.153809,6523.000000,4.000000,77.000000,,,,0.000000,4.000000,4.000000,4.000000,4.000000,4.000000,4.000000,4.000000,4.000000,4.000000,4.000000,4.000000,4.000000,4.000000,4.000000,100.000000,,,,,,,,,,,,,,,,,20.000000,0.000000,0.593495,0.320435,-0.606445,0.421082,0.986449,-0.127945,0.055183,-13.763392,-42.685047,64.000572
1703406901.596589,1703406901.596718,81.000000,0.000000,4213.333496,4168.589844,4290.256348,4247.051270,4162.436035,4177.692383,4199.871582,4145.128418,4153.205078,4162.179688,4627.307617,4457.948730,4401.282227,4524.102539,7030.000000,4.000000,77.000000,,,,0.000000,4.000000,4.000000,4.000000,4.000000,4.000000,4.000000,4.000000,4.000000,4.000000,4.000000,4.000000,4.000000,4.000000,4.000000,100.000000,,,,,,,,,,,,,,,,,,,,,,,,,,,,
1703406901.604397,1703406901.604426,82.000000,0.000000,4213.717773,4169.358887,4291.025879,4250.384766,4157.436035,4178.974121,4200.128418,4152.436035,4153.846191,4158.717773,4630.512695,4460.000000,4404.871582,4525.897461,5836.000000,4.000000,77.000000,,,,0.000000,4.000000,4.000000,4.000000,4.000000,4.000000,4.000000,4.000000,4.000000,4.000000,4.000000,4.000000,4.000000,4.000000,4.000000,100.000000,,,,,,,,,,,,,,,,,,,,,,,,,,,,
1703406901.612205,1703406901.612234,83.000000,0.000000,4209.615234,4172.820313,4288.077148,4249.743652,4158.589844,4175.000000,4200.897461,4158.333496,4156.666504,4158.589844,4629.102539,4460.128418,4409.871582,4530.256348,6112.000000,4.000000,77.000000,,,,0.000000,4.000000,4.000000,4.000000,4.000000,4.000000,4.000000,4.000000,4.000000,4.000000,4.000000,4.000000,4.000000,4.000000,4.000000,100.000000,,,,,,,,,,,,,,,,,,,,,,,,,,,,
1703406901.620013,1703406901.619942,84.000000,0.000000,4213.333496,4174.230957,4291.538574,4247.179688,4168.846191,4181.153809,4200.512695,4167.820313,4167.051270,4170.000000,4634.230957,4464.487305,4413.333496,4538.333496,6523.000000,4.000000,77.000000,,,,0.000000,4.000000,4.000000,4.000000,4.000000,4.000000,4.000000,4.000000,4.000000,4.000000,4.000000,4.000000,4.000000,4.000000,4.000000,100.000000,,,,,,,,,,,,,,,,,21.000000,0.000000,0.593751,0.320557,-0.606384,0.420715,0.978147,-0.124527,0.062508,-13.937054,-42.666542,63.950516
1703406901.627821,1703406901.627750,85.000000,0.000000,4213.205078,4173.205078,4292.436035,4248.846191,4173.461426,4188.717773,4200.897461,4169.102539,4170.769043,4170.000000,4642.179688,4466.410156,4413.077148,4538.205078,7030.000000,4.000000,77.000000,,,,0.000000,4.000000,4.000000,4.000000,4.000000,4.000000,4.000000,4.000000,4.000000,4.000000,4.000000,4.000000,4.000000,4.000000,4.000000,100.000000,,,,,,,,,,,,,,,,,,,,,,,,,,,,
1703406901.635629,1703406901.635458,86.000000,0.000000,4204.743652,4170.128418,4286.794922,4250.384766,4166.025879,4184.743652,4201.025879,4156.282227,4159.358887,4156.153809,4634.102539,4457.948730,4408.077148,4530.000000,5836.000000,4.000000,77.000000,,,,0.000000,4.000000,4.000000,4.000000,4.000000,4.000000,4.000000,4.000000,4.000000,4.000000,4.000000,4.000000,4.000000,4.000000,4.000000,100.000000,,,,,,,,,,,,,,,,,,,,,,,,,,,,
1703406901.643437,1703406901.643266,87.000000,0.000000,4203.077148,4168.589844,4283.461426,4244.102539,4156.794922,4186.153809,4201.025879,4152.179688,4154.102539,4153.461426,4620.384766,4449.230957,4401.025879,4524.743652,6112.000000,4.000000,77.000000,,,,0.000000,4.000000,4.000000,4.000000,4.000000,4.000000,4.000000,4.000000,4.000000,4.000000,4.000000,4.000000,4.000000,4.000000,4.000000,100.000000,,,,,,,,,,,,,,,,,,,,,,,,,,,,
1703406901.651245,1703406901.650974,88.000000,0.000000,4199.487305,4166.538574,4277.948730,4233.974121,4151.922852,4188.589844,4204.487305,4157.051270,4156.794922,4158.333496,4616.666504,4444.487305,4397.051270,4522.436035,6523.000000,4.000000,77.000000,,,,0.000000,4.000000,4.000000,4.000000,4.000000,4.000000,4.000000,4.000000,4.000000,4.000000,4.000000,4.000000,4.000000,4.000000,4.000000,100.000000,,,,,,,,,,,,,,,,,22.000000,0.000000,0.593911,0.320740,-0.606384,0.420349,0.975705,-0.120132,0.048346,-13.893348,-42.716553,64.005463
1703406901.659053,1703406901.658782,89.000000,0.000000,4192.436035,4165.256348,4274.102539,4231.025879,4152.307617,4183.974121,4206.410156,4155.641113,4154.358887,4154.743652,4616.922852,4441.025879,4396.153809,4520.769043,7030.000000,4.000000,77.000000,,,,0.000000,4.000000,4.000000,4.000000,4.000000,4.000000,4.000000,4.000000,4.000000,4.000000,4.000000,4.000000,4.000000,4.000000,4.000000,100.000000,,,,,,,,,,,,,,,,,,,,,,,,,,,,
1703406901.666861,1703406901.666490,90.000000,0.000000,4195.512695,4168.333496,4279.487305,4234.871582,4154.358887,4183.717773,4204.871582,4153.205078,4152.436035,4151.282227,4616.538574,4441.666504,4397.051270,4522.820313,5836.000000,4.000000,77.000000,,,,0.000000,4.000000,4.000000,4.000000,4.000000,4.000000,4.000000,4.000000,4.000000,4.000000,4.000000,4.000000,4.000000,4.000000,4.000000,100.000000,,,,,,,,,,,,,,,,,,,,,,,,,,,,
1703406901.674670,1703406901.674398,91.000000,0.000000,4200.128418,4165.000000,4280.128418,4235.128418,4153.589844,4187.436035,4205.512695,4154.743652,4152.948730,4152.436035,4616.025879,4444.871582,4394.487305,4523.333496,6112.000000,4.000000,77.000000,,,,0.000000,4.000000,4.000000,4.000000,4.000000,4.000000,4.000000,4.000000,4.000000,4.000000,4.000000,4.000000,4.000000,4.000000,4.000000,100.000000,,,,,,,,,,,,,,,,,,,,,,,,,,,,
1703406901.682478,1703406901.682206,92.000000,0.000000,4197.692383,4157.820313,4272.820313,4232.563965,4153.589844,4189.487305,4205.256348,4155.641113,4151.025879,4151.282227,4613.461426,4440.128418,4389.102539,4521.282227,6523.000000,4.000000,77.000000,,,,0.000000,4.000000,4.000000,4.000000,4.000000,4.000000,4.000000,4.000000,4.000000,4.000000,4.000000,4.000000,4.000000,4.000000,4.000000,100.000000,,,,,,,,,,,,,,,,,23.000000,0.000000,0.593783,0.320862,-0.606445,0.420349,0.991332,-0.125504,0.054694,-14.004013,-42.644897,63.988251
1703406901.690286,1703406901.690114,93.000000,0.000000,4196.538574,4155.769043,4272.563965,4232.948730,4154.743652,4188.974121,4204.358887,4156.153809,4153.846191,4152.948730,4614.487305,4431.538574,4391.922852,4521.153809,7030.000000,4.000000,77.000000,,,,0.000000,4.000000,4.000000,4.000000,4.000000,4.000000,4.000000,4.000000,4.000000,4.000000,4.000000,4.000000,4.000000,4.000000,4.000000,100.000000,,,,,,,,,,,,,,,,,,,,,,,,,,,,
1703406901.698094,1703406901.697922,94.000000,0.000000,4190.897461,4153.077148,4272.820313,4231.922852,4155.256348,4187.563965,4205.769043,4158.077148,4158.461426,4155.256348,4618.461426,4434.487305,4396.538574,4518.589844,5836.000000,4.000000,77.000000,,,,0.000000,4.000000,4.000000,4.000000,4.000000,4.000000,4.000000,4.000000,4.000000,4.000000,4.000000,4.000000,4.000000,4.000000,4.000000,100.000000,,,,,,,,,,,,,,,,,,,,,,,,,,,,
1703406901.705902,1703406901.705829,95.000000,0.000000,4188.589844,4157.436035,4268.717773,4233.205078,4157.051270,4187.179688,4205.384766,4159.102539,4155.384766,4154.230957,4617.179688,4442.179688,4395.769043,4519.615234,6112.000000,4.000000,77.000000,,,,0.000000,4.000000,4.000000,4.000000,4.000000,4.000000,4.000000,4.000000,4.000000,4.000000,4.000000,4.000000,4.000000,4.000000,4.000000,100.000000,,,,,,,,,,,,,,,,,,,,,,,,,,,,
1703406901.713710,1703406901.713637,96.000000,0.000000,4199.358887,4166.794922,4274.230957,4234.871582,4163.717773,4188.077148,4201.794922,4157.948730,4154.871582,4157.820313,4616.153809,4444.487305,4397.436035,4527.179688,6523.000000,4.000000,77.000000,,,,0.000000,4.000000,4.000000,4.000000,4.000000,4.000000,4.000000,4.000000,4.000000,4.000000,4.000000,4.000000,4.000000,4.000000,4.000000,100.000000,,,,,,,,,,,,,,,,,24.000000,0.000000,0.593832,0.320923,-0.606323,0.420410,0.988890,-0.136247,0.066414,-14.036945,-42.813740,63.956093
1703406901.721518,1703406901.721545,97.000000,0.000000,4205.000000,4170.512695,4279.230957,4235.000000,4168.717773,4185.256348,4199.358887,4155.897461,4158.974121,4161.025879,4619.230957,4441.794922,4399.615234,4528.846191,7030.000000,4.000000,77.000000,,,,0.000000,4.000000,4.000000,4.000000,4.000000,4.000000,4.000000,4.000000,4.000000,4.000000,4.000000,4.000000,4.000000,4.000000,4.000000,100.000000,,,,,,,,,,,,,,,,,,,,,,,,,,,,
1703406901.729326,1703406901.729353,98.000000,0.000000,4202.436035,4176.153809,4273.333496,4241.025879,4168.333496,4186.794922,4203.589844,4154.358887,4159.102539,4155.897461,4617.436035,4436.282227,4397.820313,4525.897461,5836.000000,4.000000,77.000000,,,,0.000000,4.000000,4.000000,4.000000,4.000000,4.000000,4.000000,4.000000,4.000000,4.000000,4.000000,4.000000,4.000000,4.000000,4.000000,100.000000,,,,,,,,,,,,,,,,,,,,,,,,,,,,
1703406901.737134,1703406901.737261,99.000000,0.000000,4202.948730,4187.051270,4269.487305,4246.666504,4170.897461,4192.307617,4207.563965,4152.436035,4155.128418,4151.794922,4609.615234,4431.025879,4393.205078,4526.153809,6112.000000,4.000000,77.000000,,,,0.000000,4.000000,4.000000,4.000000,4.000000,4.000000,4.000000,4.000000,4.000000,4.000000,4.000000,4.000000,4.000000,4.000000,4.000000,100.000000,,,,,,,,,,,,,,,,,,,,,,,,,,,,
1703406901.744942,1703406901.745069,100.000000,0.000000,4203.205078,4191.666504,4271.922852,4248.589844,4169.487305,4192.436035,4208.461426,4149.615234,4148.974121,4150.256348,4602.948730,4429.487305,4379.743652,4524.743652,6523.000000,4.000000,77.000000,,,,0.000000,4.000000,4.000000,4.000000,4.000000,4.000000,4.000000,4.000000,4.000000,4.000000,4.000000,4.000000,4.000000,4.000000,4.000000,100.000000,,,,,,,,,,,,,,,,,25.000000,0.000000,0.593818,0.320984,-0.606262,0.420471,0.989867,-0.122574,0.055183,-13.933250,-42.715702,64.010483
1703406901.752750,1703406901.752977,101.000000,0.000000,4196.410156,4180.128418,4273.077148,4244.358887,4160.128418,4193.205078,4212.692383,4149.102539,4146.153809,4145.641113,4597.948730,4430.384766,4362.436035,4514.358887,7030.000000,4.000000,77.000000,,,,0.000000,4.000000,4.000000,4.000000,4.000000,4.000000,4.000000,4.000000,4.000000,4.000000,4.000000,4.000000,4.000000,4.000000,4.000000,100.000000,,,,,,,,,,,,,,,,,,,,,,,,,,,,
1703406901.760558,1703406901.760785,102.000000,0.000000,4193.461426,4172.436035,4276.153809,4237.948730,4156.153809,4198.461426,4212.436035,4150.641113,4148.846191,4138.974121,4597.051270,4430.641113,4367.307617,4512.948730,5836.000000,4.000000,77.000000,,,,0.000000,4.000000,4.000000,4.000000,4.000000,4.000000,4.000000,4.000000,4.000000,4.000000,4.000000,4.000000,4.000000,4.000000,4.000000,100.000000,,,,,,,,,,,,,,,,,,,,,,,,,,,,
1703406901.768366,1703406901.768493,103.000000,0.000000,4198.846191,4180.000000,4279.358887,4240.256348,4159.743652,4201.025879,4210.000000,4152.051270,4151.794922,4136.922852,4600.769043,4432.692383,4373.717773,4518.717773,6112.000000,4.000000,77.000000,,,,0.000000,4.000000,4.000000,4.000000,4.000000,4.000000,4.000000,4.000000,4.000000,4.000000,4.000000,4.000000,4.000000,4.000000,4.000000,100.000000,,,,,,,,,,,,,,,,,,,,,,,,,,,,
1703406901.776174,1703406901.776301,104.000000,0.000000,4197.692383,4179.102539,4277.436035,4245.897461,4158.333496,4199.871582,4213.077148,4152.948730,4150.769043,4142.948730,4599.871582,4430.384766,4358.205078,4511.025879,6523.000000,4.000000,77.000000,,,,0.000000,4.000000,4.000000,4.000000,4.000000,4.000000,4.000000,4.000000,4.000000,4.000000,4.000000,4.000000,4.000000,4.000000,4.000000,100.000000,,,,,,,,,,,,,,,,,26.000000,0.000000,0.593722,0.321045,-0.606323,0.420471,0.987914,-0.121597,0.068856,-13.939925,-42.677464,64.026100
1703406901.783982,1703406901.784009,105.000000,0.000000,4192.436035,4168.974121,4279.487305,4246.666504,4155.769043,4196.153809,4212.307617,4153.974121,4152.307617,4152.692383,4601.410156,4434.102539,4361.538574,4510.769043,7030.000000,4.000000,77.000000,,,,0.000000,4.000000,4.000000,4.000000,4.000000,4.000000,4.000000,4.000000,4.000000,4.000000,4.000000,4.000000,4.000000,4.000000,4.000000,100.000000,,,,,,,,,,,,,,,,,,,,,,,,,,,,
1703406901.791790,1703406901.791817,106.000000,0.000000,4197.307617,4168.974121,4280.897461,4241.666504,4157.179688,4195.641113,4209.743652,4156.153809,4156.282227,4156.538574,4610.512695,4444.358887,4380.769043,4524.358887,5836.000000,4.000000,77.000000,,,,0.000000,4.000000,4.000000,4.000000,4.000000,4.000000,4.000000,4.000000,4.000000,4.000000,4.000000,4.000000,4.000000,4.000000,4.000000,100.000000,,,,,,,,,,,,,,,,,,,,,,,,,,,,
1703406901.799598,1703406901.799525,107.000000,0.000000,4200.897461,4172.179688,4276.025879,4236.282227,4158.205078,4198.077148,4210.897461,4155.512695,4153.077148,4152.179688,4606.538574,4440.512695,4371.410156,4522.948730,6112.000000,4.000000,77.000000,,,,0.000000,4.000000,4.000000,4.000000,4.000000,4.000000,4.000000,4.000000,4.000000,4.000000,4.000000,4.000000,4.000000,4.000000,4.000000,100.000000,,,,,,,,,,,,,,,,,,,,,,,,,,,,
1703406901.807406,1703406901.807433,108.000000,0.000000,4198.589844,4172.820313,4278.974121,4238.205078,4163.461426,4195.128418,4210.641113,4152.051270,4149.743652,4152.179688,4598.717773,4435.128418,4362.179688,4514.615234,6523.000000,4.000000,77.000000,,,,0.000000,4.000000,4.000000,4.000000,4.000000,4.000000,4.000000,4.000000,4.000000,4.000000,4.000000,4.000000,4.000000,4.000000,4.000000,100.000000,,,,,,,,,,,,,,,,,27.000000,0.000000,0.593608,0.321106,-0.606445,0.420410,0.974728,-0.130875,0.059089,-13.912600,-42.576385,64.173492
1703406901.815215,1703406901.815241,109.000000,0.000000,4205.384766,4185.128418,4287.948730,4250.512695,4170.128418,4192.436035,4209.743652,4151.282227,4151.922852,4155.384766,4608.461426,4442.820313,4380.769043,4524.743652,7030.000000,4.000000,77.000000,,,,0.000000,4.000000,4.000000,4.000000,4.000000,4.000000,4.000000,4.000000,4.000000,4.000000,4.000000,4.000000,4.000000,4.000000,4.000000,100.000000,,,,,,,,,,,,,,,,,,,,,,,,,,,,
1703406901.823022,1703406901.823149,110.000000,0.000000,4208.717773,4185.769043,4288.333496,4250.641113,4167.692383,4199.487305,4214.487305,4155.128418,4155.128418,4155.897461,4618.205078,4447.948730,4385.512695,4530.256348,5836.000000,4.000000,77.000000,,,,0.000000,4.000000,4.000000,4.000000,4.000000,4.000000,4.000000,4.000000,4.000000,4.000000,4.000000,4.000000,4.000000,4.000000,4.000000,100.000000,,,,,,,,,,,,,,,,,,,,,,,,,,,,
1703406901.830831,1703406901.830957,111.000000,0.000000,4199.230957,4167.051270,4278.974121,4235.769043,4161.538574,4203.077148,4220.128418,4158.333496,4155.256348,4153.717773,4611.153809,4439.871582,4369.743652,4520.897461,6112.000000,4.000000,77.000000,,,,0.000000,4.000000,4.000000,4.000000,4.000000,4.000000,4.000000,4.000000,4.000000,4.000000,4.000000,4.000000,4.000000,4.000000,4.000000,100.000000,,,,,,,,,,,,,,,,,,,,,,,,,,,,
1703406901.838639,1703406901.838765,112.000000,0.000000,4197.179688,4163.846191,4276.538574,4232.307617,4158.974121,4199.358887,4222.307617,4156.538574,4153.333496,4147.820313,4602.692383,4433.333496,4365.256348,4518.461426,6523.000000,4.000000,77.000000,,,,0.000000,4.000000,4.000000,4.000000,4.000000,4.000000,4.000000,4.000000,4.000000,4.000000,4.000000,4.000000,4.000000,4.000000,4.000000,100.000000,,,,,,,,,,,,,,,,,28.000000,0.000000,0.593619,0.321289,-0.606506,0.420166,0.978635,-0.136735,0.056159,-13.971340,-42.768745,64.106140
1703406901.846447,1703406901.846473,113.000000,0.000000,4200.384766,4171.153809,4278.589844,4234.743652,4158.846191,4198.589844,4222.436035,4154.358887,4152.051270,4146.410156,4602.948730,4432.179688,4366.025879,4519.230957,7030.000000,4.000000,77.000000,,,,0.000000,4.000000,4.000000,4.000000,4.000000,4.000000,4.000000,4.000000,4.000000,4.000000,4.000000,4.000000,4.000000,4.000000,4.000000,100.000000,,,,,,,,,,,,,,,,,,,,,,,,,,,,
1703406901.854255,1703406901.854281,114.000000,0.000000,4196.922852,4164.743652,4276.410156,4232.051270,4158.589844,4199.102539,4223.205078,4156.666504,4153.589844,4150.512695,4607.563965,4434.358887,4365.000000,4518.333496,5836.000000,4.000000,77.000000,,,,0.000000,4.000000,4.000000,4.000000,4.000000,4.000000,4.000000,4.000000,4.000000,4.000000,4.000000,4.000000,4.000000,4.000000,4.000000,100.000000,,,,,,,,,,,,,,,,,,,,,,,,,,,,
1703406901.862063,1703406901.861989,115.000000,0.000000,4196.666504,4156.922852,4276.666504,4230.641113,4155.897461,4199.743652,4225.256348,4161.794922,4157.436035,4155.384766,4613.205078,4442.692383,4369.871582,4520.128418,6112.000000,4.000000,77.000000,,,,0.000000,4.000000,4.000000,4.000000,4.000000,4.000000,4.000000,4.000000,4.000000,4.000000,4.000000,4.000000,4.000000,4.000000,4.000000,100.000000,,,,,,,,,,,,,,,,,,,,,,,,,,,,
1703406901.869871,1703406901.869797,116.000000,0.000000,4200.769043,4161.538574,4279.102539,4233.589844,4152.436035,4200.641113,4221.794922,4162.692383,4156.922852,4155.384766,4616.025879,4446.153809,4373.461426,4522.563965,6523.000000,4.000000,77.000000,,,,0.000000,4.000000,4.000000,4.000000,4.000000,4.000000,4.000000,4.000000,4.000000,4.000000,4.000000,4.000000,4.000000,4.000000,4.000000,100.000000,,,,,,,,,,,,,,,,,29.000000,0.000000,0.593602,0.321472,-0.606384,0.420227,0.974728,-0.124527,0.067879,-13.990872,-42.858540,64.128860
1703406901.877679,1703406901.877505,117.000000,0.000000,4200.512695,4169.487305,4278.846191,4240.128418,4155.512695,4198.205078,4218.717773,4156.922852,4154.871582,4154.615234,4615.256348,4443.205078,4371.410156,4522.692383,7030.000000,4.000000,77.000000,,,,0.000000,4.000000,4.000000,4.000000,4.000000,4.000000,4.000000,4.000000,4.000000,4.000000,4.000000,4.000000,4.000000,4.000000,4.000000,100.000000,,,,,,,,,,,,,,,,,,,,,,,,,,,,
1703406901.885487,1703406901.885413,118.000000,0.000000,4199.487305,4168.974121,4278.846191,4245.128418,4159.230957,4198.717773,4220.384766,4152.563965,4152.948730,4155.256348,4614.487305,4441.410156,4374.230957,4522.436035,5836.000000,4.000000,77.000000,,,,0.000000,4.000000,4.000000,4.000000,4.000000,4.000000,4.000000,4.000000,4.000000,4.000000,4.000000,4.000000,4.000000,4.000000,4.000000,100.000000,,,,,,,,,,,,,,,,,,,,,,,,,,,,
1703406901.893295,1703406901.893221,119.000000,0.000000,4202.436035,4167.307617,4281.794922,4245.641113,4158.205078,4200.256348,4218.717773,4153.589844,4148.205078,4153.974121,4617.179688,4445.384766,4380.897461,4524.871582,6112.000000,4.000000,77.000000,,,,0.000000,4.000000,4.000000,4.000000,4.000000,4.000000,4.000000,4.000000,4.000000,4.000000,4.000000,4.000000,4.000000,4.000000,4.000000,100.000000,,,,,,,,,,,,,,,,,,,,,,,,,,,,
1703406901.901103,1703406901.901129,120.000000,0.000000,4204.743652,4172.051270,4284.615234,4242.820313,4157.948730,4192.692383,4216.282227,4155.384766,4148.846191,4155.897461,4619.743652,4450.256348,4378.846191,4527.692383,6523.000000,4.000000,77.000000,,,,0.000000,4.000000,4.000000,4.000000,4.000000,4.000000,4.000000,4.000000,4.000000,4.000000,4.000000,4.000000,4.000000,4.000000,4.000000,100.000000,,,,,,,,,,,,,,,,,30.000000,0.000000,0.593542,0.321777,-0.606323,0.420166,0.974728,-0.124527,0.060066,-13.875118,-42.689350,64.182640
1703406901.908911,1703406901.908937,121.000000,0.000000,4200.256348,4168.205078,4283.205078,4237.692383,4156.666504,4190.769043,4219.230957,4154.102539,4148.717773,4154.230957,4610.000000,4445.256348,4368.589844,4521.153809,7030.000000,4.000000,77.000000,,,,0.000000,4.000000,4.000000,4.000000,4.000000,4.000000,4.000000,4.000000,4.000000,4.000000,4.000000,4.000000,4.000000,4.000000,4.000000,100.000000,,,,,,,,,,,,,,,,,,,,,,,,,,,,
1703406901.916719,1703406901.916844,122.000000,0.000000,4192.179688,4157.820313,4278.077148,4230.897461,4155.128418,4196.794922,4221.794922,4152.948730,4142.436035,4145.384766,4599.743652,4433.461426,4364.102539,4512.948730,5836.000000,4.000000,77.000000,,,,0.000000,4.000000,4.000000,4.000000,4.000000,4.000000,4.000000,4.000000,4.000000,4.000000,4.000000,4.000000,4.000000,4.000000,4.000000,100.000000,,,,,,,,,,,,,,,,,,,,,,,,,,,,
1703406901.924527,1703406901.924652,123.000000,0.000000,4188.333496,4160.384766,4272.948730,4234.358887,4158.205078,4192.820313,4220.897461,4153.205078,4143.333496,4142.307617,4600.384766,4428.077148,4366.025879,4512.692383,6112.000000,4.000000,77.000000,,,,0.000000,4.000000,4.000000,4.000000,4.000000,4.000000,4.000000,4.000000,4.000000,4.000000,4.000000,4.000000,4.000000,4.000000,4.000000,100.000000,,,,,,,,,,,,,,,,,,,,,,,,,,,,
1703406901.932335,1703406901.932560,124.000000,0.000000,4187.563965,4162.820313,4274.102539,4240.897461,4157.179688,4189.102539,4221.282227,4155.641113,4151.666504,4146.410156,4603.461426,4429.871582,4366.666504,4512.179688,6523.000000,4.000000,77.000000,,,,0.000000,4.000000,4.000000,4.000000,4.000000,4.000000,4.000000,4.000000,4.000000,4.000000,4.000000,4.000000,4.000000,4.000000,4.000000,100.000000,,,,,,,,,,,,,,,,,31.000000,0.000000,0.593614,0.321838,-0.606262,0.420105,0.976193,-0.125992,0.058113,-13.837606,-42.687084,64.131042
1703406901.940143,1703406901.940468,125.000000,0.000000,4186.666504,4159.102539,4273.333496,4237.436035,4150.641113,4198.333496,4227.179688,4157.179688,4152.948730,4147.051270,4601.153809,4433.461426,4364.358887,4511.025879,7030.000000,4.000000,77.000000,,,,0.000000,4.000000,4.000000,4.000000,4.000000,4.000000,4.000000,4.000000,4.000000,4.000000,4.000000,4.000000,4.000000,4.000000,4.000000,100.000000,,,,,,,,,,,,,,,,,,,,,,,,,,,,
1703406901.947951,1703406901.948277,126.000000,0.000000,4191.153809,4161.666504,4267.820313,4230.512695,4152.563965,4204.230957,4235.000000,4154.871582,4149.743652,4148.589844,4600.128418,4432.051270,4364.230957,4515.512695,5836.000000,4.000000,77.000000,,,,0.000000,4.000000,4.000000,4.000000,4.000000,4.000000,4.000000,4.000000,4.000000,4.000000,4.000000,4.000000,4.000000,4.000000,4.000000,100.000000,,,,,,,,,,,,,,,,,,,,,,,,,,,,
1703406901.955759,1703406901.956085,127.000000,0.000000,4199.358887,4168.077148,4270.128418,4233.846191,4161.025879,4201.410156,4232.307617,4152.692383,4152.179688,4154.230957,4608.717773,4430.384766,4371.538574,4521.794922,77.000000,4.000000,77.000000,,,,0.000000,4.000000,4.000000,4.000000,4.000000,4.000000,4.000000,4.000000,4.000000,4.000000,4.000000,4.000000,4.000000,4.000000,4.000000,100.000000,,,,,,,,,,,,,,,,,,,,,,,,,,,,
1703406901.963567,1703406901.963993,0.000000,0.000000,4202.051270,4167.820313,4279.487305,4243.205078,4158.461426,4201.282227,4222.820313,4152.692383,4154.743652,4156.153809,4616.025879,4437.948730,4380.384766,4525.512695,4807.000000,4.000000,77.000000,,,,0.000000,4.000000,4.000000,4.000000,4.000000,4.000000,4.000000,4.000000,4.000000,4.000000,4.000000,4.000000,4.000000,4.000000,4.000000,100.000000,,,,,,,,,,,,,,,,,0.000000,0.000000,0.593764,0.321960,-0.606262,0.419800,1.002564,-0.134782,0.065438,-13.870513,-42.585041,64.234604
1703406901.971376,1703406901.971801,1.000000,0.000000,4201.410156,4167.563965,4280.897461,4244.102539,4158.461426,4200.128418,4224.358887,4153.333496,4149.871582,4154.230957,4613.333496,4444.871582,4378.717773,4526.922852,5268.000000,4.000000,77.000000,,,,0.000000,4.000000,4.000000,4.000000,4.000000,4.000000,4.000000,4.000000,4.000000,4.000000,4.000000,4.000000,4.000000,4.000000,4.000000,100.000000,,,,,,,,,,,,,,,,,,,,,,,,,,,,
1703406901.979184,1703406901.979509,2.000000,0.000000,4200.641113,4169.615234,4275.769043,4237.692383,4167.563965,4198.077148,4227.820313,4154.230957,4143.589844,4146.025879,4611.025879,4441.410156,4371.153809,4523.461426,5258.000000,4.000000,77.000000,,,,0.000000,4.000000,4.000000,4.000000,4.000000,4.000000,4.000000,4.000000,4.000000,4.000000,4.000000,4.000000,4.000000,4.000000,4.000000,100.000000,,,,,,,,,,,,,,,,,,,,,,,,,,,,
1703406901.986992,1703406901.987317,3.000000,0.000000,4199.487305,4165.512695,4278.077148,4234.871582,4167.179688,4199.871582,4226.922852,4156.282227,4146.922852,4142.307617,4615.897461,4441.538574,4375.641113,4522.948730,5258.000000,4.000000,77.000000,,,,0.000000,4.000000,4.000000,4.000000,4.000000,4.000000,4.000000,4.000000,4.000000,4.000000,4.000000,4.000000,4.000000,4.000000,4.000000,100.000000,,,,,,,,,,,,,,,,,,,,,,,,,,,,
1703406901.994800,1703406901.995025,4.000000,0.000000,4197.563965,4159.230957,4281.153809,4236.922852,4158.077148,4200.512695,4227.179688,4158.589844,4153.846191,4152.948730,4615.897461,4447.948730,4382.179688,4528.333496,5016.000000,4.000000,77.000000,,,,0.000000,4.000000,4.000000,4.000000,4.000000,4.000000,4.000000,4.000000,4.000000,4.000000,4.000000,4.000000,4.000000,4.000000,4.000000,100.000000,,,,,,,,,,,,,,,,,1.000000,0.000000,0.593592,0.322021,-0.606567,0.419556,0.985472,-0.124527,0.062508,-13.933461,-42.659870,64.361145
1703406902.002608,1703406902.002833,5.000000,0.000000,4190.512695,4154.102539,4270.512695,4234.358887,4155.384766,4199.358887,4225.769043,4157.051270,4151.410156,4152.179688,4604.358887,4440.641113,4374.102539,4520.641113,2601.000000,4.000000,77.000000,,,,0.000000,4.000000,4.000000,4.000000,4.000000,4.000000,4.000000,4.000000,4.000000,4.000000,4.000000,4.000000,4.000000,4.000000,4.000000,100.000000,,,,,,,,,,,,,,,,,,,,,,,,,,,,
1703406902.010416,1703406902.010541,6.000000,0.000000,4183.333496,4154.487305,4264.487305,4228.974121,4155.897461,4197.307617,4221.794922,4153.077148,4148.846191,4142.436035,4597.563965,4427.436035,4370.897461,4512.820313,2523.000000,4.000000,77.000000,,,,0.000000,4.000000,4.000000,4.000000,4.000000,4.000000,4.000000,4.000000,4.000000,4.000000,4.000000,4.000000,4.000000,4.000000,4.000000,100.000000,,,,,,,,,,,,,,,,,,,,,,,,,,,,
1703406902.018224,1703406902.018349,7.000000,0.000000,4191.025879,4157.179688,4271.025879,4232.820313,4153.846191,4198.974121,4226.410156,4153.974121,4151.922852,4148.717773,4606.538574,4432.307617,4381.794922,4520.769043,5374.000000,4.000000,77.000000,,,,0.000000,4.000000,4.000000,4.000000,4.000000,4.000000,4.000000,4.000000,4.000000,4.000000,4.000000,4.000000,4.000000,4.000000,4.000000,100.000000,,,,,,,,,,,,,,,,,,,,,,,,,,,,
1703406902.026032,1703406902.026057,8.000000,0.000000,4201.025879,4156.410156,4275.256348,4241.666504,4156.794922,4203.461426,4232.948730,4157.307617,4153.974121,4157.051270,4615.000000,4445.256348,4386.153809,4527.179688,4841.000000,4.000000,77.000000,,,,0.000000,4.000000,4.000000,4.000000,4.000000,4.000000,4.000000,4.000000,4.000000,4.000000,4.000000,4.000000,4.000000,4.000000,4.000000,100.000000,,,,,,,,,,,,,,,,,2.000000,0.000000,0.593507,0.322266,-0.606689,0.419312,0.990844,-0.103040,0.052252,-13.956782,-42.510551,64.308365
1703406902.033840,1703406902.033865,9.000000,0.000000,4195.384766,4156.282227,4274.230957,4243.589844,4160.512695,4204.487305,4229.102539,4154.743652,4153.846191,4153.077148,4608.717773,4442.563965,4382.948730,4524.358887,5203.000000,4.000000,77.000000,,,,0.000000,4.000000,4.000000,4.000000,4.000000,4.000000,4.000000,4.000000,4.000000,4.000000,4.000000,4.000000,4.000000,4.000000,4.000000,100.000000,,,,,,,,,,,,,,,,,,,,,,,,,,,,
1703406902.041648,1703406902.041573,10.000000,0.000000,4186.153809,4152.051270,4271.025879,4235.000000,4156.794922,4200.769043,4229.358887,4150.769043,4152.307617,4152.692383,4600.512695,4430.769043,4382.820313,4517.820313,5836.000000,4.000000,77.000000,,,,0.000000,4.000000,4.000000,4.000000,4.000000,4.000000,4.000000,4.000000,4.000000,4.000000,4.000000,4.000000,4.000000,4.000000,4.000000,100.000000,,,,,,,,,,,,,,,,,,,,,,,,,,,,
1703406902.049456,1703406902.049381,11.000000,0.000000,4183.846191,4143.077148,4263.717773,4228.205078,4151.282227,4198.589844,4232.820313,4150.641113,4150.128418,4155.512695,4599.615234,4426.922852,4379.615234,4509.102539,6113.000000,4.000000,77.000000,,,,0.000000,4.000000,4.000000,4.000000,4.000000,4.000000,4.000000,4.000000,4.000000,4.000000,4.000000,4.000000,4.000000,4.000000,4.000000,100.000000,,,,,,,,,,,,,,,,,,,,,,,,,,,,
1703406902.057264,1703406902.057089,12.000000,0.000000,4182.820313,4140.256348,4262.179688,4228.717773,4150.641113,4199.743652,4231.282227,4151.153809,4151.282227,4151.922852,4598.333496,4427.948730,4374.743652,4505.256348,6523.000000,4.000000,77.000000,,,,0.000000,4.000000,4.000000,4.000000,4.000000,4.000000,4.000000,4.000000,4.000000,4.000000,4.000000,4.000000,4.000000,4.000000,4.000000,100.000000,,,,,,,,,,,,,,,,,3.000000,0.000000,0.593642,0.323181,-0.606323,0.418945,0.992309,-0.124039,0.061043,-13.861104,-42.359493,64.210861
1703406902.065072,1703406902.064897,13.000000,0.000000,4181.922852,4144.487305,4267.179688,4230.000000,4157.948730,4200.256348,4231.794922,4150.769043,4153.077148,4149.615234,4593.717773,4427.436035,4373.846191,4507.563965,7030.000000,4.000000,77.000000,,,,0.000000,4.000000,4.000000,4.000000,4.000000,4.000000,4.000000,4.000000,4.000000,4.000000,4.000000,4.000000,4.000000,4.000000,4.000000,100.000000,,,,,,,,,,,,,,,,,,,,,,,,,,,,
1703406902.072880,1703406902.072605,14.000000,0.000000,4181.666504,4146.025879,4266.282227,4229.743652,4162.692383,4199.102539,4232.436035,4149.871582,4151.538574,4151.025879,4591.538574,4429.358887,4373.461426,4506.666504,5836.000000,4.000000,77.000000,,,,0.000000,4.000000,4.000000,4.000000,4.000000,4.000000,4.000000,4.000000,4.000000,4.000000,4.000000,4.000000,4.000000,4.000000,4.000000,100.000000,1.000000,91.666664,4.000000,4.000000,4.000000,4.000000,4.000000,3.000000,4.000000,4.000000,4.000000,4.000000,4.000000,4.000000,4.000000,4.000000,,,,,,,,,,,,
1703406902.080688,1703406902.080513,15.000000,0.000000,4182.436035,4144.871582,4263.717773,4228.461426,4157.820313,4200.384766,4233.205078,4152.307617,4151.025879,4152.179688,4597.692383,4432.948730,4374.487305,4506.025879,6113.000000,4.000000,77.000000,,,,0.000000,4.000000,4.000000,4.000000,4.000000,4.000000,4.000000,4.000000,4.000000,4.000000,4.000000,4.000000,4.000000,4.000000,4.000000,100.000000,,,,,,,,,,,,,,,,,,,,,,,,,,,,
1703406902.088496,1703406902.088321,16.000000,0.000000,4184.102539,4143.846191,4266.922852,4226.153809,4154.230957,4202.436035,4232.948730,4152.436035,4152.948730,4147.820313,4599.743652,4430.641113,4373.333496,4508.333496,0.000000,4.000000,77.000000,,,,0.000000,4.000000,4.000000,4.000000,4.000000,4.000000,4.000000,4.000000,4.000000,4.000000,4.000000,4.000000,4.000000,4.000000,4.000000,100.000000,,,,,,,,,,,,,,,,,4.000000,0.000000,0.593531,0.324402,-0.606201,0.418335,0.963985,-0.143084,0.063973,-13.958326,-42.390213,64.073105
1703406902.096304,1703406902.096229,17.000000,0.000000,4185.128418,4146.025879,4269.230957,4227.179688,4157.051270,4199.487305,4231.153809,4143.717773,4151.153809,4142.948730,4588.461426,4427.051270,4368.717773,4507.307617,0.000000,4.000000,77.000000,,,,0.000000,4.000000,4.000000,4.000000,4.000000,4.000000,4.000000,4.000000,4.000000,4.000000,4.000000,4.000000,4.000000,4.000000,4.000000,100.000000,,,,,,,,,,,,,,,,,,,,,,,,,,,,
1703406902.104113,1703406902.104037,18.000000,0.000000,4183.077148,4151.410156,4267.563965,4228.461426,4154.358887,4196.666504,4231.282227,4142.563965,4148.846191,4147.179688,4584.871582,4426.410156,4367.563965,4507.179688,0.000000,4.000000,77.000000,,,,0.000000,4.000000,4.000000,4.000000,4.000000,4.000000,4.000000,4.000000,4.000000,4.000000,4.000000,4.000000,4.000000,4.000000,4.000000,100.000000,,,,,,,,,,,,,,,,,,,,,,,,,,,,
1703406902.111920,1703406902.111944,19.000000,0.000000,4181.282227,4152.179688,4265.512695,4226.538574,4148.974121,4200.512695,4232.820313,4152.307617,4151.666504,4153.589844,4597.051270,4426.922852,4372.307617,4508.333496,0.000000,4.000000,77.000000,,,,0.000000,4.000000,4.000000,4.000000,4.000000,4.000000,4.000000,4.000000,4.000000,4.000000,4.000000,4.000000,4.000000,4.000000,4.000000,100.000000,,,,,,,,,,,,,,,,,,,,,,,,,,,,
1703406902.119728,1703406902.119752,20.000000,0.000000,4183.205078,4151.282227,4266.538574,4227.692383,4153.846191,4202.948730,4231.025879,4154.487305,4154.743652,4154.743652,4602.692383,4427.820313,4379.358887,4507.820313,0.000000,4.000000,77.000000,,,,0.000000,4.000000,4.000000,4.000000,4.000000,4.000000,4.000000,4.000000,4.000000,4.000000,4.000000,4.000000,4.000000,4.000000,4.000000,100.000000,,,,,,,,,,,,,,,,,5.000000,0.000000,0.593230,0.325317,-0.606384,0.417786,0.977170,-0.133317,0.047857,-13.895827,-42.434525,63.965797
1703406902.127537,1703406902.127660,21.000000,0.000000,4186.538574,4153.974121,4269.358887,4232.820313,4157.948730,4204.615234,4230.769043,4150.897461,4152.820313,4152.948730,4599.230957,4428.717773,4381.025879,4508.589844,0.000000,4.000000,77.000000,,,,0.000000,4.000000,4.000000,4.000000,4.000000,4.000000,4.000000,4.000000,4.000000,4.000000,4.000000,4.000000,4.000000,4.000000,4.000000,100.000000,,,,,,,,,,,,,,,,,,,,,,,,,,,,
1703406902.135345,1703406902.135468,22.000000,0.000000,4187.948730,4155.641113,4270.897461,4234.871582,4152.563965,4211.025879,4236.153809,4149.230957,4150.641113,4152.692383,4598.974121,4429.487305,4376.025879,4511.410156,0.000000,4.000000,77.000000,,,,0.000000,4.000000,4.000000,4.000000,4.000000,4.000000,4.000000,4.000000,4.000000,4.000000,4.000000,4.000000,4.000000,4.000000,4.000000,100.000000,,,,,,,,,,,,,,,,,,,,,,,,,,,,
1703406902.143153,1703406902.143376,23.000000,0.000000,4186.794922,4154.230957,4267.436035,4233.974121,4158.461426,4212.051270,4235.769043,4144.102539,4150.256348,4154.358887,4598.717773,4429.615234,4372.948730,4509.102539,0.000000,4.000000,77.000000,,,,0.000000,4.000000,4.000000,4.000000,4.000000,4.000000,4.000000,4.000000,4.000000,4.000000,4.000000,4.000000,4.000000,4.000000,4.000000,100.000000,,,,,,,,,,,,,,,,,,,,,,,,,,,,
1703406902.150961,1703406902.151184,24.000000,0.000000,4187.307617,4154.102539,4268.333496,4234.487305,4168.974121,4203.717773,4230.769043,4143.589844,4151.410156,4156.025879,4596.794922,4430.256348,4372.307617,4505.256348,0.000000,4.000000,77.000000,,,,0.000000,4.000000,4.000000,4.000000,4.000000,4.000000,4.000000,4.000000,4.000000,4.000000,4.000000,4.000000,4.000000,4.000000,4.000000,100.000000,,,,,,,,,,,,,,,,,6.000000,0.000000,0.593353,0.326294,-0.606201,0.417114,0.977658,-0.125015,0.049322,-13.839578,-42.441071,63.952553
1703406902.158769,1703406902.159092,25.000000,0.000000,4188.077148,4153.589844,4272.436035,4232.563965,4162.820313,4200.000000,4230.897461,4153.205078,4154.743652,4153.846191,4600.897461,4432.820313,4372.563965,4513.077148,0.000000,4.000000,77.000000,,,,0.000000,4.000000,4.000000,4.000000,4.000000,4.000000,4.000000,4.000000,4.000000,4.000000,4.000000,4.000000,4.000000,4.000000,4.000000,100.000000,,,,,,,,,,,,,,,,,,,,,,,,,,,,
1703406902.166577,1703406902.166900,26.000000,0.000000,4187.051270,4152.179688,4269.230957,4228.077148,4151.025879,4203.077148,4234.487305,4154.487305,4154.743652,4152.307617,4601.794922,4434.230957,4374.871582,4520.641113,0.000000,4.000000,77.000000,,,,0.000000,4.000000,4.000000,4.000000,4.000000,4.000000,4.000000,4.000000,4.000000,4.000000,4.000000,4.000000,4.000000,4.000000,4.000000,100.000000,,,,,,,,,,,,,,,,,,,,,,,,,,,,
1703406902.174385,1703406902.174608,27.000000,0.000000,4187.692383,4153.205078,4269.358887,4227.436035,4155.128418,4202.820313,4237.307617,4144.487305,4151.922852,4155.897461,4593.974121,4432.563965,4374.102539,4513.846191,0.000000,4.000000,77.000000,,,,0.000000,4.000000,4.000000,4.000000,4.000000,4.000000,4.000000,4.000000,4.000000,4.000000,4.000000,4.000000,4.000000,4.000000,4.000000,100.000000,,,,,,,,,,,,,,,,,,,,,,,,,,,,
1703406902.182193,1703406902.182416,28.000000,0.000000,4187.436035,4152.307617,4274.743652,4230.512695,4165.769043,4202.051270,4237.948730,4140.641113,4150.897461,4149.615234,4591.794922,4430.000000,4370.128418,4509.871582,0.000000,4.000000,77.000000,,,,0.000000,4.000000,4.000000,4.000000,4.000000,4.000000,4.000000,4.000000,4.000000,4.000000,4.000000,4.000000,4.000000,4.000000,4.000000,100.000000,,,,,,,,,,,,,,,,,7.000000,0.000000,0.593486,0.326782,-0.606018,0.416809,0.987425,-0.123550,0.046881,-13.622287,-42.430298,63.840630
1703406902.190001,1703406902.190124,29.000000,0.000000,4184.487305,4150.128418,4272.051270,4230.256348,4161.538574,4203.717773,4234.615234,4145.512695,4151.794922,4141.538574,4597.563965,4428.974121,4368.077148,4514.871582,0.000000,4.000000,77.000000,,,,0.000000,4.000000,4.000000,4.000000,4.000000,4.000000,4.000000,4.000000,4.000000,4.000000,4.000000,4.000000,4.000000,4.000000,4.000000,100.000000,,,,,,,,,,,,,,,,,,,,,,,,,,,,
1703406902.197809,1703406902.197932,30.000000,0.000000,4182.692383,4150.256348,4266.666504,4227.051270,4153.333496,4203.461426,4228.846191,4149.230957,4153.717773,4147.692383,4597.307617,4429.487305,4366.922852,4511.794922,0.000000,4.000000,77.000000,,,,0.000000,4.000000,4.000000,4.000000,4.000000,4.000000,4.000000,4.000000,4.000000,4.000000,4.000000,4.000000,4.000000,4.000000,4.000000,100.000000,,,,,,,,,,,,,,,,,,,,,,,,,,,,
1703406902.205617,1703406902.205640,31.000000,0.000000,4183.717773,4152.563965,4271.794922,4229.102539,4154.615234,4202.692383,4231.025879,4149.871582,4153.589844,4156.666504,4595.256348,4431.025879,4366.666504,4505.641113,0.000000,4.000000,77.000000,,,,0.000000,4.000000,4.000000,4.000000,4.000000,4.000000,4.000000,4.000000,4.000000,4.000000,4.000000,4.000000,4.000000,4.000000,4.000000,100.000000,,,,,,,,,,,,,,,,,,,,,,,,,,,,
1703406902.213425,1703406902.213448,32.000000,0.000000,4185.384766,4155.000000,4277.692383,4233.846191,4156.666504,4201.922852,4237.820313,4153.077148,4153.589844,4158.077148,4601.282227,4431.922852,4369.615234,4515.384766,0.000000,4.000000,77.000000,,,,0.000000,4.000000,4.000000,4.000000,4.000000,4.000000,4.000000,4.000000,4.000000,4.000000,4.000000,4.000000,4.000000,4.000000,4.000000,100.000000,,,,,,,,,,,,,,,,,8.000000,0.000000,0.593778,0.327637,-0.605774,0.416077,0.981565,-0.111830,0.041021,-13.710058,-42.387268,63.889900
1703406902.221233,1703406902.221156,33.000000,0.000000,4183.974121,4153.461426,4276.538574,4232.436035,4155.256348,4201.153809,4235.512695,4154.743652,4155.897461,4157.563965,4603.717773,4431.410156,4370.641113,4520.384766,0.000000,4.000000,77.000000,,,,0.000000,4.000000,4.000000,4.000000,4.000000,4.000000,4.000000,4.000000,4.000000,4.000000,4.000000,4.000000,4.000000,4.000000,4.000000,100.000000,,,,,,,,,,,,,,,,,,,,,,,,,,,,
1703406902.229041,1703406902.228964,34.000000,0.000000,4181.794922,4151.538574,4275.384766,4229.743652,4160.000000,4201.410156,4235.641113,4153.333496,4156.666504,4156.410156,4599.358887,4431.153809,4369.102539,4511.794922,0.000000,4.000000,77.000000,,,,0.000000,4.000000,4.000000,4.000000,4.000000,4.000000,4.000000,4.000000,4.000000,4.000000,4.000000,4.000000,4.000000,4.000000,4.000000,100.000000,,,,,,,,,,,,,,,,,,,,,,,,,,,,
1703406902.236849,1703406902.236672,35.000000,0.000000,4183.974121,4154.871582,4276.922852,4232.948730,4167.307617,4208.205078,4241.922852,4155.256348,4155.256348,4154.743652,4601.922852,4431.922852,4370.256348,4511.410156,0.000000,4.000000,77.000000,,,,0.000000,4.000000,4.000000,4.000000,4.000000,4.000000,4.000000,4.000000,4.000000,4.000000,4.000000,4.000000,4.000000,4.000000,4.000000,100.000000,,,,,,,,,,,,,,,,,,,,,,,,,,,,
1703406902.244657,1703406902.244580,36.000000,0.000000,4185.384766,4157.051270,4277.051270,4234.615234,4167.436035,4215.897461,4241.153809,4154.615234,4154.358887,4155.641113,4604.487305,4431.794922,4370.384766,4513.974121,0.000000,4.000000,77.000000,,,,0.000000,4.000000,4.000000,4.000000,4.000000,4.000000,4.000000,4.000000,4.000000,4.000000,4.000000,4.000000,4.000000,4.000000,4.000000,100.000000,,,,,,,,,,,,,,,,,9.000000,0.000000,0.594181,0.328552,-0.605469,0.415222,0.990844,-0.106947,0.054206,-13.772386,-42.165207,63.784245
1703406902.252465,1703406902.252388,37.000000,0.000000,4181.153809,4152.692383,4273.333496,4231.538574,4167.692383,4216.794922,4238.846191,4150.384766,4153.589844,4154.487305,4601.538574,4429.230957,4367.436035,4506.025879,0.000000,4.000000,77.000000,,,,0.000000,4.000000,4.000000,4.000000,4.000000,4.000000,4.000000,4.000000,4.000000,4.000000,4.000000,4.000000,4.000000,4.000000,4.000000,100.000000,,,,,,,,,,,,,,,,,,,,,,,,,,,,
1703406902.260273,1703406902.260296,38.000000,0.000000,4180.256348,4154.358887,4274.487305,4231.666504,4167.692383,4214.358887,4240.000000,4150.641113,4152.692383,4153.461426,4605.641113,4429.615234,4369.487305,4505.769043,0.000000,4.000000,77.000000,,,,0.000000,4.000000,4.000000,4.000000,4.000000,4.000000,4.000000,4.000000,4.000000,4.000000,4.000000,4.000000,4.000000,4.000000,4.000000,100.000000,,,,,,,,,,,,,,,,,,,,,,,,,,,,
1703406902.268082,1703406902.268104,39.000000,0.000000,4186.922852,4164.487305,4280.769043,4235.128418,4166.025879,4218.461426,4241.410156,4153.461426,4154.230957,4154.743652,4610.256348,4435.000000,4377.051270,4520.769043,0.000000,4.000000,77.000000,,,,0.000000,4.000000,4.000000,4.000000,4.000000,4.000000,4.000000,4.000000,4.000000,4.000000,4.000000,4.000000,4.000000,4.000000,4.000000,100.000000,,,,,,,,,,,,,,,,,,,,,,,,,,,,
1703406902.275890,1703406902.276012,40.000000,0.000000,4190.512695,4163.333496,4278.077148,4234.358887,4169.743652,4224.615234,4244.358887,4154.358887,4155.512695,4153.077148,4606.666504,4433.846191,4378.461426,4525.256348,0.000000,4.000000,77.000000,,,,0.000000,4.000000,4.000000,4.000000,4.000000,4.000000,4.000000,4.000000,4.000000,4.000000,4.000000,4.000000,4.000000,4.000000,4.000000,100.000000,,,,,,,,,,,,,,,,,10.000000,0.000000,0.594708,0.329163,-0.605164,0.414429,0.982053,-0.102063,0.052741,-13.828481,-42.132019,63.855820
1703406902.283697,1703406902.283820,41.000000,0.000000,4188.333496,4156.410156,4275.897461,4230.641113,4167.563965,4220.512695,4243.205078,4157.948730,4154.743652,4156.025879,4607.436035,4430.641113,4376.153809,4520.897461,0.000000,4.000000,77.000000,,,,0.000000,4.000000,4.000000,4.000000,4.000000,4.000000,4.000000,4.000000,4.000000,4.000000,4.000000,4.000000,4.000000,4.000000,4.000000,100.000000,,,,,,,,,,,,,,,,,,,,,,,,,,,,
1703406902.291506,1703406902.291728,42.000000,0.000000,4187.179688,4159.487305,4279.230957,4230.128418,4158.717773,4214.102539,4233.974121,4158.846191,4154.871582,4163.205078,4616.410156,4438.205078,4383.589844,4523.589844,0.000000,4.000000,77.000000,,,,0.000000,4.000000,4.000000,4.000000,4.000000,4.000000,4.000000,4.000000,4.000000,4.000000,4.000000,4.000000,4.000000,4.000000,4.000000,100.000000,,,,,,,,,,,,,,,,,,,,,,,,,,,,
1703406902.299314,1703406902.299536,43.000000,0.000000,4188.077148,4163.333496,4281.666504,4231.922852,4162.179688,4215.256348,4230.512695,4155.512695,4155.128418,4162.179688,4615.769043,4442.820313,4385.256348,4525.256348,0.000000,4.000000,77.000000,,,,0.000000,4.000000,4.000000,4.000000,4.000000,4.000000,4.000000,4.000000,4.000000,4.000000,4.000000,4.000000,4.000000,4.000000,4.000000,100.000000,,,,,,,,,,,,,,,,,,,,,,,,,,,,
1703406902.307122,1703406902.307443,44.000000,0.000000,4188.333496,4158.589844,4280.256348,4230.769043,4166.538574,4216.410156,4236.794922,4155.769043,4155.128418,4154.358887,4609.487305,4435.641113,4373.589844,4522.692383,0.000000,4.000000,77.000000,,,,0.000000,4.000000,4.000000,4.000000,4.000000,4.000000,4.000000,4.000000,4.000000,4.000000,4.000000,4.000000,4.000000,4.000000,4.000000,100.000000,,,,,,,,,,,,,,,,,11.000000,0.000000,0.595128,0.329956,-0.604736,0.413818,0.986937,-0.090343,0.044927,-13.878965,-41.935486,63.803570
1703406902.314930,1703406902.315251,45.000000,0.000000,4181.153809,4154.230957,4275.256348,4225.512695,4157.179688,4213.461426,4237.436035,4157.692383,4154.871582,4154.358887,4610.512695,4430.128418,4368.846191,4517.179688,0.000000,4.000000,77.000000,,,,0.000000,4.000000,4.000000,4.000000,4.000000,4.000000,4.000000,4.000000,4.000000,4.000000,4.000000,4.000000,4.000000,4.000000,4.000000,100.000000,,,,,,,,,,,,,,,,,,,,,,,,,,,,
1703406902.322738,1703406902.323159,46.000000,0.000000,4174.615234,4155.384766,4274.487305,4224.871582,4151.282227,4213.846191,4235.769043,4158.077148,4155.000000,4156.410156,4607.948730,4430.512695,4369.230957,4511.538574,0.000000,4.000000,77.000000,,,,0.000000,4.000000,4.000000,4.000000,4.000000,4.000000,4.000000,4.000000,4.000000,4.000000,4.000000,4.000000,4.000000,4.000000,4.000000,100.000000,,,,,,,,,,,,,,,,,,,,,,,,,,,,
1703406902.330546,1703406902.330967,47.000000,0.000000,4179.743652,4155.512695,4280.256348,4229.358887,4155.641113,4216.025879,4241.410156,4159.487305,4155.384766,4151.025879,4603.077148,4429.615234,4367.051270,4509.871582,0.000000,4.000000,77.000000,,,,0.000000,4.000000,4.000000,4.000000,4.000000,4.000000,4.000000,4.000000,4.000000,4.000000,4.000000,4.000000,4.000000,4.000000,4.000000,100.000000,,,,,,,,,,,,,,,,,,,,,,,,,,,,
1703406902.338354,1703406902.338875,48.000000,0.000000,4183.077148,4156.794922,4277.948730,4229.871582,4157.820313,4216.153809,4244.487305,4155.641113,4153.974121,4150.897461,4604.615234,4428.846191,4370.128418,4511.794922,0.000000,4.000000,77.000000,,,,0.000000,4.000000,4.000000,4.000000,4.000000,4.000000,4.000000,4.000000,4.000000,4.000000,4.000000,4.000000,4.000000,4.000000,4.000000,100.000000,,,,,,,,,,,,,,,,,12.000000,0.000000,0.595300,0.330627,-0.604492,0.413391,0.987425,-0.086925,0.044927,-13.841069,-41.891937,63.706547
1703406902.346162,1703406902.346683,49.000000,0.000000,4180.256348,4163.846191,4270.512695,4228.717773,4155.256348,4216.410156,4240.512695,4148.717773,4151.666504,4157.179688,4609.615234,4430.897461,4373.974121,4516.666504,0.000000,4.000000,77.000000,,,,0.000000,4.000000,4.000000,4.000000,4.000000,4.000000,4.000000,4.000000,4.000000,4.000000,4.000000,4.000000,4.000000,4.000000,4.000000,100.000000,,,,,,,,,,,,,,,,,,,,,,,,,,,,
1703406902.353970,1703406902.354391,50.000000,0.000000,4182.948730,4169.871582,4273.461426,4231.410156,4153.846191,4216.922852,4238.717773,4150.000000,4151.794922,4156.922852,4610.128418,4432.436035,4371.666504,4521.794922,0.000000,4.000000,77.000000,,,,0.000000,4.000000,4.000000,4.000000,4.000000,4.000000,4.000000,4.000000,4.000000,4.000000,4.000000,4.000000,4.000000,4.000000,4.000000,100.000000,,,,,,,,,,,,,,,,,,,,,,,,,,,,
1703406902.361778,1703406902.362199,51.000000,0.000000,4183.333496,4169.871582,4275.128418,4233.077148,4161.153809,4218.205078,4238.461426,4154.743652,4153.717773,4153.846191,4612.179688,4434.871582,4373.846191,4521.282227,0.000000,4.000000,77.000000,,,,0.000000,4.000000,4.000000,4.000000,4.000000,4.000000,4.000000,4.000000,4.000000,4.000000,4.000000,4.000000,4.000000,4.000000,4.000000,100.000000,,,,,,,,,,,,,,,,,,,,,,,,,,,,
1703406902.369586,1703406902.369907,52.000000,0.000000,4175.769043,4169.871582,4273.717773,4234.102539,4168.974121,4216.794922,4241.282227,4154.615234,4153.077148,4155.128418,4616.666504,4437.307617,4376.153809,4517.948730,0.000000,4.000000,77.000000,,,,0.000000,4.000000,4.000000,4.000000,4.000000,4.000000,4.000000,4.000000,4.000000,4.000000,4.000000,4.000000,4.000000,4.000000,4.000000,100.000000,,,,,,,,,,,,,,,,,13.000000,0.000000,0.595316,0.331238,-0.604309,0.413147,0.980100,-0.090831,0.042974,-13.906962,-42.036076,63.769226
1703406902.377394,1703406902.377715,53.000000,0.000000,4175.769043,4170.897461,4274.358887,4235.384766,4160.897461,4214.615234,4243.974121,4153.846191,4151.538574,4153.974121,4610.128418,4434.871582,4367.692383,4518.974121,0.000000,4.000000,77.000000,,,,0.000000,4.000000,4.000000,4.000000,4.000000,4.000000,4.000000,4.000000,4.000000,4.000000,4.000000,4.000000,4.000000,4.000000,4.000000,100.000000,,,,,,,,,,,,,,,,,,,,,,,,,,,,
1703406902.385202,1703406902.385423,54.000000,0.000000,4182.307617,4168.333496,4271.282227,4232.692383,4151.153809,4215.512695,4241.025879,4157.179688,4154.102539,4151.282227,4602.436035,4430.897461,4361.794922,4518.461426,0.000000,4.000000,77.000000,,,,0.000000,4.000000,4.000000,4.000000,4.000000,4.000000,4.000000,4.000000,4.000000,4.000000,4.000000,4.000000,4.000000,4.000000,4.000000,100.000000,,,,,,,,,,,,,,,,,,,,,,,,,,,,
1703406902.393010,1703406902.393331,55.000000,0.000000,4179.487305,4168.461426,4270.897461,4232.436035,4157.820313,4217.563965,4238.205078,4157.563965,4153.077148,4150.897461,4603.589844,4432.179688,4366.410156,4512.563965,0.000000,4.000000,77.000000,,,,0.000000,4.000000,4.000000,4.000000,4.000000,4.000000,4.000000,4.000000,4.000000,4.000000,4.000000,4.000000,4.000000,4.000000,4.000000,100.000000,,,,,,,,,,,,,,,,,,,,,,,,,,,,
1703406902.400818,1703406902.401139,56.000000,0.000000,4172.179688,4169.871582,4269.743652,4234.230957,4170.000000,4215.000000,4238.974121,4146.922852,4144.358887,4146.410156,4600.384766,4426.410156,4364.871582,4507.563965,0.000000,4.000000,77.000000,,,,0.000000,4.000000,4.000000,4.000000,4.000000,4.000000,4.000000,4.000000,4.000000,4.000000,4.000000,4.000000,4.000000,4.000000,4.000000,100.000000,,,,,,,,,,,,,,,,,14.000000,0.000000,0.595313,0.331543,-0.604187,0.413086,0.971310,-0.099133,0.035649,-13.999599,-42.015800,63.892303
1703406902.408626,1703406902.408947,57.000000,0.000000,4169.487305,4167.307617,4263.077148,4231.410156,4166.794922,4214.615234,4239.102539,4138.974121,4138.846191,4138.717773,4591.794922,4418.461426,4356.538574,4505.000000,0.000000,4.000000,77.000000,,,,0.000000,4.000000,4.000000,4.000000,4.000000,4.000000,4.000000,4.000000,4.000000,4.000000,4.000000,4.000000,4.000000,4.000000,4.000000,100.000000,,,,,,,,,,,,,,,,,,,,,,,,,,,,
1703406902.416434,1703406902.416655,58.000000,0.000000,4172.563965,4166.025879,4262.820313,4228.461426,4157.051270,4218.717773,4238.974121,4146.282227,4145.256348,4135.897461,4594.743652,4420.256348,4358.205078,4506.538574,0.000000,4.000000,77.000000,,,,0.000000,4.000000,4.000000,4.000000,4.000000,4.000000,4.000000,4.000000,4.000000,4.000000,4.000000,4.000000,4.000000,4.000000,4.000000,100.000000,,,,,,,,,,,,,,,,,,,,,,,,,,,,
1703406902.424243,1703406902.424463,59.000000,0.000000,4179.743652,4168.974121,4270.128418,4231.282227,4160.000000,4220.128418,4239.871582,4153.974121,4152.179688,4143.077148,4602.436035,4423.589844,4366.282227,4510.384766,0.000000,4.000000,77.000000,,,,0.000000,4.000000,4.000000,4.000000,4.000000,4.000000,4.000000,4.000000,4.000000,4.000000,4.000000,4.000000,4.000000,4.000000,4.000000,100.000000,,,,,,,,,,,,,,,,,,,,,,,,,,,,
1703406902.432051,1703406902.432171,60.000000,0.000000,4184.487305,4171.666504,4272.820313,4234.230957,4169.102539,4226.410156,4240.897461,4152.307617,4150.769043,4151.794922,4601.282227,4423.333496,4366.666504,4510.256348,0.000000,4.000000,77.000000,,,,0.000000,4.000000,4.000000,4.000000,4.000000,4.000000,4.000000,4.000000,4.000000,4.000000,4.000000,4.000000,4.000000,4.000000,4.000000,100.000000,,,,,,,,,,,,,,,,,15.000000,0.000000,0.595399,0.331909,-0.603943,0.413025,0.978635,-0.103528,0.035161,-13.899639,-42.047554,63.786407
1703406902.439859,1703406902.439979,61.000000,0.000000,4185.256348,4172.820313,4273.461426,4235.769043,4170.641113,4230.641113,4242.948730,4151.538574,4149.487305,4153.333496,4599.871582,4426.410156,4369.487305,4513.205078,0.000000,4.000000,77.000000,,,,0.000000,4.000000,4.000000,4.000000,4.000000,4.000000,4.000000,4.000000,4.000000,4.000000,4.000000,4.000000,4.000000,4.000000,4.000000,100.000000,,,,,,,,,,,,,,,,,,,,,,,,,,,,
1703406902.447667,1703406902.447687,62.000000,0.000000,4186.025879,4171.410156,4273.077148,4236.153809,4168.589844,4223.205078,4243.717773,4152.692383,4151.025879,4151.538574,4601.794922,4428.974121,4375.769043,4520.769043,0.000000,4.000000,77.000000,,,,0.000000,4.000000,4.000000,4.000000,4.000000,4.000000,4.000000,4.000000,4.000000,4.000000,4.000000,4.000000,4.000000,4.000000,4.000000,100.000000,,,,,,,,,,,,,,,,,,,,,,,,,,,,
1703406902.455475,1703406902.455595,63.000000,0.000000,4185.769043,4170.512695,4270.897461,4234.871582,4167.179688,4219.230957,4240.256348,4150.641113,4151.153809,4151.410156,4603.333496,4427.307617,4369.743652,4519.102539,0.000000,4.000000,77.000000,,,,0.000000,4.000000,4.000000,4.000000,4.000000,4.000000,4.000000,4.000000,4.000000,4.000000,4.000000,4.000000,4.000000,4.000000,4.000000,100.000000,,,,,,,,,,,,,,,,,,,,,,,,,,,,
1703406902.463283,1703406902.463403,64.000000,0.000000,4183.846191,4173.846191,4275.641113,4233.974121,4167.692383,4225.256348,4237.563965,4150.769043,4150.769043,4153.205078,4602.692383,4428.461426,4363.333496,4513.717773,4809.000000,4.000000,77.000000,,,,0.000000,4.000000,4.000000,4.000000,4.000000,4.000000,4.000000,4.000000,4.000000,4.000000,4.000000,4.000000,4.000000,4.000000,4.000000,100.000000,,,,,,,,,,,,,,,,,16.000000,0.000000,0.595404,0.331970,-0.603821,0.413147,0.981565,-0.114760,0.041997,-13.743009,-42.009468,63.791100
1703406902.471091,1703406902.471311,65.000000,0.000000,4186.282227,4174.615234,4278.974121,4233.461426,4171.794922,4230.769043,4241.922852,4156.025879,4152.948730,4155.641113,4603.077148,4432.948730,4371.153809,4519.102539,5267.000000,4.000000,77.000000,,,,0.000000,4.000000,4.000000,4.000000,4.000000,4.000000,4.000000,4.000000,4.000000,4.000000,4.000000,4.000000,4.000000,4.000000,4.000000,100.000000,,,,,,,,,,,,,,,,,,,,,,,,,,,,
1703406902.478899,1703406902.479119,66.000000,0.000000,4188.589844,4171.666504,4276.794922,4232.820313,4169.743652,4229.743652,4247.307617,4156.282227,4155.000000,4156.025879,4606.922852,4433.461426,4372.948730,4523.077148,5258.000000,4.000000,77.000000,,,,0.000000,4.000000,4.000000,4.000000,4.000000,4.000000,4.000000,4.000000,4.000000,4.000000,4.000000,4.000000,4.000000,4.000000,4.000000,100.000000,,,,,,,,,,,,,,,,,,,,,,,,,,,,
1703406902.486707,1703406902.487027,67.000000,0.000000,4185.128418,4172.179688,4278.589844,4232.563965,4165.384766,4228.974121,4243.846191,4155.256348,4157.692383,4155.769043,4611.794922,4433.333496,4364.615234,4518.461426,5253.000000,4.000000,77.000000,,,,0.000000,4.000000,4.000000,4.000000,4.000000,4.000000,4.000000,4.000000,4.000000,4.000000,4.000000,4.000000,4.000000,4.000000,4.000000,100.000000,,,,,,,,,,,,,,,,,,,,,,,,,,,,
1703406902.494515,1703406902.494835,68.000000,0.000000,4184.358887,4173.717773,4280.897461,4231.538574,4171.666504,4229.102539,4241.794922,4163.589844,4161.538574,4159.615234,4615.384766,4439.871582,4366.538574,4519.358887,5016.000000,4.000000,77.000000,,,,0.000000,4.000000,4.000000,4.000000,4.000000,4.000000,4.000000,4.000000,4.000000,4.000000,4.000000,4.000000,4.000000,4.000000,4.000000,100.000000,,,,,,,,,,,,,,,,,17.000000,0.000000,0.595655,0.331970,-0.603699,0.412964,0.984495,-0.096203,0.042974,-13.768708,-41.991852,63.745323
1703406902.502323,1703406902.502743,69.000000,0.000000,4186.666504,4169.615234,4275.512695,4229.358887,4168.846191,4226.922852,4246.153809,4173.717773,4159.743652,4161.410156,4613.589844,4444.743652,4370.641113,4520.512695,2595.000000,4.000000,77.000000,,,,0.000000,4.000000,4.000000,4.000000,4.000000,4.000000,4.000000,4.000000,4.000000,4.000000,4.000000,4.000000,4.000000,4.000000,4.000000,100.000000,,,,,,,,,,,,,,,,,,,,,,,,,,,,
1703406902.510131,1703406902.510651,70.000000,0.000000,4182.948730,4166.666504,4271.666504,4231.153809,4154.487305,4226.794922,4246.794922,4168.717773,4156.666504,4156.794922,4605.897461,4436.922852,4362.307617,4511.666504,2523.000000,4.000000,77.000000,,,,0.000000,4.000000,4.000000,4.000000,4.000000,4.000000,4.000000,4.000000,4.000000,4.000000,4.000000,4.000000,4.000000,4.000000,4.000000,100.000000,,,,,,,,,,,,,,,,,,,,,,,,,,,,
1703406902.517939,1703406902.518459,71.000000,0.000000,4176.153809,4168.717773,4270.512695,4231.282227,4155.512695,4227.436035,4243.205078,4154.358887,4150.897461,4150.000000,4600.384766,4426.410156,4353.846191,4505.256348,5374.000000,4.000000,77.000000,,,,0.000000,4.000000,4.000000,4.000000,4.000000,4.000000,4.000000,4.000000,4.000000,4.000000,4.000000,4.000000,4.000000,4.000000,4.000000,100.000000,,,,,,,,,,,,,,,,,,,,,,,,,,,,
1703406902.525747,1703406902.526267,72.000000,0.000000,4173.333496,4163.846191,4267.436035,4223.077148,4167.692383,4223.461426,4240.897461,4148.846191,4141.282227,4141.538574,4599.615234,4424.102539,4353.461426,4504.871582,4839.000000,4.000000,77.000000,,,,0.000000,4.000000,4.000000,4.000000,4.000000,4.000000,4.000000,4.000000,4.000000,4.000000,4.000000,4.000000,4.000000,4.000000,4.000000,100.000000,,,,,,,,,,,,,,,,,18.000000,0.000000,0.595935,0.331543,-0.603699,0.412903,0.987425,-0.093761,0.047857,-13.825171,-42.109333,63.870789
1703406902.533555,1703406902.534175,73.000000,0.000000,4173.717773,4159.871582,4270.256348,4219.230957,4171.153809,4216.153809,4241.025879,4150.512695,4137.563965,4133.589844,4599.230957,4426.410156,4354.487305,4503.333496,5200.000000,4.000000,77.000000,,,,0.000000,4.000000,4.000000,4.000000,4.000000,4.000000,4.000000,4.000000,4.000000,4.000000,4.000000,4.000000,4.000000,4.000000,4.000000,100.000000,,,,,,,,,,,,,,,,,,,,,,,,,,,,
1703406902.541363,1703406902.541983,74.000000,0.000000,4173.974121,4160.512695,4272.820313,4223.333496,4162.563965,4215.641113,4241.538574,4153.461426,4141.922852,4135.641113,4600.512695,4429.487305,4355.128418,4503.461426,5834.000000,4.000000,77.000000,,,,0.000000,4.000000,4.000000,4.000000,4.000000,4.000000,4.000000,4.000000,4.000000,4.000000,4.000000,4.000000,4.000000,4.000000,4.000000,100.000000,,,,,,,,,,,,,,,,,,,,,,,,,,,,
1703406902.549171,1703406902.549691,75.000000,0.000000,4173.717773,4160.128418,4267.820313,4225.000000,4155.897461,4218.333496,4239.487305,4155.897461,4144.871582,4141.666504,4602.820313,4430.897461,4353.974121,4505.128418,6108.000000,4.000000,77.000000,,,,0.000000,4.000000,4.000000,4.000000,4.000000,4.000000,4.000000,4.000000,4.000000,4.000000,4.000000,4.000000,4.000000,4.000000,4.000000,100.000000,,,,,,,,,,,,,,,,,,,,,,,,,,,,
1703406902.556980,1703406902.557499,76.000000,0.000000,4173.717773,4160.897461,4268.717773,4226.794922,4161.153809,4216.282227,4237.051270,4155.000000,4142.051270,4139.871582,4601.922852,4427.563965,4353.077148,4503.461426,6514.000000,4.000000,77.000000,,,,0.000000,4.000000,4.000000,4.000000,4.000000,4.000000,4.000000,4.000000,4.000000,4.000000,4.000000,4.000000,4.000000,4.000000,4.000000,100.000000,,,,,,,,,,,,,,,,,19.000000,0.000000,0.596043,0.330933,-0.603760,0.413147,0.997192,-0.092296,0.051276,-13.842653,-42.165066,64.017044
1703406902.564788,1703406902.565207,77.000000,0.000000,4174.615234,4161.794922,4276.153809,4231.922852,4165.128418,4217.820313,4237.436035,4157.948730,4143.461426,4138.717773,4601.666504,4428.589844,4358.589844,4503.717773,7030.000000,4.000000,77.000000,,,,0.000000,4.000000,4.000000,4.000000,4.000000,4.000000,4.000000,4.000000,4.000000,4.000000,4.000000,4.000000,4.000000,4.000000,4.000000,100.000000,,,,,,,,,,,,,,,,,,,,,,,,,,,,
1703406902.572595,1703406902.573015,78.000000,0.000000,4172.948730,4155.769043,4275.897461,4231.666504,4158.846191,4222.179688,4239.487305,4166.282227,4153.974121,4146.025879,4604.743652,4437.948730,4361.922852,4507.436035,5834.000000,4.000000,77.000000,,,,0.000000,4.000000,4.000000,4.000000,4.000000,4.000000,4.000000,4.000000,4.000000,4.000000,4.000000,4.000000,4.000000,4.000000,4.000000,100.000000,1.000000,66.666664,4.000000,4.000000,4.000000,4.000000,4.000000,4.000000,3.000000,4.000000,1.000000,4.000000,4.000000,4.000000,4.000000,4.000000,,,,,,,,,,,,
1703406902.580404,1703406902.580723,79.000000,0.000000,4168.461426,4154.230957,4274.487305,4229.230957,4158.589844,4223.461426,4240.897461,4172.051270,4160.641113,4153.205078,4610.128418,4444.230957,4359.358887,4507.692383,6108.000000,4.000000,77.000000,,,,0.000000,4.000000,4.000000,4.000000,4.000000,4.000000,4.000000,4.000000,4.000000,4.000000,4.000000,4.000000,4.000000,4.000000,4.000000,100.000000,,,,,,,,,,,,,,,,,,,,,,,,,,,,
1703406902.588212,1703406902.588531,80.000000,0.000000,4174.230957,4165.769043,4280.000000,4232.436035,4169.743652,4220.000000,4242.307617,4170.641113,4156.922852,4154.743652,4610.256348,4444.487305,4362.692383,4506.410156,6514.000000,4.000000,77.000000,,,,0.000000,4.000000,4.000000,4.000000,4.000000,4.000000,4.000000,4.000000,4.000000,4.000000,4.000000,4.000000,4.000000,4.000000,4.000000,100.000000,,,,,,,,,,,,,,,,,20.000000,0.000000,0.595947,0.330688,-0.603821,0.413391,0.988402,-0.101087,0.055183,-14.091722,-42.065228,63.998672
1703406902.596020,1703406902.596239,81.000000,0.000000,4184.230957,4167.820313,4283.077148,4236.922852,4172.307617,4217.051270,4242.179688,4163.205078,4150.769043,4151.282227,4603.589844,4445.897461,4371.538574,4510.256348,7030.000000,4.000000,77.000000,,,,0.000000,4.000000,4.000000,4.000000,4.000000,4.000000,4.000000,4.000000,4.000000,4.000000,4.000000,4.000000,4.000000,4.000000,4.000000,100.000000,,,,,,,,,,,,,,,,,,,,,,,,,,,,
1703406902.603828,1703406902.604047,82.000000,0.000000,4176.666504,4156.282227,4277.692383,4234.615234,4163.589844,4219.230957,4239.743652,4152.692383,4146.025879,4143.205078,4600.000000,4442.307617,4370.897461,4506.922852,5834.000000,4.000000,77.000000,,,,0.000000,4.000000,4.000000,4.000000,4.000000,4.000000,4.000000,4.000000,4.000000,4.000000,4.000000,4.000000,4.000000,4.000000,4.000000,100.000000,,,,,,,,,,,,,,,,,,,,,,,,,,,,
1703406902.611636,1703406902.611755,83.000000,0.000000,4162.436035,4151.922852,4266.922852,4223.717773,4156.538574,4219.615234,4236.410156,4143.846191,4140.128418,4137.051270,4596.922852,4430.128418,4360.512695,4492.307617,6108.000000,4.000000,77.000000,,,,0.000000,4.000000,4.000000,4.000000,4.000000,4.000000,4.000000,4.000000,4.000000,4.000000,4.000000,4.000000,4.000000,4.000000,4.000000,100.000000,,,,,,,,,,,,,,,,,,,,,,,,,,,,
1703406902.619444,1703406902.619563,84.000000,0.000000,4165.512695,4154.487305,4264.230957,4221.025879,4154.487305,4217.692383,4237.436035,4141.410156,4139.615234,4138.333496,4590.384766,4427.051270,4361.025879,4489.871582,6514.000000,4.000000,77.000000,,,,0.000000,4.000000,4.000000,4.000000,4.000000,4.000000,4.000000,4.000000,4.000000,4.000000,4.000000,4.000000,4.000000,4.000000,4.000000,100.000000,,,,,,,,,,,,,,,,,21.000000,0.000000,0.595863,0.330688,-0.603821,0.413513,0.982542,-0.096691,0.047857,-13.915883,-42.025372,63.898808
1703406902.627252,1703406902.627271,85.000000,0.000000,4172.436035,4154.743652,4267.563965,4227.307617,4155.384766,4216.922852,4238.846191,4141.794922,4139.743652,4135.769043,4585.897461,4431.153809,4364.743652,4495.512695,7030.000000,4.000000,77.000000,,,,0.000000,4.000000,4.000000,4.000000,4.000000,4.000000,4.000000,4.000000,4.000000,4.000000,4.000000,4.000000,4.000000,4.000000,4.000000,100.000000,,,,,,,,,,,,,,,,,,,,,,,,,,,,
1703406902.635060,1703406902.635079,86.000000,0.000000,4168.974121,4156.666504,4266.538574,4228.333496,4157.051270,4217.179688,4236.410156,4144.487305,4138.717773,4131.666504,4584.358887,4429.230957,4358.974121,4490.769043,5834.000000,4.000000,77.000000,,,,0.000000,4.000000,4.000000,4.000000,4.000000,4.000000,4.000000,4.000000,4.000000,4.000000,4.000000,4.000000,4.000000,4.000000,4.000000,100.000000,,,,,,,,,,,,,,,,,,,,,,,,,,,,
1703406902.642868,1703406902.642787,87.000000,0.000000,4170.641113,4167.436035,4267.563965,4229.358887,4160.128418,4218.589844,4237.820313,4153.717773,4147.436035,4141.794922,4586.025879,4434.102539,4358.205078,4492.179688,6108.000000,4.000000,77.000000,,,,0.000000,4.000000,4.000000,4.000000,4.000000,4.000000,4.000000,4.000000,4.000000,4.000000,4.000000,4.000000,4.000000,4.000000,4.000000,100.000000,,,,,,,,,,,,,,,,,,,,,,,,,,,,
1703406902.650676,1703406902.650595,88.000000,0.000000,4178.333496,4174.358887,4272.563965,4234.358887,4158.077148,4218.974121,4236.410156,4160.000000,4156.794922,4153.974121,4595.641113,4446.025879,4368.846191,4506.282227,6514.000000,4.000000,77.000000,,,,0.000000,4.000000,4.000000,4.000000,4.000000,4.000000,4.000000,4.000000,4.000000,4.000000,4.000000,4.000000,4.000000,4.000000,4.000000,100.000000,,,,,,,,,,,,,,,,,22.000000,0.000000,0.595814,0.330505,-0.603760,0.413818,0.996704,-0.111342,0.052252,-14.007627,-42.006168,63.958923
1703406902.658484,1703406902.658303,89.000000,0.000000,4181.282227,4169.615234,4272.307617,4231.410156,4151.153809,4217.436035,4229.743652,4160.897461,4156.153809,4155.000000,4603.461426,4448.077148,4376.282227,4510.128418,7030.000000,4.000000,77.000000,,,,0.000000,4.000000,4.000000,4.000000,4.000000,4.000000,4.000000,4.000000,4.000000,4.000000,4.000000,4.000000,4.000000,4.000000,4.000000,100.000000,,,,,,,,,,,,,,,,,,,,,,,,,,,,
1703406902.666292,1703406902.666211,90.000000,0.000000,4182.820313,4167.948730,4273.846191,4226.794922,4156.153809,4217.563965,4231.794922,4166.922852,4155.256348,4155.769043,4605.128418,4449.230957,4381.025879,4506.538574,5834.000000,4.000000,77.000000,,,,0.000000,4.000000,4.000000,4.000000,4.000000,4.000000,4.000000,4.000000,4.000000,4.000000,4.000000,4.000000,4.000000,4.000000,4.000000,100.000000,,,,,,,,,,,,,,,,,,,,,,,,,,,,
1703406902.674100,1703406902.674019,91.000000,0.000000,4187.179688,4179.487305,4283.205078,4233.589844,4168.333496,4218.077148,4238.974121,4170.384766,4157.820313,4158.974121,4610.384766,4459.743652,4383.333496,4510.769043,6108.000000,4.000000,77.000000,,,,0.000000,4.000000,4.000000,4.000000,4.000000,4.000000,4.000000,4.000000,4.000000,4.000000,4.000000,4.000000,4.000000,4.000000,4.000000,100.000000,,,,,,,,,,,,,,,,,,,,,,,,,,,,
1703406902.681908,1703406902.681927,92.000000,0.000000,4187.051270,4185.769043,4285.897461,4237.563965,4170.000000,4216.922852,4238.846191,4157.051270,4154.230957,4156.153809,4609.102539,4459.102539,4375.000000,4513.846191,6514.000000,4.000000,77.000000,,,,0.000000,4.000000,4.000000,4.000000,4.000000,4.000000,4.000000,4.000000,4.000000,4.000000,4.000000,4.000000,4.000000,4.000000,4.000000,100.000000,,,,,,,,,,,,,,,,,23.000000,0.000000,0.595616,0.330139,-0.603821,0.414307,0.990844,-0.116225,0.058601,-14.056865,-41.888885,63.996365
1703406902.689716,1703406902.689735,93.000000,0.000000,4187.307617,4181.794922,4280.897461,4235.641113,4165.384766,4216.922852,4239.743652,4149.615234,4152.051270,4154.230957,4602.563965,4448.205078,4373.589844,4509.487305,7030.000000,4.000000,77.000000,,,,0.000000,4.000000,4.000000,4.000000,4.000000,4.000000,4.000000,4.000000,4.000000,4.000000,4.000000,4.000000,4.000000,4.000000,4.000000,100.000000,,,,,,,,,,,,,,,,,,,,,,,,,,,,
1703406902.697524,1703406902.697643,94.000000,0.000000,4193.589844,4181.410156,4277.948730,4236.666504,4166.538574,4217.563965,4245.256348,4152.563965,4153.717773,4157.563965,4604.871582,4450.256348,4384.230957,4509.743652,5834.000000,4.000000,77.000000,,,,0.000000,4.000000,4.000000,4.000000,4.000000,4.000000,4.000000,4.000000,4.000000,4.000000,4.000000,4.000000,4.000000,4.000000,4.000000,100.000000,,,,,,,,,,,,,,,,,,,,,,,,,,,,
1703406902.705332,1703406902.705451,95.000000,0.000000,4192.563965,4178.974121,4273.846191,4235.641113,4165.384766,4215.897461,4241.922852,4136.025879,4141.410156,4151.666504,4605.000000,4446.922852,4381.794922,4511.153809,6108.000000,4.000000,77.000000,,,,0.000000,4.000000,4.000000,4.000000,4.000000,4.000000,4.000000,4.000000,4.000000,4.000000,4.000000,4.000000,4.000000,4.000000,4.000000,100.000000,,,,,,,,,,,,,,,,,,,,,,,,,,,,
1703406902.713140,1703406902.713359,96.000000,0.000000,4183.205078,4168.077148,4266.025879,4228.205078,4156.538574,4218.333496,4232.307617,4120.769043,4131.282227,4144.743652,4595.256348,4431.410156,4368.333496,4501.538574,6514.000000,4.000000,77.000000,,,,0.000000,4.000000,4.000000,4.000000,4.000000,4.000000,4.000000,4.000000,4.000000,4.000000,4.000000,4.000000,4.000000,4.000000,4.000000,100.000000,,,,,,,,,,,,,,,,,24.000000,0.000000,0.595528,0.329956,-0.603882,0.414490,0.984495,-0.113295,0.047857,-14.084512,-41.799995,63.846729
1703406902.720949,1703406902.721167,97.000000,0.000000,4181.025879,4167.051270,4263.717773,4226.153809,4152.307617,4215.512695,4233.461426,4139.102539,4144.358887,4149.487305,4594.358887,4430.897461,4369.102539,4494.743652,7030.000000,4.000000,77.000000,,,,0.000000,4.000000,4.000000,4.000000,4.000000,4.000000,4.000000,4.000000,4.000000,4.000000,4.000000,4.000000,4.000000,4.000000,4.000000,100.000000,,,,,,,,,,,,,,,,,,,,,,,,,,,,
1703406902.728757,1703406902.728975,98.000000,0.000000,4184.743652,4171.666504,4271.282227,4230.128418,4157.051270,4205.769043,4235.897461,4163.846191,4158.846191,4157.051270,4607.307617,4448.077148,4382.051270,4504.871582,5834.000000,4.000000,77.000000,,,,0.000000,4.000000,4.000000,4.000000,4.000000,4.000000,4.000000,4.000000,4.000000,4.000000,4.000000,4.000000,4.000000,4.000000,4.000000,100.000000,,,,,,,,,,,,,,,,,,,,,,,,,,,,
1703406902.736565,1703406902.736783,99.000000,0.000000,4185.641113,4169.230957,4279.230957,4230.000000,4158.846191,4204.743652,4232.051270,4171.153809,4158.461426,4158.589844,4614.615234,4455.128418,4382.820313,4512.948730,6108.000000,4.000000,77.000000,,,,0.000000,4.000000,4.000000,4.000000,4.000000,4.000000,4.000000,4.000000,4.000000,4.000000,4.000000,4.000000,4.000000,4.000000,4.000000,100.000000,,,,,,,,,,,,,,,,,,,,,,,,,,,,
1703406902.744373,1703406902.744491,100.000000,0.000000,4186.666504,4173.974121,4277.179688,4232.051270,4155.512695,4207.179688,4232.307617,4169.230957,4157.179688,4155.641113,4611.666504,4451.025879,4374.871582,4506.025879,6514.000000,4.000000,77.000000,,,,0.000000,4.000000,4.000000,4.000000,4.000000,4.000000,4.000000,4.000000,4.000000,4.000000,4.000000,4.000000,4.000000,4.000000,4.000000,100.000000,,,,,,,,,,,,,,,,,25.000000,0.000000,0.595652,0.329956,-0.603760,0.414490,0.980588,-0.107435,0.058113,-14.176061,-41.703331,63.845390
1703406902.752181,1703406902.752299,101.000000,0.000000,4187.307617,4183.846191,4273.974121,4235.000000,4159.615234,4203.461426,4231.538574,4162.820313,4156.410156,4152.051270,4604.871582,4448.717773,4369.871582,4504.487305,7030.000000,4.000000,77.000000,,,,0.000000,4.000000,4.000000,4.000000,4.000000,4.000000,4.000000,4.000000,4.000000,4.000000,4.000000,4.000000,4.000000,4.000000,4.000000,100.000000,,,,,,,,,,,,,,,,,,,,,,,,,,,,
1703406902.759989,1703406902.760007,102.000000,0.000000,4183.589844,4186.666504,4273.717773,4236.153809,4167.307617,4200.128418,4229.615234,4156.282227,4151.410156,4153.974121,4600.128418,4444.230957,4363.589844,4508.589844,5834.000000,4.000000,77.000000,,,,0.000000,4.000000,4.000000,4.000000,4.000000,4.000000,4.000000,4.000000,4.000000,4.000000,4.000000,4.000000,4.000000,4.000000,4.000000,100.000000,,,,,,,,,,,,,,,,,,,,,,,,,,,,
1703406902.767797,1703406902.767915,103.000000,0.000000,4182.307617,4187.948730,4271.538574,4242.307617,4168.589844,4206.282227,4231.538574,4157.563965,4152.051270,4152.563965,4598.333496,4442.436035,4353.717773,4501.666504,6108.000000,4.000000,77.000000,,,,0.000000,4.000000,4.000000,4.000000,4.000000,4.000000,4.000000,4.000000,4.000000,4.000000,4.000000,4.000000,4.000000,4.000000,4.000000,100.000000,,,,,,,,,,,,,,,,,,,,,,,,,,,,
1703406902.775605,1703406902.775723,104.000000,0.000000,4184.230957,4191.025879,4272.307617,4246.794922,4170.641113,4209.615234,4233.077148,4155.897461,4151.153809,4143.589844,4593.717773,4444.358887,4352.692383,4500.128418,6514.000000,4.000000,77.000000,,,,0.000000,4.000000,4.000000,4.000000,4.000000,4.000000,4.000000,4.000000,4.000000,4.000000,4.000000,4.000000,4.000000,4.000000,4.000000,100.000000,,,,,,,,,,,,,,,,,26.000000,0.000000,0.595723,0.330017,-0.603699,0.414429,0.990844,-0.096203,0.051764,-14.275121,-41.766331,63.877518
1703406902.783413,1703406902.783531,105.000000,0.000000,4184.102539,4188.846191,4272.307617,4240.384766,4170.128418,4203.974121,4232.563965,4143.333496,4142.820313,4144.615234,4587.563965,4438.846191,4354.743652,4504.871582,7030.000000,4.000000,77.000000,,,,0.000000,4.000000,4.000000,4.000000,4.000000,4.000000,4.000000,4.000000,4.000000,4.000000,4.000000,4.000000,4.000000,4.000000,4.000000,100.000000,,,,,,,,,,,,,,,,,,,,,,,,,,,,
1703406902.791221,1703406902.791239,106.000000,0.000000,4180.641113,4184.230957,4266.410156,4231.922852,4161.794922,4206.410156,4232.051270,4135.769043,4138.205078,4150.384766,4584.743652,4430.897461,4348.974121,4500.512695,5834.000000,4.000000,77.000000,,,,0.000000,4.000000,4.000000,4.000000,4.000000,4.000000,4.000000,4.000000,4.000000,4.000000,4.000000,4.000000,4.000000,4.000000,4.000000,100.000000,,,,,,,,,,,,,,,,,,,,,,,,,,,,
1703406902.799029,1703406902.799047,107.000000,0.000000,4181.538574,4184.615234,4267.179688,4233.717773,4161.538574,4213.461426,4233.077148,4135.897461,4139.230957,4148.205078,4587.051270,4430.897461,4352.051270,4498.205078,6108.000000,4.000000,77.000000,,,,0.000000,4.000000,4.000000,4.000000,4.000000,4.000000,4.000000,4.000000,4.000000,4.000000,4.000000,4.000000,4.000000,4.000000,4.000000,100.000000,,,,,,,,,,,,,,,,,,,,,,,,,,,,
1703406902.806837,1703406902.806755,108.000000,0.000000,4186.922852,4188.077148,4276.153809,4242.307617,4173.589844,4209.615234,4233.974121,4129.358887,4138.077148,4146.153809,4587.436035,4435.384766,4360.128418,4503.461426,6514.000000,4.000000,77.000000,,,,0.000000,4.000000,4.000000,4.000000,4.000000,4.000000,4.000000,4.000000,4.000000,4.000000,4.000000,4.000000,4.000000,4.000000,4.000000,100.000000,,,,,,,,,,,,,,,,,27.000000,0.000000,0.595784,0.330017,-0.603638,0.414429,0.973752,-0.103528,0.053229,-14.364276,-41.823029,63.906433
1703406902.814645,1703406902.814663,109.000000,0.000000,4186.794922,4188.333496,4276.538574,4242.436035,4171.794922,4200.897461,4232.436035,4125.641113,4134.358887,4145.384766,4584.871582,4437.307617,4352.692383,4502.563965,7030.000000,4.000000,77.000000,,,,0.000000,4.000000,4.000000,4.000000,4.000000,4.000000,4.000000,4.000000,4.000000,4.000000,4.000000,4.000000,4.000000,4.000000,4.000000,100.000000,,,,,,,,,,,,,,,,,,,,,,,,,,,,
1703406902.822453,1703406902.822470,110.000000,0.000000,4181.282227,4181.794922,4267.563965,4232.692383,4156.410156,4201.153809,4225.897461,4143.077148,4140.256348,4144.615234,4587.820313,4439.743652,4347.692383,4499.615234,5834.000000,4.000000,77.000000,,,,0.000000,4.000000,4.000000,4.000000,4.000000,4.000000,4.000000,4.000000,4.000000,4.000000,4.000000,4.000000,4.000000,4.000000,4.000000,100.000000,,,,,,,,,,,,,,,,,,,,,,,,,,,,
1703406902.830261,1703406902.830378,111.000000,0.000000,4182.563965,4181.794922,4266.666504,4232.051270,4153.333496,4206.922852,4227.692383,4164.615234,4153.205078,4150.512695,4596.922852,4443.974121,4360.128418,4506.153809,6108.000000,4.000000,77.000000,,,,0.000000,4.000000,4.000000,4.000000,4.000000,4.000000,4.000000,4.000000,4.000000,4.000000,4.000000,4.000000,4.000000,4.000000,4.000000,100.000000,,,,,,,,,,,,,,,,,,,,,,,,,,,,
1703406902.838069,1703406902.838186,112.000000,0.000000,4186.922852,4187.179688,4271.153809,4238.461426,4160.256348,4209.487305,4230.512695,4170.641113,4158.589844,4156.538574,4601.794922,4448.077148,4364.358887,4508.974121,6514.000000,4.000000,77.000000,,,,0.000000,4.000000,4.000000,4.000000,4.000000,4.000000,4.000000,4.000000,4.000000,4.000000,4.000000,4.000000,4.000000,4.000000,4.000000,100.000000,,,,,,,,,,,,,,,,,28.000000,0.000000,0.595810,0.329895,-0.603638,0.414490,0.972287,-0.103040,0.050787,-14.261182,-41.757393,63.982456
1703406902.845877,1703406902.846094,113.000000,0.000000,4182.179688,4184.743652,4269.871582,4235.000000,4163.589844,4204.487305,4223.461426,4170.384766,4153.974121,4151.922852,4595.897461,4446.922852,4352.692383,4504.743652,7030.000000,4.000000,77.000000,,,,0.000000,4.000000,4.000000,4.000000,4.000000,4.000000,4.000000,4.000000,4.000000,4.000000,4.000000,4.000000,4.000000,4.000000,4.000000,100.000000,,,,,,,,,,,,,,,,,,,,,,,,,,,,
1703406902.853686,1703406902.853902,114.000000,0.000000,4182.948730,4180.769043,4270.128418,4233.974121,4164.743652,4202.563965,4222.307617,4168.205078,4155.000000,4152.692383,4594.230957,4445.128418,4358.846191,4506.410156,5834.000000,4.000000,77.000000,,,,0.000000,4.000000,4.000000,4.000000,4.000000,4.000000,4.000000,4.000000,4.000000,4.000000,4.000000,4.000000,4.000000,4.000000,4.000000,100.000000,,,,,,,,,,,,,,,,,,,,,,,,,,,,
1703406902.861493,1703406902.861810,115.000000,0.000000,4196.282227,4188.717773,4277.307617,4245.000000,4169.230957,4209.743652,4226.538574,4159.102539,4160.384766,4159.102539,4602.179688,4449.743652,4373.333496,4513.589844,6108.000000,4.000000,77.000000,,,,0.000000,4.000000,4.000000,4.000000,4.000000,4.000000,4.000000,4.000000,4.000000,4.000000,4.000000,4.000000,4.000000,4.000000,4.000000,100.000000,,,,,,,,,,,,,,,,,,,,,,,,,,,,
1703406902.869301,1703406902.869618,116.000000,0.000000,4193.205078,4189.102539,4276.153809,4248.333496,4173.333496,4213.205078,4228.589844,4147.179688,4149.230957,4147.692383,4593.077148,4443.461426,4351.410156,4505.128418,6514.000000,4.000000,77.000000,,,,0.000000,4.000000,4.000000,4.000000,4.000000,4.000000,4.000000,4.000000,4.000000,4.000000,4.000000,4.000000,4.000000,4.000000,4.000000,100.000000,,,,,,,,,,,,,,,,,29.000000,0.000000,0.595852,0.329895,-0.603638,0.414429,0.993285,-0.103528,0.056648,-14.418397,-41.864986,64.017540
1703406902.877110,1703406902.877526,117.000000,0.000000,4177.948730,4171.538574,4269.487305,4235.897461,4171.538574,4210.769043,4228.333496,4136.410156,4137.820313,4134.615234,4575.000000,4430.128418,4327.563965,4484.743652,7030.000000,4.000000,77.000000,,,,0.000000,4.000000,4.000000,4.000000,4.000000,4.000000,4.000000,4.000000,4.000000,4.000000,4.000000,4.000000,4.000000,4.000000,4.000000,100.000000,,,,,,,,,,,,,,,,,,,,,,,,,,,,
1703406902.884918,1703406902.885334,118.000000,0.000000,4186.410156,4171.666504,4275.769043,4229.615234,4169.487305,4210.384766,4227.436035,4134.871582,4147.692383,4147.563965,4589.615234,4437.820313,4357.051270,4493.974121,5834.000000,4.000000,77.000000,,,,0.000000,4.000000,4.000000,4.000000,4.000000,4.000000,4.000000,4.000000,4.000000,4.000000,4.000000,4.000000,4.000000,4.000000,4.000000,100.000000,,,,,,,,,,,,,,,,,,,,,,,,,,,,
1703406902.892726,1703406902.893242,119.000000,0.000000,4205.897461,4184.871582,4280.897461,4236.666504,4168.589844,4212.692383,4228.205078,4137.820313,4153.333496,4163.205078,4613.846191,4451.282227,4395.256348,4522.948730,6108.000000,4.000000,77.000000,,,,0.000000,4.000000,4.000000,4.000000,4.000000,4.000000,4.000000,4.000000,4.000000,4.000000,4.000000,4.000000,4.000000,4.000000,4.000000,100.000000,,,,,,,,,,,,,,,,,,,,,,,,,,,,
1703406902.900534,1703406902.901050,120.000000,0.000000,4206.794922,4178.077148,4277.307617,4238.589844,4166.025879,4212.051270,4227.692383,4131.666504,4140.897461,4154.743652,4607.179688,4448.717773,4392.051270,4524.743652,6514.000000,4.000000,77.000000,,,,0.000000,4.000000,4.000000,4.000000,4.000000,4.000000,4.000000,4.000000,4.000000,4.000000,4.000000,4.000000,4.000000,4.000000,4.000000,100.000000,,,,,,,,,,,,,,,,,30.000000,0.000000,0.595711,0.329773,-0.603760,0.414551,0.989867,-0.109877,0.065438,-14.393224,-41.878490,64.132454
1703406902.908342,1703406902.908858,121.000000,0.000000,4200.128418,4165.256348,4278.333496,4232.563965,4166.922852,4208.589844,4225.128418,4125.769043,4133.333496,4148.589844,4598.846191,4445.384766,4386.153809,4514.230957,7030.000000,4.000000,77.000000,,,,0.000000,4.000000,4.000000,4.000000,4.000000,4.000000,4.000000,4.000000,4.000000,4.000000,4.000000,4.000000,4.000000,4.000000,4.000000,100.000000,,,,,,,,,,,,,,,,,,,,,,,,,,,,
1703406902.916150,1703406902.916666,122.000000,0.000000,4200.384766,4167.820313,4278.846191,4230.897461,4169.230957,4204.615234,4223.077148,4135.128418,4137.179688,4155.769043,4608.333496,4447.820313,4398.974121,4519.743652,5834.000000,4.000000,77.000000,,,,0.000000,4.000000,4.000000,4.000000,4.000000,4.000000,4.000000,4.000000,4.000000,4.000000,4.000000,4.000000,4.000000,4.000000,4.000000,100.000000,,,,,,,,,,,,,,,,,,,,,,,,,,,,
1703406902.923958,1703406902.924374,123.000000,0.000000,4202.436035,4170.897461,4274.743652,4231.922852,4162.692383,4205.128418,4223.846191,4150.384766,4144.230957,4156.922852,4615.384766,4448.333496,4401.410156,4526.153809,6108.000000,4.000000,77.000000,,,,0.000000,4.000000,4.000000,4.000000,4.000000,4.000000,4.000000,4.000000,4.000000,4.000000,4.000000,4.000000,4.000000,4.000000,4.000000,100.000000,,,,,,,,,,,,,,,,,,,,,,,,,,,,
1703406902.931766,1703406902.932182,124.000000,0.000000,4202.436035,4167.948730,4272.179688,4230.769043,4161.538574,4203.846191,4218.846191,4156.153809,4152.820313,4155.769043,4613.461426,4453.461426,4396.794922,4523.077148,6514.000000,4.000000,77.000000,,,,0.000000,4.000000,4.000000,4.000000,4.000000,4.000000,4.000000,4.000000,4.000000,4.000000,4.000000,4.000000,4.000000,4.000000,4.000000,100.000000,,,,,,,,,,,,,,,,,31.000000,0.000000,0.595508,0.329651,-0.603943,0.414673,0.988402,-0.098157,0.050787,-14.503901,-41.857307,64.185875
1703406902.939574,1703406902.939890,125.000000,0.000000,4200.512695,4169.487305,4276.025879,4234.102539,4165.512695,4200.641113,4213.846191,4160.256348,4157.051270,4157.051270,4609.487305,4458.461426,4396.282227,4517.307617,7030.000000,4.000000,77.000000,,,,0.000000,4.000000,4.000000,4.000000,4.000000,4.000000,4.000000,4.000000,4.000000,4.000000,4.000000,4.000000,4.000000,4.000000,4.000000,100.000000,,,,,,,,,,,,,,,,,,,,,,,,,,,,
1703406902.947382,1703406902.947798,126.000000,0.000000,4198.461426,4168.974121,4278.846191,4235.256348,4161.282227,4201.025879,4216.666504,4164.102539,4157.692383,4157.563965,4608.589844,4453.205078,4395.128418,4514.615234,5834.000000,4.000000,77.000000,,,,0.000000,4.000000,4.000000,4.000000,4.000000,4.000000,4.000000,4.000000,4.000000,4.000000,4.000000,4.000000,4.000000,4.000000,4.000000,100.000000,,,,,,,,,,,,,,,,,,,,,,,,,,,,
1703406902.955190,1703406902.955606,127.000000,0.000000,4198.205078,4168.205078,4276.538574,4232.179688,4161.922852,4199.615234,4220.256348,4160.384766,4158.717773,4157.436035,4612.307617,4449.871582,4394.743652,4517.307617,77.000000,4.000000,77.000000,,,,0.000000,4.000000,4.000000,4.000000,4.000000,4.000000,4.000000,4.000000,4.000000,4.000000,4.000000,4.000000,4.000000,4.000000,4.000000,100.000000,,,,,,,,,,,,,,,,,,,,,,,,,,,,
1703406902.962998,1703406902.963513,0.000000,0.000000,4198.717773,4172.051270,4277.948730,4241.282227,4172.948730,4200.384766,4220.769043,4154.871582,4156.282227,4156.538574,4615.000000,4455.897461,4396.025879,4522.051270,4809.000000,4.000000,77.000000,,,,0.000000,4.000000,4.000000,4.000000,4.000000,4.000000,4.000000,4.000000,4.000000,4.000000,4.000000,4.000000,4.000000,4.000000,4.000000,100.000000,,,,,,,,,,,,,,,,,0.000000,0.000000,0.595347,0.329712,-0.603943,0.414856,0.988402,-0.106947,0.054694,-14.403511,-41.938244,64.100624
1703406902.970806,1703406902.971321,1.000000,0.000000,4203.205078,4176.410156,4284.230957,4249.871582,4174.743652,4202.179688,4219.230957,4149.743652,4153.589844,4158.077148,4612.820313,4458.717773,4398.333496,4520.897461,5263.000000,4.000000,77.000000,,,,0.000000,4.000000,4.000000,4.000000,4.000000,4.000000,4.000000,4.000000,4.000000,4.000000,4.000000,4.000000,4.000000,4.000000,4.000000,100.000000,,,,,,,,,,,,,,,,,,,,,,,,,,,,
1703406902.978614,1703406902.979129,2.000000,0.000000,4201.410156,4174.358887,4280.512695,4240.256348,4169.102539,4201.794922,4218.205078,4141.153809,4150.512695,4160.384766,4606.538574,4449.487305,4395.000000,4513.846191,5258.000000,4.000000,77.000000,,,,0.000000,4.000000,4.000000,4.000000,4.000000,4.000000,4.000000,4.000000,4.000000,4.000000,4.000000,4.000000,4.000000,4.000000,4.000000,100.000000,,,,,,,,,,,,,,,,,,,,,,,,,,,,
1703406902.986422,1703406902.986837,3.000000,0.000000,4190.128418,4163.846191,4269.230957,4230.641113,4168.205078,4201.922852,4220.384766,4133.077148,4142.051270,4155.256348,4598.846191,4437.948730,4382.692383,4504.743652,5252.000000,4.000000,77.000000,,,,0.000000,4.000000,4.000000,4.000000,4.000000,4.000000,4.000000,4.000000,4.000000,4.000000,4.000000,4.000000,4.000000,4.000000,4.000000,100.000000,,,,,,,,,,,,,,,,,,,,,,,,,,,,
1703406902.994230,1703406902.994645,4.000000,0.000000,4190.000000,4160.641113,4269.743652,4232.051270,4167.820313,4201.538574,4223.077148,4132.692383,4136.153809,4145.512695,4595.256348,4435.512695,4375.512695,4502.820313,5011.000000,4.000000,77.000000,,,,0.000000,4.000000,4.000000,4.000000,4.000000,4.000000,4.000000,4.000000,4.000000,4.000000,4.000000,4.000000,4.000000,4.000000,4.000000,100.000000,,,,,,,,,,,,,,,,,1.000000,0.000000,0.595228,0.329773,-0.603943,0.414978,0.987425,-0.108900,0.051764,-14.379827,-41.944420,64.123894
1703406903.002038,1703406903.002353,5.000000,0.000000,4201.666504,4167.948730,4277.436035,4234.871582,4170.384766,4200.512695,4223.333496,4134.102539,4140.000000,4146.794922,4600.384766,4441.794922,4387.179688,4514.743652,2598.000000,4.000000,77.000000,,,,0.000000,4.000000,4.000000,4.000000,4.000000,4.000000,4.000000,4.000000,4.000000,4.000000,4.000000,4.000000,4.000000,4.000000,4.000000,100.000000,,,,,,,,,,,,,,,,,,,,,,,,,,,,
1703406903.009847,1703406903.010161,6.000000,0.000000,4203.974121,4169.743652,4280.128418,4239.871582,4171.282227,4201.282227,4221.282227,4142.948730,4151.538574,4154.230957,4611.538574,4452.307617,4400.384766,4523.974121,2521.000000,4.000000,77.000000,,,,0.000000,4.000000,4.000000,4.000000,4.000000,4.000000,4.000000,4.000000,4.000000,4.000000,4.000000,4.000000,4.000000,4.000000,4.000000,100.000000,,,,,,,,,,,,,,,,,,,,,,,,,,,,
1703406903.017655,1703406903.017870,7.000000,0.000000,4205.000000,4172.436035,4279.743652,4246.153809,4166.666504,4201.666504,4221.794922,4161.410156,4158.974121,4157.820313,4620.000000,4460.512695,4399.487305,4525.641113,5369.000000,4.000000,77.000000,,,,0.000000,4.000000,4.000000,4.000000,4.000000,4.000000,4.000000,4.000000,4.000000,4.000000,4.000000,4.000000,4.000000,4.000000,4.000000,100.000000,,,,,,,,,,,,,,,,,,,,,,,,,,,,
1703406903.025463,1703406903.025677,8.000000,0.000000,4213.974121,4181.666504,4280.384766,4246.922852,4168.589844,4195.512695,4221.025879,4169.102539,4158.333496,4162.436035,4621.025879,4462.051270,4398.717773,4529.615234,4836.000000,4.000000,77.000000,,,,0.000000,4.000000,4.000000,4.000000,4.000000,4.000000,4.000000,4.000000,4.000000,4.000000,4.000000,4.000000,4.000000,4.000000,4.000000,100.000000,,,,,,,,,,,,,,,,,2.000000,0.000000,0.595123,0.329773,-0.604004,0.415039,0.997680,-0.109877,0.046881,-14.308511,-41.866642,63.978172
1703406903.033271,1703406903.033386,9.000000,0.000000,4216.282227,4176.922852,4287.307617,4247.307617,4171.410156,4193.974121,4216.922852,4169.102539,4163.717773,4169.358887,4626.410156,4463.974121,4405.384766,4535.128418,5190.000000,4.000000,77.000000,,,,0.000000,4.000000,4.000000,4.000000,4.000000,4.000000,4.000000,4.000000,4.000000,4.000000,4.000000,4.000000,4.000000,4.000000,4.000000,100.000000,,,,,,,,,,,,,,,,,,,,,,,,,,,,
