title:يمان اعلى, start timestamp:1703417457.587581, stop timestamp:1703417468.448582, headset type:EPOCX, headset serial:E50206EF, headset firmware:720, channels:67, sampling rate:eeg_128;mot_32, samples:1392      , version:2.2, 
Timestamp,OriginalTimestamp,EEG.Counter,EEG.Interpolated,EEG.AF3,EEG.F7,EEG.F3,EEG.FC5,EEG.T7,EEG.P7,EEG.O1,EEG.O2,EEG.P8,EEG.T8,EEG.FC6,EEG.F4,EEG.F8,EEG.AF4,EEG.RawCq,EEG.Battery,EEG.BatteryPercent,MarkerIndex,MarkerType,MarkerValueInt,EEG.MarkerHardware,CQ.AF3,CQ.F7,CQ.F3,CQ.FC5,CQ.T7,CQ.P7,CQ.O1,CQ.O2,CQ.P8,CQ.T8,CQ.FC6,CQ.F4,CQ.F8,CQ.AF4,CQ.Overall,EQ.SampleRateQuality,EQ.OVERALL,EQ.AF3,EQ.F7,EQ.F3,EQ.FC5,EQ.T7,EQ.P7,EQ.O1,EQ.O2,EQ.P8,EQ.T8,EQ.FC6,EQ.F4,EQ.F8,EQ.AF4,MOT.CounterMems,MOT.InterpolatedMems,MOT.Q0,MOT.Q1,MOT.Q2,MOT.Q3,MOT.AccX,MOT.AccY,MOT.AccZ,MOT.MagX,MOT.MagY,MOT.MagZ
1703417457.587581,1703417457.587970,5.000000,0.000000,4232.563965,4231.282227,4273.077148,4279.615234,4208.846191,4203.589844,4216.025879,4192.436035,4188.974121,4184.615234,4501.025879,4460.769043,4353.333496,4439.230957,5171.000000,2.000000,48.000000,,,,0.000000,4.000000,4.000000,4.000000,4.000000,4.000000,4.000000,4.000000,4.000000,4.000000,4.000000,4.000000,4.000000,4.000000,4.000000,100.000000,,,,,,,,,,,,,,,,,,,,,,,,,,,,
1703417457.595389,1703417457.595878,6.000000,0.000000,4228.333496,4224.102539,4265.769043,4274.230957,4208.205078,4201.538574,4214.102539,4194.358887,4191.538574,4182.436035,4499.102539,4458.461426,4350.000000,4441.410156,4171.000000,2.000000,48.000000,,,,0.000000,4.000000,4.000000,4.000000,4.000000,4.000000,4.000000,4.000000,4.000000,4.000000,4.000000,4.000000,4.000000,4.000000,4.000000,100.000000,,,,,,,,,,,,,,,,,,,,,,,,,,,,
1703417457.603197,1703417457.603686,7.000000,0.000000,4223.974121,4225.128418,4264.615234,4280.769043,4212.179688,4207.179688,4218.589844,4196.794922,4196.538574,4176.666504,4502.051270,4456.282227,4352.307617,4434.615234,5227.000000,2.000000,48.000000,,,,0.000000,4.000000,4.000000,4.000000,4.000000,4.000000,4.000000,4.000000,4.000000,4.000000,4.000000,4.000000,4.000000,4.000000,4.000000,100.000000,,,,,,,,,,,,,,,,,,,,,,,,,,,,
1703417457.611005,1703417457.611594,8.000000,0.000000,4225.384766,4227.820313,4268.589844,4282.307617,4211.794922,4210.512695,4219.358887,4199.102539,4195.897461,4180.000000,4501.666504,4456.794922,4355.256348,4430.769043,5499.000000,2.000000,48.000000,,,,0.000000,4.000000,4.000000,4.000000,4.000000,4.000000,4.000000,4.000000,4.000000,4.000000,4.000000,4.000000,4.000000,4.000000,4.000000,100.000000,,,,,,,,,,,,,,,,,2.000000,0.000000,0.717451,-0.029053,-0.693542,0.058472,0.992309,-0.119644,0.025882,-13.346990,-46.817280,65.065109
1703417457.618813,1703417457.619402,9.000000,0.000000,4230.384766,4224.871582,4270.512695,4280.000000,4207.307617,4207.307617,4216.922852,4197.051270,4197.820313,4181.025879,4500.897461,4461.282227,4351.538574,4436.282227,5474.000000,2.000000,48.000000,,,,0.000000,4.000000,4.000000,4.000000,4.000000,4.000000,4.000000,4.000000,4.000000,4.000000,4.000000,4.000000,4.000000,4.000000,4.000000,100.000000,,,,,,,,,,,,,,,,,,,,,,,,,,,,
1703417457.626621,1703417457.627311,10.000000,0.000000,4228.974121,4225.000000,4273.333496,4282.051270,4215.000000,4206.153809,4217.692383,4197.051270,4208.077148,4179.615234,4510.384766,4466.666504,4353.846191,4440.512695,6073.000000,2.000000,48.000000,,,,0.000000,4.000000,4.000000,4.000000,4.000000,4.000000,4.000000,4.000000,4.000000,4.000000,4.000000,4.000000,4.000000,4.000000,4.000000,100.000000,,,,,,,,,,,,,,,,,,,,,,,,,,,,
1703417457.634429,1703417457.635119,11.000000,0.000000,4230.256348,4226.410156,4274.871582,4277.820313,4221.794922,4204.487305,4217.692383,4199.487305,4209.487305,4183.077148,4514.487305,4466.538574,4360.384766,4442.179688,6325.000000,2.000000,48.000000,,,,0.000000,4.000000,4.000000,4.000000,4.000000,4.000000,4.000000,4.000000,4.000000,4.000000,4.000000,4.000000,4.000000,4.000000,4.000000,100.000000,,,,,,,,,,,,,,,,,,,,,,,,,,,,
1703417457.642237,1703417457.643027,12.000000,0.000000,4232.820313,4224.743652,4271.922852,4271.538574,4213.846191,4201.410156,4213.205078,4196.410156,4200.128418,4179.358887,4507.307617,4462.692383,4358.846191,4440.641113,6838.000000,2.000000,48.000000,,,,0.000000,4.000000,4.000000,4.000000,4.000000,4.000000,4.000000,4.000000,4.000000,4.000000,4.000000,4.000000,4.000000,4.000000,4.000000,100.000000,,,,,,,,,,,,,,,,,3.000000,0.000000,0.717480,-0.029053,-0.693481,0.058838,0.982542,-0.135759,0.022952,-13.428957,-46.752220,65.075264
1703417457.650045,1703417457.650835,13.000000,0.000000,4231.153809,4227.820313,4270.512695,4274.871582,4208.333496,4203.846191,4213.333496,4195.512695,4200.128418,4178.717773,4509.615234,4465.000000,4356.538574,4441.538574,7391.000000,2.000000,48.000000,,,,0.000000,4.000000,4.000000,4.000000,4.000000,4.000000,4.000000,4.000000,4.000000,4.000000,4.000000,4.000000,4.000000,4.000000,4.000000,100.000000,,,,,,,,,,,,,,,,,,,,,,,,,,,,
1703417457.657853,1703417457.658742,14.000000,0.000000,4234.230957,4231.538574,4272.436035,4273.461426,4213.717773,4206.025879,4217.563965,4198.461426,4204.743652,4186.922852,4513.077148,4467.179688,4358.846191,4441.794922,6073.000000,2.000000,48.000000,,,,0.000000,4.000000,4.000000,4.000000,4.000000,4.000000,4.000000,4.000000,4.000000,4.000000,4.000000,4.000000,4.000000,4.000000,4.000000,100.000000,,,,,,,,,,,,,,,,,,,,,,,,,,,,
1703417457.665661,1703417457.666550,15.000000,0.000000,4234.615234,4228.717773,4272.820313,4268.974121,4213.974121,4200.512695,4216.282227,4195.256348,4199.487305,4181.410156,4506.794922,4461.538574,4354.487305,4435.769043,6325.000000,2.000000,48.000000,,,,0.000000,4.000000,4.000000,4.000000,4.000000,4.000000,4.000000,4.000000,4.000000,4.000000,4.000000,4.000000,4.000000,4.000000,4.000000,100.000000,,,,,,,,,,,,,,,,,,,,,,,,,,,,
1703417457.673469,1703417457.674259,16.000000,0.000000,4228.717773,4228.333496,4277.051270,4272.820313,4212.051270,4200.897461,4215.641113,4191.282227,4194.230957,4179.871582,4508.461426,4463.333496,4354.487305,4434.743652,0.000000,2.000000,48.000000,,,,0.000000,4.000000,4.000000,4.000000,4.000000,4.000000,4.000000,4.000000,4.000000,4.000000,4.000000,4.000000,4.000000,4.000000,4.000000,100.000000,,,,,,,,,,,,,,,,,4.000000,0.000000,0.717455,-0.029175,-0.693481,0.059082,0.975705,-0.142596,0.032719,-13.286061,-46.826996,64.951073
1703417457.681277,1703417457.682066,17.000000,0.000000,4230.641113,4229.743652,4281.794922,4274.871582,4214.871582,4205.128418,4218.077148,4191.025879,4197.179688,4198.717773,4516.666504,4472.563965,4362.820313,4440.384766,0.000000,2.000000,48.000000,,,,0.000000,4.000000,4.000000,4.000000,4.000000,4.000000,4.000000,4.000000,4.000000,4.000000,4.000000,4.000000,4.000000,4.000000,4.000000,100.000000,,,,,,,,,,,,,,,,,,,,,,,,,,,,
1703417457.689085,1703417457.689775,18.000000,0.000000,4235.512695,4222.307617,4277.948730,4268.461426,4212.563965,4201.153809,4217.051270,4187.436035,4196.794922,4200.384766,4509.487305,4473.333496,4358.589844,4439.871582,0.000000,2.000000,48.000000,,,,0.000000,4.000000,4.000000,4.000000,4.000000,4.000000,4.000000,4.000000,4.000000,4.000000,4.000000,4.000000,4.000000,4.000000,4.000000,100.000000,,,,,,,,,,,,,,,,,,,,,,,,,,,,
1703417457.696894,1703417457.697583,19.000000,0.000000,4230.384766,4215.769043,4272.948730,4263.461426,4207.436035,4198.077148,4215.384766,4185.384766,4189.743652,4176.794922,4497.436035,4468.846191,4346.922852,4435.897461,0.000000,2.000000,48.000000,,,,0.000000,4.000000,4.000000,4.000000,4.000000,4.000000,4.000000,4.000000,4.000000,4.000000,4.000000,4.000000,4.000000,4.000000,4.000000,100.000000,,,,,,,,,,,,,,,,,,,,,,,,,,,,
1703417457.704702,1703417457.705291,20.000000,0.000000,4224.615234,4219.871582,4273.589844,4264.615234,4206.794922,4205.000000,4216.282227,4189.871582,4188.461426,4170.384766,4502.948730,4467.436035,4351.025879,4437.436035,0.000000,2.000000,48.000000,,,,0.000000,4.000000,4.000000,4.000000,4.000000,4.000000,4.000000,4.000000,4.000000,4.000000,4.000000,4.000000,4.000000,4.000000,4.000000,100.000000,,,,,,,,,,,,,,,,,5.000000,0.000000,0.717383,-0.029358,-0.693542,0.059143,0.983518,-0.138200,0.035649,-13.307455,-46.910965,64.872635
1703417457.712510,1703417457.713199,21.000000,0.000000,4228.717773,4226.025879,4273.717773,4269.102539,4215.512695,4210.512695,4217.179688,4192.563965,4193.717773,4182.307617,4514.230957,4469.871582,4361.025879,4441.025879,0.000000,2.000000,48.000000,,,,0.000000,4.000000,4.000000,4.000000,4.000000,4.000000,4.000000,4.000000,4.000000,4.000000,4.000000,4.000000,4.000000,4.000000,4.000000,100.000000,,,,,,,,,,,,,,,,,,,,,,,,,,,,
1703417457.720318,1703417457.721007,22.000000,0.000000,4236.410156,4228.589844,4273.205078,4274.743652,4223.717773,4208.846191,4217.051270,4195.897461,4196.922852,4177.948730,4512.820313,4473.205078,4356.666504,4443.333496,0.000000,2.000000,48.000000,,,,0.000000,4.000000,4.000000,4.000000,4.000000,4.000000,4.000000,4.000000,4.000000,4.000000,4.000000,4.000000,4.000000,4.000000,4.000000,100.000000,,,,,,,,,,,,,,,,,,,,,,,,,,,,
1703417457.728126,1703417457.728915,23.000000,0.000000,4234.358887,4225.512695,4275.128418,4272.563965,4216.922852,4208.974121,4217.692383,4203.717773,4201.410156,4173.461426,4504.615234,4474.102539,4347.692383,4442.051270,0.000000,2.000000,48.000000,,,,0.000000,4.000000,4.000000,4.000000,4.000000,4.000000,4.000000,4.000000,4.000000,4.000000,4.000000,4.000000,4.000000,4.000000,4.000000,100.000000,,,,,,,,,,,,,,,,,,,,,,,,,,,,
1703417457.735934,1703417457.736723,24.000000,0.000000,4223.589844,4222.179688,4272.692383,4265.897461,4209.743652,4206.410156,4218.461426,4207.179688,4205.384766,4183.461426,4500.769043,4469.230957,4344.871582,4433.205078,0.000000,2.000000,48.000000,,,,0.000000,4.000000,4.000000,4.000000,4.000000,4.000000,4.000000,4.000000,4.000000,4.000000,4.000000,4.000000,4.000000,4.000000,4.000000,100.000000,,,,,,,,,,,,,,,,,6.000000,0.000000,0.717381,-0.029419,-0.693542,0.059143,0.977170,-0.140154,0.038091,-13.210043,-46.753201,64.852036
1703417457.743742,1703417457.744531,25.000000,0.000000,4226.538574,4227.563965,4270.641113,4269.743652,4218.205078,4204.358887,4219.358887,4204.102539,4200.769043,4183.589844,4499.487305,4466.410156,4346.922852,4432.307617,0.000000,2.000000,48.000000,,,,0.000000,4.000000,4.000000,4.000000,4.000000,4.000000,4.000000,4.000000,4.000000,4.000000,4.000000,4.000000,4.000000,4.000000,4.000000,100.000000,,,,,,,,,,,,,,,,,,,,,,,,,,,,
1703417457.751550,1703417457.752240,26.000000,0.000000,4237.563965,4231.538574,4275.641113,4275.128418,4223.461426,4208.205078,4219.102539,4204.358887,4201.794922,4177.179688,4503.846191,4472.436035,4352.051270,4439.743652,0.000000,2.000000,48.000000,,,,0.000000,4.000000,4.000000,4.000000,4.000000,4.000000,4.000000,4.000000,4.000000,4.000000,4.000000,4.000000,4.000000,4.000000,4.000000,100.000000,,,,,,,,,,,,,,,,,,,,,,,,,,,,
1703417457.759358,1703417457.760047,27.000000,0.000000,4235.128418,4230.000000,4273.717773,4270.256348,4216.282227,4209.102539,4215.769043,4203.974121,4207.436035,4186.922852,4512.179688,4472.948730,4357.563965,4439.230957,0.000000,2.000000,48.000000,,,,0.000000,4.000000,4.000000,4.000000,4.000000,4.000000,4.000000,4.000000,4.000000,4.000000,4.000000,4.000000,4.000000,4.000000,4.000000,100.000000,,,,,,,,,,,,,,,,,,,,,,,,,,,,
1703417457.767166,1703417457.767756,28.000000,0.000000,4232.179688,4231.666504,4268.974121,4268.461426,4215.256348,4208.589844,4216.153809,4196.794922,4202.436035,4198.846191,4512.179688,4466.538574,4361.410156,4435.512695,0.000000,2.000000,48.000000,,,,0.000000,4.000000,4.000000,4.000000,4.000000,4.000000,4.000000,4.000000,4.000000,4.000000,4.000000,4.000000,4.000000,4.000000,4.000000,100.000000,,,,,,,,,,,,,,,,,7.000000,0.000000,0.717319,-0.029358,-0.693604,0.059204,0.992797,-0.150897,0.029300,-13.439039,-46.694546,64.800163
1703417457.774974,1703417457.775564,29.000000,0.000000,4243.717773,4235.384766,4275.384766,4275.897461,4222.307617,4210.128418,4218.717773,4192.179688,4196.282227,4197.051270,4506.922852,4467.051270,4361.410156,4438.974121,0.000000,2.000000,48.000000,,,,0.000000,4.000000,4.000000,4.000000,4.000000,4.000000,4.000000,4.000000,4.000000,4.000000,4.000000,4.000000,4.000000,4.000000,4.000000,100.000000,,,,,,,,,,,,,,,,,,,,,,,,,,,,
1703417457.782782,1703417457.783272,30.000000,0.000000,4250.512695,4238.974121,4282.307617,4279.871582,4223.461426,4209.230957,4218.077148,4187.436035,4196.538574,4190.897461,4503.717773,4469.230957,4359.743652,4443.589844,0.000000,2.000000,48.000000,,,,0.000000,4.000000,4.000000,4.000000,4.000000,4.000000,4.000000,4.000000,4.000000,4.000000,4.000000,4.000000,4.000000,4.000000,4.000000,100.000000,1.000000,100.000000,4.000000,4.000000,4.000000,4.000000,4.000000,4.000000,4.000000,4.000000,4.000000,4.000000,4.000000,4.000000,4.000000,4.000000,,,,,,,,,,,,
1703417457.790590,1703417457.791180,31.000000,0.000000,4244.230957,4244.358887,4282.051270,4281.025879,4222.307617,4208.333496,4218.333496,4180.384766,4192.307617,4181.538574,4503.205078,4464.358887,4360.641113,4446.538574,0.000000,2.000000,48.000000,,,,0.000000,4.000000,4.000000,4.000000,4.000000,4.000000,4.000000,4.000000,4.000000,4.000000,4.000000,4.000000,4.000000,4.000000,4.000000,100.000000,,,,,,,,,,,,,,,,,,,,,,,,,,,,
1703417457.798398,1703417457.798988,32.000000,0.000000,4247.820313,4246.922852,4289.615234,4285.512695,4224.102539,4213.333496,4222.436035,4184.102539,4190.641113,4174.871582,4508.589844,4466.538574,4366.025879,4450.384766,0.000000,2.000000,48.000000,,,,0.000000,4.000000,4.000000,4.000000,4.000000,4.000000,4.000000,4.000000,4.000000,4.000000,4.000000,4.000000,4.000000,4.000000,4.000000,100.000000,,,,,,,,,,,,,,,,,8.000000,0.000000,0.717142,-0.029236,-0.693787,0.059265,0.970822,-0.143572,0.029789,-13.595135,-46.741760,64.703484
1703417457.806206,1703417457.806896,33.000000,0.000000,4259.615234,4243.205078,4300.769043,4283.333496,4220.000000,4214.743652,4223.077148,4193.461426,4196.282227,4178.461426,4518.205078,4479.102539,4370.128418,4453.333496,0.000000,2.000000,48.000000,,,,0.000000,4.000000,4.000000,4.000000,4.000000,4.000000,4.000000,4.000000,4.000000,4.000000,4.000000,4.000000,4.000000,4.000000,4.000000,100.000000,,,,,,,,,,,,,,,,,,,,,,,,,,,,
1703417457.814014,1703417457.814704,34.000000,0.000000,4257.820313,4240.512695,4301.922852,4278.205078,4212.948730,4209.615234,4217.307617,4196.025879,4197.948730,4180.641113,4522.051270,4490.256348,4371.666504,4457.692383,0.000000,2.000000,48.000000,,,,0.000000,4.000000,4.000000,4.000000,4.000000,4.000000,4.000000,4.000000,4.000000,4.000000,4.000000,4.000000,4.000000,4.000000,4.000000,100.000000,,,,,,,,,,,,,,,,,,,,,,,,,,,,
1703417457.821822,1703417457.822612,35.000000,0.000000,4250.512695,4237.692383,4302.563965,4278.974121,4211.666504,4208.333496,4217.692383,4201.153809,4200.256348,4180.128418,4523.846191,4496.922852,4374.230957,4459.743652,0.000000,2.000000,48.000000,,,,0.000000,4.000000,4.000000,4.000000,4.000000,4.000000,4.000000,4.000000,4.000000,4.000000,4.000000,4.000000,4.000000,4.000000,4.000000,100.000000,,,,,,,,,,,,,,,,,,,,,,,,,,,,
1703417457.829630,1703417457.830420,36.000000,0.000000,4253.461426,4235.897461,4304.871582,4281.794922,4212.948730,4208.717773,4223.974121,4210.641113,4207.307617,4183.846191,4525.897461,4498.974121,4373.333496,4458.589844,0.000000,2.000000,48.000000,,,,0.000000,4.000000,4.000000,4.000000,4.000000,4.000000,4.000000,4.000000,4.000000,4.000000,4.000000,4.000000,4.000000,4.000000,4.000000,100.000000,,,,,,,,,,,,,,,,,9.000000,0.000000,0.717081,-0.029175,-0.693848,0.059326,0.974240,-0.139177,0.038091,-13.535622,-46.834251,64.649803
1703417457.837438,1703417457.838328,37.000000,0.000000,4256.282227,4236.410156,4303.846191,4277.051270,4215.897461,4204.615234,4221.282227,4211.410156,4208.461426,4181.922852,4524.615234,4500.769043,4372.307617,4465.128418,0.000000,2.000000,48.000000,,,,0.000000,4.000000,4.000000,4.000000,4.000000,4.000000,4.000000,4.000000,4.000000,4.000000,4.000000,4.000000,4.000000,4.000000,4.000000,100.000000,,,,,,,,,,,,,,,,,,,,,,,,,,,,
1703417457.845246,1703417457.846136,38.000000,0.000000,4251.025879,4231.410156,4302.179688,4272.051270,4216.666504,4204.102539,4218.333496,4207.563965,4203.333496,4181.922852,4525.128418,4504.871582,4375.641113,4469.102539,0.000000,2.000000,48.000000,,,,0.000000,4.000000,4.000000,4.000000,4.000000,4.000000,4.000000,4.000000,4.000000,4.000000,4.000000,4.000000,4.000000,4.000000,4.000000,100.000000,,,,,,,,,,,,,,,,,,,,,,,,,,,,
1703417457.853055,1703417457.853844,39.000000,0.000000,4245.512695,4231.153809,4296.410156,4272.692383,4215.128418,4208.205078,4221.794922,4207.820313,4197.051270,4192.820313,4523.974121,4499.615234,4376.922852,4457.692383,0.000000,2.000000,48.000000,,,,0.000000,4.000000,4.000000,4.000000,4.000000,4.000000,4.000000,4.000000,4.000000,4.000000,4.000000,4.000000,4.000000,4.000000,4.000000,100.000000,,,,,,,,,,,,,,,,,,,,,,,,,,,,
1703417457.860863,1703417457.861652,40.000000,0.000000,4240.769043,4235.769043,4288.205078,4271.282227,4217.948730,4209.743652,4222.692383,4205.256348,4193.589844,4193.461426,4516.666504,4487.948730,4373.461426,4447.051270,0.000000,2.000000,48.000000,,,,0.000000,4.000000,4.000000,4.000000,4.000000,4.000000,4.000000,4.000000,4.000000,4.000000,4.000000,4.000000,4.000000,4.000000,4.000000,100.000000,,,,,,,,,,,,,,,,,10.000000,0.000000,0.717019,-0.029236,-0.693909,0.059326,0.985472,-0.142107,0.040044,-13.482059,-46.884159,64.634819
1703417457.868671,1703417457.869360,41.000000,0.000000,4243.205078,4232.563965,4284.871582,4268.717773,4223.589844,4208.461426,4220.512695,4198.717773,4195.256348,4180.641113,4513.205078,4484.743652,4370.641113,4453.717773,0.000000,2.000000,48.000000,,,,0.000000,4.000000,4.000000,4.000000,4.000000,4.000000,4.000000,4.000000,4.000000,4.000000,4.000000,4.000000,4.000000,4.000000,4.000000,100.000000,,,,,,,,,,,,,,,,,,,,,,,,,,,,
1703417457.876479,1703417457.877168,42.000000,0.000000,4244.743652,4228.333496,4283.077148,4268.846191,4218.846191,4208.333496,4219.230957,4192.436035,4193.077148,4173.589844,4508.333496,4478.846191,4366.282227,4452.307617,0.000000,2.000000,48.000000,,,,0.000000,4.000000,4.000000,4.000000,4.000000,4.000000,4.000000,4.000000,4.000000,4.000000,4.000000,4.000000,4.000000,4.000000,4.000000,100.000000,,,,,,,,,,,,,,,,,,,,,,,,,,,,
1703417457.884287,1703417457.884876,43.000000,0.000000,4236.025879,4228.846191,4279.102539,4270.769043,4213.974121,4208.717773,4220.384766,4190.512695,4188.717773,4177.820313,4502.563965,4468.333496,4362.436035,4439.102539,0.000000,2.000000,48.000000,,,,0.000000,4.000000,4.000000,4.000000,4.000000,4.000000,4.000000,4.000000,4.000000,4.000000,4.000000,4.000000,4.000000,4.000000,4.000000,100.000000,,,,,,,,,,,,,,,,,,,,,,,,,,,,
1703417457.892095,1703417457.892684,44.000000,0.000000,4234.487305,4231.410156,4284.230957,4276.025879,4221.794922,4212.307617,4222.179688,4195.256348,4196.794922,4180.769043,4507.948730,4471.153809,4366.282227,4440.512695,0.000000,2.000000,48.000000,,,,0.000000,4.000000,4.000000,4.000000,4.000000,4.000000,4.000000,4.000000,4.000000,4.000000,4.000000,4.000000,4.000000,4.000000,4.000000,100.000000,,,,,,,,,,,,,,,,,11.000000,0.000000,0.717137,-0.029236,-0.693787,0.059326,0.984495,-0.137712,0.025394,-13.550520,-46.812408,64.688004
1703417457.899903,1703417457.900392,45.000000,0.000000,4247.051270,4235.512695,4293.846191,4283.461426,4226.794922,4216.153809,4224.230957,4203.333496,4207.307617,4189.743652,4517.948730,4481.410156,4372.307617,4452.051270,0.000000,2.000000,48.000000,,,,0.000000,4.000000,4.000000,4.000000,4.000000,4.000000,4.000000,4.000000,4.000000,4.000000,4.000000,4.000000,4.000000,4.000000,4.000000,100.000000,,,,,,,,,,,,,,,,,,,,,,,,,,,,
1703417457.907711,1703417457.908200,46.000000,0.000000,4255.769043,4242.179688,4298.589844,4287.179688,4224.230957,4214.230957,4226.025879,4209.230957,4212.051270,4209.230957,4523.974121,4489.230957,4379.230957,4459.743652,0.000000,2.000000,48.000000,,,,0.000000,4.000000,4.000000,4.000000,4.000000,4.000000,4.000000,4.000000,4.000000,4.000000,4.000000,4.000000,4.000000,4.000000,4.000000,100.000000,,,,,,,,,,,,,,,,,,,,,,,,,,,,
1703417457.915519,1703417457.915908,47.000000,0.000000,4252.948730,4244.615234,4305.512695,4291.282227,4225.512695,4215.512695,4229.487305,4213.846191,4222.051270,4216.922852,4534.358887,4496.025879,4387.051270,4467.307617,0.000000,2.000000,48.000000,,,,0.000000,4.000000,4.000000,4.000000,4.000000,4.000000,4.000000,4.000000,4.000000,4.000000,4.000000,4.000000,4.000000,4.000000,4.000000,100.000000,,,,,,,,,,,,,,,,,,,,,,,,,,,,
1703417457.923327,1703417457.923716,48.000000,0.000000,4253.461426,4245.769043,4309.487305,4297.692383,4228.205078,4221.410156,4234.871582,4218.333496,4227.948730,4207.563965,4540.000000,4502.307617,4391.410156,4473.461426,0.000000,2.000000,48.000000,,,,0.000000,4.000000,4.000000,4.000000,4.000000,4.000000,4.000000,4.000000,4.000000,4.000000,4.000000,4.000000,4.000000,4.000000,4.000000,100.000000,,,,,,,,,,,,,,,,,12.000000,0.000000,0.717145,-0.029175,-0.693787,0.059265,0.986937,-0.147479,0.020999,-13.678802,-46.814503,64.669205
1703417457.931135,1703417457.931424,49.000000,0.000000,4255.128418,4246.410156,4303.333496,4294.358887,4226.410156,4220.641113,4231.666504,4214.487305,4216.538574,4204.230957,4532.307617,4497.820313,4391.025879,4467.179688,0.000000,2.000000,48.000000,,,,0.000000,4.000000,4.000000,4.000000,4.000000,4.000000,4.000000,4.000000,4.000000,4.000000,4.000000,4.000000,4.000000,4.000000,4.000000,100.000000,,,,,,,,,,,,,,,,,,,,,,,,,,,,
1703417457.938943,1703417457.939232,50.000000,0.000000,4253.205078,4242.436035,4298.333496,4287.563965,4228.077148,4211.922852,4223.846191,4204.615234,4205.128418,4209.102539,4526.153809,4487.948730,4382.948730,4458.333496,0.000000,2.000000,48.000000,,,,0.000000,4.000000,4.000000,4.000000,4.000000,4.000000,4.000000,4.000000,4.000000,4.000000,4.000000,4.000000,4.000000,4.000000,4.000000,100.000000,,,,,,,,,,,,,,,,,,,,,,,,,,,,
1703417457.946751,1703417457.946940,51.000000,0.000000,4254.615234,4242.179688,4302.436035,4291.282227,4231.538574,4209.615234,4225.384766,4205.128418,4206.153809,4203.974121,4527.563965,4491.410156,4373.717773,4461.794922,0.000000,2.000000,48.000000,,,,0.000000,4.000000,4.000000,4.000000,4.000000,4.000000,4.000000,4.000000,4.000000,4.000000,4.000000,4.000000,4.000000,4.000000,4.000000,100.000000,,,,,,,,,,,,,,,,,,,,,,,,,,,,
1703417457.954559,1703417457.954748,52.000000,0.000000,4252.051270,4243.461426,4300.256348,4294.871582,4227.563965,4216.666504,4230.769043,4209.230957,4204.743652,4196.410156,4527.948730,4496.538574,4375.256348,4463.205078,0.000000,2.000000,48.000000,,,,0.000000,4.000000,4.000000,4.000000,4.000000,4.000000,4.000000,4.000000,4.000000,4.000000,4.000000,4.000000,4.000000,4.000000,4.000000,100.000000,,,,,,,,,,,,,,,,,13.000000,0.000000,0.717091,-0.029175,-0.693848,0.059204,0.986449,-0.136735,0.039067,-13.610921,-46.733051,64.702286
1703417457.962367,1703417457.962456,53.000000,0.000000,4244.358887,4240.641113,4291.922852,4291.410156,4224.615234,4218.205078,4227.563965,4206.025879,4199.487305,4195.384766,4523.846191,4489.102539,4376.153809,4456.153809,0.000000,2.000000,48.000000,,,,0.000000,4.000000,4.000000,4.000000,4.000000,4.000000,4.000000,4.000000,4.000000,4.000000,4.000000,4.000000,4.000000,4.000000,4.000000,100.000000,,,,,,,,,,,,,,,,,,,,,,,,,,,,
1703417457.970175,1703417457.970264,54.000000,0.000000,4239.871582,4237.563965,4286.410156,4288.333496,4228.205078,4213.461426,4225.000000,4201.666504,4202.563965,4194.230957,4518.333496,4480.641113,4368.589844,4450.512695,0.000000,2.000000,48.000000,,,,0.000000,4.000000,4.000000,4.000000,4.000000,4.000000,4.000000,4.000000,4.000000,4.000000,4.000000,4.000000,4.000000,4.000000,4.000000,100.000000,,,,,,,,,,,,,,,,,,,,,,,,,,,,
1703417457.977983,1703417457.977972,55.000000,0.000000,4238.461426,4236.666504,4278.461426,4286.282227,4230.256348,4212.563965,4230.128418,4196.922852,4201.666504,4188.077148,4510.256348,4474.615234,4359.358887,4444.615234,0.000000,2.000000,48.000000,,,,0.000000,4.000000,4.000000,4.000000,4.000000,4.000000,4.000000,4.000000,4.000000,4.000000,4.000000,4.000000,4.000000,4.000000,4.000000,100.000000,,,,,,,,,,,,,,,,,,,,,,,,,,,,
1703417457.985792,1703417457.985880,56.000000,0.000000,4231.538574,4232.948730,4270.256348,4284.230957,4229.615234,4214.358887,4230.000000,4190.512695,4187.051270,4172.436035,4495.641113,4459.102539,4347.563965,4433.974121,0.000000,2.000000,48.000000,,,,0.000000,4.000000,4.000000,4.000000,4.000000,4.000000,4.000000,4.000000,4.000000,4.000000,4.000000,4.000000,4.000000,4.000000,4.000000,100.000000,,,,,,,,,,,,,,,,,14.000000,0.000000,0.717108,-0.029114,-0.693848,0.059021,0.983518,-0.148456,0.034184,-13.466496,-46.743080,64.482056
1703417457.993600,1703417457.993689,57.000000,0.000000,4227.436035,4228.846191,4269.358887,4286.282227,4228.846191,4214.743652,4228.589844,4188.974121,4178.461426,4163.461426,4483.461426,4448.974121,4337.051270,4429.230957,0.000000,2.000000,48.000000,,,,0.000000,4.000000,4.000000,4.000000,4.000000,4.000000,4.000000,4.000000,4.000000,4.000000,4.000000,4.000000,4.000000,4.000000,4.000000,100.000000,,,,,,,,,,,,,,,,,,,,,,,,,,,,
1703417458.001408,1703417458.001597,58.000000,0.000000,4232.820313,4228.333496,4272.307617,4290.512695,4225.256348,4217.563965,4232.820313,4192.179688,4187.179688,4172.563965,4487.179688,4455.256348,4340.256348,4429.615234,0.000000,2.000000,48.000000,,,,0.000000,4.000000,4.000000,4.000000,4.000000,4.000000,4.000000,4.000000,4.000000,4.000000,4.000000,4.000000,4.000000,4.000000,4.000000,100.000000,,,,,,,,,,,,,,,,,,,,,,,,,,,,
1703417458.009216,1703417458.009405,59.000000,0.000000,4233.974121,4228.589844,4274.743652,4293.077148,4220.897461,4218.077148,4232.563965,4196.666504,4199.487305,4185.897461,4502.307617,4462.436035,4353.974121,4426.538574,0.000000,2.000000,48.000000,,,,0.000000,4.000000,4.000000,4.000000,4.000000,4.000000,4.000000,4.000000,4.000000,4.000000,4.000000,4.000000,4.000000,4.000000,4.000000,100.000000,,,,,,,,,,,,,,,,,,,,,,,,,,,,
1703417458.017024,1703417458.017313,60.000000,0.000000,4235.769043,4230.512695,4279.487305,4298.077148,4221.025879,4210.128418,4224.743652,4200.384766,4201.794922,4191.410156,4508.717773,4466.025879,4358.205078,4431.666504,0.000000,2.000000,48.000000,,,,0.000000,4.000000,4.000000,4.000000,4.000000,4.000000,4.000000,4.000000,4.000000,4.000000,4.000000,4.000000,4.000000,4.000000,4.000000,100.000000,,,,,,,,,,,,,,,,,15.000000,0.000000,0.717113,-0.028992,-0.693848,0.059021,0.987425,-0.131852,0.028812,-13.319846,-46.868771,64.550514
1703417458.024832,1703417458.025121,61.000000,0.000000,4241.410156,4230.512695,4282.307617,4300.128418,4224.615234,4206.538574,4223.974121,4198.974121,4197.307617,4192.307617,4507.051270,4466.282227,4354.615234,4441.922852,0.000000,2.000000,48.000000,,,,0.000000,4.000000,4.000000,4.000000,4.000000,4.000000,4.000000,4.000000,4.000000,4.000000,4.000000,4.000000,4.000000,4.000000,4.000000,100.000000,,,,,,,,,,,,,,,,,,,,,,,,,,,,
1703417458.032640,1703417458.033029,62.000000,0.000000,4242.948730,4227.820313,4283.461426,4298.333496,4225.256348,4210.000000,4228.846191,4193.205078,4192.692383,4187.563965,4510.256348,4466.282227,4358.974121,4441.666504,0.000000,2.000000,48.000000,,,,0.000000,4.000000,4.000000,4.000000,4.000000,4.000000,4.000000,4.000000,4.000000,4.000000,4.000000,4.000000,4.000000,4.000000,4.000000,100.000000,,,,,,,,,,,,,,,,,,,,,,,,,,,,
1703417458.040448,1703417458.040837,63.000000,0.000000,4239.871582,4228.717773,4287.692383,4299.487305,4221.282227,4209.615234,4224.743652,4188.589844,4187.820313,4178.205078,4510.641113,4466.282227,4365.897461,4437.179688,0.000000,2.000000,48.000000,,,,0.000000,4.000000,4.000000,4.000000,4.000000,4.000000,4.000000,4.000000,4.000000,4.000000,4.000000,4.000000,4.000000,4.000000,4.000000,100.000000,,,,,,,,,,,,,,,,,,,,,,,,,,,,
1703417458.048256,1703417458.048744,64.000000,0.000000,4241.153809,4231.666504,4290.769043,4303.077148,4222.948730,4209.358887,4221.666504,4188.205078,4184.615234,4176.794922,4507.692383,4467.051270,4363.717773,4441.922852,5621.000000,2.000000,48.000000,,,,0.000000,4.000000,4.000000,4.000000,4.000000,4.000000,4.000000,4.000000,4.000000,4.000000,4.000000,4.000000,4.000000,4.000000,4.000000,100.000000,,,,,,,,,,,,,,,,,16.000000,0.000000,0.717108,-0.028992,-0.693848,0.059082,0.980100,-0.138689,0.034184,-13.337862,-46.781895,64.545464
1703417458.056064,1703417458.056552,65.000000,0.000000,4248.461426,4231.282227,4292.179688,4303.589844,4227.563965,4213.846191,4229.615234,4192.051270,4188.461426,4180.512695,4515.128418,4474.743652,4363.333496,4450.641113,5380.000000,2.000000,48.000000,,,,0.000000,4.000000,4.000000,4.000000,4.000000,4.000000,4.000000,4.000000,4.000000,4.000000,4.000000,4.000000,4.000000,4.000000,4.000000,100.000000,,,,,,,,,,,,,,,,,,,,,,,,,,,,
1703417458.063872,1703417458.064261,66.000000,0.000000,4250.897461,4230.000000,4291.410156,4299.871582,4225.000000,4213.974121,4232.563965,4198.717773,4196.794922,4183.205078,4522.307617,4483.846191,4372.051270,4451.794922,5255.000000,2.000000,48.000000,,,,0.000000,4.000000,4.000000,4.000000,4.000000,4.000000,4.000000,4.000000,4.000000,4.000000,4.000000,4.000000,4.000000,4.000000,4.000000,100.000000,,,,,,,,,,,,,,,,,,,,,,,,,,,,
1703417458.071680,1703417458.072069,67.000000,0.000000,4243.333496,4229.230957,4289.871582,4300.256348,4222.948730,4210.000000,4230.256348,4205.128418,4204.102539,4186.794922,4518.717773,4483.205078,4374.102539,4447.179688,5357.000000,2.000000,48.000000,,,,0.000000,4.000000,4.000000,4.000000,4.000000,4.000000,4.000000,4.000000,4.000000,4.000000,4.000000,4.000000,4.000000,4.000000,4.000000,100.000000,,,,,,,,,,,,,,,,,,,,,,,,,,,,
1703417458.079488,1703417458.079777,68.000000,0.000000,4237.307617,4225.641113,4285.384766,4300.769043,4223.846191,4209.487305,4230.641113,4203.589844,4203.846191,4185.128418,4512.692383,4472.692383,4367.307617,4445.384766,5330.000000,2.000000,48.000000,,,,0.000000,4.000000,4.000000,4.000000,4.000000,4.000000,4.000000,4.000000,4.000000,4.000000,4.000000,4.000000,4.000000,4.000000,4.000000,100.000000,,,,,,,,,,,,,,,,,17.000000,0.000000,0.717088,-0.029114,-0.693848,0.059265,0.986449,-0.138200,0.037602,-13.337409,-46.770370,64.607582
1703417458.087296,1703417458.087585,69.000000,0.000000,4236.153809,4219.871582,4277.436035,4294.102539,4220.128418,4209.743652,4227.436035,4196.666504,4198.205078,4178.589844,4506.282227,4464.615234,4360.897461,4442.436035,5168.000000,2.000000,48.000000,,,,0.000000,4.000000,4.000000,4.000000,4.000000,4.000000,4.000000,4.000000,4.000000,4.000000,4.000000,4.000000,4.000000,4.000000,4.000000,100.000000,,,,,,,,,,,,,,,,,,,,,,,,,,,,
1703417458.095104,1703417458.095293,70.000000,0.000000,4233.205078,4216.538574,4273.846191,4288.846191,4218.205078,4209.487305,4225.256348,4193.205078,4195.256348,4176.538574,4501.538574,4462.820313,4357.051270,4437.563965,4164.000000,2.000000,48.000000,,,,0.000000,4.000000,4.000000,4.000000,4.000000,4.000000,4.000000,4.000000,4.000000,4.000000,4.000000,4.000000,4.000000,4.000000,4.000000,100.000000,,,,,,,,,,,,,,,,,,,,,,,,,,,,
1703417458.102912,1703417458.103201,71.000000,0.000000,4235.897461,4218.333496,4279.230957,4292.820313,4219.487305,4210.384766,4231.282227,4192.179688,4195.256348,4186.153809,4505.512695,4466.922852,4361.666504,4443.205078,5222.000000,2.000000,48.000000,,,,0.000000,4.000000,4.000000,4.000000,4.000000,4.000000,4.000000,4.000000,4.000000,4.000000,4.000000,4.000000,4.000000,4.000000,4.000000,100.000000,,,,,,,,,,,,,,,,,,,,,,,,,,,,
1703417458.110720,1703417458.111009,72.000000,0.000000,4242.692383,4223.589844,4286.282227,4295.641113,4218.974121,4207.307617,4230.512695,4194.743652,4198.846191,4197.179688,4514.102539,4473.717773,4372.179688,4451.922852,5490.000000,2.000000,48.000000,,,,0.000000,4.000000,4.000000,4.000000,4.000000,4.000000,4.000000,4.000000,4.000000,4.000000,4.000000,4.000000,4.000000,4.000000,4.000000,100.000000,,,,,,,,,,,,,,,,,18.000000,0.000000,0.717145,-0.029175,-0.693787,0.059265,0.977170,-0.149432,0.032719,-13.337001,-46.843334,64.530159
1703417458.118528,1703417458.118817,73.000000,0.000000,4238.461426,4222.307617,4285.897461,4290.897461,4215.769043,4205.256348,4222.307617,4201.666504,4203.974121,4198.974121,4516.922852,4474.230957,4370.897461,4447.179688,5465.000000,2.000000,48.000000,,,,0.000000,4.000000,4.000000,4.000000,4.000000,4.000000,4.000000,4.000000,4.000000,4.000000,4.000000,4.000000,4.000000,4.000000,4.000000,100.000000,,,,,,,,,,,,,,,,,,,,,,,,,,,,
1703417458.126336,1703417458.126525,74.000000,0.000000,4235.897461,4214.615234,4283.717773,4288.589844,4211.666504,4208.717773,4221.794922,4202.307617,4205.769043,4193.333496,4515.128418,4474.230957,4364.230957,4444.743652,6058.000000,2.000000,48.000000,,,,0.000000,4.000000,4.000000,4.000000,4.000000,4.000000,4.000000,4.000000,4.000000,4.000000,4.000000,4.000000,4.000000,4.000000,4.000000,100.000000,,,,,,,,,,,,,,,,,,,,,,,,,,,,
1703417458.134144,1703417458.134433,75.000000,0.000000,4244.871582,4214.230957,4290.256348,4291.922852,4216.025879,4211.025879,4228.846191,4198.333496,4203.717773,4191.282227,4515.000000,4481.410156,4368.461426,4453.205078,6317.000000,2.000000,48.000000,,,,0.000000,4.000000,4.000000,4.000000,4.000000,4.000000,4.000000,4.000000,4.000000,4.000000,4.000000,4.000000,4.000000,4.000000,4.000000,100.000000,,,,,,,,,,,,,,,,,,,,,,,,,,,,
1703417458.141952,1703417458.142242,76.000000,0.000000,4249.743652,4221.794922,4300.769043,4295.897461,4222.179688,4205.256348,4232.307617,4199.230957,4202.436035,4194.615234,4520.512695,4488.333496,4376.025879,4456.025879,6830.000000,2.000000,48.000000,,,,0.000000,4.000000,4.000000,4.000000,4.000000,4.000000,4.000000,4.000000,4.000000,4.000000,4.000000,4.000000,4.000000,4.000000,4.000000,100.000000,,,,,,,,,,,,,,,,,19.000000,0.000000,0.717196,-0.029358,-0.693726,0.059265,0.985960,-0.136735,0.032230,-13.453301,-46.959000,64.710480
1703417458.149761,1703417458.150150,77.000000,0.000000,4244.487305,4222.307617,4302.051270,4297.692383,4212.692383,4198.589844,4228.717773,4199.358887,4200.000000,4193.717773,4526.025879,4488.077148,4376.410156,4451.922852,7379.000000,2.000000,48.000000,,,,0.000000,4.000000,4.000000,4.000000,4.000000,4.000000,4.000000,4.000000,4.000000,4.000000,4.000000,4.000000,4.000000,4.000000,4.000000,100.000000,,,,,,,,,,,,,,,,,,,,,,,,,,,,
1703417458.157569,1703417458.157958,78.000000,0.000000,4241.153809,4215.641113,4293.333496,4294.230957,4200.769043,4196.282227,4222.051270,4193.589844,4193.205078,4187.948730,4521.794922,4480.897461,4371.666504,4449.487305,6058.000000,2.000000,48.000000,,,,0.000000,4.000000,4.000000,4.000000,4.000000,4.000000,4.000000,4.000000,4.000000,4.000000,4.000000,4.000000,4.000000,4.000000,4.000000,100.000000,,,,,,,,,,,,,,,,,,,,,,,,,,,,
1703417458.165377,1703417458.165866,79.000000,0.000000,4240.512695,4215.128418,4287.307617,4291.282227,4202.948730,4194.230957,4218.333496,4189.871582,4189.871582,4181.538574,4513.461426,4471.282227,4368.077148,4444.743652,6317.000000,2.000000,48.000000,,,,0.000000,4.000000,4.000000,4.000000,4.000000,4.000000,4.000000,4.000000,4.000000,4.000000,4.000000,4.000000,4.000000,4.000000,4.000000,100.000000,,,,,,,,,,,,,,,,,,,,,,,,,,,,
1703417458.173185,1703417458.173674,80.000000,0.000000,4238.077148,4218.077148,4282.179688,4291.922852,4207.948730,4194.487305,4221.153809,4194.230957,4193.589844,4182.179688,4516.025879,4466.666504,4371.025879,4439.615234,6830.000000,2.000000,48.000000,,,,0.000000,4.000000,4.000000,4.000000,4.000000,4.000000,4.000000,4.000000,4.000000,4.000000,4.000000,4.000000,4.000000,4.000000,4.000000,100.000000,,,,,,,,,,,,,,,,,20.000000,0.000000,0.717137,-0.029358,-0.693787,0.059265,0.979612,-0.136247,0.029300,-13.241304,-47.113102,64.689430
1703417458.180993,1703417458.181582,81.000000,0.000000,4233.846191,4216.282227,4274.358887,4286.410156,4208.077148,4199.358887,4223.589844,4199.230957,4197.948730,4183.717773,4517.692383,4462.179688,4371.410156,4433.717773,7379.000000,2.000000,48.000000,,,,0.000000,4.000000,4.000000,4.000000,4.000000,4.000000,4.000000,4.000000,4.000000,4.000000,4.000000,4.000000,4.000000,4.000000,4.000000,100.000000,,,,,,,,,,,,,,,,,,,,,,,,,,,,
1703417458.188801,1703417458.189390,82.000000,0.000000,4228.974121,4211.794922,4270.128418,4277.692383,4205.769043,4202.051270,4218.717773,4196.922852,4195.000000,4181.025879,4504.358887,4454.230957,4359.871582,4428.846191,6058.000000,2.000000,48.000000,,,,0.000000,4.000000,4.000000,4.000000,4.000000,4.000000,4.000000,4.000000,4.000000,4.000000,4.000000,4.000000,4.000000,4.000000,4.000000,100.000000,,,,,,,,,,,,,,,,,,,,,,,,,,,,
1703417458.196609,1703417458.197298,83.000000,0.000000,4222.051270,4206.410156,4269.871582,4277.692383,4202.563965,4203.077148,4217.307617,4193.717773,4189.743652,4183.974121,4495.000000,4451.025879,4350.512695,4425.641113,6317.000000,2.000000,48.000000,,,,0.000000,4.000000,4.000000,4.000000,4.000000,4.000000,4.000000,4.000000,4.000000,4.000000,4.000000,4.000000,4.000000,4.000000,4.000000,100.000000,,,,,,,,,,,,,,,,,,,,,,,,,,,,
1703417458.204417,1703417458.205106,84.000000,0.000000,4221.666504,4205.256348,4267.948730,4278.974121,4206.282227,4207.179688,4219.871582,4188.974121,4182.948730,4182.692383,4497.820313,4452.436035,4348.333496,4423.717773,6830.000000,2.000000,48.000000,,,,0.000000,4.000000,4.000000,4.000000,4.000000,4.000000,4.000000,4.000000,4.000000,4.000000,4.000000,4.000000,4.000000,4.000000,4.000000,100.000000,,,,,,,,,,,,,,,,,21.000000,0.000000,0.717117,-0.029480,-0.693787,0.059448,0.972775,-0.137712,0.032230,-13.250507,-47.201790,64.653824
1703417458.212225,1703417458.213014,85.000000,0.000000,4226.153809,4207.307617,4265.000000,4273.717773,4211.538574,4209.358887,4219.487305,4184.358887,4180.641113,4169.615234,4492.820313,4449.743652,4346.153809,4422.051270,7379.000000,2.000000,48.000000,,,,0.000000,4.000000,4.000000,4.000000,4.000000,4.000000,4.000000,4.000000,4.000000,4.000000,4.000000,4.000000,4.000000,4.000000,4.000000,100.000000,,,,,,,,,,,,,,,,,,,,,,,,,,,,
1703417458.220033,1703417458.220822,86.000000,0.000000,4222.307617,4210.000000,4266.410156,4272.179688,4209.102539,4204.743652,4216.794922,4185.769043,4187.563965,4173.077148,4485.897461,4444.230957,4345.128418,4413.077148,6058.000000,2.000000,48.000000,,,,0.000000,4.000000,4.000000,4.000000,4.000000,4.000000,4.000000,4.000000,4.000000,4.000000,4.000000,4.000000,4.000000,4.000000,4.000000,100.000000,,,,,,,,,,,,,,,,,,,,,,,,,,,,
1703417458.227841,1703417458.228530,87.000000,0.000000,4220.128418,4212.179688,4270.384766,4274.743652,4206.538574,4198.333496,4214.871582,4185.641113,4187.051270,4187.563965,4489.615234,4445.769043,4345.256348,4411.666504,6317.000000,2.000000,48.000000,,,,0.000000,4.000000,4.000000,4.000000,4.000000,4.000000,4.000000,4.000000,4.000000,4.000000,4.000000,4.000000,4.000000,4.000000,4.000000,100.000000,,,,,,,,,,,,,,,,,,,,,,,,,,,,
1703417458.235649,1703417458.236338,88.000000,0.000000,4230.256348,4214.487305,4273.333496,4276.666504,4211.153809,4196.922852,4216.153809,4180.256348,4179.743652,4182.948730,4495.128418,4452.820313,4347.692383,4425.512695,6830.000000,2.000000,48.000000,,,,0.000000,4.000000,4.000000,4.000000,4.000000,4.000000,4.000000,4.000000,4.000000,4.000000,4.000000,4.000000,4.000000,4.000000,4.000000,100.000000,,,,,,,,,,,,,,,,,22.000000,0.000000,0.716986,-0.029419,-0.693909,0.059631,0.981077,-0.144061,0.029789,-13.325457,-47.248280,64.605103
1703417458.243457,1703417458.244046,89.000000,0.000000,4233.717773,4215.000000,4272.692383,4276.025879,4215.128418,4198.205078,4217.307617,4178.589844,4180.256348,4175.641113,4497.179688,4454.358887,4351.538574,4428.974121,7379.000000,2.000000,48.000000,,,,0.000000,4.000000,4.000000,4.000000,4.000000,4.000000,4.000000,4.000000,4.000000,4.000000,4.000000,4.000000,4.000000,4.000000,4.000000,100.000000,,,,,,,,,,,,,,,,,,,,,,,,,,,,
1703417458.251265,1703417458.251854,90.000000,0.000000,4228.589844,4216.666504,4274.743652,4275.000000,4208.333496,4194.358887,4215.128418,4179.102539,4180.384766,4178.333496,4501.025879,4451.794922,4353.589844,4420.000000,6058.000000,2.000000,48.000000,,,,0.000000,4.000000,4.000000,4.000000,4.000000,4.000000,4.000000,4.000000,4.000000,4.000000,4.000000,4.000000,4.000000,4.000000,4.000000,100.000000,,,,,,,,,,,,,,,,,,,,,,,,,,,,
1703417458.259073,1703417458.259562,91.000000,0.000000,4233.333496,4220.256348,4281.922852,4278.333496,4201.794922,4190.128418,4215.000000,4175.512695,4173.205078,4173.717773,4500.384766,4453.077148,4353.205078,4422.436035,6317.000000,2.000000,48.000000,,,,0.000000,4.000000,4.000000,4.000000,4.000000,4.000000,4.000000,4.000000,4.000000,4.000000,4.000000,4.000000,4.000000,4.000000,4.000000,100.000000,,,,,,,,,,,,,,,,,,,,,,,,,,,,
1703417458.266881,1703417458.267370,92.000000,0.000000,4241.922852,4221.538574,4284.871582,4281.153809,4205.384766,4194.230957,4218.846191,4176.025879,4173.589844,4165.769043,4498.846191,4457.179688,4353.077148,4431.025879,6830.000000,2.000000,48.000000,,,,0.000000,4.000000,4.000000,4.000000,4.000000,4.000000,4.000000,4.000000,4.000000,4.000000,4.000000,4.000000,4.000000,4.000000,4.000000,100.000000,,,,,,,,,,,,,,,,,23.000000,0.000000,0.717094,-0.029297,-0.693787,0.059814,0.978147,-0.144061,0.045416,-13.326244,-47.190117,64.527931
1703417458.274689,1703417458.275078,93.000000,0.000000,4237.563965,4218.846191,4281.025879,4276.794922,4207.051270,4197.307617,4218.205078,4180.897461,4182.436035,4165.897461,4502.692383,4458.077148,4354.358887,4430.512695,7379.000000,2.000000,48.000000,,,,0.000000,4.000000,4.000000,4.000000,4.000000,4.000000,4.000000,4.000000,4.000000,4.000000,4.000000,4.000000,4.000000,4.000000,4.000000,100.000000,,,,,,,,,,,,,,,,,,,,,,,,,,,,
1703417458.282498,1703417458.282986,94.000000,0.000000,4227.436035,4209.871582,4274.615234,4270.128418,4197.307617,4192.563965,4213.205078,4179.615234,4180.769043,4168.205078,4499.358887,4449.102539,4349.358887,4417.051270,6058.000000,2.000000,48.000000,,,,0.000000,4.000000,4.000000,4.000000,4.000000,4.000000,4.000000,4.000000,4.000000,4.000000,4.000000,4.000000,4.000000,4.000000,4.000000,100.000000,1.000000,100.000000,4.000000,4.000000,4.000000,4.000000,4.000000,4.000000,4.000000,4.000000,4.000000,4.000000,4.000000,4.000000,4.000000,4.000000,,,,,,,,,,,,
1703417458.290306,1703417458.290795,95.000000,0.000000,4221.922852,4202.051270,4267.948730,4268.974121,4191.922852,4190.256348,4212.563965,4177.563965,4176.922852,4175.641113,4492.307617,4441.025879,4343.717773,4403.846191,6317.000000,2.000000,48.000000,,,,0.000000,4.000000,4.000000,4.000000,4.000000,4.000000,4.000000,4.000000,4.000000,4.000000,4.000000,4.000000,4.000000,4.000000,4.000000,100.000000,,,,,,,,,,,,,,,,,,,,,,,,,,,,
1703417458.298113,1703417458.298703,96.000000,0.000000,4224.871582,4204.230957,4269.743652,4273.974121,4202.307617,4194.358887,4214.102539,4186.153809,4186.282227,4185.897461,4498.333496,4450.897461,4349.358887,4417.307617,6830.000000,2.000000,48.000000,,,,0.000000,4.000000,4.000000,4.000000,4.000000,4.000000,4.000000,4.000000,4.000000,4.000000,4.000000,4.000000,4.000000,4.000000,4.000000,100.000000,,,,,,,,,,,,,,,,,24.000000,0.000000,0.717223,-0.029541,-0.693665,0.059570,0.993774,-0.146014,0.034672,-13.326953,-47.137772,64.541801
1703417458.305922,1703417458.306511,97.000000,0.000000,4226.410156,4205.000000,4271.794922,4276.538574,4208.846191,4197.436035,4214.230957,4196.666504,4197.051270,4185.000000,4504.743652,4457.179688,4352.820313,4435.000000,7379.000000,2.000000,48.000000,,,,0.000000,4.000000,4.000000,4.000000,4.000000,4.000000,4.000000,4.000000,4.000000,4.000000,4.000000,4.000000,4.000000,4.000000,4.000000,100.000000,,,,,,,,,,,,,,,,,,,,,,,,,,,,
1703417458.313730,1703417458.314319,98.000000,0.000000,4219.102539,4199.871582,4263.589844,4275.128418,4203.333496,4201.922852,4215.000000,4196.794922,4195.000000,4179.102539,4501.666504,4445.384766,4346.025879,4422.563965,6058.000000,2.000000,48.000000,,,,0.000000,4.000000,4.000000,4.000000,4.000000,4.000000,4.000000,4.000000,4.000000,4.000000,4.000000,4.000000,4.000000,4.000000,4.000000,100.000000,,,,,,,,,,,,,,,,,,,,,,,,,,,,
1703417458.321538,1703417458.322027,99.000000,0.000000,4216.025879,4201.922852,4261.538574,4279.102539,4207.051270,4207.179688,4217.179688,4193.589844,4190.384766,4177.307617,4496.794922,4438.846191,4342.692383,4406.666504,6317.000000,2.000000,48.000000,,,,0.000000,4.000000,4.000000,4.000000,4.000000,4.000000,4.000000,4.000000,4.000000,4.000000,4.000000,4.000000,4.000000,4.000000,4.000000,100.000000,,,,,,,,,,,,,,,,,,,,,,,,,,,,
1703417458.329346,1703417458.329935,100.000000,0.000000,4222.948730,4207.436035,4269.871582,4284.487305,4215.897461,4201.025879,4215.897461,4190.384766,4190.000000,4175.897461,4491.410156,4439.102539,4343.077148,4411.922852,6830.000000,2.000000,48.000000,,,,0.000000,4.000000,4.000000,4.000000,4.000000,4.000000,4.000000,4.000000,4.000000,4.000000,4.000000,4.000000,4.000000,4.000000,4.000000,100.000000,,,,,,,,,,,,,,,,,25.000000,0.000000,0.717184,-0.029663,-0.693726,0.059265,0.974240,-0.138689,0.042486,-13.444258,-47.090660,64.520958
1703417458.337154,1703417458.337744,101.000000,0.000000,4228.077148,4205.128418,4271.282227,4278.846191,4208.077148,4191.794922,4210.000000,4187.948730,4189.615234,4168.974121,4489.487305,4436.282227,4341.153809,4419.871582,7379.000000,2.000000,48.000000,,,,0.000000,4.000000,4.000000,4.000000,4.000000,4.000000,4.000000,4.000000,4.000000,4.000000,4.000000,4.000000,4.000000,4.000000,4.000000,100.000000,,,,,,,,,,,,,,,,,,,,,,,,,,,,
1703417458.344962,1703417458.345652,102.000000,0.000000,4226.666504,4204.615234,4269.743652,4274.102539,4197.563965,4193.717773,4211.153809,4189.743652,4192.563965,4171.922852,4497.692383,4437.563965,4345.256348,4418.589844,6058.000000,2.000000,48.000000,,,,0.000000,4.000000,4.000000,4.000000,4.000000,4.000000,4.000000,4.000000,4.000000,4.000000,4.000000,4.000000,4.000000,4.000000,4.000000,100.000000,,,,,,,,,,,,,,,,,,,,,,,,,,,,
1703417458.352770,1703417458.353460,103.000000,0.000000,4226.025879,4209.487305,4272.948730,4275.256348,4197.820313,4194.743652,4212.179688,4191.794922,4194.102539,4186.666504,4503.589844,4442.436035,4350.641113,4416.282227,6317.000000,2.000000,48.000000,,,,0.000000,4.000000,4.000000,4.000000,4.000000,4.000000,4.000000,4.000000,4.000000,4.000000,4.000000,4.000000,4.000000,4.000000,4.000000,100.000000,,,,,,,,,,,,,,,,,,,,,,,,,,,,
1703417458.360578,1703417458.361368,104.000000,0.000000,4228.461426,4207.179688,4274.871582,4272.948730,4196.922852,4189.102539,4207.307617,4185.256348,4184.871582,4193.717773,4501.666504,4445.897461,4347.179688,4423.333496,6830.000000,2.000000,48.000000,,,,0.000000,4.000000,4.000000,4.000000,4.000000,4.000000,4.000000,4.000000,4.000000,4.000000,4.000000,4.000000,4.000000,4.000000,4.000000,100.000000,,,,,,,,,,,,,,,,,26.000000,0.000000,0.717058,-0.029602,-0.693848,0.059387,0.968380,-0.130387,0.020022,-13.516499,-47.048264,64.502190
1703417458.368386,1703417458.369176,105.000000,0.000000,4224.871582,4199.358887,4271.025879,4267.692383,4194.487305,4190.512695,4208.974121,4179.487305,4177.179688,4188.589844,4501.410156,4442.563965,4344.743652,4425.897461,7379.000000,2.000000,48.000000,,,,0.000000,4.000000,4.000000,4.000000,4.000000,4.000000,4.000000,4.000000,4.000000,4.000000,4.000000,4.000000,4.000000,4.000000,4.000000,100.000000,,,,,,,,,,,,,,,,,,,,,,,,,,,,
1703417458.376194,1703417458.377084,106.000000,0.000000,4218.077148,4196.153809,4264.871582,4263.461426,4195.384766,4196.666504,4213.205078,4183.077148,4182.179688,4182.563965,4502.051270,4433.589844,4343.205078,4413.333496,6058.000000,2.000000,48.000000,,,,0.000000,4.000000,4.000000,4.000000,4.000000,4.000000,4.000000,4.000000,4.000000,4.000000,4.000000,4.000000,4.000000,4.000000,4.000000,100.000000,,,,,,,,,,,,,,,,,,,,,,,,,,,,
1703417458.384002,1703417458.384893,107.000000,0.000000,4217.820313,4197.692383,4263.846191,4260.512695,4194.871582,4199.615234,4213.974121,4188.846191,4191.153809,4181.666504,4501.153809,4434.615234,4340.512695,4413.974121,6317.000000,2.000000,48.000000,,,,0.000000,4.000000,4.000000,4.000000,4.000000,4.000000,4.000000,4.000000,4.000000,4.000000,4.000000,4.000000,4.000000,4.000000,4.000000,100.000000,,,,,,,,,,,,,,,,,,,,,,,,,,,,
1703417458.391810,1703417458.392801,108.000000,0.000000,4218.205078,4195.128418,4264.615234,4256.282227,4192.179688,4198.077148,4212.179688,4188.717773,4191.282227,4180.384766,4500.000000,4441.410156,4341.666504,4422.436035,6830.000000,2.000000,48.000000,,,,0.000000,4.000000,4.000000,4.000000,4.000000,4.000000,4.000000,4.000000,4.000000,4.000000,4.000000,4.000000,4.000000,4.000000,4.000000,100.000000,,,,,,,,,,,,,,,,,27.000000,0.000000,0.717092,-0.029480,-0.693787,0.059753,0.969357,-0.149921,0.038579,-13.448182,-46.926769,64.485306
1703417458.399618,1703417458.400609,109.000000,0.000000,4208.333496,4189.358887,4256.666504,4251.794922,4188.589844,4192.179688,4207.436035,4180.128418,4181.025879,4173.077148,4490.128418,4432.307617,4337.948730,4406.538574,7379.000000,2.000000,48.000000,,,,0.000000,4.000000,4.000000,4.000000,4.000000,4.000000,4.000000,4.000000,4.000000,4.000000,4.000000,4.000000,4.000000,4.000000,4.000000,100.000000,,,,,,,,,,,,,,,,,,,,,,,,,,,,
1703417458.407426,1703417458.408517,110.000000,0.000000,4206.282227,4190.512695,4252.820313,4251.410156,4187.179688,4191.025879,4204.743652,4174.743652,4172.051270,4162.948730,4481.282227,4422.948730,4329.358887,4396.282227,6058.000000,2.000000,48.000000,,,,0.000000,4.000000,4.000000,4.000000,4.000000,4.000000,4.000000,4.000000,4.000000,4.000000,4.000000,4.000000,4.000000,4.000000,4.000000,100.000000,,,,,,,,,,,,,,,,,,,,,,,,,,,,
1703417458.415234,1703417458.416425,111.000000,0.000000,4219.743652,4195.128418,4264.358887,4254.615234,4190.641113,4195.000000,4206.153809,4179.102539,4175.256348,4165.641113,4485.512695,4430.384766,4328.717773,4412.179688,6317.000000,2.000000,48.000000,,,,0.000000,4.000000,4.000000,4.000000,4.000000,4.000000,4.000000,4.000000,4.000000,4.000000,4.000000,4.000000,4.000000,4.000000,4.000000,100.000000,,,,,,,,,,,,,,,,,,,,,,,,,,,,
1703417458.423042,1703417458.424233,112.000000,0.000000,4221.922852,4198.846191,4272.179688,4260.641113,4190.641113,4195.256348,4205.512695,4184.487305,4183.589844,4173.077148,4491.666504,4437.820313,4336.153809,4415.897461,6830.000000,2.000000,48.000000,,,,0.000000,4.000000,4.000000,4.000000,4.000000,4.000000,4.000000,4.000000,4.000000,4.000000,4.000000,4.000000,4.000000,4.000000,4.000000,100.000000,,,,,,,,,,,,,,,,,28.000000,0.000000,0.717094,-0.029419,-0.693787,0.059753,0.983030,-0.150409,0.034672,-13.453364,-46.967426,64.320107
1703417458.430850,1703417458.432041,113.000000,0.000000,4213.461426,4202.051270,4265.256348,4267.051270,4190.512695,4190.128418,4202.179688,4182.563965,4180.512695,4170.128418,4490.384766,4434.487305,4339.102539,4404.230957,7379.000000,2.000000,48.000000,,,,0.000000,4.000000,4.000000,4.000000,4.000000,4.000000,4.000000,4.000000,4.000000,4.000000,4.000000,4.000000,4.000000,4.000000,4.000000,100.000000,,,,,,,,,,,,,,,,,,,,,,,,,,,,
1703417458.438659,1703417458.439749,114.000000,0.000000,4217.051270,4204.871582,4259.487305,4270.000000,4199.871582,4186.922852,4206.025879,4181.410156,4178.077148,4167.436035,4492.820313,4432.307617,4338.461426,4408.077148,6058.000000,2.000000,48.000000,,,,0.000000,4.000000,4.000000,4.000000,4.000000,4.000000,4.000000,4.000000,4.000000,4.000000,4.000000,4.000000,4.000000,4.000000,4.000000,100.000000,,,,,,,,,,,,,,,,,,,,,,,,,,,,
1703417458.446467,1703417458.447557,115.000000,0.000000,4226.666504,4207.948730,4261.538574,4270.000000,4203.846191,4189.871582,4211.410156,4186.538574,4187.563965,4174.871582,4500.384766,4436.666504,4340.897461,4420.512695,6317.000000,2.000000,48.000000,,,,0.000000,4.000000,4.000000,4.000000,4.000000,4.000000,4.000000,4.000000,4.000000,4.000000,4.000000,4.000000,4.000000,4.000000,4.000000,100.000000,,,,,,,,,,,,,,,,,,,,,,,,,,,,
1703417458.454275,1703417458.455265,116.000000,0.000000,4222.307617,4207.436035,4261.282227,4270.128418,4196.794922,4193.589844,4208.974121,4189.230957,4191.922852,4189.358887,4503.717773,4439.230957,4343.461426,4415.897461,6830.000000,2.000000,48.000000,,,,0.000000,4.000000,4.000000,4.000000,4.000000,4.000000,4.000000,4.000000,4.000000,4.000000,4.000000,4.000000,4.000000,4.000000,4.000000,100.000000,,,,,,,,,,,,,,,,,29.000000,0.000000,0.717043,-0.029480,-0.693848,0.059631,0.979123,-0.147479,0.024417,-13.474694,-46.887348,64.404762
1703417458.462083,1703417458.463073,117.000000,0.000000,4216.153809,4203.974121,4257.179688,4269.743652,4195.000000,4194.102539,4208.846191,4188.589844,4188.333496,4192.563965,4500.000000,4435.256348,4344.487305,4406.538574,7379.000000,2.000000,48.000000,,,,0.000000,4.000000,4.000000,4.000000,4.000000,4.000000,4.000000,4.000000,4.000000,4.000000,4.000000,4.000000,4.000000,4.000000,4.000000,100.000000,,,,,,,,,,,,,,,,,,,,,,,,,,,,
1703417458.469891,1703417458.470781,118.000000,0.000000,4223.589844,4202.692383,4258.589844,4270.512695,4200.128418,4191.666504,4212.051270,4188.717773,4189.230957,4185.000000,4498.717773,4436.794922,4345.641113,4412.051270,6058.000000,2.000000,48.000000,,,,0.000000,4.000000,4.000000,4.000000,4.000000,4.000000,4.000000,4.000000,4.000000,4.000000,4.000000,4.000000,4.000000,4.000000,4.000000,100.000000,,,,,,,,,,,,,,,,,,,,,,,,,,,,
1703417458.477699,1703417458.478589,119.000000,0.000000,4229.102539,4206.025879,4264.743652,4274.871582,4199.230957,4191.025879,4210.128418,4192.179688,4194.358887,4185.384766,4504.871582,4447.563965,4347.307617,4419.871582,6317.000000,2.000000,48.000000,,,,0.000000,4.000000,4.000000,4.000000,4.000000,4.000000,4.000000,4.000000,4.000000,4.000000,4.000000,4.000000,4.000000,4.000000,4.000000,100.000000,,,,,,,,,,,,,,,,,,,,,,,,,,,,
1703417458.485507,1703417458.486297,120.000000,0.000000,4226.666504,4208.589844,4267.307617,4275.769043,4195.256348,4191.153809,4206.922852,4194.487305,4195.384766,4189.487305,4506.794922,4453.461426,4344.358887,4415.512695,6830.000000,2.000000,48.000000,,,,0.000000,4.000000,4.000000,4.000000,4.000000,4.000000,4.000000,4.000000,4.000000,4.000000,4.000000,4.000000,4.000000,4.000000,4.000000,100.000000,,,,,,,,,,,,,,,,,30.000000,0.000000,0.717061,-0.029541,-0.693848,0.059387,0.986449,-0.128434,0.027347,-13.577225,-46.915283,64.597618
1703417458.493315,1703417458.494105,121.000000,0.000000,4225.128418,4207.563965,4268.205078,4276.410156,4193.974121,4189.871582,4210.512695,4190.384766,4191.282227,4181.025879,4500.769043,4451.794922,4340.769043,4411.666504,7379.000000,2.000000,48.000000,,,,0.000000,4.000000,4.000000,4.000000,4.000000,4.000000,4.000000,4.000000,4.000000,4.000000,4.000000,4.000000,4.000000,4.000000,4.000000,100.000000,,,,,,,,,,,,,,,,,,,,,,,,,,,,
1703417458.501123,1703417458.501813,122.000000,0.000000,4228.589844,4206.666504,4273.974121,4281.922852,4191.922852,4189.102539,4214.487305,4187.051270,4188.846191,4173.589844,4505.641113,4457.692383,4346.025879,4419.871582,6058.000000,2.000000,48.000000,,,,0.000000,4.000000,4.000000,4.000000,4.000000,4.000000,4.000000,4.000000,4.000000,4.000000,4.000000,4.000000,4.000000,4.000000,4.000000,100.000000,,,,,,,,,,,,,,,,,,,,,,,,,,,,
1703417458.508931,1703417458.509621,123.000000,0.000000,4235.384766,4207.948730,4282.307617,4284.102539,4190.641113,4188.974121,4213.717773,4190.641113,4190.384766,4182.692383,4521.794922,4471.153809,4357.563965,4430.897461,6317.000000,2.000000,48.000000,,,,0.000000,4.000000,4.000000,4.000000,4.000000,4.000000,4.000000,4.000000,4.000000,4.000000,4.000000,4.000000,4.000000,4.000000,4.000000,100.000000,,,,,,,,,,,,,,,,,,,,,,,,,,,,
1703417458.516739,1703417458.517330,124.000000,0.000000,4240.000000,4209.358887,4285.512695,4278.333496,4189.615234,4190.000000,4212.179688,4191.410156,4190.384766,4193.589844,4523.717773,4475.641113,4361.922852,4438.461426,6830.000000,2.000000,48.000000,,,,0.000000,4.000000,4.000000,4.000000,4.000000,4.000000,4.000000,4.000000,4.000000,4.000000,4.000000,4.000000,4.000000,4.000000,4.000000,100.000000,,,,,,,,,,,,,,,,,31.000000,0.000000,0.716973,-0.029175,-0.693970,0.059204,0.969845,-0.127457,0.030277,-13.636169,-46.973755,64.604523
1703417458.524547,1703417458.525137,125.000000,0.000000,4235.512695,4205.897461,4282.179688,4271.153809,4188.846191,4190.384766,4205.897461,4186.282227,4190.000000,4191.025879,4514.615234,4471.666504,4355.512695,4436.025879,7379.000000,2.000000,48.000000,,,,0.000000,4.000000,4.000000,4.000000,4.000000,4.000000,4.000000,4.000000,4.000000,4.000000,4.000000,4.000000,4.000000,4.000000,4.000000,100.000000,,,,,,,,,,,,,,,,,,,,,,,,,,,,
1703417458.532355,1703417458.532846,126.000000,0.000000,4229.102539,4201.922852,4273.461426,4267.692383,4190.897461,4189.871582,4201.410156,4184.102539,4191.410156,4185.128418,4509.615234,4466.282227,4349.230957,4426.538574,6058.000000,2.000000,48.000000,,,,0.000000,4.000000,4.000000,4.000000,4.000000,4.000000,4.000000,4.000000,4.000000,4.000000,4.000000,4.000000,4.000000,4.000000,4.000000,100.000000,,,,,,,,,,,,,,,,,,,,,,,,,,,,
1703417458.540163,1703417458.540754,127.000000,0.000000,4227.436035,4201.666504,4260.000000,4266.025879,4190.512695,4187.948730,4200.641113,4181.282227,4185.000000,4192.436035,4501.025879,4452.051270,4346.025879,4417.948730,48.000000,2.000000,48.000000,,,,0.000000,4.000000,4.000000,4.000000,4.000000,4.000000,4.000000,4.000000,4.000000,4.000000,4.000000,4.000000,4.000000,4.000000,4.000000,100.000000,,,,,,,,,,,,,,,,,,,,,,,,,,,,
1703417458.547971,1703417458.548562,0.000000,0.000000,4226.538574,4206.153809,4254.871582,4265.641113,4189.871582,4186.025879,4201.922852,4177.051270,4181.410156,4200.512695,4494.615234,4441.410156,4345.000000,4415.512695,5621.000000,2.000000,48.000000,,,,0.000000,4.000000,4.000000,4.000000,4.000000,4.000000,4.000000,4.000000,4.000000,4.000000,4.000000,4.000000,4.000000,4.000000,4.000000,100.000000,,,,,,,,,,,,,,,,,0.000000,0.000000,0.717003,-0.028809,-0.693970,0.059021,0.987425,-0.127945,0.033696,-13.605886,-47.076378,64.744072
1703417458.555779,1703417458.556370,1.000000,0.000000,4231.410156,4214.487305,4264.230957,4268.717773,4199.102539,4187.692383,4208.077148,4183.589844,4195.384766,4196.410156,4505.256348,4453.205078,4350.769043,4423.461426,5380.000000,2.000000,48.000000,,,,0.000000,4.000000,4.000000,4.000000,4.000000,4.000000,4.000000,4.000000,4.000000,4.000000,4.000000,4.000000,4.000000,4.000000,4.000000,100.000000,,,,,,,,,,,,,,,,,,,,,,,,,,,,
1703417458.563587,1703417458.564078,2.000000,0.000000,4240.512695,4214.615234,4273.205078,4273.333496,4206.410156,4189.871582,4212.179688,4195.512695,4206.153809,4195.384766,4516.922852,4467.307617,4356.153809,4432.179688,5252.000000,2.000000,48.000000,,,,0.000000,4.000000,4.000000,4.000000,4.000000,4.000000,4.000000,4.000000,4.000000,4.000000,4.000000,4.000000,4.000000,4.000000,4.000000,100.000000,,,,,,,,,,,,,,,,,,,,,,,,,,,,
1703417458.571396,1703417458.571986,3.000000,0.000000,4243.846191,4212.692383,4272.436035,4279.871582,4199.743652,4190.769043,4212.563965,4198.974121,4202.948730,4198.846191,4515.897461,4468.461426,4357.563965,4435.769043,5357.000000,2.000000,48.000000,,,,0.000000,4.000000,4.000000,4.000000,4.000000,4.000000,4.000000,4.000000,4.000000,4.000000,4.000000,4.000000,4.000000,4.000000,4.000000,100.000000,,,,,,,,,,,,,,,,,,,,,,,,,,,,
1703417458.579203,1703417458.579794,4.000000,0.000000,4243.461426,4217.820313,4274.102539,4283.461426,4194.102539,4193.461426,4215.897461,4195.384766,4202.179688,4196.410156,4516.666504,4471.282227,4363.461426,4436.153809,5330.000000,2.000000,48.000000,,,,0.000000,4.000000,4.000000,4.000000,4.000000,4.000000,4.000000,4.000000,4.000000,4.000000,4.000000,4.000000,4.000000,4.000000,4.000000,100.000000,,,,,,,,,,,,,,,,,1.000000,0.000000,0.717020,-0.028748,-0.693970,0.058838,1.002075,-0.127457,0.037602,-13.728630,-46.968739,64.719666
1703417458.587011,1703417458.587703,5.000000,0.000000,4241.025879,4218.205078,4274.871582,4280.000000,4196.025879,4196.666504,4217.948730,4192.436035,4200.000000,4193.846191,4515.641113,4472.051270,4363.717773,4435.128418,5168.000000,2.000000,48.000000,,,,0.000000,4.000000,4.000000,4.000000,4.000000,4.000000,4.000000,4.000000,4.000000,4.000000,4.000000,4.000000,4.000000,4.000000,4.000000,100.000000,,,,,,,,,,,,,,,,,,,,,,,,,,,,
1703417458.594820,1703417458.595511,6.000000,0.000000,4237.179688,4208.974121,4268.333496,4276.153809,4197.692383,4196.538574,4214.230957,4192.563965,4193.077148,4193.461426,4511.666504,4468.333496,4357.051270,4435.641113,4164.000000,2.000000,48.000000,,,,0.000000,4.000000,4.000000,4.000000,4.000000,4.000000,4.000000,4.000000,4.000000,4.000000,4.000000,4.000000,4.000000,4.000000,4.000000,100.000000,,,,,,,,,,,,,,,,,,,,,,,,,,,,
1703417458.602628,1703417458.603419,7.000000,0.000000,4232.948730,4207.307617,4266.153809,4275.512695,4199.102539,4193.461426,4210.384766,4196.794922,4196.025879,4192.307617,4512.948730,4466.410156,4357.051270,4433.333496,5222.000000,2.000000,48.000000,,,,0.000000,4.000000,4.000000,4.000000,4.000000,4.000000,4.000000,4.000000,4.000000,4.000000,4.000000,4.000000,4.000000,4.000000,4.000000,100.000000,,,,,,,,,,,,,,,,,,,,,,,,,,,,
1703417458.610436,1703417458.611227,8.000000,0.000000,4234.230957,4218.205078,4272.179688,4280.512695,4200.641113,4191.153809,4211.282227,4197.820313,4203.717773,4195.641113,4513.974121,4465.128418,4360.512695,4430.128418,5490.000000,2.000000,48.000000,,,,0.000000,4.000000,4.000000,4.000000,4.000000,4.000000,4.000000,4.000000,4.000000,4.000000,4.000000,4.000000,4.000000,4.000000,4.000000,100.000000,,,,,,,,,,,,,,,,,2.000000,0.000000,0.716939,-0.029053,-0.694031,0.058960,0.982542,-0.121597,0.039067,-13.722434,-47.155201,64.764366
1703417458.618244,1703417458.619134,9.000000,0.000000,4247.307617,4227.179688,4283.333496,4290.897461,4201.922852,4191.282227,4214.615234,4195.256348,4205.256348,4198.205078,4522.051270,4475.384766,4367.307617,4442.692383,5474.000000,2.000000,48.000000,,,,0.000000,4.000000,4.000000,4.000000,4.000000,4.000000,4.000000,4.000000,4.000000,4.000000,4.000000,4.000000,4.000000,4.000000,4.000000,100.000000,,,,,,,,,,,,,,,,,,,,,,,,,,,,
1703417458.626052,1703417458.626942,10.000000,0.000000,4261.666504,4230.384766,4295.000000,4298.077148,4208.974121,4195.512695,4216.538574,4195.641113,4207.307617,4198.846191,4539.230957,4493.974121,4378.717773,4460.769043,6063.000000,2.000000,48.000000,,,,0.000000,4.000000,4.000000,4.000000,4.000000,4.000000,4.000000,4.000000,4.000000,4.000000,4.000000,4.000000,4.000000,4.000000,4.000000,100.000000,,,,,,,,,,,,,,,,,,,,,,,,,,,,
1703417458.633860,1703417458.634651,11.000000,0.000000,4259.615234,4232.051270,4296.153809,4297.820313,4213.461426,4201.922852,4215.769043,4198.333496,4212.307617,4205.128418,4542.692383,4498.461426,4382.051270,4460.769043,6314.000000,2.000000,48.000000,,,,0.000000,4.000000,4.000000,4.000000,4.000000,4.000000,4.000000,4.000000,4.000000,4.000000,4.000000,4.000000,4.000000,4.000000,4.000000,100.000000,,,,,,,,,,,,,,,,,,,,,,,,,,,,
1703417458.641668,1703417458.642458,12.000000,0.000000,4254.102539,4232.307617,4291.410156,4297.307617,4210.256348,4207.563965,4217.563965,4203.846191,4216.025879,4218.974121,4539.358887,4496.538574,4382.820313,4459.102539,6830.000000,2.000000,48.000000,,,,0.000000,4.000000,4.000000,4.000000,4.000000,4.000000,4.000000,4.000000,4.000000,4.000000,4.000000,4.000000,4.000000,4.000000,4.000000,100.000000,,,,,,,,,,,,,,,,,3.000000,0.000000,0.716921,-0.029114,-0.694031,0.059143,0.981565,-0.132829,0.043951,-13.566857,-46.956345,64.787933
1703417458.649476,1703417458.650167,13.000000,0.000000,4258.846191,4230.897461,4295.641113,4297.948730,4214.230957,4211.025879,4222.051270,4212.051270,4222.436035,4226.282227,4545.769043,4502.563965,4389.358887,4465.897461,7383.000000,2.000000,48.000000,,,,0.000000,4.000000,4.000000,4.000000,4.000000,4.000000,4.000000,4.000000,4.000000,4.000000,4.000000,4.000000,4.000000,4.000000,4.000000,100.000000,,,,,,,,,,,,,,,,,,,,,,,,,,,,
1703417458.657284,1703417458.657975,14.000000,0.000000,4257.948730,4226.282227,4298.846191,4292.692383,4223.205078,4209.871582,4221.153809,4214.871582,4226.538574,4219.615234,4544.615234,4503.974121,4384.358887,4467.179688,6063.000000,2.000000,48.000000,,,,0.000000,4.000000,4.000000,4.000000,4.000000,4.000000,4.000000,4.000000,4.000000,4.000000,4.000000,4.000000,4.000000,4.000000,4.000000,100.000000,,,,,,,,,,,,,,,,,,,,,,,,,,,,
1703417458.665092,1703417458.665683,15.000000,0.000000,4249.487305,4219.743652,4288.974121,4287.307617,4217.948730,4205.897461,4219.743652,4210.769043,4221.282227,4211.794922,4532.820313,4495.000000,4373.205078,4459.615234,6314.000000,2.000000,48.000000,,,,0.000000,4.000000,4.000000,4.000000,4.000000,4.000000,4.000000,4.000000,4.000000,4.000000,4.000000,4.000000,4.000000,4.000000,4.000000,100.000000,,,,,,,,,,,,,,,,,,,,,,,,,,,,
1703417458.672900,1703417458.673491,16.000000,0.000000,4244.871582,4216.794922,4280.128418,4283.461426,4207.820313,4209.102539,4224.487305,4208.461426,4214.743652,4206.025879,4528.333496,4488.333496,4373.077148,4450.641113,0.000000,2.000000,48.000000,,,,0.000000,4.000000,4.000000,4.000000,4.000000,4.000000,4.000000,4.000000,4.000000,4.000000,4.000000,4.000000,4.000000,4.000000,4.000000,100.000000,,,,,,,,,,,,,,,,,4.000000,0.000000,0.716886,-0.029114,-0.694031,0.059570,0.996215,-0.142596,0.032719,-13.660172,-46.927380,64.909134
1703417458.680708,1703417458.681199,17.000000,0.000000,4240.641113,4219.871582,4276.666504,4279.743652,4209.871582,4214.358887,4226.538574,4207.179688,4208.333496,4197.692383,4522.436035,4481.538574,4367.051270,4439.487305,0.000000,2.000000,48.000000,,,,0.000000,4.000000,4.000000,4.000000,4.000000,4.000000,4.000000,4.000000,4.000000,4.000000,4.000000,4.000000,4.000000,4.000000,4.000000,100.000000,,,,,,,,,,,,,,,,,,,,,,,,,,,,
1703417458.688516,1703417458.689007,18.000000,0.000000,4240.000000,4223.461426,4274.230957,4278.077148,4215.769043,4212.307617,4224.487305,4203.077148,4204.743652,4193.717773,4512.563965,4474.358887,4355.128418,4434.487305,0.000000,2.000000,48.000000,,,,0.000000,4.000000,4.000000,4.000000,4.000000,4.000000,4.000000,4.000000,4.000000,4.000000,4.000000,4.000000,4.000000,4.000000,4.000000,100.000000,,,,,,,,,,,,,,,,,,,,,,,,,,,,
1703417458.696324,1703417458.696715,19.000000,0.000000,4245.256348,4227.692383,4278.589844,4280.512695,4214.487305,4210.512695,4225.769043,4203.717773,4208.717773,4195.897461,4520.384766,4478.077148,4364.615234,4444.102539,0.000000,2.000000,48.000000,,,,0.000000,4.000000,4.000000,4.000000,4.000000,4.000000,4.000000,4.000000,4.000000,4.000000,4.000000,4.000000,4.000000,4.000000,4.000000,100.000000,,,,,,,,,,,,,,,,,,,,,,,,,,,,
1703417458.704132,1703417458.704523,20.000000,0.000000,4243.461426,4230.769043,4280.641113,4281.538574,4214.487305,4211.922852,4228.717773,4201.922852,4206.410156,4195.512695,4528.077148,4481.538574,4376.153809,4444.743652,0.000000,2.000000,48.000000,,,,0.000000,4.000000,4.000000,4.000000,4.000000,4.000000,4.000000,4.000000,4.000000,4.000000,4.000000,4.000000,4.000000,4.000000,4.000000,100.000000,,,,,,,,,,,,,,,,,5.000000,0.000000,0.716740,-0.029175,-0.694153,0.059875,0.981077,-0.148944,0.028324,-13.660821,-46.901306,65.184891
1703417458.711940,1703417458.712231,21.000000,0.000000,4242.436035,4227.948730,4272.692383,4277.948730,4219.871582,4213.205078,4224.743652,4197.820313,4197.563965,4190.769043,4517.692383,4474.102539,4367.948730,4438.589844,0.000000,2.000000,48.000000,,,,0.000000,4.000000,4.000000,4.000000,4.000000,4.000000,4.000000,4.000000,4.000000,4.000000,4.000000,4.000000,4.000000,4.000000,4.000000,100.000000,,,,,,,,,,,,,,,,,,,,,,,,,,,,
1703417458.719748,1703417458.720139,22.000000,0.000000,4249.615234,4228.974121,4268.974121,4280.641113,4224.102539,4219.358887,4224.871582,4201.025879,4200.897461,4188.461426,4517.307617,4470.641113,4368.333496,4445.000000,0.000000,2.000000,48.000000,,,,0.000000,4.000000,4.000000,4.000000,4.000000,4.000000,4.000000,4.000000,4.000000,4.000000,4.000000,4.000000,4.000000,4.000000,4.000000,100.000000,,,,,,,,,,,,,,,,,,,,,,,,,,,,
1703417458.727556,1703417458.727947,23.000000,0.000000,4248.077148,4235.128418,4271.538574,4286.282227,4223.589844,4223.333496,4228.589844,4202.307617,4210.769043,4198.589844,4527.051270,4472.948730,4375.128418,4444.487305,0.000000,2.000000,48.000000,,,,0.000000,4.000000,4.000000,4.000000,4.000000,4.000000,4.000000,4.000000,4.000000,4.000000,4.000000,4.000000,4.000000,4.000000,4.000000,100.000000,,,,,,,,,,,,,,,,,,,,,,,,,,,,
1703417458.735365,1703417458.735855,24.000000,0.000000,4241.666504,4234.230957,4269.487305,4284.358887,4222.307617,4216.025879,4225.128418,4197.820313,4210.512695,4212.179688,4521.794922,4469.615234,4366.794922,4431.410156,0.000000,2.000000,48.000000,,,,0.000000,4.000000,4.000000,4.000000,4.000000,4.000000,4.000000,4.000000,4.000000,4.000000,4.000000,4.000000,4.000000,4.000000,4.000000,100.000000,,,,,,,,,,,,,,,,,6.000000,0.000000,0.716724,-0.029419,-0.694153,0.059937,0.986937,-0.137712,0.025882,-13.644739,-46.811176,65.083069
1703417458.743173,1703417458.743663,25.000000,0.000000,4249.615234,4231.794922,4272.563965,4282.436035,4221.153809,4212.692383,4221.922852,4200.641113,4209.615234,4214.358887,4520.641113,4473.333496,4363.589844,4435.769043,0.000000,2.000000,48.000000,,,,0.000000,4.000000,4.000000,4.000000,4.000000,4.000000,4.000000,4.000000,4.000000,4.000000,4.000000,4.000000,4.000000,4.000000,4.000000,100.000000,,,,,,,,,,,,,,,,,,,,,,,,,,,,
1703417458.750981,1703417458.751571,26.000000,0.000000,4256.794922,4234.743652,4289.102539,4284.743652,4220.256348,4217.692383,4226.410156,4211.025879,4223.205078,4215.256348,4537.692383,4492.051270,4377.436035,4454.615234,0.000000,2.000000,48.000000,,,,0.000000,4.000000,4.000000,4.000000,4.000000,4.000000,4.000000,4.000000,4.000000,4.000000,4.000000,4.000000,4.000000,4.000000,4.000000,100.000000,,,,,,,,,,,,,,,,,,,,,,,,,,,,
1703417458.758789,1703417458.759380,27.000000,0.000000,4256.538574,4237.948730,4300.256348,4286.410156,4226.922852,4221.794922,4233.077148,4221.282227,4238.717773,4222.179688,4549.358887,4509.358887,4388.717773,4464.230957,0.000000,2.000000,48.000000,,,,0.000000,4.000000,4.000000,4.000000,4.000000,4.000000,4.000000,4.000000,4.000000,4.000000,4.000000,4.000000,4.000000,4.000000,4.000000,100.000000,,,,,,,,,,,,,,,,,,,,,,,,,,,,
1703417458.766597,1703417458.767288,28.000000,0.000000,4260.384766,4240.897461,4302.820313,4290.384766,4232.179688,4222.948730,4233.205078,4229.102539,4237.179688,4228.205078,4551.538574,4516.282227,4391.922852,4467.436035,0.000000,2.000000,48.000000,,,,0.000000,4.000000,4.000000,4.000000,4.000000,4.000000,4.000000,4.000000,4.000000,4.000000,4.000000,4.000000,4.000000,4.000000,4.000000,100.000000,,,,,,,,,,,,,,,,,7.000000,0.000000,0.716722,-0.029480,-0.694153,0.059937,0.977170,-0.131852,0.024905,-13.613598,-46.713390,65.008095
1703417458.774405,1703417458.775096,29.000000,0.000000,4263.846191,4244.230957,4306.666504,4292.948730,4226.025879,4221.538574,4232.307617,4227.820313,4227.179688,4230.128418,4550.897461,4516.410156,4388.205078,4466.794922,0.000000,2.000000,48.000000,,,,0.000000,4.000000,4.000000,4.000000,4.000000,4.000000,4.000000,4.000000,4.000000,4.000000,4.000000,4.000000,4.000000,4.000000,4.000000,100.000000,,,,,,,,,,,,,,,,,,,,,,,,,,,,
1703417458.782213,1703417458.783004,30.000000,0.000000,4265.512695,4245.641113,4311.153809,4294.615234,4224.743652,4223.589844,4235.128418,4222.820313,4227.051270,4224.487305,4547.563965,4517.563965,4384.615234,4468.717773,0.000000,2.000000,48.000000,,,,0.000000,4.000000,4.000000,4.000000,4.000000,4.000000,4.000000,4.000000,4.000000,4.000000,4.000000,4.000000,4.000000,4.000000,4.000000,100.000000,1.000000,100.000000,4.000000,4.000000,4.000000,4.000000,4.000000,4.000000,4.000000,4.000000,4.000000,4.000000,4.000000,4.000000,4.000000,4.000000,,,,,,,,,,,,
1703417458.790021,1703417458.790812,31.000000,0.000000,4269.743652,4244.871582,4312.692383,4297.692383,4229.487305,4228.589844,4236.666504,4223.846191,4227.307617,4215.128418,4546.153809,4518.333496,4386.666504,4472.692383,0.000000,2.000000,48.000000,,,,0.000000,4.000000,4.000000,4.000000,4.000000,4.000000,4.000000,4.000000,4.000000,4.000000,4.000000,4.000000,4.000000,4.000000,4.000000,100.000000,,,,,,,,,,,,,,,,,,,,,,,,,,,,
1703417458.797829,1703417458.798720,32.000000,0.000000,4268.205078,4243.461426,4313.077148,4295.000000,4227.051270,4227.307617,4234.487305,4223.077148,4219.358887,4215.000000,4548.077148,4515.641113,4386.666504,4469.743652,0.000000,2.000000,48.000000,,,,0.000000,4.000000,4.000000,4.000000,4.000000,4.000000,4.000000,4.000000,4.000000,4.000000,4.000000,4.000000,4.000000,4.000000,4.000000,100.000000,,,,,,,,,,,,,,,,,8.000000,0.000000,0.716645,-0.029541,-0.694214,0.060120,0.979123,-0.137224,0.038091,-13.702238,-46.792053,64.973953
1703417458.805637,1703417458.806528,33.000000,0.000000,4261.794922,4243.717773,4313.333496,4291.282227,4225.769043,4224.871582,4232.820313,4219.230957,4219.102539,4216.410156,4549.743652,4516.666504,4387.436035,4464.230957,0.000000,2.000000,48.000000,,,,0.000000,4.000000,4.000000,4.000000,4.000000,4.000000,4.000000,4.000000,4.000000,4.000000,4.000000,4.000000,4.000000,4.000000,4.000000,100.000000,,,,,,,,,,,,,,,,,,,,,,,,,,,,
1703417458.813445,1703417458.814436,34.000000,0.000000,4261.922852,4244.487305,4310.000000,4293.846191,4232.051270,4226.410156,4234.102539,4211.794922,4221.538574,4207.307617,4547.051270,4513.205078,4389.102539,4463.717773,0.000000,2.000000,48.000000,,,,0.000000,4.000000,4.000000,4.000000,4.000000,4.000000,4.000000,4.000000,4.000000,4.000000,4.000000,4.000000,4.000000,4.000000,4.000000,100.000000,,,,,,,,,,,,,,,,,,,,,,,,,,,,
1703417458.821253,1703417458.822244,35.000000,0.000000,4270.769043,4246.410156,4304.102539,4295.512695,4235.384766,4228.205078,4232.051270,4206.538574,4218.717773,4212.179688,4544.615234,4504.743652,4390.769043,4471.025879,0.000000,2.000000,48.000000,,,,0.000000,4.000000,4.000000,4.000000,4.000000,4.000000,4.000000,4.000000,4.000000,4.000000,4.000000,4.000000,4.000000,4.000000,4.000000,100.000000,,,,,,,,,,,,,,,,,,,,,,,,,,,,
1703417458.829061,1703417458.829952,36.000000,0.000000,4273.974121,4251.794922,4301.282227,4296.538574,4239.743652,4231.922852,4236.666504,4216.025879,4225.512695,4234.358887,4553.333496,4507.436035,4399.615234,4473.077148,0.000000,2.000000,48.000000,,,,0.000000,4.000000,4.000000,4.000000,4.000000,4.000000,4.000000,4.000000,4.000000,4.000000,4.000000,4.000000,4.000000,4.000000,4.000000,100.000000,,,,,,,,,,,,,,,,,9.000000,0.000000,0.716563,-0.029602,-0.694275,0.060364,0.973752,-0.145526,0.030277,-13.498681,-46.846180,64.809891
1703417458.836869,1703417458.837760,37.000000,0.000000,4264.102539,4255.384766,4298.333496,4300.897461,4243.333496,4237.436035,4242.563965,4226.538574,4236.922852,4242.692383,4562.179688,4509.102539,4405.128418,4461.282227,0.000000,2.000000,48.000000,,,,0.000000,4.000000,4.000000,4.000000,4.000000,4.000000,4.000000,4.000000,4.000000,4.000000,4.000000,4.000000,4.000000,4.000000,4.000000,100.000000,,,,,,,,,,,,,,,,,,,,,,,,,,,,
1703417458.844677,1703417458.845468,38.000000,0.000000,4262.436035,4255.128418,4296.153809,4298.205078,4242.179688,4239.615234,4243.461426,4225.641113,4241.025879,4235.128418,4560.512695,4502.692383,4402.948730,4457.692383,0.000000,2.000000,48.000000,,,,0.000000,4.000000,4.000000,4.000000,4.000000,4.000000,4.000000,4.000000,4.000000,4.000000,4.000000,4.000000,4.000000,4.000000,4.000000,100.000000,,,,,,,,,,,,,,,,,,,,,,,,,,,,
1703417458.852485,1703417458.853376,39.000000,0.000000,4270.256348,4253.461426,4300.128418,4291.025879,4237.948730,4236.282227,4240.512695,4221.025879,4236.410156,4232.179688,4557.436035,4501.410156,4402.307617,4464.487305,0.000000,2.000000,48.000000,,,,0.000000,4.000000,4.000000,4.000000,4.000000,4.000000,4.000000,4.000000,4.000000,4.000000,4.000000,4.000000,4.000000,4.000000,4.000000,100.000000,,,,,,,,,,,,,,,,,,,,,,,,,,,,
1703417458.860293,1703417458.861184,40.000000,0.000000,4270.641113,4250.512695,4307.692383,4292.179688,4236.025879,4233.205078,4238.974121,4225.256348,4236.282227,4235.769043,4562.563965,4512.436035,4404.743652,4469.487305,0.000000,2.000000,48.000000,,,,0.000000,4.000000,4.000000,4.000000,4.000000,4.000000,4.000000,4.000000,4.000000,4.000000,4.000000,4.000000,4.000000,4.000000,4.000000,100.000000,,,,,,,,,,,,,,,,,10.000000,0.000000,0.716565,-0.029541,-0.694275,0.060364,0.988890,-0.143572,0.038579,-13.498814,-46.844894,64.695564
1703417458.868101,1703417458.869092,41.000000,0.000000,4278.717773,4256.153809,4321.794922,4302.179688,4251.410156,4244.358887,4245.897461,4245.384766,4253.846191,4242.563965,4581.410156,4535.128418,4415.641113,4487.051270,0.000000,2.000000,48.000000,,,,0.000000,4.000000,4.000000,4.000000,4.000000,4.000000,4.000000,4.000000,4.000000,4.000000,4.000000,4.000000,4.000000,4.000000,4.000000,100.000000,,,,,,,,,,,,,,,,,,,,,,,,,,,,
1703417458.875909,1703417458.876900,42.000000,0.000000,4291.794922,4265.769043,4332.692383,4311.153809,4272.051270,4258.974121,4253.974121,4260.641113,4268.974121,4249.102539,4592.179688,4548.333496,4425.256348,4499.487305,0.000000,2.000000,48.000000,,,,0.000000,4.000000,4.000000,4.000000,4.000000,4.000000,4.000000,4.000000,4.000000,4.000000,4.000000,4.000000,4.000000,4.000000,4.000000,100.000000,,,,,,,,,,,,,,,,,,,,,,,,,,,,
1703417458.883717,1703417458.884708,43.000000,0.000000,4284.871582,4267.820313,4328.589844,4313.717773,4275.897461,4258.846191,4258.461426,4256.153809,4263.589844,4248.717773,4581.538574,4536.666504,4420.000000,4483.077148,0.000000,2.000000,48.000000,,,,0.000000,4.000000,4.000000,4.000000,4.000000,4.000000,4.000000,4.000000,4.000000,4.000000,4.000000,4.000000,4.000000,4.000000,4.000000,100.000000,,,,,,,,,,,,,,,,,,,,,,,,,,,,
1703417458.891526,1703417458.892417,44.000000,0.000000,4275.384766,4269.743652,4324.743652,4311.538574,4272.051270,4256.153809,4259.230957,4250.128418,4254.743652,4245.000000,4574.358887,4530.128418,4416.410156,4477.307617,0.000000,2.000000,48.000000,,,,0.000000,4.000000,4.000000,4.000000,4.000000,4.000000,4.000000,4.000000,4.000000,4.000000,4.000000,4.000000,4.000000,4.000000,4.000000,100.000000,,,,,,,,,,,,,,,,,11.000000,0.000000,0.716560,-0.029541,-0.694275,0.060425,0.981565,-0.151386,0.024417,-13.365599,-46.893742,64.676010
1703417458.899334,1703417458.900224,45.000000,0.000000,4282.051270,4266.410156,4330.128418,4306.538574,4276.410156,4256.922852,4257.051270,4253.077148,4257.692383,4244.615234,4580.128418,4542.051270,4416.922852,4493.717773,0.000000,2.000000,48.000000,,,,0.000000,4.000000,4.000000,4.000000,4.000000,4.000000,4.000000,4.000000,4.000000,4.000000,4.000000,4.000000,4.000000,4.000000,4.000000,100.000000,,,,,,,,,,,,,,,,,,,,,,,,,,,,
1703417458.907142,1703417458.907933,46.000000,0.000000,4290.512695,4259.487305,4338.333496,4307.948730,4279.615234,4256.410156,4254.102539,4256.410156,4265.512695,4258.589844,4587.948730,4551.282227,4421.410156,4500.000000,0.000000,2.000000,48.000000,,,,0.000000,4.000000,4.000000,4.000000,4.000000,4.000000,4.000000,4.000000,4.000000,4.000000,4.000000,4.000000,4.000000,4.000000,4.000000,100.000000,,,,,,,,,,,,,,,,,,,,,,,,,,,,
1703417458.914950,1703417458.915741,47.000000,0.000000,4291.794922,4263.077148,4341.410156,4312.436035,4274.230957,4257.436035,4254.230957,4259.102539,4270.256348,4271.538574,4594.615234,4553.589844,4433.589844,4498.589844,0.000000,2.000000,48.000000,,,,0.000000,4.000000,4.000000,4.000000,4.000000,4.000000,4.000000,4.000000,4.000000,4.000000,4.000000,4.000000,4.000000,4.000000,4.000000,100.000000,,,,,,,,,,,,,,,,,,,,,,,,,,,,
1703417458.922758,1703417458.923449,48.000000,0.000000,4286.410156,4270.512695,4337.436035,4310.512695,4271.794922,4256.153809,4250.641113,4254.358887,4267.436035,4261.538574,4595.512695,4547.307617,4432.692383,4495.384766,0.000000,2.000000,48.000000,,,,0.000000,4.000000,4.000000,4.000000,4.000000,4.000000,4.000000,4.000000,4.000000,4.000000,4.000000,4.000000,4.000000,4.000000,4.000000,100.000000,,,,,,,,,,,,,,,,,12.000000,0.000000,0.716617,-0.029602,-0.694214,0.060425,0.981565,-0.130875,0.032719,-13.479038,-46.787701,64.558411
1703417458.930566,1703417458.931357,49.000000,0.000000,4284.230957,4272.692383,4333.077148,4310.769043,4274.230957,4249.615234,4243.717773,4240.641113,4258.846191,4258.461426,4585.384766,4533.333496,4421.538574,4489.230957,0.000000,2.000000,48.000000,,,,0.000000,4.000000,4.000000,4.000000,4.000000,4.000000,4.000000,4.000000,4.000000,4.000000,4.000000,4.000000,4.000000,4.000000,4.000000,100.000000,,,,,,,,,,,,,,,,,,,,,,,,,,,,
1703417458.938374,1703417458.939165,50.000000,0.000000,4295.256348,4272.051270,4333.974121,4316.922852,4269.102539,4250.128418,4245.256348,4234.358887,4254.871582,4268.077148,4581.153809,4529.230957,4423.974121,4493.846191,0.000000,2.000000,48.000000,,,,0.000000,4.000000,4.000000,4.000000,4.000000,4.000000,4.000000,4.000000,4.000000,4.000000,4.000000,4.000000,4.000000,4.000000,4.000000,100.000000,,,,,,,,,,,,,,,,,,,,,,,,,,,,
1703417458.946182,1703417458.947073,51.000000,0.000000,4297.179688,4271.025879,4331.666504,4316.538574,4270.256348,4252.179688,4246.538574,4236.153809,4255.000000,4259.102539,4586.922852,4531.666504,4428.461426,4497.179688,0.000000,2.000000,48.000000,,,,0.000000,4.000000,4.000000,4.000000,4.000000,4.000000,4.000000,4.000000,4.000000,4.000000,4.000000,4.000000,4.000000,4.000000,4.000000,100.000000,,,,,,,,,,,,,,,,,,,,,,,,,,,,
1703417458.953990,1703417458.954881,52.000000,0.000000,4283.589844,4271.410156,4325.512695,4312.179688,4275.897461,4249.230957,4245.256348,4242.948730,4260.384766,4250.384766,4591.922852,4529.871582,4424.358887,4485.641113,0.000000,2.000000,48.000000,,,,0.000000,4.000000,4.000000,4.000000,4.000000,4.000000,4.000000,4.000000,4.000000,4.000000,4.000000,4.000000,4.000000,4.000000,4.000000,100.000000,,,,,,,,,,,,,,,,,13.000000,0.000000,0.716547,-0.029724,-0.694275,0.060486,0.983518,-0.130875,0.026859,-13.397801,-46.875595,64.469238
1703417458.961798,1703417458.962789,53.000000,0.000000,4282.051270,4275.512695,4328.846191,4314.487305,4249.487305,4254.871582,4248.589844,4253.461426,4267.820313,4262.692383,4596.538574,4532.563965,4427.179688,4483.846191,0.000000,2.000000,48.000000,,,,0.000000,4.000000,4.000000,4.000000,4.000000,4.000000,4.000000,4.000000,4.000000,4.000000,4.000000,4.000000,4.000000,4.000000,4.000000,100.000000,,,,,,,,,,,,,,,,,,,,,,,,,,,,
1703417458.969606,1703417458.970598,54.000000,0.000000,4293.589844,4279.358887,4340.384766,4320.000000,4229.743652,4261.410156,4251.410156,4260.897461,4271.538574,4269.102539,4604.230957,4546.538574,4435.128418,4500.000000,0.000000,2.000000,48.000000,,,,0.000000,4.000000,4.000000,4.000000,4.000000,4.000000,4.000000,4.000000,4.000000,4.000000,4.000000,4.000000,4.000000,4.000000,4.000000,100.000000,,,,,,,,,,,,,,,,,,,,,,,,,,,,
1703417458.977414,1703417458.978505,55.000000,0.000000,4298.205078,4278.846191,4347.051270,4321.282227,4264.358887,4251.666504,4253.717773,4267.563965,4275.897461,4268.846191,4611.922852,4557.948730,4441.025879,4507.307617,0.000000,2.000000,48.000000,,,,0.000000,4.000000,4.000000,4.000000,4.000000,4.000000,4.000000,4.000000,4.000000,4.000000,4.000000,4.000000,4.000000,4.000000,4.000000,100.000000,,,,,,,,,,,,,,,,,,,,,,,,,,,,
1703417458.985222,1703417458.986313,56.000000,0.000000,4294.358887,4271.153809,4338.717773,4313.333496,4287.948730,4240.384766,4256.410156,4267.179688,4272.051270,4266.153809,4607.179688,4551.410156,4437.948730,4498.461426,0.000000,2.000000,48.000000,,,,0.000000,4.000000,4.000000,4.000000,4.000000,4.000000,4.000000,4.000000,4.000000,4.000000,4.000000,4.000000,4.000000,4.000000,4.000000,100.000000,,,,,,,,,,,,,,,,,14.000000,0.000000,0.716622,-0.029602,-0.694214,0.060364,0.985960,-0.145526,0.027347,-13.424688,-47.071369,64.372314
1703417458.993030,1703417458.994121,57.000000,0.000000,4283.205078,4257.436035,4321.538574,4302.948730,4262.436035,4243.846191,4255.641113,4257.948730,4256.025879,4247.307617,4585.128418,4530.256348,4417.436035,4482.692383,0.000000,2.000000,48.000000,,,,0.000000,4.000000,4.000000,4.000000,4.000000,4.000000,4.000000,4.000000,4.000000,4.000000,4.000000,4.000000,4.000000,4.000000,4.000000,100.000000,,,,,,,,,,,,,,,,,,,,,,,,,,,,
1703417459.000838,1703417459.001929,58.000000,0.000000,4270.897461,4247.051270,4312.563965,4294.615234,4250.512695,4247.563965,4249.871582,4251.153809,4246.410156,4236.282227,4564.871582,4517.179688,4398.461426,4469.102539,0.000000,2.000000,48.000000,,,,0.000000,4.000000,4.000000,4.000000,4.000000,4.000000,4.000000,4.000000,4.000000,4.000000,4.000000,4.000000,4.000000,4.000000,4.000000,100.000000,,,,,,,,,,,,,,,,,,,,,,,,,,,,
1703417459.008646,1703417459.009637,59.000000,0.000000,4266.538574,4238.589844,4312.820313,4287.820313,4259.871582,4243.205078,4246.666504,4248.205078,4245.897461,4240.128418,4559.102539,4517.948730,4396.153809,4469.230957,0.000000,2.000000,48.000000,,,,0.000000,4.000000,4.000000,4.000000,4.000000,4.000000,4.000000,4.000000,4.000000,4.000000,4.000000,4.000000,4.000000,4.000000,4.000000,100.000000,,,,,,,,,,,,,,,,,,,,,,,,,,,,
1703417459.016454,1703417459.017445,60.000000,0.000000,4268.974121,4235.000000,4313.846191,4287.692383,4252.307617,4239.871582,4247.051270,4243.589844,4241.410156,4234.230957,4562.436035,4519.487305,4401.794922,4478.205078,0.000000,2.000000,48.000000,,,,0.000000,4.000000,4.000000,4.000000,4.000000,4.000000,4.000000,4.000000,4.000000,4.000000,4.000000,4.000000,4.000000,4.000000,4.000000,100.000000,,,,,,,,,,,,,,,,,15.000000,0.000000,0.716699,-0.029541,-0.694153,0.060181,0.989867,-0.139177,0.032719,-13.298886,-46.964233,64.585083
1703417459.024263,1703417459.025153,61.000000,0.000000,4271.538574,4237.563965,4314.743652,4296.666504,4244.743652,4240.641113,4249.358887,4240.641113,4239.230957,4229.487305,4565.000000,4519.230957,4403.974121,4479.743652,0.000000,2.000000,48.000000,,,,0.000000,4.000000,4.000000,4.000000,4.000000,4.000000,4.000000,4.000000,4.000000,4.000000,4.000000,4.000000,4.000000,4.000000,4.000000,100.000000,,,,,,,,,,,,,,,,,,,,,,,,,,,,
1703417459.032071,1703417459.032961,62.000000,0.000000,4270.641113,4243.205078,4314.615234,4304.487305,4247.179688,4242.436035,4246.538574,4239.871582,4240.769043,4233.846191,4566.153809,4514.358887,4400.641113,4471.025879,0.000000,2.000000,48.000000,,,,0.000000,4.000000,4.000000,4.000000,4.000000,4.000000,4.000000,4.000000,4.000000,4.000000,4.000000,4.000000,4.000000,4.000000,4.000000,100.000000,,,,,,,,,,,,,,,,,,,,,,,,,,,,
1703417459.039878,1703417459.040669,63.000000,0.000000,4267.051270,4248.461426,4307.563965,4307.692383,4247.692383,4237.692383,4239.102539,4235.000000,4236.282227,4228.461426,4563.589844,4502.820313,4397.820313,4461.538574,0.000000,2.000000,48.000000,,,,0.000000,4.000000,4.000000,4.000000,4.000000,4.000000,4.000000,4.000000,4.000000,4.000000,4.000000,4.000000,4.000000,4.000000,4.000000,100.000000,,,,,,,,,,,,,,,,,,,,,,,,,,,,
1703417459.047687,1703417459.048477,64.000000,0.000000,4265.641113,4250.000000,4301.282227,4312.179688,4247.563965,4229.615234,4236.410156,4229.230957,4232.820313,4218.846191,4557.563965,4492.436035,4397.307617,4457.692383,5621.000000,2.000000,48.000000,,,,0.000000,4.000000,4.000000,4.000000,4.000000,4.000000,4.000000,4.000000,4.000000,4.000000,4.000000,4.000000,4.000000,4.000000,4.000000,100.000000,,,,,,,,,,,,,,,,,16.000000,0.000000,0.716699,-0.029541,-0.694153,0.060181,0.982542,-0.141131,0.030765,-13.402330,-46.867809,64.493240
1703417459.055495,1703417459.056186,65.000000,0.000000,4268.461426,4247.692383,4306.025879,4316.666504,4249.871582,4229.487305,4238.717773,4225.256348,4235.128418,4220.256348,4554.102539,4492.563965,4393.461426,4461.538574,5385.000000,2.000000,48.000000,,,,0.000000,4.000000,4.000000,4.000000,4.000000,4.000000,4.000000,4.000000,4.000000,4.000000,4.000000,4.000000,4.000000,4.000000,4.000000,100.000000,,,,,,,,,,,,,,,,,,,,,,,,,,,,
1703417459.063303,1703417459.063994,66.000000,0.000000,4267.179688,4246.282227,4310.000000,4318.589844,4249.230957,4231.025879,4234.871582,4223.461426,4231.153809,4223.717773,4555.256348,4497.307617,4392.436035,4465.769043,5253.000000,2.000000,48.000000,,,,0.000000,4.000000,4.000000,4.000000,4.000000,4.000000,4.000000,4.000000,4.000000,4.000000,4.000000,4.000000,4.000000,4.000000,4.000000,100.000000,,,,,,,,,,,,,,,,,,,,,,,,,,,,
1703417459.071111,1703417459.071702,67.000000,0.000000,4262.051270,4244.102539,4305.000000,4320.384766,4245.256348,4227.820313,4231.153809,4225.000000,4228.589844,4220.769043,4559.358887,4497.179688,4400.512695,4463.461426,5357.000000,2.000000,48.000000,,,,0.000000,4.000000,4.000000,4.000000,4.000000,4.000000,4.000000,4.000000,4.000000,4.000000,4.000000,4.000000,4.000000,4.000000,4.000000,100.000000,,,,,,,,,,,,,,,,,,,,,,,,,,,,
1703417459.078919,1703417459.079510,68.000000,0.000000,4258.846191,4240.512695,4300.128418,4317.563965,4242.307617,4225.897461,4235.128418,4227.307617,4235.769043,4223.589844,4562.436035,4496.025879,4405.384766,4460.128418,5369.000000,2.000000,48.000000,,,,0.000000,4.000000,4.000000,4.000000,4.000000,4.000000,4.000000,4.000000,4.000000,4.000000,4.000000,4.000000,4.000000,4.000000,4.000000,100.000000,,,,,,,,,,,,,,,,,17.000000,0.000000,0.716702,-0.029480,-0.694153,0.060181,0.988402,-0.130875,0.036626,-13.395431,-46.797695,64.677246
1703417459.086727,1703417459.087218,69.000000,0.000000,4258.205078,4238.461426,4298.589844,4312.692383,4239.615234,4223.589844,4235.512695,4229.487305,4235.384766,4236.410156,4562.692383,4497.307617,4402.563965,4460.128418,5168.000000,2.000000,48.000000,,,,0.000000,4.000000,4.000000,4.000000,4.000000,4.000000,4.000000,4.000000,4.000000,4.000000,4.000000,4.000000,4.000000,4.000000,4.000000,100.000000,,,,,,,,,,,,,,,,,,,,,,,,,,,,
1703417459.094535,1703417459.095026,70.000000,0.000000,4261.282227,4239.743652,4300.512695,4313.717773,4237.692383,4219.358887,4233.077148,4230.000000,4229.102539,4241.025879,4563.974121,4498.589844,4404.487305,4459.615234,4171.000000,2.000000,48.000000,,,,0.000000,4.000000,4.000000,4.000000,4.000000,4.000000,4.000000,4.000000,4.000000,4.000000,4.000000,4.000000,4.000000,4.000000,4.000000,100.000000,,,,,,,,,,,,,,,,,,,,,,,,,,,,
1703417459.102343,1703417459.102734,71.000000,0.000000,4265.641113,4241.922852,4308.846191,4317.692383,4237.179688,4219.102539,4234.743652,4233.205078,4232.948730,4233.461426,4571.282227,4502.179688,4408.974121,4463.589844,5223.000000,2.000000,48.000000,,,,0.000000,4.000000,4.000000,4.000000,4.000000,4.000000,4.000000,4.000000,4.000000,4.000000,4.000000,4.000000,4.000000,4.000000,4.000000,100.000000,,,,,,,,,,,,,,,,,,,,,,,,,,,,
1703417459.110151,1703417459.110542,72.000000,0.000000,4268.846191,4239.358887,4313.974121,4316.538574,4236.538574,4220.897461,4234.102539,4237.692383,4236.153809,4226.922852,4576.538574,4507.563965,4406.025879,4470.897461,5489.000000,2.000000,48.000000,,,,0.000000,4.000000,4.000000,4.000000,4.000000,4.000000,4.000000,4.000000,4.000000,4.000000,4.000000,4.000000,4.000000,4.000000,4.000000,100.000000,,,,,,,,,,,,,,,,,18.000000,0.000000,0.716627,-0.029602,-0.694214,0.060303,0.985472,-0.142107,0.039067,-13.405888,-46.934593,64.859520
1703417459.117959,1703417459.118250,73.000000,0.000000,4260.128418,4234.358887,4305.897461,4309.615234,4232.436035,4217.307617,4231.922852,4233.333496,4228.461426,4223.333496,4569.230957,4504.358887,4396.794922,4463.077148,5475.000000,2.000000,48.000000,,,,0.000000,4.000000,4.000000,4.000000,4.000000,4.000000,4.000000,4.000000,4.000000,4.000000,4.000000,4.000000,4.000000,4.000000,4.000000,100.000000,,,,,,,,,,,,,,,,,,,,,,,,,,,,
1703417459.125767,1703417459.126158,74.000000,0.000000,4247.692383,4236.794922,4294.871582,4304.102539,4227.692383,4214.230957,4231.538574,4227.820313,4224.743652,4214.615234,4556.282227,4491.794922,4389.358887,4446.025879,6058.000000,2.000000,48.000000,,,,0.000000,4.000000,4.000000,4.000000,4.000000,4.000000,4.000000,4.000000,4.000000,4.000000,4.000000,4.000000,4.000000,4.000000,4.000000,100.000000,,,,,,,,,,,,,,,,,,,,,,,,,,,,
1703417459.133575,1703417459.133966,75.000000,0.000000,4251.153809,4240.384766,4296.153809,4303.461426,4233.461426,4218.974121,4232.307617,4227.051270,4226.922852,4208.974121,4552.179688,4486.410156,4386.153809,4448.077148,6330.000000,2.000000,48.000000,,,,0.000000,4.000000,4.000000,4.000000,4.000000,4.000000,4.000000,4.000000,4.000000,4.000000,4.000000,4.000000,4.000000,4.000000,4.000000,100.000000,,,,,,,,,,,,,,,,,,,,,,,,,,,,
1703417459.141383,1703417459.141874,76.000000,0.000000,4260.769043,4239.615234,4302.436035,4304.102539,4241.025879,4223.333496,4234.743652,4224.615234,4225.769043,4214.102539,4556.025879,4491.794922,4388.846191,4462.436035,6833.000000,2.000000,48.000000,,,,0.000000,4.000000,4.000000,4.000000,4.000000,4.000000,4.000000,4.000000,4.000000,4.000000,4.000000,4.000000,4.000000,4.000000,4.000000,100.000000,,,,,,,,,,,,,,,,,19.000000,0.000000,0.716553,-0.029724,-0.694275,0.060425,0.986937,-0.134782,0.023929,-13.281965,-46.974468,65.023575
1703417459.149191,1703417459.149682,77.000000,0.000000,4253.461426,4238.077148,4294.102539,4298.717773,4233.589844,4217.692383,4232.051270,4218.077148,4220.641113,4210.512695,4550.256348,4484.743652,4386.282227,4455.897461,7386.000000,2.000000,48.000000,,,,0.000000,4.000000,4.000000,4.000000,4.000000,4.000000,4.000000,4.000000,4.000000,4.000000,4.000000,4.000000,4.000000,4.000000,4.000000,100.000000,,,,,,,,,,,,,,,,,,,,,,,,,,,,
1703417459.156999,1703417459.157590,78.000000,0.000000,4240.256348,4234.358887,4276.922852,4286.282227,4218.717773,4207.692383,4221.794922,4210.641113,4213.205078,4201.282227,4533.974121,4461.025879,4372.692383,4435.512695,6058.000000,2.000000,48.000000,,,,0.000000,4.000000,4.000000,4.000000,4.000000,4.000000,4.000000,4.000000,4.000000,4.000000,4.000000,4.000000,4.000000,4.000000,4.000000,100.000000,,,,,,,,,,,,,,,,,,,,,,,,,,,,
1703417459.164807,1703417459.165398,79.000000,0.000000,4243.461426,4228.589844,4272.436035,4280.128418,4213.589844,4204.615234,4220.897461,4206.153809,4209.871582,4209.743652,4526.025879,4448.974121,4365.128418,4432.563965,6330.000000,2.000000,48.000000,,,,0.000000,4.000000,4.000000,4.000000,4.000000,4.000000,4.000000,4.000000,4.000000,4.000000,4.000000,4.000000,4.000000,4.000000,4.000000,100.000000,,,,,,,,,,,,,,,,,,,,,,,,,,,,
1703417459.172615,1703417459.173306,80.000000,0.000000,4245.128418,4227.307617,4275.512695,4280.128418,4215.000000,4205.769043,4225.512695,4205.384766,4209.743652,4224.871582,4526.922852,4449.487305,4367.436035,4435.000000,6833.000000,2.000000,48.000000,,,,0.000000,4.000000,4.000000,4.000000,4.000000,4.000000,4.000000,4.000000,4.000000,4.000000,4.000000,4.000000,4.000000,4.000000,4.000000,100.000000,,,,,,,,,,,,,,,,,20.000000,0.000000,0.716424,-0.029846,-0.694397,0.060486,0.974240,-0.138689,0.024417,-13.237103,-47.110352,64.871216
1703417459.180424,1703417459.181114,81.000000,0.000000,4236.282227,4226.666504,4270.897461,4279.230957,4215.512695,4205.512695,4224.358887,4206.410156,4210.000000,4221.025879,4524.230957,4443.461426,4365.512695,4425.641113,7386.000000,2.000000,48.000000,,,,0.000000,4.000000,4.000000,4.000000,4.000000,4.000000,4.000000,4.000000,4.000000,4.000000,4.000000,4.000000,4.000000,4.000000,4.000000,100.000000,,,,,,,,,,,,,,,,,,,,,,,,,,,,
1703417459.188232,1703417459.189022,82.000000,0.000000,4237.051270,4225.897461,4270.897461,4279.358887,4216.282227,4206.153809,4225.897461,4208.846191,4212.948730,4211.922852,4524.487305,4444.230957,4364.358887,4428.077148,6058.000000,2.000000,48.000000,,,,0.000000,4.000000,4.000000,4.000000,4.000000,4.000000,4.000000,4.000000,4.000000,4.000000,4.000000,4.000000,4.000000,4.000000,4.000000,100.000000,,,,,,,,,,,,,,,,,,,,,,,,,,,,
1703417459.196040,1703417459.196830,83.000000,0.000000,4244.358887,4227.179688,4281.153809,4278.461426,4216.025879,4208.077148,4229.230957,4213.077148,4214.743652,4212.179688,4533.846191,4460.000000,4368.461426,4440.512695,6330.000000,2.000000,48.000000,,,,0.000000,4.000000,4.000000,4.000000,4.000000,4.000000,4.000000,4.000000,4.000000,4.000000,4.000000,4.000000,4.000000,4.000000,4.000000,100.000000,,,,,,,,,,,,,,,,,,,,,,,,,,,,
1703417459.203848,1703417459.204538,84.000000,0.000000,4243.717773,4229.358887,4287.948730,4275.128418,4213.333496,4208.717773,4226.666504,4213.461426,4211.025879,4210.897461,4540.641113,4468.077148,4371.282227,4441.794922,6833.000000,2.000000,48.000000,,,,0.000000,4.000000,4.000000,4.000000,4.000000,4.000000,4.000000,4.000000,4.000000,4.000000,4.000000,4.000000,4.000000,4.000000,4.000000,100.000000,,,,,,,,,,,,,,,,,21.000000,0.000000,0.716393,-0.029968,-0.694397,0.060791,0.979612,-0.137712,0.026859,-13.280059,-47.065983,64.900757
1703417459.211656,1703417459.212346,85.000000,0.000000,4247.051270,4231.538574,4289.615234,4278.974121,4213.205078,4207.051270,4229.102539,4212.820313,4209.230957,4208.461426,4546.282227,4468.205078,4375.641113,4443.846191,7386.000000,2.000000,48.000000,,,,0.000000,4.000000,4.000000,4.000000,4.000000,4.000000,4.000000,4.000000,4.000000,4.000000,4.000000,4.000000,4.000000,4.000000,4.000000,100.000000,,,,,,,,,,,,,,,,,,,,,,,,,,,,
1703417459.219464,1703417459.220054,86.000000,0.000000,4253.333496,4228.974121,4291.410156,4283.974121,4213.717773,4207.307617,4236.025879,4212.692383,4208.717773,4205.769043,4548.461426,4470.641113,4376.794922,4449.487305,6058.000000,2.000000,48.000000,,,,0.000000,4.000000,4.000000,4.000000,4.000000,4.000000,4.000000,4.000000,4.000000,4.000000,4.000000,4.000000,4.000000,4.000000,4.000000,100.000000,,,,,,,,,,,,,,,,,,,,,,,,,,,,
1703417459.227272,1703417459.227962,87.000000,0.000000,4246.410156,4224.743652,4292.179688,4278.333496,4211.794922,4207.179688,4233.589844,4205.641113,4200.256348,4196.410156,4539.871582,4466.794922,4366.794922,4443.333496,6330.000000,2.000000,48.000000,,,,0.000000,4.000000,4.000000,4.000000,4.000000,4.000000,4.000000,4.000000,4.000000,4.000000,4.000000,4.000000,4.000000,4.000000,4.000000,100.000000,,,,,,,,,,,,,,,,,,,,,,,,,,,,
1703417459.235080,1703417459.235770,88.000000,0.000000,4243.205078,4223.589844,4290.128418,4272.051270,4209.615234,4203.333496,4228.846191,4197.820313,4192.436035,4190.512695,4530.000000,4458.717773,4358.333496,4437.051270,6833.000000,2.000000,48.000000,,,,0.000000,4.000000,4.000000,4.000000,4.000000,4.000000,4.000000,4.000000,4.000000,4.000000,4.000000,4.000000,4.000000,4.000000,4.000000,100.000000,,,,,,,,,,,,,,,,,22.000000,0.000000,0.716326,-0.029907,-0.694458,0.060913,0.968868,-0.140154,0.034672,-13.235386,-47.159386,64.844017
1703417459.242888,1703417459.243578,89.000000,0.000000,4249.615234,4221.282227,4287.179688,4271.538574,4210.512695,4202.948730,4230.000000,4200.769043,4195.384766,4193.205078,4528.717773,4459.230957,4355.769043,4438.717773,7386.000000,2.000000,48.000000,,,,0.000000,4.000000,4.000000,4.000000,4.000000,4.000000,4.000000,4.000000,4.000000,4.000000,4.000000,4.000000,4.000000,4.000000,4.000000,100.000000,,,,,,,,,,,,,,,,,,,,,,,,,,,,
1703417459.250696,1703417459.251287,90.000000,0.000000,4244.871582,4216.794922,4281.282227,4270.384766,4212.051270,4207.436035,4231.922852,4207.692383,4203.205078,4193.077148,4530.128418,4461.666504,4358.205078,4436.153809,6058.000000,2.000000,48.000000,,,,0.000000,4.000000,4.000000,4.000000,4.000000,4.000000,4.000000,4.000000,4.000000,4.000000,4.000000,4.000000,4.000000,4.000000,4.000000,100.000000,,,,,,,,,,,,,,,,,,,,,,,,,,,,
1703417459.258504,1703417459.259095,91.000000,0.000000,4236.794922,4213.333496,4273.589844,4267.436035,4211.410156,4208.717773,4231.025879,4208.077148,4206.282227,4188.974121,4525.897461,4454.102539,4360.512695,4433.589844,6330.000000,2.000000,48.000000,,,,0.000000,4.000000,4.000000,4.000000,4.000000,4.000000,4.000000,4.000000,4.000000,4.000000,4.000000,4.000000,4.000000,4.000000,4.000000,100.000000,,,,,,,,,,,,,,,,,,,,,,,,,,,,
1703417459.266312,1703417459.266803,92.000000,0.000000,4240.128418,4212.436035,4272.692383,4266.282227,4215.769043,4210.128418,4230.641113,4208.974121,4203.461426,4195.641113,4519.102539,4449.871582,4350.641113,4432.307617,6833.000000,2.000000,48.000000,,,,0.000000,4.000000,4.000000,4.000000,4.000000,4.000000,4.000000,4.000000,4.000000,4.000000,4.000000,4.000000,4.000000,4.000000,4.000000,100.000000,,,,,,,,,,,,,,,,,23.000000,0.000000,0.716434,-0.030029,-0.694336,0.060974,0.993285,-0.142596,0.041021,-13.245181,-47.110115,64.959618
1703417459.274120,1703417459.274611,93.000000,0.000000,4240.897461,4211.153809,4273.333496,4266.025879,4218.077148,4215.384766,4232.179688,4211.153809,4202.820313,4207.307617,4519.102539,4450.769043,4340.897461,4427.692383,7386.000000,2.000000,48.000000,,,,0.000000,4.000000,4.000000,4.000000,4.000000,4.000000,4.000000,4.000000,4.000000,4.000000,4.000000,4.000000,4.000000,4.000000,4.000000,100.000000,,,,,,,,,,,,,,,,,,,,,,,,,,,,
1703417459.281928,1703417459.282319,94.000000,0.000000,4238.461426,4210.769043,4272.948730,4268.333496,4215.256348,4215.128418,4230.897461,4209.358887,4207.820313,4208.589844,4526.922852,4450.897461,4352.307617,4431.538574,6058.000000,2.000000,48.000000,,,,0.000000,4.000000,4.000000,4.000000,4.000000,4.000000,4.000000,4.000000,4.000000,4.000000,4.000000,4.000000,4.000000,4.000000,4.000000,100.000000,1.000000,100.000000,4.000000,4.000000,4.000000,4.000000,4.000000,4.000000,4.000000,4.000000,4.000000,4.000000,4.000000,4.000000,4.000000,4.000000,,,,,,,,,,,,
1703417459.289736,1703417459.290227,95.000000,0.000000,4246.153809,4216.666504,4280.641113,4276.794922,4221.538574,4211.922852,4232.051270,4209.358887,4213.461426,4207.051270,4531.282227,4455.769043,4366.025879,4441.538574,6330.000000,2.000000,48.000000,,,,0.000000,4.000000,4.000000,4.000000,4.000000,4.000000,4.000000,4.000000,4.000000,4.000000,4.000000,4.000000,4.000000,4.000000,4.000000,100.000000,,,,,,,,,,,,,,,,,,,,,,,,,,,,
1703417459.297544,1703417459.298035,96.000000,0.000000,4251.922852,4224.487305,4288.077148,4280.512695,4226.794922,4211.922852,4235.769043,4211.922852,4212.179688,4205.256348,4529.615234,4460.769043,4360.256348,4440.512695,6833.000000,2.000000,48.000000,,,,0.000000,4.000000,4.000000,4.000000,4.000000,4.000000,4.000000,4.000000,4.000000,4.000000,4.000000,4.000000,4.000000,4.000000,4.000000,100.000000,,,,,,,,,,,,,,,,,24.000000,0.000000,0.716506,-0.030212,-0.694275,0.060730,0.978147,-0.139665,0.024905,-13.403996,-47.049103,64.963654
1703417459.305352,1703417459.305943,97.000000,0.000000,4248.205078,4221.922852,4286.153809,4275.000000,4218.077148,4211.282227,4235.384766,4210.641113,4205.897461,4199.230957,4530.128418,4456.410156,4354.102539,4434.487305,7386.000000,2.000000,48.000000,,,,0.000000,4.000000,4.000000,4.000000,4.000000,4.000000,4.000000,4.000000,4.000000,4.000000,4.000000,4.000000,4.000000,4.000000,4.000000,100.000000,,,,,,,,,,,,,,,,,,,,,,,,,,,,
1703417459.313160,1703417459.313751,98.000000,0.000000,4248.205078,4216.282227,4283.717773,4269.743652,4214.230957,4208.077148,4232.307617,4206.025879,4200.128418,4192.563965,4530.384766,4451.538574,4356.025879,4439.615234,6058.000000,2.000000,48.000000,,,,0.000000,4.000000,4.000000,4.000000,4.000000,4.000000,4.000000,4.000000,4.000000,4.000000,4.000000,4.000000,4.000000,4.000000,4.000000,100.000000,,,,,,,,,,,,,,,,,,,,,,,,,,,,
1703417459.320969,1703417459.321659,99.000000,0.000000,4255.000000,4220.897461,4286.282227,4269.871582,4222.820313,4209.358887,4232.307617,4203.205078,4198.205078,4191.282227,4526.922852,4451.282227,4353.846191,4440.000000,6330.000000,2.000000,48.000000,,,,0.000000,4.000000,4.000000,4.000000,4.000000,4.000000,4.000000,4.000000,4.000000,4.000000,4.000000,4.000000,4.000000,4.000000,4.000000,100.000000,,,,,,,,,,,,,,,,,,,,,,,,,,,,
1703417459.328776,1703417459.329468,100.000000,0.000000,4253.717773,4226.666504,4285.128418,4270.000000,4224.487305,4215.897461,4236.794922,4207.179688,4203.205078,4195.256348,4527.436035,4450.512695,4354.615234,4425.897461,6833.000000,2.000000,48.000000,,,,0.000000,4.000000,4.000000,4.000000,4.000000,4.000000,4.000000,4.000000,4.000000,4.000000,4.000000,4.000000,4.000000,4.000000,4.000000,100.000000,,,,,,,,,,,,,,,,,25.000000,0.000000,0.716388,-0.030334,-0.694397,0.060669,0.960566,-0.137712,0.028812,-13.413596,-46.994194,64.967285
1703417459.336584,1703417459.337376,101.000000,0.000000,4251.666504,4227.179688,4283.846191,4268.461426,4221.410156,4219.230957,4238.333496,4212.179688,4208.077148,4203.333496,4534.102539,4454.358887,4359.102539,4419.487305,7386.000000,2.000000,48.000000,,,,0.000000,4.000000,4.000000,4.000000,4.000000,4.000000,4.000000,4.000000,4.000000,4.000000,4.000000,4.000000,4.000000,4.000000,4.000000,100.000000,,,,,,,,,,,,,,,,,,,,,,,,,,,,
1703417459.344393,1703417459.345184,102.000000,0.000000,4257.051270,4227.307617,4289.230957,4267.563965,4223.077148,4220.897461,4240.512695,4212.820313,4210.641113,4209.487305,4541.410156,4462.563965,4362.179688,4425.128418,6058.000000,2.000000,48.000000,,,,0.000000,4.000000,4.000000,4.000000,4.000000,4.000000,4.000000,4.000000,4.000000,4.000000,4.000000,4.000000,4.000000,4.000000,4.000000,100.000000,,,,,,,,,,,,,,,,,,,,,,,,,,,,
1703417459.352201,1703417459.353092,103.000000,0.000000,4258.717773,4227.307617,4299.230957,4269.358887,4224.487305,4224.615234,4243.589844,4216.410156,4218.461426,4206.153809,4547.307617,4466.410156,4367.563965,4418.205078,6330.000000,2.000000,48.000000,,,,0.000000,4.000000,4.000000,4.000000,4.000000,4.000000,4.000000,4.000000,4.000000,4.000000,4.000000,4.000000,4.000000,4.000000,4.000000,100.000000,,,,,,,,,,,,,,,,,,,,,,,,,,,,
1703417459.360009,1703417459.360900,104.000000,0.000000,4256.666504,4226.153809,4303.461426,4269.871582,4224.230957,4224.743652,4241.794922,4221.666504,4223.077148,4209.230957,4548.333496,4467.436035,4370.897461,4405.256348,6833.000000,2.000000,48.000000,,,,0.000000,4.000000,4.000000,4.000000,4.000000,4.000000,4.000000,4.000000,4.000000,4.000000,4.000000,4.000000,4.000000,4.000000,4.000000,100.000000,,,,,,,,,,,,,,,,,26.000000,0.000000,0.716316,-0.030151,-0.694458,0.060913,0.982542,-0.148944,0.042974,-13.522237,-46.878105,64.937225
1703417459.367817,1703417459.368808,105.000000,0.000000,4258.974121,4222.179688,4295.256348,4263.205078,4223.333496,4220.512695,4237.436035,4217.563965,4219.615234,4221.025879,4544.743652,4467.948730,4367.051270,4404.230957,7386.000000,2.000000,48.000000,,,,0.000000,4.000000,4.000000,4.000000,4.000000,4.000000,4.000000,4.000000,4.000000,4.000000,4.000000,4.000000,4.000000,4.000000,4.000000,100.000000,,,,,,,,,,,,,,,,,,,,,,,,,,,,
1703417459.375625,1703417459.376616,106.000000,0.000000,4256.538574,4216.282227,4287.563965,4256.153809,4222.948730,4219.871582,4236.666504,4214.230957,4214.102539,4216.794922,4539.487305,4463.333496,4361.794922,4399.102539,6058.000000,2.000000,48.000000,,,,0.000000,4.000000,4.000000,4.000000,4.000000,4.000000,4.000000,4.000000,4.000000,4.000000,4.000000,4.000000,4.000000,4.000000,4.000000,100.000000,,,,,,,,,,,,,,,,,,,,,,,,,,,,
1703417459.383433,1703417459.384324,107.000000,0.000000,4250.384766,4214.358887,4287.692383,4254.871582,4224.230957,4225.384766,4244.487305,4223.205078,4217.307617,4205.384766,4544.487305,4463.333496,4363.974121,4389.615234,6330.000000,2.000000,48.000000,,,,0.000000,4.000000,4.000000,4.000000,4.000000,4.000000,4.000000,4.000000,4.000000,4.000000,4.000000,4.000000,4.000000,4.000000,4.000000,100.000000,,,,,,,,,,,,,,,,,,,,,,,,,,,,
1703417459.391241,1703417459.392132,108.000000,0.000000,4256.666504,4221.282227,4292.051270,4254.743652,4225.000000,4229.358887,4247.179688,4228.461426,4227.820313,4215.897461,4555.897461,4476.282227,4376.282227,4391.410156,6833.000000,2.000000,48.000000,,,,0.000000,4.000000,4.000000,4.000000,4.000000,4.000000,4.000000,4.000000,4.000000,4.000000,4.000000,4.000000,4.000000,4.000000,4.000000,100.000000,,,,,,,,,,,,,,,,,27.000000,0.000000,0.716254,-0.029968,-0.694519,0.061035,0.996704,-0.142107,0.037114,-13.586679,-46.940296,64.876839
1703417459.399049,1703417459.399840,109.000000,0.000000,4266.538574,4226.282227,4295.769043,4256.153809,4223.461426,4226.666504,4238.974121,4223.205078,4230.384766,4228.333496,4556.153809,4478.461426,4383.589844,4390.897461,7386.000000,2.000000,48.000000,,,,0.000000,4.000000,4.000000,4.000000,4.000000,4.000000,4.000000,4.000000,4.000000,4.000000,4.000000,4.000000,4.000000,4.000000,4.000000,100.000000,,,,,,,,,,,,,,,,,,,,,,,,,,,,
1703417459.406857,1703417459.407648,110.000000,0.000000,4262.051270,4223.333496,4294.487305,4257.051270,4222.051270,4220.897461,4235.512695,4218.589844,4222.948730,4216.538574,4551.153809,4466.794922,4374.230957,4380.512695,6058.000000,2.000000,48.000000,,,,0.000000,4.000000,4.000000,4.000000,4.000000,4.000000,4.000000,4.000000,4.000000,4.000000,4.000000,4.000000,4.000000,4.000000,4.000000,100.000000,,,,,,,,,,,,,,,,,,,,,,,,,,,,
1703417459.414665,1703417459.415356,111.000000,0.000000,4260.897461,4226.666504,4295.512695,4261.410156,4221.410156,4220.512695,4238.717773,4221.153809,4220.512695,4207.820313,4551.153809,4467.820313,4371.282227,4377.563965,6330.000000,2.000000,48.000000,,,,0.000000,4.000000,4.000000,4.000000,4.000000,4.000000,4.000000,4.000000,4.000000,4.000000,4.000000,4.000000,4.000000,4.000000,4.000000,100.000000,,,,,,,,,,,,,,,,,,,,,,,,,,,,
1703417459.422473,1703417459.423264,112.000000,0.000000,4264.358887,4234.615234,4300.000000,4270.641113,4224.871582,4222.436035,4240.384766,4221.153809,4224.102539,4214.487305,4553.461426,4478.205078,4381.025879,4378.846191,6833.000000,2.000000,48.000000,,,,0.000000,4.000000,4.000000,4.000000,4.000000,4.000000,4.000000,4.000000,4.000000,4.000000,4.000000,4.000000,4.000000,4.000000,4.000000,100.000000,,,,,,,,,,,,,,,,,28.000000,0.000000,0.716146,-0.029846,-0.694641,0.060974,0.983030,-0.147479,0.023929,-13.578012,-46.762932,64.839149
1703417459.430281,1703417459.431072,113.000000,0.000000,4262.179688,4233.717773,4299.102539,4273.461426,4234.102539,4221.282227,4239.871582,4214.743652,4220.897461,4217.692383,4551.922852,4477.820313,4378.333496,4372.692383,7386.000000,2.000000,48.000000,,,,0.000000,4.000000,4.000000,4.000000,4.000000,4.000000,4.000000,4.000000,4.000000,4.000000,4.000000,4.000000,4.000000,4.000000,4.000000,100.000000,,,,,,,,,,,,,,,,,,,,,,,,,,,,
1703417459.438089,1703417459.438980,114.000000,0.000000,4262.051270,4232.820313,4295.128418,4271.922852,4236.025879,4223.205078,4241.282227,4215.769043,4220.641113,4215.512695,4551.538574,4476.282227,4373.974121,4368.333496,6058.000000,2.000000,48.000000,,,,0.000000,4.000000,4.000000,4.000000,4.000000,4.000000,4.000000,4.000000,4.000000,4.000000,4.000000,4.000000,4.000000,4.000000,4.000000,100.000000,,,,,,,,,,,,,,,,,,,,,,,,,,,,
1703417459.445897,1703417459.446788,115.000000,0.000000,4263.461426,4236.410156,4294.615234,4276.666504,4228.589844,4224.743652,4240.897461,4219.358887,4224.871582,4212.051270,4553.717773,4479.743652,4372.948730,4367.307617,6330.000000,2.000000,48.000000,,,,0.000000,4.000000,4.000000,4.000000,4.000000,4.000000,4.000000,4.000000,4.000000,4.000000,4.000000,4.000000,4.000000,4.000000,4.000000,100.000000,,,,,,,,,,,,,,,,,,,,,,,,,,,,
1703417459.453705,1703417459.454597,116.000000,0.000000,4257.692383,4236.538574,4293.077148,4280.641113,4225.256348,4222.051270,4239.487305,4213.077148,4219.615234,4212.436035,4550.641113,4475.128418,4362.948730,4359.102539,6833.000000,2.000000,48.000000,,,,0.000000,4.000000,4.000000,4.000000,4.000000,4.000000,4.000000,4.000000,4.000000,4.000000,4.000000,4.000000,4.000000,4.000000,4.000000,100.000000,,,,,,,,,,,,,,,,,29.000000,0.000000,0.716095,-0.029907,-0.694702,0.060852,0.993774,-0.145526,0.038091,-13.570210,-46.819973,64.938568
1703417459.461513,1703417459.462305,117.000000,0.000000,4250.384766,4235.128418,4293.461426,4277.563965,4227.051270,4220.897461,4238.846191,4208.333496,4210.000000,4215.512695,4543.974121,4469.487305,4358.333496,4350.256348,7386.000000,2.000000,48.000000,,,,0.000000,4.000000,4.000000,4.000000,4.000000,4.000000,4.000000,4.000000,4.000000,4.000000,4.000000,4.000000,4.000000,4.000000,4.000000,100.000000,,,,,,,,,,,,,,,,,,,,,,,,,,,,
1703417459.469321,1703417459.470113,118.000000,0.000000,4253.974121,4235.000000,4298.461426,4276.794922,4228.589844,4222.563965,4236.794922,4212.051270,4207.692383,4214.615234,4544.230957,4475.128418,4362.692383,4349.743652,6058.000000,2.000000,48.000000,,,,0.000000,4.000000,4.000000,4.000000,4.000000,4.000000,4.000000,4.000000,4.000000,4.000000,4.000000,4.000000,4.000000,4.000000,4.000000,100.000000,,,,,,,,,,,,,,,,,,,,,,,,,,,,
1703417459.477130,1703417459.477821,119.000000,0.000000,4260.897461,4234.487305,4301.794922,4280.384766,4230.641113,4224.230957,4235.769043,4216.025879,4212.563965,4209.358887,4550.897461,4481.538574,4365.128418,4351.153809,6330.000000,2.000000,48.000000,,,,0.000000,4.000000,4.000000,4.000000,4.000000,4.000000,4.000000,4.000000,4.000000,4.000000,4.000000,4.000000,4.000000,4.000000,4.000000,100.000000,,,,,,,,,,,,,,,,,,,,,,,,,,,,
1703417459.484938,1703417459.485629,120.000000,0.000000,4266.153809,4237.307617,4302.948730,4283.205078,4233.974121,4227.563965,4239.487305,4221.794922,4220.512695,4213.205078,4558.077148,4485.256348,4373.205078,4356.410156,6833.000000,2.000000,48.000000,,,,0.000000,4.000000,4.000000,4.000000,4.000000,4.000000,4.000000,4.000000,4.000000,4.000000,4.000000,4.000000,4.000000,4.000000,4.000000,100.000000,,,,,,,,,,,,,,,,,30.000000,0.000000,0.716015,-0.029724,-0.694824,0.060486,0.971798,-0.126480,0.032719,-13.629856,-46.971310,64.994713
1703417459.492746,1703417459.493337,121.000000,0.000000,4264.230957,4240.641113,4303.205078,4280.512695,4235.897461,4230.641113,4242.179688,4227.948730,4227.692383,4224.487305,4561.153809,4488.974121,4379.230957,4361.538574,7386.000000,2.000000,48.000000,,,,0.000000,4.000000,4.000000,4.000000,4.000000,4.000000,4.000000,4.000000,4.000000,4.000000,4.000000,4.000000,4.000000,4.000000,4.000000,100.000000,,,,,,,,,,,,,,,,,,,,,,,,,,,,
1703417459.500554,1703417459.501145,122.000000,0.000000,4254.871582,4235.769043,4299.230957,4273.333496,4234.230957,4225.128418,4240.769043,4225.000000,4229.230957,4223.717773,4556.666504,4486.025879,4371.794922,4352.563965,6058.000000,2.000000,48.000000,,,,0.000000,4.000000,4.000000,4.000000,4.000000,4.000000,4.000000,4.000000,4.000000,4.000000,4.000000,4.000000,4.000000,4.000000,4.000000,100.000000,,,,,,,,,,,,,,,,,,,,,,,,,,,,
1703417459.508362,1703417459.508853,123.000000,0.000000,4252.179688,4229.358887,4295.769043,4268.974121,4228.461426,4223.077148,4241.025879,4223.717773,4230.897461,4214.871582,4551.410156,4480.256348,4367.307617,4343.205078,6330.000000,2.000000,48.000000,,,,0.000000,4.000000,4.000000,4.000000,4.000000,4.000000,4.000000,4.000000,4.000000,4.000000,4.000000,4.000000,4.000000,4.000000,4.000000,100.000000,,,,,,,,,,,,,,,,,,,,,,,,,,,,
1703417459.516170,1703417459.516761,124.000000,0.000000,4252.820313,4226.025879,4295.769043,4267.436035,4227.436035,4227.820313,4244.230957,4226.153809,4234.358887,4213.461426,4551.922852,4480.512695,4368.205078,4344.230957,6833.000000,2.000000,48.000000,,,,0.000000,4.000000,4.000000,4.000000,4.000000,4.000000,4.000000,4.000000,4.000000,4.000000,4.000000,4.000000,4.000000,4.000000,4.000000,100.000000,,,,,,,,,,,,,,,,,31.000000,0.000000,0.715924,-0.029297,-0.694946,0.060364,0.967892,-0.145526,0.032719,-13.500204,-46.990845,64.961906
1703417459.523978,1703417459.524569,125.000000,0.000000,4251.153809,4224.230957,4296.410156,4265.897461,4232.307617,4228.974121,4244.487305,4224.743652,4230.769043,4214.743652,4552.307617,4483.974121,4364.743652,4344.358887,7386.000000,2.000000,48.000000,,,,0.000000,4.000000,4.000000,4.000000,4.000000,4.000000,4.000000,4.000000,4.000000,4.000000,4.000000,4.000000,4.000000,4.000000,4.000000,100.000000,,,,,,,,,,,,,,,,,,,,,,,,,,,,
1703417459.531786,1703417459.532477,126.000000,0.000000,4252.820313,4230.512695,4298.461426,4268.077148,4233.077148,4229.487305,4242.051270,4222.692383,4227.948730,4212.563965,4552.436035,4486.410156,4365.512695,4341.666504,6058.000000,2.000000,48.000000,,,,0.000000,4.000000,4.000000,4.000000,4.000000,4.000000,4.000000,4.000000,4.000000,4.000000,4.000000,4.000000,4.000000,4.000000,4.000000,100.000000,,,,,,,,,,,,,,,,,,,,,,,,,,,,
1703417459.539594,1703417459.540285,127.000000,0.000000,4252.692383,4236.794922,4300.512695,4270.256348,4229.230957,4229.615234,4241.153809,4221.410156,4226.922852,4217.307617,4551.410156,4484.358887,4367.051270,4338.077148,48.000000,2.000000,48.000000,,,,0.000000,4.000000,4.000000,4.000000,4.000000,4.000000,4.000000,4.000000,4.000000,4.000000,4.000000,4.000000,4.000000,4.000000,4.000000,100.000000,,,,,,,,,,,,,,,,,,,,,,,,,,,,
1703417459.547402,1703417459.548193,0.000000,0.000000,4244.871582,4231.666504,4298.974121,4269.230957,4227.820313,4225.769043,4241.025879,4221.666504,4221.922852,4225.000000,4546.410156,4481.794922,4363.077148,4333.461426,5621.000000,2.000000,48.000000,,,,0.000000,4.000000,4.000000,4.000000,4.000000,4.000000,4.000000,4.000000,4.000000,4.000000,4.000000,4.000000,4.000000,4.000000,4.000000,100.000000,,,,,,,,,,,,,,,,,0.000000,0.000000,0.716001,-0.029114,-0.694885,0.060242,0.987425,-0.136735,0.035161,-13.516850,-46.958427,64.932388
1703417459.555210,1703417459.556101,1.000000,0.000000,4243.333496,4227.307617,4296.282227,4271.410156,4228.077148,4223.846191,4239.871582,4225.641113,4219.102539,4223.077148,4545.384766,4484.615234,4358.333496,4336.666504,5385.000000,2.000000,48.000000,,,,0.000000,4.000000,4.000000,4.000000,4.000000,4.000000,4.000000,4.000000,4.000000,4.000000,4.000000,4.000000,4.000000,4.000000,4.000000,100.000000,,,,,,,,,,,,,,,,,,,,,,,,,,,,
1703417459.563018,1703417459.563910,2.000000,0.000000,4248.974121,4229.230957,4296.153809,4276.025879,4224.358887,4226.282227,4239.871582,4228.461426,4223.846191,4214.487305,4549.743652,4487.051270,4360.641113,4341.538574,5257.000000,2.000000,48.000000,,,,0.000000,4.000000,4.000000,4.000000,4.000000,4.000000,4.000000,4.000000,4.000000,4.000000,4.000000,4.000000,4.000000,4.000000,4.000000,100.000000,,,,,,,,,,,,,,,,,,,,,,,,,,,,
1703417459.570826,1703417459.571718,3.000000,0.000000,4244.615234,4229.743652,4297.948730,4276.666504,4222.948730,4224.615234,4240.384766,4224.615234,4225.256348,4208.974121,4549.230957,4482.436035,4362.692383,4336.153809,5357.000000,2.000000,48.000000,,,,0.000000,4.000000,4.000000,4.000000,4.000000,4.000000,4.000000,4.000000,4.000000,4.000000,4.000000,4.000000,4.000000,4.000000,4.000000,100.000000,,,,,,,,,,,,,,,,,,,,,,,,,,,,
1703417459.578634,1703417459.579426,4.000000,0.000000,4240.000000,4231.282227,4298.846191,4275.256348,4226.794922,4223.205078,4239.871582,4224.615234,4223.846191,4217.820313,4548.846191,4482.307617,4357.307617,4334.743652,5344.000000,2.000000,48.000000,,,,0.000000,4.000000,4.000000,4.000000,4.000000,4.000000,4.000000,4.000000,4.000000,4.000000,4.000000,4.000000,4.000000,4.000000,4.000000,100.000000,,,,,,,,,,,,,,,,,1.000000,0.000000,0.716006,-0.029114,-0.694885,0.060181,0.987914,-0.144061,0.046881,-13.531832,-46.929253,65.039146
1703417459.586442,1703417459.587234,5.000000,0.000000,4243.077148,4234.358887,4298.461426,4278.333496,4227.948730,4225.897461,4239.871582,4229.615234,4227.436035,4229.102539,4554.358887,4490.000000,4360.128418,4340.512695,5168.000000,2.000000,48.000000,,,,0.000000,4.000000,4.000000,4.000000,4.000000,4.000000,4.000000,4.000000,4.000000,4.000000,4.000000,4.000000,4.000000,4.000000,4.000000,100.000000,,,,,,,,,,,,,,,,,,,,,,,,,,,,
1703417459.594250,1703417459.594942,6.000000,0.000000,4251.153809,4235.641113,4305.897461,4284.487305,4226.153809,4224.871582,4241.410156,4229.230957,4230.641113,4224.871582,4564.358887,4498.461426,4378.589844,4350.384766,4169.000000,2.000000,48.000000,,,,0.000000,4.000000,4.000000,4.000000,4.000000,4.000000,4.000000,4.000000,4.000000,4.000000,4.000000,4.000000,4.000000,4.000000,4.000000,100.000000,,,,,,,,,,,,,,,,,,,,,,,,,,,,
1703417459.602058,1703417459.602750,7.000000,0.000000,4260.512695,4237.948730,4316.153809,4286.410156,4226.922852,4224.487305,4240.128418,4228.205078,4230.128418,4217.051270,4568.846191,4504.743652,4389.102539,4361.922852,5223.000000,2.000000,48.000000,,,,0.000000,4.000000,4.000000,4.000000,4.000000,4.000000,4.000000,4.000000,4.000000,4.000000,4.000000,4.000000,4.000000,4.000000,4.000000,100.000000,,,,,,,,,,,,,,,,,,,,,,,,,,,,
1703417459.609867,1703417459.610458,8.000000,0.000000,4257.948730,4238.333496,4309.743652,4283.077148,4232.692383,4225.512695,4235.897461,4228.461426,4227.820313,4221.794922,4559.487305,4500.512695,4377.820313,4354.615234,5494.000000,2.000000,48.000000,,,,0.000000,4.000000,4.000000,4.000000,4.000000,4.000000,4.000000,4.000000,4.000000,4.000000,4.000000,4.000000,4.000000,4.000000,4.000000,100.000000,,,,,,,,,,,,,,,,,2.000000,0.000000,0.715922,-0.029480,-0.694946,0.060303,0.975705,-0.143572,0.031742,-13.461982,-46.902992,64.885231
