title:ملاح جوع, start timestamp:1703496089.020604, stop timestamp:1703496099.748864, headset type:EPOCX, headset serial:E50206EF, headset firmware:720, channels:67, sampling rate:eeg_128;mot_32, samples:1375      , version:2.2, 
Timestamp,OriginalTimestamp,EEG.Counter,EEG.Interpolated,EEG.AF3,EEG.F7,EEG.F3,EEG.FC5,EEG.T7,EEG.P7,EEG.O1,EEG.O2,EEG.P8,EEG.T8,EEG.FC6,EEG.F4,EEG.F8,EEG.AF4,EEG.RawCq,EEG.Battery,EEG.BatteryPercent,MarkerIndex,MarkerType,MarkerValueInt,EEG.MarkerHardware,CQ.AF3,CQ.F7,CQ.F3,CQ.FC5,CQ.T7,CQ.P7,CQ.O1,CQ.O2,CQ.P8,CQ.T8,CQ.FC6,CQ.F4,CQ.F8,CQ.AF4,CQ.Overall,EQ.SampleRateQuality,EQ.OVERALL,EQ.AF3,EQ.F7,EQ.F3,EQ.FC5,EQ.T7,EQ.P7,EQ.O1,EQ.O2,EQ.P8,EQ.T8,EQ.FC6,EQ.F4,EQ.F8,EQ.AF4,MOT.CounterMems,MOT.InterpolatedMems,MOT.Q0,MOT.Q1,MOT.Q2,MOT.Q3,MOT.AccX,MOT.AccY,MOT.AccZ,MOT.MagX,MOT.MagY,MOT.MagZ
1703496089.020604,1703496089.021081,83.000000,0.000000,4257.563965,4265.897461,4316.922852,4306.282227,4237.820313,4218.846191,4264.230957,4251.410156,4206.153809,4208.461426,4550.128418,4484.102539,4413.205078,4492.692383,6185.000000,3.000000,74.000000,,,,0.000000,4.000000,4.000000,4.000000,4.000000,4.000000,4.000000,4.000000,4.000000,4.000000,4.000000,4.000000,4.000000,4.000000,4.000000,100.000000,,,,,,,,,,,,,,,,,,,,,,,,,,,,
1703496089.028412,1703496089.028989,84.000000,0.000000,4245.000000,4259.230957,4310.897461,4297.179688,4232.436035,4218.077148,4263.333496,4253.846191,4201.538574,4202.563965,4553.205078,4479.743652,4404.230957,4499.358887,6673.000000,3.000000,74.000000,,,,0.000000,4.000000,4.000000,4.000000,4.000000,4.000000,4.000000,4.000000,4.000000,4.000000,4.000000,4.000000,4.000000,4.000000,4.000000,100.000000,,,,,,,,,,,,,,,,,21.000000,0.000000,0.683787,0.292114,-0.618225,0.254761,0.981077,0.082530,0.068856,-18.983212,-39.231850,68.915054
1703496089.036220,1703496089.036797,85.000000,0.000000,4251.153809,4257.436035,4304.871582,4295.384766,4231.794922,4212.692383,4260.641113,4247.307617,4204.487305,4201.794922,4546.666504,4472.692383,4396.282227,4511.794922,6424.000000,3.000000,74.000000,,,,0.000000,4.000000,4.000000,4.000000,4.000000,4.000000,4.000000,4.000000,4.000000,4.000000,4.000000,4.000000,4.000000,4.000000,4.000000,100.000000,,,,,,,,,,,,,,,,,,,,,,,,,,,,
1703496089.044028,1703496089.044705,86.000000,0.000000,4252.948730,4253.974121,4293.717773,4294.487305,4235.769043,4213.461426,4261.282227,4240.384766,4213.846191,4204.487305,4531.538574,4459.358887,4390.128418,4493.974121,5933.000000,3.000000,74.000000,,,,0.000000,4.000000,4.000000,4.000000,4.000000,4.000000,4.000000,4.000000,4.000000,4.000000,4.000000,4.000000,4.000000,4.000000,4.000000,100.000000,,,,,,,,,,,,,,,,,,,,,,,,,,,,
1703496089.051836,1703496089.052513,87.000000,0.000000,4232.948730,4241.922852,4282.948730,4280.384766,4243.589844,4223.077148,4262.692383,4243.717773,4219.615234,4199.615234,4520.256348,4444.615234,4381.666504,4468.205078,6185.000000,3.000000,74.000000,,,,0.000000,4.000000,4.000000,4.000000,4.000000,4.000000,4.000000,4.000000,4.000000,4.000000,4.000000,4.000000,4.000000,4.000000,4.000000,100.000000,,,,,,,,,,,,,,,,,,,,,,,,,,,,
1703496089.059644,1703496089.060421,88.000000,0.000000,4224.871582,4237.563965,4281.666504,4273.589844,4249.230957,4234.487305,4264.743652,4242.179688,4220.897461,4198.077148,4520.384766,4436.025879,4384.102539,4468.205078,6673.000000,3.000000,74.000000,,,,0.000000,4.000000,4.000000,4.000000,4.000000,4.000000,4.000000,4.000000,4.000000,4.000000,4.000000,4.000000,4.000000,4.000000,4.000000,100.000000,,,,,,,,,,,,,,,,,22.000000,0.000000,0.683673,0.292175,-0.618347,0.254700,0.986937,0.082041,0.066903,-19.051558,-39.241997,68.806885
1703496089.067452,1703496089.068229,89.000000,0.000000,4231.666504,4242.436035,4282.051270,4280.641113,4247.563965,4237.563965,4264.615234,4232.820313,4214.743652,4199.358887,4520.897461,4435.897461,4387.051270,4472.692383,6424.000000,3.000000,74.000000,,,,0.000000,4.000000,4.000000,4.000000,4.000000,4.000000,4.000000,4.000000,4.000000,4.000000,4.000000,4.000000,4.000000,4.000000,4.000000,100.000000,,,,,,,,,,,,,,,,,,,,,,,,,,,,
1703496089.075261,1703496089.076037,90.000000,0.000000,4229.230957,4241.538574,4284.358887,4280.256348,4243.974121,4233.589844,4264.230957,4230.512695,4205.641113,4194.230957,4522.563965,4443.846191,4386.025879,4473.077148,5933.000000,3.000000,74.000000,,,,0.000000,4.000000,4.000000,4.000000,4.000000,4.000000,4.000000,4.000000,4.000000,4.000000,4.000000,4.000000,4.000000,4.000000,4.000000,100.000000,,,,,,,,,,,,,,,,,,,,,,,,,,,,
1703496089.083068,1703496089.083845,91.000000,0.000000,4234.102539,4245.897461,4291.538574,4281.410156,4246.410156,4235.128418,4263.589844,4225.769043,4196.538574,4184.487305,4523.333496,4448.846191,4389.487305,4470.897461,6185.000000,3.000000,74.000000,,,,0.000000,4.000000,4.000000,4.000000,4.000000,4.000000,4.000000,4.000000,4.000000,4.000000,4.000000,4.000000,4.000000,4.000000,4.000000,100.000000,,,,,,,,,,,,,,,,,,,,,,,,,,,,
1703496089.090876,1703496089.091553,92.000000,0.000000,4250.256348,4260.897461,4301.922852,4295.128418,4247.820313,4233.205078,4264.230957,4212.436035,4186.153809,4180.897461,4523.333496,4451.794922,4390.769043,4468.589844,6673.000000,3.000000,74.000000,,,,0.000000,4.000000,4.000000,4.000000,4.000000,4.000000,4.000000,4.000000,4.000000,4.000000,4.000000,4.000000,4.000000,4.000000,4.000000,100.000000,,,,,,,,,,,,,,,,,23.000000,0.000000,0.683614,0.292236,-0.618408,0.254639,0.989867,0.089366,0.065438,-19.063068,-39.334465,68.742859
1703496089.098685,1703496089.099361,93.000000,0.000000,4254.743652,4264.615234,4308.461426,4298.333496,4245.769043,4222.051270,4262.436035,4214.487305,4189.743652,4189.743652,4531.922852,4461.410156,4396.794922,4490.641113,6424.000000,3.000000,74.000000,,,,0.000000,4.000000,4.000000,4.000000,4.000000,4.000000,4.000000,4.000000,4.000000,4.000000,4.000000,4.000000,4.000000,4.000000,4.000000,100.000000,,,,,,,,,,,,,,,,,,,,,,,,,,,,
1703496089.106493,1703496089.107069,94.000000,0.000000,4246.922852,4259.615234,4306.794922,4290.256348,4245.000000,4215.256348,4261.794922,4225.256348,4197.051270,4202.179688,4541.025879,4464.743652,4405.128418,4515.641113,5933.000000,3.000000,74.000000,,,,0.000000,4.000000,4.000000,4.000000,4.000000,4.000000,4.000000,4.000000,4.000000,4.000000,4.000000,4.000000,4.000000,4.000000,4.000000,100.000000,,,,,,,,,,,,,,,,,,,,,,,,,,,,
1703496089.114301,1703496089.114877,95.000000,0.000000,4248.974121,4264.743652,4308.077148,4297.436035,4244.102539,4215.384766,4261.666504,4218.846191,4190.769043,4204.230957,4537.948730,4460.641113,4401.666504,4509.743652,6185.000000,3.000000,74.000000,,,,0.000000,4.000000,4.000000,4.000000,4.000000,4.000000,4.000000,4.000000,4.000000,4.000000,4.000000,4.000000,4.000000,4.000000,4.000000,100.000000,,,,,,,,,,,,,,,,,,,,,,,,,,,,
1703496089.122109,1703496089.122585,96.000000,0.000000,4260.769043,4270.897461,4315.641113,4309.615234,4242.563965,4212.179688,4256.025879,4211.666504,4190.256348,4195.384766,4538.846191,4465.256348,4400.897461,4499.615234,6673.000000,3.000000,74.000000,,,,0.000000,4.000000,4.000000,4.000000,4.000000,4.000000,4.000000,4.000000,4.000000,4.000000,4.000000,4.000000,4.000000,4.000000,4.000000,100.000000,,,,,,,,,,,,,,,,,24.000000,0.000000,0.683510,0.292480,-0.618408,0.254639,0.982053,0.087413,0.065438,-19.056761,-39.234352,68.718575
1703496089.129917,1703496089.130393,97.000000,0.000000,4266.025879,4268.205078,4319.615234,4310.641113,4246.794922,4207.051270,4255.256348,4224.487305,4203.974121,4197.820313,4552.307617,4477.051270,4412.563965,4509.615234,6424.000000,3.000000,74.000000,,,,0.000000,4.000000,4.000000,4.000000,4.000000,4.000000,4.000000,4.000000,4.000000,4.000000,4.000000,4.000000,4.000000,4.000000,4.000000,100.000000,,,,,,,,,,,,,,,,,,,,,,,,,,,,
1703496089.137725,1703496089.138101,98.000000,0.000000,4261.922852,4267.563965,4316.666504,4308.589844,4252.436035,4212.051270,4262.436035,4238.717773,4207.436035,4211.794922,4555.384766,4477.563965,4412.692383,4512.692383,5933.000000,3.000000,74.000000,,,,0.000000,4.000000,4.000000,4.000000,4.000000,4.000000,4.000000,4.000000,4.000000,4.000000,4.000000,4.000000,4.000000,4.000000,4.000000,100.000000,,,,,,,,,,,,,,,,,,,,,,,,,,,,
1703496089.145533,1703496089.145909,99.000000,0.000000,4245.512695,4262.820313,4304.615234,4298.717773,4249.487305,4223.461426,4264.871582,4237.179688,4200.897461,4211.922852,4540.384766,4461.153809,4398.461426,4488.461426,6185.000000,3.000000,74.000000,,,,0.000000,4.000000,4.000000,4.000000,4.000000,4.000000,4.000000,4.000000,4.000000,4.000000,4.000000,4.000000,4.000000,4.000000,4.000000,100.000000,,,,,,,,,,,,,,,,,,,,,,,,,,,,
1703496089.153341,1703496089.153617,100.000000,0.000000,4226.153809,4248.333496,4290.641113,4283.974121,4245.384766,4230.512695,4262.948730,4229.743652,4200.256348,4204.358887,4521.794922,4442.692383,4387.820313,4463.077148,6673.000000,3.000000,74.000000,,,,0.000000,4.000000,4.000000,4.000000,4.000000,4.000000,4.000000,4.000000,4.000000,4.000000,4.000000,4.000000,4.000000,4.000000,4.000000,100.000000,,,,,,,,,,,,,,,,,25.000000,0.000000,0.683513,0.292419,-0.618408,0.254700,0.991332,0.077158,0.066414,-18.951084,-39.394249,68.696716
1703496089.161149,1703496089.161525,101.000000,0.000000,4212.436035,4235.256348,4280.641113,4274.871582,4243.077148,4230.897461,4265.256348,4217.436035,4203.205078,4200.256348,4507.948730,4430.897461,4382.563965,4458.589844,6424.000000,3.000000,74.000000,,,,0.000000,4.000000,4.000000,4.000000,4.000000,4.000000,4.000000,4.000000,4.000000,4.000000,4.000000,4.000000,4.000000,4.000000,4.000000,100.000000,,,,,,,,,,,,,,,,,,,,,,,,,,,,
1703496089.168957,1703496089.169333,102.000000,0.000000,4202.563965,4225.128418,4275.512695,4265.512695,4239.102539,4232.307617,4266.282227,4202.820313,4202.563965,4188.077148,4499.615234,4423.205078,4376.666504,4462.820313,5933.000000,3.000000,74.000000,,,,0.000000,4.000000,4.000000,4.000000,4.000000,4.000000,4.000000,4.000000,4.000000,4.000000,4.000000,4.000000,4.000000,4.000000,4.000000,100.000000,,,,,,,,,,,,,,,,,,,,,,,,,,,,
1703496089.176765,1703496089.177241,103.000000,0.000000,4200.128418,4219.743652,4274.615234,4259.230957,4232.307617,4231.410156,4262.436035,4197.307617,4193.077148,4172.948730,4496.794922,4423.333496,4369.615234,4455.641113,6185.000000,3.000000,74.000000,,,,0.000000,4.000000,4.000000,4.000000,4.000000,4.000000,4.000000,4.000000,4.000000,4.000000,4.000000,4.000000,4.000000,4.000000,4.000000,100.000000,,,,,,,,,,,,,,,,,,,,,,,,,,,,
1703496089.184573,1703496089.185049,104.000000,0.000000,4209.743652,4227.436035,4280.128418,4266.922852,4230.128418,4222.563965,4261.025879,4198.461426,4189.102539,4176.538574,4502.563965,4433.846191,4376.794922,4456.794922,6673.000000,3.000000,74.000000,,,,0.000000,4.000000,4.000000,4.000000,4.000000,4.000000,4.000000,4.000000,4.000000,4.000000,4.000000,4.000000,4.000000,4.000000,4.000000,100.000000,,,,,,,,,,,,,,,,,26.000000,0.000000,0.683487,0.292480,-0.618408,0.254700,0.986937,0.093273,0.074716,-18.922644,-39.388157,68.777046
1703496089.192381,1703496089.192956,105.000000,0.000000,4223.461426,4241.666504,4293.077148,4278.846191,4238.974121,4217.179688,4262.436035,4200.000000,4198.589844,4186.025879,4513.846191,4447.692383,4393.333496,4478.077148,6424.000000,3.000000,74.000000,,,,0.000000,4.000000,4.000000,4.000000,4.000000,4.000000,4.000000,4.000000,4.000000,4.000000,4.000000,4.000000,4.000000,4.000000,4.000000,100.000000,,,,,,,,,,,,,,,,,,,,,,,,,,,,
1703496089.200189,1703496089.200764,106.000000,0.000000,4228.717773,4247.820313,4301.538574,4286.794922,4247.948730,4219.230957,4264.358887,4201.410156,4202.820313,4198.589844,4527.436035,4456.922852,4402.307617,4494.358887,5933.000000,3.000000,74.000000,,,,0.000000,4.000000,4.000000,4.000000,4.000000,4.000000,4.000000,4.000000,4.000000,4.000000,4.000000,4.000000,4.000000,4.000000,4.000000,100.000000,1.000000,100.000000,4.000000,4.000000,4.000000,4.000000,4.000000,4.000000,4.000000,4.000000,4.000000,4.000000,4.000000,4.000000,4.000000,4.000000,,,,,,,,,,,,
1703496089.207997,1703496089.208672,107.000000,0.000000,4237.563965,4249.358887,4307.051270,4295.641113,4248.077148,4218.974121,4263.846191,4204.358887,4198.077148,4214.871582,4543.333496,4465.000000,4408.717773,4499.358887,6185.000000,3.000000,74.000000,,,,0.000000,4.000000,4.000000,4.000000,4.000000,4.000000,4.000000,4.000000,4.000000,4.000000,4.000000,4.000000,4.000000,4.000000,4.000000,100.000000,,,,,,,,,,,,,,,,,,,,,,,,,,,,
1703496089.215805,1703496089.216480,108.000000,0.000000,4251.666504,4255.384766,4315.000000,4303.077148,4248.205078,4214.358887,4263.589844,4212.692383,4201.282227,4214.358887,4557.179688,4477.820313,4423.846191,4509.358887,6673.000000,3.000000,74.000000,,,,0.000000,4.000000,4.000000,4.000000,4.000000,4.000000,4.000000,4.000000,4.000000,4.000000,4.000000,4.000000,4.000000,4.000000,4.000000,100.000000,,,,,,,,,,,,,,,,,27.000000,0.000000,0.683383,0.292542,-0.618469,0.254761,0.984984,0.092296,0.056648,-18.813711,-39.466011,68.849342
1703496089.223613,1703496089.224388,109.000000,0.000000,4242.563965,4251.666504,4311.410156,4302.179688,4250.128418,4214.743652,4263.461426,4219.615234,4213.333496,4208.589844,4559.487305,4480.256348,4429.487305,4511.794922,6424.000000,3.000000,74.000000,,,,0.000000,4.000000,4.000000,4.000000,4.000000,4.000000,4.000000,4.000000,4.000000,4.000000,4.000000,4.000000,4.000000,4.000000,4.000000,100.000000,,,,,,,,,,,,,,,,,,,,,,,,,,,,
1703496089.231421,1703496089.232196,110.000000,0.000000,4219.230957,4236.410156,4300.256348,4298.077148,4246.025879,4222.820313,4262.948730,4218.333496,4211.666504,4207.179688,4546.538574,4466.282227,4411.025879,4491.153809,5933.000000,3.000000,74.000000,,,,0.000000,4.000000,4.000000,4.000000,4.000000,4.000000,4.000000,4.000000,4.000000,4.000000,4.000000,4.000000,4.000000,4.000000,4.000000,100.000000,,,,,,,,,,,,,,,,,,,,,,,,,,,,
1703496089.239230,1703496089.240104,111.000000,0.000000,4218.077148,4230.384766,4295.000000,4291.282227,4245.256348,4230.384766,4262.692383,4217.436035,4205.384766,4200.256348,4537.820313,4455.769043,4395.000000,4477.307617,6185.000000,3.000000,74.000000,,,,0.000000,4.000000,4.000000,4.000000,4.000000,4.000000,4.000000,4.000000,4.000000,4.000000,4.000000,4.000000,4.000000,4.000000,4.000000,100.000000,,,,,,,,,,,,,,,,,,,,,,,,,,,,
1703496089.247038,1703496089.247912,112.000000,0.000000,4226.410156,4230.256348,4291.282227,4281.153809,4250.897461,4233.333496,4265.641113,4220.512695,4207.179688,4199.871582,4539.358887,4457.436035,4397.820313,4476.153809,6673.000000,3.000000,74.000000,,,,0.000000,4.000000,4.000000,4.000000,4.000000,4.000000,4.000000,4.000000,4.000000,4.000000,4.000000,4.000000,4.000000,4.000000,4.000000,100.000000,,,,,,,,,,,,,,,,,28.000000,0.000000,0.683477,0.292480,-0.618469,0.254578,0.975217,0.071298,0.058113,-18.799007,-39.486076,68.947739
1703496089.254846,1703496089.255820,113.000000,0.000000,4216.410156,4220.641113,4285.512695,4277.820313,4245.897461,4232.820313,4263.333496,4213.974121,4208.846191,4206.282227,4531.922852,4455.128418,4395.512695,4467.179688,6424.000000,3.000000,74.000000,,,,0.000000,4.000000,4.000000,4.000000,4.000000,4.000000,4.000000,4.000000,4.000000,4.000000,4.000000,4.000000,4.000000,4.000000,4.000000,100.000000,,,,,,,,,,,,,,,,,,,,,,,,,,,,
1703496089.262654,1703496089.263628,114.000000,0.000000,4211.153809,4212.820313,4286.922852,4288.077148,4232.436035,4230.256348,4255.000000,4204.358887,4205.769043,4199.102539,4523.846191,4445.641113,4385.512695,4470.128418,5933.000000,3.000000,74.000000,,,,0.000000,4.000000,4.000000,4.000000,4.000000,4.000000,4.000000,4.000000,4.000000,4.000000,4.000000,4.000000,4.000000,4.000000,4.000000,100.000000,,,,,,,,,,,,,,,,,,,,,,,,,,,,
1703496089.270462,1703496089.271336,115.000000,0.000000,4217.692383,4216.922852,4292.692383,4297.051270,4229.871582,4228.333496,4256.538574,4209.487305,4207.051270,4194.743652,4534.358887,4449.230957,4398.717773,4491.922852,6185.000000,3.000000,74.000000,,,,0.000000,4.000000,4.000000,4.000000,4.000000,4.000000,4.000000,4.000000,4.000000,4.000000,4.000000,4.000000,4.000000,4.000000,4.000000,100.000000,,,,,,,,,,,,,,,,,,,,,,,,,,,,
1703496089.278270,1703496089.279144,116.000000,0.000000,4218.077148,4224.743652,4293.717773,4293.846191,4242.948730,4227.820313,4260.384766,4213.717773,4212.692383,4208.846191,4546.666504,4460.769043,4418.461426,4500.641113,6673.000000,3.000000,74.000000,,,,0.000000,4.000000,4.000000,4.000000,4.000000,4.000000,4.000000,4.000000,4.000000,4.000000,4.000000,4.000000,4.000000,4.000000,4.000000,100.000000,,,,,,,,,,,,,,,,,29.000000,0.000000,0.683490,0.292480,-0.618530,0.254395,0.987425,0.080576,0.062996,-18.819107,-39.454136,68.986298
1703496089.286078,1703496089.286852,117.000000,0.000000,4221.025879,4229.230957,4293.974121,4292.307617,4246.282227,4226.025879,4257.820313,4202.307617,4207.563965,4216.922852,4543.077148,4458.589844,4411.025879,4489.358887,6424.000000,3.000000,74.000000,,,,0.000000,4.000000,4.000000,4.000000,4.000000,4.000000,4.000000,4.000000,4.000000,4.000000,4.000000,4.000000,4.000000,4.000000,4.000000,100.000000,,,,,,,,,,,,,,,,,,,,,,,,,,,,
1703496089.293886,1703496089.294660,118.000000,0.000000,4231.282227,4231.282227,4302.820313,4299.487305,4237.563965,4228.077148,4260.000000,4198.717773,4203.077148,4213.077148,4537.692383,4457.179688,4401.666504,4487.436035,5933.000000,3.000000,74.000000,,,,0.000000,4.000000,4.000000,4.000000,4.000000,4.000000,4.000000,4.000000,4.000000,4.000000,4.000000,4.000000,4.000000,4.000000,4.000000,100.000000,,,,,,,,,,,,,,,,,,,,,,,,,,,,
1703496089.301694,1703496089.302368,119.000000,0.000000,4235.641113,4235.000000,4311.410156,4307.692383,4241.922852,4231.153809,4262.307617,4214.615234,4209.487305,4212.436035,4546.410156,4471.153809,4416.538574,4501.282227,6185.000000,3.000000,74.000000,,,,0.000000,4.000000,4.000000,4.000000,4.000000,4.000000,4.000000,4.000000,4.000000,4.000000,4.000000,4.000000,4.000000,4.000000,4.000000,100.000000,,,,,,,,,,,,,,,,,,,,,,,,,,,,
1703496089.309502,1703496089.310176,120.000000,0.000000,4236.922852,4238.205078,4307.307617,4312.948730,4252.179688,4222.692383,4258.077148,4230.769043,4219.358887,4223.717773,4562.948730,4477.051270,4431.794922,4512.051270,6673.000000,3.000000,74.000000,,,,0.000000,4.000000,4.000000,4.000000,4.000000,4.000000,4.000000,4.000000,4.000000,4.000000,4.000000,4.000000,4.000000,4.000000,4.000000,100.000000,,,,,,,,,,,,,,,,,30.000000,0.000000,0.683538,0.292786,-0.618408,0.254211,0.988890,0.094738,0.062996,-18.870529,-39.342052,68.971001
1703496089.317310,1703496089.317884,121.000000,0.000000,4235.000000,4234.743652,4301.538574,4313.461426,4250.128418,4215.256348,4255.897461,4238.589844,4227.436035,4234.358887,4568.974121,4473.077148,4427.948730,4503.205078,6424.000000,3.000000,74.000000,,,,0.000000,4.000000,4.000000,4.000000,4.000000,4.000000,4.000000,4.000000,4.000000,4.000000,4.000000,4.000000,4.000000,4.000000,4.000000,100.000000,,,,,,,,,,,,,,,,,,,,,,,,,,,,
1703496089.325118,1703496089.325692,122.000000,0.000000,4225.897461,4233.974121,4300.128418,4306.794922,4247.948730,4225.897461,4261.922852,4245.512695,4232.179688,4235.641113,4566.666504,4478.461426,4426.538574,4482.563965,5933.000000,3.000000,74.000000,,,,0.000000,4.000000,4.000000,4.000000,4.000000,4.000000,4.000000,4.000000,4.000000,4.000000,4.000000,4.000000,4.000000,4.000000,4.000000,100.000000,,,,,,,,,,,,,,,,,,,,,,,,,,,,
1703496089.332926,1703496089.333400,123.000000,0.000000,4217.563965,4232.179688,4297.692383,4297.179688,4253.077148,4235.384766,4263.205078,4252.051270,4236.666504,4230.256348,4565.384766,4479.230957,4426.922852,4473.974121,6185.000000,3.000000,74.000000,,,,0.000000,4.000000,4.000000,4.000000,4.000000,4.000000,4.000000,4.000000,4.000000,4.000000,4.000000,4.000000,4.000000,4.000000,4.000000,100.000000,,,,,,,,,,,,,,,,,,,,,,,,,,,,
1703496089.340734,1703496089.341208,124.000000,0.000000,4211.538574,4219.487305,4292.051270,4289.230957,4248.846191,4227.436035,4254.743652,4247.820313,4230.769043,4222.307617,4554.358887,4464.487305,4410.641113,4475.641113,6673.000000,3.000000,74.000000,,,,0.000000,4.000000,4.000000,4.000000,4.000000,4.000000,4.000000,4.000000,4.000000,4.000000,4.000000,4.000000,4.000000,4.000000,4.000000,100.000000,,,,,,,,,,,,,,,,,31.000000,0.000000,0.683560,0.292969,-0.618347,0.254089,0.983518,0.100598,0.062019,-19.050142,-39.357849,69.090569
1703496089.348542,1703496089.348916,125.000000,0.000000,4208.333496,4212.948730,4288.333496,4287.820313,4234.615234,4224.743652,4254.487305,4234.102539,4220.384766,4210.128418,4536.666504,4455.641113,4392.820313,4478.333496,6424.000000,3.000000,74.000000,,,,0.000000,4.000000,4.000000,4.000000,4.000000,4.000000,4.000000,4.000000,4.000000,4.000000,4.000000,4.000000,4.000000,4.000000,4.000000,100.000000,,,,,,,,,,,,,,,,,,,,,,,,,,,,
1703496089.356350,1703496089.356724,126.000000,0.000000,4212.820313,4219.102539,4292.436035,4290.769043,4232.051270,4229.358887,4260.512695,4228.077148,4213.077148,4203.846191,4531.153809,4456.922852,4395.000000,4477.436035,5933.000000,3.000000,74.000000,,,,0.000000,4.000000,4.000000,4.000000,4.000000,4.000000,4.000000,4.000000,4.000000,4.000000,4.000000,4.000000,4.000000,4.000000,4.000000,100.000000,,,,,,,,,,,,,,,,,,,,,,,,,,,,
1703496089.364158,1703496089.364432,127.000000,0.000000,4217.948730,4223.205078,4294.487305,4292.948730,4240.512695,4222.948730,4256.794922,4225.769043,4211.153809,4207.051270,4531.794922,4450.769043,4397.692383,4470.256348,74.000000,3.000000,74.000000,,,,0.000000,4.000000,4.000000,4.000000,4.000000,4.000000,4.000000,4.000000,4.000000,4.000000,4.000000,4.000000,4.000000,4.000000,4.000000,100.000000,,,,,,,,,,,,,,,,,,,,,,,,,,,,
1703496089.371966,1703496089.372240,0.000000,0.000000,4217.820313,4225.256348,4295.000000,4296.282227,4240.769043,4215.512695,4252.820313,4218.333496,4214.358887,4197.820313,4525.128418,4446.410156,4388.333496,4473.974121,4769.000000,3.000000,74.000000,,,,0.000000,4.000000,4.000000,4.000000,4.000000,4.000000,4.000000,4.000000,4.000000,4.000000,4.000000,4.000000,4.000000,4.000000,4.000000,100.000000,,,,,,,,,,,,,,,,,0.000000,0.000000,0.683706,0.292969,-0.618286,0.253845,0.980588,0.098645,0.068368,-19.145128,-39.388729,69.131516
1703496089.379774,1703496089.379948,1.000000,0.000000,4218.205078,4227.948730,4300.128418,4299.102539,4234.615234,4217.948730,4254.487305,4215.000000,4213.717773,4186.922852,4523.461426,4455.000000,4388.333496,4474.487305,5634.000000,3.000000,74.000000,,,,0.000000,4.000000,4.000000,4.000000,4.000000,4.000000,4.000000,4.000000,4.000000,4.000000,4.000000,4.000000,4.000000,4.000000,4.000000,100.000000,,,,,,,,,,,,,,,,,,,,,,,,,,,,
1703496089.387582,1703496089.387856,2.000000,0.000000,4222.692383,4228.333496,4303.333496,4301.794922,4235.256348,4216.666504,4250.128418,4217.563965,4214.743652,4200.128418,4532.692383,4463.589844,4391.794922,4457.051270,5410.000000,3.000000,74.000000,,,,0.000000,4.000000,4.000000,4.000000,4.000000,4.000000,4.000000,4.000000,4.000000,4.000000,4.000000,4.000000,4.000000,4.000000,4.000000,100.000000,,,,,,,,,,,,,,,,,,,,,,,,,,,,
1703496089.395390,1703496089.395664,3.000000,0.000000,4224.615234,4230.512695,4303.717773,4303.077148,4241.922852,4215.384766,4245.769043,4218.333496,4217.179688,4219.871582,4539.615234,4464.487305,4383.077148,4462.948730,5432.000000,3.000000,74.000000,,,,0.000000,4.000000,4.000000,4.000000,4.000000,4.000000,4.000000,4.000000,4.000000,4.000000,4.000000,4.000000,4.000000,4.000000,4.000000,100.000000,,,,,,,,,,,,,,,,,,,,,,,,,,,,
1703496089.403199,1703496089.403572,4.000000,0.000000,4216.666504,4226.282227,4297.051270,4302.307617,4247.820313,4225.512695,4249.230957,4218.333496,4217.051270,4211.410156,4538.717773,4453.333496,4375.384766,4490.769043,5337.000000,3.000000,74.000000,,,,0.000000,4.000000,4.000000,4.000000,4.000000,4.000000,4.000000,4.000000,4.000000,4.000000,4.000000,4.000000,4.000000,4.000000,4.000000,100.000000,,,,,,,,,,,,,,,,,1.000000,0.000000,0.683855,0.292908,-0.618225,0.253662,1.000610,0.095226,0.057136,-19.097282,-39.216522,69.251694
1703496089.411007,1703496089.411380,5.000000,0.000000,4200.769043,4213.717773,4283.077148,4292.692383,4243.717773,4231.410156,4251.410156,4223.205078,4219.871582,4198.077148,4534.871582,4440.384766,4371.410156,4482.307617,4963.000000,3.000000,74.000000,,,,0.000000,4.000000,4.000000,4.000000,4.000000,4.000000,4.000000,4.000000,4.000000,4.000000,4.000000,4.000000,4.000000,4.000000,4.000000,100.000000,,,,,,,,,,,,,,,,,,,,,,,,,,,,
1703496089.418815,1703496089.419288,6.000000,0.000000,4194.358887,4211.025879,4278.974121,4281.538574,4236.922852,4234.230957,4252.179688,4233.077148,4228.717773,4215.897461,4537.692383,4444.358887,4370.128418,4454.230957,2722.000000,3.000000,74.000000,,,,0.000000,4.000000,4.000000,4.000000,4.000000,4.000000,4.000000,4.000000,4.000000,4.000000,4.000000,4.000000,4.000000,4.000000,4.000000,100.000000,,,,,,,,,,,,,,,,,,,,,,,,,,,,
1703496089.426623,1703496089.427096,7.000000,0.000000,4201.410156,4216.794922,4285.384766,4280.769043,4239.871582,4240.512695,4251.282227,4239.743652,4236.410156,4233.333496,4548.077148,4457.820313,4377.820313,4460.000000,4051.000000,3.000000,74.000000,,,,0.000000,4.000000,4.000000,4.000000,4.000000,4.000000,4.000000,4.000000,4.000000,4.000000,4.000000,4.000000,4.000000,4.000000,4.000000,100.000000,,,,,,,,,,,,,,,,,,,,,,,,,,,,
1703496089.434431,1703496089.435004,8.000000,0.000000,4202.692383,4216.025879,4286.922852,4280.897461,4242.563965,4237.948730,4248.846191,4236.922852,4232.563965,4219.743652,4551.410156,4461.153809,4380.512695,4468.589844,4128.000000,3.000000,74.000000,,,,0.000000,4.000000,4.000000,4.000000,4.000000,4.000000,4.000000,4.000000,4.000000,4.000000,4.000000,4.000000,4.000000,4.000000,4.000000,100.000000,,,,,,,,,,,,,,,,,2.000000,0.000000,0.683782,0.292664,-0.618347,0.253845,0.976682,0.098157,0.062996,-18.987555,-39.378204,69.126526
1703496089.442239,1703496089.442812,9.000000,0.000000,4198.077148,4214.487305,4285.128418,4278.974121,4234.230957,4230.384766,4248.077148,4233.205078,4223.333496,4201.794922,4540.641113,4454.487305,4367.051270,4454.871582,5599.000000,3.000000,74.000000,,,,0.000000,4.000000,4.000000,4.000000,4.000000,4.000000,4.000000,4.000000,4.000000,4.000000,4.000000,4.000000,4.000000,4.000000,4.000000,100.000000,,,,,,,,,,,,,,,,,,,,,,,,,,,,
1703496089.450047,1703496089.450620,10.000000,0.000000,4205.641113,4217.948730,4288.333496,4281.666504,4230.897461,4231.025879,4246.410156,4230.384766,4215.641113,4210.000000,4536.666504,4452.436035,4362.820313,4461.410156,5935.000000,3.000000,74.000000,,,,0.000000,4.000000,4.000000,4.000000,4.000000,4.000000,4.000000,4.000000,4.000000,4.000000,4.000000,4.000000,4.000000,4.000000,4.000000,100.000000,,,,,,,,,,,,,,,,,,,,,,,,,,,,
1703496089.457855,1703496089.458427,11.000000,0.000000,4217.179688,4218.205078,4291.666504,4284.230957,4236.025879,4233.589844,4243.974121,4225.641113,4215.641113,4223.077148,4543.589844,4461.025879,4370.512695,4480.384766,6185.000000,3.000000,74.000000,,,,0.000000,4.000000,4.000000,4.000000,4.000000,4.000000,4.000000,4.000000,4.000000,4.000000,4.000000,4.000000,4.000000,4.000000,4.000000,100.000000,,,,,,,,,,,,,,,,,,,,,,,,,,,,
1703496089.465663,1703496089.466335,12.000000,0.000000,4216.922852,4216.410156,4289.871582,4281.410156,4236.410156,4231.025879,4243.461426,4220.769043,4214.743652,4214.102539,4540.641113,4463.461426,4361.922852,4475.641113,6673.000000,3.000000,74.000000,,,,0.000000,4.000000,4.000000,4.000000,4.000000,4.000000,4.000000,4.000000,4.000000,4.000000,4.000000,4.000000,4.000000,4.000000,4.000000,100.000000,,,,,,,,,,,,,,,,,3.000000,0.000000,0.683665,0.292542,-0.618408,0.254150,0.979612,0.094250,0.054206,-19.022133,-39.390385,69.063873
1703496089.473471,1703496089.474143,13.000000,0.000000,4215.256348,4218.589844,4291.922852,4279.743652,4233.077148,4230.128418,4243.846191,4213.205078,4201.794922,4195.769043,4531.794922,4454.871582,4350.641113,4469.230957,6426.000000,3.000000,74.000000,,,,0.000000,4.000000,4.000000,4.000000,4.000000,4.000000,4.000000,4.000000,4.000000,4.000000,4.000000,4.000000,4.000000,4.000000,4.000000,100.000000,,,,,,,,,,,,,,,,,,,,,,,,,,,,
1703496089.481279,1703496089.481851,14.000000,0.000000,4219.615234,4219.615234,4297.051270,4282.563965,4232.563965,4230.128418,4240.128418,4213.461426,4204.230957,4194.102539,4535.128418,4455.897461,4359.358887,4484.743652,5935.000000,3.000000,74.000000,,,,0.000000,4.000000,4.000000,4.000000,4.000000,4.000000,4.000000,4.000000,4.000000,4.000000,4.000000,4.000000,4.000000,4.000000,4.000000,100.000000,,,,,,,,,,,,,,,,,,,,,,,,,,,,
1703496089.489087,1703496089.489759,15.000000,0.000000,4215.641113,4218.846191,4292.051270,4282.563965,4232.563965,4229.743652,4240.897461,4229.743652,4229.358887,4212.948730,4545.000000,4463.974121,4368.717773,4486.538574,6185.000000,3.000000,74.000000,,,,0.000000,4.000000,4.000000,4.000000,4.000000,4.000000,4.000000,4.000000,4.000000,4.000000,4.000000,4.000000,4.000000,4.000000,4.000000,100.000000,,,,,,,,,,,,,,,,,,,,,,,,,,,,
1703496089.496895,1703496089.497568,16.000000,0.000000,4201.794922,4215.000000,4277.948730,4274.102539,4228.589844,4231.538574,4243.717773,4238.077148,4234.743652,4223.461426,4543.077148,4457.692383,4364.230957,4463.589844,0.000000,3.000000,74.000000,,,,0.000000,4.000000,4.000000,4.000000,4.000000,4.000000,4.000000,4.000000,4.000000,4.000000,4.000000,4.000000,4.000000,4.000000,4.000000,100.000000,,,,,,,,,,,,,,,,,4.000000,0.000000,0.683740,0.292542,-0.618225,0.254395,0.984007,0.081065,0.068856,-19.086586,-39.384678,68.974152
1703496089.504703,1703496089.505376,17.000000,0.000000,4189.487305,4206.153809,4269.358887,4262.179688,4226.282227,4231.410156,4240.641113,4230.769043,4218.974121,4215.769043,4535.641113,4445.512695,4358.077148,4454.871582,0.000000,3.000000,74.000000,,,,0.000000,4.000000,4.000000,4.000000,4.000000,4.000000,4.000000,4.000000,4.000000,4.000000,4.000000,4.000000,4.000000,4.000000,4.000000,100.000000,,,,,,,,,,,,,,,,,,,,,,,,,,,,
1703496089.512511,1703496089.513084,18.000000,0.000000,4184.487305,4200.128418,4272.948730,4259.487305,4230.769043,4233.205078,4240.897461,4237.179688,4222.692383,4208.333496,4540.897461,4449.487305,4358.589844,4463.717773,0.000000,3.000000,74.000000,,,,0.000000,4.000000,4.000000,4.000000,4.000000,4.000000,4.000000,4.000000,4.000000,4.000000,4.000000,4.000000,4.000000,4.000000,4.000000,100.000000,,,,,,,,,,,,,,,,,,,,,,,,,,,,
1703496089.520319,1703496089.520992,19.000000,0.000000,4189.615234,4204.487305,4282.948730,4263.846191,4231.025879,4240.000000,4243.077148,4249.102539,4235.769043,4214.615234,4553.333496,4462.692383,4368.846191,4471.666504,0.000000,3.000000,74.000000,,,,0.000000,4.000000,4.000000,4.000000,4.000000,4.000000,4.000000,4.000000,4.000000,4.000000,4.000000,4.000000,4.000000,4.000000,4.000000,100.000000,,,,,,,,,,,,,,,,,,,,,,,,,,,,
1703496089.528127,1703496089.528800,20.000000,0.000000,4196.794922,4204.487305,4283.333496,4262.948730,4225.512695,4241.153809,4242.051270,4242.820313,4227.563965,4229.615234,4558.589844,4466.538574,4379.743652,4475.641113,0.000000,3.000000,74.000000,,,,0.000000,4.000000,4.000000,4.000000,4.000000,4.000000,4.000000,4.000000,4.000000,4.000000,4.000000,4.000000,4.000000,4.000000,4.000000,100.000000,,,,,,,,,,,,,,,,,5.000000,0.000000,0.683769,0.292603,-0.618164,0.254395,1.000610,0.068368,0.063973,-19.161261,-39.196213,69.043404
1703496089.535935,1703496089.536609,21.000000,0.000000,4197.436035,4199.615234,4278.717773,4260.128418,4223.846191,4231.025879,4239.871582,4227.179688,4214.230957,4218.717773,4548.205078,4457.436035,4370.000000,4473.333496,0.000000,3.000000,74.000000,,,,0.000000,4.000000,4.000000,4.000000,4.000000,4.000000,4.000000,4.000000,4.000000,4.000000,4.000000,4.000000,4.000000,4.000000,4.000000,100.000000,,,,,,,,,,,,,,,,,,,,,,,,,,,,
1703496089.543743,1703496089.544317,22.000000,0.000000,4200.256348,4208.717773,4281.538574,4263.717773,4228.589844,4226.410156,4239.102539,4217.692383,4211.282227,4194.615234,4535.897461,4447.307617,4356.410156,4470.769043,0.000000,3.000000,74.000000,,,,0.000000,4.000000,4.000000,4.000000,4.000000,4.000000,4.000000,4.000000,4.000000,4.000000,4.000000,4.000000,4.000000,4.000000,4.000000,100.000000,,,,,,,,,,,,,,,,,,,,,,,,,,,,
1703496089.551551,1703496089.552224,23.000000,0.000000,4204.358887,4219.358887,4283.974121,4266.794922,4232.820313,4233.461426,4241.410156,4216.025879,4213.846191,4204.230957,4535.641113,4449.230957,4359.615234,4465.641113,0.000000,3.000000,74.000000,,,,0.000000,4.000000,4.000000,4.000000,4.000000,4.000000,4.000000,4.000000,4.000000,4.000000,4.000000,4.000000,4.000000,4.000000,4.000000,100.000000,,,,,,,,,,,,,,,,,,,,,,,,,,,,
1703496089.559359,1703496089.560032,24.000000,0.000000,4202.820313,4217.051270,4282.051270,4267.820313,4231.282227,4236.410156,4242.948730,4217.179688,4216.922852,4217.948730,4537.051270,4453.461426,4357.563965,4455.256348,0.000000,3.000000,74.000000,,,,0.000000,4.000000,4.000000,4.000000,4.000000,4.000000,4.000000,4.000000,4.000000,4.000000,4.000000,4.000000,4.000000,4.000000,4.000000,100.000000,,,,,,,,,,,,,,,,,6.000000,0.000000,0.683737,0.292603,-0.618225,0.254333,0.979612,0.083506,0.062996,-19.111801,-39.126591,69.205727
1703496089.567168,1703496089.567840,25.000000,0.000000,4207.692383,4221.153809,4285.128418,4273.589844,4232.948730,4228.846191,4239.102539,4215.769043,4215.256348,4205.256348,4534.871582,4451.922852,4352.563965,4462.820313,0.000000,3.000000,74.000000,,,,0.000000,4.000000,4.000000,4.000000,4.000000,4.000000,4.000000,4.000000,4.000000,4.000000,4.000000,4.000000,4.000000,4.000000,4.000000,100.000000,,,,,,,,,,,,,,,,,,,,,,,,,,,,
1703496089.574976,1703496089.575548,26.000000,0.000000,4220.512695,4236.025879,4294.743652,4282.051270,4240.512695,4223.333496,4237.307617,4212.563965,4211.153809,4202.051270,4536.282227,4456.153809,4362.563965,4476.282227,0.000000,3.000000,74.000000,,,,0.000000,4.000000,4.000000,4.000000,4.000000,4.000000,4.000000,4.000000,4.000000,4.000000,4.000000,4.000000,4.000000,4.000000,4.000000,100.000000,,,,,,,,,,,,,,,,,,,,,,,,,,,,
1703496089.582784,1703496089.583456,27.000000,0.000000,4219.102539,4235.897461,4295.769043,4283.077148,4239.743652,4227.179688,4242.179688,4215.128418,4213.205078,4216.794922,4539.871582,4460.769043,4369.615234,4466.922852,0.000000,3.000000,74.000000,,,,0.000000,4.000000,4.000000,4.000000,4.000000,4.000000,4.000000,4.000000,4.000000,4.000000,4.000000,4.000000,4.000000,4.000000,4.000000,100.000000,,,,,,,,,,,,,,,,,,,,,,,,,,,,
1703496089.590592,1703496089.591264,28.000000,0.000000,4203.717773,4219.743652,4286.666504,4273.077148,4231.282227,4233.205078,4240.128418,4222.692383,4220.897461,4216.282227,4533.846191,4452.692383,4361.794922,4455.512695,0.000000,3.000000,74.000000,,,,0.000000,4.000000,4.000000,4.000000,4.000000,4.000000,4.000000,4.000000,4.000000,4.000000,4.000000,4.000000,4.000000,4.000000,4.000000,100.000000,,,,,,,,,,,,,,,,,7.000000,0.000000,0.683825,0.292480,-0.618286,0.254089,0.993774,0.096203,0.050787,-18.983953,-39.313931,69.185158
1703496089.598400,1703496089.599172,29.000000,0.000000,4197.820313,4214.487305,4281.922852,4263.205078,4229.230957,4234.102539,4234.743652,4227.307617,4226.538574,4209.358887,4527.179688,4444.102539,4355.897461,4453.461426,0.000000,3.000000,74.000000,,,,0.000000,4.000000,4.000000,4.000000,4.000000,4.000000,4.000000,4.000000,4.000000,4.000000,4.000000,4.000000,4.000000,4.000000,4.000000,100.000000,,,,,,,,,,,,,,,,,,,,,,,,,,,,
1703496089.606208,1703496089.606980,30.000000,0.000000,4196.666504,4213.846191,4278.333496,4257.436035,4228.077148,4234.871582,4237.948730,4236.666504,4228.205078,4211.794922,4532.820313,4449.230957,4359.871582,4445.256348,0.000000,3.000000,74.000000,,,,0.000000,4.000000,4.000000,4.000000,4.000000,4.000000,4.000000,4.000000,4.000000,4.000000,4.000000,4.000000,4.000000,4.000000,4.000000,100.000000,,,,,,,,,,,,,,,,,,,,,,,,,,,,
1703496089.614016,1703496089.614888,31.000000,0.000000,4188.717773,4205.256348,4274.358887,4250.000000,4218.077148,4237.051270,4242.307617,4248.974121,4231.153809,4216.922852,4542.820313,4457.307617,4366.666504,4442.563965,0.000000,3.000000,74.000000,,,,0.000000,4.000000,4.000000,4.000000,4.000000,4.000000,4.000000,4.000000,4.000000,4.000000,4.000000,4.000000,4.000000,4.000000,4.000000,100.000000,,,,,,,,,,,,,,,,,,,,,,,,,,,,
1703496089.621824,1703496089.622696,32.000000,0.000000,4182.051270,4198.461426,4270.769043,4245.512695,4215.128418,4236.538574,4239.743652,4238.717773,4235.512695,4223.461426,4541.794922,4451.922852,4370.641113,4450.384766,0.000000,3.000000,74.000000,,,,0.000000,4.000000,4.000000,4.000000,4.000000,4.000000,4.000000,4.000000,4.000000,4.000000,4.000000,4.000000,4.000000,4.000000,4.000000,100.000000,,,,,,,,,,,,,,,,,8.000000,0.000000,0.683753,0.292603,-0.618408,0.253845,0.977658,0.089855,0.061531,-19.135559,-39.315872,69.383308
1703496089.629632,1703496089.630604,33.000000,0.000000,4184.487305,4200.512695,4269.230957,4245.384766,4220.000000,4234.743652,4241.282227,4219.743652,4233.205078,4225.000000,4538.717773,4443.205078,4372.307617,4446.153809,0.000000,3.000000,74.000000,,,,0.000000,4.000000,4.000000,4.000000,4.000000,4.000000,4.000000,4.000000,4.000000,4.000000,4.000000,4.000000,4.000000,4.000000,4.000000,100.000000,,,,,,,,,,,,,,,,,,,,,,,,,,,,
1703496089.637440,1703496089.638412,34.000000,0.000000,4191.922852,4209.615234,4274.743652,4248.077148,4222.692383,4232.563965,4245.897461,4224.230957,4222.179688,4220.128418,4542.307617,4451.282227,4374.487305,4440.641113,0.000000,3.000000,74.000000,,,,0.000000,4.000000,4.000000,4.000000,4.000000,4.000000,4.000000,4.000000,4.000000,4.000000,4.000000,4.000000,4.000000,4.000000,4.000000,100.000000,,,,,,,,,,,,,,,,,,,,,,,,,,,,
1703496089.645248,1703496089.646120,35.000000,0.000000,4202.692383,4218.846191,4283.846191,4257.179688,4226.538574,4227.436035,4241.538574,4226.794922,4215.512695,4215.128418,4543.589844,4463.589844,4377.692383,4451.666504,0.000000,3.000000,74.000000,,,,0.000000,4.000000,4.000000,4.000000,4.000000,4.000000,4.000000,4.000000,4.000000,4.000000,4.000000,4.000000,4.000000,4.000000,4.000000,100.000000,,,,,,,,,,,,,,,,,,,,,,,,,,,,
1703496089.653056,1703496089.653928,36.000000,0.000000,4213.461426,4221.666504,4288.205078,4266.153809,4228.589844,4223.461426,4239.358887,4216.794922,4212.820313,4217.307617,4545.641113,4468.205078,4380.384766,4467.948730,0.000000,3.000000,74.000000,,,,0.000000,4.000000,4.000000,4.000000,4.000000,4.000000,4.000000,4.000000,4.000000,4.000000,4.000000,4.000000,4.000000,4.000000,4.000000,100.000000,,,,,,,,,,,,,,,,,9.000000,0.000000,0.683778,0.292908,-0.618286,0.253723,0.993285,0.083506,0.065438,-19.122004,-39.417618,69.378311
1703496089.660864,1703496089.661636,37.000000,0.000000,4219.358887,4222.820313,4292.179688,4263.717773,4228.205078,4222.820313,4244.871582,4219.615234,4206.666504,4218.205078,4552.563965,4474.358887,4386.794922,4476.922852,0.000000,3.000000,74.000000,,,,0.000000,4.000000,4.000000,4.000000,4.000000,4.000000,4.000000,4.000000,4.000000,4.000000,4.000000,4.000000,4.000000,4.000000,4.000000,100.000000,,,,,,,,,,,,,,,,,,,,,,,,,,,,
1703496089.668672,1703496089.669544,38.000000,0.000000,4228.717773,4232.820313,4300.128418,4264.871582,4230.256348,4219.743652,4243.974121,4223.846191,4200.384766,4206.922852,4552.051270,4478.333496,4390.256348,4478.205078,0.000000,3.000000,74.000000,,,,0.000000,4.000000,4.000000,4.000000,4.000000,4.000000,4.000000,4.000000,4.000000,4.000000,4.000000,4.000000,4.000000,4.000000,4.000000,100.000000,,,,,,,,,,,,,,,,,,,,,,,,,,,,
1703496089.676480,1703496089.677352,39.000000,0.000000,4233.333496,4238.717773,4306.025879,4275.897461,4231.282227,4213.205078,4240.128418,4210.000000,4197.307617,4194.743652,4543.461426,4473.205078,4386.282227,4475.512695,0.000000,3.000000,74.000000,,,,0.000000,4.000000,4.000000,4.000000,4.000000,4.000000,4.000000,4.000000,4.000000,4.000000,4.000000,4.000000,4.000000,4.000000,4.000000,100.000000,,,,,,,,,,,,,,,,,,,,,,,,,,,,
1703496089.684288,1703496089.685160,40.000000,0.000000,4220.641113,4228.461426,4301.282227,4274.230957,4227.820313,4213.205078,4241.282227,4201.922852,4201.922852,4197.820313,4536.025879,4461.410156,4380.000000,4466.025879,0.000000,3.000000,74.000000,,,,0.000000,4.000000,4.000000,4.000000,4.000000,4.000000,4.000000,4.000000,4.000000,4.000000,4.000000,4.000000,4.000000,4.000000,4.000000,100.000000,,,,,,,,,,,,,,,,,10.000000,0.000000,0.683679,0.293213,-0.618225,0.253784,0.992309,0.085460,0.055183,-19.009802,-39.175858,69.240479
1703496089.692096,1703496089.692869,41.000000,0.000000,4202.179688,4217.436035,4286.025879,4259.871582,4230.000000,4222.051270,4242.307617,4210.512695,4211.410156,4201.538574,4525.000000,4443.974121,4368.974121,4446.538574,0.000000,3.000000,74.000000,,,,0.000000,4.000000,4.000000,4.000000,4.000000,4.000000,4.000000,4.000000,4.000000,4.000000,4.000000,4.000000,4.000000,4.000000,4.000000,100.000000,,,,,,,,,,,,,,,,,,,,,,,,,,,,
1703496089.699904,1703496089.700676,42.000000,0.000000,4187.179688,4212.179688,4269.102539,4249.871582,4233.974121,4229.615234,4242.692383,4215.512695,4217.436035,4188.077148,4507.179688,4424.871582,4354.871582,4424.871582,0.000000,3.000000,74.000000,,,,0.000000,4.000000,4.000000,4.000000,4.000000,4.000000,4.000000,4.000000,4.000000,4.000000,4.000000,4.000000,4.000000,4.000000,4.000000,100.000000,1.000000,100.000000,4.000000,4.000000,4.000000,4.000000,4.000000,4.000000,4.000000,4.000000,4.000000,4.000000,4.000000,4.000000,4.000000,4.000000,,,,,,,,,,,,
1703496089.707713,1703496089.708385,43.000000,0.000000,4176.666504,4204.615234,4254.358887,4242.436035,4224.487305,4232.820313,4244.871582,4220.384766,4225.000000,4186.922852,4497.820313,4411.666504,4351.538574,4410.384766,0.000000,3.000000,74.000000,,,,0.000000,4.000000,4.000000,4.000000,4.000000,4.000000,4.000000,4.000000,4.000000,4.000000,4.000000,4.000000,4.000000,4.000000,4.000000,100.000000,,,,,,,,,,,,,,,,,,,,,,,,,,,,
1703496089.715521,1703496089.716193,44.000000,0.000000,4172.179688,4196.666504,4252.692383,4239.358887,4213.974121,4233.461426,4243.589844,4231.025879,4236.025879,4210.384766,4508.589844,4414.230957,4362.563965,4414.358887,0.000000,3.000000,74.000000,,,,0.000000,4.000000,4.000000,4.000000,4.000000,4.000000,4.000000,4.000000,4.000000,4.000000,4.000000,4.000000,4.000000,4.000000,4.000000,100.000000,,,,,,,,,,,,,,,,,11.000000,0.000000,0.683482,0.293152,-0.618347,0.254089,0.983030,0.090343,0.064949,-19.075489,-39.224937,69.266434
1703496089.723328,1703496089.723901,45.000000,0.000000,4176.025879,4199.358887,4267.179688,4244.487305,4222.179688,4233.205078,4240.641113,4226.922852,4231.538574,4224.230957,4522.820313,4425.128418,4373.461426,4424.615234,0.000000,3.000000,74.000000,,,,0.000000,4.000000,4.000000,4.000000,4.000000,4.000000,4.000000,4.000000,4.000000,4.000000,4.000000,4.000000,4.000000,4.000000,4.000000,100.000000,,,,,,,,,,,,,,,,,,,,,,,,,,,,
1703496089.731137,1703496089.731709,46.000000,0.000000,4194.230957,4215.512695,4283.717773,4254.358887,4233.333496,4230.897461,4242.307617,4206.666504,4216.025879,4215.256348,4524.743652,4435.641113,4378.333496,4423.461426,0.000000,3.000000,74.000000,,,,0.000000,4.000000,4.000000,4.000000,4.000000,4.000000,4.000000,4.000000,4.000000,4.000000,4.000000,4.000000,4.000000,4.000000,4.000000,100.000000,,,,,,,,,,,,,,,,,,,,,,,,,,,,
1703496089.738945,1703496089.739417,47.000000,0.000000,4223.077148,4227.948730,4295.000000,4267.179688,4233.717773,4225.256348,4244.358887,4197.307617,4213.589844,4211.153809,4531.410156,4450.256348,4382.692383,4436.153809,0.000000,3.000000,74.000000,,,,0.000000,4.000000,4.000000,4.000000,4.000000,4.000000,4.000000,4.000000,4.000000,4.000000,4.000000,4.000000,4.000000,4.000000,4.000000,100.000000,,,,,,,,,,,,,,,,,,,,,,,,,,,,
1703496089.746753,1703496089.747225,48.000000,0.000000,4234.230957,4232.436035,4302.820313,4280.897461,4237.179688,4224.358887,4243.589844,4200.512695,4217.179688,4226.794922,4550.256348,4462.436035,4396.410156,4468.846191,0.000000,3.000000,74.000000,,,,0.000000,4.000000,4.000000,4.000000,4.000000,4.000000,4.000000,4.000000,4.000000,4.000000,4.000000,4.000000,4.000000,4.000000,4.000000,100.000000,,,,,,,,,,,,,,,,,12.000000,0.000000,0.683362,0.292908,-0.618469,0.254395,0.984495,0.094738,0.057136,-19.101273,-39.302444,69.356453
1703496089.754561,1703496089.754933,49.000000,0.000000,4233.461426,4242.820313,4309.615234,4286.410156,4243.589844,4227.436035,4244.871582,4197.179688,4217.179688,4238.717773,4561.538574,4470.128418,4416.153809,4487.692383,0.000000,3.000000,74.000000,,,,0.000000,4.000000,4.000000,4.000000,4.000000,4.000000,4.000000,4.000000,4.000000,4.000000,4.000000,4.000000,4.000000,4.000000,4.000000,100.000000,,,,,,,,,,,,,,,,,,,,,,,,,,,,
1703496089.762369,1703496089.762841,50.000000,0.000000,4242.820313,4250.769043,4310.000000,4284.102539,4243.974121,4229.487305,4246.538574,4193.077148,4223.461426,4237.692383,4559.871582,4474.358887,4419.743652,4485.897461,0.000000,3.000000,74.000000,,,,0.000000,4.000000,4.000000,4.000000,4.000000,4.000000,4.000000,4.000000,4.000000,4.000000,4.000000,4.000000,4.000000,4.000000,4.000000,100.000000,,,,,,,,,,,,,,,,,,,,,,,,,,,,
1703496089.770177,1703496089.770649,51.000000,0.000000,4245.256348,4241.410156,4304.487305,4282.948730,4241.282227,4228.461426,4243.974121,4194.102539,4230.256348,4228.589844,4553.461426,4472.563965,4405.897461,4479.871582,0.000000,3.000000,74.000000,,,,0.000000,4.000000,4.000000,4.000000,4.000000,4.000000,4.000000,4.000000,4.000000,4.000000,4.000000,4.000000,4.000000,4.000000,4.000000,100.000000,,,,,,,,,,,,,,,,,,,,,,,,,,,,
1703496089.777985,1703496089.778556,52.000000,0.000000,4230.256348,4230.384766,4303.077148,4278.974121,4236.410156,4231.922852,4246.410156,4201.538574,4231.153809,4221.666504,4543.974121,4469.230957,4395.384766,4468.717773,0.000000,3.000000,74.000000,,,,0.000000,4.000000,4.000000,4.000000,4.000000,4.000000,4.000000,4.000000,4.000000,4.000000,4.000000,4.000000,4.000000,4.000000,4.000000,100.000000,,,,,,,,,,,,,,,,,13.000000,0.000000,0.683363,0.292725,-0.618530,0.254456,0.990355,0.079600,0.061531,-19.124479,-39.372200,69.470810
1703496089.785793,1703496089.786364,53.000000,0.000000,4219.743652,4228.846191,4298.717773,4270.769043,4232.436035,4240.641113,4250.641113,4207.051270,4231.410156,4220.512695,4542.307617,4466.282227,4400.000000,4460.128418,0.000000,3.000000,74.000000,,,,0.000000,4.000000,4.000000,4.000000,4.000000,4.000000,4.000000,4.000000,4.000000,4.000000,4.000000,4.000000,4.000000,4.000000,4.000000,100.000000,,,,,,,,,,,,,,,,,,,,,,,,,,,,
1703496089.793601,1703496089.794272,54.000000,0.000000,4212.948730,4224.102539,4284.487305,4261.666504,4233.846191,4245.000000,4250.384766,4203.205078,4229.230957,4211.153809,4540.000000,4455.000000,4395.897461,4458.461426,0.000000,3.000000,74.000000,,,,0.000000,4.000000,4.000000,4.000000,4.000000,4.000000,4.000000,4.000000,4.000000,4.000000,4.000000,4.000000,4.000000,4.000000,4.000000,100.000000,,,,,,,,,,,,,,,,,,,,,,,,,,,,
1703496089.801409,1703496089.802080,55.000000,0.000000,4196.922852,4208.974121,4272.051270,4250.384766,4232.692383,4244.871582,4250.384766,4206.410156,4226.922852,4197.179688,4521.410156,4436.410156,4376.666504,4441.025879,0.000000,3.000000,74.000000,,,,0.000000,4.000000,4.000000,4.000000,4.000000,4.000000,4.000000,4.000000,4.000000,4.000000,4.000000,4.000000,4.000000,4.000000,4.000000,100.000000,,,,,,,,,,,,,,,,,,,,,,,,,,,,
1703496089.809217,1703496089.809988,56.000000,0.000000,4182.563965,4198.077148,4270.512695,4243.974121,4228.846191,4244.358887,4249.743652,4219.743652,4230.000000,4195.384766,4509.358887,4429.102539,4368.077148,4422.051270,0.000000,3.000000,74.000000,,,,0.000000,4.000000,4.000000,4.000000,4.000000,4.000000,4.000000,4.000000,4.000000,4.000000,4.000000,4.000000,4.000000,4.000000,4.000000,100.000000,,,,,,,,,,,,,,,,,14.000000,0.000000,0.683311,0.292664,-0.618591,0.254517,0.986449,0.083995,0.062508,-19.112032,-39.384979,69.540398
1703496089.817025,1703496089.817796,57.000000,0.000000,4183.589844,4202.436035,4275.641113,4248.974121,4233.333496,4241.153809,4253.205078,4219.615234,4229.487305,4204.230957,4517.563965,4436.922852,4375.897461,4429.102539,0.000000,3.000000,74.000000,,,,0.000000,4.000000,4.000000,4.000000,4.000000,4.000000,4.000000,4.000000,4.000000,4.000000,4.000000,4.000000,4.000000,4.000000,4.000000,100.000000,,,,,,,,,,,,,,,,,,,,,,,,,,,,
1703496089.824833,1703496089.825704,58.000000,0.000000,4191.794922,4214.615234,4282.179688,4258.589844,4237.179688,4236.666504,4256.153809,4206.025879,4221.025879,4212.179688,4524.871582,4445.512695,4389.487305,4444.358887,0.000000,3.000000,74.000000,,,,0.000000,4.000000,4.000000,4.000000,4.000000,4.000000,4.000000,4.000000,4.000000,4.000000,4.000000,4.000000,4.000000,4.000000,4.000000,100.000000,,,,,,,,,,,,,,,,,,,,,,,,,,,,
1703496089.832641,1703496089.833512,59.000000,0.000000,4197.179688,4216.282227,4287.051270,4263.333496,4228.974121,4229.615234,4250.384766,4197.820313,4217.563965,4212.820313,4522.436035,4448.461426,4393.974121,4443.333496,0.000000,3.000000,74.000000,,,,0.000000,4.000000,4.000000,4.000000,4.000000,4.000000,4.000000,4.000000,4.000000,4.000000,4.000000,4.000000,4.000000,4.000000,4.000000,100.000000,,,,,,,,,,,,,,,,,,,,,,,,,,,,
1703496089.840449,1703496089.841220,60.000000,0.000000,4206.410156,4214.487305,4294.102539,4264.358887,4221.794922,4217.820313,4247.820313,4193.077148,4216.153809,4204.102539,4526.922852,4451.666504,4390.512695,4445.128418,0.000000,3.000000,74.000000,,,,0.000000,4.000000,4.000000,4.000000,4.000000,4.000000,4.000000,4.000000,4.000000,4.000000,4.000000,4.000000,4.000000,4.000000,4.000000,100.000000,,,,,,,,,,,,,,,,,15.000000,0.000000,0.683393,0.292603,-0.618530,0.254517,0.987914,0.082530,0.065926,-19.134161,-39.363148,69.603020
1703496089.848257,1703496089.849028,61.000000,0.000000,4217.948730,4226.794922,4302.820313,4267.436035,4228.461426,4212.051270,4249.871582,4186.025879,4206.666504,4198.205078,4536.666504,4457.692383,4391.538574,4460.769043,0.000000,3.000000,74.000000,,,,0.000000,4.000000,4.000000,4.000000,4.000000,4.000000,4.000000,4.000000,4.000000,4.000000,4.000000,4.000000,4.000000,4.000000,4.000000,100.000000,,,,,,,,,,,,,,,,,,,,,,,,,,,,
1703496089.856065,1703496089.856936,62.000000,0.000000,4226.153809,4238.205078,4311.282227,4273.589844,4236.282227,4213.205078,4250.128418,4181.153809,4199.871582,4205.897461,4540.256348,4466.922852,4399.358887,4465.641113,0.000000,3.000000,74.000000,,,,0.000000,4.000000,4.000000,4.000000,4.000000,4.000000,4.000000,4.000000,4.000000,4.000000,4.000000,4.000000,4.000000,4.000000,4.000000,100.000000,,,,,,,,,,,,,,,,,,,,,,,,,,,,
1703496089.863873,1703496089.864844,63.000000,0.000000,4235.769043,4238.333496,4317.051270,4282.051270,4233.461426,4205.384766,4249.487305,4179.743652,4207.051270,4217.307617,4545.384766,4475.000000,4407.436035,4467.307617,0.000000,3.000000,74.000000,,,,0.000000,4.000000,4.000000,4.000000,4.000000,4.000000,4.000000,4.000000,4.000000,4.000000,4.000000,4.000000,4.000000,4.000000,4.000000,100.000000,,,,,,,,,,,,,,,,,,,,,,,,,,,,
1703496089.871682,1703496089.872652,64.000000,0.000000,4235.256348,4236.538574,4315.897461,4279.615234,4228.461426,4195.000000,4248.717773,4186.666504,4222.307617,4226.794922,4551.922852,4475.384766,4410.256348,4477.948730,4769.000000,3.000000,74.000000,,,,0.000000,4.000000,4.000000,4.000000,4.000000,4.000000,4.000000,4.000000,4.000000,4.000000,4.000000,4.000000,4.000000,4.000000,4.000000,100.000000,,,,,,,,,,,,,,,,,16.000000,0.000000,0.683337,0.292603,-0.618591,0.254517,0.993285,0.075693,0.061043,-18.770746,-39.293499,69.359390
1703496089.879490,1703496089.880460,65.000000,0.000000,4217.307617,4231.282227,4308.717773,4268.333496,4229.358887,4202.692383,4247.563965,4201.666504,4233.461426,4228.846191,4547.307617,4470.256348,4403.589844,4472.820313,5634.000000,3.000000,74.000000,,,,0.000000,4.000000,4.000000,4.000000,4.000000,4.000000,4.000000,4.000000,4.000000,4.000000,4.000000,4.000000,4.000000,4.000000,4.000000,100.000000,,,,,,,,,,,,,,,,,,,,,,,,,,,,
1703496089.887298,1703496089.888168,66.000000,0.000000,4199.358887,4218.589844,4296.025879,4261.153809,4227.179688,4222.051270,4250.256348,4209.487305,4237.948730,4217.948730,4532.307617,4458.205078,4387.948730,4445.000000,5422.000000,3.000000,74.000000,,,,0.000000,4.000000,4.000000,4.000000,4.000000,4.000000,4.000000,4.000000,4.000000,4.000000,4.000000,4.000000,4.000000,4.000000,4.000000,100.000000,,,,,,,,,,,,,,,,,,,,,,,,,,,,
1703496089.895106,1703496089.895976,67.000000,0.000000,4188.077148,4201.538574,4279.871582,4249.487305,4219.615234,4234.358887,4258.205078,4205.256348,4236.794922,4200.256348,4513.589844,4439.358887,4372.307617,4423.974121,5432.000000,3.000000,74.000000,,,,0.000000,4.000000,4.000000,4.000000,4.000000,4.000000,4.000000,4.000000,4.000000,4.000000,4.000000,4.000000,4.000000,4.000000,4.000000,100.000000,,,,,,,,,,,,,,,,,,,,,,,,,,,,
1703496089.902914,1703496089.903684,68.000000,0.000000,4170.897461,4184.358887,4269.487305,4229.358887,4214.487305,4235.769043,4263.205078,4197.820313,4233.333496,4194.358887,4497.948730,4426.410156,4358.205078,4416.538574,5337.000000,3.000000,74.000000,,,,0.000000,4.000000,4.000000,4.000000,4.000000,4.000000,4.000000,4.000000,4.000000,4.000000,4.000000,4.000000,4.000000,4.000000,4.000000,100.000000,,,,,,,,,,,,,,,,,17.000000,0.000000,0.683376,0.292542,-0.618652,0.254333,0.992309,0.092296,0.055183,-19.077003,-39.380817,69.323448
1703496089.910722,1703496089.911592,69.000000,0.000000,4159.487305,4176.538574,4269.487305,4224.230957,4216.794922,4232.692383,4261.794922,4189.743652,4226.794922,4197.179688,4491.666504,4426.282227,4351.666504,4411.410156,4963.000000,3.000000,74.000000,,,,0.000000,4.000000,4.000000,4.000000,4.000000,4.000000,4.000000,4.000000,4.000000,4.000000,4.000000,4.000000,4.000000,4.000000,4.000000,100.000000,,,,,,,,,,,,,,,,,,,,,,,,,,,,
1703496089.918530,1703496089.919400,70.000000,0.000000,4172.820313,4193.589844,4276.025879,4239.743652,4224.615234,4232.692383,4261.922852,4185.000000,4217.179688,4186.794922,4491.538574,4431.025879,4357.051270,4409.102539,2722.000000,3.000000,74.000000,,,,0.000000,4.000000,4.000000,4.000000,4.000000,4.000000,4.000000,4.000000,4.000000,4.000000,4.000000,4.000000,4.000000,4.000000,4.000000,100.000000,,,,,,,,,,,,,,,,,,,,,,,,,,,,
1703496089.926338,1703496089.927208,71.000000,0.000000,4193.205078,4213.846191,4280.897461,4253.077148,4231.538574,4232.563965,4264.487305,4183.846191,4214.871582,4180.000000,4495.641113,4432.179688,4362.563965,4410.641113,4053.000000,3.000000,74.000000,,,,0.000000,4.000000,4.000000,4.000000,4.000000,4.000000,4.000000,4.000000,4.000000,4.000000,4.000000,4.000000,4.000000,4.000000,4.000000,100.000000,,,,,,,,,,,,,,,,,,,,,,,,,,,,
1703496089.934146,1703496089.934916,72.000000,0.000000,4205.641113,4218.974121,4287.179688,4260.000000,4233.333496,4227.051270,4263.846191,4182.307617,4215.128418,4191.282227,4502.692383,4433.333496,4362.692383,4419.871582,4128.000000,3.000000,74.000000,,,,0.000000,4.000000,4.000000,4.000000,4.000000,4.000000,4.000000,4.000000,4.000000,4.000000,4.000000,4.000000,4.000000,4.000000,4.000000,100.000000,,,,,,,,,,,,,,,,,18.000000,0.000000,0.683305,0.292603,-0.618652,0.254456,0.984007,0.086436,0.057136,-18.919304,-39.542736,69.374435
1703496089.941954,1703496089.942824,73.000000,0.000000,4213.333496,4225.769043,4295.897461,4265.128418,4232.179688,4220.000000,4263.461426,4182.563965,4206.153809,4200.128418,4507.563965,4442.820313,4368.461426,4434.230957,5631.000000,3.000000,74.000000,,,,0.000000,4.000000,4.000000,4.000000,4.000000,4.000000,4.000000,4.000000,4.000000,4.000000,4.000000,4.000000,4.000000,4.000000,4.000000,100.000000,,,,,,,,,,,,,,,,,,,,,,,,,,,,
1703496089.949762,1703496089.950632,74.000000,0.000000,4220.897461,4234.743652,4299.743652,4265.384766,4235.000000,4218.333496,4265.000000,4183.717773,4196.794922,4199.358887,4515.769043,4451.666504,4385.384766,4444.615234,5945.000000,3.000000,74.000000,,,,0.000000,4.000000,4.000000,4.000000,4.000000,4.000000,4.000000,4.000000,4.000000,4.000000,4.000000,4.000000,4.000000,4.000000,4.000000,100.000000,,,,,,,,,,,,,,,,,,,,,,,,,,,,
1703496089.957570,1703496089.958540,75.000000,0.000000,4230.384766,4235.384766,4303.974121,4271.282227,4236.666504,4217.692383,4264.487305,4184.358887,4199.230957,4199.358887,4530.256348,4458.333496,4399.102539,4454.487305,6185.000000,3.000000,74.000000,,,,0.000000,4.000000,4.000000,4.000000,4.000000,4.000000,4.000000,4.000000,4.000000,4.000000,4.000000,4.000000,4.000000,4.000000,4.000000,100.000000,,,,,,,,,,,,,,,,,,,,,,,,,,,,
1703496089.965378,1703496089.966348,76.000000,0.000000,4231.538574,4234.615234,4310.897461,4278.589844,4232.692383,4212.436035,4262.948730,4187.563965,4204.358887,4201.666504,4542.436035,4462.436035,4402.563965,4464.358887,6678.000000,3.000000,74.000000,,,,0.000000,4.000000,4.000000,4.000000,4.000000,4.000000,4.000000,4.000000,4.000000,4.000000,4.000000,4.000000,4.000000,4.000000,4.000000,100.000000,,,,,,,,,,,,,,,,,19.000000,0.000000,0.683181,0.292786,-0.618652,0.254578,0.984495,0.082530,0.062019,-18.927374,-39.505127,69.486992
1703496089.973186,1703496089.974256,77.000000,0.000000,4224.358887,4236.282227,4310.000000,4273.589844,4233.461426,4210.384766,4264.487305,4189.230957,4204.230957,4199.871582,4536.282227,4453.846191,4397.436035,4455.384766,6431.000000,3.000000,74.000000,,,,0.000000,4.000000,4.000000,4.000000,4.000000,4.000000,4.000000,4.000000,4.000000,4.000000,4.000000,4.000000,4.000000,4.000000,4.000000,100.000000,,,,,,,,,,,,,,,,,,,,,,,,,,,,
1703496089.980994,1703496089.982064,78.000000,0.000000,4212.692383,4230.897461,4298.589844,4265.384766,4232.436035,4215.128418,4264.102539,4185.256348,4202.563965,4193.205078,4515.128418,4438.589844,4386.666504,4431.922852,5945.000000,3.000000,74.000000,,,,0.000000,4.000000,4.000000,4.000000,4.000000,4.000000,4.000000,4.000000,4.000000,4.000000,4.000000,4.000000,4.000000,4.000000,4.000000,100.000000,,,,,,,,,,,,,,,,,,,,,,,,,,,,
1703496089.988802,1703496089.989972,79.000000,0.000000,4190.769043,4213.974121,4285.128418,4258.205078,4222.179688,4222.051270,4264.743652,4188.974121,4204.871582,4192.436035,4505.000000,4428.589844,4377.948730,4413.461426,6185.000000,3.000000,74.000000,,,,0.000000,4.000000,4.000000,4.000000,4.000000,4.000000,4.000000,4.000000,4.000000,4.000000,4.000000,4.000000,4.000000,4.000000,4.000000,100.000000,,,,,,,,,,,,,,,,,,,,,,,,,,,,
1703496089.996610,1703496089.997780,80.000000,0.000000,4180.256348,4205.000000,4280.512695,4247.563965,4214.230957,4231.153809,4271.282227,4205.384766,4220.384766,4200.769043,4515.512695,4432.051270,4378.846191,4411.153809,6678.000000,3.000000,74.000000,,,,0.000000,4.000000,4.000000,4.000000,4.000000,4.000000,4.000000,4.000000,4.000000,4.000000,4.000000,4.000000,4.000000,4.000000,4.000000,100.000000,,,,,,,,,,,,,,,,,20.000000,0.000000,0.683187,0.292847,-0.618591,0.254639,0.984984,0.085460,0.054206,-18.834637,-39.304615,69.471626
1703496090.004418,1703496090.005688,81.000000,0.000000,4191.922852,4207.179688,4281.922852,4243.077148,4218.846191,4234.102539,4272.307617,4220.256348,4233.717773,4205.000000,4531.410156,4443.205078,4388.333496,4428.461426,6431.000000,3.000000,74.000000,,,,0.000000,4.000000,4.000000,4.000000,4.000000,4.000000,4.000000,4.000000,4.000000,4.000000,4.000000,4.000000,4.000000,4.000000,4.000000,100.000000,,,,,,,,,,,,,,,,,,,,,,,,,,,,
1703496090.012226,1703496090.013495,82.000000,0.000000,4193.333496,4204.871582,4279.743652,4244.743652,4219.487305,4224.743652,4266.025879,4222.563965,4227.948730,4205.000000,4533.846191,4447.820313,4391.538574,4439.871582,5945.000000,3.000000,74.000000,,,,0.000000,4.000000,4.000000,4.000000,4.000000,4.000000,4.000000,4.000000,4.000000,4.000000,4.000000,4.000000,4.000000,4.000000,4.000000,100.000000,,,,,,,,,,,,,,,,,,,,,,,,,,,,
1703496090.020034,1703496090.021204,83.000000,0.000000,4183.846191,4203.846191,4279.230957,4249.230957,4214.743652,4215.897461,4262.051270,4216.025879,4216.282227,4212.051270,4526.153809,4446.922852,4388.205078,4428.974121,6185.000000,3.000000,74.000000,,,,0.000000,4.000000,4.000000,4.000000,4.000000,4.000000,4.000000,4.000000,4.000000,4.000000,4.000000,4.000000,4.000000,4.000000,4.000000,100.000000,,,,,,,,,,,,,,,,,,,,,,,,,,,,
1703496090.027843,1703496090.029212,84.000000,0.000000,4195.641113,4215.384766,4287.307617,4260.384766,4223.077148,4216.025879,4265.128418,4207.051270,4213.205078,4211.025879,4527.051270,4449.358887,4390.512695,4423.077148,6678.000000,3.000000,74.000000,,,,0.000000,4.000000,4.000000,4.000000,4.000000,4.000000,4.000000,4.000000,4.000000,4.000000,4.000000,4.000000,4.000000,4.000000,4.000000,100.000000,,,,,,,,,,,,,,,,,21.000000,0.000000,0.683269,0.292786,-0.618530,0.254639,0.993285,0.090343,0.068368,-18.784506,-39.340820,69.424461
1703496090.035651,1703496090.037020,85.000000,0.000000,4212.307617,4224.230957,4297.051270,4268.846191,4234.871582,4215.256348,4270.128418,4196.282227,4216.153809,4203.846191,4536.410156,4456.794922,4399.487305,4437.436035,6431.000000,3.000000,74.000000,,,,0.000000,4.000000,4.000000,4.000000,4.000000,4.000000,4.000000,4.000000,4.000000,4.000000,4.000000,4.000000,4.000000,4.000000,4.000000,100.000000,,,,,,,,,,,,,,,,,,,,,,,,,,,,
1703496090.043459,1703496090.044828,86.000000,0.000000,4215.128418,4227.051270,4302.179688,4272.307617,4234.230957,4212.820313,4268.846191,4184.871582,4212.692383,4205.641113,4537.692383,4457.179688,4403.974121,4448.205078,5945.000000,3.000000,74.000000,,,,0.000000,4.000000,4.000000,4.000000,4.000000,4.000000,4.000000,4.000000,4.000000,4.000000,4.000000,4.000000,4.000000,4.000000,4.000000,100.000000,,,,,,,,,,,,,,,,,,,,,,,,,,,,
1703496090.051267,1703496090.052636,87.000000,0.000000,4218.077148,4234.615234,4301.538574,4279.743652,4233.974121,4215.384766,4271.153809,4180.769043,4202.436035,4204.615234,4533.077148,4452.692383,4405.128418,4448.205078,6185.000000,3.000000,74.000000,,,,0.000000,4.000000,4.000000,4.000000,4.000000,4.000000,4.000000,4.000000,4.000000,4.000000,4.000000,4.000000,4.000000,4.000000,4.000000,100.000000,,,,,,,,,,,,,,,,,,,,,,,,,,,,
1703496090.059075,1703496090.060444,88.000000,0.000000,4216.666504,4232.179688,4297.179688,4277.820313,4240.000000,4218.589844,4276.025879,4193.077148,4200.512695,4198.077148,4532.820313,4450.769043,4403.846191,4440.641113,6678.000000,3.000000,74.000000,,,,0.000000,4.000000,4.000000,4.000000,4.000000,4.000000,4.000000,4.000000,4.000000,4.000000,4.000000,4.000000,4.000000,4.000000,4.000000,100.000000,,,,,,,,,,,,,,,,,22.000000,0.000000,0.683347,0.292786,-0.618469,0.254578,0.981077,0.086436,0.066903,-18.739389,-39.373405,69.265350
1703496090.066883,1703496090.068152,89.000000,0.000000,4205.128418,4218.077148,4288.461426,4264.615234,4239.358887,4216.410156,4272.307617,4211.025879,4218.333496,4205.256348,4532.051270,4448.974121,4399.230957,4435.641113,6431.000000,3.000000,74.000000,,,,0.000000,4.000000,4.000000,4.000000,4.000000,4.000000,4.000000,4.000000,4.000000,4.000000,4.000000,4.000000,4.000000,4.000000,4.000000,100.000000,,,,,,,,,,,,,,,,,,,,,,,,,,,,
1703496090.074691,1703496090.075960,90.000000,0.000000,4198.974121,4215.128418,4286.666504,4260.256348,4231.538574,4218.205078,4271.538574,4227.307617,4241.153809,4227.820313,4539.487305,4450.384766,4405.769043,4442.948730,5945.000000,3.000000,74.000000,,,,0.000000,4.000000,4.000000,4.000000,4.000000,4.000000,4.000000,4.000000,4.000000,4.000000,4.000000,4.000000,4.000000,4.000000,4.000000,100.000000,,,,,,,,,,,,,,,,,,,,,,,,,,,,
1703496090.082499,1703496090.083669,91.000000,0.000000,4202.692383,4220.769043,4292.948730,4266.153809,4230.000000,4225.512695,4276.538574,4246.410156,4251.666504,4240.769043,4554.615234,4460.128418,4418.589844,4440.000000,6185.000000,3.000000,74.000000,,,,0.000000,4.000000,4.000000,4.000000,4.000000,4.000000,4.000000,4.000000,4.000000,4.000000,4.000000,4.000000,4.000000,4.000000,4.000000,100.000000,,,,,,,,,,,,,,,,,,,,,,,,,,,,
1703496090.090307,1703496090.091577,92.000000,0.000000,4198.717773,4215.128418,4289.102539,4262.692383,4231.153809,4230.384766,4276.538574,4255.512695,4248.846191,4234.358887,4551.666504,4463.846191,4413.717773,4428.205078,6678.000000,3.000000,74.000000,,,,0.000000,4.000000,4.000000,4.000000,4.000000,4.000000,4.000000,4.000000,4.000000,4.000000,4.000000,4.000000,4.000000,4.000000,4.000000,100.000000,,,,,,,,,,,,,,,,,23.000000,0.000000,0.683405,0.292725,-0.618408,0.254639,0.992309,0.081553,0.060066,-18.732117,-39.369396,69.322151
1703496090.098115,1703496090.099385,93.000000,0.000000,4188.333496,4201.538574,4282.948730,4250.897461,4225.384766,4231.025879,4274.743652,4245.000000,4237.436035,4222.179688,4537.307617,4457.179688,4399.487305,4431.025879,6431.000000,3.000000,74.000000,,,,0.000000,4.000000,4.000000,4.000000,4.000000,4.000000,4.000000,4.000000,4.000000,4.000000,4.000000,4.000000,4.000000,4.000000,4.000000,100.000000,,,,,,,,,,,,,,,,,,,,,,,,,,,,
1703496090.105923,1703496090.107293,94.000000,0.000000,4190.000000,4204.230957,4288.461426,4252.307617,4220.256348,4228.461426,4274.230957,4233.461426,4232.179688,4214.230957,4539.615234,4457.051270,4401.410156,4442.563965,5945.000000,3.000000,74.000000,,,,0.000000,4.000000,4.000000,4.000000,4.000000,4.000000,4.000000,4.000000,4.000000,4.000000,4.000000,4.000000,4.000000,4.000000,4.000000,100.000000,,,,,,,,,,,,,,,,,,,,,,,,,,,,
1703496090.113731,1703496090.115101,95.000000,0.000000,4201.025879,4213.077148,4296.410156,4262.820313,4225.384766,4221.922852,4273.333496,4235.641113,4229.358887,4215.256348,4553.846191,4469.615234,4413.846191,4444.615234,6185.000000,3.000000,74.000000,,,,0.000000,4.000000,4.000000,4.000000,4.000000,4.000000,4.000000,4.000000,4.000000,4.000000,4.000000,4.000000,4.000000,4.000000,4.000000,100.000000,,,,,,,,,,,,,,,,,,,,,,,,,,,,
1703496090.121539,1703496090.123009,96.000000,0.000000,4210.769043,4218.717773,4305.000000,4267.307617,4233.077148,4218.974121,4278.205078,4238.077148,4218.846191,4211.666504,4556.922852,4482.307617,4416.922852,4445.641113,6678.000000,3.000000,74.000000,,,,0.000000,4.000000,4.000000,4.000000,4.000000,4.000000,4.000000,4.000000,4.000000,4.000000,4.000000,4.000000,4.000000,4.000000,4.000000,100.000000,,,,,,,,,,,,,,,,,24.000000,0.000000,0.683516,0.292725,-0.618286,0.254639,0.980588,0.091320,0.066414,-18.658905,-39.382458,69.239937
1703496090.129347,1703496090.130817,97.000000,0.000000,4212.307617,4222.820313,4313.333496,4266.794922,4231.794922,4220.384766,4280.384766,4229.871582,4211.538574,4206.282227,4554.615234,4484.871582,4414.615234,4456.538574,6431.000000,3.000000,74.000000,,,,0.000000,4.000000,4.000000,4.000000,4.000000,4.000000,4.000000,4.000000,4.000000,4.000000,4.000000,4.000000,4.000000,4.000000,4.000000,100.000000,,,,,,,,,,,,,,,,,,,,,,,,,,,,
1703496090.137155,1703496090.138624,98.000000,0.000000,4209.743652,4221.282227,4315.897461,4269.358887,4230.769043,4218.333496,4276.025879,4220.897461,4212.436035,4214.871582,4558.589844,4483.974121,4418.717773,4464.102539,5945.000000,3.000000,74.000000,,,,0.000000,4.000000,4.000000,4.000000,4.000000,4.000000,4.000000,4.000000,4.000000,4.000000,4.000000,4.000000,4.000000,4.000000,4.000000,100.000000,,,,,,,,,,,,,,,,,,,,,,,,,,,,
1703496090.144963,1703496090.146333,99.000000,0.000000,4217.820313,4226.538574,4315.000000,4274.615234,4241.794922,4213.205078,4278.461426,4219.743652,4214.358887,4224.487305,4562.051270,4484.615234,4428.717773,4463.717773,6185.000000,3.000000,74.000000,,,,0.000000,4.000000,4.000000,4.000000,4.000000,4.000000,4.000000,4.000000,4.000000,4.000000,4.000000,4.000000,4.000000,4.000000,4.000000,100.000000,,,,,,,,,,,,,,,,,,,,,,,,,,,,
1703496090.152771,1703496090.154141,100.000000,0.000000,4221.410156,4239.615234,4312.563965,4272.563965,4247.051270,4215.512695,4282.179688,4227.820313,4219.871582,4219.102539,4556.025879,4479.102539,4424.871582,4461.282227,6678.000000,3.000000,74.000000,,,,0.000000,4.000000,4.000000,4.000000,4.000000,4.000000,4.000000,4.000000,4.000000,4.000000,4.000000,4.000000,4.000000,4.000000,4.000000,100.000000,,,,,,,,,,,,,,,,,25.000000,0.000000,0.683512,0.292786,-0.618286,0.254578,0.987914,0.091320,0.059578,-18.909681,-39.310879,69.082611
1703496090.160579,1703496090.161849,101.000000,0.000000,4206.538574,4240.897461,4304.487305,4259.358887,4237.820313,4225.512695,4280.128418,4238.717773,4227.820313,4211.025879,4540.256348,4465.641113,4407.692383,4448.717773,6431.000000,3.000000,74.000000,,,,0.000000,4.000000,4.000000,4.000000,4.000000,4.000000,4.000000,4.000000,4.000000,4.000000,4.000000,4.000000,4.000000,4.000000,4.000000,100.000000,,,,,,,,,,,,,,,,,,,,,,,,,,,,
1703496090.168388,1703496090.169756,102.000000,0.000000,4193.717773,4228.589844,4291.153809,4243.974121,4232.563965,4234.102539,4284.230957,4246.153809,4230.384766,4205.000000,4526.153809,4452.307617,4393.717773,4422.692383,5945.000000,3.000000,74.000000,,,,0.000000,4.000000,4.000000,4.000000,4.000000,4.000000,4.000000,4.000000,4.000000,4.000000,4.000000,4.000000,4.000000,4.000000,4.000000,100.000000,,,,,,,,,,,,,,,,,,,,,,,,,,,,
1703496090.176196,1703496090.177564,103.000000,0.000000,4188.846191,4216.410156,4280.128418,4235.897461,4230.769043,4234.230957,4291.153809,4245.769043,4232.436035,4189.487305,4517.179688,4445.128418,4384.102539,4404.871582,6185.000000,3.000000,74.000000,,,,0.000000,4.000000,4.000000,4.000000,4.000000,4.000000,4.000000,4.000000,4.000000,4.000000,4.000000,4.000000,4.000000,4.000000,4.000000,100.000000,,,,,,,,,,,,,,,,,,,,,,,,,,,,
1703496090.184003,1703496090.185472,104.000000,0.000000,4177.692383,4204.743652,4275.384766,4229.871582,4225.128418,4230.384766,4287.820313,4235.641113,4228.589844,4184.615234,4509.871582,4439.487305,4376.025879,4411.025879,6678.000000,3.000000,74.000000,,,,0.000000,4.000000,4.000000,4.000000,4.000000,4.000000,4.000000,4.000000,4.000000,4.000000,4.000000,4.000000,4.000000,4.000000,4.000000,100.000000,,,,,,,,,,,,,,,,,26.000000,0.000000,0.683583,0.292908,-0.618225,0.254395,0.981565,0.084971,0.063973,-18.852047,-39.346458,68.957680
1703496090.191812,1703496090.193280,105.000000,0.000000,4175.512695,4202.179688,4278.974121,4233.077148,4225.897461,4227.563965,4280.641113,4231.153809,4220.641113,4199.102539,4513.589844,4438.717773,4377.948730,4421.153809,6431.000000,3.000000,74.000000,,,,0.000000,4.000000,4.000000,4.000000,4.000000,4.000000,4.000000,4.000000,4.000000,4.000000,4.000000,4.000000,4.000000,4.000000,4.000000,100.000000,,,,,,,,,,,,,,,,,,,,,,,,,,,,
1703496090.199620,1703496090.201188,106.000000,0.000000,4185.641113,4212.179688,4289.615234,4245.641113,4228.461426,4222.563965,4281.538574,4233.974121,4223.717773,4203.077148,4526.282227,4447.436035,4386.922852,4423.333496,5945.000000,3.000000,74.000000,,,,0.000000,4.000000,4.000000,4.000000,4.000000,4.000000,4.000000,4.000000,4.000000,4.000000,4.000000,4.000000,4.000000,4.000000,4.000000,100.000000,1.000000,100.000000,4.000000,4.000000,4.000000,4.000000,4.000000,4.000000,4.000000,4.000000,4.000000,4.000000,4.000000,4.000000,4.000000,4.000000,,,,,,,,,,,,
1703496090.207428,1703496090.208996,107.000000,0.000000,4196.666504,4222.179688,4298.077148,4256.025879,4226.538574,4217.563965,4284.743652,4233.333496,4232.563965,4203.846191,4540.897461,4465.256348,4396.153809,4437.948730,6185.000000,3.000000,74.000000,,,,0.000000,4.000000,4.000000,4.000000,4.000000,4.000000,4.000000,4.000000,4.000000,4.000000,4.000000,4.000000,4.000000,4.000000,4.000000,100.000000,,,,,,,,,,,,,,,,,,,,,,,,,,,,
1703496090.215236,1703496090.216704,108.000000,0.000000,4212.948730,4233.717773,4309.615234,4265.897461,4230.769043,4217.307617,4284.615234,4238.333496,4233.461426,4227.948730,4560.128418,4487.307617,4416.025879,4467.820313,6678.000000,3.000000,74.000000,,,,0.000000,4.000000,4.000000,4.000000,4.000000,4.000000,4.000000,4.000000,4.000000,4.000000,4.000000,4.000000,4.000000,4.000000,4.000000,100.000000,,,,,,,,,,,,,,,,,27.000000,0.000000,0.683681,0.292786,-0.618225,0.254272,1.008424,0.077646,0.062996,-18.733509,-39.411812,68.995247
1703496090.223044,1703496090.224512,109.000000,0.000000,4222.948730,4238.333496,4319.230957,4270.512695,4234.358887,4216.794922,4282.051270,4248.205078,4229.358887,4245.256348,4571.922852,4501.666504,4433.205078,4480.897461,6431.000000,3.000000,74.000000,,,,0.000000,4.000000,4.000000,4.000000,4.000000,4.000000,4.000000,4.000000,4.000000,4.000000,4.000000,4.000000,4.000000,4.000000,4.000000,100.000000,,,,,,,,,,,,,,,,,,,,,,,,,,,,
1703496090.230852,1703496090.232220,110.000000,0.000000,4217.307617,4231.794922,4312.692383,4265.384766,4228.974121,4213.077148,4277.307617,4240.000000,4223.205078,4226.153809,4557.436035,4497.436035,4425.512695,4469.615234,5945.000000,3.000000,74.000000,,,,0.000000,4.000000,4.000000,4.000000,4.000000,4.000000,4.000000,4.000000,4.000000,4.000000,4.000000,4.000000,4.000000,4.000000,4.000000,100.000000,,,,,,,,,,,,,,,,,,,,,,,,,,,,
1703496090.238660,1703496090.240128,111.000000,0.000000,4214.615234,4226.794922,4306.794922,4260.641113,4227.692383,4210.641113,4277.692383,4226.538574,4212.307617,4210.512695,4537.179688,4486.538574,4407.051270,4460.641113,6185.000000,3.000000,74.000000,,,,0.000000,4.000000,4.000000,4.000000,4.000000,4.000000,4.000000,4.000000,4.000000,4.000000,4.000000,4.000000,4.000000,4.000000,4.000000,100.000000,,,,,,,,,,,,,,,,,,,,,,,,,,,,
1703496090.246468,1703496090.247937,112.000000,0.000000,4214.487305,4228.205078,4307.948730,4263.205078,4232.436035,4213.974121,4280.128418,4236.410156,4211.025879,4217.179688,4536.153809,4483.461426,4405.128418,4461.666504,6678.000000,3.000000,74.000000,,,,0.000000,4.000000,4.000000,4.000000,4.000000,4.000000,4.000000,4.000000,4.000000,4.000000,4.000000,4.000000,4.000000,4.000000,4.000000,100.000000,,,,,,,,,,,,,,,,,28.000000,0.000000,0.683655,0.292664,-0.618286,0.254333,0.993774,0.084483,0.067879,-18.893490,-39.303963,69.279053
1703496090.254276,1703496090.255745,113.000000,0.000000,4209.358887,4229.743652,4302.436035,4260.641113,4234.615234,4222.179688,4278.205078,4250.769043,4223.589844,4215.256348,4537.436035,4481.666504,4413.461426,4462.179688,6431.000000,3.000000,74.000000,,,,0.000000,4.000000,4.000000,4.000000,4.000000,4.000000,4.000000,4.000000,4.000000,4.000000,4.000000,4.000000,4.000000,4.000000,4.000000,100.000000,,,,,,,,,,,,,,,,,,,,,,,,,,,,
1703496090.262084,1703496090.263453,114.000000,0.000000,4201.282227,4223.589844,4296.282227,4251.922852,4233.717773,4230.897461,4280.897461,4252.051270,4236.410156,4206.794922,4525.384766,4477.563965,4409.230957,4458.461426,5945.000000,3.000000,74.000000,,,,0.000000,4.000000,4.000000,4.000000,4.000000,4.000000,4.000000,4.000000,4.000000,4.000000,4.000000,4.000000,4.000000,4.000000,4.000000,100.000000,,,,,,,,,,,,,,,,,,,,,,,,,,,,
1703496090.269892,1703496090.271261,115.000000,0.000000,4189.487305,4211.794922,4289.871582,4246.794922,4232.436035,4236.025879,4284.230957,4249.102539,4233.333496,4207.948730,4507.436035,4461.666504,4395.512695,4443.333496,6185.000000,3.000000,74.000000,,,,0.000000,4.000000,4.000000,4.000000,4.000000,4.000000,4.000000,4.000000,4.000000,4.000000,4.000000,4.000000,4.000000,4.000000,4.000000,100.000000,,,,,,,,,,,,,,,,,,,,,,,,,,,,
1703496090.277700,1703496090.278969,116.000000,0.000000,4179.358887,4207.948730,4280.512695,4242.179688,4232.051270,4233.846191,4280.641113,4245.769043,4219.358887,4203.077148,4490.512695,4444.487305,4381.794922,4419.871582,6678.000000,3.000000,74.000000,,,,0.000000,4.000000,4.000000,4.000000,4.000000,4.000000,4.000000,4.000000,4.000000,4.000000,4.000000,4.000000,4.000000,4.000000,4.000000,100.000000,,,,,,,,,,,,,,,,,29.000000,0.000000,0.683585,0.292358,-0.618408,0.254578,0.985960,0.090343,0.058113,-19.037476,-39.123569,69.284485
1703496090.285508,1703496090.286777,117.000000,0.000000,4180.128418,4208.974121,4281.153809,4238.717773,4226.666504,4230.897461,4278.333496,4245.000000,4221.282227,4191.666504,4492.307617,4450.384766,4382.307617,4418.205078,6431.000000,3.000000,74.000000,,,,0.000000,4.000000,4.000000,4.000000,4.000000,4.000000,4.000000,4.000000,4.000000,4.000000,4.000000,4.000000,4.000000,4.000000,4.000000,100.000000,,,,,,,,,,,,,,,,,,,,,,,,,,,,
1703496090.293316,1703496090.294485,118.000000,0.000000,4185.256348,4207.179688,4286.794922,4241.410156,4218.717773,4229.743652,4279.871582,4248.461426,4228.717773,4196.794922,4509.230957,4463.333496,4395.769043,4441.153809,5945.000000,3.000000,74.000000,,,,0.000000,4.000000,4.000000,4.000000,4.000000,4.000000,4.000000,4.000000,4.000000,4.000000,4.000000,4.000000,4.000000,4.000000,4.000000,100.000000,,,,,,,,,,,,,,,,,,,,,,,,,,,,
1703496090.301124,1703496090.302293,119.000000,0.000000,4191.410156,4215.769043,4286.666504,4244.615234,4221.025879,4222.948730,4279.615234,4247.563965,4221.410156,4209.102539,4514.871582,4462.051270,4402.948730,4448.974121,6185.000000,3.000000,74.000000,,,,0.000000,4.000000,4.000000,4.000000,4.000000,4.000000,4.000000,4.000000,4.000000,4.000000,4.000000,4.000000,4.000000,4.000000,4.000000,100.000000,,,,,,,,,,,,,,,,,,,,,,,,,,,,
1703496090.308932,1703496090.310001,120.000000,0.000000,4209.230957,4232.179688,4294.102539,4250.384766,4229.230957,4217.179688,4276.153809,4241.410156,4215.384766,4214.358887,4515.000000,4465.000000,4405.384766,4446.282227,6678.000000,3.000000,74.000000,,,,0.000000,4.000000,4.000000,4.000000,4.000000,4.000000,4.000000,4.000000,4.000000,4.000000,4.000000,4.000000,4.000000,4.000000,4.000000,100.000000,,,,,,,,,,,,,,,,,30.000000,0.000000,0.683520,0.292114,-0.618469,0.254883,0.983518,0.088878,0.065438,-19.133728,-39.061211,69.389366
1703496090.316740,1703496090.317809,121.000000,0.000000,4226.282227,4237.563965,4310.897461,4261.794922,4229.743652,4218.461426,4275.256348,4234.487305,4218.974121,4213.974121,4520.769043,4478.461426,4413.077148,4462.692383,6431.000000,3.000000,74.000000,,,,0.000000,4.000000,4.000000,4.000000,4.000000,4.000000,4.000000,4.000000,4.000000,4.000000,4.000000,4.000000,4.000000,4.000000,4.000000,100.000000,,,,,,,,,,,,,,,,,,,,,,,,,,,,
1703496090.324548,1703496090.325517,122.000000,0.000000,4234.102539,4240.769043,4321.922852,4267.563965,4227.307617,4218.846191,4278.846191,4226.794922,4216.410156,4212.948730,4529.871582,4488.846191,4425.256348,4480.897461,5945.000000,3.000000,74.000000,,,,0.000000,4.000000,4.000000,4.000000,4.000000,4.000000,4.000000,4.000000,4.000000,4.000000,4.000000,4.000000,4.000000,4.000000,4.000000,100.000000,,,,,,,,,,,,,,,,,,,,,,,,,,,,
1703496090.332357,1703496090.333425,123.000000,0.000000,4243.846191,4250.769043,4328.205078,4269.487305,4232.051270,4216.025879,4280.769043,4229.358887,4214.230957,4221.410156,4546.282227,4501.025879,4440.384766,4489.102539,6185.000000,3.000000,74.000000,,,,0.000000,4.000000,4.000000,4.000000,4.000000,4.000000,4.000000,4.000000,4.000000,4.000000,4.000000,4.000000,4.000000,4.000000,4.000000,100.000000,,,,,,,,,,,,,,,,,,,,,,,,,,,,
1703496090.340165,1703496090.341233,124.000000,0.000000,4254.743652,4255.256348,4337.436035,4279.358887,4235.512695,4215.897461,4280.000000,4241.025879,4225.128418,4237.307617,4563.846191,4515.128418,4452.436035,4506.153809,6678.000000,3.000000,74.000000,,,,0.000000,4.000000,4.000000,4.000000,4.000000,4.000000,4.000000,4.000000,4.000000,4.000000,4.000000,4.000000,4.000000,4.000000,4.000000,100.000000,,,,,,,,,,,,,,,,,31.000000,0.000000,0.683497,0.292114,-0.618469,0.254944,0.991332,0.072763,0.076181,-19.003689,-38.921757,69.150429
1703496090.347973,1703496090.349141,125.000000,0.000000,4254.358887,4252.692383,4336.153809,4281.666504,4233.333496,4215.512695,4278.333496,4249.102539,4233.846191,4242.563965,4556.538574,4507.051270,4442.820313,4512.563965,6431.000000,3.000000,74.000000,,,,0.000000,4.000000,4.000000,4.000000,4.000000,4.000000,4.000000,4.000000,4.000000,4.000000,4.000000,4.000000,4.000000,4.000000,4.000000,100.000000,,,,,,,,,,,,,,,,,,,,,,,,,,,,
1703496090.355781,1703496090.356949,126.000000,0.000000,4238.717773,4246.410156,4318.333496,4264.102539,4231.794922,4219.487305,4281.410156,4257.051270,4239.358887,4241.922852,4536.153809,4485.512695,4430.641113,4490.769043,5945.000000,3.000000,74.000000,,,,0.000000,4.000000,4.000000,4.000000,4.000000,4.000000,4.000000,4.000000,4.000000,4.000000,4.000000,4.000000,4.000000,4.000000,4.000000,100.000000,,,,,,,,,,,,,,,,,,,,,,,,,,,,
1703496090.363589,1703496090.364857,127.000000,0.000000,4218.846191,4235.128418,4300.641113,4250.897461,4232.948730,4236.666504,4285.512695,4266.794922,4247.820313,4240.897461,4529.743652,4474.230957,4430.769043,4469.358887,74.000000,3.000000,74.000000,,,,0.000000,4.000000,4.000000,4.000000,4.000000,4.000000,4.000000,4.000000,4.000000,4.000000,4.000000,4.000000,4.000000,4.000000,4.000000,100.000000,,,,,,,,,,,,,,,,,,,,,,,,,,,,
1703496090.371397,1703496090.372665,0.000000,0.000000,4201.282227,4222.692383,4287.436035,4246.922852,4235.641113,4250.769043,4287.820313,4268.205078,4248.846191,4225.897461,4523.717773,4466.153809,4417.692383,4455.512695,4769.000000,3.000000,74.000000,,,,0.000000,4.000000,4.000000,4.000000,4.000000,4.000000,4.000000,4.000000,4.000000,4.000000,4.000000,4.000000,4.000000,4.000000,4.000000,100.000000,,,,,,,,,,,,,,,,,0.000000,0.000000,0.683455,0.292236,-0.618408,0.255066,0.987425,0.080576,0.067879,-18.969986,-38.996246,69.052055
1703496090.379205,1703496090.380572,1.000000,0.000000,4193.333496,4210.897461,4281.922852,4236.794922,4232.948730,4247.307617,4287.948730,4261.666504,4234.230957,4204.102539,4511.794922,4458.589844,4400.769043,4440.512695,5634.000000,3.000000,74.000000,,,,0.000000,4.000000,4.000000,4.000000,4.000000,4.000000,4.000000,4.000000,4.000000,4.000000,4.000000,4.000000,4.000000,4.000000,4.000000,100.000000,,,,,,,,,,,,,,,,,,,,,,,,,,,,
1703496090.387013,1703496090.388380,2.000000,0.000000,4201.922852,4209.615234,4289.230957,4232.948730,4221.538574,4236.922852,4283.846191,4253.717773,4218.974121,4194.871582,4505.641113,4459.358887,4402.563965,4439.487305,5419.000000,3.000000,74.000000,,,,0.000000,4.000000,4.000000,4.000000,4.000000,4.000000,4.000000,4.000000,4.000000,4.000000,4.000000,4.000000,4.000000,4.000000,4.000000,100.000000,,,,,,,,,,,,,,,,,,,,,,,,,,,,
1703496090.394821,1703496090.396288,3.000000,0.000000,4214.358887,4221.538574,4297.563965,4245.641113,4215.512695,4232.563965,4280.000000,4239.487305,4214.358887,4198.589844,4507.692383,4463.846191,4410.512695,4455.384766,5432.000000,3.000000,74.000000,,,,0.000000,4.000000,4.000000,4.000000,4.000000,4.000000,4.000000,4.000000,4.000000,4.000000,4.000000,4.000000,4.000000,4.000000,4.000000,100.000000,,,,,,,,,,,,,,,,,,,,,,,,,,,,
1703496090.402629,1703496090.404096,4.000000,0.000000,4222.307617,4232.307617,4303.077148,4257.820313,4224.871582,4230.769043,4278.846191,4231.025879,4212.692383,4199.871582,4514.615234,4468.333496,4413.077148,4470.000000,5337.000000,3.000000,74.000000,,,,0.000000,4.000000,4.000000,4.000000,4.000000,4.000000,4.000000,4.000000,4.000000,4.000000,4.000000,4.000000,4.000000,4.000000,4.000000,100.000000,,,,,,,,,,,,,,,,,1.000000,0.000000,0.683556,0.292236,-0.618347,0.254944,0.982053,0.094738,0.069833,-18.989655,-38.813290,69.130180
1703496090.410437,1703496090.411804,5.000000,0.000000,4234.230957,4239.487305,4313.333496,4264.487305,4233.333496,4230.641113,4281.025879,4238.589844,4211.410156,4195.641113,4525.384766,4473.974121,4421.282227,4479.871582,4963.000000,3.000000,74.000000,,,,0.000000,4.000000,4.000000,4.000000,4.000000,4.000000,4.000000,4.000000,4.000000,4.000000,4.000000,4.000000,4.000000,4.000000,4.000000,100.000000,,,,,,,,,,,,,,,,,,,,,,,,,,,,
1703496090.418245,1703496090.419612,6.000000,0.000000,4251.153809,4248.333496,4325.897461,4275.384766,4234.102539,4233.589844,4286.282227,4246.025879,4213.461426,4204.743652,4538.846191,4483.974121,4436.666504,4490.128418,2717.000000,3.000000,74.000000,,,,0.000000,4.000000,4.000000,4.000000,4.000000,4.000000,4.000000,4.000000,4.000000,4.000000,4.000000,4.000000,4.000000,4.000000,4.000000,100.000000,,,,,,,,,,,,,,,,,,,,,,,,,,,,
1703496090.426053,1703496090.427320,7.000000,0.000000,4255.000000,4253.205078,4326.282227,4283.333496,4240.256348,4233.461426,4285.128418,4244.871582,4215.384766,4227.563965,4546.538574,4491.538574,4445.000000,4495.641113,4053.000000,3.000000,74.000000,,,,0.000000,4.000000,4.000000,4.000000,4.000000,4.000000,4.000000,4.000000,4.000000,4.000000,4.000000,4.000000,4.000000,4.000000,4.000000,100.000000,,,,,,,,,,,,,,,,,,,,,,,,,,,,
1703496090.433861,1703496090.435128,8.000000,0.000000,4250.384766,4250.512695,4315.897461,4280.128418,4244.230957,4229.487305,4280.384766,4248.333496,4214.487305,4233.589844,4547.692383,4488.974121,4447.692383,4495.384766,4128.000000,3.000000,74.000000,,,,0.000000,4.000000,4.000000,4.000000,4.000000,4.000000,4.000000,4.000000,4.000000,4.000000,4.000000,4.000000,4.000000,4.000000,4.000000,100.000000,,,,,,,,,,,,,,,,,2.000000,0.000000,0.683546,0.292419,-0.618347,0.254761,0.966427,0.089366,0.062019,-19.057356,-38.898628,69.083832
1703496090.441669,1703496090.442836,9.000000,0.000000,4245.256348,4245.897461,4315.512695,4273.333496,4237.692383,4227.436035,4281.794922,4255.897461,4219.102539,4223.205078,4550.000000,4485.256348,4447.692383,4488.589844,5624.000000,3.000000,74.000000,,,,0.000000,4.000000,4.000000,4.000000,4.000000,4.000000,4.000000,4.000000,4.000000,4.000000,4.000000,4.000000,4.000000,4.000000,4.000000,100.000000,,,,,,,,,,,,,,,,,,,,,,,,,,,,
1703496090.449477,1703496090.450644,10.000000,0.000000,4238.846191,4246.282227,4319.487305,4273.846191,4233.205078,4229.102539,4284.487305,4260.897461,4229.615234,4235.000000,4554.871582,4493.717773,4448.205078,4479.615234,5938.000000,3.000000,74.000000,,,,0.000000,4.000000,4.000000,4.000000,4.000000,4.000000,4.000000,4.000000,4.000000,4.000000,4.000000,4.000000,4.000000,4.000000,4.000000,100.000000,,,,,,,,,,,,,,,,,,,,,,,,,,,,
1703496090.457285,1703496090.458352,11.000000,0.000000,4240.769043,4249.230957,4313.974121,4277.563965,4235.256348,4226.282227,4282.051270,4274.102539,4234.230957,4251.282227,4556.922852,4502.307617,4450.000000,4483.205078,6194.000000,3.000000,74.000000,,,,0.000000,4.000000,4.000000,4.000000,4.000000,4.000000,4.000000,4.000000,4.000000,4.000000,4.000000,4.000000,4.000000,4.000000,4.000000,100.000000,,,,,,,,,,,,,,,,,,,,,,,,,,,,
1703496090.465093,1703496090.466160,12.000000,0.000000,4242.307617,4240.769043,4307.179688,4268.974121,4235.769043,4218.461426,4279.230957,4283.333496,4234.615234,4242.307617,4556.153809,4498.077148,4452.820313,4495.897461,6680.000000,3.000000,74.000000,,,,0.000000,4.000000,4.000000,4.000000,4.000000,4.000000,4.000000,4.000000,4.000000,4.000000,4.000000,4.000000,4.000000,4.000000,4.000000,100.000000,,,,,,,,,,,,,,,,,3.000000,0.000000,0.683568,0.292603,-0.618286,0.254639,0.986449,0.092785,0.065438,-18.901619,-38.892097,69.125450
1703496090.472901,1703496090.473868,13.000000,0.000000,4228.205078,4222.692383,4305.128418,4257.692383,4227.436035,4216.025879,4277.948730,4270.512695,4239.230957,4234.358887,4552.563965,4487.436035,4448.717773,4492.820313,6431.000000,3.000000,74.000000,,,,0.000000,4.000000,4.000000,4.000000,4.000000,4.000000,4.000000,4.000000,4.000000,4.000000,4.000000,4.000000,4.000000,4.000000,4.000000,100.000000,,,,,,,,,,,,,,,,,,,,,,,,,,,,
1703496090.480709,1703496090.481676,14.000000,0.000000,4214.743652,4221.794922,4301.794922,4261.410156,4220.512695,4219.487305,4278.589844,4253.974121,4232.948730,4231.538574,4534.615234,4472.948730,4427.820313,4463.974121,5938.000000,3.000000,74.000000,,,,0.000000,4.000000,4.000000,4.000000,4.000000,4.000000,4.000000,4.000000,4.000000,4.000000,4.000000,4.000000,4.000000,4.000000,4.000000,100.000000,,,,,,,,,,,,,,,,,,,,,,,,,,,,
1703496090.488517,1703496090.489384,15.000000,0.000000,4214.871582,4229.358887,4297.179688,4261.410156,4226.538574,4217.307617,4278.589844,4245.000000,4216.282227,4213.333496,4505.000000,4453.077148,4405.769043,4433.333496,6194.000000,3.000000,74.000000,,,,0.000000,4.000000,4.000000,4.000000,4.000000,4.000000,4.000000,4.000000,4.000000,4.000000,4.000000,4.000000,4.000000,4.000000,4.000000,100.000000,,,,,,,,,,,,,,,,,,,,,,,,,,,,
1703496090.496326,1703496090.497192,16.000000,0.000000,4216.153809,4228.974121,4298.461426,4253.461426,4233.846191,4216.538574,4275.769043,4235.256348,4213.461426,4187.436035,4489.102539,4442.948730,4395.128418,4429.102539,0.000000,3.000000,74.000000,,,,0.000000,4.000000,4.000000,4.000000,4.000000,4.000000,4.000000,4.000000,4.000000,4.000000,4.000000,4.000000,4.000000,4.000000,4.000000,100.000000,,,,,,,,,,,,,,,,,4.000000,0.000000,0.683743,0.292664,-0.618164,0.254395,0.994750,0.105970,0.064949,-18.794790,-38.769554,69.079567
1703496090.504134,1703496090.504901,17.000000,0.000000,4220.256348,4227.948730,4304.102539,4257.179688,4231.538574,4226.538574,4278.333496,4223.333496,4217.436035,4187.692383,4492.692383,4451.666504,4396.282227,4437.436035,0.000000,3.000000,74.000000,,,,0.000000,4.000000,4.000000,4.000000,4.000000,4.000000,4.000000,4.000000,4.000000,4.000000,4.000000,4.000000,4.000000,4.000000,4.000000,100.000000,,,,,,,,,,,,,,,,,,,,,,,,,,,,
1703496090.511942,1703496090.512808,18.000000,0.000000,4231.025879,4232.692383,4308.461426,4265.641113,4229.358887,4232.820313,4284.230957,4217.436035,4210.641113,4205.641113,4507.307617,4463.205078,4412.436035,4444.615234,0.000000,3.000000,74.000000,,,,0.000000,4.000000,4.000000,4.000000,4.000000,4.000000,4.000000,4.000000,4.000000,4.000000,4.000000,4.000000,4.000000,4.000000,4.000000,100.000000,,,,,,,,,,,,,,,,,,,,,,,,,,,,
1703496090.519750,1703496090.520616,19.000000,0.000000,4237.563965,4240.897461,4313.589844,4266.025879,4236.410156,4230.512695,4282.563965,4223.717773,4210.897461,4210.000000,4518.589844,4477.820313,4428.717773,4462.948730,0.000000,3.000000,74.000000,,,,0.000000,4.000000,4.000000,4.000000,4.000000,4.000000,4.000000,4.000000,4.000000,4.000000,4.000000,4.000000,4.000000,4.000000,4.000000,100.000000,,,,,,,,,,,,,,,,,,,,,,,,,,,,
1703496090.527558,1703496090.528424,20.000000,0.000000,4243.461426,4244.743652,4318.077148,4266.025879,4240.512695,4231.538574,4279.487305,4238.717773,4226.282227,4207.948730,4523.461426,4492.692383,4432.179688,4480.256348,0.000000,3.000000,74.000000,,,,0.000000,4.000000,4.000000,4.000000,4.000000,4.000000,4.000000,4.000000,4.000000,4.000000,4.000000,4.000000,4.000000,4.000000,4.000000,100.000000,,,,,,,,,,,,,,,,,5.000000,0.000000,0.683743,0.292664,-0.618164,0.254395,0.997680,0.083506,0.062508,-18.781979,-38.909267,69.121613
1703496090.535366,1703496090.536132,21.000000,0.000000,4245.000000,4239.487305,4313.461426,4267.436035,4236.282227,4234.871582,4283.589844,4245.512695,4228.589844,4210.769043,4525.384766,4485.897461,4429.743652,4476.410156,0.000000,3.000000,74.000000,,,,0.000000,4.000000,4.000000,4.000000,4.000000,4.000000,4.000000,4.000000,4.000000,4.000000,4.000000,4.000000,4.000000,4.000000,4.000000,100.000000,,,,,,,,,,,,,,,,,,,,,,,,,,,,
1703496090.543174,1703496090.544040,22.000000,0.000000,4239.871582,4232.820313,4306.282227,4265.000000,4237.436035,4235.128418,4284.871582,4251.025879,4221.282227,4221.282227,4526.410156,4473.589844,4432.307617,4477.436035,0.000000,3.000000,74.000000,,,,0.000000,4.000000,4.000000,4.000000,4.000000,4.000000,4.000000,4.000000,4.000000,4.000000,4.000000,4.000000,4.000000,4.000000,4.000000,100.000000,,,,,,,,,,,,,,,,,,,,,,,,,,,,
1703496090.550982,1703496090.551848,23.000000,0.000000,4233.333496,4235.512695,4301.025879,4262.948730,4242.820313,4235.128418,4281.538574,4263.974121,4227.307617,4228.333496,4529.615234,4473.205078,4437.179688,4480.897461,0.000000,3.000000,74.000000,,,,0.000000,4.000000,4.000000,4.000000,4.000000,4.000000,4.000000,4.000000,4.000000,4.000000,4.000000,4.000000,4.000000,4.000000,4.000000,100.000000,,,,,,,,,,,,,,,,,,,,,,,,,,,,
1703496090.558790,1703496090.559756,24.000000,0.000000,4222.179688,4233.846191,4295.512695,4262.563965,4238.461426,4235.256348,4282.820313,4268.974121,4236.153809,4224.743652,4528.461426,4473.333496,4432.563965,4457.820313,0.000000,3.000000,74.000000,,,,0.000000,4.000000,4.000000,4.000000,4.000000,4.000000,4.000000,4.000000,4.000000,4.000000,4.000000,4.000000,4.000000,4.000000,4.000000,100.000000,,,,,,,,,,,,,,,,,6.000000,0.000000,0.683669,0.292603,-0.618225,0.254517,0.991820,0.074228,0.066414,-18.770447,-38.868340,69.326118
1703496090.566598,1703496090.567564,25.000000,0.000000,4212.692383,4223.333496,4292.820313,4258.205078,4231.410156,4235.128418,4282.436035,4265.769043,4236.025879,4223.333496,4522.948730,4466.666504,4425.000000,4442.179688,0.000000,3.000000,74.000000,,,,0.000000,4.000000,4.000000,4.000000,4.000000,4.000000,4.000000,4.000000,4.000000,4.000000,4.000000,4.000000,4.000000,4.000000,4.000000,100.000000,,,,,,,,,,,,,,,,,,,,,,,,,,,,
1703496090.574406,1703496090.575472,26.000000,0.000000,4213.333496,4215.128418,4289.230957,4249.871582,4234.230957,4235.897461,4277.563965,4263.589844,4235.256348,4229.615234,4522.820313,4461.410156,4427.820313,4447.692383,0.000000,3.000000,74.000000,,,,0.000000,4.000000,4.000000,4.000000,4.000000,4.000000,4.000000,4.000000,4.000000,4.000000,4.000000,4.000000,4.000000,4.000000,4.000000,100.000000,,,,,,,,,,,,,,,,,,,,,,,,,,,,
1703496090.582214,1703496090.583280,27.000000,0.000000,4214.102539,4211.922852,4286.922852,4245.384766,4234.358887,4233.077148,4274.358887,4256.794922,4235.512695,4230.897461,4519.230957,4458.846191,4427.179688,4442.179688,0.000000,3.000000,74.000000,,,,0.000000,4.000000,4.000000,4.000000,4.000000,4.000000,4.000000,4.000000,4.000000,4.000000,4.000000,4.000000,4.000000,4.000000,4.000000,100.000000,,,,,,,,,,,,,,,,,,,,,,,,,,,,
1703496090.590022,1703496090.591188,28.000000,0.000000,4219.102539,4222.051270,4292.307617,4255.384766,4229.743652,4231.153809,4272.563965,4235.897461,4230.256348,4225.128418,4506.922852,4452.692383,4413.205078,4432.563965,0.000000,3.000000,74.000000,,,,0.000000,4.000000,4.000000,4.000000,4.000000,4.000000,4.000000,4.000000,4.000000,4.000000,4.000000,4.000000,4.000000,4.000000,4.000000,100.000000,,,,,,,,,,,,,,,,,7.000000,0.000000,0.683627,0.292358,-0.618286,0.254761,0.978147,0.079600,0.061043,-18.860069,-38.998173,69.426842
1703496090.597830,1703496090.598996,29.000000,0.000000,4238.974121,4239.615234,4303.461426,4272.051270,4234.615234,4234.743652,4273.589844,4216.538574,4228.589844,4223.717773,4500.384766,4454.871582,4407.692383,4444.358887,0.000000,3.000000,74.000000,,,,0.000000,4.000000,4.000000,4.000000,4.000000,4.000000,4.000000,4.000000,4.000000,4.000000,4.000000,4.000000,4.000000,4.000000,4.000000,100.000000,,,,,,,,,,,,,,,,,,,,,,,,,,,,
1703496090.605638,1703496090.606704,30.000000,0.000000,4252.820313,4248.717773,4313.077148,4279.871582,4244.102539,4232.948730,4279.487305,4218.589844,4233.333496,4216.666504,4511.410156,4467.948730,4420.512695,4466.153809,0.000000,3.000000,74.000000,,,,0.000000,4.000000,4.000000,4.000000,4.000000,4.000000,4.000000,4.000000,4.000000,4.000000,4.000000,4.000000,4.000000,4.000000,4.000000,100.000000,,,,,,,,,,,,,,,,,,,,,,,,,,,,
1703496090.613446,1703496090.614512,31.000000,0.000000,4251.666504,4250.384766,4317.307617,4280.897461,4249.358887,4231.025879,4281.666504,4231.538574,4235.256348,4214.743652,4526.794922,4484.487305,4433.333496,4478.717773,0.000000,3.000000,74.000000,,,,0.000000,4.000000,4.000000,4.000000,4.000000,4.000000,4.000000,4.000000,4.000000,4.000000,4.000000,4.000000,4.000000,4.000000,4.000000,100.000000,,,,,,,,,,,,,,,,,,,,,,,,,,,,
1703496090.621254,1703496090.622220,32.000000,0.000000,4247.563965,4246.025879,4317.563965,4276.282227,4246.410156,4241.666504,4279.615234,4235.641113,4237.051270,4223.333496,4532.051270,4491.922852,4433.717773,4477.436035,0.000000,3.000000,74.000000,,,,0.000000,4.000000,4.000000,4.000000,4.000000,4.000000,4.000000,4.000000,4.000000,4.000000,4.000000,4.000000,4.000000,4.000000,4.000000,100.000000,,,,,,,,,,,,,,,,,8.000000,0.000000,0.683630,0.292297,-0.618286,0.254822,0.986937,0.080088,0.065926,-18.757397,-39.031689,69.384155
1703496090.629062,1703496090.630028,33.000000,0.000000,4235.512695,4236.794922,4308.846191,4267.179688,4243.077148,4246.922852,4276.153809,4231.922852,4238.461426,4217.179688,4524.102539,4477.051270,4428.077148,4463.717773,0.000000,3.000000,74.000000,,,,0.000000,4.000000,4.000000,4.000000,4.000000,4.000000,4.000000,4.000000,4.000000,4.000000,4.000000,4.000000,4.000000,4.000000,4.000000,100.000000,,,,,,,,,,,,,,,,,,,,,,,,,,,,
1703496090.636871,1703496090.637736,34.000000,0.000000,4217.436035,4226.666504,4295.384766,4260.641113,4241.922852,4237.307617,4276.666504,4231.922852,4226.922852,4210.256348,4512.051270,4456.410156,4421.666504,4450.897461,0.000000,3.000000,74.000000,,,,0.000000,4.000000,4.000000,4.000000,4.000000,4.000000,4.000000,4.000000,4.000000,4.000000,4.000000,4.000000,4.000000,4.000000,4.000000,100.000000,,,,,,,,,,,,,,,,,,,,,,,,,,,,
1703496090.644678,1703496090.645544,35.000000,0.000000,4213.077148,4218.717773,4292.692383,4254.871582,4236.153809,4233.589844,4276.922852,4233.717773,4220.000000,4215.256348,4506.282227,4451.153809,4415.512695,4443.846191,0.000000,3.000000,74.000000,,,,0.000000,4.000000,4.000000,4.000000,4.000000,4.000000,4.000000,4.000000,4.000000,4.000000,4.000000,4.000000,4.000000,4.000000,4.000000,100.000000,,,,,,,,,,,,,,,,,,,,,,,,,,,,
1703496090.652486,1703496090.653252,36.000000,0.000000,4217.692383,4213.461426,4297.307617,4248.717773,4230.256348,4236.922852,4271.025879,4230.384766,4231.538574,4213.205078,4504.487305,4456.282227,4410.256348,4443.077148,0.000000,3.000000,74.000000,,,,0.000000,4.000000,4.000000,4.000000,4.000000,4.000000,4.000000,4.000000,4.000000,4.000000,4.000000,4.000000,4.000000,4.000000,4.000000,100.000000,,,,,,,,,,,,,,,,,9.000000,0.000000,0.683608,0.292114,-0.618347,0.254944,0.995239,0.086925,0.054206,-18.664989,-39.095184,69.312408
1703496090.660295,1703496090.661160,37.000000,0.000000,4215.000000,4215.641113,4296.153809,4250.641113,4230.128418,4233.589844,4268.333496,4230.256348,4231.922852,4210.256348,4505.897461,4457.692383,4409.102539,4442.436035,0.000000,3.000000,74.000000,,,,0.000000,4.000000,4.000000,4.000000,4.000000,4.000000,4.000000,4.000000,4.000000,4.000000,4.000000,4.000000,4.000000,4.000000,4.000000,100.000000,,,,,,,,,,,,,,,,,,,,,,,,,,,,
1703496090.668103,1703496090.668968,38.000000,0.000000,4218.717773,4225.128418,4297.692383,4260.000000,4231.666504,4229.871582,4269.487305,4242.307617,4222.307617,4225.256348,4516.282227,4461.410156,4418.846191,4441.538574,0.000000,3.000000,74.000000,,,,0.000000,4.000000,4.000000,4.000000,4.000000,4.000000,4.000000,4.000000,4.000000,4.000000,4.000000,4.000000,4.000000,4.000000,4.000000,100.000000,,,,,,,,,,,,,,,,,,,,,,,,,,,,
1703496090.675911,1703496090.676876,39.000000,0.000000,4233.333496,4233.077148,4305.384766,4265.384766,4231.666504,4230.128418,4264.358887,4253.077148,4228.077148,4234.871582,4524.102539,4468.974121,4425.641113,4448.974121,0.000000,3.000000,74.000000,,,,0.000000,4.000000,4.000000,4.000000,4.000000,4.000000,4.000000,4.000000,4.000000,4.000000,4.000000,4.000000,4.000000,4.000000,4.000000,100.000000,,,,,,,,,,,,,,,,,,,,,,,,,,,,
1703496090.683719,1703496090.684684,40.000000,0.000000,4240.256348,4237.051270,4307.820313,4266.922852,4231.538574,4227.692383,4261.794922,4250.384766,4233.205078,4229.487305,4522.692383,4473.846191,4423.333496,4460.256348,0.000000,3.000000,74.000000,,,,0.000000,4.000000,4.000000,4.000000,4.000000,4.000000,4.000000,4.000000,4.000000,4.000000,4.000000,4.000000,4.000000,4.000000,4.000000,100.000000,,,,,,,,,,,,,,,,,10.000000,0.000000,0.683660,0.291992,-0.618347,0.254944,0.994262,0.081065,0.069833,-18.915157,-39.185669,69.231163
1703496090.691527,1703496090.692591,41.000000,0.000000,4237.820313,4234.871582,4307.179688,4266.025879,4232.307617,4223.717773,4264.102539,4252.436035,4228.333496,4234.487305,4528.461426,4479.743652,4426.666504,4463.461426,0.000000,3.000000,74.000000,,,,0.000000,4.000000,4.000000,4.000000,4.000000,4.000000,4.000000,4.000000,4.000000,4.000000,4.000000,4.000000,4.000000,4.000000,4.000000,100.000000,,,,,,,,,,,,,,,,,,,,,,,,,,,,
1703496090.699335,1703496090.700399,42.000000,0.000000,4242.820313,4231.153809,4313.461426,4263.974121,4231.025879,4218.333496,4262.307617,4265.897461,4231.025879,4233.846191,4536.666504,4488.205078,4433.461426,4458.333496,0.000000,3.000000,74.000000,,,,0.000000,4.000000,4.000000,4.000000,4.000000,4.000000,4.000000,4.000000,4.000000,4.000000,4.000000,4.000000,4.000000,4.000000,4.000000,100.000000,1.000000,83.333336,4.000000,3.000000,3.000000,4.000000,4.000000,4.000000,4.000000,4.000000,4.000000,4.000000,4.000000,4.000000,4.000000,4.000000,,,,,,,,,,,,
1703496090.707143,1703496090.708307,43.000000,0.000000,4251.025879,4233.717773,4316.410156,4268.077148,4228.589844,4216.282227,4260.384766,4270.641113,4232.436035,4220.641113,4532.179688,4489.230957,4434.358887,4467.051270,0.000000,3.000000,74.000000,,,,0.000000,4.000000,4.000000,4.000000,4.000000,4.000000,4.000000,4.000000,4.000000,4.000000,4.000000,4.000000,4.000000,4.000000,4.000000,100.000000,,,,,,,,,,,,,,,,,,,,,,,,,,,,
1703496090.714951,1703496090.716115,44.000000,0.000000,4242.948730,4230.000000,4305.000000,4265.384766,4230.000000,4224.871582,4262.051270,4258.205078,4229.871582,4215.384766,4523.974121,4470.769043,4428.077148,4478.333496,0.000000,3.000000,74.000000,,,,0.000000,4.000000,4.000000,4.000000,4.000000,4.000000,4.000000,4.000000,4.000000,4.000000,4.000000,4.000000,4.000000,4.000000,4.000000,100.000000,,,,,,,,,,,,,,,,,11.000000,0.000000,0.683634,0.291870,-0.618408,0.255005,0.989867,0.088878,0.057624,-18.956974,-39.133766,69.241386
1703496090.722759,1703496090.724023,45.000000,0.000000,4226.666504,4221.025879,4292.692383,4253.077148,4234.358887,4234.615234,4262.307617,4246.410156,4232.820313,4220.384766,4517.179688,4456.410156,4418.205078,4466.282227,0.000000,3.000000,74.000000,,,,0.000000,4.000000,4.000000,4.000000,4.000000,4.000000,4.000000,4.000000,4.000000,4.000000,4.000000,4.000000,4.000000,4.000000,4.000000,100.000000,,,,,,,,,,,,,,,,,,,,,,,,,,,,
1703496090.730567,1703496090.731831,46.000000,0.000000,4217.563965,4214.102539,4286.666504,4247.692383,4234.871582,4234.487305,4263.589844,4253.205078,4234.102539,4217.179688,4511.282227,4461.025879,4413.846191,4447.948730,0.000000,3.000000,74.000000,,,,0.000000,4.000000,4.000000,4.000000,4.000000,4.000000,4.000000,4.000000,4.000000,4.000000,4.000000,4.000000,4.000000,4.000000,4.000000,100.000000,,,,,,,,,,,,,,,,,,,,,,,,,,,,
1703496090.738375,1703496090.739739,47.000000,0.000000,4211.794922,4206.153809,4284.230957,4245.256348,4229.615234,4231.666504,4263.846191,4265.000000,4232.307617,4200.512695,4502.563965,4459.871582,4406.794922,4438.461426,0.000000,3.000000,74.000000,,,,0.000000,4.000000,4.000000,4.000000,4.000000,4.000000,4.000000,4.000000,4.000000,4.000000,4.000000,4.000000,4.000000,4.000000,4.000000,100.000000,,,,,,,,,,,,,,,,,,,,,,,,,,,,
1703496090.746183,1703496090.747547,48.000000,0.000000,4209.102539,4202.948730,4287.948730,4239.102539,4222.563965,4233.717773,4258.717773,4261.410156,4232.436035,4194.230957,4497.692383,4455.641113,4397.948730,4431.794922,0.000000,3.000000,74.000000,,,,0.000000,4.000000,4.000000,4.000000,4.000000,4.000000,4.000000,4.000000,4.000000,4.000000,4.000000,4.000000,4.000000,4.000000,4.000000,100.000000,,,,,,,,,,,,,,,,,12.000000,0.000000,0.683504,0.291992,-0.618469,0.255066,0.988402,0.081553,0.065926,-18.961277,-39.170391,69.333908
1703496090.753991,1703496090.755455,49.000000,0.000000,4216.282227,4204.230957,4294.102539,4239.487305,4216.282227,4229.358887,4257.948730,4258.205078,4230.128418,4208.974121,4513.717773,4467.436035,4412.179688,4438.846191,0.000000,3.000000,74.000000,,,,0.000000,4.000000,4.000000,4.000000,4.000000,4.000000,4.000000,4.000000,4.000000,4.000000,4.000000,4.000000,4.000000,4.000000,4.000000,100.000000,,,,,,,,,,,,,,,,,,,,,,,,,,,,
1703496090.761799,1703496090.763263,50.000000,0.000000,4219.230957,4205.256348,4297.820313,4242.436035,4217.051270,4220.256348,4258.846191,4261.794922,4222.436035,4211.794922,4528.717773,4479.743652,4427.051270,4457.692383,0.000000,3.000000,74.000000,,,,0.000000,4.000000,4.000000,4.000000,4.000000,4.000000,4.000000,4.000000,4.000000,4.000000,4.000000,4.000000,4.000000,4.000000,4.000000,100.000000,,,,,,,,,,,,,,,,,,,,,,,,,,,,
1703496090.769607,1703496090.771171,51.000000,0.000000,4216.153809,4208.717773,4296.153809,4241.538574,4225.512695,4218.333496,4252.820313,4261.538574,4216.153809,4201.410156,4522.948730,4477.436035,4419.358887,4463.846191,0.000000,3.000000,74.000000,,,,0.000000,4.000000,4.000000,4.000000,4.000000,4.000000,4.000000,4.000000,4.000000,4.000000,4.000000,4.000000,4.000000,4.000000,4.000000,100.000000,,,,,,,,,,,,,,,,,,,,,,,,,,,,
1703496090.777415,1703496090.778979,52.000000,0.000000,4227.051270,4219.102539,4297.051270,4250.897461,4232.436035,4218.717773,4250.512695,4260.384766,4216.410156,4210.769043,4526.794922,4479.743652,4423.974121,4467.436035,0.000000,3.000000,74.000000,,,,0.000000,4.000000,4.000000,4.000000,4.000000,4.000000,4.000000,4.000000,4.000000,4.000000,4.000000,4.000000,4.000000,4.000000,4.000000,100.000000,,,,,,,,,,,,,,,,,13.000000,0.000000,0.683461,0.292114,-0.618408,0.255188,0.978635,0.088878,0.069344,-18.848482,-39.020020,69.300522
1703496090.785223,1703496090.786687,53.000000,0.000000,4241.922852,4228.846191,4306.410156,4263.205078,4235.000000,4215.641113,4252.820313,4256.922852,4219.358887,4219.615234,4539.615234,4491.538574,4440.128418,4479.102539,0.000000,3.000000,74.000000,,,,0.000000,4.000000,4.000000,4.000000,4.000000,4.000000,4.000000,4.000000,4.000000,4.000000,4.000000,4.000000,4.000000,4.000000,4.000000,100.000000,,,,,,,,,,,,,,,,,,,,,,,,,,,,
1703496090.793031,1703496090.794495,54.000000,0.000000,4251.410156,4234.230957,4315.256348,4266.538574,4233.974121,4214.615234,4250.128418,4247.692383,4219.230957,4217.820313,4541.538574,4494.743652,4442.307617,4487.051270,0.000000,3.000000,74.000000,,,,0.000000,4.000000,4.000000,4.000000,4.000000,4.000000,4.000000,4.000000,4.000000,4.000000,4.000000,4.000000,4.000000,4.000000,4.000000,100.000000,,,,,,,,,,,,,,,,,,,,,,,,,,,,
1703496090.800840,1703496090.802203,55.000000,0.000000,4262.307617,4236.282227,4318.589844,4271.794922,4234.487305,4213.589844,4250.256348,4245.128418,4217.436035,4226.922852,4549.230957,4493.717773,4448.077148,4494.230957,0.000000,3.000000,74.000000,,,,0.000000,4.000000,4.000000,4.000000,4.000000,4.000000,4.000000,4.000000,4.000000,4.000000,4.000000,4.000000,4.000000,4.000000,4.000000,100.000000,,,,,,,,,,,,,,,,,,,,,,,,,,,,
1703496090.808648,1703496090.810011,56.000000,0.000000,4262.948730,4237.436035,4317.692383,4277.692383,4241.666504,4213.846191,4255.000000,4248.974121,4223.717773,4231.153809,4557.307617,4494.743652,4451.666504,4500.769043,0.000000,3.000000,74.000000,,,,0.000000,4.000000,4.000000,4.000000,4.000000,4.000000,4.000000,4.000000,4.000000,4.000000,4.000000,4.000000,4.000000,4.000000,4.000000,100.000000,,,,,,,,,,,,,,,,,14.000000,0.000000,0.683445,0.292175,-0.618347,0.255310,0.988402,0.080088,0.072274,-18.880301,-38.968018,69.320465
1703496090.816455,1703496090.817719,57.000000,0.000000,4243.717773,4235.128418,4308.717773,4268.846191,4245.256348,4222.307617,4250.384766,4248.589844,4231.538574,4216.282227,4541.282227,4482.051270,4433.974121,4489.743652,0.000000,3.000000,74.000000,,,,0.000000,4.000000,4.000000,4.000000,4.000000,4.000000,4.000000,4.000000,4.000000,4.000000,4.000000,4.000000,4.000000,4.000000,4.000000,100.000000,,,,,,,,,,,,,,,,,,,,,,,,,,,,
1703496090.824264,1703496090.825527,58.000000,0.000000,4218.974121,4210.897461,4291.666504,4248.333496,4230.641113,4225.769043,4247.051270,4251.538574,4231.153809,4205.641113,4517.563965,4457.692383,4412.179688,4458.333496,0.000000,3.000000,74.000000,,,,0.000000,4.000000,4.000000,4.000000,4.000000,4.000000,4.000000,4.000000,4.000000,4.000000,4.000000,4.000000,4.000000,4.000000,4.000000,100.000000,,,,,,,,,,,,,,,,,,,,,,,,,,,,
1703496090.832072,1703496090.833235,59.000000,0.000000,4196.153809,4181.410156,4274.615234,4229.615234,4213.077148,4222.307617,4248.846191,4261.410156,4229.615234,4207.692383,4506.538574,4445.000000,4395.769043,4431.025879,0.000000,3.000000,74.000000,,,,0.000000,4.000000,4.000000,4.000000,4.000000,4.000000,4.000000,4.000000,4.000000,4.000000,4.000000,4.000000,4.000000,4.000000,4.000000,100.000000,,,,,,,,,,,,,,,,,,,,,,,,,,,,
1703496090.839880,1703496090.841043,60.000000,0.000000,4180.897461,4178.974121,4271.922852,4218.333496,4211.538574,4227.179688,4246.666504,4264.743652,4233.846191,4206.282227,4499.102539,4450.769043,4385.128418,4426.282227,0.000000,3.000000,74.000000,,,,0.000000,4.000000,4.000000,4.000000,4.000000,4.000000,4.000000,4.000000,4.000000,4.000000,4.000000,4.000000,4.000000,4.000000,4.000000,100.000000,,,,,,,,,,,,,,,,,15.000000,0.000000,0.683491,0.292175,-0.618347,0.255188,0.991820,0.081065,0.061531,-18.958939,-39.037880,69.288422
1703496090.847688,1703496090.848751,61.000000,0.000000,4182.179688,4182.307617,4277.563965,4218.205078,4214.743652,4230.128418,4244.871582,4256.666504,4236.666504,4199.487305,4496.794922,4455.000000,4384.743652,4428.333496,0.000000,3.000000,74.000000,,,,0.000000,4.000000,4.000000,4.000000,4.000000,4.000000,4.000000,4.000000,4.000000,4.000000,4.000000,4.000000,4.000000,4.000000,4.000000,100.000000,,,,,,,,,,,,,,,,,,,,,,,,,,,,
1703496090.855496,1703496090.856559,62.000000,0.000000,4190.769043,4178.333496,4279.102539,4225.000000,4214.230957,4222.307617,4245.384766,4248.077148,4232.948730,4195.128418,4501.538574,4452.051270,4385.512695,4422.692383,0.000000,3.000000,74.000000,,,,0.000000,4.000000,4.000000,4.000000,4.000000,4.000000,4.000000,4.000000,4.000000,4.000000,4.000000,4.000000,4.000000,4.000000,4.000000,100.000000,,,,,,,,,,,,,,,,,,,,,,,,,,,,
1703496090.863304,1703496090.864267,63.000000,0.000000,4197.563965,4185.384766,4280.641113,4229.102539,4212.179688,4216.282227,4242.307617,4248.461426,4230.512695,4201.282227,4503.974121,4453.333496,4384.102539,4423.461426,0.000000,3.000000,74.000000,,,,0.000000,4.000000,4.000000,4.000000,4.000000,4.000000,4.000000,4.000000,4.000000,4.000000,4.000000,4.000000,4.000000,4.000000,4.000000,100.000000,,,,,,,,,,,,,,,,,,,,,,,,,,,,
1703496090.871112,1703496090.872075,64.000000,0.000000,4207.436035,4198.974121,4288.589844,4236.922852,4213.717773,4215.512695,4236.538574,4251.410156,4231.666504,4212.820313,4511.666504,4461.282227,4396.410156,4438.333496,4769.000000,3.000000,74.000000,,,,0.000000,4.000000,4.000000,4.000000,4.000000,4.000000,4.000000,4.000000,4.000000,4.000000,4.000000,4.000000,4.000000,4.000000,4.000000,100.000000,,,,,,,,,,,,,,,,,16.000000,0.000000,0.683484,0.292114,-0.618408,0.255127,0.992309,0.085948,0.061531,-19.029711,-39.100761,69.226242
1703496090.878920,1703496090.879783,65.000000,0.000000,4223.974121,4211.538574,4298.205078,4252.692383,4224.487305,4213.846191,4239.487305,4252.307617,4229.743652,4215.897461,4529.743652,4476.282227,4415.000000,4458.461426,5632.000000,3.000000,74.000000,,,,0.000000,4.000000,4.000000,4.000000,4.000000,4.000000,4.000000,4.000000,4.000000,4.000000,4.000000,4.000000,4.000000,4.000000,4.000000,100.000000,,,,,,,,,,,,,,,,,,,,,,,,,,,,
1703496090.886728,1703496090.887591,66.000000,0.000000,4241.153809,4227.820313,4306.153809,4264.615234,4236.538574,4214.230957,4244.487305,4250.897461,4222.563965,4216.025879,4537.820313,4485.512695,4417.051270,4466.538574,5419.000000,3.000000,74.000000,,,,0.000000,4.000000,4.000000,4.000000,4.000000,4.000000,4.000000,4.000000,4.000000,4.000000,4.000000,4.000000,4.000000,4.000000,4.000000,100.000000,,,,,,,,,,,,,,,,,,,,,,,,,,,,
1703496090.894536,1703496090.895299,67.000000,0.000000,4249.871582,4237.436035,4314.358887,4272.948730,4237.948730,4211.666504,4243.077148,4248.461426,4217.820313,4223.205078,4536.922852,4482.051270,4415.897461,4466.538574,5432.000000,3.000000,74.000000,,,,0.000000,4.000000,4.000000,4.000000,4.000000,4.000000,4.000000,4.000000,4.000000,4.000000,4.000000,4.000000,4.000000,4.000000,4.000000,100.000000,,,,,,,,,,,,,,,,,,,,,,,,,,,,
1703496090.902344,1703496090.903107,68.000000,0.000000,4255.256348,4238.205078,4321.794922,4281.538574,4234.743652,4208.846191,4243.846191,4244.358887,4220.256348,4223.077148,4538.461426,4479.871582,4422.179688,4476.794922,5340.000000,3.000000,74.000000,,,,0.000000,4.000000,4.000000,4.000000,4.000000,4.000000,4.000000,4.000000,4.000000,4.000000,4.000000,4.000000,4.000000,4.000000,4.000000,100.000000,,,,,,,,,,,,,,,,,17.000000,0.000000,0.683481,0.292175,-0.618408,0.255066,0.981077,0.091320,0.079600,-19.026739,-39.057350,69.103622
1703496090.910152,1703496090.910815,69.000000,0.000000,4253.974121,4235.512695,4316.538574,4276.025879,4236.410156,4211.794922,4247.563965,4244.615234,4219.871582,4202.051270,4530.641113,4476.025879,4418.077148,4479.743652,4958.000000,3.000000,74.000000,,,,0.000000,4.000000,4.000000,4.000000,4.000000,4.000000,4.000000,4.000000,4.000000,4.000000,4.000000,4.000000,4.000000,4.000000,4.000000,100.000000,,,,,,,,,,,,,,,,,,,,,,,,,,,,
1703496090.917960,1703496090.918723,70.000000,0.000000,4239.230957,4225.512695,4300.769043,4261.666504,4231.666504,4212.307617,4249.102539,4255.256348,4214.871582,4197.179688,4525.384766,4468.077148,4407.179688,4462.692383,2717.000000,3.000000,74.000000,,,,0.000000,4.000000,4.000000,4.000000,4.000000,4.000000,4.000000,4.000000,4.000000,4.000000,4.000000,4.000000,4.000000,4.000000,4.000000,100.000000,,,,,,,,,,,,,,,,,,,,,,,,,,,,
1703496090.925768,1703496090.926531,71.000000,0.000000,4232.051270,4216.538574,4297.820313,4256.410156,4222.436035,4209.487305,4242.820313,4266.025879,4221.282227,4213.846191,4537.307617,4472.692383,4409.743652,4457.436035,4053.000000,3.000000,74.000000,,,,0.000000,4.000000,4.000000,4.000000,4.000000,4.000000,4.000000,4.000000,4.000000,4.000000,4.000000,4.000000,4.000000,4.000000,4.000000,100.000000,,,,,,,,,,,,,,,,,,,,,,,,,,,,
1703496090.933576,1703496090.934439,72.000000,0.000000,4230.512695,4210.641113,4298.717773,4251.538574,4212.563965,4211.153809,4235.641113,4265.256348,4240.128418,4221.922852,4543.077148,4475.512695,4415.384766,4462.436035,4119.000000,3.000000,74.000000,,,,0.000000,4.000000,4.000000,4.000000,4.000000,4.000000,4.000000,4.000000,4.000000,4.000000,4.000000,4.000000,4.000000,4.000000,4.000000,100.000000,,,,,,,,,,,,,,,,,18.000000,0.000000,0.683455,0.292236,-0.618408,0.255066,0.989379,0.076670,0.085460,-19.057400,-39.151615,69.043259
1703496090.941384,1703496090.942247,73.000000,0.000000,4210.256348,4196.410156,4289.871582,4235.769043,4203.974121,4212.307617,4235.769043,4259.871582,4249.615234,4217.820313,4530.128418,4462.563965,4405.000000,4442.051270,5594.000000,3.000000,74.000000,,,,0.000000,4.000000,4.000000,4.000000,4.000000,4.000000,4.000000,4.000000,4.000000,4.000000,4.000000,4.000000,4.000000,4.000000,4.000000,100.000000,,,,,,,,,,,,,,,,,,,,,,,,,,,,
1703496090.949192,1703496090.950155,74.000000,0.000000,4196.666504,4190.128418,4284.871582,4228.974121,4208.077148,4211.282227,4237.692383,4260.256348,4248.205078,4218.589844,4521.025879,4456.922852,4393.717773,4422.820313,5931.000000,3.000000,74.000000,,,,0.000000,4.000000,4.000000,4.000000,4.000000,4.000000,4.000000,4.000000,4.000000,4.000000,4.000000,4.000000,4.000000,4.000000,4.000000,100.000000,,,,,,,,,,,,,,,,,,,,,,,,,,,,
1703496090.957000,1703496090.957963,75.000000,0.000000,4209.487305,4197.692383,4288.974121,4237.307617,4216.025879,4210.512695,4235.256348,4257.307617,4245.000000,4226.025879,4521.153809,4462.436035,4392.820313,4433.077148,6190.000000,3.000000,74.000000,,,,0.000000,4.000000,4.000000,4.000000,4.000000,4.000000,4.000000,4.000000,4.000000,4.000000,4.000000,4.000000,4.000000,4.000000,4.000000,100.000000,,,,,,,,,,,,,,,,,,,,,,,,,,,,
1703496090.964809,1703496090.965870,76.000000,0.000000,4222.820313,4201.922852,4299.358887,4246.025879,4216.025879,4206.922852,4232.948730,4252.820313,4237.563965,4227.563965,4524.102539,4469.743652,4396.794922,4451.025879,6673.000000,3.000000,74.000000,,,,0.000000,4.000000,4.000000,4.000000,4.000000,4.000000,4.000000,4.000000,4.000000,4.000000,4.000000,4.000000,4.000000,4.000000,4.000000,100.000000,,,,,,,,,,,,,,,,,19.000000,0.000000,0.683403,0.292358,-0.618408,0.255066,0.988402,0.084483,0.061531,-19.084993,-39.186455,69.188934
1703496090.972617,1703496090.973678,77.000000,0.000000,4235.128418,4210.256348,4311.153809,4255.897461,4223.077148,4207.820313,4236.794922,4247.307617,4231.025879,4216.666504,4533.205078,4479.230957,4409.358887,4453.846191,6429.000000,3.000000,74.000000,,,,0.000000,4.000000,4.000000,4.000000,4.000000,4.000000,4.000000,4.000000,4.000000,4.000000,4.000000,4.000000,4.000000,4.000000,4.000000,100.000000,,,,,,,,,,,,,,,,,,,,,,,,,,,,
1703496090.980425,1703496090.981386,78.000000,0.000000,4252.820313,4227.307617,4318.846191,4266.282227,4237.563965,4212.692383,4241.538574,4236.025879,4227.820313,4208.333496,4538.846191,4485.256348,4421.410156,4460.897461,5931.000000,3.000000,74.000000,,,,0.000000,4.000000,4.000000,4.000000,4.000000,4.000000,4.000000,4.000000,4.000000,4.000000,4.000000,4.000000,4.000000,4.000000,4.000000,100.000000,,,,,,,,,,,,,,,,,,,,,,,,,,,,
1703496090.988233,1703496090.989194,79.000000,0.000000,4256.153809,4234.487305,4317.051270,4271.025879,4237.307617,4210.256348,4237.563965,4229.743652,4221.538574,4217.692383,4537.820313,4478.461426,4423.077148,4484.615234,6190.000000,3.000000,74.000000,,,,0.000000,4.000000,4.000000,4.000000,4.000000,4.000000,4.000000,4.000000,4.000000,4.000000,4.000000,4.000000,4.000000,4.000000,4.000000,100.000000,,,,,,,,,,,,,,,,,,,,,,,,,,,,
1703496090.996041,1703496090.996903,80.000000,0.000000,4250.512695,4228.333496,4307.820313,4265.897461,4231.410156,4209.102539,4235.128418,4228.589844,4216.153809,4219.102539,4531.410156,4466.282227,4417.179688,4488.333496,6673.000000,3.000000,74.000000,,,,0.000000,4.000000,4.000000,4.000000,4.000000,4.000000,4.000000,4.000000,4.000000,4.000000,4.000000,4.000000,4.000000,4.000000,4.000000,100.000000,,,,,,,,,,,,,,,,,20.000000,0.000000,0.683292,0.292542,-0.618469,0.255005,0.993774,0.102552,0.062019,-19.159826,-39.017807,69.070038
1703496091.003849,1703496091.004811,81.000000,0.000000,4247.307617,4221.153809,4302.179688,4256.025879,4233.717773,4215.000000,4241.794922,4231.794922,4216.153809,4201.538574,4525.897461,4462.307617,4407.948730,4464.102539,6429.000000,3.000000,74.000000,,,,0.000000,4.000000,4.000000,4.000000,4.000000,4.000000,4.000000,4.000000,4.000000,4.000000,4.000000,4.000000,4.000000,4.000000,4.000000,100.000000,,,,,,,,,,,,,,,,,,,,,,,,,,,,
1703496091.011657,1703496091.012619,82.000000,0.000000,4234.358887,4214.487305,4296.282227,4250.641113,4233.461426,4217.948730,4242.179688,4243.717773,4220.000000,4198.846191,4521.538574,4461.922852,4403.077148,4452.948730,5931.000000,3.000000,74.000000,,,,0.000000,4.000000,4.000000,4.000000,4.000000,4.000000,4.000000,4.000000,4.000000,4.000000,4.000000,4.000000,4.000000,4.000000,4.000000,100.000000,,,,,,,,,,,,,,,,,,,,,,,,,,,,
1703496091.019465,1703496091.020427,83.000000,0.000000,4212.948730,4203.461426,4285.000000,4244.871582,4226.538574,4222.692383,4239.615234,4250.000000,4225.256348,4200.512695,4514.871582,4454.230957,4396.922852,4451.922852,6190.000000,3.000000,74.000000,,,,0.000000,4.000000,4.000000,4.000000,4.000000,4.000000,4.000000,4.000000,4.000000,4.000000,4.000000,4.000000,4.000000,4.000000,4.000000,100.000000,,,,,,,,,,,,,,,,,,,,,,,,,,,,
1703496091.027273,1703496091.028135,84.000000,0.000000,4197.948730,4188.589844,4276.410156,4231.410156,4217.179688,4228.846191,4242.692383,4236.282227,4227.436035,4187.692383,4503.205078,4440.256348,4381.410156,4426.410156,6673.000000,3.000000,74.000000,,,,0.000000,4.000000,4.000000,4.000000,4.000000,4.000000,4.000000,4.000000,4.000000,4.000000,4.000000,4.000000,4.000000,4.000000,4.000000,100.000000,,,,,,,,,,,,,,,,,21.000000,0.000000,0.683233,0.292786,-0.618469,0.254883,0.980100,0.091808,0.058113,-19.077177,-38.999363,69.063034
1703496091.035081,1703496091.035943,85.000000,0.000000,4195.000000,4182.948730,4274.871582,4222.563965,4212.820313,4222.307617,4242.436035,4228.205078,4229.358887,4184.871582,4498.205078,4433.846191,4375.769043,4408.589844,6429.000000,3.000000,74.000000,,,,0.000000,4.000000,4.000000,4.000000,4.000000,4.000000,4.000000,4.000000,4.000000,4.000000,4.000000,4.000000,4.000000,4.000000,4.000000,100.000000,,,,,,,,,,,,,,,,,,,,,,,,,,,,
1703496091.042889,1703496091.043651,86.000000,0.000000,4202.179688,4191.025879,4283.461426,4233.333496,4216.666504,4215.897461,4237.948730,4237.436035,4234.230957,4202.820313,4513.333496,4446.922852,4392.436035,4429.743652,5931.000000,3.000000,74.000000,,,,0.000000,4.000000,4.000000,4.000000,4.000000,4.000000,4.000000,4.000000,4.000000,4.000000,4.000000,4.000000,4.000000,4.000000,4.000000,100.000000,,,,,,,,,,,,,,,,,,,,,,,,,,,,
