title:aya جوع, start timestamp:1702803624.132714, stop timestamp:1702803636.446055, headset type:EPOCX, headset serial:E50206EF, headset firmware:720, channels:67, sampling rate:eeg_128;mot_32, samples:1578      , version:2.2, 
Timestamp,OriginalTimestamp,EEG.Counter,EEG.Interpolated,EEG.AF3,EEG.F7,EEG.F3,EEG.FC5,EEG.T7,EEG.P7,EEG.O1,EEG.O2,EEG.P8,EEG.T8,EEG.FC6,EEG.F4,EEG.F8,EEG.AF4,EEG.RawCq,EEG.Battery,EEG.BatteryPercent,MarkerIndex,MarkerType,MarkerValueInt,EEG.MarkerHardware,CQ.AF3,CQ.F7,CQ.F3,CQ.FC5,CQ.T7,CQ.P7,CQ.O1,CQ.O2,CQ.P8,CQ.T8,CQ.FC6,CQ.F4,CQ.F8,CQ.AF4,CQ.Overall,EQ.SampleRateQuality,EQ.OVERALL,EQ.AF3,EQ.F7,EQ.F3,EQ.FC5,EQ.T7,EQ.P7,EQ.O1,EQ.O2,EQ.P8,EQ.T8,EQ.FC6,EQ.F4,EQ.F8,EQ.AF4,MOT.CounterMems,MOT.InterpolatedMems,MOT.Q0,MOT.Q1,MOT.Q2,MOT.Q3,MOT.AccX,MOT.AccY,MOT.AccZ,MOT.MagX,MOT.MagY,MOT.MagZ
1702803624.132714,1702803624.484265,73.000000,0.000000,4162.692383,4148.333496,4257.948730,4223.333496,4143.205078,4123.333496,4251.282227,4135.769043,4123.077148,4134.487305,4617.179688,4411.538574,4384.230957,4507.436035,5210.000000,3.000000,73.000000,,,,0.000000,4.000000,4.000000,4.000000,4.000000,4.000000,4.000000,2.000000,4.000000,4.000000,4.000000,4.000000,4.000000,4.000000,4.000000,83.333336,,,,,,,,,,,,,,,,,,,,,,,,,,,,
1702803624.140522,1702803624.491973,74.000000,0.000000,4156.922852,4141.794922,4253.717773,4209.358887,4137.692383,4119.358887,4249.615234,4133.846191,4117.563965,4125.897461,4617.436035,4404.743652,4376.666504,4500.256348,5783.000000,3.000000,73.000000,,,,0.000000,4.000000,4.000000,4.000000,4.000000,4.000000,4.000000,2.000000,4.000000,4.000000,4.000000,4.000000,4.000000,4.000000,4.000000,83.333336,,,,,,,,,,,,,,,,,,,,,,,,,,,,
1702803624.148330,1702803624.499781,75.000000,0.000000,4159.615234,4142.820313,4251.153809,4229.487305,4142.179688,4124.102539,4249.871582,4137.436035,4125.769043,4131.794922,4627.692383,4406.410156,4387.692383,4502.307617,5846.000000,3.000000,73.000000,,,,0.000000,4.000000,4.000000,4.000000,4.000000,4.000000,4.000000,2.000000,4.000000,4.000000,4.000000,4.000000,4.000000,4.000000,4.000000,83.333336,,,,,,,,,,,,,,,,,,,,,,,,,,,,
1702803624.156138,1702803624.507489,76.000000,0.000000,4163.461426,4145.769043,4252.563965,4244.102539,4150.641113,4128.974121,4250.256348,4139.358887,4130.769043,4143.077148,4619.871582,4413.589844,4391.794922,4507.179688,6773.000000,3.000000,73.000000,,,,0.000000,4.000000,4.000000,4.000000,4.000000,4.000000,4.000000,2.000000,4.000000,4.000000,4.000000,4.000000,4.000000,4.000000,4.000000,83.333336,,,,,,,,,,,,,,,,,19.000000,0.000000,0.681664,0.179932,-0.690918,0.159973,0.981077,0.020999,-0.015139,-6.941164,15.855802,94.658310
1702803624.163947,1702803624.515297,77.000000,0.000000,4161.153809,4143.846191,4254.230957,4225.897461,4150.897461,4130.128418,4249.615234,4144.615234,4131.794922,4147.051270,4627.692383,4423.974121,4390.512695,4513.846191,6925.000000,3.000000,73.000000,,,,0.000000,4.000000,4.000000,4.000000,4.000000,4.000000,4.000000,2.000000,4.000000,4.000000,4.000000,4.000000,4.000000,4.000000,4.000000,83.333336,,,,,,,,,,,,,,,,,,,,,,,,,,,,
1702803624.171754,1702803624.523006,78.000000,0.000000,4159.615234,4144.615234,4256.282227,4220.897461,4142.948730,4130.256348,4250.000000,4150.384766,4131.794922,4142.692383,4648.974121,4434.487305,4397.820313,4520.512695,5783.000000,3.000000,73.000000,,,,0.000000,4.000000,4.000000,4.000000,4.000000,4.000000,4.000000,2.000000,4.000000,4.000000,4.000000,4.000000,4.000000,4.000000,4.000000,83.333336,,,,,,,,,,,,,,,,,,,,,,,,,,,,
1702803624.179563,1702803624.530814,79.000000,0.000000,4161.410156,4143.717773,4258.077148,4235.512695,4141.538574,4127.563965,4250.128418,4152.436035,4131.153809,4138.846191,4643.717773,4435.512695,4398.589844,4521.794922,5846.000000,3.000000,73.000000,,,,0.000000,4.000000,4.000000,4.000000,4.000000,4.000000,4.000000,2.000000,4.000000,4.000000,4.000000,4.000000,4.000000,4.000000,4.000000,83.333336,,,,,,,,,,,,,,,,,,,,,,,,,,,,
1702803624.187371,1702803624.538522,80.000000,0.000000,4166.794922,4147.051270,4261.794922,4228.846191,4148.846191,4124.743652,4250.512695,4155.256348,4140.512695,4151.410156,4640.512695,4435.897461,4400.384766,4522.820313,6773.000000,3.000000,73.000000,,,,0.000000,4.000000,4.000000,4.000000,4.000000,4.000000,4.000000,2.000000,4.000000,4.000000,4.000000,4.000000,4.000000,4.000000,4.000000,83.333336,,,,,,,,,,,,,,,,,20.000000,0.000000,0.681632,0.180054,-0.690918,0.159973,0.997192,0.023440,-0.005860,-6.897048,15.820222,94.575813
1702803624.195179,1702803624.546430,81.000000,0.000000,4164.487305,4150.384766,4257.179688,4221.666504,4149.871582,4115.256348,4250.256348,4147.179688,4139.871582,4153.974121,4648.077148,4428.461426,4399.871582,4517.307617,6925.000000,3.000000,73.000000,,,,0.000000,4.000000,4.000000,4.000000,4.000000,4.000000,4.000000,2.000000,4.000000,4.000000,4.000000,4.000000,4.000000,4.000000,4.000000,83.333336,,,,,,,,,,,,,,,,,,,,,,,,,,,,
1702803624.202987,1702803624.554238,82.000000,0.000000,4163.461426,4152.051270,4256.025879,4241.666504,4149.743652,4118.461426,4249.615234,4140.384766,4129.743652,4141.025879,4646.538574,4420.000000,4397.179688,4514.230957,5783.000000,3.000000,73.000000,,,,0.000000,4.000000,4.000000,4.000000,4.000000,4.000000,4.000000,2.000000,4.000000,4.000000,4.000000,4.000000,4.000000,4.000000,4.000000,83.333336,,,,,,,,,,,,,,,,,,,,,,,,,,,,
1702803624.210795,1702803624.562146,83.000000,0.000000,4165.256348,4152.692383,4260.512695,4246.922852,4151.538574,4132.307617,4250.769043,4144.743652,4131.282227,4143.461426,4632.051270,4420.128418,4395.897461,4516.666504,5846.000000,3.000000,73.000000,,,,0.000000,4.000000,4.000000,4.000000,4.000000,4.000000,4.000000,2.000000,4.000000,4.000000,4.000000,4.000000,4.000000,4.000000,4.000000,83.333336,,,,,,,,,,,,,,,,,,,,,,,,,,,,
1702803624.218603,1702803624.569954,84.000000,0.000000,4156.922852,4141.410156,4251.025879,4220.769043,4147.692383,4126.410156,4250.256348,4141.794922,4132.051270,4144.487305,4618.589844,4414.102539,4386.794922,4507.307617,6773.000000,3.000000,73.000000,,,,0.000000,4.000000,4.000000,4.000000,4.000000,4.000000,4.000000,2.000000,4.000000,4.000000,4.000000,4.000000,4.000000,4.000000,4.000000,83.333336,,,,,,,,,,,,,,,,,21.000000,0.000000,0.681632,0.180054,-0.690918,0.159973,0.992797,0.025882,-0.018557,-6.907342,15.871532,94.501564
1702803624.226411,1702803624.577862,85.000000,0.000000,4153.717773,4135.897461,4246.282227,4223.717773,4144.487305,4123.077148,4249.743652,4139.102539,4127.948730,4135.897461,4628.589844,4408.461426,4384.871582,4500.512695,6925.000000,3.000000,73.000000,,,,0.000000,4.000000,4.000000,4.000000,4.000000,4.000000,4.000000,2.000000,4.000000,4.000000,4.000000,4.000000,4.000000,4.000000,4.000000,83.333336,,,,,,,,,,,,,,,,,,,,,,,,,,,,
1702803624.234219,1702803624.585671,86.000000,0.000000,4152.307617,4134.102539,4248.589844,4226.794922,4141.282227,4129.615234,4250.897461,4141.922852,4124.102539,4125.512695,4631.153809,4401.666504,4377.563965,4498.461426,5783.000000,3.000000,73.000000,,,,0.000000,4.000000,4.000000,4.000000,4.000000,4.000000,4.000000,2.000000,4.000000,4.000000,4.000000,4.000000,4.000000,4.000000,4.000000,83.333336,,,,,,,,,,,,,,,,,,,,,,,,,,,,
1702803624.242027,1702803624.593579,87.000000,0.000000,4147.820313,4127.820313,4245.769043,4196.410156,4138.077148,4132.051270,4251.922852,4144.358887,4124.871582,4120.256348,4609.871582,4397.436035,4361.025879,4495.384766,5846.000000,3.000000,73.000000,,,,0.000000,4.000000,4.000000,4.000000,4.000000,4.000000,4.000000,2.000000,4.000000,4.000000,4.000000,4.000000,4.000000,4.000000,4.000000,83.333336,,,,,,,,,,,,,,,,,,,,,,,,,,,,
1702803624.249835,1702803624.601387,88.000000,0.000000,4151.666504,4128.974121,4245.897461,4206.153809,4139.102539,4133.846191,4250.128418,4143.717773,4127.179688,4125.769043,4605.641113,4405.769043,4365.384766,4500.256348,6773.000000,3.000000,73.000000,,,,0.000000,4.000000,4.000000,4.000000,4.000000,4.000000,4.000000,2.000000,4.000000,4.000000,4.000000,4.000000,4.000000,4.000000,4.000000,83.333336,,,,,,,,,,,,,,,,,22.000000,0.000000,0.681755,0.180054,-0.690796,0.159973,0.996704,0.023929,-0.012209,-6.966609,15.934380,94.634743
1702803624.257643,1702803624.609295,89.000000,0.000000,4155.128418,4135.128418,4245.512695,4240.897461,4143.717773,4128.589844,4247.051270,4137.436035,4123.461426,4130.384766,4624.743652,4408.717773,4381.153809,4502.307617,6925.000000,3.000000,73.000000,,,,0.000000,4.000000,4.000000,4.000000,4.000000,4.000000,4.000000,2.000000,4.000000,4.000000,4.000000,4.000000,4.000000,4.000000,4.000000,83.333336,,,,,,,,,,,,,,,,,,,,,,,,,,,,
1702803624.265452,1702803624.617103,90.000000,0.000000,4158.589844,4143.205078,4247.307617,4238.077148,4148.077148,4125.384766,4247.563965,4137.307617,4130.256348,4140.384766,4635.384766,4410.128418,4387.179688,4504.615234,5783.000000,3.000000,73.000000,,,,0.000000,4.000000,4.000000,4.000000,4.000000,4.000000,4.000000,2.000000,4.000000,4.000000,4.000000,4.000000,4.000000,4.000000,4.000000,83.333336,1.000000,66.666664,4.000000,4.000000,3.000000,3.000000,4.000000,4.000000,2.000000,4.000000,4.000000,3.000000,4.000000,3.000000,4.000000,4.000000,,,,,,,,,,,,
1702803624.273260,1702803624.625011,91.000000,0.000000,4162.051270,4138.717773,4252.179688,4211.666504,4144.230957,4126.794922,4249.487305,4141.794922,4142.436035,4147.179688,4622.692383,4414.743652,4382.179688,4508.333496,5846.000000,3.000000,73.000000,,,,0.000000,4.000000,4.000000,4.000000,4.000000,4.000000,4.000000,2.000000,4.000000,4.000000,4.000000,4.000000,4.000000,4.000000,4.000000,83.333336,,,,,,,,,,,,,,,,,,,,,,,,,,,,
1702803624.281068,1702803624.632819,92.000000,0.000000,4166.410156,4135.897461,4254.230957,4224.230957,4140.897461,4126.794922,4247.820313,4144.358887,4141.410156,4144.358887,4619.358887,4417.051270,4381.153809,4507.692383,6773.000000,3.000000,73.000000,,,,0.000000,4.000000,4.000000,4.000000,4.000000,4.000000,4.000000,2.000000,4.000000,4.000000,4.000000,4.000000,4.000000,4.000000,4.000000,83.333336,,,,,,,,,,,,,,,,,23.000000,0.000000,0.681814,0.179993,-0.690796,0.159790,0.985960,0.027347,-0.020999,-7.053281,15.840941,94.637932
1702803624.288876,1702803624.640628,93.000000,0.000000,4167.436035,4144.358887,4251.025879,4237.436035,4140.000000,4126.410156,4246.794922,4145.000000,4136.282227,4140.384766,4635.384766,4415.128418,4385.512695,4506.922852,6925.000000,3.000000,73.000000,,,,0.000000,4.000000,4.000000,4.000000,4.000000,4.000000,4.000000,2.000000,4.000000,4.000000,4.000000,4.000000,4.000000,4.000000,4.000000,83.333336,,,,,,,,,,,,,,,,,,,,,,,,,,,,
1702803624.296684,1702803624.648436,94.000000,0.000000,4154.743652,4138.077148,4242.563965,4202.436035,4135.897461,4121.666504,4249.871582,4137.436035,4128.589844,4129.358887,4626.794922,4405.384766,4378.974121,4501.153809,5783.000000,3.000000,73.000000,,,,0.000000,4.000000,4.000000,4.000000,4.000000,4.000000,4.000000,2.000000,4.000000,4.000000,4.000000,4.000000,4.000000,4.000000,4.000000,83.333336,,,,,,,,,,,,,,,,,,,,,,,,,,,,
1702803624.304492,1702803624.656144,95.000000,0.000000,4154.230957,4134.487305,4247.179688,4205.512695,4142.179688,4129.487305,4254.487305,4137.948730,4128.589844,4131.025879,4619.871582,4412.051270,4382.051270,4507.692383,5846.000000,3.000000,73.000000,,,,0.000000,4.000000,4.000000,4.000000,4.000000,4.000000,4.000000,2.000000,4.000000,4.000000,4.000000,4.000000,4.000000,4.000000,4.000000,83.333336,,,,,,,,,,,,,,,,,,,,,,,,,,,,
1702803624.312300,1702803624.664052,96.000000,0.000000,4164.487305,4144.102539,4254.871582,4243.333496,4150.897461,4144.487305,4256.410156,4150.128418,4138.205078,4144.230957,4636.922852,4425.512695,4394.102539,4517.051270,6773.000000,3.000000,73.000000,,,,0.000000,4.000000,4.000000,4.000000,4.000000,4.000000,4.000000,2.000000,4.000000,4.000000,4.000000,4.000000,4.000000,4.000000,4.000000,83.333336,,,,,,,,,,,,,,,,,24.000000,0.000000,0.681736,0.180054,-0.690857,0.159790,0.987914,0.035161,-0.020022,-6.981286,15.856848,94.674141
1702803624.320108,1702803624.671861,97.000000,0.000000,4160.000000,4139.102539,4246.794922,4236.538574,4149.358887,4142.692383,4253.205078,4146.666504,4137.563965,4139.358887,4630.897461,4414.615234,4386.410156,4505.897461,6925.000000,3.000000,73.000000,,,,0.000000,4.000000,4.000000,4.000000,4.000000,4.000000,4.000000,2.000000,4.000000,4.000000,4.000000,4.000000,4.000000,4.000000,4.000000,83.333336,,,,,,,,,,,,,,,,,,,,,,,,,,,,
1702803624.327916,1702803624.679769,98.000000,0.000000,4154.487305,4130.897461,4242.179688,4212.179688,4142.563965,4132.563965,4248.461426,4136.025879,4130.897461,4131.025879,4618.205078,4402.948730,4378.077148,4500.897461,5783.000000,3.000000,73.000000,,,,0.000000,4.000000,4.000000,4.000000,4.000000,4.000000,4.000000,2.000000,4.000000,4.000000,4.000000,4.000000,4.000000,4.000000,4.000000,83.333336,,,,,,,,,,,,,,,,,,,,,,,,,,,,
1702803624.335724,1702803624.687577,99.000000,0.000000,4154.615234,4131.922852,4243.333496,4215.384766,4138.846191,4128.589844,4248.589844,4137.948730,4130.897461,4130.641113,4624.615234,4404.615234,4380.512695,4507.948730,5846.000000,3.000000,73.000000,,,,0.000000,4.000000,4.000000,4.000000,4.000000,4.000000,4.000000,2.000000,4.000000,4.000000,4.000000,4.000000,4.000000,4.000000,4.000000,83.333336,,,,,,,,,,,,,,,,,,,,,,,,,,,,
1702803624.343532,1702803624.695485,100.000000,0.000000,4155.897461,4132.820313,4243.717773,4224.102539,4140.769043,4132.051270,4251.538574,4143.333496,4137.692383,4131.410156,4625.512695,4410.641113,4381.282227,4511.153809,6773.000000,3.000000,73.000000,,,,0.000000,4.000000,4.000000,4.000000,4.000000,4.000000,4.000000,2.000000,4.000000,4.000000,4.000000,4.000000,4.000000,4.000000,4.000000,83.333336,,,,,,,,,,,,,,,,,25.000000,0.000000,0.681861,0.180176,-0.690674,0.159912,0.983518,0.027347,-0.013185,-7.016491,15.771163,94.673393
1702803624.351340,1702803624.703293,101.000000,0.000000,4156.410156,4132.820313,4246.538574,4206.666504,4138.974121,4133.461426,4251.410156,4142.436035,4139.358887,4135.769043,4621.794922,4414.102539,4381.025879,4510.512695,6925.000000,3.000000,73.000000,,,,0.000000,4.000000,4.000000,4.000000,4.000000,4.000000,4.000000,2.000000,4.000000,4.000000,4.000000,4.000000,4.000000,4.000000,4.000000,83.333336,,,,,,,,,,,,,,,,,,,,,,,,,,,,
1702803624.359148,1702803624.711101,102.000000,0.000000,4154.615234,4134.358887,4246.666504,4198.205078,4139.487305,4127.820313,4247.948730,4138.077148,4130.512695,4135.641113,4625.384766,4410.641113,4381.282227,4510.256348,5783.000000,3.000000,73.000000,,,,0.000000,4.000000,4.000000,4.000000,4.000000,4.000000,4.000000,2.000000,4.000000,4.000000,4.000000,4.000000,4.000000,4.000000,4.000000,83.333336,,,,,,,,,,,,,,,,,,,,,,,,,,,,
1702803624.366957,1702803624.718809,103.000000,0.000000,4158.846191,4141.794922,4249.487305,4228.846191,4144.487305,4126.153809,4247.179688,4138.717773,4127.692383,4129.230957,4632.436035,4412.563965,4385.641113,4511.282227,5846.000000,3.000000,73.000000,,,,0.000000,4.000000,4.000000,4.000000,4.000000,4.000000,4.000000,2.000000,4.000000,4.000000,4.000000,4.000000,4.000000,4.000000,4.000000,83.333336,,,,,,,,,,,,,,,,,,,,,,,,,,,,
1702803624.374765,1702803624.726617,104.000000,0.000000,4162.820313,4146.153809,4251.666504,4247.179688,4146.153809,4128.077148,4251.025879,4142.692383,4124.358887,4127.820313,4627.179688,4417.051270,4387.692383,4510.000000,6773.000000,3.000000,73.000000,,,,0.000000,4.000000,4.000000,4.000000,4.000000,4.000000,4.000000,2.000000,4.000000,4.000000,4.000000,4.000000,4.000000,4.000000,4.000000,83.333336,,,,,,,,,,,,,,,,,26.000000,0.000000,0.681882,0.180115,-0.690613,0.160156,0.997192,0.019534,-0.023440,-7.031508,15.760714,94.739388
1702803624.382573,1702803624.734325,105.000000,0.000000,4158.717773,4144.615234,4248.333496,4222.051270,4145.128418,4129.102539,4252.692383,4146.153809,4120.256348,4134.230957,4624.358887,4416.538574,4385.641113,4510.128418,6925.000000,3.000000,73.000000,,,,0.000000,4.000000,4.000000,4.000000,4.000000,4.000000,4.000000,2.000000,4.000000,4.000000,4.000000,4.000000,4.000000,4.000000,4.000000,83.333336,,,,,,,,,,,,,,,,,,,,,,,,,,,,
1702803624.390381,1702803624.742133,106.000000,0.000000,4156.922852,4146.282227,4247.692383,4220.256348,4144.230957,4132.307617,4250.128418,4148.461426,4127.179688,4137.307617,4634.358887,4417.179688,4386.666504,4512.692383,5783.000000,3.000000,73.000000,,,,0.000000,4.000000,4.000000,4.000000,4.000000,4.000000,4.000000,2.000000,4.000000,4.000000,4.000000,4.000000,4.000000,4.000000,4.000000,83.333336,,,,,,,,,,,,,,,,,,,,,,,,,,,,
1702803624.398189,1702803624.749842,107.000000,0.000000,4153.589844,4145.000000,4246.025879,4230.384766,4142.948730,4131.666504,4247.692383,4142.692383,4128.974121,4131.282227,4631.282227,4413.717773,4385.769043,4507.692383,5846.000000,3.000000,73.000000,,,,0.000000,4.000000,4.000000,4.000000,4.000000,4.000000,4.000000,2.000000,4.000000,4.000000,4.000000,4.000000,4.000000,4.000000,4.000000,83.333336,,,,,,,,,,,,,,,,,,,,,,,,,,,,
1702803624.405997,1702803624.757649,108.000000,0.000000,4150.384766,4143.717773,4244.230957,4204.871582,4139.743652,4128.333496,4249.487305,4139.102539,4127.820313,4128.717773,4625.641113,4408.589844,4387.307617,4503.077148,6773.000000,3.000000,73.000000,,,,0.000000,4.000000,4.000000,4.000000,4.000000,4.000000,4.000000,2.000000,4.000000,4.000000,4.000000,4.000000,4.000000,4.000000,4.000000,83.333336,,,,,,,,,,,,,,,,,27.000000,0.000000,0.681852,0.179993,-0.690674,0.160156,0.989867,0.012697,-0.019045,-6.928358,15.851309,94.898781
1702803624.413805,1702803624.765358,109.000000,0.000000,4152.820313,4144.615234,4245.128418,4204.871582,4136.410156,4127.563965,4252.307617,4143.974121,4135.000000,4133.077148,4631.410156,4410.000000,4390.256348,4504.487305,6925.000000,3.000000,73.000000,,,,0.000000,4.000000,4.000000,4.000000,4.000000,4.000000,4.000000,2.000000,4.000000,4.000000,4.000000,4.000000,4.000000,4.000000,4.000000,83.333336,,,,,,,,,,,,,,,,,,,,,,,,,,,,
1702803624.421613,1702803624.773266,110.000000,0.000000,4153.333496,4146.794922,4245.384766,4236.666504,4138.846191,4124.487305,4248.589844,4148.077148,4140.512695,4139.487305,4632.179688,4412.051270,4385.512695,4505.000000,5783.000000,3.000000,73.000000,,,,0.000000,4.000000,4.000000,4.000000,4.000000,4.000000,4.000000,2.000000,4.000000,4.000000,4.000000,4.000000,4.000000,4.000000,4.000000,83.333336,,,,,,,,,,,,,,,,,,,,,,,,,,,,
1702803624.429421,1702803624.781074,111.000000,0.000000,4154.615234,4153.717773,4249.487305,4235.512695,4140.641113,4118.205078,4245.256348,4145.512695,4133.717773,4140.256348,4628.717773,4412.692383,4380.769043,4506.794922,5846.000000,3.000000,73.000000,,,,0.000000,4.000000,4.000000,4.000000,4.000000,4.000000,4.000000,2.000000,4.000000,4.000000,4.000000,4.000000,4.000000,4.000000,4.000000,83.333336,,,,,,,,,,,,,,,,,,,,,,,,,,,,
1702803624.437229,1702803624.788982,112.000000,0.000000,4157.948730,4154.230957,4251.794922,4214.487305,4136.025879,4111.794922,4248.077148,4136.410156,4119.743652,4130.769043,4625.128418,4406.153809,4380.256348,4504.615234,6773.000000,3.000000,73.000000,,,,0.000000,4.000000,4.000000,4.000000,4.000000,4.000000,4.000000,2.000000,4.000000,4.000000,4.000000,4.000000,4.000000,4.000000,4.000000,83.333336,,,,,,,,,,,,,,,,,28.000000,0.000000,0.681930,0.179932,-0.690613,0.160156,0.991820,0.023440,-0.018557,-6.935522,15.849511,94.842239
1702803624.445037,1702803624.796790,113.000000,0.000000,4163.333496,4155.000000,4251.922852,4225.128418,4139.102539,4115.128418,4250.769043,4136.282227,4117.820313,4131.794922,4624.230957,4407.436035,4385.512695,4506.922852,6925.000000,3.000000,73.000000,,,,0.000000,4.000000,4.000000,4.000000,4.000000,4.000000,4.000000,2.000000,4.000000,4.000000,4.000000,4.000000,4.000000,4.000000,4.000000,83.333336,,,,,,,,,,,,,,,,,,,,,,,,,,,,
1702803624.452845,1702803624.804698,114.000000,0.000000,4164.487305,4162.692383,4253.974121,4228.974121,4147.948730,4122.051270,4248.717773,4141.410156,4123.589844,4138.077148,4628.846191,4416.666504,4389.615234,4513.717773,5783.000000,3.000000,73.000000,,,,0.000000,4.000000,4.000000,4.000000,4.000000,4.000000,4.000000,2.000000,4.000000,4.000000,4.000000,4.000000,4.000000,4.000000,4.000000,83.333336,,,,,,,,,,,,,,,,,,,,,,,,,,,,
1702803624.460653,1702803624.812506,115.000000,0.000000,4159.102539,4161.922852,4253.846191,4203.589844,4146.538574,4119.615234,4248.717773,4137.179688,4120.384766,4125.769043,4624.102539,4411.922852,4386.538574,4508.846191,5846.000000,3.000000,73.000000,,,,0.000000,4.000000,4.000000,4.000000,4.000000,4.000000,4.000000,2.000000,4.000000,4.000000,4.000000,4.000000,4.000000,4.000000,4.000000,83.333336,,,,,,,,,,,,,,,,,,,,,,,,,,,,
1702803624.468462,1702803624.820415,116.000000,0.000000,4157.820313,4155.512695,4252.563965,4219.230957,4143.077148,4119.615234,4251.794922,4136.153809,4117.948730,4121.666504,4611.282227,4406.282227,4383.846191,4504.743652,6773.000000,3.000000,73.000000,,,,0.000000,4.000000,4.000000,4.000000,4.000000,4.000000,4.000000,2.000000,4.000000,4.000000,4.000000,4.000000,4.000000,4.000000,4.000000,83.333336,,,,,,,,,,,,,,,,,29.000000,0.000000,0.681899,0.179871,-0.690674,0.160095,1.004029,0.023929,-0.022952,-7.108636,15.847893,94.958015
1702803624.476270,1702803624.828223,117.000000,0.000000,4155.897461,4155.384766,4247.948730,4248.974121,4141.666504,4123.333496,4251.666504,4134.743652,4116.282227,4129.102539,4613.974121,4400.897461,4377.179688,4500.769043,6925.000000,3.000000,73.000000,,,,0.000000,4.000000,4.000000,4.000000,4.000000,4.000000,4.000000,2.000000,4.000000,4.000000,4.000000,4.000000,4.000000,4.000000,4.000000,83.333336,,,,,,,,,,,,,,,,,,,,,,,,,,,,
1702803624.484078,1702803624.836131,118.000000,0.000000,4150.641113,4156.025879,4245.384766,4230.641113,4141.153809,4123.974121,4252.179688,4127.820313,4110.128418,4123.077148,4620.512695,4387.307617,4370.000000,4491.282227,5783.000000,3.000000,73.000000,,,,0.000000,4.000000,4.000000,4.000000,4.000000,4.000000,4.000000,2.000000,4.000000,4.000000,4.000000,4.000000,4.000000,4.000000,4.000000,83.333336,,,,,,,,,,,,,,,,,,,,,,,,,,,,
1702803624.491886,1702803624.843939,119.000000,0.000000,4155.000000,4156.410156,4252.436035,4208.205078,4147.051270,4130.256348,4254.230957,4135.128418,4118.717773,4125.512695,4620.641113,4393.589844,4377.563965,4496.794922,5846.000000,3.000000,73.000000,,,,0.000000,4.000000,4.000000,4.000000,4.000000,4.000000,4.000000,2.000000,4.000000,4.000000,4.000000,4.000000,4.000000,4.000000,4.000000,83.333336,,,,,,,,,,,,,,,,,,,,,,,,,,,,
1702803624.499694,1702803624.851647,120.000000,0.000000,4155.384766,4151.410156,4250.000000,4220.641113,4148.974121,4131.922852,4253.717773,4139.615234,4125.128418,4133.846191,4613.461426,4401.666504,4377.563965,4501.153809,6773.000000,3.000000,73.000000,,,,0.000000,4.000000,4.000000,4.000000,4.000000,4.000000,4.000000,2.000000,4.000000,4.000000,4.000000,4.000000,4.000000,4.000000,4.000000,83.333336,,,,,,,,,,,,,,,,,30.000000,0.000000,0.681884,0.179871,-0.690674,0.160156,0.985472,0.029300,-0.014650,-7.147773,15.829770,94.995544
1702803624.507502,1702803624.859456,121.000000,0.000000,4151.666504,4149.230957,4243.333496,4233.846191,4144.871582,4127.563965,4249.743652,4126.922852,4116.025879,4125.256348,4612.563965,4394.358887,4369.358887,4495.769043,6925.000000,3.000000,73.000000,,,,0.000000,4.000000,4.000000,4.000000,4.000000,4.000000,4.000000,2.000000,4.000000,4.000000,4.000000,4.000000,4.000000,4.000000,4.000000,83.333336,,,,,,,,,,,,,,,,,,,,,,,,,,,,
1702803624.515310,1702803624.867164,122.000000,0.000000,4160.384766,4157.563965,4254.487305,4218.077148,4142.307617,4127.692383,4247.179688,4129.102539,4119.743652,4122.436035,4624.743652,4403.461426,4380.128418,4503.846191,5783.000000,3.000000,73.000000,,,,0.000000,4.000000,4.000000,4.000000,4.000000,4.000000,4.000000,2.000000,4.000000,4.000000,4.000000,4.000000,4.000000,4.000000,4.000000,83.333336,,,,,,,,,,,,,,,,,,,,,,,,,,,,
1702803624.523118,1702803624.874972,123.000000,0.000000,4164.743652,4154.358887,4261.666504,4210.897461,4144.743652,4124.871582,4248.974121,4142.307617,4128.589844,4133.205078,4618.205078,4415.128418,4386.666504,4508.077148,5846.000000,3.000000,73.000000,,,,0.000000,4.000000,4.000000,4.000000,4.000000,4.000000,4.000000,2.000000,4.000000,4.000000,4.000000,4.000000,4.000000,4.000000,4.000000,83.333336,,,,,,,,,,,,,,,,,,,,,,,,,,,,
1702803624.530926,1702803624.882680,124.000000,0.000000,4161.153809,4151.922852,4255.769043,4233.717773,4147.179688,4123.717773,4252.692383,4144.871582,4129.615234,4139.871582,4616.794922,4412.563965,4380.641113,4504.102539,6773.000000,3.000000,73.000000,,,,0.000000,4.000000,4.000000,4.000000,4.000000,4.000000,4.000000,2.000000,4.000000,4.000000,4.000000,4.000000,4.000000,4.000000,4.000000,83.333336,,,,,,,,,,,,,,,,,31.000000,0.000000,0.681900,0.179993,-0.690613,0.160217,0.987425,0.019045,-0.014162,-7.132996,15.663460,94.879326
1702803624.538734,1702803624.890488,125.000000,0.000000,4157.563965,4156.410156,4251.538574,4245.256348,4143.846191,4124.102539,4253.846191,4140.641113,4126.025879,4133.589844,4634.487305,4405.128418,4377.948730,4503.717773,6925.000000,3.000000,73.000000,,,,0.000000,4.000000,4.000000,4.000000,4.000000,4.000000,4.000000,2.000000,4.000000,4.000000,4.000000,4.000000,4.000000,4.000000,4.000000,83.333336,,,,,,,,,,,,,,,,,,,,,,,,,,,,
1702803624.546542,1702803624.898196,126.000000,0.000000,4154.871582,4150.384766,4247.179688,4220.000000,4142.051270,4120.641113,4252.307617,4139.743652,4121.410156,4125.897461,4630.000000,4397.436035,4375.641113,4497.948730,5783.000000,3.000000,73.000000,,,,0.000000,4.000000,4.000000,4.000000,4.000000,4.000000,4.000000,2.000000,4.000000,4.000000,4.000000,4.000000,4.000000,4.000000,4.000000,83.333336,,,,,,,,,,,,,,,,,,,,,,,,,,,,
1702803624.554351,1702803624.906004,127.000000,0.000000,4155.000000,4148.589844,4246.153809,4208.974121,4141.538574,4124.871582,4253.974121,4142.948730,4124.358887,4133.333496,4614.102539,4400.769043,4378.205078,4497.692383,73.000000,3.000000,73.000000,,,,0.000000,4.000000,4.000000,4.000000,4.000000,4.000000,4.000000,2.000000,4.000000,4.000000,4.000000,4.000000,4.000000,4.000000,4.000000,83.333336,,,,,,,,,,,,,,,,,,,,,,,,,,,,
1702803624.562158,1702803624.913712,0.000000,0.000000,4153.333496,4151.153809,4247.179688,4221.794922,4142.436035,4129.615234,4254.230957,4139.358887,4126.794922,4137.307617,4619.743652,4407.179688,4383.589844,4504.358887,5197.000000,3.000000,73.000000,,,,0.000000,4.000000,4.000000,4.000000,4.000000,4.000000,4.000000,2.000000,4.000000,4.000000,4.000000,4.000000,4.000000,4.000000,4.000000,83.333336,,,,,,,,,,,,,,,,,0.000000,0.000000,0.682005,0.180115,-0.690491,0.160156,0.990355,0.020510,-0.018069,-6.936363,15.647114,94.908058
1702803624.569967,1702803624.921520,1.000000,0.000000,4156.025879,4148.846191,4251.153809,4212.692383,4144.230957,4128.461426,4251.666504,4134.358887,4126.410156,4131.666504,4628.974121,4407.692383,4383.461426,4507.051270,5402.000000,3.000000,73.000000,,,,0.000000,4.000000,4.000000,4.000000,4.000000,4.000000,4.000000,2.000000,4.000000,4.000000,4.000000,4.000000,4.000000,4.000000,4.000000,83.333336,,,,,,,,,,,,,,,,,,,,,,,,,,,,
1702803624.577775,1702803624.929228,2.000000,0.000000,4160.384766,4147.436035,4257.179688,4208.077148,4138.077148,4123.589844,4252.436035,4136.410156,4127.051270,4128.333496,4615.000000,4402.563965,4374.871582,4503.205078,4741.000000,3.000000,73.000000,,,,0.000000,4.000000,4.000000,4.000000,4.000000,4.000000,4.000000,2.000000,4.000000,4.000000,4.000000,4.000000,4.000000,4.000000,4.000000,83.333336,,,,,,,,,,,,,,,,,,,,,,,,,,,,
1702803624.585583,1702803624.937136,3.000000,0.000000,4164.230957,4152.563965,4262.179688,4234.743652,4135.512695,4124.230957,4253.589844,4142.436035,4131.153809,4128.461426,4611.922852,4406.282227,4371.794922,4504.102539,5178.000000,3.000000,73.000000,,,,0.000000,4.000000,4.000000,4.000000,4.000000,4.000000,4.000000,2.000000,4.000000,4.000000,4.000000,4.000000,4.000000,4.000000,4.000000,83.333336,,,,,,,,,,,,,,,,,,,,,,,,,,,,
1702803624.593391,1702803624.944944,4.000000,0.000000,4167.948730,4156.666504,4265.128418,4246.153809,4142.820313,4131.025879,4253.077148,4147.051270,4137.179688,4131.153809,4628.333496,4417.820313,4379.358887,4511.153809,5093.000000,3.000000,73.000000,,,,0.000000,4.000000,4.000000,4.000000,4.000000,4.000000,4.000000,2.000000,4.000000,4.000000,4.000000,4.000000,4.000000,4.000000,4.000000,83.333336,,,,,,,,,,,,,,,,,1.000000,0.000000,0.681881,0.180298,-0.690552,0.160217,0.981565,0.020022,-0.020022,-6.976059,15.799069,94.933922
1702803624.601199,1702803624.952752,5.000000,0.000000,4166.025879,4152.563965,4261.025879,4220.256348,4144.230957,4130.128418,4251.666504,4145.128418,4133.205078,4131.410156,4630.000000,4415.000000,4380.641113,4507.692383,5090.000000,3.000000,73.000000,,,,0.000000,4.000000,4.000000,4.000000,4.000000,4.000000,4.000000,2.000000,4.000000,4.000000,4.000000,4.000000,4.000000,4.000000,4.000000,83.333336,,,,,,,,,,,,,,,,,,,,,,,,,,,,
1702803624.609007,1702803624.960460,6.000000,0.000000,4162.948730,4148.077148,4258.846191,4209.102539,4137.820313,4128.846191,4254.230957,4146.025879,4130.769043,4131.025879,4627.051270,4411.538574,4379.487305,4506.025879,1245.000000,3.000000,73.000000,,,,0.000000,4.000000,4.000000,4.000000,4.000000,4.000000,4.000000,2.000000,4.000000,4.000000,4.000000,4.000000,4.000000,4.000000,4.000000,83.333336,,,,,,,,,,,,,,,,,,,,,,,,,,,,
1702803624.616815,1702803624.968369,7.000000,0.000000,4160.384766,4140.897461,4255.769043,4221.410156,4136.794922,4129.487305,4257.948730,4148.077148,4132.563965,4125.384766,4626.153809,4412.948730,4376.410156,4508.461426,4876.000000,3.000000,73.000000,,,,0.000000,4.000000,4.000000,4.000000,4.000000,4.000000,4.000000,2.000000,4.000000,4.000000,4.000000,4.000000,4.000000,4.000000,4.000000,83.333336,,,,,,,,,,,,,,,,,,,,,,,,,,,,
1702803624.624623,1702803624.976177,8.000000,0.000000,4155.128418,4136.666504,4250.512695,4212.436035,4140.128418,4125.256348,4257.948730,4142.948730,4123.077148,4115.128418,4614.487305,4404.615234,4365.512695,4497.563965,5125.000000,3.000000,73.000000,,,,0.000000,4.000000,4.000000,4.000000,4.000000,4.000000,4.000000,2.000000,4.000000,4.000000,4.000000,4.000000,4.000000,4.000000,4.000000,83.333336,,,,,,,,,,,,,,,,,2.000000,0.000000,0.682001,0.180420,-0.690430,0.160095,1.009889,0.030277,-0.031742,-6.995121,15.869163,94.857193
1702803624.632431,1702803624.984085,9.000000,0.000000,4154.743652,4142.563965,4252.820313,4199.102539,4140.897461,4125.384766,4256.153809,4141.025879,4116.794922,4115.256348,4607.307617,4399.743652,4362.563965,4488.974121,5202.000000,3.000000,73.000000,,,,0.000000,4.000000,4.000000,4.000000,4.000000,4.000000,4.000000,2.000000,4.000000,4.000000,4.000000,4.000000,4.000000,4.000000,4.000000,83.333336,,,,,,,,,,,,,,,,,,,,,,,,,,,,
1702803624.640239,1702803624.991893,10.000000,0.000000,4157.948730,4144.358887,4253.974121,4211.282227,4140.256348,4128.077148,4253.461426,4143.974121,4125.384766,4120.256348,4607.563965,4399.615234,4363.461426,4490.512695,5776.000000,3.000000,73.000000,,,,0.000000,4.000000,4.000000,4.000000,4.000000,4.000000,4.000000,2.000000,4.000000,4.000000,4.000000,4.000000,4.000000,4.000000,4.000000,83.333336,,,,,,,,,,,,,,,,,,,,,,,,,,,,
1702803624.648047,1702803624.999801,11.000000,0.000000,4159.230957,4142.948730,4252.179688,4235.384766,4140.128418,4127.563965,4251.794922,4143.974121,4132.307617,4124.102539,4608.846191,4398.077148,4363.077148,4490.897461,5843.000000,3.000000,73.000000,,,,0.000000,4.000000,4.000000,4.000000,4.000000,4.000000,4.000000,2.000000,4.000000,4.000000,4.000000,4.000000,4.000000,4.000000,4.000000,83.333336,,,,,,,,,,,,,,,,,,,,,,,,,,,,
1702803624.655856,1702803625.007609,12.000000,0.000000,4156.282227,4141.922852,4251.025879,4228.974121,4138.974121,4122.692383,4253.333496,4139.102539,4125.384766,4122.820313,4616.410156,4397.436035,4365.128418,4487.051270,6723.000000,3.000000,73.000000,,,,0.000000,4.000000,4.000000,4.000000,4.000000,4.000000,4.000000,2.000000,4.000000,4.000000,4.000000,4.000000,4.000000,4.000000,4.000000,83.333336,,,,,,,,,,,,,,,,,3.000000,0.000000,0.681815,0.180420,-0.690613,0.160095,0.984495,0.027347,-0.024905,-7.045608,15.765579,94.738144
1702803624.663664,1702803625.015418,13.000000,0.000000,4154.230957,4139.743652,4253.846191,4204.487305,4139.230957,4119.743652,4252.307617,4139.102539,4122.948730,4121.922852,4619.102539,4397.051270,4362.820313,4485.000000,6905.000000,3.000000,73.000000,,,,0.000000,4.000000,4.000000,4.000000,4.000000,4.000000,4.000000,2.000000,4.000000,4.000000,4.000000,4.000000,4.000000,4.000000,4.000000,83.333336,,,,,,,,,,,,,,,,,,,,,,,,,,,,
1702803624.671471,1702803625.023226,14.000000,0.000000,4160.128418,4142.820313,4258.974121,4222.948730,4139.743652,4122.179688,4251.025879,4144.102539,4132.307617,4132.179688,4613.717773,4402.563965,4366.025879,4493.333496,5776.000000,3.000000,73.000000,,,,0.000000,4.000000,4.000000,4.000000,4.000000,4.000000,4.000000,2.000000,4.000000,4.000000,4.000000,4.000000,4.000000,4.000000,4.000000,83.333336,,,,,,,,,,,,,,,,,,,,,,,,,,,,
1702803624.679280,1702803625.031134,15.000000,0.000000,4163.205078,4146.410156,4257.307617,4235.256348,4138.717773,4121.922852,4256.666504,4145.000000,4132.948730,4140.256348,4618.846191,4408.846191,4374.615234,4502.307617,5843.000000,3.000000,73.000000,,,,0.000000,4.000000,4.000000,4.000000,4.000000,4.000000,4.000000,2.000000,4.000000,4.000000,4.000000,4.000000,4.000000,4.000000,4.000000,83.333336,,,,,,,,,,,,,,,,,,,,,,,,,,,,
1702803624.687088,1702803625.038942,16.000000,0.000000,4160.256348,4145.641113,4254.487305,4202.948730,4139.230957,4123.461426,4258.589844,4147.692383,4132.820313,4138.077148,4628.974121,4405.897461,4376.025879,4502.820313,0.000000,3.000000,73.000000,,,,0.000000,4.000000,4.000000,4.000000,4.000000,4.000000,4.000000,2.000000,4.000000,4.000000,4.000000,4.000000,4.000000,4.000000,4.000000,83.333336,,,,,,,,,,,,,,,,,4.000000,0.000000,0.681875,0.180481,-0.690552,0.160034,0.991820,0.018557,-0.005860,-7.041048,15.739021,94.614326
1702803624.694896,1702803625.046650,17.000000,0.000000,4154.615234,4140.128418,4251.922852,4203.846191,4139.358887,4124.615234,4253.205078,4147.692383,4135.512695,4127.820313,4623.974121,4393.205078,4368.205078,4491.153809,0.000000,3.000000,73.000000,,,,0.000000,4.000000,4.000000,4.000000,4.000000,4.000000,4.000000,2.000000,4.000000,4.000000,4.000000,4.000000,4.000000,4.000000,4.000000,83.333336,,,,,,,,,,,,,,,,,,,,,,,,,,,,
1702803624.702704,1702803625.054459,18.000000,0.000000,4153.205078,4141.282227,4250.256348,4238.846191,4140.641113,4121.666504,4252.820313,4139.743652,4129.743652,4120.897461,4610.897461,4389.102539,4365.384766,4484.743652,0.000000,3.000000,73.000000,,,,0.000000,4.000000,4.000000,4.000000,4.000000,4.000000,4.000000,2.000000,4.000000,4.000000,4.000000,4.000000,4.000000,4.000000,4.000000,83.333336,,,,,,,,,,,,,,,,,,,,,,,,,,,,
1702803624.710512,1702803625.062167,19.000000,0.000000,4157.563965,4148.974121,4253.846191,4239.230957,4141.153809,4121.410156,4253.077148,4133.333496,4121.538574,4126.282227,4605.641113,4392.820313,4368.846191,4490.384766,0.000000,3.000000,73.000000,,,,0.000000,4.000000,4.000000,4.000000,4.000000,4.000000,4.000000,2.000000,4.000000,4.000000,4.000000,4.000000,4.000000,4.000000,4.000000,83.333336,,,,,,,,,,,,,,,,,,,,,,,,,,,,
1702803624.718320,1702803625.069975,20.000000,0.000000,4152.436035,4143.846191,4252.692383,4214.615234,4139.615234,4122.179688,4250.000000,4128.589844,4113.205078,4126.410156,4606.922852,4381.282227,4362.051270,4487.307617,0.000000,3.000000,73.000000,,,,0.000000,4.000000,4.000000,4.000000,4.000000,4.000000,4.000000,2.000000,4.000000,4.000000,4.000000,4.000000,4.000000,4.000000,4.000000,83.333336,,,,,,,,,,,,,,,,,5.000000,0.000000,0.681863,0.180420,-0.690552,0.160156,0.979123,0.029300,-0.018557,-6.970276,15.598453,94.602898
1702803624.726128,1702803625.077683,21.000000,0.000000,4147.820313,4138.461426,4247.051270,4213.077148,4141.410156,4123.846191,4249.615234,4125.256348,4106.153809,4117.820313,4610.000000,4375.897461,4361.153809,4484.358887,0.000000,3.000000,73.000000,,,,0.000000,4.000000,4.000000,4.000000,4.000000,4.000000,4.000000,2.000000,4.000000,4.000000,4.000000,4.000000,4.000000,4.000000,4.000000,83.333336,,,,,,,,,,,,,,,,,,,,,,,,,,,,
1702803624.733936,1702803625.085491,22.000000,0.000000,4157.307617,4146.794922,4251.666504,4225.769043,4141.666504,4123.333496,4248.974121,4127.179688,4107.692383,4116.410156,4605.384766,4386.538574,4365.384766,4488.846191,0.000000,3.000000,73.000000,,,,0.000000,4.000000,4.000000,4.000000,4.000000,4.000000,4.000000,2.000000,4.000000,4.000000,4.000000,4.000000,4.000000,4.000000,4.000000,83.333336,,,,,,,,,,,,,,,,,,,,,,,,,,,,
1702803624.741744,1702803625.093199,23.000000,0.000000,4165.897461,4150.000000,4259.615234,4216.410156,4137.179688,4118.589844,4246.153809,4128.717773,4115.256348,4123.717773,4600.384766,4388.205078,4364.743652,4493.333496,0.000000,3.000000,73.000000,,,,0.000000,4.000000,4.000000,4.000000,4.000000,4.000000,4.000000,2.000000,4.000000,4.000000,4.000000,4.000000,4.000000,4.000000,4.000000,83.333336,,,,,,,,,,,,,,,,,,,,,,,,,,,,
1702803624.749552,1702803625.101007,24.000000,0.000000,4161.153809,4146.922852,4258.846191,4205.128418,4133.589844,4116.282227,4249.230957,4131.282227,4117.436035,4128.461426,4611.025879,4390.256348,4371.410156,4501.410156,0.000000,3.000000,73.000000,,,,0.000000,4.000000,4.000000,4.000000,4.000000,4.000000,4.000000,2.000000,4.000000,4.000000,4.000000,4.000000,4.000000,4.000000,4.000000,83.333336,,,,,,,,,,,,,,,,,6.000000,0.000000,0.681943,0.180420,-0.690430,0.160339,0.997192,0.021975,-0.015627,-6.989915,15.605274,94.642609
1702803624.757361,1702803625.108715,25.000000,0.000000,4152.179688,4146.282227,4252.436035,4214.102539,4136.666504,4116.538574,4253.589844,4137.179688,4113.717773,4123.077148,4620.769043,4396.666504,4374.871582,4503.205078,0.000000,3.000000,73.000000,,,,0.000000,4.000000,4.000000,4.000000,4.000000,4.000000,4.000000,2.000000,4.000000,4.000000,4.000000,4.000000,4.000000,4.000000,4.000000,83.333336,,,,,,,,,,,,,,,,,,,,,,,,,,,,
1702803624.765169,1702803625.116623,26.000000,0.000000,4152.563965,4144.615234,4253.589844,4230.769043,4144.102539,4121.025879,4252.692383,4141.922852,4116.538574,4122.179688,4622.948730,4394.102539,4372.179688,4495.897461,0.000000,3.000000,73.000000,,,,0.000000,4.000000,4.000000,4.000000,4.000000,4.000000,4.000000,2.000000,4.000000,4.000000,4.000000,4.000000,4.000000,4.000000,4.000000,83.333336,1.000000,66.666664,4.000000,4.000000,4.000000,3.000000,4.000000,4.000000,2.000000,4.000000,4.000000,3.000000,4.000000,4.000000,4.000000,4.000000,,,,,,,,,,,,
1702803624.772977,1702803625.124431,27.000000,0.000000,4156.538574,4143.205078,4260.384766,4226.410156,4142.563965,4124.358887,4250.128418,4140.512695,4121.794922,4128.846191,4624.743652,4388.846191,4373.974121,4495.512695,0.000000,3.000000,73.000000,,,,0.000000,4.000000,4.000000,4.000000,4.000000,4.000000,4.000000,2.000000,4.000000,4.000000,4.000000,4.000000,4.000000,4.000000,4.000000,83.333336,,,,,,,,,,,,,,,,,,,,,,,,,,,,
1702803624.780785,1702803625.132339,28.000000,0.000000,4155.897461,4146.410156,4256.410156,4220.512695,4136.794922,4118.333496,4246.922852,4136.794922,4118.717773,4125.384766,4621.153809,4390.384766,4371.922852,4499.358887,0.000000,3.000000,73.000000,,,,0.000000,4.000000,4.000000,4.000000,4.000000,4.000000,4.000000,2.000000,4.000000,4.000000,4.000000,4.000000,4.000000,4.000000,4.000000,83.333336,,,,,,,,,,,,,,,,,7.000000,0.000000,0.682005,0.180420,-0.690369,0.160339,1.002564,0.024417,-0.020510,-7.090924,15.778080,94.628342
1702803624.788593,1702803625.140147,29.000000,0.000000,4155.641113,4148.333496,4252.051270,4225.128418,4139.230957,4120.384766,4248.333496,4140.769043,4119.871582,4122.948730,4621.282227,4398.974121,4371.153809,4499.102539,0.000000,3.000000,73.000000,,,,0.000000,4.000000,4.000000,4.000000,4.000000,4.000000,4.000000,2.000000,4.000000,4.000000,4.000000,4.000000,4.000000,4.000000,4.000000,83.333336,,,,,,,,,,,,,,,,,,,,,,,,,,,,
1702803624.796401,1702803625.148056,30.000000,0.000000,4151.282227,4140.384766,4251.153809,4203.333496,4141.410156,4130.641113,4252.820313,4141.922852,4123.974121,4128.461426,4619.871582,4398.589844,4372.307617,4497.436035,0.000000,3.000000,73.000000,,,,0.000000,4.000000,4.000000,4.000000,4.000000,4.000000,4.000000,2.000000,4.000000,4.000000,4.000000,4.000000,4.000000,4.000000,4.000000,83.333336,,,,,,,,,,,,,,,,,,,,,,,,,,,,
1702803624.804209,1702803625.155864,31.000000,0.000000,4148.589844,4138.461426,4250.000000,4199.230957,4142.051270,4133.205078,4252.692383,4134.743652,4118.333496,4127.563965,4614.230957,4389.743652,4367.692383,4493.077148,0.000000,3.000000,73.000000,,,,0.000000,4.000000,4.000000,4.000000,4.000000,4.000000,4.000000,2.000000,4.000000,4.000000,4.000000,4.000000,4.000000,4.000000,4.000000,83.333336,,,,,,,,,,,,,,,,,,,,,,,,,,,,
1702803624.812017,1702803625.163772,32.000000,0.000000,4155.000000,4148.205078,4255.641113,4233.846191,4145.512695,4134.230957,4251.538574,4135.641113,4116.025879,4122.563965,4621.538574,4390.641113,4367.563965,4489.743652,0.000000,3.000000,73.000000,,,,0.000000,4.000000,4.000000,4.000000,4.000000,4.000000,4.000000,2.000000,4.000000,4.000000,4.000000,4.000000,4.000000,4.000000,4.000000,83.333336,,,,,,,,,,,,,,,,,8.000000,0.000000,0.682034,0.180420,-0.690369,0.160217,0.993285,0.022464,-0.013674,-6.915164,15.850272,94.865509
1702803624.819825,1702803625.171580,33.000000,0.000000,4157.051270,4150.256348,4258.205078,4240.512695,4144.871582,4136.666504,4251.666504,4139.615234,4124.615234,4126.282227,4626.794922,4393.461426,4370.128418,4488.205078,0.000000,3.000000,73.000000,,,,0.000000,4.000000,4.000000,4.000000,4.000000,4.000000,4.000000,2.000000,4.000000,4.000000,4.000000,4.000000,4.000000,4.000000,4.000000,83.333336,,,,,,,,,,,,,,,,,,,,,,,,,,,,
1702803624.827633,1702803625.179488,34.000000,0.000000,4153.974121,4148.205078,4255.641113,4218.333496,4139.487305,4133.717773,4251.410156,4138.589844,4133.205078,4135.000000,4620.256348,4389.615234,4367.692383,4485.384766,0.000000,3.000000,73.000000,,,,0.000000,4.000000,4.000000,4.000000,4.000000,4.000000,4.000000,2.000000,4.000000,4.000000,4.000000,4.000000,4.000000,4.000000,4.000000,83.333336,,,,,,,,,,,,,,,,,,,,,,,,,,,,
1702803624.835441,1702803625.187296,35.000000,0.000000,4153.333496,4146.153809,4256.538574,4212.051270,4137.692383,4124.487305,4252.307617,4137.051270,4128.717773,4129.358887,4615.384766,4384.102539,4364.358887,4480.256348,0.000000,3.000000,73.000000,,,,0.000000,4.000000,4.000000,4.000000,4.000000,4.000000,4.000000,2.000000,4.000000,4.000000,4.000000,4.000000,4.000000,4.000000,4.000000,83.333336,,,,,,,,,,,,,,,,,,,,,,,,,,,,
1702803624.843249,1702803625.195205,36.000000,0.000000,4156.922852,4145.641113,4263.717773,4226.538574,4139.743652,4123.077148,4252.820313,4142.692383,4123.077148,4119.743652,4610.256348,4389.615234,4365.641113,4481.666504,0.000000,3.000000,73.000000,,,,0.000000,4.000000,4.000000,4.000000,4.000000,4.000000,4.000000,2.000000,4.000000,4.000000,4.000000,4.000000,4.000000,4.000000,4.000000,83.333336,,,,,,,,,,,,,,,,,9.000000,0.000000,0.681973,0.180237,-0.690491,0.160156,0.986449,0.019045,-0.019534,-6.940315,15.865245,94.912292
1702803624.851057,1702803625.203013,37.000000,0.000000,4162.179688,4146.025879,4266.794922,4221.794922,4137.820313,4127.820313,4251.153809,4146.410156,4127.563965,4120.641113,4610.769043,4400.256348,4364.487305,4491.153809,0.000000,3.000000,73.000000,,,,0.000000,4.000000,4.000000,4.000000,4.000000,4.000000,4.000000,2.000000,4.000000,4.000000,4.000000,4.000000,4.000000,4.000000,4.000000,83.333336,,,,,,,,,,,,,,,,,,,,,,,,,,,,
1702803624.858865,1702803625.210921,38.000000,0.000000,4160.128418,4143.717773,4264.871582,4205.641113,4137.436035,4125.641113,4250.256348,4140.256348,4127.820313,4124.487305,4620.128418,4396.922852,4361.410156,4492.051270,0.000000,3.000000,73.000000,,,,0.000000,4.000000,4.000000,4.000000,4.000000,4.000000,4.000000,2.000000,4.000000,4.000000,4.000000,4.000000,4.000000,4.000000,4.000000,83.333336,,,,,,,,,,,,,,,,,,,,,,,,,,,,
1702803624.866674,1702803625.218729,39.000000,0.000000,4157.307617,4145.897461,4269.743652,4220.897461,4145.000000,4123.333496,4249.871582,4138.461426,4125.000000,4132.436035,4626.282227,4391.922852,4368.333496,4488.461426,0.000000,3.000000,73.000000,,,,0.000000,4.000000,4.000000,4.000000,4.000000,4.000000,4.000000,2.000000,4.000000,4.000000,4.000000,4.000000,4.000000,4.000000,4.000000,83.333336,,,,,,,,,,,,,,,,,,,,,,,,,,,,
1702803624.874482,1702803625.226537,40.000000,0.000000,4154.743652,4142.436035,4269.743652,4240.256348,4146.794922,4124.487305,4250.384766,4139.358887,4122.307617,4132.051270,4617.563965,4393.077148,4367.692383,4485.769043,0.000000,3.000000,73.000000,,,,0.000000,4.000000,4.000000,4.000000,4.000000,4.000000,4.000000,2.000000,4.000000,4.000000,4.000000,4.000000,4.000000,4.000000,4.000000,83.333336,,,,,,,,,,,,,,,,,10.000000,0.000000,0.681959,0.180237,-0.690491,0.160217,0.997192,0.039067,-0.019534,-6.996284,15.795387,94.921066
1702803624.882290,1702803625.234445,41.000000,0.000000,4151.410156,4131.794922,4260.512695,4223.205078,4142.692383,4128.333496,4253.589844,4137.820313,4120.256348,4122.820313,4613.717773,4392.179688,4363.717773,4484.743652,0.000000,3.000000,73.000000,,,,0.000000,4.000000,4.000000,4.000000,4.000000,4.000000,4.000000,2.000000,4.000000,4.000000,4.000000,4.000000,4.000000,4.000000,4.000000,83.333336,,,,,,,,,,,,,,,,,,,,,,,,,,,,
1702803624.890098,1702803625.242254,42.000000,0.000000,4155.128418,4135.384766,4262.436035,4212.563965,4145.641113,4134.615234,4256.538574,4140.512695,4126.025879,4125.769043,4622.820313,4395.897461,4372.051270,4492.948730,0.000000,3.000000,73.000000,,,,0.000000,4.000000,4.000000,4.000000,4.000000,4.000000,4.000000,2.000000,4.000000,4.000000,4.000000,4.000000,4.000000,4.000000,4.000000,83.333336,,,,,,,,,,,,,,,,,,,,,,,,,,,,
1702803624.897906,1702803625.250162,43.000000,0.000000,4158.077148,4142.692383,4270.256348,4224.230957,4149.102539,4134.615234,4256.922852,4142.692383,4126.153809,4127.179688,4617.563965,4398.333496,4372.563965,4496.794922,0.000000,3.000000,73.000000,,,,0.000000,4.000000,4.000000,4.000000,4.000000,4.000000,4.000000,2.000000,4.000000,4.000000,4.000000,4.000000,4.000000,4.000000,4.000000,83.333336,,,,,,,,,,,,,,,,,,,,,,,,,,,,
1702803624.905714,1702803625.257970,44.000000,0.000000,4157.179688,4139.615234,4268.333496,4226.025879,4147.948730,4132.692383,4255.256348,4140.897461,4119.230957,4123.717773,4609.743652,4393.846191,4367.436035,4493.077148,0.000000,3.000000,73.000000,,,,0.000000,4.000000,4.000000,4.000000,4.000000,4.000000,4.000000,2.000000,4.000000,4.000000,4.000000,4.000000,4.000000,4.000000,4.000000,83.333336,,,,,,,,,,,,,,,,,11.000000,0.000000,0.681959,0.180237,-0.690491,0.160217,0.990844,0.025882,-0.021975,-6.929988,15.782515,95.045624
1702803624.913522,1702803625.265778,45.000000,0.000000,4153.974121,4135.384766,4259.230957,4208.077148,4146.538574,4130.641113,4251.922852,4140.512695,4118.717773,4124.871582,4615.000000,4386.922852,4366.794922,4489.358887,0.000000,3.000000,73.000000,,,,0.000000,4.000000,4.000000,4.000000,4.000000,4.000000,4.000000,2.000000,4.000000,4.000000,4.000000,4.000000,4.000000,4.000000,4.000000,83.333336,,,,,,,,,,,,,,,,,,,,,,,,,,,,
1702803624.921330,1702803625.273486,46.000000,0.000000,4144.871582,4130.128418,4248.717773,4192.307617,4143.077148,4123.717773,4249.871582,4137.820313,4118.333496,4115.641113,4608.333496,4376.025879,4357.051270,4477.948730,0.000000,3.000000,73.000000,,,,0.000000,4.000000,4.000000,4.000000,4.000000,4.000000,4.000000,2.000000,4.000000,4.000000,4.000000,4.000000,4.000000,4.000000,4.000000,83.333336,,,,,,,,,,,,,,,,,,,,,,,,,,,,
1702803624.929138,1702803625.281294,47.000000,0.000000,4141.282227,4124.487305,4246.025879,4208.333496,4137.563965,4124.358887,4255.256348,4136.282227,4116.282227,4108.717773,4596.282227,4371.025879,4348.717773,4469.871582,0.000000,3.000000,73.000000,,,,0.000000,4.000000,4.000000,4.000000,4.000000,4.000000,4.000000,2.000000,4.000000,4.000000,4.000000,4.000000,4.000000,4.000000,4.000000,83.333336,,,,,,,,,,,,,,,,,,,,,,,,,,,,
1702803624.936946,1702803625.289002,48.000000,0.000000,4147.692383,4130.256348,4253.589844,4231.794922,4139.615234,4130.384766,4261.025879,4141.538574,4118.846191,4120.256348,4598.717773,4377.692383,4354.743652,4476.153809,0.000000,3.000000,73.000000,,,,0.000000,4.000000,4.000000,4.000000,4.000000,4.000000,4.000000,2.000000,4.000000,4.000000,4.000000,4.000000,4.000000,4.000000,4.000000,83.333336,,,,,,,,,,,,,,,,,12.000000,0.000000,0.681792,0.180237,-0.690613,0.160400,0.994750,0.016604,-0.004395,-6.886990,15.870930,94.924393
1702803624.944754,1702803625.296810,49.000000,0.000000,4155.897461,4140.000000,4263.589844,4227.563965,4148.333496,4131.153809,4257.820313,4144.871582,4125.769043,4129.358887,4606.794922,4384.743652,4365.512695,4486.794922,0.000000,3.000000,73.000000,,,,0.000000,4.000000,4.000000,4.000000,4.000000,4.000000,4.000000,2.000000,4.000000,4.000000,4.000000,4.000000,4.000000,4.000000,4.000000,83.333336,,,,,,,,,,,,,,,,,,,,,,,,,,,,
1702803624.952562,1702803625.304518,50.000000,0.000000,4157.948730,4139.358887,4264.102539,4219.358887,4151.538574,4130.128418,4256.025879,4145.897461,4132.948730,4131.538574,4613.077148,4387.051270,4373.846191,4488.205078,0.000000,3.000000,73.000000,,,,0.000000,4.000000,4.000000,4.000000,4.000000,4.000000,4.000000,2.000000,4.000000,4.000000,4.000000,4.000000,4.000000,4.000000,4.000000,83.333336,,,,,,,,,,,,,,,,,,,,,,,,,,,,
1702803624.960370,1702803625.312426,51.000000,0.000000,4153.589844,4136.025879,4257.436035,4222.307617,4150.000000,4129.358887,4257.436035,4148.461426,4137.179688,4139.230957,4621.025879,4391.794922,4378.717773,4487.436035,0.000000,3.000000,73.000000,,,,0.000000,4.000000,4.000000,4.000000,4.000000,4.000000,4.000000,2.000000,4.000000,4.000000,4.000000,4.000000,4.000000,4.000000,4.000000,83.333336,,,,,,,,,,,,,,,,,,,,,,,,,,,,
1702803624.968179,1702803625.320235,52.000000,0.000000,4152.948730,4142.436035,4260.000000,4227.692383,4151.794922,4131.282227,4256.282227,4149.615234,4133.333496,4140.384766,4628.589844,4399.743652,4379.615234,4492.820313,0.000000,3.000000,73.000000,,,,0.000000,4.000000,4.000000,4.000000,4.000000,4.000000,4.000000,2.000000,4.000000,4.000000,4.000000,4.000000,4.000000,4.000000,4.000000,83.333336,,,,,,,,,,,,,,,,,13.000000,0.000000,0.681826,0.180054,-0.690613,0.160461,0.987914,0.025882,-0.009278,-6.931624,15.783837,95.065285
1702803624.975987,1702803625.328143,53.000000,0.000000,4155.384766,4145.641113,4264.871582,4220.256348,4151.666504,4133.461426,4257.051270,4147.307617,4125.256348,4129.230957,4628.717773,4396.666504,4378.077148,4488.846191,0.000000,3.000000,73.000000,,,,0.000000,4.000000,4.000000,4.000000,4.000000,4.000000,4.000000,2.000000,4.000000,4.000000,4.000000,4.000000,4.000000,4.000000,4.000000,83.333336,,,,,,,,,,,,,,,,,,,,,,,,,,,,
1702803624.983795,1702803625.335951,54.000000,0.000000,4159.102539,4141.153809,4263.974121,4212.948730,4148.589844,4132.692383,4257.692383,4144.743652,4125.128418,4128.589844,4627.051270,4391.410156,4384.230957,4487.692383,0.000000,3.000000,73.000000,,,,0.000000,4.000000,4.000000,4.000000,4.000000,4.000000,4.000000,2.000000,4.000000,4.000000,4.000000,4.000000,4.000000,4.000000,4.000000,83.333336,,,,,,,,,,,,,,,,,,,,,,,,,,,,
1702803624.991603,1702803625.343859,55.000000,0.000000,4157.179688,4137.563965,4262.051270,4224.743652,4148.077148,4133.205078,4256.153809,4142.436035,4129.230957,4133.077148,4621.410156,4390.897461,4379.230957,4488.846191,0.000000,3.000000,73.000000,,,,0.000000,4.000000,4.000000,4.000000,4.000000,4.000000,4.000000,2.000000,4.000000,4.000000,4.000000,4.000000,4.000000,4.000000,4.000000,83.333336,,,,,,,,,,,,,,,,,,,,,,,,,,,,
1702803624.999411,1702803625.351667,56.000000,0.000000,4146.538574,4132.179688,4259.615234,4235.769043,4145.897461,4134.871582,4256.282227,4140.769043,4126.666504,4123.974121,4608.461426,4386.794922,4353.461426,4474.102539,0.000000,3.000000,73.000000,,,,0.000000,4.000000,4.000000,4.000000,4.000000,4.000000,4.000000,2.000000,4.000000,4.000000,4.000000,4.000000,4.000000,4.000000,4.000000,83.333336,,,,,,,,,,,,,,,,,14.000000,0.000000,0.681811,0.179932,-0.690674,0.160400,0.994750,0.019534,-0.025882,-6.905128,15.772120,95.058762
1702803625.007219,1702803625.359575,57.000000,0.000000,4151.410156,4136.025879,4261.410156,4225.256348,4145.384766,4132.692383,4255.384766,4145.769043,4130.128418,4126.538574,4613.717773,4397.692383,4366.025879,4479.487305,0.000000,3.000000,73.000000,,,,0.000000,4.000000,4.000000,4.000000,4.000000,4.000000,4.000000,2.000000,4.000000,4.000000,4.000000,4.000000,4.000000,4.000000,4.000000,83.333336,,,,,,,,,,,,,,,,,,,,,,,,,,,,
1702803625.015027,1702803625.367384,58.000000,0.000000,4167.436035,4144.102539,4266.410156,4215.000000,4148.333496,4128.077148,4253.077148,4150.897461,4140.512695,4147.948730,4639.358887,4416.922852,4416.025879,4512.436035,0.000000,3.000000,73.000000,,,,0.000000,4.000000,4.000000,4.000000,4.000000,4.000000,4.000000,2.000000,4.000000,4.000000,4.000000,4.000000,4.000000,4.000000,4.000000,83.333336,,,,,,,,,,,,,,,,,,,,,,,,,,,,
1702803625.022835,1702803625.375292,59.000000,0.000000,4168.333496,4141.666504,4269.102539,4222.436035,4145.128418,4127.436035,4255.000000,4147.948730,4137.692383,4148.205078,4649.615234,4416.410156,4425.641113,4521.410156,0.000000,3.000000,73.000000,,,,0.000000,4.000000,4.000000,4.000000,4.000000,4.000000,4.000000,2.000000,4.000000,4.000000,4.000000,4.000000,4.000000,4.000000,4.000000,83.333336,,,,,,,,,,,,,,,,,,,,,,,,,,,,
1702803625.030643,1702803625.383100,60.000000,0.000000,4161.025879,4138.333496,4268.846191,4216.153809,4137.563965,4126.922852,4254.871582,4141.794922,4126.666504,4134.743652,4632.179688,4409.615234,4400.256348,4506.153809,0.000000,3.000000,73.000000,,,,0.000000,4.000000,4.000000,4.000000,4.000000,4.000000,4.000000,2.000000,4.000000,4.000000,4.000000,4.000000,4.000000,4.000000,4.000000,83.333336,,,,,,,,,,,,,,,,,15.000000,0.000000,0.681763,0.179932,-0.690735,0.160339,0.993774,0.032230,-0.023440,-6.931282,15.628242,94.969551
1702803625.038451,1702803625.390808,61.000000,0.000000,4160.512695,4133.333496,4265.897461,4195.897461,4137.692383,4122.179688,4251.025879,4139.230957,4124.615234,4139.871582,4623.333496,4410.128418,4397.563965,4504.871582,0.000000,3.000000,73.000000,,,,0.000000,4.000000,4.000000,4.000000,4.000000,4.000000,4.000000,2.000000,4.000000,4.000000,4.000000,4.000000,4.000000,4.000000,4.000000,83.333336,,,,,,,,,,,,,,,,,,,,,,,,,,,,
1702803625.046259,1702803625.398616,62.000000,0.000000,4159.871582,4128.589844,4263.205078,4209.358887,4145.000000,4126.153809,4250.641113,4142.948730,4131.666504,4145.384766,4638.461426,4408.333496,4407.307617,4510.000000,0.000000,3.000000,73.000000,,,,0.000000,4.000000,4.000000,4.000000,4.000000,4.000000,4.000000,2.000000,4.000000,4.000000,4.000000,4.000000,4.000000,4.000000,4.000000,83.333336,,,,,,,,,,,,,,,,,,,,,,,,,,,,
1702803625.054067,1702803625.406325,63.000000,0.000000,4155.769043,4130.256348,4264.230957,4236.922852,4146.410156,4135.512695,4253.717773,4147.307617,4135.384766,4138.589844,4636.410156,4404.230957,4402.179688,4503.461426,0.000000,3.000000,73.000000,,,,0.000000,4.000000,4.000000,4.000000,4.000000,4.000000,4.000000,2.000000,4.000000,4.000000,4.000000,4.000000,4.000000,4.000000,4.000000,83.333336,,,,,,,,,,,,,,,,,,,,,,,,,,,,
1702803625.061875,1702803625.414133,64.000000,0.000000,4158.333496,4133.461426,4268.974121,4228.077148,4143.589844,4135.384766,4256.922852,4148.974121,4133.717773,4138.717773,4623.717773,4406.666504,4392.051270,4499.871582,5203.000000,3.000000,73.000000,,,,0.000000,4.000000,4.000000,4.000000,4.000000,4.000000,4.000000,2.000000,4.000000,4.000000,4.000000,4.000000,4.000000,4.000000,4.000000,83.333336,,,,,,,,,,,,,,,,,16.000000,0.000000,0.681717,0.180054,-0.690735,0.160400,0.998169,0.025394,-0.015139,-6.888154,15.648750,94.989265
1702803625.069684,1702803625.421841,65.000000,0.000000,4166.025879,4132.820313,4273.974121,4211.922852,4143.589844,4133.333496,4259.102539,4150.512695,4132.436035,4139.230957,4630.512695,4411.538574,4387.179688,4503.717773,5402.000000,3.000000,73.000000,,,,0.000000,4.000000,4.000000,4.000000,4.000000,4.000000,4.000000,2.000000,4.000000,4.000000,4.000000,4.000000,4.000000,4.000000,4.000000,83.333336,,,,,,,,,,,,,,,,,,,,,,,,,,,,
1702803625.077492,1702803625.429649,66.000000,0.000000,4167.563965,4131.153809,4275.641113,4224.743652,4142.948730,4132.948730,4255.769043,4149.358887,4130.256348,4130.384766,4630.384766,4409.871582,4389.230957,4504.743652,4746.000000,3.000000,73.000000,,,,0.000000,4.000000,4.000000,4.000000,4.000000,4.000000,4.000000,2.000000,4.000000,4.000000,4.000000,4.000000,4.000000,4.000000,4.000000,83.333336,,,,,,,,,,,,,,,,,,,,,,,,,,,,
1702803625.085300,1702803625.437357,67.000000,0.000000,4164.487305,4131.922852,4273.205078,4226.538574,4141.666504,4131.282227,4248.717773,4148.205078,4128.589844,4131.538574,4626.025879,4409.871582,4393.846191,4503.717773,5193.000000,3.000000,73.000000,,,,0.000000,4.000000,4.000000,4.000000,4.000000,4.000000,4.000000,2.000000,4.000000,4.000000,4.000000,4.000000,4.000000,4.000000,4.000000,83.333336,,,,,,,,,,,,,,,,,,,,,,,,,,,,
1702803625.093108,1702803625.445165,68.000000,0.000000,4165.897461,4133.205078,4270.512695,4218.846191,4143.461426,4134.102539,4239.743652,4148.205078,4128.846191,4140.512695,4639.871582,4413.846191,4395.641113,4506.666504,5095.000000,3.000000,73.000000,,,,0.000000,4.000000,4.000000,4.000000,4.000000,4.000000,4.000000,2.000000,4.000000,4.000000,4.000000,4.000000,4.000000,4.000000,4.000000,83.333336,,,,,,,,,,,,,,,,,17.000000,0.000000,0.681775,0.180176,-0.690674,0.160278,0.993285,0.025882,-0.024417,-6.982672,15.633876,95.040337
1702803625.100916,1702803625.452874,69.000000,0.000000,4169.743652,4132.563965,4274.102539,4218.846191,4143.077148,4131.922852,4230.512695,4141.922852,4125.384766,4135.769043,4633.974121,4409.871582,4390.384766,4507.051270,5093.000000,3.000000,73.000000,,,,0.000000,4.000000,4.000000,4.000000,4.000000,4.000000,4.000000,2.000000,4.000000,4.000000,4.000000,4.000000,4.000000,4.000000,4.000000,83.333336,,,,,,,,,,,,,,,,,,,,,,,,,,,,
1702803625.108724,1702803625.460681,70.000000,0.000000,4169.615234,4130.128418,4280.256348,4206.666504,4139.487305,4121.794922,4228.717773,4138.461426,4121.538574,4129.358887,4613.333496,4404.358887,4386.666504,4503.205078,1249.000000,3.000000,73.000000,,,,0.000000,4.000000,4.000000,4.000000,4.000000,4.000000,4.000000,2.000000,4.000000,4.000000,4.000000,4.000000,4.000000,4.000000,4.000000,83.333336,,,,,,,,,,,,,,,,,,,,,,,,,,,,
1702803625.116532,1702803625.468390,71.000000,0.000000,4169.230957,4134.230957,4280.897461,4215.384766,4143.077148,4122.307617,4231.153809,4144.230957,4125.000000,4133.077148,4629.102539,4414.871582,4395.512695,4508.077148,4874.000000,3.000000,73.000000,,,,0.000000,4.000000,4.000000,4.000000,4.000000,4.000000,4.000000,2.000000,4.000000,4.000000,4.000000,4.000000,4.000000,4.000000,4.000000,83.333336,,,,,,,,,,,,,,,,,,,,,,,,,,,,
1702803625.124340,1702803625.476198,72.000000,0.000000,4165.769043,4136.282227,4274.615234,4241.153809,4147.307617,4130.128418,4226.025879,4147.692383,4128.846191,4132.948730,4645.769043,4420.897461,4400.384766,4510.897461,5126.000000,3.000000,73.000000,,,,0.000000,4.000000,4.000000,4.000000,4.000000,4.000000,4.000000,2.000000,4.000000,4.000000,4.000000,4.000000,4.000000,4.000000,4.000000,83.333336,,,,,,,,,,,,,,,,,18.000000,0.000000,0.681775,0.180176,-0.690674,0.160278,0.992797,0.014162,-0.021487,-7.101071,15.703821,94.919632
1702803625.132148,1702803625.483906,73.000000,0.000000,4159.487305,4130.641113,4266.538574,4231.153809,4143.846191,4129.487305,4221.025879,4143.846191,4123.333496,4130.000000,4624.102539,4405.000000,4388.205078,4499.358887,5215.000000,3.000000,73.000000,,,,0.000000,4.000000,4.000000,4.000000,4.000000,4.000000,4.000000,2.000000,4.000000,4.000000,4.000000,4.000000,4.000000,4.000000,4.000000,83.333336,,,,,,,,,,,,,,,,,,,,,,,,,,,,
1702803625.139956,1702803625.491714,74.000000,0.000000,4159.615234,4128.077148,4263.974121,4207.436035,4139.358887,4126.794922,4225.256348,4142.563965,4116.922852,4130.897461,4612.820313,4397.820313,4379.358887,4494.102539,5783.000000,3.000000,73.000000,,,,0.000000,4.000000,4.000000,4.000000,4.000000,4.000000,4.000000,2.000000,4.000000,4.000000,4.000000,4.000000,4.000000,4.000000,4.000000,83.333336,,,,,,,,,,,,,,,,,,,,,,,,,,,,
1702803625.147764,1702803625.499422,75.000000,0.000000,4160.897461,4124.615234,4267.307617,4217.563965,4138.333496,4131.794922,4231.025879,4149.358887,4121.538574,4126.153809,4624.102539,4408.589844,4379.743652,4502.948730,5850.000000,3.000000,73.000000,,,,0.000000,4.000000,4.000000,4.000000,4.000000,4.000000,4.000000,2.000000,4.000000,4.000000,4.000000,4.000000,4.000000,4.000000,4.000000,83.333336,,,,,,,,,,,,,,,,,,,,,,,,,,,,
1702803625.155573,1702803625.507230,76.000000,0.000000,4154.102539,4121.794922,4263.333496,4224.358887,4140.512695,4134.615234,4229.358887,4153.333496,4123.974121,4118.333496,4628.333496,4411.538574,4379.230957,4507.436035,6711.000000,3.000000,73.000000,,,,0.000000,4.000000,4.000000,4.000000,4.000000,4.000000,4.000000,2.000000,4.000000,4.000000,4.000000,4.000000,4.000000,4.000000,4.000000,83.333336,,,,,,,,,,,,,,,,,19.000000,0.000000,0.681711,0.180237,-0.690735,0.160217,0.988402,0.018069,-0.028324,-7.040964,15.633439,94.944336
1702803625.163381,1702803625.514938,77.000000,0.000000,4151.153809,4121.922852,4256.282227,4195.000000,4141.282227,4131.922852,4228.205078,4149.230957,4117.948730,4121.922852,4628.333496,4405.000000,4381.794922,4503.717773,6910.000000,3.000000,73.000000,,,,0.000000,4.000000,4.000000,4.000000,4.000000,4.000000,4.000000,2.000000,4.000000,4.000000,4.000000,4.000000,4.000000,4.000000,4.000000,83.333336,,,,,,,,,,,,,,,,,,,,,,,,,,,,
1702803625.171189,1702803625.522746,78.000000,0.000000,4153.589844,4115.769043,4259.102539,4191.153809,4137.179688,4132.563965,4231.794922,4147.179688,4118.333496,4123.974121,4625.000000,4404.102539,4379.871582,4500.384766,5783.000000,3.000000,73.000000,,,,0.000000,4.000000,4.000000,4.000000,4.000000,4.000000,4.000000,2.000000,4.000000,4.000000,4.000000,4.000000,4.000000,4.000000,4.000000,83.333336,,,,,,,,,,,,,,,,,,,,,,,,,,,,
1702803625.178997,1702803625.530454,79.000000,0.000000,4150.384766,4109.358887,4260.512695,4220.769043,4136.922852,4133.589844,4230.769043,4149.871582,4120.641113,4116.025879,4617.692383,4404.615234,4367.307617,4495.256348,5850.000000,3.000000,73.000000,,,,0.000000,4.000000,4.000000,4.000000,4.000000,4.000000,4.000000,2.000000,4.000000,4.000000,4.000000,4.000000,4.000000,4.000000,4.000000,83.333336,,,,,,,,,,,,,,,,,,,,,,,,,,,,
1702803625.186805,1702803625.538362,80.000000,0.000000,4153.333496,4122.820313,4263.077148,4227.563965,4140.769043,4128.077148,4228.589844,4148.205078,4119.230957,4118.589844,4619.743652,4405.128418,4370.897461,4497.307617,6711.000000,3.000000,73.000000,,,,0.000000,4.000000,4.000000,4.000000,4.000000,4.000000,4.000000,2.000000,4.000000,4.000000,4.000000,4.000000,4.000000,4.000000,4.000000,83.333336,,,,,,,,,,,,,,,,,20.000000,0.000000,0.681769,0.180237,-0.690735,0.159973,0.991820,0.024905,-0.023440,-7.053535,15.753428,94.949905
1702803625.194613,1702803625.546170,81.000000,0.000000,4166.410156,4135.769043,4274.487305,4212.820313,4140.512695,4121.025879,4231.025879,4142.436035,4119.487305,4128.333496,4620.641113,4413.717773,4387.563965,4508.333496,6910.000000,3.000000,73.000000,,,,0.000000,4.000000,4.000000,4.000000,4.000000,4.000000,4.000000,2.000000,4.000000,4.000000,4.000000,4.000000,4.000000,4.000000,4.000000,83.333336,,,,,,,,,,,,,,,,,,,,,,,,,,,,
1702803625.202421,1702803625.554078,82.000000,0.000000,4174.871582,4134.871582,4281.922852,4218.589844,4143.205078,4123.589844,4227.436035,4145.897461,4123.717773,4129.743652,4626.282227,4421.922852,4391.666504,4512.692383,5783.000000,3.000000,73.000000,,,,0.000000,4.000000,4.000000,4.000000,4.000000,4.000000,4.000000,2.000000,4.000000,4.000000,4.000000,4.000000,4.000000,4.000000,4.000000,83.333336,,,,,,,,,,,,,,,,,,,,,,,,,,,,
1702803625.210229,1702803625.561886,83.000000,0.000000,4173.077148,4139.358887,4281.025879,4231.025879,4146.025879,4127.820313,4223.077148,4151.410156,4124.871582,4130.000000,4643.077148,4417.820313,4386.922852,4508.974121,5850.000000,3.000000,73.000000,,,,0.000000,4.000000,4.000000,4.000000,4.000000,4.000000,4.000000,2.000000,4.000000,4.000000,4.000000,4.000000,4.000000,4.000000,4.000000,83.333336,,,,,,,,,,,,,,,,,,,,,,,,,,,,
1702803625.218037,1702803625.569794,84.000000,0.000000,4168.717773,4139.871582,4280.128418,4217.307617,4141.538574,4126.794922,4228.461426,4149.230957,4125.897461,4133.717773,4640.384766,4411.922852,4385.384766,4506.922852,6711.000000,3.000000,73.000000,,,,0.000000,4.000000,4.000000,4.000000,4.000000,4.000000,4.000000,2.000000,4.000000,4.000000,4.000000,4.000000,4.000000,4.000000,4.000000,83.333336,,,,,,,,,,,,,,,,,21.000000,0.000000,0.681795,0.180176,-0.690796,0.159668,0.986937,0.028812,-0.019045,-6.998181,15.844752,95.004913
1702803625.225845,1702803625.577603,85.000000,0.000000,4172.307617,4133.461426,4283.717773,4203.205078,4140.256348,4124.487305,4228.333496,4148.846191,4129.615234,4138.461426,4631.282227,4418.846191,4393.205078,4511.666504,6910.000000,3.000000,73.000000,,,,0.000000,4.000000,4.000000,4.000000,4.000000,4.000000,4.000000,2.000000,4.000000,4.000000,4.000000,4.000000,4.000000,4.000000,4.000000,83.333336,,,,,,,,,,,,,,,,,,,,,,,,,,,,
1702803625.233653,1702803625.585511,86.000000,0.000000,4176.666504,4139.102539,4287.948730,4217.948730,4145.512695,4122.563965,4221.410156,4148.589844,4129.102539,4141.666504,4644.615234,4423.589844,4400.000000,4511.666504,5783.000000,3.000000,73.000000,,,,0.000000,4.000000,4.000000,4.000000,4.000000,4.000000,4.000000,2.000000,4.000000,4.000000,4.000000,4.000000,4.000000,4.000000,4.000000,83.333336,,,,,,,,,,,,,,,,,,,,,,,,,,,,
1702803625.241461,1702803625.593319,87.000000,0.000000,4173.974121,4146.410156,4288.974121,4239.487305,4151.922852,4125.000000,4222.436035,4143.333496,4126.538574,4139.230957,4642.563965,4418.717773,4393.461426,4507.820313,5850.000000,3.000000,73.000000,,,,0.000000,4.000000,4.000000,4.000000,4.000000,4.000000,4.000000,2.000000,4.000000,4.000000,4.000000,4.000000,4.000000,4.000000,4.000000,83.333336,,,,,,,,,,,,,,,,,,,,,,,,,,,,
1702803625.249269,1702803625.601227,88.000000,0.000000,4175.000000,4142.948730,4287.179688,4240.000000,4155.641113,4130.128418,4227.820313,4144.230957,4128.717773,4144.871582,4632.948730,4426.153809,4397.948730,4517.436035,6711.000000,3.000000,73.000000,,,,0.000000,4.000000,4.000000,4.000000,4.000000,4.000000,4.000000,2.000000,4.000000,4.000000,4.000000,4.000000,4.000000,4.000000,4.000000,83.333336,,,,,,,,,,,,,,,,,22.000000,0.000000,0.681790,0.180176,-0.690857,0.159424,1.000122,0.025394,-0.026370,-6.815030,15.926944,94.937759
1702803625.257078,1702803625.609035,89.000000,0.000000,4173.077148,4135.256348,4276.794922,4223.589844,4150.384766,4130.384766,4228.589844,4146.153809,4130.000000,4151.538574,4644.871582,4425.897461,4397.820313,4516.666504,6910.000000,3.000000,73.000000,,,,0.000000,4.000000,4.000000,4.000000,4.000000,4.000000,4.000000,2.000000,4.000000,4.000000,4.000000,4.000000,4.000000,4.000000,4.000000,83.333336,,,,,,,,,,,,,,,,,,,,,,,,,,,,
1702803625.264886,1702803625.616744,90.000000,0.000000,4157.820313,4129.102539,4262.820313,4212.051270,4142.179688,4127.051270,4224.615234,4137.820313,4124.102539,4135.256348,4641.153809,4404.358887,4372.436035,4495.256348,5783.000000,3.000000,73.000000,,,,0.000000,4.000000,4.000000,4.000000,4.000000,4.000000,4.000000,2.000000,4.000000,4.000000,4.000000,4.000000,4.000000,4.000000,4.000000,83.333336,1.000000,75.000000,4.000000,4.000000,4.000000,3.000000,4.000000,4.000000,2.000000,4.000000,4.000000,4.000000,4.000000,4.000000,4.000000,4.000000,,,,,,,,,,,,
1702803625.272694,1702803625.624552,91.000000,0.000000,4154.615234,4128.333496,4262.436035,4218.461426,4142.051270,4125.769043,4222.692383,4134.487305,4120.128418,4121.538574,4625.512695,4404.615234,4376.538574,4502.179688,5850.000000,3.000000,73.000000,,,,0.000000,4.000000,4.000000,4.000000,4.000000,4.000000,4.000000,2.000000,4.000000,4.000000,4.000000,4.000000,4.000000,4.000000,4.000000,83.333336,,,,,,,,,,,,,,,,,,,,,,,,,,,,
1702803625.280502,1702803625.632260,92.000000,0.000000,4172.820313,4133.333496,4272.820313,4225.769043,4146.666504,4124.615234,4223.461426,4142.179688,4121.666504,4136.794922,4639.615234,4426.794922,4415.000000,4532.692383,6711.000000,3.000000,73.000000,,,,0.000000,4.000000,4.000000,4.000000,4.000000,4.000000,4.000000,2.000000,4.000000,4.000000,4.000000,4.000000,4.000000,4.000000,4.000000,83.333336,,,,,,,,,,,,,,,,,23.000000,0.000000,0.681714,0.180176,-0.690918,0.159485,0.992309,0.029789,-0.020510,-6.883526,15.850916,95.060646
1702803625.288310,1702803625.640068,93.000000,0.000000,4178.077148,4136.922852,4275.897461,4214.358887,4146.666504,4124.615234,4225.128418,4144.358887,4125.000000,4149.102539,4658.333496,4431.410156,4420.641113,4535.128418,6910.000000,3.000000,73.000000,,,,0.000000,4.000000,4.000000,4.000000,4.000000,4.000000,4.000000,2.000000,4.000000,4.000000,4.000000,4.000000,4.000000,4.000000,4.000000,83.333336,,,,,,,,,,,,,,,,,,,,,,,,,,,,
1702803625.296118,1702803625.647776,94.000000,0.000000,4165.000000,4131.666504,4268.717773,4206.025879,4140.897461,4122.051270,4225.128418,4140.256348,4123.846191,4138.717773,4640.000000,4422.820313,4399.102539,4520.897461,5783.000000,3.000000,73.000000,,,,0.000000,4.000000,4.000000,4.000000,4.000000,4.000000,4.000000,2.000000,4.000000,4.000000,4.000000,4.000000,4.000000,4.000000,4.000000,83.333336,,,,,,,,,,,,,,,,,,,,,,,,,,,,
1702803625.303926,1702803625.655584,95.000000,0.000000,4160.000000,4122.436035,4265.512695,4219.871582,4140.128418,4117.948730,4226.922852,4140.256348,4119.230957,4136.538574,4626.025879,4422.692383,4397.563965,4521.410156,5850.000000,3.000000,73.000000,,,,0.000000,4.000000,4.000000,4.000000,4.000000,4.000000,4.000000,2.000000,4.000000,4.000000,4.000000,4.000000,4.000000,4.000000,4.000000,83.333336,,,,,,,,,,,,,,,,,,,,,,,,,,,,
1702803625.311734,1702803625.663292,96.000000,0.000000,4162.179688,4119.743652,4268.717773,4225.641113,4143.589844,4119.871582,4228.333496,4144.230957,4120.000000,4142.051270,4642.179688,4420.128418,4398.205078,4517.436035,6711.000000,3.000000,73.000000,,,,0.000000,4.000000,4.000000,4.000000,4.000000,4.000000,4.000000,2.000000,4.000000,4.000000,4.000000,4.000000,4.000000,4.000000,4.000000,83.333336,,,,,,,,,,,,,,,,,24.000000,0.000000,0.681759,0.180237,-0.690857,0.159485,0.984007,0.034184,-0.020022,-6.895174,15.982491,95.071251
1702803625.319542,1702803625.671201,97.000000,0.000000,4159.358887,4124.743652,4270.641113,4217.307617,4143.205078,4124.230957,4228.333496,4145.641113,4123.461426,4136.410156,4647.307617,4415.000000,4390.128418,4507.948730,6910.000000,3.000000,73.000000,,,,0.000000,4.000000,4.000000,4.000000,4.000000,4.000000,4.000000,2.000000,4.000000,4.000000,4.000000,4.000000,4.000000,4.000000,4.000000,83.333336,,,,,,,,,,,,,,,,,,,,,,,,,,,,
1702803625.327350,1702803625.679009,98.000000,0.000000,4158.974121,4126.922852,4267.948730,4219.615234,4141.410156,4125.897461,4231.153809,4142.563965,4123.333496,4134.487305,4634.358887,4414.743652,4388.461426,4508.205078,5783.000000,3.000000,73.000000,,,,0.000000,4.000000,4.000000,4.000000,4.000000,4.000000,4.000000,2.000000,4.000000,4.000000,4.000000,4.000000,4.000000,4.000000,4.000000,83.333336,,,,,,,,,,,,,,,,,,,,,,,,,,,,
1702803625.335158,1702803625.686917,99.000000,0.000000,4159.487305,4122.307617,4261.282227,4205.897461,4139.743652,4123.974121,4230.384766,4133.846191,4115.769043,4133.333496,4621.538574,4408.974121,4377.820313,4503.461426,5850.000000,3.000000,73.000000,,,,0.000000,4.000000,4.000000,4.000000,4.000000,4.000000,4.000000,2.000000,4.000000,4.000000,4.000000,4.000000,4.000000,4.000000,4.000000,83.333336,,,,,,,,,,,,,,,,,,,,,,,,,,,,
1702803625.342966,1702803625.694725,100.000000,0.000000,4157.563965,4122.051270,4260.641113,4190.256348,4140.384766,4124.615234,4232.051270,4128.589844,4111.153809,4124.230957,4617.948730,4404.358887,4369.871582,4497.948730,6711.000000,3.000000,73.000000,,,,0.000000,4.000000,4.000000,4.000000,4.000000,4.000000,4.000000,2.000000,4.000000,4.000000,4.000000,4.000000,4.000000,4.000000,4.000000,83.333336,,,,,,,,,,,,,,,,,25.000000,0.000000,0.681605,0.180298,-0.690979,0.159546,0.992309,0.033696,-0.016115,-6.738990,15.867576,95.064125
1702803625.350774,1702803625.702633,101.000000,0.000000,4160.897461,4126.666504,4269.102539,4217.051270,4146.025879,4130.384766,4236.538574,4134.358887,4118.333496,4126.666504,4625.512695,4413.077148,4388.205078,4507.307617,6910.000000,3.000000,73.000000,,,,0.000000,4.000000,4.000000,4.000000,4.000000,4.000000,4.000000,2.000000,4.000000,4.000000,4.000000,4.000000,4.000000,4.000000,4.000000,83.333336,,,,,,,,,,,,,,,,,,,,,,,,,,,,
1702803625.358583,1702803625.710441,102.000000,0.000000,4169.358887,4130.384766,4275.256348,4241.153809,4149.487305,4131.025879,4233.589844,4140.384766,4127.692383,4141.794922,4642.051270,4425.000000,4403.333496,4517.692383,5783.000000,3.000000,73.000000,,,,0.000000,4.000000,4.000000,4.000000,4.000000,4.000000,4.000000,2.000000,4.000000,4.000000,4.000000,4.000000,4.000000,4.000000,4.000000,83.333336,,,,,,,,,,,,,,,,,,,,,,,,,,,,
1702803625.366391,1702803625.718350,103.000000,0.000000,4172.051270,4133.333496,4272.692383,4227.051270,4145.128418,4122.179688,4230.128418,4139.487305,4129.615234,4145.256348,4647.820313,4425.769043,4393.717773,4515.128418,5850.000000,3.000000,73.000000,,,,0.000000,4.000000,4.000000,4.000000,4.000000,4.000000,4.000000,2.000000,4.000000,4.000000,4.000000,4.000000,4.000000,4.000000,4.000000,83.333336,,,,,,,,,,,,,,,,,,,,,,,,,,,,
1702803625.374199,1702803625.726158,104.000000,0.000000,4171.025879,4139.615234,4273.846191,4216.666504,4143.974121,4117.436035,4230.769043,4135.512695,4126.153809,4139.871582,4643.589844,4423.974121,4392.563965,4513.077148,6711.000000,3.000000,73.000000,,,,0.000000,4.000000,4.000000,4.000000,4.000000,4.000000,4.000000,2.000000,4.000000,4.000000,4.000000,4.000000,4.000000,4.000000,4.000000,83.333336,,,,,,,,,,,,,,,,,26.000000,0.000000,0.681621,0.180237,-0.690979,0.159546,0.992309,0.016115,-0.009278,-6.798424,15.780818,94.991043
1702803625.382007,1702803625.734066,105.000000,0.000000,4176.153809,4148.589844,4280.641113,4236.282227,4149.102539,4121.666504,4232.436035,4132.307617,4123.461426,4140.256348,4648.717773,4427.307617,4407.563965,4520.769043,6910.000000,3.000000,73.000000,,,,0.000000,4.000000,4.000000,4.000000,4.000000,4.000000,4.000000,2.000000,4.000000,4.000000,4.000000,4.000000,4.000000,4.000000,4.000000,83.333336,,,,,,,,,,,,,,,,,,,,,,,,,,,,
1702803625.389815,1702803625.741874,106.000000,0.000000,4183.589844,4153.717773,4285.769043,4239.871582,4151.410156,4126.282227,4232.948730,4137.307617,4124.358887,4146.282227,4650.384766,4434.102539,4410.256348,4525.897461,5783.000000,3.000000,73.000000,,,,0.000000,4.000000,4.000000,4.000000,4.000000,4.000000,4.000000,2.000000,4.000000,4.000000,4.000000,4.000000,4.000000,4.000000,4.000000,83.333336,,,,,,,,,,,,,,,,,,,,,,,,,,,,
1702803625.397623,1702803625.749782,107.000000,0.000000,4182.563965,4151.922852,4288.205078,4214.743652,4148.589844,4126.922852,4233.461426,4146.153809,4128.205078,4147.436035,4645.128418,4440.641113,4403.589844,4525.384766,5850.000000,3.000000,73.000000,,,,0.000000,4.000000,4.000000,4.000000,4.000000,4.000000,4.000000,2.000000,4.000000,4.000000,4.000000,4.000000,4.000000,4.000000,4.000000,83.333336,,,,,,,,,,,,,,,,,,,,,,,,,,,,
1702803625.405431,1702803625.757590,108.000000,0.000000,4176.794922,4144.743652,4284.743652,4218.717773,4145.769043,4125.641113,4234.615234,4145.897461,4130.256348,4138.589844,4645.128418,4435.641113,4401.794922,4521.794922,6711.000000,3.000000,73.000000,,,,0.000000,4.000000,4.000000,4.000000,4.000000,4.000000,4.000000,2.000000,4.000000,4.000000,4.000000,4.000000,4.000000,4.000000,4.000000,83.333336,,,,,,,,,,,,,,,,,27.000000,0.000000,0.681605,0.180298,-0.690979,0.159546,0.994750,0.024417,-0.033207,-6.818582,15.669403,95.091942
1702803625.413239,1702803625.765498,109.000000,0.000000,4175.128418,4140.000000,4277.948730,4242.436035,4144.487305,4127.948730,4237.307617,4143.077148,4128.846191,4136.922852,4648.205078,4424.102539,4398.846191,4514.743652,6910.000000,3.000000,73.000000,,,,0.000000,4.000000,4.000000,4.000000,4.000000,4.000000,4.000000,2.000000,4.000000,4.000000,4.000000,4.000000,4.000000,4.000000,4.000000,83.333336,,,,,,,,,,,,,,,,,,,,,,,,,,,,
1702803625.421047,1702803625.773307,110.000000,0.000000,4174.358887,4138.589844,4274.230957,4235.128418,4142.563965,4130.384766,4236.922852,4143.461426,4126.666504,4140.641113,4636.282227,4419.615234,4387.563965,4508.717773,5783.000000,3.000000,73.000000,,,,0.000000,4.000000,4.000000,4.000000,4.000000,4.000000,4.000000,2.000000,4.000000,4.000000,4.000000,4.000000,4.000000,4.000000,4.000000,83.333336,,,,,,,,,,,,,,,,,,,,,,,,,,,,
1702803625.428855,1702803625.781015,111.000000,0.000000,4176.025879,4142.051270,4273.717773,4222.692383,4142.563965,4133.205078,4233.589844,4138.846191,4125.128418,4133.589844,4623.974121,4423.077148,4381.666504,4511.153809,5850.000000,3.000000,73.000000,,,,0.000000,4.000000,4.000000,4.000000,4.000000,4.000000,4.000000,2.000000,4.000000,4.000000,4.000000,4.000000,4.000000,4.000000,4.000000,83.333336,,,,,,,,,,,,,,,,,,,,,,,,,,,,
1702803625.436663,1702803625.788823,112.000000,0.000000,4176.538574,4143.589844,4271.666504,4231.025879,4140.128418,4137.051270,4237.563965,4136.025879,4129.102539,4130.000000,4636.282227,4418.974121,4389.230957,4513.717773,6711.000000,3.000000,73.000000,,,,0.000000,4.000000,4.000000,4.000000,4.000000,4.000000,4.000000,2.000000,4.000000,4.000000,4.000000,4.000000,4.000000,4.000000,4.000000,83.333336,,,,,,,,,,,,,,,,,28.000000,0.000000,0.681623,0.180176,-0.690979,0.159607,0.990844,0.036137,-0.020510,-6.836724,15.569129,95.266083
1702803625.444471,1702803625.796531,113.000000,0.000000,4170.512695,4139.487305,4267.820313,4230.128418,4136.410156,4135.128418,4241.666504,4142.051270,4134.358887,4136.794922,4640.128418,4410.256348,4394.615234,4505.512695,6910.000000,3.000000,73.000000,,,,0.000000,4.000000,4.000000,4.000000,4.000000,4.000000,4.000000,2.000000,4.000000,4.000000,4.000000,4.000000,4.000000,4.000000,4.000000,83.333336,,,,,,,,,,,,,,,,,,,,,,,,,,,,
1702803625.452279,1702803625.804340,114.000000,0.000000,4171.922852,4140.512695,4268.589844,4214.871582,4140.128418,4131.666504,4240.000000,4146.922852,4137.948730,4137.948730,4630.641113,4416.794922,4391.153809,4505.512695,5783.000000,3.000000,73.000000,,,,0.000000,4.000000,4.000000,4.000000,4.000000,4.000000,4.000000,2.000000,4.000000,4.000000,4.000000,4.000000,4.000000,4.000000,4.000000,83.333336,,,,,,,,,,,,,,,,,,,,,,,,,,,,
1702803625.460088,1702803625.812048,115.000000,0.000000,4177.692383,4144.358887,4273.461426,4208.589844,4146.153809,4133.461426,4241.282227,4144.743652,4139.743652,4141.922852,4641.922852,4429.871582,4395.512695,4518.846191,5850.000000,3.000000,73.000000,,,,0.000000,4.000000,4.000000,4.000000,4.000000,4.000000,4.000000,2.000000,4.000000,4.000000,4.000000,4.000000,4.000000,4.000000,4.000000,83.333336,,,,,,,,,,,,,,,,,,,,,,,,,,,,
1702803625.467896,1702803625.819956,116.000000,0.000000,4175.000000,4143.077148,4273.205078,4222.820313,4147.692383,4133.077148,4242.948730,4138.589844,4135.000000,4154.487305,4656.922852,4427.820313,4407.692383,4523.077148,6711.000000,3.000000,73.000000,,,,0.000000,4.000000,4.000000,4.000000,4.000000,4.000000,4.000000,2.000000,4.000000,4.000000,4.000000,4.000000,4.000000,4.000000,4.000000,83.333336,,,,,,,,,,,,,,,,,29.000000,0.000000,0.681610,0.179993,-0.691040,0.159607,0.993774,0.024417,-0.024417,-6.853051,15.595550,95.256142
1702803625.475704,1702803625.827764,117.000000,0.000000,4176.153809,4142.307617,4272.820313,4242.820313,4150.897461,4130.512695,4242.436035,4138.589844,4128.333496,4153.461426,4652.051270,4420.128418,4411.922852,4519.358887,6910.000000,3.000000,73.000000,,,,0.000000,4.000000,4.000000,4.000000,4.000000,4.000000,4.000000,2.000000,4.000000,4.000000,4.000000,4.000000,4.000000,4.000000,4.000000,83.333336,,,,,,,,,,,,,,,,,,,,,,,,,,,,
1702803625.483512,1702803625.835573,118.000000,0.000000,4181.666504,4144.358887,4274.743652,4233.077148,4151.153809,4127.692383,4243.589844,4142.563965,4125.769043,4143.589844,4644.230957,4425.641113,4405.256348,4521.794922,5783.000000,3.000000,73.000000,,,,0.000000,4.000000,4.000000,4.000000,4.000000,4.000000,4.000000,2.000000,4.000000,4.000000,4.000000,4.000000,4.000000,4.000000,4.000000,83.333336,,,,,,,,,,,,,,,,,,,,,,,,,,,,
1702803625.491320,1702803625.843281,119.000000,0.000000,4180.769043,4143.077148,4275.256348,4221.794922,4144.871582,4122.436035,4245.384766,4139.102539,4124.487305,4145.256348,4644.615234,4434.487305,4404.102539,4527.820313,5850.000000,3.000000,73.000000,,,,0.000000,4.000000,4.000000,4.000000,4.000000,4.000000,4.000000,2.000000,4.000000,4.000000,4.000000,4.000000,4.000000,4.000000,4.000000,83.333336,,,,,,,,,,,,,,,,,,,,,,,,,,,,
1702803625.499128,1702803625.851089,120.000000,0.000000,4183.589844,4149.102539,4281.410156,4243.589844,4144.743652,4123.205078,4245.897461,4134.358887,4122.948730,4147.948730,4647.307617,4434.487305,4407.179688,4530.769043,6711.000000,3.000000,73.000000,,,,0.000000,4.000000,4.000000,4.000000,4.000000,4.000000,4.000000,2.000000,4.000000,4.000000,4.000000,4.000000,4.000000,4.000000,4.000000,83.333336,,,,,,,,,,,,,,,,,30.000000,0.000000,0.681597,0.179932,-0.691040,0.159729,0.998169,0.027347,-0.024905,-6.734413,15.669328,95.197189
1702803625.506936,1702803625.858797,121.000000,0.000000,4185.000000,4152.436035,4282.820313,4227.692383,4146.794922,4125.512695,4245.897461,4132.436035,4118.846191,4138.205078,4647.179688,4421.153809,4394.230957,4524.230957,6910.000000,3.000000,73.000000,,,,0.000000,4.000000,4.000000,4.000000,4.000000,4.000000,4.000000,2.000000,4.000000,4.000000,4.000000,4.000000,4.000000,4.000000,4.000000,83.333336,,,,,,,,,,,,,,,,,,,,,,,,,,,,
1702803625.514744,1702803625.866605,122.000000,0.000000,4177.179688,4141.410156,4276.666504,4196.922852,4143.333496,4124.358887,4245.641113,4131.025879,4116.282227,4131.794922,4642.051270,4411.153809,4386.410156,4515.256348,5783.000000,3.000000,73.000000,,,,0.000000,4.000000,4.000000,4.000000,4.000000,4.000000,4.000000,2.000000,4.000000,4.000000,4.000000,4.000000,4.000000,4.000000,4.000000,83.333336,,,,,,,,,,,,,,,,,,,,,,,,,,,,
1702803625.522552,1702803625.874313,123.000000,0.000000,4176.922852,4141.410156,4279.102539,4231.538574,4143.461426,4126.922852,4247.563965,4131.666504,4119.871582,4137.563965,4643.333496,4422.051270,4402.051270,4521.666504,5850.000000,3.000000,73.000000,,,,0.000000,4.000000,4.000000,4.000000,4.000000,4.000000,4.000000,2.000000,4.000000,4.000000,4.000000,4.000000,4.000000,4.000000,4.000000,83.333336,,,,,,,,,,,,,,,,,,,,,,,,,,,,
1702803625.530360,1702803625.882121,124.000000,0.000000,4183.974121,4154.487305,4285.256348,4262.307617,4147.692383,4128.974121,4250.512695,4135.128418,4123.974121,4144.871582,4650.897461,4433.461426,4410.256348,4533.974121,6711.000000,3.000000,73.000000,,,,0.000000,4.000000,4.000000,4.000000,4.000000,4.000000,4.000000,2.000000,4.000000,4.000000,4.000000,4.000000,4.000000,4.000000,4.000000,83.333336,,,,,,,,,,,,,,,,,31.000000,0.000000,0.681631,0.179932,-0.690979,0.159851,0.991332,0.015139,-0.010255,-6.660972,15.602395,95.194138
1702803625.538168,1702803625.889829,125.000000,0.000000,4183.974121,4153.333496,4280.641113,4235.641113,4146.538574,4124.743652,4250.128418,4134.230957,4126.153809,4145.384766,4650.512695,4423.589844,4398.717773,4527.948730,6910.000000,3.000000,73.000000,,,,0.000000,4.000000,4.000000,4.000000,4.000000,4.000000,4.000000,2.000000,4.000000,4.000000,4.000000,4.000000,4.000000,4.000000,4.000000,83.333336,,,,,,,,,,,,,,,,,,,,,,,,,,,,
1702803625.545977,1702803625.897637,126.000000,0.000000,4182.051270,4143.461426,4275.641113,4215.512695,4142.692383,4125.641113,4250.384766,4134.487305,4130.641113,4142.179688,4642.179688,4414.358887,4394.358887,4517.948730,5783.000000,3.000000,73.000000,,,,0.000000,4.000000,4.000000,4.000000,4.000000,4.000000,4.000000,2.000000,4.000000,4.000000,4.000000,4.000000,4.000000,4.000000,4.000000,83.333336,,,,,,,,,,,,,,,,,,,,,,,,,,,,
1702803625.553784,1702803625.905345,127.000000,0.000000,4187.820313,4149.487305,4284.743652,4238.846191,4148.461426,4136.538574,4254.102539,4147.307617,4140.512695,4146.410156,4646.794922,4427.820313,4405.512695,4531.666504,73.000000,3.000000,73.000000,,,,0.000000,4.000000,4.000000,4.000000,4.000000,4.000000,4.000000,2.000000,4.000000,4.000000,4.000000,4.000000,4.000000,4.000000,4.000000,83.333336,,,,,,,,,,,,,,,,,,,,,,,,,,,,
1702803625.561593,1702803625.913253,0.000000,0.000000,4190.384766,4157.948730,4290.897461,4240.641113,4153.846191,4138.974121,4253.846191,4152.436035,4144.358887,4148.333496,4661.153809,4435.000000,4411.794922,4542.563965,5202.000000,3.000000,73.000000,,,,0.000000,4.000000,4.000000,4.000000,4.000000,4.000000,4.000000,2.000000,4.000000,4.000000,4.000000,4.000000,4.000000,4.000000,4.000000,83.333336,,,,,,,,,,,,,,,,,0.000000,0.000000,0.681648,0.179810,-0.690979,0.159912,1.000610,0.016115,-0.019045,-6.644875,15.542155,95.141388
1702803625.569401,1702803625.921061,1.000000,0.000000,4182.563965,4154.358887,4284.743652,4220.769043,4148.717773,4133.333496,4252.436035,4141.794922,4136.410156,4140.384766,4658.974121,4418.589844,4404.871582,4528.333496,5415.000000,3.000000,73.000000,,,,0.000000,4.000000,4.000000,4.000000,4.000000,4.000000,4.000000,2.000000,4.000000,4.000000,4.000000,4.000000,4.000000,4.000000,4.000000,83.333336,,,,,,,,,,,,,,,,,,,,,,,,,,,,
1702803625.577209,1702803625.928969,2.000000,0.000000,4176.538574,4152.307617,4280.256348,4233.717773,4148.333496,4133.846191,4257.051270,4136.282227,4130.000000,4138.717773,4647.692383,4406.794922,4397.563965,4521.410156,4749.000000,3.000000,73.000000,,,,0.000000,4.000000,4.000000,4.000000,4.000000,4.000000,4.000000,2.000000,4.000000,4.000000,4.000000,4.000000,4.000000,4.000000,4.000000,83.333336,,,,,,,,,,,,,,,,,,,,,,,,,,,,
1702803625.585017,1702803625.936777,3.000000,0.000000,4183.077148,4157.179688,4286.922852,4258.077148,4153.717773,4133.461426,4257.948730,4139.743652,4131.153809,4141.538574,4645.384766,4414.487305,4401.153809,4535.897461,5185.000000,3.000000,73.000000,,,,0.000000,4.000000,4.000000,4.000000,4.000000,4.000000,4.000000,2.000000,4.000000,4.000000,4.000000,4.000000,4.000000,4.000000,4.000000,83.333336,,,,,,,,,,,,,,,,,,,,,,,,,,,,
1702803625.592825,1702803625.944686,4.000000,0.000000,4188.846191,4158.333496,4290.641113,4248.333496,4149.230957,4130.512695,4255.000000,4139.871582,4133.205078,4136.666504,4651.794922,4420.512695,4405.641113,4541.153809,5081.000000,3.000000,73.000000,,,,0.000000,4.000000,4.000000,4.000000,4.000000,4.000000,4.000000,2.000000,4.000000,4.000000,4.000000,4.000000,4.000000,4.000000,4.000000,83.333336,,,,,,,,,,,,,,,,,1.000000,0.000000,0.681587,0.179810,-0.691040,0.159912,0.982542,0.023929,-0.020999,-6.697053,15.554606,95.160583
1702803625.600633,1702803625.952494,5.000000,0.000000,4178.589844,4147.436035,4280.769043,4217.948730,4139.358887,4130.384766,4256.153809,4137.820313,4128.333496,4127.051270,4640.641113,4411.666504,4393.717773,4526.282227,5078.000000,3.000000,73.000000,,,,0.000000,4.000000,4.000000,4.000000,4.000000,4.000000,4.000000,2.000000,4.000000,4.000000,4.000000,4.000000,4.000000,4.000000,4.000000,83.333336,,,,,,,,,,,,,,,,,,,,,,,,,,,,
1702803625.608441,1702803625.960402,6.000000,0.000000,4171.410156,4142.820313,4274.230957,4225.000000,4141.153809,4132.948730,4258.846191,4140.769043,4124.102539,4123.846191,4621.794922,4406.666504,4382.179688,4518.461426,1255.000000,3.000000,73.000000,,,,0.000000,4.000000,4.000000,4.000000,4.000000,4.000000,4.000000,2.000000,4.000000,4.000000,4.000000,4.000000,4.000000,4.000000,4.000000,83.333336,,,,,,,,,,,,,,,,,,,,,,,,,,,,
1702803625.616249,1702803625.968210,7.000000,0.000000,4180.641113,4153.974121,4279.871582,4236.153809,4146.922852,4134.358887,4259.743652,4140.512695,4127.436035,4127.820313,4633.333496,4410.769043,4389.743652,4524.871582,4884.000000,3.000000,73.000000,,,,0.000000,4.000000,4.000000,4.000000,4.000000,4.000000,4.000000,2.000000,4.000000,4.000000,4.000000,4.000000,4.000000,4.000000,4.000000,83.333336,,,,,,,,,,,,,,,,,,,,,,,,,,,,
1702803625.624057,1702803625.976118,8.000000,0.000000,4184.487305,4154.358887,4280.384766,4217.436035,4145.512695,4131.282227,4257.307617,4136.538574,4132.179688,4136.410156,4651.538574,4406.410156,4399.230957,4526.153809,5128.000000,3.000000,73.000000,,,,0.000000,4.000000,4.000000,4.000000,4.000000,4.000000,4.000000,2.000000,4.000000,4.000000,4.000000,4.000000,4.000000,4.000000,4.000000,83.333336,,,,,,,,,,,,,,,,,2.000000,0.000000,0.681556,0.179871,-0.691040,0.159973,0.997192,0.024905,-0.018557,-6.760682,15.499146,95.194527
1702803625.631865,1702803625.983926,9.000000,0.000000,4172.820313,4140.641113,4268.589844,4214.615234,4143.205078,4128.205078,4255.641113,4137.307617,4136.666504,4145.384766,4652.179688,4402.692383,4398.333496,4523.333496,5213.000000,3.000000,73.000000,,,,0.000000,4.000000,4.000000,4.000000,4.000000,4.000000,4.000000,2.000000,4.000000,4.000000,4.000000,4.000000,4.000000,4.000000,4.000000,83.333336,,,,,,,,,,,,,,,,,,,,,,,,,,,,
1702803625.639673,1702803625.991635,10.000000,0.000000,4171.025879,4140.512695,4264.358887,4234.743652,4142.692383,4126.666504,4255.512695,4142.179688,4139.230957,4146.025879,4650.897461,4416.282227,4402.307617,4530.897461,5788.000000,3.000000,73.000000,,,,0.000000,4.000000,4.000000,4.000000,4.000000,4.000000,4.000000,2.000000,4.000000,4.000000,4.000000,4.000000,4.000000,4.000000,4.000000,83.333336,,,,,,,,,,,,,,,,,,,,,,,,,,,,
1702803625.647482,1702803625.999443,11.000000,0.000000,4179.102539,4147.820313,4271.922852,4241.666504,4143.333496,4123.461426,4254.102539,4142.692383,4135.512695,4139.487305,4647.692383,4421.282227,4408.205078,4537.051270,5856.000000,3.000000,73.000000,,,,0.000000,4.000000,4.000000,4.000000,4.000000,4.000000,4.000000,2.000000,4.000000,4.000000,4.000000,4.000000,4.000000,4.000000,4.000000,83.333336,,,,,,,,,,,,,,,,,,,,,,,,,,,,
1702803625.655290,1702803626.007151,12.000000,0.000000,4179.487305,4150.000000,4276.794922,4229.230957,4145.897461,4124.102539,4254.615234,4139.358887,4132.692383,4140.128418,4641.666504,4406.922852,4404.102539,4530.769043,6758.000000,3.000000,73.000000,,,,0.000000,4.000000,4.000000,4.000000,4.000000,4.000000,4.000000,2.000000,4.000000,4.000000,4.000000,4.000000,4.000000,4.000000,4.000000,83.333336,,,,,,,,,,,,,,,,,3.000000,0.000000,0.681494,0.179871,-0.691101,0.159973,0.992309,0.019534,-0.013185,-6.934613,15.599232,95.175072
1702803625.663098,1702803626.014959,13.000000,0.000000,4181.282227,4154.230957,4276.410156,4225.769043,4148.205078,4132.436035,4256.922852,4136.153809,4131.794922,4144.102539,4648.205078,4398.589844,4397.948730,4525.128418,6917.000000,3.000000,73.000000,,,,0.000000,4.000000,4.000000,4.000000,4.000000,4.000000,4.000000,2.000000,4.000000,4.000000,4.000000,4.000000,4.000000,4.000000,4.000000,83.333336,,,,,,,,,,,,,,,,,,,,,,,,,,,,
1702803625.670906,1702803626.022667,14.000000,0.000000,4185.512695,4157.307617,4275.512695,4234.615234,4147.563965,4135.897461,4256.794922,4133.974121,4128.717773,4139.615234,4650.769043,4403.205078,4399.615234,4525.769043,5788.000000,3.000000,73.000000,,,,0.000000,4.000000,4.000000,4.000000,4.000000,4.000000,4.000000,2.000000,4.000000,4.000000,4.000000,4.000000,4.000000,4.000000,4.000000,83.333336,,,,,,,,,,,,,,,,,,,,,,,,,,,,
1702803625.678714,1702803626.030475,15.000000,0.000000,4181.922852,4152.563965,4275.384766,4231.153809,4147.051270,4132.051270,4256.666504,4137.051270,4131.282227,4136.666504,4641.025879,4405.256348,4406.025879,4526.153809,5856.000000,3.000000,73.000000,,,,0.000000,4.000000,4.000000,4.000000,4.000000,4.000000,4.000000,2.000000,4.000000,4.000000,4.000000,4.000000,4.000000,4.000000,4.000000,83.333336,,,,,,,,,,,,,,,,,,,,,,,,,,,,
1702803625.686522,1702803626.038183,16.000000,0.000000,4180.256348,4146.922852,4276.538574,4220.256348,4146.794922,4128.333496,4257.051270,4143.205078,4136.282227,4140.256348,4644.743652,4402.051270,4405.128418,4527.820313,0.000000,3.000000,73.000000,,,,0.000000,4.000000,4.000000,4.000000,4.000000,4.000000,4.000000,2.000000,4.000000,4.000000,4.000000,4.000000,4.000000,4.000000,4.000000,83.333336,,,,,,,,,,,,,,,,,4.000000,0.000000,0.681340,0.179932,-0.691223,0.160034,0.991820,0.018069,-0.020510,-6.774486,15.555975,95.107567
1702803625.694330,1702803626.045991,17.000000,0.000000,4180.512695,4144.743652,4277.051270,4228.717773,4142.179688,4123.717773,4253.717773,4142.436035,4127.563965,4134.871582,4644.358887,4402.692383,4395.512695,4530.512695,0.000000,3.000000,73.000000,,,,0.000000,4.000000,4.000000,4.000000,4.000000,4.000000,4.000000,2.000000,4.000000,4.000000,4.000000,4.000000,4.000000,4.000000,4.000000,83.333336,,,,,,,,,,,,,,,,,,,,,,,,,,,,
1702803625.702138,1702803626.053699,18.000000,0.000000,4172.179688,4142.436035,4274.102539,4245.128418,4140.512695,4123.461426,4253.717773,4135.512695,4114.487305,4126.922852,4635.769043,4401.794922,4392.051270,4527.436035,0.000000,3.000000,73.000000,,,,0.000000,4.000000,4.000000,4.000000,4.000000,4.000000,4.000000,2.000000,4.000000,4.000000,4.000000,4.000000,4.000000,4.000000,4.000000,83.333336,,,,,,,,,,,,,,,,,,,,,,,,,,,,
1702803625.709946,1702803626.061507,19.000000,0.000000,4171.538574,4145.897461,4274.102539,4231.794922,4146.153809,4132.051270,4258.205078,4136.025879,4117.307617,4135.128418,4646.410156,4403.461426,4400.384766,4526.282227,0.000000,3.000000,73.000000,,,,0.000000,4.000000,4.000000,4.000000,4.000000,4.000000,4.000000,2.000000,4.000000,4.000000,4.000000,4.000000,4.000000,4.000000,4.000000,83.333336,,,,,,,,,,,,,,,,,,,,,,,,,,,,
1702803625.717754,1702803626.069215,20.000000,0.000000,4178.717773,4148.589844,4275.256348,4221.794922,4150.128418,4137.948730,4259.487305,4142.307617,4128.589844,4140.769043,4651.666504,4404.487305,4401.666504,4526.538574,0.000000,3.000000,73.000000,,,,0.000000,4.000000,4.000000,4.000000,4.000000,4.000000,4.000000,2.000000,4.000000,4.000000,4.000000,4.000000,4.000000,4.000000,4.000000,83.333336,,,,,,,,,,,,,,,,,5.000000,0.000000,0.681281,0.179993,-0.691223,0.160217,0.992309,0.019534,-0.024905,-6.830370,15.550378,95.030144
1702803625.725562,1702803626.077023,21.000000,0.000000,4175.000000,4143.589844,4272.051270,4229.102539,4146.794922,4132.436035,4257.563965,4141.153809,4132.948730,4130.000000,4637.179688,4392.948730,4389.487305,4516.666504,0.000000,3.000000,73.000000,,,,0.000000,4.000000,4.000000,4.000000,4.000000,4.000000,4.000000,2.000000,4.000000,4.000000,4.000000,4.000000,4.000000,4.000000,4.000000,83.333336,,,,,,,,,,,,,,,,,,,,,,,,,,,,
1702803625.733370,1702803626.084731,22.000000,0.000000,4175.641113,4143.205078,4272.820313,4216.922852,4142.179688,4125.256348,4255.128418,4141.410156,4136.025879,4130.256348,4630.128418,4393.461426,4389.743652,4516.153809,0.000000,3.000000,73.000000,,,,0.000000,4.000000,4.000000,4.000000,4.000000,4.000000,4.000000,2.000000,4.000000,4.000000,4.000000,4.000000,4.000000,4.000000,4.000000,83.333336,,,,,,,,,,,,,,,,,,,,,,,,,,,,
1702803625.741178,1702803626.092639,23.000000,0.000000,4187.179688,4154.230957,4282.051270,4221.666504,4146.282227,4125.000000,4255.384766,4146.922852,4139.358887,4145.000000,4639.743652,4415.512695,4408.717773,4535.256348,0.000000,3.000000,73.000000,,,,0.000000,4.000000,4.000000,4.000000,4.000000,4.000000,4.000000,2.000000,4.000000,4.000000,4.000000,4.000000,4.000000,4.000000,4.000000,83.333336,,,,,,,,,,,,,,,,,,,,,,,,,,,,
1702803625.748987,1702803626.100447,24.000000,0.000000,4190.384766,4162.948730,4288.846191,4254.743652,4153.589844,4128.461426,4259.230957,4143.846191,4131.153809,4143.077148,4656.153809,4419.871582,4417.563965,4544.743652,0.000000,3.000000,73.000000,,,,0.000000,4.000000,4.000000,4.000000,4.000000,4.000000,4.000000,2.000000,4.000000,4.000000,4.000000,4.000000,4.000000,4.000000,4.000000,83.333336,,,,,,,,,,,,,,,,,6.000000,0.000000,0.681293,0.180054,-0.691223,0.160095,0.975705,0.021487,-0.012697,-6.747333,15.578673,95.127129
1702803625.756795,1702803626.108356,25.000000,0.000000,4183.974121,4158.077148,4280.641113,4250.256348,4152.051270,4132.179688,4261.666504,4135.769043,4119.871582,4128.205078,4655.000000,4397.948730,4402.307617,4531.410156,0.000000,3.000000,73.000000,,,,0.000000,4.000000,4.000000,4.000000,4.000000,4.000000,4.000000,2.000000,4.000000,4.000000,4.000000,4.000000,4.000000,4.000000,4.000000,83.333336,,,,,,,,,,,,,,,,,,,,,,,,,,,,
1702803625.764603,1702803626.116164,26.000000,0.000000,4179.615234,4153.974121,4270.641113,4227.820313,4149.487305,4132.051270,4260.000000,4140.256348,4123.974121,4130.256348,4638.974121,4388.589844,4390.897461,4520.384766,0.000000,3.000000,73.000000,,,,0.000000,4.000000,4.000000,4.000000,4.000000,4.000000,4.000000,2.000000,4.000000,4.000000,4.000000,4.000000,4.000000,4.000000,4.000000,83.333336,1.000000,50.000000,4.000000,4.000000,4.000000,3.000000,1.000000,4.000000,2.000000,4.000000,4.000000,4.000000,4.000000,4.000000,4.000000,4.000000,,,,,,,,,,,,
1702803625.772411,1702803626.124072,27.000000,0.000000,4181.666504,4155.384766,4276.922852,4229.358887,4149.743652,4129.230957,4255.769043,4148.461426,4134.871582,4140.641113,4642.436035,4398.333496,4400.641113,4525.000000,0.000000,3.000000,73.000000,,,,0.000000,4.000000,4.000000,4.000000,4.000000,4.000000,4.000000,2.000000,4.000000,4.000000,4.000000,4.000000,4.000000,4.000000,4.000000,83.333336,,,,,,,,,,,,,,,,,,,,,,,,,,,,
1702803625.780219,1702803626.131880,28.000000,0.000000,4186.025879,4152.436035,4287.051270,4225.256348,4145.000000,4129.615234,4254.230957,4144.743652,4137.436035,4141.025879,4647.948730,4405.128418,4409.487305,4535.128418,0.000000,3.000000,73.000000,,,,0.000000,4.000000,4.000000,4.000000,4.000000,4.000000,4.000000,2.000000,4.000000,4.000000,4.000000,4.000000,4.000000,4.000000,4.000000,83.333336,,,,,,,,,,,,,,,,,7.000000,0.000000,0.681335,0.180115,-0.691223,0.159851,1.005982,0.025394,-0.020510,-6.605933,15.620806,95.064415
1702803625.788027,1702803626.139788,29.000000,0.000000,4185.384766,4148.205078,4282.692383,4220.384766,4144.871582,4133.461426,4258.717773,4137.051270,4131.410156,4138.077148,4638.077148,4404.743652,4407.307617,4537.820313,0.000000,3.000000,73.000000,,,,0.000000,4.000000,4.000000,4.000000,4.000000,4.000000,4.000000,2.000000,4.000000,4.000000,4.000000,4.000000,4.000000,4.000000,4.000000,83.333336,,,,,,,,,,,,,,,,,,,,,,,,,,,,
1702803625.795835,1702803626.147596,30.000000,0.000000,4183.461426,4152.307617,4276.666504,4237.820313,4151.282227,4135.512695,4261.410156,4137.948730,4123.974121,4135.769043,4639.743652,4402.307617,4404.743652,4533.077148,0.000000,3.000000,73.000000,,,,0.000000,4.000000,4.000000,4.000000,4.000000,4.000000,4.000000,2.000000,4.000000,4.000000,4.000000,4.000000,4.000000,4.000000,4.000000,83.333336,,,,,,,,,,,,,,,,,,,,,,,,,,,,
1702803625.803643,1702803626.155505,31.000000,0.000000,4183.461426,4160.256348,4277.179688,4236.538574,4146.794922,4133.461426,4256.282227,4139.615234,4120.256348,4128.974121,4637.692383,4396.794922,4399.230957,4526.282227,0.000000,3.000000,73.000000,,,,0.000000,4.000000,4.000000,4.000000,4.000000,4.000000,4.000000,2.000000,4.000000,4.000000,4.000000,4.000000,4.000000,4.000000,4.000000,83.333336,,,,,,,,,,,,,,,,,,,,,,,,,,,,
1702803625.811451,1702803626.163313,32.000000,0.000000,4181.666504,4160.384766,4275.128418,4225.512695,4140.897461,4130.256348,4253.589844,4132.692383,4121.282227,4125.384766,4622.179688,4391.538574,4395.256348,4520.641113,0.000000,3.000000,73.000000,,,,0.000000,4.000000,4.000000,4.000000,4.000000,4.000000,4.000000,2.000000,4.000000,4.000000,4.000000,4.000000,4.000000,4.000000,4.000000,83.333336,,,,,,,,,,,,,,,,,8.000000,0.000000,0.681287,0.180115,-0.691284,0.159790,0.992309,0.029300,-0.021975,-6.595340,15.775392,94.991310
1702803625.819259,1702803626.171221,33.000000,0.000000,4186.282227,4158.333496,4274.487305,4238.717773,4146.666504,4127.820313,4256.282227,4127.307617,4123.077148,4132.307617,4630.384766,4392.436035,4400.384766,4522.692383,0.000000,3.000000,73.000000,,,,0.000000,4.000000,4.000000,4.000000,4.000000,4.000000,4.000000,2.000000,4.000000,4.000000,4.000000,4.000000,4.000000,4.000000,4.000000,83.333336,,,,,,,,,,,,,,,,,,,,,,,,,,,,
1702803625.827067,1702803626.179029,34.000000,0.000000,4195.384766,4161.666504,4281.538574,4233.333496,4149.358887,4127.948730,4257.307617,4129.615234,4123.589844,4135.256348,4637.948730,4394.743652,4402.692383,4532.436035,0.000000,3.000000,73.000000,,,,0.000000,4.000000,4.000000,4.000000,4.000000,4.000000,4.000000,2.000000,4.000000,4.000000,4.000000,4.000000,4.000000,4.000000,4.000000,83.333336,,,,,,,,,,,,,,,,,,,,,,,,,,,,
1702803625.834875,1702803626.186737,35.000000,0.000000,4194.358887,4166.282227,4285.512695,4224.487305,4145.897461,4128.461426,4256.410156,4132.820313,4122.436035,4131.025879,4626.282227,4399.230957,4400.769043,4537.179688,0.000000,3.000000,73.000000,,,,0.000000,4.000000,4.000000,4.000000,4.000000,4.000000,4.000000,2.000000,4.000000,4.000000,4.000000,4.000000,4.000000,4.000000,4.000000,83.333336,,,,,,,,,,,,,,,,,,,,,,,,,,,,
1702803625.842683,1702803626.194546,36.000000,0.000000,4186.025879,4160.256348,4277.692383,4242.051270,4143.461426,4125.128418,4256.282227,4132.436035,4116.794922,4128.077148,4632.692383,4403.333496,4399.743652,4532.948730,0.000000,3.000000,73.000000,,,,0.000000,4.000000,4.000000,4.000000,4.000000,4.000000,4.000000,2.000000,4.000000,4.000000,4.000000,4.000000,4.000000,4.000000,4.000000,83.333336,,,,,,,,,,,,,,,,,9.000000,0.000000,0.681457,0.180176,-0.691101,0.159790,1.000122,0.029300,-0.014162,-6.669139,15.697853,95.008842
1702803625.850491,1702803626.202254,37.000000,0.000000,4185.512695,4155.256348,4273.205078,4240.897461,4143.077148,4122.820313,4254.615234,4130.256348,4111.410156,4123.974121,4636.666504,4397.179688,4394.743652,4526.922852,0.000000,3.000000,73.000000,,,,0.000000,4.000000,4.000000,4.000000,4.000000,4.000000,4.000000,2.000000,4.000000,4.000000,4.000000,4.000000,4.000000,4.000000,4.000000,83.333336,,,,,,,,,,,,,,,,,,,,,,,,,,,,
1702803625.858300,1702803626.210062,38.000000,0.000000,4190.897461,4162.436035,4277.307617,4233.589844,4146.282227,4123.974121,4252.436035,4131.282227,4112.692383,4124.615234,4621.410156,4393.974121,4394.230957,4526.922852,0.000000,3.000000,73.000000,,,,0.000000,4.000000,4.000000,4.000000,4.000000,4.000000,4.000000,2.000000,4.000000,4.000000,4.000000,4.000000,4.000000,4.000000,4.000000,83.333336,,,,,,,,,,,,,,,,,,,,,,,,,,,,
1702803625.866108,1702803626.217770,39.000000,0.000000,4189.487305,4161.282227,4278.589844,4233.846191,4147.948730,4125.128418,4253.461426,4129.487305,4114.743652,4131.666504,4629.615234,4399.358887,4404.615234,4527.948730,0.000000,3.000000,73.000000,,,,0.000000,4.000000,4.000000,4.000000,4.000000,4.000000,4.000000,2.000000,4.000000,4.000000,4.000000,4.000000,4.000000,4.000000,4.000000,83.333336,,,,,,,,,,,,,,,,,,,,,,,,,,,,
1702803625.873916,1702803626.225578,40.000000,0.000000,4189.615234,4158.077148,4281.282227,4226.153809,4147.307617,4128.205078,4255.769043,4126.666504,4118.846191,4135.384766,4643.717773,4406.282227,4409.358887,4531.153809,0.000000,3.000000,73.000000,,,,0.000000,4.000000,4.000000,4.000000,4.000000,4.000000,4.000000,2.000000,4.000000,4.000000,4.000000,4.000000,4.000000,4.000000,4.000000,83.333336,,,,,,,,,,,,,,,,,10.000000,0.000000,0.681401,0.180115,-0.691101,0.160095,0.991820,0.036626,-0.014162,-6.602225,15.594734,95.191292
1702803625.881724,1702803626.233286,41.000000,0.000000,4195.384766,4168.205078,4286.794922,4233.974121,4152.692383,4131.922852,4257.307617,4129.487305,4120.897461,4132.436035,4632.820313,4407.948730,4401.666504,4533.974121,0.000000,3.000000,73.000000,,,,0.000000,4.000000,4.000000,4.000000,4.000000,4.000000,4.000000,2.000000,4.000000,4.000000,4.000000,4.000000,4.000000,4.000000,4.000000,83.333336,,,,,,,,,,,,,,,,,,,,,,,,,,,,
1702803625.889532,1702803626.241094,42.000000,0.000000,4194.487305,4170.897461,4285.769043,4257.179688,4156.538574,4129.358887,4259.615234,4134.743652,4115.897461,4131.666504,4629.871582,4402.179688,4397.436035,4530.384766,0.000000,3.000000,73.000000,,,,0.000000,4.000000,4.000000,4.000000,4.000000,4.000000,4.000000,2.000000,4.000000,4.000000,4.000000,4.000000,4.000000,4.000000,4.000000,83.333336,,,,,,,,,,,,,,,,,,,,,,,,,,,,
1702803625.897340,1702803626.248802,43.000000,0.000000,4187.948730,4166.025879,4281.794922,4247.820313,4149.615234,4123.974121,4260.000000,4139.102539,4117.948730,4138.589844,4643.205078,4400.256348,4404.743652,4531.794922,0.000000,3.000000,73.000000,,,,0.000000,4.000000,4.000000,4.000000,4.000000,4.000000,4.000000,2.000000,4.000000,4.000000,4.000000,4.000000,4.000000,4.000000,4.000000,83.333336,,,,,,,,,,,,,,,,,,,,,,,,,,,,
1702803625.905148,1702803626.256710,44.000000,0.000000,4187.307617,4172.051270,4282.051270,4229.230957,4146.025879,4123.974121,4258.717773,4141.538574,4124.871582,4141.153809,4639.615234,4406.666504,4405.128418,4537.692383,0.000000,3.000000,73.000000,,,,0.000000,4.000000,4.000000,4.000000,4.000000,4.000000,4.000000,2.000000,4.000000,4.000000,4.000000,4.000000,4.000000,4.000000,4.000000,83.333336,,,,,,,,,,,,,,,,,11.000000,0.000000,0.681383,0.180237,-0.691101,0.160034,0.994750,0.035649,-0.020999,-6.692003,15.601928,95.288834
1702803625.912956,1702803626.264518,45.000000,0.000000,4191.410156,4176.410156,4282.948730,4231.666504,4151.922852,4126.794922,4258.461426,4139.358887,4123.461426,4133.589844,4630.897461,4406.538574,4397.307617,4533.846191,0.000000,3.000000,73.000000,,,,0.000000,4.000000,4.000000,4.000000,4.000000,4.000000,4.000000,2.000000,4.000000,4.000000,4.000000,4.000000,4.000000,4.000000,4.000000,83.333336,,,,,,,,,,,,,,,,,,,,,,,,,,,,
1702803625.920764,1702803626.272426,46.000000,0.000000,4187.563965,4164.487305,4281.410156,4220.128418,4150.256348,4124.102539,4259.102539,4133.461426,4121.282227,4127.307617,4629.102539,4399.615234,4394.871582,4524.102539,0.000000,3.000000,73.000000,,,,0.000000,4.000000,4.000000,4.000000,4.000000,4.000000,4.000000,2.000000,4.000000,4.000000,4.000000,4.000000,4.000000,4.000000,4.000000,83.333336,,,,,,,,,,,,,,,,,,,,,,,,,,,,
1702803625.928572,1702803626.280234,47.000000,0.000000,4184.615234,4163.333496,4281.538574,4226.922852,4144.871582,4119.743652,4261.025879,4138.461426,4128.333496,4132.820313,4633.717773,4407.307617,4399.871582,4529.102539,0.000000,3.000000,73.000000,,,,0.000000,4.000000,4.000000,4.000000,4.000000,4.000000,4.000000,2.000000,4.000000,4.000000,4.000000,4.000000,4.000000,4.000000,4.000000,83.333336,,,,,,,,,,,,,,,,,,,,,,,,,,,,
1702803625.936381,1702803626.288142,48.000000,0.000000,4194.358887,4177.436035,4286.922852,4259.102539,4147.179688,4120.000000,4261.922852,4149.230957,4131.410156,4136.282227,4643.846191,4419.871582,4407.820313,4543.846191,0.000000,3.000000,73.000000,,,,0.000000,4.000000,4.000000,4.000000,4.000000,4.000000,4.000000,2.000000,4.000000,4.000000,4.000000,4.000000,4.000000,4.000000,4.000000,83.333336,,,,,,,,,,,,,,,,,12.000000,0.000000,0.681410,0.180298,-0.691101,0.159851,0.990355,0.018069,-0.016604,-6.756136,15.675068,95.193283
1702803625.944188,1702803626.295951,49.000000,0.000000,4199.358887,4180.512695,4288.333496,4253.333496,4148.974121,4122.179688,4259.102539,4148.461426,4123.974121,4127.692383,4642.051270,4416.153809,4408.846191,4543.974121,0.000000,3.000000,73.000000,,,,0.000000,4.000000,4.000000,4.000000,4.000000,4.000000,4.000000,2.000000,4.000000,4.000000,4.000000,4.000000,4.000000,4.000000,4.000000,83.333336,,,,,,,,,,,,,,,,,,,,,,,,,,,,
1702803625.951996,1702803626.303859,50.000000,0.000000,4192.051270,4174.487305,4283.589844,4226.922852,4147.179688,4122.563965,4256.922852,4141.666504,4119.230957,4125.769043,4636.153809,4408.461426,4402.563965,4534.358887,0.000000,3.000000,73.000000,,,,0.000000,4.000000,4.000000,4.000000,4.000000,4.000000,4.000000,2.000000,4.000000,4.000000,4.000000,4.000000,4.000000,4.000000,4.000000,83.333336,,,,,,,,,,,,,,,,,,,,,,,,,,,,
1702803625.959805,1702803626.311667,51.000000,0.000000,4190.769043,4175.000000,4283.589844,4238.205078,4148.077148,4123.717773,4258.333496,4140.384766,4123.333496,4134.615234,4632.563965,4408.333496,4399.743652,4532.051270,0.000000,3.000000,73.000000,,,,0.000000,4.000000,4.000000,4.000000,4.000000,4.000000,4.000000,2.000000,4.000000,4.000000,4.000000,4.000000,4.000000,4.000000,4.000000,83.333336,,,,,,,,,,,,,,,,,,,,,,,,,,,,
1702803625.967613,1702803626.319575,52.000000,0.000000,4198.205078,4181.025879,4286.922852,4247.436035,4151.666504,4128.717773,4259.230957,4146.282227,4134.871582,4140.897461,4631.922852,4413.461426,4406.922852,4541.025879,0.000000,3.000000,73.000000,,,,0.000000,4.000000,4.000000,4.000000,4.000000,4.000000,4.000000,2.000000,4.000000,4.000000,4.000000,4.000000,4.000000,4.000000,4.000000,83.333336,,,,,,,,,,,,,,,,,13.000000,0.000000,0.681426,0.180237,-0.691101,0.159851,0.988890,0.024905,-0.022464,-6.747189,15.840895,95.207283
1702803625.975421,1702803626.327383,53.000000,0.000000,4198.974121,4180.384766,4287.179688,4221.410156,4152.948730,4132.051270,4258.717773,4151.153809,4142.820313,4135.256348,4643.333496,4418.077148,4409.871582,4544.358887,0.000000,3.000000,73.000000,,,,0.000000,4.000000,4.000000,4.000000,4.000000,4.000000,4.000000,2.000000,4.000000,4.000000,4.000000,4.000000,4.000000,4.000000,4.000000,83.333336,,,,,,,,,,,,,,,,,,,,,,,,,,,,
1702803625.983229,1702803626.335291,54.000000,0.000000,4194.743652,4175.256348,4288.589844,4229.871582,4152.179688,4127.307617,4258.333496,4149.230957,4139.102539,4127.307617,4652.948730,4418.077148,4404.871582,4538.589844,0.000000,3.000000,73.000000,,,,0.000000,4.000000,4.000000,4.000000,4.000000,4.000000,4.000000,2.000000,4.000000,4.000000,4.000000,4.000000,4.000000,4.000000,4.000000,83.333336,,,,,,,,,,,,,,,,,,,,,,,,,,,,
1702803625.991037,1702803626.343100,55.000000,0.000000,4194.102539,4175.512695,4289.743652,4255.641113,4147.692383,4120.897461,4255.384766,4145.769043,4127.051270,4128.333496,4640.000000,4416.025879,4403.205078,4537.051270,0.000000,3.000000,73.000000,,,,0.000000,4.000000,4.000000,4.000000,4.000000,4.000000,4.000000,2.000000,4.000000,4.000000,4.000000,4.000000,4.000000,4.000000,4.000000,83.333336,,,,,,,,,,,,,,,,,,,,,,,,,,,,
1702803625.998845,1702803626.350808,56.000000,0.000000,4193.717773,4175.384766,4284.358887,4239.871582,4145.256348,4121.666504,4255.897461,4144.230957,4120.000000,4139.358887,4629.487305,4415.128418,4406.282227,4538.846191,0.000000,3.000000,73.000000,,,,0.000000,4.000000,4.000000,4.000000,4.000000,4.000000,4.000000,2.000000,4.000000,4.000000,4.000000,4.000000,4.000000,4.000000,4.000000,83.333336,,,,,,,,,,,,,,,,,14.000000,0.000000,0.681520,0.180298,-0.690979,0.159912,0.992309,0.022464,-0.014650,-6.939137,16.056805,95.153221
1702803626.006653,1702803626.358616,57.000000,0.000000,4196.538574,4171.153809,4282.563965,4231.153809,4150.641113,4128.717773,4258.846191,4141.025879,4126.282227,4143.846191,4640.897461,4414.230957,4405.897461,4538.589844,0.000000,3.000000,73.000000,,,,0.000000,4.000000,4.000000,4.000000,4.000000,4.000000,4.000000,2.000000,4.000000,4.000000,4.000000,4.000000,4.000000,4.000000,4.000000,83.333336,,,,,,,,,,,,,,,,,,,,,,,,,,,,
1702803626.014461,1702803626.366524,58.000000,0.000000,4192.820313,4162.820313,4282.436035,4235.769043,4151.666504,4129.871582,4258.589844,4137.820313,4130.897461,4128.589844,4630.256348,4409.615234,4392.692383,4530.641113,0.000000,3.000000,73.000000,,,,0.000000,4.000000,4.000000,4.000000,4.000000,4.000000,4.000000,2.000000,4.000000,4.000000,4.000000,4.000000,4.000000,4.000000,4.000000,83.333336,,,,,,,,,,,,,,,,,,,,,,,,,,,,
1702803626.022269,1702803626.374332,59.000000,0.000000,4183.846191,4160.000000,4277.820313,4216.025879,4143.846191,4124.230957,4258.461426,4142.051270,4127.051270,4118.077148,4611.282227,4409.358887,4385.897461,4524.743652,0.000000,3.000000,73.000000,,,,0.000000,4.000000,4.000000,4.000000,4.000000,4.000000,4.000000,2.000000,4.000000,4.000000,4.000000,4.000000,4.000000,4.000000,4.000000,83.333336,,,,,,,,,,,,,,,,,,,,,,,,,,,,
1702803626.030077,1702803626.382041,60.000000,0.000000,4189.871582,4166.153809,4282.948730,4222.563965,4142.179688,4121.410156,4258.974121,4144.358887,4124.615234,4128.974121,4628.717773,4415.384766,4399.230957,4534.871582,0.000000,3.000000,73.000000,,,,0.000000,4.000000,4.000000,4.000000,4.000000,4.000000,4.000000,2.000000,4.000000,4.000000,4.000000,4.000000,4.000000,4.000000,4.000000,83.333336,,,,,,,,,,,,,,,,,15.000000,0.000000,0.681518,0.180359,-0.690979,0.159851,0.988890,0.014650,-0.028324,-7.195223,16.117792,95.071236
1702803626.037885,1702803626.389949,61.000000,0.000000,4193.333496,4159.102539,4288.974121,4250.384766,4147.051270,4122.179688,4257.436035,4140.512695,4124.487305,4135.000000,4647.307617,4415.897461,4401.538574,4540.128418,0.000000,3.000000,73.000000,,,,0.000000,4.000000,4.000000,4.000000,4.000000,4.000000,4.000000,2.000000,4.000000,4.000000,4.000000,4.000000,4.000000,4.000000,4.000000,83.333336,,,,,,,,,,,,,,,,,,,,,,,,,,,,
1702803626.045694,1702803626.397757,62.000000,0.000000,4185.256348,4142.948730,4286.153809,4233.205078,4144.102539,4123.205078,4256.922852,4138.846191,4119.102539,4125.256348,4636.282227,4412.563965,4386.538574,4529.487305,0.000000,3.000000,73.000000,,,,0.000000,4.000000,4.000000,4.000000,4.000000,4.000000,4.000000,2.000000,4.000000,4.000000,4.000000,4.000000,4.000000,4.000000,4.000000,83.333336,,,,,,,,,,,,,,,,,,,,,,,,,,,,
1702803626.053501,1702803626.405565,63.000000,0.000000,4192.436035,4149.230957,4287.692383,4214.230957,4138.974121,4123.974121,4258.205078,4133.717773,4114.871582,4122.692383,4621.538574,4410.769043,4384.871582,4526.025879,0.000000,3.000000,73.000000,,,,0.000000,4.000000,4.000000,4.000000,4.000000,4.000000,4.000000,2.000000,4.000000,4.000000,4.000000,4.000000,4.000000,4.000000,4.000000,83.333336,,,,,,,,,,,,,,,,,,,,,,,,,,,,
1702803626.061310,1702803626.413273,64.000000,0.000000,4204.358887,4165.769043,4289.358887,4232.179688,4138.974121,4123.461426,4256.666504,4127.051270,4120.000000,4126.153809,4616.922852,4403.846191,4386.666504,4527.820313,5195.000000,3.000000,73.000000,,,,0.000000,4.000000,4.000000,4.000000,4.000000,4.000000,4.000000,2.000000,4.000000,4.000000,4.000000,4.000000,4.000000,4.000000,4.000000,83.333336,,,,,,,,,,,,,,,,,16.000000,0.000000,0.681578,0.180420,-0.690918,0.159790,0.993285,0.032230,-0.017580,-7.109034,16.272678,95.180779
1702803626.069118,1702803626.421081,65.000000,0.000000,4197.948730,4163.589844,4280.641113,4230.256348,4140.000000,4121.282227,4254.487305,4129.102539,4125.384766,4122.307617,4612.563965,4396.666504,4373.974121,4518.589844,5499.000000,3.000000,73.000000,,,,0.000000,4.000000,4.000000,4.000000,4.000000,4.000000,4.000000,2.000000,4.000000,4.000000,4.000000,4.000000,4.000000,4.000000,4.000000,83.333336,,,,,,,,,,,,,,,,,,,,,,,,,,,,
1702803626.076926,1702803626.428789,66.000000,0.000000,4196.794922,4162.820313,4280.256348,4213.461426,4139.743652,4120.384766,4253.077148,4131.666504,4123.077148,4121.794922,4614.358887,4401.410156,4374.102539,4518.077148,4734.000000,3.000000,73.000000,,,,0.000000,4.000000,4.000000,4.000000,4.000000,4.000000,4.000000,2.000000,4.000000,4.000000,4.000000,4.000000,4.000000,4.000000,4.000000,83.333336,,,,,,,,,,,,,,,,,,,,,,,,,,,,
1702803626.084734,1702803626.436597,67.000000,0.000000,4204.743652,4171.410156,4289.743652,4227.179688,4138.461426,4119.487305,4253.717773,4130.000000,4117.307617,4125.256348,4618.846191,4404.871582,4383.846191,4526.153809,5168.000000,3.000000,73.000000,,,,0.000000,4.000000,4.000000,4.000000,4.000000,4.000000,4.000000,2.000000,4.000000,4.000000,4.000000,4.000000,4.000000,4.000000,4.000000,83.333336,,,,,,,,,,,,,,,,,,,,,,,,,,,,
1702803626.092542,1702803626.444305,68.000000,0.000000,4196.922852,4165.897461,4286.666504,4242.179688,4140.384766,4121.410156,4256.794922,4134.102539,4118.589844,4123.589844,4620.512695,4399.743652,4379.230957,4518.205078,5088.000000,3.000000,73.000000,,,,0.000000,4.000000,4.000000,4.000000,4.000000,4.000000,4.000000,2.000000,4.000000,4.000000,4.000000,4.000000,4.000000,4.000000,4.000000,83.333336,,,,,,,,,,,,,,,,,17.000000,0.000000,0.681592,0.180420,-0.690918,0.159729,0.986937,0.018069,-0.008790,-7.064797,16.162077,95.196037
1702803626.100350,1702803626.452113,69.000000,0.000000,4188.461426,4159.487305,4280.641113,4237.692383,4147.179688,4127.436035,4258.333496,4141.922852,4127.436035,4124.230957,4623.077148,4405.256348,4378.717773,4514.743652,5085.000000,3.000000,73.000000,,,,0.000000,4.000000,4.000000,4.000000,4.000000,4.000000,4.000000,2.000000,4.000000,4.000000,4.000000,4.000000,4.000000,4.000000,4.000000,83.333336,,,,,,,,,,,,,,,,,,,,,,,,,,,,
1702803626.108158,1702803626.459822,70.000000,0.000000,4193.717773,4162.820313,4284.358887,4232.948730,4150.000000,4129.102539,4258.717773,4142.948730,4133.077148,4130.512695,4622.820313,4413.846191,4385.897461,4523.461426,1255.000000,3.000000,73.000000,,,,0.000000,4.000000,4.000000,4.000000,4.000000,4.000000,4.000000,2.000000,4.000000,4.000000,4.000000,4.000000,4.000000,4.000000,4.000000,83.333336,,,,,,,,,,,,,,,,,,,,,,,,,,,,
1702803626.115966,1702803626.467629,71.000000,0.000000,4195.769043,4162.563965,4286.025879,4240.128418,4145.384766,4124.871582,4260.769043,4139.615234,4129.871582,4129.102539,4623.589844,4407.692383,4382.948730,4521.794922,4884.000000,3.000000,73.000000,,,,0.000000,4.000000,4.000000,4.000000,4.000000,4.000000,4.000000,2.000000,4.000000,4.000000,4.000000,4.000000,4.000000,4.000000,4.000000,83.333336,,,,,,,,,,,,,,,,,,,,,,,,,,,,
1702803626.123774,1702803626.475338,72.000000,0.000000,4190.769043,4161.153809,4281.410156,4232.307617,4144.615234,4121.794922,4261.282227,4138.077148,4122.307617,4122.563965,4632.051270,4404.358887,4381.538574,4517.563965,5125.000000,3.000000,73.000000,,,,0.000000,4.000000,4.000000,4.000000,4.000000,4.000000,4.000000,2.000000,4.000000,4.000000,4.000000,4.000000,4.000000,4.000000,4.000000,83.333336,,,,,,,,,,,,,,,,,18.000000,0.000000,0.681576,0.180481,-0.690918,0.159729,0.987914,0.019045,-0.017580,-6.941651,16.112537,95.209763
1702803626.131582,1702803626.483146,73.000000,0.000000,4190.128418,4163.589844,4279.102539,4211.922852,4146.153809,4121.794922,4257.307617,4139.358887,4119.102539,4119.358887,4623.846191,4409.871582,4382.948730,4517.051270,5210.000000,3.000000,73.000000,,,,0.000000,4.000000,4.000000,4.000000,4.000000,4.000000,4.000000,2.000000,4.000000,4.000000,4.000000,4.000000,4.000000,4.000000,4.000000,83.333336,,,,,,,,,,,,,,,,,,,,,,,,,,,,
1702803626.139390,1702803626.490854,74.000000,0.000000,4193.717773,4165.897461,4281.666504,4225.641113,4144.615234,4124.230957,4255.641113,4141.794922,4125.000000,4123.205078,4612.307617,4407.307617,4382.563965,4516.153809,5771.000000,3.000000,73.000000,,,,0.000000,4.000000,4.000000,4.000000,4.000000,4.000000,4.000000,2.000000,4.000000,4.000000,4.000000,4.000000,4.000000,4.000000,4.000000,83.333336,,,,,,,,,,,,,,,,,,,,,,,,,,,,
1702803626.147199,1702803626.498762,75.000000,0.000000,4198.717773,4168.333496,4287.307617,4250.512695,4147.307617,4130.641113,4258.974121,4146.410156,4138.974121,4137.692383,4629.358887,4408.333496,4391.794922,4524.871582,5851.000000,3.000000,73.000000,,,,0.000000,4.000000,4.000000,4.000000,4.000000,4.000000,4.000000,2.000000,4.000000,4.000000,4.000000,4.000000,4.000000,4.000000,4.000000,83.333336,,,,,,,,,,,,,,,,,,,,,,,,,,,,
1702803626.155007,1702803626.506570,76.000000,0.000000,4201.922852,4169.487305,4290.897461,4246.666504,4150.897461,4132.692383,4261.025879,4149.487305,4147.307617,4145.000000,4645.384766,4419.230957,4399.102539,4535.000000,6731.000000,3.000000,73.000000,,,,0.000000,4.000000,4.000000,4.000000,4.000000,4.000000,4.000000,2.000000,4.000000,4.000000,4.000000,4.000000,4.000000,4.000000,4.000000,83.333336,,,,,,,,,,,,,,,,,19.000000,0.000000,0.681578,0.180420,-0.690918,0.159790,0.999634,0.029300,-0.021487,-6.880819,16.184616,95.305450
1702803626.162815,1702803626.514478,77.000000,0.000000,4202.436035,4168.333496,4293.205078,4237.820313,4149.615234,4128.589844,4260.769043,4147.948730,4145.384766,4136.666504,4641.794922,4425.769043,4396.538574,4534.743652,6927.000000,3.000000,73.000000,,,,0.000000,4.000000,4.000000,4.000000,4.000000,4.000000,4.000000,2.000000,4.000000,4.000000,4.000000,4.000000,4.000000,4.000000,4.000000,83.333336,,,,,,,,,,,,,,,,,,,,,,,,,,,,
