title:شاهين جوع, start timestamp:1703488601.569682, stop timestamp:1703488612.438478, headset type:EPOCX, headset serial:E50206EF, headset firmware:720, channels:67, sampling rate:eeg_128;mot_32, samples:1393      , version:2.2, 
Timestamp,OriginalTimestamp,EEG.Counter,EEG.Interpolated,EEG.AF3,EEG.F7,EEG.F3,EEG.FC5,EEG.T7,EEG.P7,EEG.O1,EEG.O2,EEG.P8,EEG.T8,EEG.FC6,EEG.F4,EEG.F8,EEG.AF4,EEG.RawCq,EEG.Battery,EEG.BatteryPercent,MarkerIndex,MarkerType,MarkerValueInt,EEG.MarkerHardware,CQ.AF3,CQ.F7,CQ.F3,CQ.FC5,CQ.T7,CQ.P7,CQ.O1,CQ.O2,CQ.P8,CQ.T8,CQ.FC6,CQ.F4,CQ.F8,CQ.AF4,CQ.Overall,EQ.SampleRateQuality,EQ.OVERALL,EQ.AF3,EQ.F7,EQ.F3,EQ.FC5,EQ.T7,EQ.P7,EQ.O1,EQ.O2,EQ.P8,EQ.T8,EQ.FC6,EQ.F4,EQ.F8,EQ.AF4,MOT.CounterMems,MOT.InterpolatedMems,MOT.Q0,MOT.Q1,MOT.Q2,MOT.Q3,MOT.AccX,MOT.AccY,MOT.AccZ,MOT.MagX,MOT.MagY,MOT.MagZ
1703488601.569682,1703488601.570439,23.000000,0.000000,4295.512695,4275.769043,4335.512695,4329.487305,4252.692383,4263.717773,4281.282227,4269.230957,4266.153809,4254.743652,4532.948730,4498.461426,4395.128418,4470.128418,0.000000,4.000000,97.000000,,,,0.000000,4.000000,4.000000,4.000000,4.000000,4.000000,4.000000,4.000000,4.000000,4.000000,4.000000,4.000000,4.000000,4.000000,4.000000,100.000000,1.000000,75.000000,4.000000,4.000000,3.000000,3.000000,4.000000,4.000000,4.000000,4.000000,4.000000,3.000000,4.000000,4.000000,4.000000,4.000000,,,,,,,,,,,,
1703488601.577490,1703488601.578347,24.000000,0.000000,4300.512695,4278.717773,4340.512695,4333.077148,4250.384766,4253.205078,4280.512695,4268.589844,4267.051270,4258.846191,4543.333496,4508.333496,4397.692383,4478.717773,0.000000,4.000000,97.000000,,,,0.000000,4.000000,4.000000,4.000000,4.000000,4.000000,4.000000,4.000000,4.000000,4.000000,4.000000,4.000000,4.000000,4.000000,4.000000,100.000000,,,,,,,,,,,,,,,,,6.000000,0.000000,0.699791,-0.103271,-0.676086,0.206238,0.884874,-0.407765,0.060066,-8.602628,-46.411228,62.199173
1703488601.585298,1703488601.586155,25.000000,0.000000,4297.692383,4282.051270,4338.333496,4341.153809,4261.282227,4245.641113,4280.384766,4265.384766,4267.436035,4257.563965,4542.051270,4512.820313,4398.205078,4478.461426,0.000000,4.000000,97.000000,,,,0.000000,4.000000,4.000000,4.000000,4.000000,4.000000,4.000000,4.000000,4.000000,4.000000,4.000000,4.000000,4.000000,4.000000,4.000000,100.000000,,,,,,,,,,,,,,,,,,,,,,,,,,,,
1703488601.593106,1703488601.593963,26.000000,0.000000,4293.077148,4281.666504,4340.256348,4329.615234,4265.000000,4250.641113,4281.282227,4261.794922,4264.743652,4252.051270,4538.846191,4506.410156,4398.974121,4469.743652,0.000000,4.000000,97.000000,,,,0.000000,4.000000,4.000000,4.000000,4.000000,4.000000,4.000000,4.000000,4.000000,4.000000,4.000000,4.000000,4.000000,4.000000,4.000000,100.000000,,,,,,,,,,,,,,,,,,,,,,,,,,,,
1703488601.600914,1703488601.601672,27.000000,0.000000,4283.974121,4271.666504,4330.897461,4307.436035,4255.384766,4256.410156,4279.230957,4255.641113,4256.794922,4248.205078,4532.436035,4489.871582,4385.897461,4456.153809,0.000000,4.000000,97.000000,,,,0.000000,4.000000,4.000000,4.000000,4.000000,4.000000,4.000000,4.000000,4.000000,4.000000,4.000000,4.000000,4.000000,4.000000,4.000000,100.000000,,,,,,,,,,,,,,,,,,,,,,,,,,,,
1703488601.608722,1703488601.609479,28.000000,0.000000,4270.512695,4258.205078,4309.743652,4308.717773,4259.487305,4257.563965,4278.461426,4245.512695,4245.384766,4237.948730,4513.974121,4463.974121,4371.922852,4443.333496,0.000000,4.000000,97.000000,,,,0.000000,4.000000,4.000000,4.000000,4.000000,4.000000,4.000000,4.000000,4.000000,4.000000,4.000000,4.000000,4.000000,4.000000,4.000000,100.000000,,,,,,,,,,,,,,,,,7.000000,0.000000,0.699764,-0.103333,-0.676086,0.206299,0.893664,-0.425833,0.059578,-8.559031,-46.453438,62.095924
1703488601.616530,1703488601.617188,29.000000,0.000000,4259.230957,4252.307617,4302.948730,4316.922852,4265.128418,4261.282227,4281.153809,4232.820313,4228.077148,4220.384766,4497.307617,4450.512695,4363.846191,4433.974121,0.000000,4.000000,97.000000,,,,0.000000,4.000000,4.000000,4.000000,4.000000,4.000000,4.000000,4.000000,4.000000,4.000000,4.000000,4.000000,4.000000,4.000000,4.000000,100.000000,,,,,,,,,,,,,,,,,,,,,,,,,,,,
1703488601.624338,1703488601.624996,30.000000,0.000000,4252.307617,4244.358887,4306.922852,4308.589844,4255.641113,4263.974121,4279.487305,4226.922852,4216.025879,4214.487305,4491.922852,4457.179688,4352.563965,4428.077148,0.000000,4.000000,97.000000,,,,0.000000,4.000000,4.000000,4.000000,4.000000,4.000000,4.000000,4.000000,4.000000,4.000000,4.000000,4.000000,4.000000,4.000000,4.000000,100.000000,,,,,,,,,,,,,,,,,,,,,,,,,,,,
1703488601.632146,1703488601.632704,31.000000,0.000000,4247.051270,4232.436035,4306.666504,4289.102539,4247.948730,4262.563965,4277.179688,4233.333496,4220.512695,4217.179688,4488.461426,4460.641113,4345.256348,4424.230957,0.000000,4.000000,97.000000,,,,0.000000,4.000000,4.000000,4.000000,4.000000,4.000000,4.000000,4.000000,4.000000,4.000000,4.000000,4.000000,4.000000,4.000000,4.000000,100.000000,,,,,,,,,,,,,,,,,,,,,,,,,,,,
1703488601.639954,1703488601.640512,32.000000,0.000000,4249.230957,4235.769043,4305.000000,4289.102539,4248.589844,4262.820313,4277.692383,4243.333496,4229.102539,4211.922852,4486.282227,4455.897461,4347.436035,4424.230957,0.000000,4.000000,97.000000,,,,0.000000,4.000000,4.000000,4.000000,4.000000,4.000000,4.000000,4.000000,4.000000,4.000000,4.000000,4.000000,4.000000,4.000000,4.000000,100.000000,,,,,,,,,,,,,,,,,8.000000,0.000000,0.699778,-0.103394,-0.676025,0.206421,0.884385,-0.425345,0.055671,-8.686462,-46.474762,62.186329
1703488601.647762,1703488601.648220,33.000000,0.000000,4255.641113,4247.307617,4306.153809,4302.436035,4249.615234,4265.128418,4281.538574,4253.077148,4236.282227,4212.436035,4486.794922,4461.794922,4349.487305,4429.615234,0.000000,4.000000,97.000000,,,,0.000000,4.000000,4.000000,4.000000,4.000000,4.000000,4.000000,4.000000,4.000000,4.000000,4.000000,4.000000,4.000000,4.000000,4.000000,100.000000,,,,,,,,,,,,,,,,,,,,,,,,,,,,
1703488601.655570,1703488601.656028,34.000000,0.000000,4264.743652,4254.615234,4315.128418,4307.179688,4251.922852,4267.948730,4278.974121,4263.077148,4250.897461,4229.358887,4489.871582,4473.846191,4350.512695,4435.769043,0.000000,4.000000,97.000000,,,,0.000000,4.000000,4.000000,4.000000,4.000000,4.000000,4.000000,4.000000,4.000000,4.000000,4.000000,4.000000,4.000000,4.000000,4.000000,100.000000,,,,,,,,,,,,,,,,,,,,,,,,,,,,
1703488601.663378,1703488601.663736,35.000000,0.000000,4276.794922,4254.743652,4328.846191,4307.179688,4250.256348,4263.589844,4271.282227,4267.692383,4261.922852,4235.897461,4497.179688,4477.436035,4356.922852,4440.897461,0.000000,4.000000,97.000000,,,,0.000000,4.000000,4.000000,4.000000,4.000000,4.000000,4.000000,4.000000,4.000000,4.000000,4.000000,4.000000,4.000000,4.000000,4.000000,100.000000,,,,,,,,,,,,,,,,,,,,,,,,,,,,
1703488601.671186,1703488601.671544,36.000000,0.000000,4280.897461,4251.282227,4328.974121,4306.538574,4239.615234,4253.333496,4269.358887,4265.128418,4261.153809,4228.077148,4505.769043,4480.256348,4367.563965,4450.384766,0.000000,4.000000,97.000000,,,,0.000000,4.000000,4.000000,4.000000,4.000000,4.000000,4.000000,4.000000,4.000000,4.000000,4.000000,4.000000,4.000000,4.000000,4.000000,100.000000,,,,,,,,,,,,,,,,,9.000000,0.000000,0.699937,-0.103516,-0.675842,0.206421,0.888780,-0.430228,0.060554,-8.667816,-46.543953,62.184364
1703488601.678995,1703488601.679252,37.000000,0.000000,4278.974121,4257.307617,4321.666504,4315.128418,4247.307617,4248.077148,4271.153809,4268.846191,4262.948730,4239.230957,4516.153809,4491.794922,4381.282227,4460.897461,0.000000,4.000000,97.000000,,,,0.000000,4.000000,4.000000,4.000000,4.000000,4.000000,4.000000,4.000000,4.000000,4.000000,4.000000,4.000000,4.000000,4.000000,4.000000,100.000000,,,,,,,,,,,,,,,,,,,,,,,,,,,,
1703488601.686803,1703488601.687160,38.000000,0.000000,4278.589844,4267.692383,4322.820313,4324.358887,4263.846191,4251.153809,4274.871582,4277.179688,4267.692383,4251.538574,4526.025879,4501.410156,4388.461426,4461.153809,0.000000,4.000000,97.000000,,,,0.000000,4.000000,4.000000,4.000000,4.000000,4.000000,4.000000,4.000000,4.000000,4.000000,4.000000,4.000000,4.000000,4.000000,4.000000,100.000000,,,,,,,,,,,,,,,,,,,,,,,,,,,,
1703488601.694610,1703488601.694968,39.000000,0.000000,4281.282227,4268.461426,4326.538574,4316.282227,4256.282227,4255.128418,4276.538574,4275.897461,4269.487305,4251.666504,4534.358887,4500.128418,4390.000000,4459.743652,0.000000,4.000000,97.000000,,,,0.000000,4.000000,4.000000,4.000000,4.000000,4.000000,4.000000,4.000000,4.000000,4.000000,4.000000,4.000000,4.000000,4.000000,4.000000,100.000000,,,,,,,,,,,,,,,,,,,,,,,,,,,,
1703488601.702419,1703488601.702875,40.000000,0.000000,4285.128418,4261.794922,4328.846191,4303.974121,4248.461426,4256.666504,4275.512695,4268.717773,4265.128418,4256.794922,4541.282227,4500.769043,4388.461426,4463.717773,0.000000,4.000000,97.000000,,,,0.000000,4.000000,4.000000,4.000000,4.000000,4.000000,4.000000,4.000000,4.000000,4.000000,4.000000,4.000000,4.000000,4.000000,4.000000,100.000000,,,,,,,,,,,,,,,,,10.000000,0.000000,0.699969,-0.103577,-0.675781,0.206482,0.883409,-0.424368,0.055183,-8.617701,-46.572891,62.249260
1703488601.710227,1703488601.710683,41.000000,0.000000,4286.538574,4267.051270,4328.589844,4323.846191,4265.000000,4257.820313,4277.179688,4260.641113,4246.666504,4254.615234,4536.282227,4498.333496,4387.307617,4456.538574,0.000000,4.000000,97.000000,,,,0.000000,4.000000,4.000000,4.000000,4.000000,4.000000,4.000000,4.000000,4.000000,4.000000,4.000000,4.000000,4.000000,4.000000,4.000000,100.000000,,,,,,,,,,,,,,,,,,,,,,,,,,,,
1703488601.718035,1703488601.718591,42.000000,0.000000,4280.512695,4271.794922,4322.563965,4335.769043,4267.820313,4253.205078,4277.948730,4245.769043,4224.230957,4231.025879,4512.692383,4483.974121,4375.769043,4437.436035,0.000000,4.000000,97.000000,,,,0.000000,4.000000,4.000000,4.000000,4.000000,4.000000,4.000000,4.000000,4.000000,4.000000,4.000000,4.000000,4.000000,4.000000,4.000000,100.000000,,,,,,,,,,,,,,,,,,,,,,,,,,,,
1703488601.725843,1703488601.726399,43.000000,0.000000,4273.717773,4256.666504,4322.948730,4302.692383,4247.563965,4247.436035,4274.358887,4234.487305,4213.717773,4207.436035,4493.205078,4474.102539,4352.051270,4429.102539,0.000000,4.000000,97.000000,,,,0.000000,4.000000,4.000000,4.000000,4.000000,4.000000,4.000000,4.000000,4.000000,4.000000,4.000000,4.000000,4.000000,4.000000,4.000000,100.000000,,,,,,,,,,,,,,,,,,,,,,,,,,,,
1703488601.733651,1703488601.734307,44.000000,0.000000,4273.717773,4243.974121,4327.436035,4292.948730,4247.820313,4253.205078,4272.307617,4237.051270,4215.769043,4203.077148,4483.717773,4472.948730,4338.077148,4423.717773,0.000000,4.000000,97.000000,,,,0.000000,4.000000,4.000000,4.000000,4.000000,4.000000,4.000000,4.000000,4.000000,4.000000,4.000000,4.000000,4.000000,4.000000,4.000000,100.000000,,,,,,,,,,,,,,,,,11.000000,0.000000,0.700200,-0.103577,-0.675598,0.206299,0.892687,-0.426322,0.071786,-8.539264,-46.482269,62.191002
1703488601.741459,1703488601.742115,45.000000,0.000000,4270.769043,4253.846191,4319.615234,4322.563965,4268.077148,4266.922852,4280.256348,4244.871582,4232.307617,4211.922852,4476.794922,4469.487305,4338.205078,4411.153809,0.000000,4.000000,97.000000,,,,0.000000,4.000000,4.000000,4.000000,4.000000,4.000000,4.000000,4.000000,4.000000,4.000000,4.000000,4.000000,4.000000,4.000000,4.000000,100.000000,,,,,,,,,,,,,,,,,,,,,,,,,,,,
1703488601.749267,1703488601.750023,46.000000,0.000000,4267.692383,4262.948730,4308.717773,4321.538574,4271.025879,4272.948730,4282.436035,4253.461426,4249.487305,4221.410156,4481.282227,4460.769043,4343.461426,4413.717773,0.000000,4.000000,97.000000,,,,0.000000,4.000000,4.000000,4.000000,4.000000,4.000000,4.000000,4.000000,4.000000,4.000000,4.000000,4.000000,4.000000,4.000000,4.000000,100.000000,,,,,,,,,,,,,,,,,,,,,,,,,,,,
1703488601.757075,1703488601.757831,47.000000,0.000000,4267.179688,4248.717773,4309.615234,4290.897461,4251.794922,4265.641113,4271.538574,4258.461426,4250.897461,4222.820313,4490.384766,4455.000000,4345.384766,4424.615234,0.000000,4.000000,97.000000,,,,0.000000,4.000000,4.000000,4.000000,4.000000,4.000000,4.000000,4.000000,4.000000,4.000000,4.000000,4.000000,4.000000,4.000000,4.000000,100.000000,,,,,,,,,,,,,,,,,,,,,,,,,,,,
1703488601.764883,1703488601.765739,48.000000,0.000000,4269.487305,4245.897461,4312.436035,4294.487305,4245.384766,4259.743652,4269.487305,4261.153809,4253.333496,4231.794922,4499.358887,4464.102539,4351.282227,4428.846191,0.000000,4.000000,97.000000,,,,0.000000,4.000000,4.000000,4.000000,4.000000,4.000000,4.000000,4.000000,4.000000,4.000000,4.000000,4.000000,4.000000,4.000000,4.000000,100.000000,,,,,,,,,,,,,,,,,12.000000,0.000000,0.700331,-0.103760,-0.675415,0.206360,0.900989,-0.428275,0.067391,-8.568671,-46.417374,62.405235
1703488601.772691,1703488601.773547,49.000000,0.000000,4274.743652,4266.025879,4310.256348,4311.410156,4262.051270,4261.538574,4280.128418,4271.794922,4267.563965,4251.025879,4513.717773,4481.025879,4366.922852,4442.692383,0.000000,4.000000,97.000000,,,,0.000000,4.000000,4.000000,4.000000,4.000000,4.000000,4.000000,4.000000,4.000000,4.000000,4.000000,4.000000,4.000000,4.000000,4.000000,100.000000,,,,,,,,,,,,,,,,,,,,,,,,,,,,
1703488601.780499,1703488601.781255,50.000000,0.000000,4281.153809,4279.230957,4312.820313,4312.307617,4274.743652,4266.153809,4285.128418,4284.743652,4279.487305,4264.871582,4525.641113,4488.077148,4383.974121,4459.615234,0.000000,4.000000,97.000000,,,,0.000000,4.000000,4.000000,4.000000,4.000000,4.000000,4.000000,4.000000,4.000000,4.000000,4.000000,4.000000,4.000000,4.000000,4.000000,100.000000,,,,,,,,,,,,,,,,,,,,,,,,,,,,
1703488601.788307,1703488601.789063,51.000000,0.000000,4284.230957,4278.461426,4313.077148,4323.077148,4269.615234,4268.333496,4280.256348,4287.436035,4280.000000,4268.461426,4529.743652,4486.794922,4390.641113,4459.743652,0.000000,4.000000,97.000000,,,,0.000000,4.000000,4.000000,4.000000,4.000000,4.000000,4.000000,4.000000,4.000000,4.000000,4.000000,4.000000,4.000000,4.000000,4.000000,100.000000,,,,,,,,,,,,,,,,,,,,,,,,,,,,
1703488601.796115,1703488601.796771,52.000000,0.000000,4277.948730,4265.512695,4304.102539,4314.743652,4252.820313,4262.948730,4273.205078,4278.077148,4265.641113,4258.077148,4526.922852,4484.743652,4381.025879,4448.077148,0.000000,4.000000,97.000000,,,,0.000000,4.000000,4.000000,4.000000,4.000000,4.000000,4.000000,4.000000,4.000000,4.000000,4.000000,4.000000,4.000000,4.000000,4.000000,100.000000,,,,,,,,,,,,,,,,,13.000000,0.000000,0.700435,-0.103699,-0.675354,0.206238,0.896594,-0.414113,0.057624,-8.528471,-46.458969,62.414711
1703488601.803923,1703488601.804579,53.000000,0.000000,4278.717773,4257.948730,4313.974121,4294.615234,4254.743652,4258.333496,4273.077148,4274.102539,4255.000000,4242.692383,4523.717773,4496.666504,4378.077148,4449.487305,0.000000,4.000000,97.000000,,,,0.000000,4.000000,4.000000,4.000000,4.000000,4.000000,4.000000,4.000000,4.000000,4.000000,4.000000,4.000000,4.000000,4.000000,4.000000,100.000000,,,,,,,,,,,,,,,,,,,,,,,,,,,,
1703488601.811731,1703488601.812287,54.000000,0.000000,4290.256348,4271.666504,4336.666504,4316.282227,4272.307617,4261.153809,4280.128418,4277.563965,4260.769043,4247.307617,4532.051270,4519.358887,4391.666504,4466.282227,0.000000,4.000000,97.000000,,,,0.000000,4.000000,4.000000,4.000000,4.000000,4.000000,4.000000,4.000000,4.000000,4.000000,4.000000,4.000000,4.000000,4.000000,4.000000,100.000000,,,,,,,,,,,,,,,,,,,,,,,,,,,,
1703488601.819539,1703488601.820095,55.000000,0.000000,4298.717773,4288.333496,4337.051270,4345.512695,4276.410156,4263.974121,4285.641113,4273.589844,4260.000000,4263.717773,4549.102539,4522.436035,4401.538574,4479.230957,0.000000,4.000000,97.000000,,,,0.000000,4.000000,4.000000,4.000000,4.000000,4.000000,4.000000,4.000000,4.000000,4.000000,4.000000,4.000000,4.000000,4.000000,4.000000,100.000000,,,,,,,,,,,,,,,,,,,,,,,,,,,,
1703488601.827347,1703488601.827803,56.000000,0.000000,4296.282227,4278.077148,4333.846191,4317.436035,4267.051270,4262.563965,4282.179688,4257.051270,4240.128418,4249.230957,4540.256348,4505.641113,4385.000000,4469.358887,0.000000,4.000000,97.000000,,,,0.000000,4.000000,4.000000,4.000000,4.000000,4.000000,4.000000,4.000000,4.000000,4.000000,4.000000,4.000000,4.000000,4.000000,4.000000,100.000000,,,,,,,,,,,,,,,,,14.000000,0.000000,0.700412,-0.103577,-0.675415,0.206177,0.890734,-0.413625,0.060554,-8.375624,-46.496407,62.539906
1703488601.835155,1703488601.835611,57.000000,0.000000,4283.717773,4254.230957,4336.153809,4291.666504,4255.512695,4261.025879,4276.666504,4245.128418,4224.487305,4213.589844,4507.436035,4488.846191,4360.256348,4442.436035,0.000000,4.000000,97.000000,,,,0.000000,4.000000,4.000000,4.000000,4.000000,4.000000,4.000000,4.000000,4.000000,4.000000,4.000000,4.000000,4.000000,4.000000,4.000000,100.000000,,,,,,,,,,,,,,,,,,,,,,,,,,,,
1703488601.842963,1703488601.843319,58.000000,0.000000,4270.000000,4251.794922,4321.410156,4308.461426,4248.077148,4260.641113,4274.230957,4244.102539,4223.717773,4202.948730,4488.974121,4477.179688,4353.717773,4428.205078,0.000000,4.000000,97.000000,,,,0.000000,4.000000,4.000000,4.000000,4.000000,4.000000,4.000000,4.000000,4.000000,4.000000,4.000000,4.000000,4.000000,4.000000,4.000000,100.000000,,,,,,,,,,,,,,,,,,,,,,,,,,,,
1703488601.850771,1703488601.851127,59.000000,0.000000,4266.538574,4262.307617,4307.948730,4317.436035,4255.769043,4262.179688,4275.256348,4248.077148,4231.025879,4215.384766,4488.333496,4476.794922,4349.871582,4427.563965,0.000000,4.000000,97.000000,,,,0.000000,4.000000,4.000000,4.000000,4.000000,4.000000,4.000000,4.000000,4.000000,4.000000,4.000000,4.000000,4.000000,4.000000,4.000000,100.000000,,,,,,,,,,,,,,,,,,,,,,,,,,,,
1703488601.858580,1703488601.858835,60.000000,0.000000,4269.487305,4258.589844,4309.743652,4310.769043,4264.230957,4263.205078,4279.230957,4252.179688,4242.563965,4227.051270,4485.000000,4480.384766,4342.436035,4421.025879,0.000000,4.000000,97.000000,,,,0.000000,4.000000,4.000000,4.000000,4.000000,4.000000,4.000000,4.000000,4.000000,4.000000,4.000000,4.000000,4.000000,4.000000,4.000000,100.000000,,,,,,,,,,,,,,,,,15.000000,0.000000,0.700593,-0.103394,-0.675293,0.206055,0.879014,-0.416066,0.054206,-8.238061,-46.280098,62.485916
1703488601.866387,1703488601.866743,61.000000,0.000000,4265.769043,4246.794922,4303.717773,4302.307617,4253.974121,4260.256348,4277.948730,4249.358887,4247.436035,4228.846191,4481.410156,4464.743652,4340.000000,4414.487305,0.000000,4.000000,97.000000,,,,0.000000,4.000000,4.000000,4.000000,4.000000,4.000000,4.000000,4.000000,4.000000,4.000000,4.000000,4.000000,4.000000,4.000000,4.000000,100.000000,,,,,,,,,,,,,,,,,,,,,,,,,,,,
1703488601.874195,1703488601.874551,62.000000,0.000000,4261.410156,4248.717773,4296.025879,4288.461426,4254.615234,4259.487305,4277.307617,4251.538574,4244.358887,4222.692383,4484.102539,4449.871582,4340.512695,4416.538574,0.000000,4.000000,97.000000,,,,0.000000,4.000000,4.000000,4.000000,4.000000,4.000000,4.000000,4.000000,4.000000,4.000000,4.000000,4.000000,4.000000,4.000000,4.000000,100.000000,,,,,,,,,,,,,,,,,,,,,,,,,,,,
1703488601.882004,1703488601.882459,63.000000,0.000000,4265.000000,4260.641113,4300.128418,4292.563965,4270.256348,4262.051270,4281.025879,4262.948730,4250.769043,4225.384766,4491.025879,4459.615234,4347.436035,4421.538574,0.000000,4.000000,97.000000,,,,0.000000,4.000000,4.000000,4.000000,4.000000,4.000000,4.000000,4.000000,4.000000,4.000000,4.000000,4.000000,4.000000,4.000000,4.000000,100.000000,,,,,,,,,,,,,,,,,,,,,,,,,,,,
1703488601.889812,1703488601.890267,64.000000,0.000000,4271.794922,4263.974121,4302.820313,4306.666504,4265.897461,4259.743652,4281.794922,4265.512695,4261.794922,4241.153809,4500.000000,4470.641113,4359.615234,4427.563965,5404.000000,4.000000,97.000000,,,,0.000000,4.000000,4.000000,4.000000,4.000000,4.000000,4.000000,4.000000,4.000000,4.000000,4.000000,4.000000,4.000000,4.000000,4.000000,100.000000,,,,,,,,,,,,,,,,,16.000000,0.000000,0.700616,-0.103638,-0.675232,0.206055,0.893175,-0.418020,0.060066,-8.130921,-46.368755,62.587326
1703488601.897620,1703488601.898175,65.000000,0.000000,4277.563965,4261.025879,4305.769043,4289.102539,4256.794922,4257.436035,4278.974121,4260.897461,4263.205078,4250.897461,4509.871582,4473.974121,4367.563965,4438.717773,5477.000000,4.000000,97.000000,,,,0.000000,4.000000,4.000000,4.000000,4.000000,4.000000,4.000000,4.000000,4.000000,4.000000,4.000000,4.000000,4.000000,4.000000,4.000000,100.000000,,,,,,,,,,,,,,,,,,,,,,,,,,,,
1703488601.905428,1703488601.905983,66.000000,0.000000,4285.000000,4267.948730,4313.717773,4274.743652,4263.333496,4262.563965,4279.230957,4265.897461,4261.538574,4256.282227,4517.692383,4482.051270,4375.641113,4451.538574,5305.000000,4.000000,97.000000,,,,0.000000,4.000000,4.000000,4.000000,4.000000,4.000000,4.000000,4.000000,4.000000,4.000000,4.000000,4.000000,4.000000,4.000000,4.000000,100.000000,,,,,,,,,,,,,,,,,,,,,,,,,,,,
1703488601.913236,1703488601.913890,67.000000,0.000000,4294.358887,4281.282227,4318.205078,4304.358887,4272.307617,4268.077148,4286.794922,4275.256348,4266.153809,4258.717773,4524.230957,4497.436035,4383.846191,4461.922852,5397.000000,4.000000,97.000000,,,,0.000000,4.000000,4.000000,4.000000,4.000000,4.000000,4.000000,4.000000,4.000000,4.000000,4.000000,4.000000,4.000000,4.000000,4.000000,100.000000,,,,,,,,,,,,,,,,,,,,,,,,,,,,
1703488601.921044,1703488601.921698,68.000000,0.000000,4294.615234,4280.641113,4319.102539,4317.948730,4275.384766,4268.589844,4290.641113,4274.871582,4263.589844,4251.538574,4525.384766,4504.230957,4381.282227,4461.538574,5197.000000,4.000000,97.000000,,,,0.000000,4.000000,4.000000,4.000000,4.000000,4.000000,4.000000,4.000000,4.000000,4.000000,4.000000,4.000000,4.000000,4.000000,4.000000,100.000000,,,,,,,,,,,,,,,,,17.000000,0.000000,0.700575,-0.103760,-0.675293,0.205933,0.898059,-0.415090,0.069344,-8.034496,-46.265213,62.428593
1703488601.928852,1703488601.929606,69.000000,0.000000,4282.436035,4262.563965,4316.666504,4294.230957,4259.102539,4266.666504,4282.948730,4263.974121,4251.282227,4243.589844,4514.102539,4486.153809,4370.384766,4448.846191,5075.000000,4.000000,97.000000,,,,0.000000,4.000000,4.000000,4.000000,4.000000,4.000000,4.000000,4.000000,4.000000,4.000000,4.000000,4.000000,4.000000,4.000000,4.000000,100.000000,,,,,,,,,,,,,,,,,,,,,,,,,,,,
1703488601.936660,1703488601.937414,70.000000,0.000000,4277.307617,4251.666504,4315.512695,4293.461426,4250.641113,4262.820313,4277.179688,4252.948730,4241.153809,4236.025879,4499.871582,4469.871582,4366.410156,4439.615234,2269.000000,4.000000,97.000000,,,,0.000000,4.000000,4.000000,4.000000,4.000000,4.000000,4.000000,4.000000,4.000000,4.000000,4.000000,4.000000,4.000000,4.000000,4.000000,100.000000,,,,,,,,,,,,,,,,,,,,,,,,,,,,
1703488601.944468,1703488601.945322,71.000000,0.000000,4282.948730,4251.794922,4319.358887,4309.743652,4267.179688,4260.000000,4282.563965,4247.307617,4234.230957,4222.948730,4493.589844,4476.282227,4361.538574,4433.717773,5075.000000,4.000000,97.000000,,,,0.000000,4.000000,4.000000,4.000000,4.000000,4.000000,4.000000,4.000000,4.000000,4.000000,4.000000,4.000000,4.000000,4.000000,4.000000,100.000000,,,,,,,,,,,,,,,,,,,,,,,,,,,,
1703488601.952276,1703488601.953130,72.000000,0.000000,4276.538574,4247.692383,4316.666504,4300.897461,4272.948730,4257.436035,4289.102539,4247.820313,4232.692383,4216.153809,4487.563965,4477.948730,4348.205078,4420.512695,5235.000000,4.000000,97.000000,,,,0.000000,4.000000,4.000000,4.000000,4.000000,4.000000,4.000000,4.000000,4.000000,4.000000,4.000000,4.000000,4.000000,4.000000,4.000000,100.000000,,,,,,,,,,,,,,,,,18.000000,0.000000,0.700507,-0.103821,-0.675354,0.205933,0.889757,-0.408253,0.059089,-8.081047,-46.355358,62.452400
1703488601.960084,1703488601.961038,73.000000,0.000000,4263.333496,4248.077148,4308.461426,4294.487305,4263.205078,4252.820313,4288.461426,4255.512695,4238.974121,4219.871582,4485.641113,4464.743652,4341.794922,4415.769043,5295.000000,4.000000,97.000000,,,,0.000000,4.000000,4.000000,4.000000,4.000000,4.000000,4.000000,4.000000,4.000000,4.000000,4.000000,4.000000,4.000000,4.000000,4.000000,100.000000,,,,,,,,,,,,,,,,,,,,,,,,,,,,
1703488601.967892,1703488601.968846,74.000000,0.000000,4261.538574,4249.102539,4305.128418,4300.000000,4259.102539,4248.717773,4283.205078,4262.436035,4246.410156,4223.461426,4488.077148,4467.051270,4340.384766,4419.358887,5829.000000,4.000000,97.000000,,,,0.000000,4.000000,4.000000,4.000000,4.000000,4.000000,4.000000,4.000000,4.000000,4.000000,4.000000,4.000000,4.000000,4.000000,4.000000,100.000000,,,,,,,,,,,,,,,,,,,,,,,,,,,,
1703488601.975700,1703488601.976554,75.000000,0.000000,4263.461426,4236.922852,4309.487305,4285.641113,4254.358887,4248.077148,4278.205078,4269.615234,4258.077148,4235.256348,4492.051270,4484.871582,4343.077148,4425.384766,6240.000000,4.000000,97.000000,,,,0.000000,4.000000,4.000000,4.000000,4.000000,4.000000,4.000000,4.000000,4.000000,4.000000,4.000000,4.000000,4.000000,4.000000,4.000000,100.000000,,,,,,,,,,,,,,,,,,,,,,,,,,,,
1703488601.983508,1703488601.984362,76.000000,0.000000,4259.230957,4226.538574,4311.153809,4267.692383,4246.153809,4249.230957,4278.077148,4280.384766,4270.897461,4248.461426,4498.461426,4485.512695,4353.205078,4428.974121,6736.000000,4.000000,97.000000,,,,0.000000,4.000000,4.000000,4.000000,4.000000,4.000000,4.000000,4.000000,4.000000,4.000000,4.000000,4.000000,4.000000,4.000000,4.000000,100.000000,,,,,,,,,,,,,,,,,19.000000,0.000000,0.700584,-0.103577,-0.675293,0.205994,0.896594,-0.418020,0.056159,-8.222942,-46.403156,62.373825
1703488601.991316,1703488601.992070,77.000000,0.000000,4258.205078,4234.871582,4304.230957,4291.153809,4246.538574,4248.974121,4279.358887,4278.589844,4267.307617,4247.307617,4507.692383,4472.692383,4357.948730,4426.666504,6890.000000,4.000000,97.000000,,,,0.000000,4.000000,4.000000,4.000000,4.000000,4.000000,4.000000,4.000000,4.000000,4.000000,4.000000,4.000000,4.000000,4.000000,4.000000,100.000000,,,,,,,,,,,,,,,,,,,,,,,,,,,,
1703488601.999124,1703488601.999878,78.000000,0.000000,4265.000000,4248.589844,4304.871582,4313.333496,4247.820313,4251.025879,4278.974121,4267.051270,4259.615234,4241.025879,4511.794922,4472.820313,4361.153809,4433.205078,5829.000000,4.000000,97.000000,,,,0.000000,4.000000,4.000000,4.000000,4.000000,4.000000,4.000000,4.000000,4.000000,4.000000,4.000000,4.000000,4.000000,4.000000,4.000000,100.000000,,,,,,,,,,,,,,,,,,,,,,,,,,,,
1703488602.006932,1703488602.007586,79.000000,0.000000,4271.666504,4259.743652,4316.922852,4301.410156,4254.871582,4259.102539,4281.025879,4263.205078,4264.743652,4247.692383,4510.769043,4485.769043,4379.230957,4449.102539,6240.000000,4.000000,97.000000,,,,0.000000,4.000000,4.000000,4.000000,4.000000,4.000000,4.000000,4.000000,4.000000,4.000000,4.000000,4.000000,4.000000,4.000000,4.000000,100.000000,,,,,,,,,,,,,,,,,,,,,,,,,,,,
1703488602.014740,1703488602.015394,80.000000,0.000000,4277.051270,4266.794922,4321.666504,4302.436035,4271.410156,4263.717773,4283.205078,4253.461426,4261.538574,4256.410156,4511.153809,4487.692383,4386.666504,4453.589844,6736.000000,4.000000,97.000000,,,,0.000000,4.000000,4.000000,4.000000,4.000000,4.000000,4.000000,4.000000,4.000000,4.000000,4.000000,4.000000,4.000000,4.000000,4.000000,100.000000,,,,,,,,,,,,,,,,,20.000000,0.000000,0.700602,-0.103455,-0.675293,0.205994,0.903431,-0.425345,0.074228,-8.217315,-46.329506,62.336445
1703488602.022548,1703488602.023102,81.000000,0.000000,4277.948730,4258.974121,4314.230957,4317.948730,4270.769043,4260.897461,4283.077148,4233.974121,4242.948730,4246.282227,4509.102539,4475.000000,4368.077148,4444.102539,6890.000000,4.000000,97.000000,,,,0.000000,4.000000,4.000000,4.000000,4.000000,4.000000,4.000000,4.000000,4.000000,4.000000,4.000000,4.000000,4.000000,4.000000,4.000000,100.000000,,,,,,,,,,,,,,,,,,,,,,,,,,,,
1703488602.030357,1703488602.031010,82.000000,0.000000,4277.692383,4258.333496,4313.589844,4316.922852,4265.769043,4258.461426,4284.615234,4233.205078,4236.410156,4236.538574,4508.717773,4471.922852,4367.051270,4445.256348,5829.000000,4.000000,97.000000,,,,0.000000,4.000000,4.000000,4.000000,4.000000,4.000000,4.000000,4.000000,4.000000,4.000000,4.000000,4.000000,4.000000,4.000000,4.000000,100.000000,,,,,,,,,,,,,,,,,,,,,,,,,,,,
1703488602.038165,1703488602.038818,83.000000,0.000000,4273.846191,4267.051270,4314.743652,4305.128418,4266.794922,4255.384766,4282.692383,4237.051270,4237.563965,4231.282227,4505.000000,4476.410156,4371.922852,4447.179688,6240.000000,4.000000,97.000000,,,,0.000000,4.000000,4.000000,4.000000,4.000000,4.000000,4.000000,4.000000,4.000000,4.000000,4.000000,4.000000,4.000000,4.000000,4.000000,100.000000,,,,,,,,,,,,,,,,,,,,,,,,,,,,
1703488602.045972,1703488602.046726,84.000000,0.000000,4264.230957,4252.948730,4309.358887,4295.128418,4256.794922,4246.922852,4277.820313,4229.358887,4228.333496,4220.641113,4490.641113,4473.077148,4353.589844,4432.563965,6736.000000,4.000000,97.000000,,,,0.000000,4.000000,4.000000,4.000000,4.000000,4.000000,4.000000,4.000000,4.000000,4.000000,4.000000,4.000000,4.000000,4.000000,4.000000,100.000000,,,,,,,,,,,,,,,,,21.000000,0.000000,0.700579,-0.103455,-0.675354,0.205872,0.889757,-0.427787,0.068856,-8.145583,-46.279888,62.286133
1703488602.053780,1703488602.054534,85.000000,0.000000,4259.743652,4231.538574,4306.282227,4296.153809,4246.410156,4243.717773,4275.000000,4237.179688,4224.615234,4220.256348,4487.436035,4465.128418,4346.666504,4426.153809,6890.000000,4.000000,97.000000,,,,0.000000,4.000000,4.000000,4.000000,4.000000,4.000000,4.000000,4.000000,4.000000,4.000000,4.000000,4.000000,4.000000,4.000000,4.000000,100.000000,,,,,,,,,,,,,,,,,,,,,,,,,,,,
1703488602.061589,1703488602.062342,86.000000,0.000000,4255.897461,4235.128418,4304.230957,4294.487305,4250.769043,4246.282227,4273.717773,4256.666504,4236.410156,4228.846191,4494.102539,4462.820313,4355.897461,4428.077148,5829.000000,4.000000,97.000000,,,,0.000000,4.000000,4.000000,4.000000,4.000000,4.000000,4.000000,4.000000,4.000000,4.000000,4.000000,4.000000,4.000000,4.000000,4.000000,100.000000,,,,,,,,,,,,,,,,,,,,,,,,,,,,
1703488602.069397,1703488602.070050,87.000000,0.000000,4247.820313,4244.487305,4300.641113,4285.769043,4248.717773,4246.025879,4271.666504,4266.025879,4245.128418,4220.641113,4493.333496,4465.000000,4352.436035,4427.820313,6240.000000,4.000000,97.000000,,,,0.000000,4.000000,4.000000,4.000000,4.000000,4.000000,4.000000,4.000000,4.000000,4.000000,4.000000,4.000000,4.000000,4.000000,4.000000,100.000000,1.000000,75.000000,4.000000,4.000000,3.000000,3.000000,4.000000,4.000000,4.000000,4.000000,4.000000,3.000000,4.000000,4.000000,4.000000,4.000000,,,,,,,,,,,,
1703488602.077205,1703488602.077858,88.000000,0.000000,4253.077148,4242.179688,4305.897461,4284.358887,4239.743652,4245.512695,4268.717773,4274.871582,4247.563965,4211.025879,4492.307617,4476.410156,4348.846191,4431.538574,6736.000000,4.000000,97.000000,,,,0.000000,4.000000,4.000000,4.000000,4.000000,4.000000,4.000000,4.000000,4.000000,4.000000,4.000000,4.000000,4.000000,4.000000,4.000000,100.000000,,,,,,,,,,,,,,,,,22.000000,0.000000,0.700619,-0.103394,-0.675415,0.205566,0.900501,-0.419973,0.061531,-8.181025,-46.185234,62.157520
1703488602.085013,1703488602.085566,89.000000,0.000000,4262.692383,4238.717773,4312.820313,4291.153809,4246.538574,4243.974121,4270.000000,4276.410156,4251.922852,4220.897461,4495.000000,4480.897461,4349.230957,4431.666504,6890.000000,4.000000,97.000000,,,,0.000000,4.000000,4.000000,4.000000,4.000000,4.000000,4.000000,4.000000,4.000000,4.000000,4.000000,4.000000,4.000000,4.000000,4.000000,100.000000,,,,,,,,,,,,,,,,,,,,,,,,,,,,
1703488602.092821,1703488602.093474,90.000000,0.000000,4262.948730,4246.410156,4310.256348,4302.307617,4264.487305,4245.769043,4277.820313,4263.589844,4257.179688,4233.205078,4497.436035,4472.820313,4347.307617,4428.333496,5829.000000,4.000000,97.000000,,,,0.000000,4.000000,4.000000,4.000000,4.000000,4.000000,4.000000,4.000000,4.000000,4.000000,4.000000,4.000000,4.000000,4.000000,4.000000,100.000000,,,,,,,,,,,,,,,,,,,,,,,,,,,,
1703488602.100629,1703488602.101282,91.000000,0.000000,4271.666504,4263.589844,4309.615234,4318.717773,4276.538574,4257.051270,4284.102539,4262.820313,4266.538574,4243.077148,4506.282227,4481.025879,4365.769043,4438.846191,6240.000000,4.000000,97.000000,,,,0.000000,4.000000,4.000000,4.000000,4.000000,4.000000,4.000000,4.000000,4.000000,4.000000,4.000000,4.000000,4.000000,4.000000,4.000000,100.000000,,,,,,,,,,,,,,,,,,,,,,,,,,,,
1703488602.108437,1703488602.109190,92.000000,0.000000,4284.487305,4268.205078,4316.025879,4318.205078,4274.102539,4264.102539,4281.153809,4265.000000,4269.615234,4251.282227,4513.333496,4494.871582,4384.487305,4452.692383,6736.000000,4.000000,97.000000,,,,0.000000,4.000000,4.000000,4.000000,4.000000,4.000000,4.000000,4.000000,4.000000,4.000000,4.000000,4.000000,4.000000,4.000000,4.000000,100.000000,,,,,,,,,,,,,,,,,23.000000,0.000000,0.700803,-0.103027,-0.675354,0.205322,0.895617,-0.400928,0.063484,-8.212922,-46.450043,62.158436
1703488602.116245,1703488602.116998,93.000000,0.000000,4280.769043,4259.871582,4318.846191,4305.128418,4266.153809,4260.384766,4278.333496,4249.230957,4255.897461,4247.436035,4509.358887,4484.615234,4375.897461,4448.077148,6890.000000,4.000000,97.000000,,,,0.000000,4.000000,4.000000,4.000000,4.000000,4.000000,4.000000,4.000000,4.000000,4.000000,4.000000,4.000000,4.000000,4.000000,4.000000,100.000000,,,,,,,,,,,,,,,,,,,,,,,,,,,,
1703488602.124053,1703488602.124905,94.000000,0.000000,4276.153809,4262.436035,4316.153809,4309.871582,4267.051270,4258.205078,4281.794922,4239.102539,4246.153809,4240.897461,4507.820313,4469.102539,4367.436035,4444.230957,5829.000000,4.000000,97.000000,,,,0.000000,4.000000,4.000000,4.000000,4.000000,4.000000,4.000000,4.000000,4.000000,4.000000,4.000000,4.000000,4.000000,4.000000,4.000000,100.000000,,,,,,,,,,,,,,,,,,,,,,,,,,,,
1703488602.131861,1703488602.132713,95.000000,0.000000,4279.487305,4267.051270,4311.282227,4314.230957,4273.461426,4257.820313,4281.794922,4244.102539,4250.897461,4240.384766,4508.077148,4465.897461,4371.794922,4448.717773,6240.000000,4.000000,97.000000,,,,0.000000,4.000000,4.000000,4.000000,4.000000,4.000000,4.000000,4.000000,4.000000,4.000000,4.000000,4.000000,4.000000,4.000000,4.000000,100.000000,,,,,,,,,,,,,,,,,,,,,,,,,,,,
1703488602.139669,1703488602.140621,96.000000,0.000000,4273.205078,4254.871582,4301.538574,4300.000000,4266.282227,4252.820313,4276.410156,4232.563965,4238.077148,4230.128418,4490.641113,4453.589844,4362.051270,4438.205078,6736.000000,4.000000,97.000000,,,,0.000000,4.000000,4.000000,4.000000,4.000000,4.000000,4.000000,4.000000,4.000000,4.000000,4.000000,4.000000,4.000000,4.000000,4.000000,100.000000,,,,,,,,,,,,,,,,,24.000000,0.000000,0.700966,-0.102966,-0.675232,0.205200,0.914174,-0.418996,0.067391,-8.191630,-46.421707,62.209259
1703488602.147477,1703488602.148429,97.000000,0.000000,4266.538574,4243.846191,4295.000000,4296.025879,4246.666504,4244.743652,4272.051270,4218.333496,4213.974121,4210.128418,4475.000000,4442.563965,4347.307617,4427.179688,6890.000000,4.000000,97.000000,,,,0.000000,4.000000,4.000000,4.000000,4.000000,4.000000,4.000000,4.000000,4.000000,4.000000,4.000000,4.000000,4.000000,4.000000,4.000000,100.000000,,,,,,,,,,,,,,,,,,,,,,,,,,,,
1703488602.155285,1703488602.156137,98.000000,0.000000,4276.666504,4247.820313,4304.230957,4300.512695,4245.897461,4238.205078,4271.153809,4233.974121,4218.589844,4212.179688,4490.769043,4459.487305,4355.897461,4440.128418,5829.000000,4.000000,97.000000,,,,0.000000,4.000000,4.000000,4.000000,4.000000,4.000000,4.000000,4.000000,4.000000,4.000000,4.000000,4.000000,4.000000,4.000000,4.000000,100.000000,,,,,,,,,,,,,,,,,,,,,,,,,,,,
1703488602.163093,1703488602.163945,99.000000,0.000000,4284.743652,4252.948730,4313.461426,4293.974121,4259.102539,4232.307617,4270.128418,4250.512695,4226.666504,4220.512695,4505.641113,4477.436035,4364.102539,4454.615234,6240.000000,4.000000,97.000000,,,,0.000000,4.000000,4.000000,4.000000,4.000000,4.000000,4.000000,4.000000,4.000000,4.000000,4.000000,4.000000,4.000000,4.000000,4.000000,100.000000,,,,,,,,,,,,,,,,,,,,,,,,,,,,
1703488602.170901,1703488602.171653,100.000000,0.000000,4275.256348,4244.871582,4309.230957,4285.512695,4253.589844,4227.436035,4267.948730,4248.846191,4214.102539,4206.410156,4493.846191,4475.256348,4351.025879,4445.000000,6736.000000,4.000000,97.000000,,,,0.000000,4.000000,4.000000,4.000000,4.000000,4.000000,4.000000,4.000000,4.000000,4.000000,4.000000,4.000000,4.000000,4.000000,4.000000,100.000000,,,,,,,,,,,,,,,,,25.000000,0.000000,0.701078,-0.102722,-0.675171,0.205139,0.903431,-0.406300,0.067391,-8.289134,-46.429535,62.238331
1703488602.178709,1703488602.179461,101.000000,0.000000,4274.487305,4240.384766,4310.384766,4293.077148,4241.538574,4232.563965,4269.102539,4254.358887,4218.717773,4204.102539,4490.128418,4473.974121,4344.743652,4434.230957,6890.000000,4.000000,97.000000,,,,0.000000,4.000000,4.000000,4.000000,4.000000,4.000000,4.000000,4.000000,4.000000,4.000000,4.000000,4.000000,4.000000,4.000000,4.000000,100.000000,,,,,,,,,,,,,,,,,,,,,,,,,,,,
1703488602.186517,1703488602.187169,102.000000,0.000000,4292.179688,4264.487305,4319.743652,4316.666504,4255.641113,4245.641113,4274.871582,4271.666504,4245.641113,4230.769043,4513.846191,4484.358887,4370.128418,4450.000000,5829.000000,4.000000,97.000000,,,,0.000000,4.000000,4.000000,4.000000,4.000000,4.000000,4.000000,4.000000,4.000000,4.000000,4.000000,4.000000,4.000000,4.000000,4.000000,100.000000,,,,,,,,,,,,,,,,,,,,,,,,,,,,
1703488602.194325,1703488602.194977,103.000000,0.000000,4302.820313,4286.282227,4321.282227,4324.487305,4271.794922,4252.563965,4281.025879,4278.846191,4263.846191,4242.307617,4527.307617,4487.563965,4392.692383,4465.641113,6240.000000,4.000000,97.000000,,,,0.000000,4.000000,4.000000,4.000000,4.000000,4.000000,4.000000,4.000000,4.000000,4.000000,4.000000,4.000000,4.000000,4.000000,4.000000,100.000000,,,,,,,,,,,,,,,,,,,,,,,,,,,,
1703488602.202133,1703488602.202685,104.000000,0.000000,4294.871582,4268.205078,4313.846191,4311.794922,4263.461426,4249.358887,4281.794922,4272.948730,4267.563965,4233.333496,4508.846191,4481.538574,4374.230957,4454.871582,6736.000000,4.000000,97.000000,,,,0.000000,4.000000,4.000000,4.000000,4.000000,4.000000,4.000000,4.000000,4.000000,4.000000,4.000000,4.000000,4.000000,4.000000,4.000000,100.000000,,,,,,,,,,,,,,,,,26.000000,0.000000,0.700830,-0.102356,-0.675354,0.205566,0.901966,-0.415090,0.061043,-8.126887,-46.503250,62.281166
1703488602.209942,1703488602.210493,105.000000,0.000000,4284.871582,4256.922852,4299.743652,4313.333496,4258.717773,4250.000000,4278.333496,4260.769043,4259.487305,4228.846191,4490.256348,4470.512695,4353.333496,4438.589844,6890.000000,4.000000,97.000000,,,,0.000000,4.000000,4.000000,4.000000,4.000000,4.000000,4.000000,4.000000,4.000000,4.000000,4.000000,4.000000,4.000000,4.000000,4.000000,100.000000,,,,,,,,,,,,,,,,,,,,,,,,,,,,
1703488602.217749,1703488602.218201,106.000000,0.000000,4288.846191,4282.948730,4293.974121,4315.897461,4265.512695,4258.846191,4279.871582,4251.025879,4254.358887,4233.205078,4498.461426,4462.692383,4361.282227,4443.589844,5829.000000,4.000000,97.000000,,,,0.000000,4.000000,4.000000,4.000000,4.000000,4.000000,4.000000,4.000000,4.000000,4.000000,4.000000,4.000000,4.000000,4.000000,4.000000,100.000000,,,,,,,,,,,,,,,,,,,,,,,,,,,,
1703488602.225557,1703488602.226009,107.000000,0.000000,4295.128418,4286.282227,4305.641113,4292.948730,4269.230957,4261.538574,4284.358887,4251.153809,4262.563965,4241.282227,4508.077148,4463.846191,4364.871582,4449.487305,6240.000000,4.000000,97.000000,,,,0.000000,4.000000,4.000000,4.000000,4.000000,4.000000,4.000000,4.000000,4.000000,4.000000,4.000000,4.000000,4.000000,4.000000,4.000000,100.000000,,,,,,,,,,,,,,,,,,,,,,,,,,,,
1703488602.233365,1703488602.233717,108.000000,0.000000,4293.846191,4266.794922,4307.692383,4294.230957,4265.769043,4254.487305,4279.487305,4248.974121,4257.051270,4235.641113,4497.307617,4462.692383,4358.589844,4442.820313,6736.000000,4.000000,97.000000,,,,0.000000,4.000000,4.000000,4.000000,4.000000,4.000000,4.000000,4.000000,4.000000,4.000000,4.000000,4.000000,4.000000,4.000000,4.000000,100.000000,,,,,,,,,,,,,,,,,27.000000,0.000000,0.700368,-0.101501,-0.675720,0.206360,0.896105,-0.419973,0.069833,-7.964198,-46.619591,62.219715
1703488602.241174,1703488602.241525,109.000000,0.000000,4295.256348,4273.974121,4292.563965,4335.512695,4256.025879,4242.307617,4268.589844,4241.666504,4236.282227,4217.948730,4488.461426,4455.769043,4362.948730,4443.846191,6890.000000,4.000000,97.000000,,,,0.000000,4.000000,4.000000,4.000000,4.000000,4.000000,4.000000,4.000000,4.000000,4.000000,4.000000,4.000000,4.000000,4.000000,4.000000,100.000000,,,,,,,,,,,,,,,,,,,,,,,,,,,,
1703488602.248982,1703488602.249234,110.000000,0.000000,4300.000000,4281.282227,4292.820313,4334.230957,4253.717773,4233.461426,4270.384766,4234.487305,4230.384766,4215.512695,4489.358887,4455.512695,4363.077148,4449.102539,5829.000000,4.000000,97.000000,,,,0.000000,4.000000,4.000000,4.000000,4.000000,4.000000,4.000000,4.000000,4.000000,4.000000,4.000000,4.000000,4.000000,4.000000,4.000000,100.000000,,,,,,,,,,,,,,,,,,,,,,,,,,,,
1703488602.256790,1703488602.257042,111.000000,0.000000,4308.717773,4276.922852,4314.743652,4315.256348,4266.025879,4231.922852,4277.563965,4230.384766,4232.179688,4219.230957,4493.205078,4469.102539,4356.794922,4452.307617,6240.000000,4.000000,97.000000,,,,0.000000,4.000000,4.000000,4.000000,4.000000,4.000000,4.000000,4.000000,4.000000,4.000000,4.000000,4.000000,4.000000,4.000000,4.000000,100.000000,,,,,,,,,,,,,,,,,,,,,,,,,,,,
1703488602.264598,1703488602.264750,112.000000,0.000000,4320.128418,4284.487305,4326.922852,4337.051270,4266.794922,4225.769043,4270.897461,4235.897461,4226.794922,4217.307617,4502.307617,4483.077148,4361.025879,4460.128418,6736.000000,4.000000,97.000000,,,,0.000000,4.000000,4.000000,4.000000,4.000000,4.000000,4.000000,4.000000,4.000000,4.000000,4.000000,4.000000,4.000000,4.000000,4.000000,100.000000,,,,,,,,,,,,,,,,,28.000000,0.000000,0.699889,-0.100586,-0.676147,0.207031,0.892687,-0.426810,0.078135,-8.101111,-46.674297,62.181076
1703488602.272406,1703488602.272657,113.000000,0.000000,4321.025879,4290.128418,4324.871582,4339.871582,4252.436035,4216.410156,4264.487305,4244.871582,4226.410156,4220.000000,4509.102539,4484.743652,4365.897461,4463.333496,6890.000000,4.000000,97.000000,,,,0.000000,4.000000,4.000000,4.000000,4.000000,4.000000,4.000000,4.000000,4.000000,4.000000,4.000000,4.000000,4.000000,4.000000,4.000000,100.000000,,,,,,,,,,,,,,,,,,,,,,,,,,,,
1703488602.280214,1703488602.280465,114.000000,0.000000,4311.025879,4282.051270,4325.384766,4316.538574,4247.179688,4219.230957,4266.922852,4250.128418,4229.615234,4219.487305,4508.205078,4479.230957,4363.461426,4453.717773,5829.000000,4.000000,97.000000,,,,0.000000,4.000000,4.000000,4.000000,4.000000,4.000000,4.000000,4.000000,4.000000,4.000000,4.000000,4.000000,4.000000,4.000000,4.000000,100.000000,,,,,,,,,,,,,,,,,,,,,,,,,,,,
1703488602.288022,1703488602.288373,115.000000,0.000000,4310.512695,4275.641113,4329.230957,4316.025879,4249.871582,4227.948730,4269.230957,4254.358887,4230.641113,4211.538574,4505.128418,4480.128418,4362.948730,4448.846191,6240.000000,4.000000,97.000000,,,,0.000000,4.000000,4.000000,4.000000,4.000000,4.000000,4.000000,4.000000,4.000000,4.000000,4.000000,4.000000,4.000000,4.000000,4.000000,100.000000,,,,,,,,,,,,,,,,,,,,,,,,,,,,
1703488602.295830,1703488602.296181,116.000000,0.000000,4315.512695,4270.769043,4324.871582,4321.922852,4251.282227,4236.025879,4271.666504,4256.282227,4233.461426,4214.871582,4502.948730,4481.922852,4361.025879,4449.230957,6736.000000,4.000000,97.000000,,,,0.000000,4.000000,4.000000,4.000000,4.000000,4.000000,4.000000,4.000000,4.000000,4.000000,4.000000,4.000000,4.000000,4.000000,4.000000,100.000000,,,,,,,,,,,,,,,,,29.000000,0.000000,0.699611,-0.100159,-0.676331,0.207581,0.888780,-0.431205,0.062019,-8.157667,-46.490200,62.162968
1703488602.303638,1703488602.304089,117.000000,0.000000,4304.358887,4263.589844,4306.666504,4308.205078,4247.692383,4243.846191,4271.794922,4244.487305,4235.000000,4216.922852,4490.769043,4465.512695,4350.641113,4431.538574,6890.000000,4.000000,97.000000,,,,0.000000,4.000000,4.000000,4.000000,4.000000,4.000000,4.000000,4.000000,4.000000,4.000000,4.000000,4.000000,4.000000,4.000000,4.000000,100.000000,,,,,,,,,,,,,,,,,,,,,,,,,,,,
1703488602.311446,1703488602.311897,118.000000,0.000000,4290.897461,4259.743652,4290.128418,4299.487305,4247.179688,4247.307617,4268.717773,4234.358887,4234.230957,4202.692383,4472.436035,4444.487305,4340.512695,4413.974121,5829.000000,4.000000,97.000000,,,,0.000000,4.000000,4.000000,4.000000,4.000000,4.000000,4.000000,4.000000,4.000000,4.000000,4.000000,4.000000,4.000000,4.000000,4.000000,100.000000,,,,,,,,,,,,,,,,,,,,,,,,,,,,
1703488602.319254,1703488602.319805,119.000000,0.000000,4291.025879,4263.077148,4286.666504,4300.641113,4266.666504,4255.128418,4275.641113,4239.102539,4233.461426,4200.641113,4472.436035,4441.153809,4341.538574,4420.769043,6240.000000,4.000000,97.000000,,,,0.000000,4.000000,4.000000,4.000000,4.000000,4.000000,4.000000,4.000000,4.000000,4.000000,4.000000,4.000000,4.000000,4.000000,4.000000,100.000000,,,,,,,,,,,,,,,,,,,,,,,,,,,,
1703488602.327062,1703488602.327613,120.000000,0.000000,4297.948730,4273.717773,4291.922852,4307.436035,4287.436035,4265.384766,4284.743652,4241.153809,4237.307617,4218.077148,4489.871582,4451.794922,4349.743652,4435.641113,6736.000000,4.000000,97.000000,,,,0.000000,4.000000,4.000000,4.000000,4.000000,4.000000,4.000000,4.000000,4.000000,4.000000,4.000000,4.000000,4.000000,4.000000,4.000000,100.000000,,,,,,,,,,,,,,,,,30.000000,0.000000,0.699316,-0.100281,-0.676636,0.207520,0.887804,-0.413625,0.060554,-8.291901,-46.657848,62.113338
1703488602.334870,1703488602.335521,121.000000,0.000000,4303.333496,4273.205078,4296.025879,4308.846191,4284.487305,4259.487305,4280.128418,4232.563965,4239.358887,4220.641113,4494.871582,4456.922852,4353.589844,4438.205078,6890.000000,4.000000,97.000000,,,,0.000000,4.000000,4.000000,4.000000,4.000000,4.000000,4.000000,4.000000,4.000000,4.000000,4.000000,4.000000,4.000000,4.000000,4.000000,100.000000,,,,,,,,,,,,,,,,,,,,,,,,,,,,
1703488602.342678,1703488602.343329,122.000000,0.000000,4305.512695,4260.384766,4295.641113,4293.461426,4273.333496,4245.897461,4276.153809,4227.436035,4236.025879,4216.666504,4491.410156,4456.282227,4358.846191,4441.794922,5829.000000,4.000000,97.000000,,,,0.000000,4.000000,4.000000,4.000000,4.000000,4.000000,4.000000,4.000000,4.000000,4.000000,4.000000,4.000000,4.000000,4.000000,4.000000,100.000000,,,,,,,,,,,,,,,,,,,,,,,,,,,,
1703488602.350486,1703488602.351137,123.000000,0.000000,4318.205078,4270.000000,4302.307617,4305.769043,4274.358887,4241.922852,4280.641113,4230.256348,4236.794922,4235.512695,4507.563965,4466.666504,4371.282227,4455.256348,6240.000000,4.000000,97.000000,,,,0.000000,4.000000,4.000000,4.000000,4.000000,4.000000,4.000000,4.000000,4.000000,4.000000,4.000000,4.000000,4.000000,4.000000,4.000000,100.000000,,,,,,,,,,,,,,,,,,,,,,,,,,,,
1703488602.358294,1703488602.358945,124.000000,0.000000,4334.358887,4288.846191,4314.230957,4334.102539,4267.692383,4237.179688,4277.563965,4227.051270,4231.538574,4242.692383,4521.538574,4481.666504,4379.358887,4464.230957,6736.000000,4.000000,97.000000,,,,0.000000,4.000000,4.000000,4.000000,4.000000,4.000000,4.000000,4.000000,4.000000,4.000000,4.000000,4.000000,4.000000,4.000000,4.000000,100.000000,,,,,,,,,,,,,,,,,31.000000,0.000000,0.699294,-0.100403,-0.676697,0.207336,0.899524,-0.410695,0.047857,-8.446044,-46.792065,62.168671
1703488602.366102,1703488602.366653,125.000000,0.000000,4336.794922,4276.922852,4324.358887,4314.102539,4248.974121,4227.307617,4267.563965,4218.589844,4215.384766,4217.307617,4510.641113,4483.589844,4372.563965,4458.846191,6890.000000,4.000000,97.000000,,,,0.000000,4.000000,4.000000,4.000000,4.000000,4.000000,4.000000,4.000000,4.000000,4.000000,4.000000,4.000000,4.000000,4.000000,4.000000,100.000000,,,,,,,,,,,,,,,,,,,,,,,,,,,,
1703488602.373910,1703488602.374461,126.000000,0.000000,4338.077148,4266.025879,4332.820313,4296.794922,4247.820313,4221.282227,4270.256348,4226.410156,4212.051270,4209.615234,4511.153809,4488.077148,4366.025879,4455.897461,5829.000000,4.000000,97.000000,,,,0.000000,4.000000,4.000000,4.000000,4.000000,4.000000,4.000000,4.000000,4.000000,4.000000,4.000000,4.000000,4.000000,4.000000,4.000000,100.000000,,,,,,,,,,,,,,,,,,,,,,,,,,,,
1703488602.381718,1703488602.382169,127.000000,0.000000,4343.461426,4279.358887,4336.538574,4325.384766,4265.256348,4217.307617,4281.153809,4244.487305,4220.769043,4217.307617,4522.820313,4501.153809,4371.282227,4461.538574,97.000000,4.000000,97.000000,,,,0.000000,4.000000,4.000000,4.000000,4.000000,4.000000,4.000000,4.000000,4.000000,4.000000,4.000000,4.000000,4.000000,4.000000,4.000000,100.000000,,,,,,,,,,,,,,,,,,,,,,,,,,,,
1703488602.389526,1703488602.390077,0.000000,0.000000,4333.846191,4277.307617,4327.436035,4323.846191,4265.256348,4216.282227,4279.358887,4241.922852,4219.743652,4206.538574,4507.179688,4489.358887,4364.487305,4450.641113,5419.000000,4.000000,97.000000,,,,0.000000,4.000000,4.000000,4.000000,4.000000,4.000000,4.000000,4.000000,4.000000,4.000000,4.000000,4.000000,4.000000,4.000000,4.000000,100.000000,,,,,,,,,,,,,,,,,0.000000,0.000000,0.699357,-0.100342,-0.676697,0.207153,0.887315,-0.417043,0.047369,-8.418106,-46.846191,62.068470
1703488602.397334,1703488602.397885,1.000000,0.000000,4320.897461,4261.153809,4311.025879,4299.102539,4255.128418,4222.948730,4274.743652,4230.769043,4224.615234,4201.666504,4485.256348,4460.641113,4348.461426,4432.436035,5479.000000,4.000000,97.000000,,,,0.000000,4.000000,4.000000,4.000000,4.000000,4.000000,4.000000,4.000000,4.000000,4.000000,4.000000,4.000000,4.000000,4.000000,4.000000,100.000000,,,,,,,,,,,,,,,,,,,,,,,,,,,,
1703488602.405142,1703488602.405693,2.000000,0.000000,4325.897461,4262.563965,4302.948730,4314.487305,4266.794922,4238.077148,4278.846191,4240.897461,4242.948730,4211.794922,4488.846191,4455.384766,4349.102539,4435.897461,5307.000000,4.000000,97.000000,,,,0.000000,4.000000,4.000000,4.000000,4.000000,4.000000,4.000000,4.000000,4.000000,4.000000,4.000000,4.000000,4.000000,4.000000,4.000000,100.000000,,,,,,,,,,,,,,,,,,,,,,,,,,,,
1703488602.412951,1703488602.413401,3.000000,0.000000,4319.615234,4261.794922,4291.538574,4317.563965,4276.922852,4249.102539,4279.230957,4250.897461,4252.051270,4211.025879,4491.025879,4456.538574,4350.641113,4437.179688,5382.000000,4.000000,97.000000,,,,0.000000,4.000000,4.000000,4.000000,4.000000,4.000000,4.000000,4.000000,4.000000,4.000000,4.000000,4.000000,4.000000,4.000000,4.000000,100.000000,,,,,,,,,,,,,,,,,,,,,,,,,,,,
1703488602.420759,1703488602.421209,4.000000,0.000000,4307.563965,4257.051270,4278.974121,4304.487305,4277.436035,4251.538574,4279.615234,4247.436035,4258.333496,4211.025879,4486.794922,4442.179688,4352.179688,4426.922852,5190.000000,4.000000,97.000000,,,,0.000000,4.000000,4.000000,4.000000,4.000000,4.000000,4.000000,4.000000,4.000000,4.000000,4.000000,4.000000,4.000000,4.000000,4.000000,100.000000,,,,,,,,,,,,,,,,,1.000000,0.000000,0.699366,-0.100281,-0.676697,0.207153,0.901966,-0.407765,0.044439,-8.592962,-46.911572,62.044956
1703488602.428567,1703488602.428917,5.000000,0.000000,4314.487305,4256.922852,4284.230957,4302.179688,4277.307617,4250.897461,4280.384766,4242.692383,4261.922852,4224.230957,4489.358887,4435.897461,4359.871582,4430.897461,5071.000000,4.000000,97.000000,,,,0.000000,4.000000,4.000000,4.000000,4.000000,4.000000,4.000000,4.000000,4.000000,4.000000,4.000000,4.000000,4.000000,4.000000,4.000000,100.000000,,,,,,,,,,,,,,,,,,,,,,,,,,,,
1703488602.436375,1703488602.436725,6.000000,0.000000,4322.051270,4247.179688,4301.282227,4281.282227,4257.692383,4241.922852,4271.794922,4237.948730,4253.461426,4231.794922,4489.871582,4449.743652,4355.641113,4439.358887,2266.000000,4.000000,97.000000,,,,0.000000,4.000000,4.000000,4.000000,4.000000,4.000000,4.000000,4.000000,4.000000,4.000000,4.000000,4.000000,4.000000,4.000000,4.000000,100.000000,,,,,,,,,,,,,,,,,,,,,,,,,,,,
1703488602.444183,1703488602.444433,7.000000,0.000000,4329.487305,4253.974121,4312.051270,4288.461426,4251.025879,4233.333496,4269.102539,4228.846191,4243.846191,4228.077148,4497.563965,4461.922852,4357.692383,4443.589844,5078.000000,4.000000,97.000000,,,,0.000000,4.000000,4.000000,4.000000,4.000000,4.000000,4.000000,4.000000,4.000000,4.000000,4.000000,4.000000,4.000000,4.000000,4.000000,100.000000,,,,,,,,,,,,,,,,,,,,,,,,,,,,
1703488602.451991,1703488602.452241,8.000000,0.000000,4349.615234,4281.794922,4319.230957,4341.410156,4277.436035,4234.230957,4278.205078,4219.487305,4238.974121,4219.743652,4511.282227,4466.922852,4379.743652,4460.128418,5235.000000,4.000000,97.000000,,,,0.000000,4.000000,4.000000,4.000000,4.000000,4.000000,4.000000,4.000000,4.000000,4.000000,4.000000,4.000000,4.000000,4.000000,4.000000,100.000000,,,,,,,,,,,,,,,,,2.000000,0.000000,0.699619,-0.100037,-0.676453,0.207214,0.890245,-0.404346,0.050299,-8.600332,-46.737080,62.090462
1703488602.459799,1703488602.459949,9.000000,0.000000,4363.974121,4286.922852,4333.205078,4352.692383,4285.000000,4230.897461,4280.512695,4211.666504,4229.230957,4219.230957,4518.846191,4475.512695,4393.205078,4478.461426,5277.000000,4.000000,97.000000,,,,0.000000,4.000000,4.000000,4.000000,4.000000,4.000000,4.000000,4.000000,4.000000,4.000000,4.000000,4.000000,4.000000,4.000000,4.000000,100.000000,,,,,,,,,,,,,,,,,,,,,,,,,,,,
1703488602.467607,1703488602.467857,10.000000,0.000000,4361.153809,4279.615234,4341.025879,4320.128418,4265.128418,4222.948730,4275.128418,4207.307617,4217.820313,4225.384766,4523.846191,4483.717773,4395.128418,4480.641113,5801.000000,4.000000,97.000000,,,,0.000000,4.000000,4.000000,4.000000,4.000000,4.000000,4.000000,4.000000,4.000000,4.000000,4.000000,4.000000,4.000000,4.000000,4.000000,100.000000,,,,,,,,,,,,,,,,,,,,,,,,,,,,
1703488602.475415,1703488602.475665,11.000000,0.000000,4359.358887,4282.692383,4333.205078,4322.179688,4259.487305,4217.179688,4269.102539,4208.333496,4214.102539,4222.820313,4523.846191,4481.538574,4393.974121,4474.102539,6230.000000,4.000000,97.000000,,,,0.000000,4.000000,4.000000,4.000000,4.000000,4.000000,4.000000,4.000000,4.000000,4.000000,4.000000,4.000000,4.000000,4.000000,4.000000,100.000000,,,,,,,,,,,,,,,,,,,,,,,,,,,,
1703488602.483223,1703488602.483573,12.000000,0.000000,4360.512695,4282.948730,4327.948730,4340.256348,4264.230957,4217.051270,4267.948730,4216.282227,4215.384766,4220.641113,4520.641113,4481.153809,4382.307617,4471.282227,6723.000000,4.000000,97.000000,,,,0.000000,4.000000,4.000000,4.000000,4.000000,4.000000,4.000000,4.000000,4.000000,4.000000,4.000000,4.000000,4.000000,4.000000,4.000000,100.000000,,,,,,,,,,,,,,,,,3.000000,0.000000,0.699804,-0.099854,-0.676270,0.207275,0.906361,-0.420950,0.058113,-8.490299,-46.596706,62.014748
1703488602.491031,1703488602.491381,13.000000,0.000000,4352.051270,4275.641113,4330.000000,4310.769043,4259.358887,4223.077148,4272.307617,4229.743652,4217.563965,4212.820313,4520.512695,4488.205078,4374.871582,4466.922852,6907.000000,4.000000,97.000000,,,,0.000000,4.000000,4.000000,4.000000,4.000000,4.000000,4.000000,4.000000,4.000000,4.000000,4.000000,4.000000,4.000000,4.000000,4.000000,100.000000,,,,,,,,,,,,,,,,,,,,,,,,,,,,
1703488602.498839,1703488602.499288,14.000000,0.000000,4338.717773,4271.025879,4315.897461,4289.615234,4257.436035,4231.538574,4271.794922,4235.000000,4218.077148,4199.615234,4513.205078,4480.000000,4376.538574,4457.820313,5801.000000,4.000000,97.000000,,,,0.000000,4.000000,4.000000,4.000000,4.000000,4.000000,4.000000,4.000000,4.000000,4.000000,4.000000,4.000000,4.000000,4.000000,4.000000,100.000000,,,,,,,,,,,,,,,,,,,,,,,,,,,,
1703488602.506647,1703488602.507096,15.000000,0.000000,4327.051270,4259.358887,4293.846191,4306.410156,4260.000000,4237.563965,4271.794922,4229.871582,4215.000000,4199.487305,4498.461426,4453.717773,4367.051270,4443.589844,6230.000000,4.000000,97.000000,,,,0.000000,4.000000,4.000000,4.000000,4.000000,4.000000,4.000000,4.000000,4.000000,4.000000,4.000000,4.000000,4.000000,4.000000,4.000000,100.000000,,,,,,,,,,,,,,,,,,,,,,,,,,,,
1703488602.514455,1703488602.515004,16.000000,0.000000,4321.025879,4250.000000,4287.692383,4309.230957,4263.589844,4246.922852,4277.307617,4235.512695,4224.230957,4211.922852,4497.051270,4442.179688,4357.436035,4433.205078,0.000000,4.000000,97.000000,,,,0.000000,4.000000,4.000000,4.000000,4.000000,4.000000,4.000000,4.000000,4.000000,4.000000,4.000000,4.000000,4.000000,4.000000,4.000000,100.000000,,,,,,,,,,,,,,,,,4.000000,0.000000,0.699778,-0.099243,-0.676331,0.207458,0.906361,-0.418996,0.053717,-8.507936,-46.503704,61.979942
1703488602.522263,1703488602.522812,17.000000,0.000000,4318.333496,4255.384766,4285.897461,4292.307617,4266.794922,4252.307617,4273.717773,4250.128418,4245.128418,4224.871582,4504.743652,4449.871582,4361.153809,4431.922852,0.000000,4.000000,97.000000,,,,0.000000,4.000000,4.000000,4.000000,4.000000,4.000000,4.000000,4.000000,4.000000,4.000000,4.000000,4.000000,4.000000,4.000000,4.000000,100.000000,,,,,,,,,,,,,,,,,,,,,,,,,,,,
1703488602.530071,1703488602.530720,18.000000,0.000000,4320.641113,4260.769043,4286.025879,4294.615234,4264.102539,4245.897461,4267.179688,4252.948730,4255.641113,4233.846191,4514.102539,4460.128418,4372.820313,4437.692383,0.000000,4.000000,97.000000,,,,0.000000,4.000000,4.000000,4.000000,4.000000,4.000000,4.000000,4.000000,4.000000,4.000000,4.000000,4.000000,4.000000,4.000000,4.000000,100.000000,,,,,,,,,,,,,,,,,,,,,,,,,,,,
1703488602.537879,1703488602.538528,19.000000,0.000000,4333.077148,4263.461426,4300.256348,4314.615234,4261.666504,4245.512695,4270.512695,4249.871582,4258.589844,4236.922852,4530.897461,4471.538574,4388.717773,4453.589844,0.000000,4.000000,97.000000,,,,0.000000,4.000000,4.000000,4.000000,4.000000,4.000000,4.000000,4.000000,4.000000,4.000000,4.000000,4.000000,4.000000,4.000000,4.000000,100.000000,,,,,,,,,,,,,,,,,,,,,,,,,,,,
1703488602.545687,1703488602.546436,20.000000,0.000000,4346.025879,4268.077148,4318.205078,4310.897461,4262.307617,4246.538574,4269.102539,4252.563965,4265.512695,4242.820313,4539.743652,4482.820313,4399.102539,4465.897461,0.000000,4.000000,97.000000,,,,0.000000,4.000000,4.000000,4.000000,4.000000,4.000000,4.000000,4.000000,4.000000,4.000000,4.000000,4.000000,4.000000,4.000000,4.000000,100.000000,,,,,,,,,,,,,,,,,5.000000,0.000000,0.699555,-0.098511,-0.676575,0.207764,0.899036,-0.429740,0.062508,-8.640476,-46.353333,61.965279
1703488602.553495,1703488602.554244,21.000000,0.000000,4343.974121,4270.512695,4322.563965,4300.000000,4263.974121,4236.666504,4263.205078,4247.307617,4262.307617,4252.948730,4531.025879,4485.000000,4398.205078,4465.512695,0.000000,4.000000,97.000000,,,,0.000000,4.000000,4.000000,4.000000,4.000000,4.000000,4.000000,4.000000,4.000000,4.000000,4.000000,4.000000,4.000000,4.000000,4.000000,100.000000,,,,,,,,,,,,,,,,,,,,,,,,,,,,
1703488602.561303,1703488602.561952,22.000000,0.000000,4337.436035,4273.333496,4315.897461,4308.589844,4263.717773,4232.948730,4265.641113,4230.769043,4243.717773,4238.717773,4523.974121,4476.410156,4393.077148,4463.461426,0.000000,4.000000,97.000000,,,,0.000000,4.000000,4.000000,4.000000,4.000000,4.000000,4.000000,4.000000,4.000000,4.000000,4.000000,4.000000,4.000000,4.000000,4.000000,100.000000,,,,,,,,,,,,,,,,,,,,,,,,,,,,
1703488602.569111,1703488602.569860,23.000000,0.000000,4340.384766,4274.871582,4310.641113,4321.538574,4262.820313,4236.282227,4268.205078,4226.282227,4231.410156,4216.538574,4523.333496,4471.794922,4386.282227,4462.948730,0.000000,4.000000,97.000000,,,,0.000000,4.000000,4.000000,4.000000,4.000000,4.000000,4.000000,4.000000,4.000000,4.000000,4.000000,4.000000,4.000000,4.000000,4.000000,100.000000,1.000000,66.666664,4.000000,4.000000,4.000000,3.000000,4.000000,4.000000,4.000000,4.000000,4.000000,1.000000,4.000000,4.000000,4.000000,4.000000,,,,,,,,,,,,
1703488602.576919,1703488602.577668,24.000000,0.000000,4336.153809,4269.871582,4309.487305,4317.820313,4264.230957,4234.358887,4267.179688,4231.538574,4228.589844,4215.128418,4513.974121,4470.512695,4379.102539,4453.333496,0.000000,4.000000,97.000000,,,,0.000000,4.000000,4.000000,4.000000,4.000000,4.000000,4.000000,4.000000,4.000000,4.000000,4.000000,4.000000,4.000000,4.000000,4.000000,100.000000,,,,,,,,,,,,,,,,,6.000000,0.000000,0.699376,-0.097839,-0.676819,0.207886,0.878037,-0.413136,0.067391,-8.493094,-46.551331,61.902084
1703488602.584727,1703488602.585576,25.000000,0.000000,4327.692383,4263.846191,4312.307617,4304.615234,4263.077148,4235.512695,4267.820313,4229.102539,4225.128418,4213.077148,4504.358887,4468.461426,4371.282227,4442.436035,0.000000,4.000000,97.000000,,,,0.000000,4.000000,4.000000,4.000000,4.000000,4.000000,4.000000,4.000000,4.000000,4.000000,4.000000,4.000000,4.000000,4.000000,4.000000,100.000000,,,,,,,,,,,,,,,,,,,,,,,,,,,,
1703488602.592536,1703488602.593384,26.000000,0.000000,4332.179688,4263.589844,4315.128418,4295.000000,4258.333496,4243.461426,4266.282227,4230.128418,4226.025879,4208.717773,4503.589844,4466.922852,4362.692383,4442.179688,0.000000,4.000000,97.000000,,,,0.000000,4.000000,4.000000,4.000000,4.000000,4.000000,4.000000,4.000000,4.000000,4.000000,4.000000,4.000000,4.000000,4.000000,4.000000,100.000000,,,,,,,,,,,,,,,,,,,,,,,,,,,,
1703488602.600344,1703488602.601291,27.000000,0.000000,4339.230957,4271.666504,4313.333496,4296.153809,4258.846191,4246.025879,4268.846191,4243.717773,4235.641113,4218.589844,4506.666504,4465.000000,4370.512695,4445.641113,0.000000,4.000000,97.000000,,,,0.000000,4.000000,4.000000,4.000000,4.000000,4.000000,4.000000,4.000000,4.000000,4.000000,4.000000,4.000000,4.000000,4.000000,4.000000,100.000000,,,,,,,,,,,,,,,,,,,,,,,,,,,,
1703488602.608152,1703488602.609099,28.000000,0.000000,4331.666504,4276.794922,4307.692383,4310.384766,4256.922852,4243.589844,4270.000000,4251.153809,4244.230957,4222.179688,4508.205078,4463.461426,4378.333496,4446.794922,0.000000,4.000000,97.000000,,,,0.000000,4.000000,4.000000,4.000000,4.000000,4.000000,4.000000,4.000000,4.000000,4.000000,4.000000,4.000000,4.000000,4.000000,4.000000,100.000000,,,,,,,,,,,,,,,,,7.000000,0.000000,0.699215,-0.097595,-0.677002,0.207947,0.892687,-0.412648,0.063484,-8.377119,-46.496201,61.795212
1703488602.615960,1703488602.617007,29.000000,0.000000,4316.794922,4260.897461,4304.871582,4300.641113,4242.307617,4242.948730,4263.846191,4248.461426,4244.615234,4206.153809,4501.410156,4457.436035,4363.077148,4437.692383,0.000000,4.000000,97.000000,,,,0.000000,4.000000,4.000000,4.000000,4.000000,4.000000,4.000000,4.000000,4.000000,4.000000,4.000000,4.000000,4.000000,4.000000,4.000000,100.000000,,,,,,,,,,,,,,,,,,,,,,,,,,,,
1703488602.623768,1703488602.624815,30.000000,0.000000,4317.436035,4253.717773,4308.333496,4289.871582,4250.384766,4245.769043,4268.846191,4254.743652,4252.436035,4213.205078,4504.230957,4457.692383,4360.256348,4433.974121,0.000000,4.000000,97.000000,,,,0.000000,4.000000,4.000000,4.000000,4.000000,4.000000,4.000000,4.000000,4.000000,4.000000,4.000000,4.000000,4.000000,4.000000,4.000000,100.000000,,,,,,,,,,,,,,,,,,,,,,,,,,,,
1703488602.631576,1703488602.632723,31.000000,0.000000,4331.282227,4272.436035,4311.410156,4322.051270,4278.461426,4250.641113,4282.692383,4267.179688,4266.922852,4237.948730,4524.102539,4471.282227,4382.436035,4453.205078,0.000000,4.000000,97.000000,,,,0.000000,4.000000,4.000000,4.000000,4.000000,4.000000,4.000000,4.000000,4.000000,4.000000,4.000000,4.000000,4.000000,4.000000,4.000000,100.000000,,,,,,,,,,,,,,,,,,,,,,,,,,,,
1703488602.639384,1703488602.640531,32.000000,0.000000,4325.512695,4270.256348,4308.846191,4323.589844,4271.025879,4248.974121,4279.487305,4262.820313,4268.333496,4236.794922,4527.307617,4478.333496,4386.153809,4458.974121,0.000000,4.000000,97.000000,,,,0.000000,4.000000,4.000000,4.000000,4.000000,4.000000,4.000000,4.000000,4.000000,4.000000,4.000000,4.000000,4.000000,4.000000,4.000000,100.000000,,,,,,,,,,,,,,,,,8.000000,0.000000,0.699106,-0.097107,-0.677185,0.207947,0.896105,-0.420461,0.057136,-8.406074,-46.496578,61.899021
1703488602.647192,1703488602.648339,33.000000,0.000000,4308.333496,4259.487305,4306.153809,4294.743652,4256.410156,4244.230957,4271.538574,4250.897461,4264.871582,4236.538574,4521.794922,4474.358887,4378.077148,4447.563965,0.000000,4.000000,97.000000,,,,0.000000,4.000000,4.000000,4.000000,4.000000,4.000000,4.000000,4.000000,4.000000,4.000000,4.000000,4.000000,4.000000,4.000000,4.000000,100.000000,,,,,,,,,,,,,,,,,,,,,,,,,,,,
1703488602.655000,1703488602.656047,34.000000,0.000000,4314.102539,4282.563965,4307.820313,4308.205078,4277.563965,4248.205078,4280.769043,4252.436035,4271.025879,4252.307617,4529.230957,4478.717773,4386.153809,4452.179688,0.000000,4.000000,97.000000,,,,0.000000,4.000000,4.000000,4.000000,4.000000,4.000000,4.000000,4.000000,4.000000,4.000000,4.000000,4.000000,4.000000,4.000000,4.000000,100.000000,,,,,,,,,,,,,,,,,,,,,,,,,,,,
1703488602.662808,1703488602.663955,35.000000,0.000000,4319.102539,4286.794922,4304.743652,4302.051270,4280.897461,4249.743652,4283.461426,4252.051270,4265.128418,4240.000000,4521.410156,4472.948730,4380.256348,4450.384766,0.000000,4.000000,97.000000,,,,0.000000,4.000000,4.000000,4.000000,4.000000,4.000000,4.000000,4.000000,4.000000,4.000000,4.000000,4.000000,4.000000,4.000000,4.000000,100.000000,,,,,,,,,,,,,,,,,,,,,,,,,,,,
1703488602.670616,1703488602.671763,36.000000,0.000000,4306.410156,4260.384766,4294.743652,4274.743652,4255.897461,4245.897461,4274.358887,4243.717773,4248.077148,4217.820313,4501.794922,4454.487305,4363.077148,4430.897461,0.000000,4.000000,97.000000,,,,0.000000,4.000000,4.000000,4.000000,4.000000,4.000000,4.000000,4.000000,4.000000,4.000000,4.000000,4.000000,4.000000,4.000000,4.000000,100.000000,,,,,,,,,,,,,,,,,9.000000,0.000000,0.698781,-0.096924,-0.677490,0.208130,0.909291,-0.406788,0.056648,-8.382133,-46.446922,61.909119
1703488602.678424,1703488602.679671,37.000000,0.000000,4301.410156,4261.282227,4293.846191,4289.743652,4259.487305,4247.179688,4277.051270,4244.743652,4246.922852,4229.615234,4504.487305,4461.794922,4361.538574,4428.717773,0.000000,4.000000,97.000000,,,,0.000000,4.000000,4.000000,4.000000,4.000000,4.000000,4.000000,4.000000,4.000000,4.000000,4.000000,4.000000,4.000000,4.000000,4.000000,100.000000,,,,,,,,,,,,,,,,,,,,,,,,,,,,
1703488602.686232,1703488602.687479,38.000000,0.000000,4301.666504,4269.871582,4296.153809,4295.769043,4271.538574,4250.897461,4281.410156,4249.230957,4251.282227,4235.641113,4509.358887,4470.128418,4362.692383,4434.487305,0.000000,4.000000,97.000000,,,,0.000000,4.000000,4.000000,4.000000,4.000000,4.000000,4.000000,4.000000,4.000000,4.000000,4.000000,4.000000,4.000000,4.000000,4.000000,100.000000,,,,,,,,,,,,,,,,,,,,,,,,,,,,
1703488602.694040,1703488602.695387,39.000000,0.000000,4295.641113,4258.077148,4291.666504,4279.871582,4256.025879,4250.897461,4277.563965,4242.179688,4241.025879,4210.769043,4498.333496,4454.871582,4353.205078,4426.410156,0.000000,4.000000,97.000000,,,,0.000000,4.000000,4.000000,4.000000,4.000000,4.000000,4.000000,4.000000,4.000000,4.000000,4.000000,4.000000,4.000000,4.000000,4.000000,100.000000,,,,,,,,,,,,,,,,,,,,,,,,,,,,
1703488602.701848,1703488602.703195,40.000000,0.000000,4298.333496,4263.717773,4296.153809,4297.820313,4256.025879,4251.153809,4277.820313,4242.563965,4240.128418,4205.512695,4496.794922,4457.179688,4350.128418,4427.051270,0.000000,4.000000,97.000000,,,,0.000000,4.000000,4.000000,4.000000,4.000000,4.000000,4.000000,4.000000,4.000000,4.000000,4.000000,4.000000,4.000000,4.000000,4.000000,100.000000,,,,,,,,,,,,,,,,,10.000000,0.000000,0.698560,-0.096680,-0.677734,0.208191,0.893664,-0.410695,0.053229,-8.493919,-46.485561,61.968208
1703488602.709656,1703488602.711103,41.000000,0.000000,4298.077148,4276.666504,4309.102539,4314.230957,4269.230957,4250.897461,4282.563965,4256.410156,4256.410156,4230.384766,4509.615234,4477.436035,4361.153809,4435.256348,0.000000,4.000000,97.000000,,,,0.000000,4.000000,4.000000,4.000000,4.000000,4.000000,4.000000,4.000000,4.000000,4.000000,4.000000,4.000000,4.000000,4.000000,4.000000,100.000000,,,,,,,,,,,,,,,,,,,,,,,,,,,,
1703488602.717464,1703488602.718911,42.000000,0.000000,4281.282227,4255.897461,4309.102539,4289.102539,4255.128418,4244.230957,4279.615234,4259.743652,4260.512695,4235.128418,4508.461426,4472.051270,4357.051270,4427.820313,0.000000,4.000000,97.000000,,,,0.000000,4.000000,4.000000,4.000000,4.000000,4.000000,4.000000,4.000000,4.000000,4.000000,4.000000,4.000000,4.000000,4.000000,4.000000,100.000000,,,,,,,,,,,,,,,,,,,,,,,,,,,,
1703488602.725272,1703488602.726619,43.000000,0.000000,4285.000000,4250.512695,4307.436035,4290.897461,4250.512695,4242.820313,4278.333496,4265.897461,4267.563965,4227.051270,4501.025879,4467.820313,4352.563965,4428.333496,0.000000,4.000000,97.000000,,,,0.000000,4.000000,4.000000,4.000000,4.000000,4.000000,4.000000,4.000000,4.000000,4.000000,4.000000,4.000000,4.000000,4.000000,4.000000,100.000000,,,,,,,,,,,,,,,,,,,,,,,,,,,,
1703488602.733080,1703488602.734427,44.000000,0.000000,4304.487305,4279.871582,4320.641113,4309.487305,4271.153809,4249.230957,4284.743652,4277.051270,4287.179688,4245.128418,4516.922852,4487.436035,4376.410156,4449.871582,0.000000,4.000000,97.000000,,,,0.000000,4.000000,4.000000,4.000000,4.000000,4.000000,4.000000,4.000000,4.000000,4.000000,4.000000,4.000000,4.000000,4.000000,4.000000,100.000000,,,,,,,,,,,,,,,,,11.000000,0.000000,0.698539,-0.096436,-0.677734,0.208374,0.878037,-0.418996,0.050299,-8.511194,-46.437008,61.938053
1703488602.740888,1703488602.742135,45.000000,0.000000,4300.384766,4278.205078,4328.461426,4301.410156,4271.666504,4252.179688,4285.897461,4272.179688,4287.948730,4260.641113,4530.641113,4492.563965,4390.256348,4453.846191,0.000000,4.000000,97.000000,,,,0.000000,4.000000,4.000000,4.000000,4.000000,4.000000,4.000000,4.000000,4.000000,4.000000,4.000000,4.000000,4.000000,4.000000,4.000000,100.000000,,,,,,,,,,,,,,,,,,,,,,,,,,,,
1703488602.748696,1703488602.749943,46.000000,0.000000,4289.230957,4253.589844,4317.307617,4304.230957,4258.717773,4253.077148,4283.846191,4259.615234,4275.769043,4249.615234,4516.666504,4476.025879,4370.641113,4429.230957,0.000000,4.000000,97.000000,,,,0.000000,4.000000,4.000000,4.000000,4.000000,4.000000,4.000000,4.000000,4.000000,4.000000,4.000000,4.000000,4.000000,4.000000,4.000000,100.000000,,,,,,,,,,,,,,,,,,,,,,,,,,,,
1703488602.756504,1703488602.757651,47.000000,0.000000,4292.179688,4258.205078,4305.769043,4310.641113,4263.589844,4259.487305,4283.205078,4256.282227,4276.025879,4240.000000,4501.794922,4467.307617,4356.538574,4421.538574,0.000000,4.000000,97.000000,,,,0.000000,4.000000,4.000000,4.000000,4.000000,4.000000,4.000000,4.000000,4.000000,4.000000,4.000000,4.000000,4.000000,4.000000,4.000000,100.000000,,,,,,,,,,,,,,,,,,,,,,,,,,,,
1703488602.764312,1703488602.765459,48.000000,0.000000,4289.102539,4267.563965,4301.025879,4295.128418,4267.307617,4264.743652,4282.820313,4250.769043,4270.256348,4232.692383,4500.000000,4464.743652,4354.230957,4432.692383,0.000000,4.000000,97.000000,,,,0.000000,4.000000,4.000000,4.000000,4.000000,4.000000,4.000000,4.000000,4.000000,4.000000,4.000000,4.000000,4.000000,4.000000,4.000000,100.000000,,,,,,,,,,,,,,,,,12.000000,0.000000,0.698820,-0.096375,-0.677490,0.208252,0.892687,-0.415090,0.048834,-8.543408,-46.509972,61.877583
1703488602.772121,1703488602.773167,49.000000,0.000000,4273.589844,4250.128418,4294.487305,4281.282227,4261.666504,4257.948730,4283.333496,4235.769043,4243.974121,4213.205078,4487.820313,4448.717773,4344.230957,4423.846191,0.000000,4.000000,97.000000,,,,0.000000,4.000000,4.000000,4.000000,4.000000,4.000000,4.000000,4.000000,4.000000,4.000000,4.000000,4.000000,4.000000,4.000000,4.000000,100.000000,,,,,,,,,,,,,,,,,,,,,,,,,,,,
1703488602.779929,1703488602.780975,50.000000,0.000000,4270.897461,4240.512695,4288.717773,4294.358887,4261.794922,4248.589844,4284.230957,4228.205078,4227.307617,4206.153809,4471.153809,4434.230957,4340.641113,4409.743652,0.000000,4.000000,97.000000,,,,0.000000,4.000000,4.000000,4.000000,4.000000,4.000000,4.000000,4.000000,4.000000,4.000000,4.000000,4.000000,4.000000,4.000000,4.000000,100.000000,,,,,,,,,,,,,,,,,,,,,,,,,,,,
1703488602.787737,1703488602.788683,51.000000,0.000000,4284.230957,4257.307617,4298.461426,4296.538574,4263.205078,4250.384766,4283.974121,4229.615234,4230.384766,4215.641113,4478.717773,4446.922852,4351.282227,4426.025879,0.000000,4.000000,97.000000,,,,0.000000,4.000000,4.000000,4.000000,4.000000,4.000000,4.000000,4.000000,4.000000,4.000000,4.000000,4.000000,4.000000,4.000000,4.000000,100.000000,,,,,,,,,,,,,,,,,,,,,,,,,,,,
1703488602.795545,1703488602.796491,52.000000,0.000000,4296.153809,4267.820313,4321.794922,4285.769043,4257.436035,4247.948730,4281.282227,4232.436035,4231.282227,4216.410156,4497.436035,4470.256348,4360.897461,4450.641113,0.000000,4.000000,97.000000,,,,0.000000,4.000000,4.000000,4.000000,4.000000,4.000000,4.000000,4.000000,4.000000,4.000000,4.000000,4.000000,4.000000,4.000000,4.000000,100.000000,,,,,,,,,,,,,,,,,13.000000,0.000000,0.699072,-0.096497,-0.677307,0.207947,0.907337,-0.416555,0.051764,-8.639068,-46.625641,61.856491
1703488602.803353,1703488602.804199,53.000000,0.000000,4295.897461,4260.256348,4330.384766,4300.897461,4248.333496,4232.307617,4280.000000,4239.871582,4231.282227,4211.410156,4504.743652,4479.358887,4363.846191,4452.051270,0.000000,4.000000,97.000000,,,,0.000000,4.000000,4.000000,4.000000,4.000000,4.000000,4.000000,4.000000,4.000000,4.000000,4.000000,4.000000,4.000000,4.000000,4.000000,100.000000,,,,,,,,,,,,,,,,,,,,,,,,,,,,
1703488602.811161,1703488602.812007,54.000000,0.000000,4291.794922,4258.205078,4322.820313,4317.436035,4247.179688,4224.358887,4281.666504,4256.025879,4248.846191,4222.692383,4514.615234,4483.974121,4368.589844,4451.538574,0.000000,4.000000,97.000000,,,,0.000000,4.000000,4.000000,4.000000,4.000000,4.000000,4.000000,4.000000,4.000000,4.000000,4.000000,4.000000,4.000000,4.000000,4.000000,100.000000,,,,,,,,,,,,,,,,,,,,,,,,,,,,
1703488602.818969,1703488602.819715,55.000000,0.000000,4296.153809,4271.410156,4325.128418,4313.077148,4247.563965,4228.205078,4282.051270,4268.205078,4268.717773,4246.538574,4532.948730,4493.974121,4381.282227,4465.000000,0.000000,4.000000,97.000000,,,,0.000000,4.000000,4.000000,4.000000,4.000000,4.000000,4.000000,4.000000,4.000000,4.000000,4.000000,4.000000,4.000000,4.000000,4.000000,100.000000,,,,,,,,,,,,,,,,,,,,,,,,,,,,
1703488602.826777,1703488602.827523,56.000000,0.000000,4301.153809,4278.589844,4330.000000,4311.922852,4244.743652,4230.128418,4281.025879,4266.666504,4269.358887,4255.256348,4536.025879,4501.153809,4386.922852,4470.512695,0.000000,4.000000,97.000000,,,,0.000000,4.000000,4.000000,4.000000,4.000000,4.000000,4.000000,4.000000,4.000000,4.000000,4.000000,4.000000,4.000000,4.000000,4.000000,100.000000,,,,,,,,,,,,,,,,,14.000000,0.000000,0.699128,-0.096619,-0.677307,0.207703,0.891710,-0.413136,0.063484,-8.625160,-46.546410,62.104176
1703488602.834585,1703488602.835231,57.000000,0.000000,4295.128418,4271.282227,4323.205078,4313.077148,4254.871582,4237.051270,4283.077148,4262.563965,4267.563965,4248.589844,4520.769043,4493.589844,4376.153809,4460.641113,0.000000,4.000000,97.000000,,,,0.000000,4.000000,4.000000,4.000000,4.000000,4.000000,4.000000,4.000000,4.000000,4.000000,4.000000,4.000000,4.000000,4.000000,4.000000,100.000000,,,,,,,,,,,,,,,,,,,,,,,,,,,,
1703488602.842393,1703488602.843039,58.000000,0.000000,4282.820313,4262.948730,4313.461426,4298.333496,4268.717773,4248.589844,4287.436035,4252.692383,4266.153809,4240.897461,4506.282227,4467.179688,4366.410156,4444.487305,0.000000,4.000000,97.000000,,,,0.000000,4.000000,4.000000,4.000000,4.000000,4.000000,4.000000,4.000000,4.000000,4.000000,4.000000,4.000000,4.000000,4.000000,4.000000,100.000000,,,,,,,,,,,,,,,,,,,,,,,,,,,,
1703488602.850201,1703488602.850747,59.000000,0.000000,4274.743652,4263.846191,4303.846191,4298.333496,4268.077148,4255.384766,4290.000000,4237.692383,4253.846191,4227.563965,4490.256348,4443.589844,4360.897461,4428.461426,0.000000,4.000000,97.000000,,,,0.000000,4.000000,4.000000,4.000000,4.000000,4.000000,4.000000,4.000000,4.000000,4.000000,4.000000,4.000000,4.000000,4.000000,4.000000,100.000000,,,,,,,,,,,,,,,,,,,,,,,,,,,,
1703488602.858009,1703488602.858655,60.000000,0.000000,4274.102539,4265.256348,4302.051270,4300.128418,4263.461426,4262.948730,4288.846191,4231.666504,4242.179688,4218.333496,4476.794922,4439.102539,4347.820313,4422.179688,0.000000,4.000000,97.000000,,,,0.000000,4.000000,4.000000,4.000000,4.000000,4.000000,4.000000,4.000000,4.000000,4.000000,4.000000,4.000000,4.000000,4.000000,4.000000,100.000000,,,,,,,,,,,,,,,,,15.000000,0.000000,0.699297,-0.096741,-0.677246,0.207275,0.876572,-0.395068,0.060066,-8.512645,-46.641769,62.193756
1703488602.865817,1703488602.866463,61.000000,0.000000,4267.307617,4254.102539,4305.256348,4280.512695,4259.102539,4265.897461,4283.461426,4231.410156,4236.025879,4218.077148,4472.051270,4439.487305,4333.077148,4422.820313,0.000000,4.000000,97.000000,,,,0.000000,4.000000,4.000000,4.000000,4.000000,4.000000,4.000000,4.000000,4.000000,4.000000,4.000000,4.000000,4.000000,4.000000,4.000000,100.000000,,,,,,,,,,,,,,,,,,,,,,,,,,,,
1703488602.873625,1703488602.874371,62.000000,0.000000,4256.153809,4246.410156,4295.256348,4284.358887,4247.692383,4254.102539,4278.589844,4227.692383,4222.051270,4206.282227,4469.615234,4431.922852,4332.436035,4414.230957,0.000000,4.000000,97.000000,,,,0.000000,4.000000,4.000000,4.000000,4.000000,4.000000,4.000000,4.000000,4.000000,4.000000,4.000000,4.000000,4.000000,4.000000,4.000000,100.000000,,,,,,,,,,,,,,,,,,,,,,,,,,,,
1703488602.881433,1703488602.882179,63.000000,0.000000,4261.153809,4255.897461,4287.563965,4310.769043,4244.102539,4248.333496,4280.000000,4229.743652,4214.358887,4197.307617,4475.256348,4437.820313,4343.205078,4412.307617,0.000000,4.000000,97.000000,,,,0.000000,4.000000,4.000000,4.000000,4.000000,4.000000,4.000000,4.000000,4.000000,4.000000,4.000000,4.000000,4.000000,4.000000,4.000000,100.000000,,,,,,,,,,,,,,,,,,,,,,,,,,,,
1703488602.889241,1703488602.890086,64.000000,0.000000,4278.974121,4272.436035,4305.256348,4315.384766,4258.077148,4250.128418,4284.615234,4236.025879,4225.384766,4216.153809,4491.153809,4459.102539,4348.974121,4432.051270,5419.000000,4.000000,97.000000,,,,0.000000,4.000000,4.000000,4.000000,4.000000,4.000000,4.000000,4.000000,4.000000,4.000000,4.000000,4.000000,4.000000,4.000000,4.000000,100.000000,,,,,,,,,,,,,,,,,16.000000,0.000000,0.699621,-0.096497,-0.677002,0.207092,0.903919,-0.416555,0.059578,-8.544713,-46.694260,62.191048
1703488602.897049,1703488602.897894,65.000000,0.000000,4285.000000,4279.615234,4323.846191,4311.538574,4265.256348,4240.000000,4284.230957,4236.410156,4230.128418,4225.769043,4498.205078,4463.846191,4356.153809,4446.922852,5591.000000,4.000000,97.000000,,,,0.000000,4.000000,4.000000,4.000000,4.000000,4.000000,4.000000,4.000000,4.000000,4.000000,4.000000,4.000000,4.000000,4.000000,4.000000,100.000000,,,,,,,,,,,,,,,,,,,,,,,,,,,,
1703488602.904857,1703488602.905702,66.000000,0.000000,4276.922852,4274.487305,4322.820313,4321.410156,4248.589844,4222.436035,4278.717773,4230.000000,4213.717773,4202.692383,4488.333496,4451.153809,4360.000000,4438.974121,5340.000000,4.000000,97.000000,,,,0.000000,4.000000,4.000000,4.000000,4.000000,4.000000,4.000000,4.000000,4.000000,4.000000,4.000000,4.000000,4.000000,4.000000,4.000000,100.000000,,,,,,,,,,,,,,,,,,,,,,,,,,,,
1703488602.912665,1703488602.913510,67.000000,0.000000,4279.230957,4275.769043,4332.820313,4305.512695,4240.000000,4221.025879,4275.512695,4230.512695,4208.589844,4196.410156,4491.922852,4456.666504,4361.922852,4441.282227,5419.000000,4.000000,97.000000,,,,0.000000,4.000000,4.000000,4.000000,4.000000,4.000000,4.000000,4.000000,4.000000,4.000000,4.000000,4.000000,4.000000,4.000000,4.000000,100.000000,,,,,,,,,,,,,,,,,,,,,,,,,,,,
1703488602.920473,1703488602.921218,68.000000,0.000000,4295.512695,4286.794922,4348.077148,4305.000000,4262.692383,4231.538574,4281.666504,4245.897461,4233.974121,4225.641113,4518.589844,4483.205078,4375.897461,4466.153809,5200.000000,4.000000,97.000000,,,,0.000000,4.000000,4.000000,4.000000,4.000000,4.000000,4.000000,4.000000,4.000000,4.000000,4.000000,4.000000,4.000000,4.000000,4.000000,100.000000,,,,,,,,,,,,,,,,,17.000000,0.000000,0.699941,-0.096313,-0.676697,0.207092,0.903431,-0.408253,0.063484,-8.556909,-46.541500,62.171944
1703488602.928281,1703488602.929026,69.000000,0.000000,4305.000000,4296.410156,4338.846191,4336.794922,4268.589844,4229.230957,4285.897461,4251.153809,4252.051270,4239.487305,4525.000000,4486.410156,4382.051270,4471.794922,5080.000000,4.000000,97.000000,,,,0.000000,4.000000,4.000000,4.000000,4.000000,4.000000,4.000000,4.000000,4.000000,4.000000,4.000000,4.000000,4.000000,4.000000,4.000000,100.000000,,,,,,,,,,,,,,,,,,,,,,,,,,,,
1703488602.936089,1703488602.936734,70.000000,0.000000,4296.922852,4299.615234,4320.256348,4334.487305,4248.077148,4223.205078,4281.666504,4238.717773,4248.846191,4231.538574,4511.410156,4472.179688,4375.384766,4461.025879,2274.000000,4.000000,97.000000,,,,0.000000,4.000000,4.000000,4.000000,4.000000,4.000000,4.000000,4.000000,4.000000,4.000000,4.000000,4.000000,4.000000,4.000000,4.000000,100.000000,,,,,,,,,,,,,,,,,,,,,,,,,,,,
1703488602.943897,1703488602.944542,71.000000,0.000000,4282.820313,4292.692383,4312.692383,4311.153809,4251.666504,4226.538574,4282.692383,4231.410156,4247.051270,4229.743652,4507.692383,4472.436035,4370.641113,4456.538574,5101.000000,4.000000,97.000000,,,,0.000000,4.000000,4.000000,4.000000,4.000000,4.000000,4.000000,4.000000,4.000000,4.000000,4.000000,4.000000,4.000000,4.000000,4.000000,100.000000,,,,,,,,,,,,,,,,,,,,,,,,,,,,
1703488602.951706,1703488602.952251,72.000000,0.000000,4276.922852,4278.077148,4314.230957,4310.128418,4269.743652,4236.794922,4287.948730,4236.282227,4251.025879,4233.077148,4508.589844,4478.589844,4366.922852,4452.179688,5260.000000,4.000000,97.000000,,,,0.000000,4.000000,4.000000,4.000000,4.000000,4.000000,4.000000,4.000000,4.000000,4.000000,4.000000,4.000000,4.000000,4.000000,4.000000,100.000000,,,,,,,,,,,,,,,,,18.000000,0.000000,0.699934,-0.096497,-0.676697,0.207031,0.888780,-0.415578,0.053229,-8.367885,-46.470684,62.088081
1703488602.959514,1703488602.960058,73.000000,0.000000,4279.871582,4276.666504,4320.128418,4317.563965,4269.358887,4241.282227,4286.538574,4243.205078,4257.692383,4236.794922,4513.205078,4480.897461,4369.487305,4453.846191,5313.000000,4.000000,97.000000,,,,0.000000,4.000000,4.000000,4.000000,4.000000,4.000000,4.000000,4.000000,4.000000,4.000000,4.000000,4.000000,4.000000,4.000000,4.000000,100.000000,,,,,,,,,,,,,,,,,,,,,,,,,,,,
1703488602.967322,1703488602.967767,74.000000,0.000000,4280.769043,4285.512695,4324.230957,4309.358887,4257.948730,4237.563965,4283.205078,4247.436035,4264.743652,4248.589844,4523.205078,4481.025879,4383.589844,4462.179688,5860.000000,4.000000,97.000000,,,,0.000000,4.000000,4.000000,4.000000,4.000000,4.000000,4.000000,4.000000,4.000000,4.000000,4.000000,4.000000,4.000000,4.000000,4.000000,100.000000,,,,,,,,,,,,,,,,,,,,,,,,,,,,
1703488602.975130,1703488602.975575,75.000000,0.000000,4277.692383,4278.589844,4326.538574,4294.743652,4254.358887,4233.717773,4284.615234,4247.436035,4262.563965,4250.897461,4518.333496,4480.512695,4380.256348,4455.128418,6264.000000,4.000000,97.000000,,,,0.000000,4.000000,4.000000,4.000000,4.000000,4.000000,4.000000,4.000000,4.000000,4.000000,4.000000,4.000000,4.000000,4.000000,4.000000,100.000000,,,,,,,,,,,,,,,,,,,,,,,,,,,,
1703488602.982938,1703488602.983283,76.000000,0.000000,4277.692383,4263.846191,4330.000000,4287.948730,4249.230957,4233.846191,4281.794922,4246.282227,4247.563965,4232.179688,4498.077148,4475.897461,4359.487305,4440.384766,6763.000000,4.000000,97.000000,,,,0.000000,4.000000,4.000000,4.000000,4.000000,4.000000,4.000000,4.000000,4.000000,4.000000,4.000000,4.000000,4.000000,4.000000,4.000000,100.000000,,,,,,,,,,,,,,,,,19.000000,0.000000,0.699867,-0.096985,-0.676697,0.207031,0.893664,-0.406788,0.060066,-8.314429,-46.473614,62.129272
1703488602.990746,1703488602.991091,77.000000,0.000000,4272.051270,4259.230957,4319.102539,4299.487305,4239.615234,4234.102539,4276.282227,4246.538574,4235.000000,4215.512695,4492.307617,4470.128418,4355.641113,4437.563965,6917.000000,4.000000,97.000000,,,,0.000000,4.000000,4.000000,4.000000,4.000000,4.000000,4.000000,4.000000,4.000000,4.000000,4.000000,4.000000,4.000000,4.000000,4.000000,100.000000,,,,,,,,,,,,,,,,,,,,,,,,,,,,
1703488602.998554,1703488602.998799,78.000000,0.000000,4263.077148,4264.230957,4304.487305,4314.871582,4237.179688,4228.974121,4277.692383,4247.563965,4230.641113,4213.077148,4499.230957,4471.025879,4358.974121,4440.000000,5860.000000,4.000000,97.000000,,,,0.000000,4.000000,4.000000,4.000000,4.000000,4.000000,4.000000,4.000000,4.000000,4.000000,4.000000,4.000000,4.000000,4.000000,4.000000,100.000000,,,,,,,,,,,,,,,,,,,,,,,,,,,,
1703488603.006362,1703488603.006707,79.000000,0.000000,4268.461426,4272.179688,4315.512695,4311.153809,4246.666504,4226.922852,4280.641113,4255.128418,4232.051270,4221.794922,4505.000000,4475.256348,4357.307617,4448.205078,6264.000000,4.000000,97.000000,,,,0.000000,4.000000,4.000000,4.000000,4.000000,4.000000,4.000000,4.000000,4.000000,4.000000,4.000000,4.000000,4.000000,4.000000,4.000000,100.000000,,,,,,,,,,,,,,,,,,,,,,,,,,,,
1703488603.014170,1703488603.014514,80.000000,0.000000,4281.922852,4284.358887,4326.538574,4316.538574,4263.589844,4230.512695,4281.538574,4265.000000,4240.384766,4231.794922,4507.563965,4478.846191,4361.538574,4458.846191,6763.000000,4.000000,97.000000,,,,0.000000,4.000000,4.000000,4.000000,4.000000,4.000000,4.000000,4.000000,4.000000,4.000000,4.000000,4.000000,4.000000,4.000000,4.000000,100.000000,,,,,,,,,,,,,,,,,20.000000,0.000000,0.699868,-0.097107,-0.676697,0.206970,0.900012,-0.413625,0.060066,-8.216320,-46.426254,62.249680
1703488603.021978,1703488603.022422,81.000000,0.000000,4281.538574,4290.256348,4315.384766,4316.538574,4270.256348,4231.410156,4282.820313,4265.000000,4249.743652,4232.820313,4506.282227,4478.717773,4367.563965,4458.717773,6917.000000,4.000000,97.000000,,,,0.000000,4.000000,4.000000,4.000000,4.000000,4.000000,4.000000,4.000000,4.000000,4.000000,4.000000,4.000000,4.000000,4.000000,4.000000,100.000000,,,,,,,,,,,,,,,,,,,,,,,,,,,,
1703488603.029786,1703488603.030230,82.000000,0.000000,4274.615234,4282.948730,4308.205078,4297.436035,4264.743652,4233.077148,4284.230957,4262.436035,4260.384766,4240.512695,4516.025879,4476.666504,4375.256348,4458.461426,5860.000000,4.000000,97.000000,,,,0.000000,4.000000,4.000000,4.000000,4.000000,4.000000,4.000000,4.000000,4.000000,4.000000,4.000000,4.000000,4.000000,4.000000,4.000000,100.000000,,,,,,,,,,,,,,,,,,,,,,,,,,,,
1703488603.037594,1703488603.038138,83.000000,0.000000,4276.153809,4280.641113,4311.025879,4289.102539,4263.205078,4241.666504,4285.128418,4264.743652,4277.179688,4254.743652,4523.717773,4475.512695,4379.230957,4464.871582,6264.000000,4.000000,97.000000,,,,0.000000,4.000000,4.000000,4.000000,4.000000,4.000000,4.000000,4.000000,4.000000,4.000000,4.000000,4.000000,4.000000,4.000000,4.000000,100.000000,,,,,,,,,,,,,,,,,,,,,,,,,,,,
1703488603.045402,1703488603.045946,84.000000,0.000000,4272.692383,4280.000000,4305.512695,4295.384766,4265.000000,4250.000000,4282.692383,4263.333496,4286.282227,4257.051270,4514.102539,4474.871582,4369.743652,4456.922852,6763.000000,4.000000,97.000000,,,,0.000000,4.000000,4.000000,4.000000,4.000000,4.000000,4.000000,4.000000,4.000000,4.000000,4.000000,4.000000,4.000000,4.000000,4.000000,100.000000,,,,,,,,,,,,,,,,,21.000000,0.000000,0.699782,-0.097168,-0.676758,0.207031,0.906361,-0.410695,0.050787,-8.194688,-46.500294,62.291378
1703488603.053210,1703488603.053854,85.000000,0.000000,4264.615234,4268.077148,4301.153809,4307.563965,4252.179688,4247.820313,4278.461426,4252.563965,4272.948730,4246.410156,4504.615234,4472.051270,4359.615234,4441.922852,6917.000000,4.000000,97.000000,,,,0.000000,4.000000,4.000000,4.000000,4.000000,4.000000,4.000000,4.000000,4.000000,4.000000,4.000000,4.000000,4.000000,4.000000,4.000000,100.000000,,,,,,,,,,,,,,,,,,,,,,,,,,,,
1703488603.061018,1703488603.061662,86.000000,0.000000,4261.922852,4259.615234,4309.102539,4312.948730,4235.128418,4245.641113,4276.794922,4245.641113,4258.974121,4241.153809,4505.641113,4470.384766,4360.128418,4443.205078,5860.000000,4.000000,97.000000,,,,0.000000,4.000000,4.000000,4.000000,4.000000,4.000000,4.000000,4.000000,4.000000,4.000000,4.000000,4.000000,4.000000,4.000000,4.000000,100.000000,,,,,,,,,,,,,,,,,,,,,,,,,,,,
1703488603.068826,1703488603.069570,87.000000,0.000000,4264.102539,4265.512695,4323.461426,4294.487305,4244.871582,4247.820313,4278.717773,4248.717773,4264.615234,4248.077148,4508.077148,4478.589844,4361.282227,4449.743652,6264.000000,4.000000,97.000000,,,,0.000000,4.000000,4.000000,4.000000,4.000000,4.000000,4.000000,4.000000,4.000000,4.000000,4.000000,4.000000,4.000000,4.000000,4.000000,100.000000,1.000000,75.000000,4.000000,4.000000,3.000000,3.000000,3.000000,3.000000,4.000000,4.000000,4.000000,3.000000,4.000000,4.000000,4.000000,4.000000,,,,,,,,,,,,
1703488603.076634,1703488603.077378,88.000000,0.000000,4270.512695,4267.820313,4329.743652,4294.743652,4260.256348,4247.307617,4280.769043,4249.230957,4264.102539,4246.922852,4505.641113,4485.384766,4358.717773,4445.641113,6763.000000,4.000000,97.000000,,,,0.000000,4.000000,4.000000,4.000000,4.000000,4.000000,4.000000,4.000000,4.000000,4.000000,4.000000,4.000000,4.000000,4.000000,4.000000,100.000000,,,,,,,,,,,,,,,,,22.000000,0.000000,0.699756,-0.097229,-0.676758,0.207092,0.897082,-0.418020,0.060066,-8.175219,-46.466930,62.362240
1703488603.084442,1703488603.085286,89.000000,0.000000,4278.846191,4266.922852,4330.256348,4320.000000,4255.641113,4245.512695,4281.282227,4251.153809,4253.205078,4236.922852,4505.897461,4484.102539,4360.641113,4446.922852,6917.000000,4.000000,97.000000,,,,0.000000,4.000000,4.000000,4.000000,4.000000,4.000000,4.000000,4.000000,4.000000,4.000000,4.000000,4.000000,4.000000,4.000000,4.000000,100.000000,,,,,,,,,,,,,,,,,,,,,,,,,,,,
1703488603.092250,1703488603.093094,90.000000,0.000000,4281.538574,4266.538574,4337.563965,4299.487305,4245.256348,4241.282227,4277.563965,4256.538574,4244.358887,4224.102539,4505.512695,4482.948730,4357.692383,4453.846191,5860.000000,4.000000,97.000000,,,,0.000000,4.000000,4.000000,4.000000,4.000000,4.000000,4.000000,4.000000,4.000000,4.000000,4.000000,4.000000,4.000000,4.000000,4.000000,100.000000,,,,,,,,,,,,,,,,,,,,,,,,,,,,
1703488603.100058,1703488603.101002,91.000000,0.000000,4279.487305,4265.384766,4341.282227,4277.948730,4246.153809,4239.743652,4274.615234,4253.461426,4237.179688,4218.846191,4503.974121,4482.051270,4349.230957,4448.589844,6264.000000,4.000000,97.000000,,,,0.000000,4.000000,4.000000,4.000000,4.000000,4.000000,4.000000,4.000000,4.000000,4.000000,4.000000,4.000000,4.000000,4.000000,4.000000,100.000000,,,,,,,,,,,,,,,,,,,,,,,,,,,,
1703488603.107866,1703488603.108810,92.000000,0.000000,4279.358887,4274.615234,4331.153809,4316.410156,4251.794922,4245.897461,4277.563965,4252.179688,4234.743652,4226.153809,4505.000000,4478.974121,4350.128418,4444.102539,6763.000000,4.000000,97.000000,,,,0.000000,4.000000,4.000000,4.000000,4.000000,4.000000,4.000000,4.000000,4.000000,4.000000,4.000000,4.000000,4.000000,4.000000,4.000000,100.000000,,,,,,,,,,,,,,,,,23.000000,0.000000,0.699681,-0.097473,-0.676819,0.207031,0.894640,-0.426810,0.060066,-8.091030,-46.336906,62.376019
1703488603.115674,1703488603.116617,93.000000,0.000000,4277.307617,4279.358887,4321.282227,4335.384766,4250.769043,4246.282227,4279.615234,4260.512695,4235.000000,4225.128418,4504.871582,4477.307617,4350.641113,4449.487305,6917.000000,4.000000,97.000000,,,,0.000000,4.000000,4.000000,4.000000,4.000000,4.000000,4.000000,4.000000,4.000000,4.000000,4.000000,4.000000,4.000000,4.000000,4.000000,100.000000,,,,,,,,,,,,,,,,,,,,,,,,,,,,
1703488603.123483,1703488603.124425,94.000000,0.000000,4277.692383,4273.077148,4324.487305,4306.922852,4244.615234,4240.384766,4280.128418,4264.743652,4238.461426,4214.487305,4507.179688,4480.641113,4353.333496,4452.307617,5860.000000,4.000000,97.000000,,,,0.000000,4.000000,4.000000,4.000000,4.000000,4.000000,4.000000,4.000000,4.000000,4.000000,4.000000,4.000000,4.000000,4.000000,4.000000,100.000000,,,,,,,,,,,,,,,,,,,,,,,,,,,,
1703488603.131291,1703488603.132134,95.000000,0.000000,4276.410156,4269.487305,4326.410156,4297.436035,4246.794922,4245.769043,4282.051270,4263.333496,4252.692383,4221.922852,4509.230957,4487.948730,4357.436035,4448.077148,6264.000000,4.000000,97.000000,,,,0.000000,4.000000,4.000000,4.000000,4.000000,4.000000,4.000000,4.000000,4.000000,4.000000,4.000000,4.000000,4.000000,4.000000,4.000000,100.000000,,,,,,,,,,,,,,,,,,,,,,,,,,,,
1703488603.139099,1703488603.139942,96.000000,0.000000,4268.461426,4269.102539,4317.820313,4312.179688,4261.025879,4258.846191,4283.717773,4263.846191,4267.307617,4245.897461,4507.692383,4492.179688,4353.589844,4441.794922,6763.000000,4.000000,97.000000,,,,0.000000,4.000000,4.000000,4.000000,4.000000,4.000000,4.000000,4.000000,4.000000,4.000000,4.000000,4.000000,4.000000,4.000000,4.000000,100.000000,,,,,,,,,,,,,,,,,24.000000,0.000000,0.699718,-0.097595,-0.676819,0.206848,0.898547,-0.415578,0.046881,-8.198594,-46.386547,62.471748
1703488603.146907,1703488603.147650,97.000000,0.000000,4261.666504,4266.153809,4307.692383,4313.846191,4270.256348,4265.641113,4288.974121,4263.461426,4267.692383,4247.436035,4505.897461,4479.743652,4356.025879,4435.000000,6917.000000,4.000000,97.000000,,,,0.000000,4.000000,4.000000,4.000000,4.000000,4.000000,4.000000,4.000000,4.000000,4.000000,4.000000,4.000000,4.000000,4.000000,4.000000,100.000000,,,,,,,,,,,,,,,,,,,,,,,,,,,,
1703488603.154715,1703488603.155557,98.000000,0.000000,4256.410156,4261.922852,4308.974121,4291.410156,4263.077148,4270.641113,4291.282227,4261.410156,4264.230957,4233.846191,4504.230957,4459.230957,4363.589844,4425.128418,5860.000000,4.000000,97.000000,,,,0.000000,4.000000,4.000000,4.000000,4.000000,4.000000,4.000000,4.000000,4.000000,4.000000,4.000000,4.000000,4.000000,4.000000,4.000000,100.000000,,,,,,,,,,,,,,,,,,,,,,,,,,,,
1703488603.162523,1703488603.163365,99.000000,0.000000,4261.025879,4264.230957,4323.205078,4270.000000,4257.563965,4276.025879,4286.666504,4257.692383,4263.333496,4230.128418,4501.538574,4460.769043,4362.436035,4426.794922,6264.000000,4.000000,97.000000,,,,0.000000,4.000000,4.000000,4.000000,4.000000,4.000000,4.000000,4.000000,4.000000,4.000000,4.000000,4.000000,4.000000,4.000000,4.000000,100.000000,,,,,,,,,,,,,,,,,,,,,,,,,,,,
1703488603.170331,1703488603.171273,100.000000,0.000000,4277.307617,4276.025879,4330.256348,4302.436035,4268.717773,4279.487305,4290.641113,4257.307617,4261.922852,4237.179688,4505.769043,4482.179688,4364.102539,4442.692383,6763.000000,4.000000,97.000000,,,,0.000000,4.000000,4.000000,4.000000,4.000000,4.000000,4.000000,4.000000,4.000000,4.000000,4.000000,4.000000,4.000000,4.000000,4.000000,100.000000,,,,,,,,,,,,,,,,,25.000000,0.000000,0.699795,-0.097595,-0.676758,0.206787,0.883897,-0.417531,0.063484,-8.078734,-46.347893,62.424572
1703488603.178139,1703488603.179081,101.000000,0.000000,4284.871582,4285.000000,4327.307617,4338.589844,4270.641113,4277.307617,4293.717773,4260.256348,4265.641113,4251.922852,4516.025879,4487.051270,4375.384766,4446.538574,6917.000000,4.000000,97.000000,,,,0.000000,4.000000,4.000000,4.000000,4.000000,4.000000,4.000000,4.000000,4.000000,4.000000,4.000000,4.000000,4.000000,4.000000,4.000000,100.000000,,,,,,,,,,,,,,,,,,,,,,,,,,,,
1703488603.185947,1703488603.186989,102.000000,0.000000,4277.436035,4277.436035,4328.333496,4308.205078,4251.410156,4267.948730,4283.974121,4254.358887,4259.358887,4244.487305,4513.717773,4476.282227,4369.871582,4434.358887,5860.000000,4.000000,97.000000,,,,0.000000,4.000000,4.000000,4.000000,4.000000,4.000000,4.000000,4.000000,4.000000,4.000000,4.000000,4.000000,4.000000,4.000000,4.000000,100.000000,,,,,,,,,,,,,,,,,,,,,,,,,,,,
1703488603.193755,1703488603.194797,103.000000,0.000000,4276.794922,4278.717773,4329.487305,4295.000000,4254.102539,4263.077148,4281.922852,4253.717773,4241.794922,4216.794922,4503.846191,4479.230957,4355.384766,4430.897461,6264.000000,4.000000,97.000000,,,,0.000000,4.000000,4.000000,4.000000,4.000000,4.000000,4.000000,4.000000,4.000000,4.000000,4.000000,4.000000,4.000000,4.000000,4.000000,100.000000,,,,,,,,,,,,,,,,,,,,,,,,,,,,
1703488603.201563,1703488603.202605,104.000000,0.000000,4283.974121,4292.948730,4324.615234,4336.025879,4277.692383,4265.128418,4292.563965,4263.974121,4231.666504,4210.641113,4502.179688,4484.743652,4357.179688,4433.461426,6763.000000,4.000000,97.000000,,,,0.000000,4.000000,4.000000,4.000000,4.000000,4.000000,4.000000,4.000000,4.000000,4.000000,4.000000,4.000000,4.000000,4.000000,4.000000,100.000000,,,,,,,,,,,,,,,,,26.000000,0.000000,0.699899,-0.097534,-0.676697,0.206665,0.900989,-0.420461,0.062508,-8.070861,-46.296436,62.365448
1703488603.209371,1703488603.210313,105.000000,0.000000,4282.563965,4291.153809,4326.922852,4332.948730,4274.230957,4263.717773,4292.563965,4264.230957,4230.256348,4225.512695,4504.230957,4477.692383,4359.358887,4432.820313,6917.000000,4.000000,97.000000,,,,0.000000,4.000000,4.000000,4.000000,4.000000,4.000000,4.000000,4.000000,4.000000,4.000000,4.000000,4.000000,4.000000,4.000000,4.000000,100.000000,,,,,,,,,,,,,,,,,,,,,,,,,,,,
1703488603.217179,1703488603.218121,106.000000,0.000000,4283.333496,4281.282227,4333.205078,4297.307617,4258.205078,4260.256348,4283.717773,4261.794922,4236.538574,4231.153809,4507.179688,4476.153809,4359.487305,4440.000000,5860.000000,4.000000,97.000000,,,,0.000000,4.000000,4.000000,4.000000,4.000000,4.000000,4.000000,4.000000,4.000000,4.000000,4.000000,4.000000,4.000000,4.000000,4.000000,100.000000,,,,,,,,,,,,,,,,,,,,,,,,,,,,
1703488603.224987,1703488603.225829,107.000000,0.000000,4283.717773,4278.846191,4324.230957,4304.358887,4259.358887,4261.282227,4285.128418,4267.179688,4245.000000,4222.948730,4504.615234,4478.974121,4360.000000,4443.205078,6264.000000,4.000000,97.000000,,,,0.000000,4.000000,4.000000,4.000000,4.000000,4.000000,4.000000,4.000000,4.000000,4.000000,4.000000,4.000000,4.000000,4.000000,4.000000,100.000000,,,,,,,,,,,,,,,,,,,,,,,,,,,,
1703488603.232795,1703488603.233737,108.000000,0.000000,4267.051270,4276.538574,4305.000000,4311.666504,4254.871582,4260.384766,4289.487305,4264.230957,4248.333496,4216.922852,4492.563965,4463.846191,4351.794922,4424.102539,6763.000000,4.000000,97.000000,,,,0.000000,4.000000,4.000000,4.000000,4.000000,4.000000,4.000000,4.000000,4.000000,4.000000,4.000000,4.000000,4.000000,4.000000,4.000000,100.000000,,,,,,,,,,,,,,,,,27.000000,0.000000,0.700027,-0.097717,-0.676575,0.206543,0.902454,-0.410206,0.061531,-8.213775,-46.316795,62.328903
1703488603.240603,1703488603.241545,109.000000,0.000000,4260.769043,4281.153809,4304.615234,4297.436035,4252.948730,4268.205078,4287.436035,4261.410156,4260.128418,4229.102539,4489.358887,4457.179688,4354.743652,4413.717773,6917.000000,4.000000,97.000000,,,,0.000000,4.000000,4.000000,4.000000,4.000000,4.000000,4.000000,4.000000,4.000000,4.000000,4.000000,4.000000,4.000000,4.000000,4.000000,100.000000,,,,,,,,,,,,,,,,,,,,,,,,,,,,
1703488603.248411,1703488603.249453,110.000000,0.000000,4274.102539,4290.384766,4317.820313,4309.487305,4272.179688,4285.769043,4290.128418,4265.384766,4273.205078,4239.743652,4495.897461,4467.563965,4361.794922,4424.358887,5860.000000,4.000000,97.000000,,,,0.000000,4.000000,4.000000,4.000000,4.000000,4.000000,4.000000,4.000000,4.000000,4.000000,4.000000,4.000000,4.000000,4.000000,4.000000,100.000000,,,,,,,,,,,,,,,,,,,,,,,,,,,,
1703488603.256219,1703488603.257261,111.000000,0.000000,4273.077148,4282.948730,4315.000000,4317.436035,4281.666504,4286.922852,4297.820313,4256.410156,4267.051270,4228.717773,4492.179688,4463.461426,4349.102539,4430.256348,6264.000000,4.000000,97.000000,,,,0.000000,4.000000,4.000000,4.000000,4.000000,4.000000,4.000000,4.000000,4.000000,4.000000,4.000000,4.000000,4.000000,4.000000,4.000000,100.000000,,,,,,,,,,,,,,,,,,,,,,,,,,,,
1703488603.264027,1703488603.265169,112.000000,0.000000,4263.846191,4274.358887,4309.230957,4298.717773,4278.589844,4279.871582,4299.358887,4247.051270,4261.922852,4232.948730,4486.538574,4456.410156,4346.410156,4423.461426,6763.000000,4.000000,97.000000,,,,0.000000,4.000000,4.000000,4.000000,4.000000,4.000000,4.000000,4.000000,4.000000,4.000000,4.000000,4.000000,4.000000,4.000000,4.000000,100.000000,,,,,,,,,,,,,,,,,28.000000,0.000000,0.699970,-0.097961,-0.676636,0.206421,0.908314,-0.422415,0.052741,-8.342398,-46.251781,62.379349
1703488603.271835,1703488603.272977,113.000000,0.000000,4271.666504,4280.769043,4315.641113,4290.384766,4281.922852,4282.948730,4295.641113,4252.820313,4269.230957,4249.615234,4490.641113,4460.384766,4363.974121,4418.846191,6917.000000,4.000000,97.000000,,,,0.000000,4.000000,4.000000,4.000000,4.000000,4.000000,4.000000,4.000000,4.000000,4.000000,4.000000,4.000000,4.000000,4.000000,4.000000,100.000000,,,,,,,,,,,,,,,,,,,,,,,,,,,,
1703488603.279643,1703488603.280785,114.000000,0.000000,4278.461426,4281.538574,4317.179688,4291.922852,4278.333496,4276.282227,4290.769043,4251.410156,4258.846191,4236.794922,4495.000000,4458.589844,4362.436035,4425.128418,5860.000000,4.000000,97.000000,,,,0.000000,4.000000,4.000000,4.000000,4.000000,4.000000,4.000000,4.000000,4.000000,4.000000,4.000000,4.000000,4.000000,4.000000,4.000000,100.000000,,,,,,,,,,,,,,,,,,,,,,,,,,,,
1703488603.287451,1703488603.288693,115.000000,0.000000,4276.794922,4275.897461,4308.461426,4302.179688,4271.538574,4261.282227,4288.333496,4236.410156,4236.666504,4217.307617,4493.461426,4453.589844,4354.102539,4431.794922,6264.000000,4.000000,97.000000,,,,0.000000,4.000000,4.000000,4.000000,4.000000,4.000000,4.000000,4.000000,4.000000,4.000000,4.000000,4.000000,4.000000,4.000000,4.000000,100.000000,,,,,,,,,,,,,,,,,,,,,,,,,,,,
1703488603.295259,1703488603.296501,116.000000,0.000000,4276.794922,4281.538574,4306.282227,4321.666504,4274.615234,4262.436035,4290.384766,4227.692383,4225.128418,4218.333496,4492.179688,4456.153809,4363.205078,4431.922852,6763.000000,4.000000,97.000000,,,,0.000000,4.000000,4.000000,4.000000,4.000000,4.000000,4.000000,4.000000,4.000000,4.000000,4.000000,4.000000,4.000000,4.000000,4.000000,100.000000,,,,,,,,,,,,,,,,,29.000000,0.000000,0.700015,-0.098022,-0.676636,0.206238,0.902942,-0.411671,0.062996,-8.441491,-46.293270,62.358078
1703488603.303068,1703488603.304309,117.000000,0.000000,4268.077148,4281.794922,4307.051270,4304.743652,4266.538574,4266.025879,4286.025879,4229.871582,4215.512695,4212.948730,4487.051270,4455.000000,4359.487305,4426.025879,6917.000000,4.000000,97.000000,,,,0.000000,4.000000,4.000000,4.000000,4.000000,4.000000,4.000000,4.000000,4.000000,4.000000,4.000000,4.000000,4.000000,4.000000,4.000000,100.000000,,,,,,,,,,,,,,,,,,,,,,,,,,,,
1703488603.310876,1703488603.312017,118.000000,0.000000,4267.692383,4272.820313,4307.307617,4284.487305,4256.153809,4260.256348,4279.487305,4238.717773,4217.820313,4217.307617,4490.256348,4458.974121,4353.205078,4432.051270,5860.000000,4.000000,97.000000,,,,0.000000,4.000000,4.000000,4.000000,4.000000,4.000000,4.000000,4.000000,4.000000,4.000000,4.000000,4.000000,4.000000,4.000000,4.000000,100.000000,,,,,,,,,,,,,,,,,,,,,,,,,,,,
1703488603.318684,1703488603.319825,119.000000,0.000000,4280.256348,4276.794922,4312.436035,4306.025879,4262.307617,4259.487305,4281.794922,4250.769043,4234.743652,4232.051270,4506.538574,4474.871582,4361.666504,4445.256348,6264.000000,4.000000,97.000000,,,,0.000000,4.000000,4.000000,4.000000,4.000000,4.000000,4.000000,4.000000,4.000000,4.000000,4.000000,4.000000,4.000000,4.000000,4.000000,100.000000,,,,,,,,,,,,,,,,,,,,,,,,,,,,
1703488603.326492,1703488603.327533,120.000000,0.000000,4280.128418,4283.589844,4320.128418,4310.256348,4265.000000,4262.948730,4283.589844,4264.615234,4250.128418,4231.153809,4519.743652,4490.641113,4367.307617,4447.820313,6763.000000,4.000000,97.000000,,,,0.000000,4.000000,4.000000,4.000000,4.000000,4.000000,4.000000,4.000000,4.000000,4.000000,4.000000,4.000000,4.000000,4.000000,4.000000,100.000000,,,,,,,,,,,,,,,,,30.000000,0.000000,0.700076,-0.098267,-0.676575,0.206116,0.902454,-0.411671,0.061043,-8.330675,-46.230610,62.405605
1703488603.334300,1703488603.335341,121.000000,0.000000,4283.333496,4290.128418,4330.897461,4296.410156,4265.641113,4264.487305,4282.692383,4280.897461,4270.897461,4248.461426,4537.179688,4503.077148,4382.692383,4457.563965,6917.000000,4.000000,97.000000,,,,0.000000,4.000000,4.000000,4.000000,4.000000,4.000000,4.000000,4.000000,4.000000,4.000000,4.000000,4.000000,4.000000,4.000000,4.000000,100.000000,,,,,,,,,,,,,,,,,,,,,,,,,,,,
1703488603.342108,1703488603.343049,122.000000,0.000000,4292.692383,4299.230957,4334.358887,4307.436035,4274.743652,4265.512695,4287.051270,4289.615234,4288.974121,4269.102539,4542.820313,4504.615234,4391.538574,4466.794922,5860.000000,4.000000,97.000000,,,,0.000000,4.000000,4.000000,4.000000,4.000000,4.000000,4.000000,4.000000,4.000000,4.000000,4.000000,4.000000,4.000000,4.000000,4.000000,100.000000,,,,,,,,,,,,,,,,,,,,,,,,,,,,
1703488603.349916,1703488603.350857,123.000000,0.000000,4292.820313,4301.666504,4330.384766,4323.717773,4275.128418,4264.743652,4289.615234,4281.282227,4285.897461,4255.000000,4528.333496,4498.205078,4378.589844,4461.922852,6264.000000,4.000000,97.000000,,,,0.000000,4.000000,4.000000,4.000000,4.000000,4.000000,4.000000,4.000000,4.000000,4.000000,4.000000,4.000000,4.000000,4.000000,4.000000,100.000000,,,,,,,,,,,,,,,,,,,,,,,,,,,,
1703488603.357724,1703488603.358565,124.000000,0.000000,4288.205078,4294.743652,4326.922852,4320.769043,4261.666504,4264.358887,4285.641113,4267.436035,4277.820313,4243.333496,4525.512695,4496.282227,4376.538574,4460.000000,6763.000000,4.000000,97.000000,,,,0.000000,4.000000,4.000000,4.000000,4.000000,4.000000,4.000000,4.000000,4.000000,4.000000,4.000000,4.000000,4.000000,4.000000,4.000000,100.000000,,,,,,,,,,,,,,,,,31.000000,0.000000,0.700298,-0.098328,-0.676392,0.205933,0.893175,-0.416555,0.056648,-8.230941,-46.374214,62.498379
1703488603.365532,1703488603.366373,125.000000,0.000000,4287.948730,4291.794922,4327.436035,4311.538574,4267.948730,4267.307617,4285.384766,4262.563965,4278.717773,4249.615234,4533.205078,4493.974121,4387.948730,4467.948730,6917.000000,4.000000,97.000000,,,,0.000000,4.000000,4.000000,4.000000,4.000000,4.000000,4.000000,4.000000,4.000000,4.000000,4.000000,4.000000,4.000000,4.000000,4.000000,100.000000,,,,,,,,,,,,,,,,,,,,,,,,,,,,
1703488603.373340,1703488603.374081,126.000000,0.000000,4285.512695,4297.179688,4324.871582,4314.615234,4284.230957,4266.922852,4288.717773,4251.153809,4266.922852,4243.846191,4515.641113,4478.461426,4379.487305,4460.512695,5860.000000,4.000000,97.000000,,,,0.000000,4.000000,4.000000,4.000000,4.000000,4.000000,4.000000,4.000000,4.000000,4.000000,4.000000,4.000000,4.000000,4.000000,4.000000,100.000000,,,,,,,,,,,,,,,,,,,,,,,,,,,,
1703488603.381148,1703488603.381889,127.000000,0.000000,4272.820313,4289.102539,4312.948730,4307.051270,4270.641113,4261.538574,4284.230957,4225.512695,4237.051270,4224.487305,4483.974121,4456.922852,4354.487305,4439.487305,97.000000,4.000000,97.000000,,,,0.000000,4.000000,4.000000,4.000000,4.000000,4.000000,4.000000,4.000000,4.000000,4.000000,4.000000,4.000000,4.000000,4.000000,4.000000,100.000000,,,,,,,,,,,,,,,,,,,,,,,,,,,,
1703488603.388956,1703488603.389597,0.000000,0.000000,4263.974121,4272.563965,4305.512695,4288.205078,4256.410156,4258.717773,4275.769043,4213.077148,4213.846191,4207.563965,4479.487305,4446.153809,4345.897461,4430.641113,5430.000000,4.000000,97.000000,,,,0.000000,4.000000,4.000000,4.000000,4.000000,4.000000,4.000000,4.000000,4.000000,4.000000,4.000000,4.000000,4.000000,4.000000,4.000000,100.000000,,,,,,,,,,,,,,,,,0.000000,0.000000,0.700526,-0.098389,-0.676147,0.205933,0.893175,-0.411671,0.058601,-8.291181,-46.353458,62.381874
1703488603.396764,1703488603.397405,1.000000,0.000000,4271.410156,4280.897461,4307.436035,4302.436035,4274.487305,4261.410156,4279.615234,4226.538574,4217.563965,4209.358887,4493.333496,4453.589844,4363.205078,4440.256348,5444.000000,4.000000,97.000000,,,,0.000000,4.000000,4.000000,4.000000,4.000000,4.000000,4.000000,4.000000,4.000000,4.000000,4.000000,4.000000,4.000000,4.000000,4.000000,100.000000,,,,,,,,,,,,,,,,,,,,,,,,,,,,
1703488603.404572,1703488603.405114,2.000000,0.000000,4284.102539,4300.512695,4313.846191,4325.512695,4283.846191,4261.025879,4284.871582,4242.307617,4237.820313,4232.307617,4509.230957,4474.743652,4379.743652,4458.717773,5333.000000,4.000000,97.000000,,,,0.000000,4.000000,4.000000,4.000000,4.000000,4.000000,4.000000,4.000000,4.000000,4.000000,4.000000,4.000000,4.000000,4.000000,4.000000,100.000000,,,,,,,,,,,,,,,,,,,,,,,,,,,,
1703488603.412380,1703488603.413021,3.000000,0.000000,4281.538574,4289.358887,4320.000000,4303.717773,4264.871582,4252.820313,4279.487305,4250.128418,4247.051270,4239.743652,4519.102539,4491.794922,4376.153809,4462.307617,5437.000000,4.000000,97.000000,,,,0.000000,4.000000,4.000000,4.000000,4.000000,4.000000,4.000000,4.000000,4.000000,4.000000,4.000000,4.000000,4.000000,4.000000,4.000000,100.000000,,,,,,,,,,,,,,,,,,,,,,,,,,,,
1703488603.420188,1703488603.420829,4.000000,0.000000,4276.666504,4274.615234,4325.641113,4285.256348,4257.948730,4248.461426,4279.358887,4258.333496,4246.922852,4228.974121,4519.230957,4495.256348,4373.846191,4457.179688,5193.000000,4.000000,97.000000,,,,0.000000,4.000000,4.000000,4.000000,4.000000,4.000000,4.000000,4.000000,4.000000,4.000000,4.000000,4.000000,4.000000,4.000000,4.000000,100.000000,,,,,,,,,,,,,,,,,1.000000,0.000000,0.700541,-0.098694,-0.676086,0.205933,0.906361,-0.414113,0.061043,-8.312062,-46.468113,62.443687
1703488603.427996,1703488603.428637,5.000000,0.000000,4287.563965,4288.589844,4327.563965,4305.512695,4267.179688,4250.000000,4283.077148,4269.871582,4256.666504,4231.922852,4525.256348,4493.205078,4386.153809,4470.000000,5085.000000,4.000000,97.000000,,,,0.000000,4.000000,4.000000,4.000000,4.000000,4.000000,4.000000,4.000000,4.000000,4.000000,4.000000,4.000000,4.000000,4.000000,4.000000,100.000000,,,,,,,,,,,,,,,,,,,,,,,,,,,,
1703488603.435804,1703488603.436345,6.000000,0.000000,4288.333496,4292.051270,4325.769043,4313.333496,4263.846191,4248.974121,4279.743652,4279.743652,4270.256348,4245.897461,4527.948730,4491.666504,4385.000000,4475.769043,2267.000000,4.000000,97.000000,,,,0.000000,4.000000,4.000000,4.000000,4.000000,4.000000,4.000000,4.000000,4.000000,4.000000,4.000000,4.000000,4.000000,4.000000,4.000000,100.000000,,,,,,,,,,,,,,,,,,,,,,,,,,,,
1703488603.443612,1703488603.444253,7.000000,0.000000,4284.487305,4288.717773,4330.641113,4305.512695,4258.461426,4253.205078,4279.487305,4283.205078,4281.410156,4253.589844,4517.820313,4489.230957,4377.436035,4463.589844,5091.000000,4.000000,97.000000,,,,0.000000,4.000000,4.000000,4.000000,4.000000,4.000000,4.000000,4.000000,4.000000,4.000000,4.000000,4.000000,4.000000,4.000000,4.000000,100.000000,,,,,,,,,,,,,,,,,,,,,,,,,,,,
1703488603.451420,1703488603.452061,8.000000,0.000000,4286.538574,4292.563965,4329.230957,4301.025879,4261.282227,4258.461426,4284.230957,4274.358887,4279.102539,4241.666504,4506.025879,4477.051270,4372.948730,4452.948730,5248.000000,4.000000,97.000000,,,,0.000000,4.000000,4.000000,4.000000,4.000000,4.000000,4.000000,4.000000,4.000000,4.000000,4.000000,4.000000,4.000000,4.000000,4.000000,100.000000,,,,,,,,,,,,,,,,,2.000000,0.000000,0.700363,-0.098999,-0.676208,0.205994,0.893664,-0.419485,0.052741,-8.330856,-46.237968,62.332649
1703488603.459228,1703488603.459969,9.000000,0.000000,4283.461426,4285.769043,4315.769043,4300.512695,4261.666504,4255.769043,4282.307617,4256.410156,4263.846191,4227.436035,4503.077148,4460.128418,4365.897461,4449.102539,5307.000000,4.000000,97.000000,,,,0.000000,4.000000,4.000000,4.000000,4.000000,4.000000,4.000000,4.000000,4.000000,4.000000,4.000000,4.000000,4.000000,4.000000,4.000000,100.000000,,,,,,,,,,,,,,,,,,,,,,,,,,,,
1703488603.467036,1703488603.467777,10.000000,0.000000,4281.794922,4285.128418,4308.205078,4312.820313,4263.461426,4257.307617,4286.282227,4240.897461,4256.410156,4234.743652,4499.743652,4450.256348,4363.846191,4446.666504,5829.000000,4.000000,97.000000,,,,0.000000,4.000000,4.000000,4.000000,4.000000,4.000000,4.000000,4.000000,4.000000,4.000000,4.000000,4.000000,4.000000,4.000000,4.000000,100.000000,,,,,,,,,,,,,,,,,,,,,,,,,,,,
1703488603.474844,1703488603.475685,11.000000,0.000000,4285.897461,4295.384766,4307.179688,4323.974121,4273.077148,4265.897461,4295.000000,4226.922852,4250.000000,4233.333496,4487.051270,4441.666504,4361.282227,4445.256348,6267.000000,4.000000,97.000000,,,,0.000000,4.000000,4.000000,4.000000,4.000000,4.000000,4.000000,4.000000,4.000000,4.000000,4.000000,4.000000,4.000000,4.000000,4.000000,100.000000,,,,,,,,,,,,,,,,,,,,,,,,,,,,
1703488603.482653,1703488603.483493,12.000000,0.000000,4283.333496,4286.282227,4306.282227,4308.717773,4277.179688,4264.743652,4291.922852,4215.641113,4231.666504,4216.538574,4478.846191,4431.794922,4356.794922,4443.461426,6756.000000,4.000000,97.000000,,,,0.000000,4.000000,4.000000,4.000000,4.000000,4.000000,4.000000,4.000000,4.000000,4.000000,4.000000,4.000000,4.000000,4.000000,4.000000,100.000000,,,,,,,,,,,,,,,,,3.000000,0.000000,0.700301,-0.099182,-0.676208,0.206116,0.894640,-0.410695,0.052741,-8.431104,-46.230839,62.282719
1703488603.490461,1703488603.491401,13.000000,0.000000,4275.000000,4270.641113,4308.077148,4289.487305,4271.153809,4260.384766,4290.769043,4211.282227,4215.897461,4208.077148,4476.410156,4429.615234,4355.256348,4436.794922,6922.000000,4.000000,97.000000,,,,0.000000,4.000000,4.000000,4.000000,4.000000,4.000000,4.000000,4.000000,4.000000,4.000000,4.000000,4.000000,4.000000,4.000000,4.000000,100.000000,,,,,,,,,,,,,,,,,,,,,,,,,,,,
1703488603.498268,1703488603.499209,14.000000,0.000000,4276.025879,4278.333496,4309.230957,4302.948730,4267.948730,4263.846191,4291.922852,4212.051270,4213.974121,4207.948730,4479.358887,4440.000000,4354.358887,4430.512695,5829.000000,4.000000,97.000000,,,,0.000000,4.000000,4.000000,4.000000,4.000000,4.000000,4.000000,4.000000,4.000000,4.000000,4.000000,4.000000,4.000000,4.000000,4.000000,100.000000,,,,,,,,,,,,,,,,,,,,,,,,,,,,
1703488603.506077,1703488603.506917,15.000000,0.000000,4274.358887,4278.333496,4307.820313,4323.717773,4262.692383,4261.025879,4284.743652,4218.974121,4219.743652,4210.512695,4489.102539,4455.769043,4355.512695,4436.153809,6267.000000,4.000000,97.000000,,,,0.000000,4.000000,4.000000,4.000000,4.000000,4.000000,4.000000,4.000000,4.000000,4.000000,4.000000,4.000000,4.000000,4.000000,4.000000,100.000000,,,,,,,,,,,,,,,,,,,,,,,,,,,,
1703488603.513885,1703488603.514725,16.000000,0.000000,4272.051270,4261.922852,4316.794922,4315.000000,4250.897461,4252.179688,4280.384766,4233.974121,4229.743652,4217.436035,4500.897461,4470.000000,4365.512695,4448.846191,0.000000,4.000000,97.000000,,,,0.000000,4.000000,4.000000,4.000000,4.000000,4.000000,4.000000,4.000000,4.000000,4.000000,4.000000,4.000000,4.000000,4.000000,4.000000,100.000000,,,,,,,,,,,,,,,,,4.000000,0.000000,0.700350,-0.099121,-0.676147,0.206177,0.902942,-0.426322,0.055671,-8.637994,-46.207756,62.221115
1703488603.521693,1703488603.522433,17.000000,0.000000,4286.410156,4266.410156,4331.410156,4302.948730,4246.410156,4247.307617,4286.282227,4250.897461,4239.615234,4223.717773,4517.692383,4482.820313,4379.871582,4461.794922,0.000000,4.000000,97.000000,,,,0.000000,4.000000,4.000000,4.000000,4.000000,4.000000,4.000000,4.000000,4.000000,4.000000,4.000000,4.000000,4.000000,4.000000,4.000000,100.000000,,,,,,,,,,,,,,,,,,,,,,,,,,,,
1703488603.529501,1703488603.530241,18.000000,0.000000,4297.051270,4278.974121,4332.179688,4314.743652,4247.051270,4244.615234,4284.615234,4261.666504,4245.384766,4231.666504,4526.666504,4493.333496,4382.563965,4470.128418,0.000000,4.000000,97.000000,,,,0.000000,4.000000,4.000000,4.000000,4.000000,4.000000,4.000000,4.000000,4.000000,4.000000,4.000000,4.000000,4.000000,4.000000,4.000000,100.000000,,,,,,,,,,,,,,,,,,,,,,,,,,,,
1703488603.537309,1703488603.537949,19.000000,0.000000,4295.128418,4279.102539,4335.256348,4316.922852,4253.077148,4245.512695,4279.487305,4268.077148,4253.333496,4238.205078,4516.538574,4497.307617,4375.256348,4470.000000,0.000000,4.000000,97.000000,,,,0.000000,4.000000,4.000000,4.000000,4.000000,4.000000,4.000000,4.000000,4.000000,4.000000,4.000000,4.000000,4.000000,4.000000,4.000000,100.000000,,,,,,,,,,,,,,,,,,,,,,,,,,,,
1703488603.545117,1703488603.545757,20.000000,0.000000,4292.692383,4270.641113,4338.461426,4300.384766,4255.769043,4244.230957,4284.102539,4266.282227,4248.205078,4223.589844,4501.922852,4483.974121,4362.692383,4459.487305,0.000000,4.000000,97.000000,,,,0.000000,4.000000,4.000000,4.000000,4.000000,4.000000,4.000000,4.000000,4.000000,4.000000,4.000000,4.000000,4.000000,4.000000,4.000000,100.000000,,,,,,,,,,,,,,,,,5.000000,0.000000,0.700392,-0.099243,-0.676086,0.206177,0.900012,-0.419973,0.055183,-8.624194,-46.253647,62.049004
1703488603.552925,1703488603.553465,21.000000,0.000000,4294.487305,4267.563965,4331.666504,4302.307617,4249.230957,4245.641113,4285.897461,4257.692383,4233.846191,4211.538574,4504.358887,4473.077148,4361.282227,4456.666504,0.000000,4.000000,97.000000,,,,0.000000,4.000000,4.000000,4.000000,4.000000,4.000000,4.000000,4.000000,4.000000,4.000000,4.000000,4.000000,4.000000,4.000000,4.000000,100.000000,,,,,,,,,,,,,,,,,,,,,,,,,,,,
1703488603.560733,1703488603.561273,22.000000,0.000000,4297.179688,4278.461426,4328.333496,4329.102539,4256.922852,4254.743652,4286.922852,4254.743652,4240.000000,4225.897461,4513.461426,4479.358887,4372.563965,4464.871582,0.000000,4.000000,97.000000,,,,0.000000,4.000000,4.000000,4.000000,4.000000,4.000000,4.000000,4.000000,4.000000,4.000000,4.000000,4.000000,4.000000,4.000000,4.000000,100.000000,,,,,,,,,,,,,,,,,,,,,,,,,,,,
1703488603.568541,1703488603.568981,23.000000,0.000000,4289.230957,4283.205078,4321.282227,4335.769043,4266.794922,4255.128418,4288.077148,4247.820313,4250.512695,4227.563965,4498.589844,4466.538574,4366.538574,4452.307617,0.000000,4.000000,97.000000,,,,0.000000,4.000000,4.000000,4.000000,4.000000,4.000000,4.000000,4.000000,4.000000,4.000000,4.000000,4.000000,4.000000,4.000000,4.000000,100.000000,1.000000,75.000000,4.000000,4.000000,3.000000,3.000000,4.000000,4.000000,4.000000,4.000000,4.000000,3.000000,4.000000,4.000000,4.000000,4.000000,,,,,,,,,,,,
1703488603.576349,1703488603.576789,24.000000,0.000000,4279.487305,4273.589844,4305.897461,4309.230957,4257.692383,4246.538574,4284.615234,4231.025879,4237.563965,4213.717773,4475.641113,4437.179688,4349.615234,4429.743652,0.000000,4.000000,97.000000,,,,0.000000,4.000000,4.000000,4.000000,4.000000,4.000000,4.000000,4.000000,4.000000,4.000000,4.000000,4.000000,4.000000,4.000000,4.000000,100.000000,,,,,,,,,,,,,,,,,6.000000,0.000000,0.700461,-0.099426,-0.676025,0.206055,0.906849,-0.416555,0.063973,-8.461775,-46.361614,61.960770
1703488603.584157,1703488603.584497,25.000000,0.000000,4284.230957,4273.589844,4307.692383,4303.077148,4264.230957,4253.974121,4289.615234,4224.743652,4224.743652,4219.102539,4481.538574,4437.051270,4357.820313,4430.897461,0.000000,4.000000,97.000000,,,,0.000000,4.000000,4.000000,4.000000,4.000000,4.000000,4.000000,4.000000,4.000000,4.000000,4.000000,4.000000,4.000000,4.000000,4.000000,100.000000,,,,,,,,,,,,,,,,,,,,,,,,,,,,
