title:جمعة دواء, start timestamp:1703163760.875695, stop timestamp:1703163771.611758, headset type:EPOCX, headset serial:E50206EF, headset firmware:720, channels:67, sampling rate:eeg_128;mot_32, samples:1376      , version:2.2, 
Timestamp,OriginalTimestamp,EEG.Counter,EEG.Interpolated,EEG.AF3,EEG.F7,EEG.F3,EEG.FC5,EEG.T7,EEG.P7,EEG.O1,EEG.O2,EEG.P8,EEG.T8,EEG.FC6,EEG.F4,EEG.F8,EEG.AF4,EEG.RawCq,EEG.Battery,EEG.BatteryPercent,MarkerIndex,MarkerType,MarkerValueInt,EEG.MarkerHardware,CQ.AF3,CQ.F7,CQ.F3,CQ.FC5,CQ.T7,CQ.P7,CQ.O1,CQ.O2,CQ.P8,CQ.T8,CQ.FC6,CQ.F4,CQ.F8,CQ.AF4,CQ.Overall,EQ.SampleRateQuality,EQ.OVERALL,EQ.AF3,EQ.F7,EQ.F3,EQ.FC5,EQ.T7,EQ.P7,EQ.O1,EQ.O2,EQ.P8,EQ.T8,EQ.FC6,EQ.F4,EQ.F8,EQ.AF4,MOT.CounterMems,MOT.InterpolatedMems,MOT.Q0,MOT.Q1,MOT.Q2,MOT.Q3,MOT.AccX,MOT.AccY,MOT.AccZ,MOT.MagX,MOT.MagY,MOT.MagZ
1703163760.875695,1703163760.876061,65.000000,0.000000,4180.512695,4138.846191,4263.205078,4224.102539,4145.512695,4123.205078,4206.666504,4141.153809,4139.743652,4146.025879,4613.461426,4429.871582,4383.077148,4528.461426,5395.000000,3.000000,72.000000,,,,0.000000,4.000000,4.000000,4.000000,4.000000,4.000000,4.000000,4.000000,4.000000,4.000000,4.000000,4.000000,4.000000,4.000000,4.000000,100.000000,,,,,,,,,,,,,,,,,,,,,,,,,,,,
1703163760.883503,1703163760.883969,66.000000,0.000000,4170.769043,4134.615234,4263.077148,4217.051270,4137.563965,4118.846191,4207.820313,4148.333496,4142.563965,4135.769043,4656.410156,4431.410156,4385.384766,4514.102539,5313.000000,3.000000,72.000000,,,,0.000000,4.000000,4.000000,4.000000,4.000000,4.000000,4.000000,4.000000,4.000000,4.000000,4.000000,4.000000,4.000000,4.000000,4.000000,100.000000,,,,,,,,,,,,,,,,,,,,,,,,,,,,
1703163760.891311,1703163760.891777,67.000000,0.000000,4164.487305,4124.230957,4260.384766,4208.333496,4111.794922,4100.512695,4201.538574,4151.794922,4126.794922,4124.871582,4643.205078,4424.615234,4370.128418,4498.589844,5252.000000,3.000000,72.000000,,,,0.000000,4.000000,4.000000,4.000000,4.000000,4.000000,4.000000,4.000000,4.000000,4.000000,4.000000,4.000000,4.000000,4.000000,4.000000,100.000000,,,,,,,,,,,,,,,,,,,,,,,,,,,,
1703163760.899119,1703163760.899585,68.000000,0.000000,4179.871582,4131.666504,4266.153809,4217.307617,4111.922852,4097.563965,4200.384766,4149.358887,4118.846191,4127.563965,4625.128418,4434.743652,4368.974121,4519.230957,5001.000000,3.000000,72.000000,,,,0.000000,4.000000,4.000000,4.000000,4.000000,4.000000,4.000000,4.000000,4.000000,4.000000,4.000000,4.000000,4.000000,4.000000,4.000000,100.000000,,,,,,,,,,,,,,,,,17.000000,0.000000,0.654991,0.129517,-0.696289,0.263428,0.975705,-0.214382,0.003907,-9.377038,-45.144791,64.803902
1703163760.906927,1703163760.907393,69.000000,0.000000,4189.743652,4144.871582,4276.153809,4226.025879,4128.846191,4108.717773,4204.487305,4145.512695,4122.436035,4126.538574,4643.077148,4442.692383,4385.128418,4527.436035,5048.000000,3.000000,72.000000,,,,0.000000,4.000000,4.000000,4.000000,4.000000,4.000000,4.000000,4.000000,4.000000,4.000000,4.000000,4.000000,4.000000,4.000000,4.000000,100.000000,,,,,,,,,,,,,,,,,,,,,,,,,,,,
1703163760.914735,1703163760.915101,70.000000,0.000000,4182.692383,4143.333496,4278.846191,4219.230957,4117.436035,4100.897461,4205.897461,4139.871582,4118.589844,4121.410156,4640.769043,4441.666504,4389.102539,4505.512695,2025.000000,3.000000,72.000000,,,,0.000000,4.000000,4.000000,4.000000,4.000000,4.000000,4.000000,4.000000,4.000000,4.000000,4.000000,4.000000,4.000000,4.000000,4.000000,100.000000,,,,,,,,,,,,,,,,,,,,,,,,,,,,
1703163760.922543,1703163760.923009,71.000000,0.000000,4188.589844,4149.230957,4279.487305,4225.000000,4114.230957,4096.538574,4203.974121,4135.384766,4115.641113,4128.205078,4631.282227,4442.179688,4392.692383,4517.692383,4630.000000,3.000000,72.000000,,,,0.000000,4.000000,4.000000,4.000000,4.000000,4.000000,4.000000,4.000000,4.000000,4.000000,4.000000,4.000000,4.000000,4.000000,4.000000,100.000000,,,,,,,,,,,,,,,,,,,,,,,,,,,,
1703163760.930351,1703163760.930818,72.000000,0.000000,4199.871582,4163.333496,4283.589844,4237.307617,4139.487305,4111.794922,4203.077148,4136.794922,4122.692383,4140.769043,4635.000000,4437.948730,4407.563965,4546.666504,5192.000000,3.000000,72.000000,,,,0.000000,4.000000,4.000000,4.000000,4.000000,4.000000,4.000000,4.000000,4.000000,4.000000,4.000000,4.000000,4.000000,4.000000,4.000000,100.000000,,,,,,,,,,,,,,,,,18.000000,0.000000,0.654816,0.129700,-0.696350,0.263611,0.967403,-0.209987,0.000000,-9.356001,-45.113644,64.823517
1703163760.938160,1703163760.938626,73.000000,0.000000,4194.487305,4159.615234,4280.384766,4231.922852,4144.615234,4113.974121,4201.794922,4135.512695,4125.384766,4133.077148,4623.333496,4435.512695,4403.077148,4532.436035,5355.000000,3.000000,72.000000,,,,0.000000,4.000000,4.000000,4.000000,4.000000,4.000000,4.000000,4.000000,4.000000,4.000000,4.000000,4.000000,4.000000,4.000000,4.000000,100.000000,,,,,,,,,,,,,,,,,,,,,,,,,,,,
1703163760.945968,1703163760.946334,74.000000,0.000000,4190.769043,4153.589844,4272.436035,4229.615234,4137.436035,4111.666504,4201.410156,4126.153809,4122.051270,4114.230957,4625.256348,4424.487305,4387.563965,4517.948730,5716.000000,3.000000,72.000000,,,,0.000000,4.000000,4.000000,4.000000,4.000000,4.000000,4.000000,4.000000,4.000000,4.000000,4.000000,4.000000,4.000000,4.000000,4.000000,100.000000,,,,,,,,,,,,,,,,,,,,,,,,,,,,
1703163760.953776,1703163760.954242,75.000000,0.000000,4190.256348,4154.102539,4263.589844,4233.205078,4135.769043,4119.230957,4206.025879,4121.794922,4115.384766,4102.436035,4604.487305,4415.256348,4383.333496,4526.794922,6078.000000,3.000000,72.000000,,,,0.000000,4.000000,4.000000,4.000000,4.000000,4.000000,4.000000,4.000000,4.000000,4.000000,4.000000,4.000000,4.000000,4.000000,4.000000,100.000000,,,,,,,,,,,,,,,,,,,,,,,,,,,,
1703163760.961584,1703163760.962050,76.000000,0.000000,4173.205078,4140.000000,4250.384766,4221.538574,4129.230957,4117.051270,4205.256348,4129.871582,4113.717773,4096.666504,4571.282227,4418.077148,4375.512695,4515.641113,6391.000000,3.000000,72.000000,,,,0.000000,4.000000,4.000000,4.000000,4.000000,4.000000,4.000000,4.000000,4.000000,4.000000,4.000000,4.000000,4.000000,4.000000,4.000000,100.000000,,,,,,,,,,,,,,,,,19.000000,0.000000,0.654699,0.129761,-0.696472,0.263550,0.983030,-0.211452,-0.012697,-9.437067,-45.135612,64.941162
1703163760.969392,1703163760.969958,77.000000,0.000000,4155.641113,4122.820313,4243.077148,4209.871582,4129.102539,4117.563965,4206.282227,4139.743652,4131.794922,4114.358887,4609.102539,4412.692383,4366.153809,4498.974121,6199.000000,3.000000,72.000000,,,,0.000000,4.000000,4.000000,4.000000,4.000000,4.000000,4.000000,4.000000,4.000000,4.000000,4.000000,4.000000,4.000000,4.000000,4.000000,100.000000,,,,,,,,,,,,,,,,,,,,,,,,,,,,
1703163760.977200,1703163760.977767,78.000000,0.000000,4157.179688,4122.179688,4241.922852,4205.256348,4132.051270,4128.205078,4213.974121,4142.563965,4145.769043,4138.333496,4651.153809,4411.666504,4370.000000,4501.922852,5716.000000,3.000000,72.000000,,,,0.000000,4.000000,4.000000,4.000000,4.000000,4.000000,4.000000,4.000000,4.000000,4.000000,4.000000,4.000000,4.000000,4.000000,4.000000,100.000000,,,,,,,,,,,,,,,,,,,,,,,,,,,,
1703163760.985008,1703163760.985675,79.000000,0.000000,4165.769043,4135.769043,4243.589844,4201.666504,4129.358887,4125.897461,4209.743652,4145.769043,4141.922852,4139.358887,4631.538574,4419.487305,4381.794922,4511.666504,6078.000000,3.000000,72.000000,,,,0.000000,4.000000,4.000000,4.000000,4.000000,4.000000,4.000000,4.000000,4.000000,4.000000,4.000000,4.000000,4.000000,4.000000,4.000000,100.000000,,,,,,,,,,,,,,,,,,,,,,,,,,,,
1703163760.992816,1703163760.993483,80.000000,0.000000,4171.282227,4152.436035,4252.051270,4210.897461,4139.487305,4123.077148,4205.384766,4154.487305,4141.794922,4137.948730,4628.846191,4428.589844,4397.563965,4519.230957,6391.000000,3.000000,72.000000,,,,0.000000,4.000000,4.000000,4.000000,4.000000,4.000000,4.000000,4.000000,4.000000,4.000000,4.000000,4.000000,4.000000,4.000000,4.000000,100.000000,,,,,,,,,,,,,,,,,20.000000,0.000000,0.654719,0.129700,-0.696533,0.263367,0.961055,-0.208522,-0.010255,-9.360027,-45.305386,64.863716
1703163761.000624,1703163761.001291,81.000000,0.000000,4171.922852,4148.589844,4254.615234,4220.256348,4141.922852,4127.948730,4211.794922,4155.641113,4139.358887,4142.051270,4650.128418,4438.205078,4401.282227,4524.230957,6199.000000,3.000000,72.000000,,,,0.000000,4.000000,4.000000,4.000000,4.000000,4.000000,4.000000,4.000000,4.000000,4.000000,4.000000,4.000000,4.000000,4.000000,4.000000,100.000000,,,,,,,,,,,,,,,,,,,,,,,,,,,,
1703163761.008432,1703163761.008999,82.000000,0.000000,4168.717773,4132.820313,4249.102539,4215.128418,4129.358887,4121.282227,4206.538574,4140.641113,4120.897461,4131.410156,4639.230957,4429.871582,4390.000000,4509.615234,5716.000000,3.000000,72.000000,,,,0.000000,4.000000,4.000000,4.000000,4.000000,4.000000,4.000000,4.000000,4.000000,4.000000,4.000000,4.000000,4.000000,4.000000,4.000000,100.000000,,,,,,,,,,,,,,,,,,,,,,,,,,,,
1703163761.016240,1703163761.016907,83.000000,0.000000,4167.692383,4140.000000,4255.641113,4212.051270,4130.512695,4107.820313,4197.692383,4125.128418,4104.871582,4112.436035,4623.333496,4425.512695,4385.641113,4487.692383,6078.000000,3.000000,72.000000,,,,0.000000,4.000000,4.000000,4.000000,4.000000,4.000000,4.000000,4.000000,4.000000,4.000000,4.000000,4.000000,4.000000,4.000000,4.000000,100.000000,,,,,,,,,,,,,,,,,,,,,,,,,,,,
1703163761.024048,1703163761.024715,84.000000,0.000000,4173.846191,4156.922852,4267.436035,4216.410156,4137.948730,4103.461426,4200.256348,4125.769043,4111.282227,4115.128418,4624.487305,4435.641113,4393.077148,4505.000000,6391.000000,3.000000,72.000000,,,,0.000000,4.000000,4.000000,4.000000,4.000000,4.000000,4.000000,4.000000,4.000000,4.000000,4.000000,4.000000,4.000000,4.000000,4.000000,100.000000,,,,,,,,,,,,,,,,,21.000000,0.000000,0.654667,0.129639,-0.696594,0.263367,0.966427,-0.198755,-0.019534,-9.290691,-45.208179,64.877342
1703163761.031856,1703163761.032624,85.000000,0.000000,4187.051270,4157.692383,4268.974121,4220.769043,4140.000000,4101.282227,4200.641113,4137.948730,4132.436035,4132.051270,4643.461426,4432.051270,4400.512695,4532.307617,6199.000000,3.000000,72.000000,,,,0.000000,4.000000,4.000000,4.000000,4.000000,4.000000,4.000000,4.000000,4.000000,4.000000,4.000000,4.000000,4.000000,4.000000,4.000000,100.000000,,,,,,,,,,,,,,,,,,,,,,,,,,,,
1703163761.039664,1703163761.040432,86.000000,0.000000,4186.025879,4148.717773,4263.205078,4221.666504,4135.128418,4092.564209,4195.384766,4141.410156,4143.974121,4133.717773,4638.077148,4430.512695,4388.589844,4521.794922,5716.000000,3.000000,72.000000,,,,0.000000,4.000000,4.000000,4.000000,4.000000,4.000000,4.000000,4.000000,4.000000,4.000000,4.000000,4.000000,4.000000,4.000000,4.000000,100.000000,,,,,,,,,,,,,,,,,,,,,,,,,,,,
1703163761.047472,1703163761.048340,87.000000,0.000000,4171.538574,4141.794922,4254.102539,4219.615234,4127.436035,4096.410156,4193.974121,4132.692383,4138.846191,4127.307617,4590.512695,4427.436035,4373.077148,4503.846191,6078.000000,3.000000,72.000000,,,,0.000000,4.000000,4.000000,4.000000,4.000000,4.000000,4.000000,4.000000,4.000000,4.000000,4.000000,4.000000,4.000000,4.000000,4.000000,100.000000,,,,,,,,,,,,,,,,,,,,,,,,,,,,
1703163761.055280,1703163761.056148,88.000000,0.000000,4166.025879,4137.307617,4246.666504,4217.436035,4125.641113,4108.077148,4198.974121,4122.948730,4127.051270,4118.077148,4589.743652,4411.282227,4376.282227,4506.666504,6391.000000,3.000000,72.000000,,,,0.000000,4.000000,4.000000,4.000000,4.000000,4.000000,4.000000,4.000000,4.000000,4.000000,4.000000,4.000000,4.000000,4.000000,4.000000,100.000000,,,,,,,,,,,,,,,,,22.000000,0.000000,0.654703,0.129578,-0.696594,0.263306,0.969357,-0.200708,-0.008302,-9.278289,-45.037361,64.889610
1703163761.063088,1703163761.064055,89.000000,0.000000,4165.512695,4134.615234,4245.384766,4209.358887,4124.871582,4109.230957,4203.461426,4119.230957,4121.153809,4110.897461,4634.871582,4408.717773,4379.487305,4507.563965,6199.000000,3.000000,72.000000,,,,0.000000,4.000000,4.000000,4.000000,4.000000,4.000000,4.000000,4.000000,4.000000,4.000000,4.000000,4.000000,4.000000,4.000000,4.000000,100.000000,1.000000,75.000000,4.000000,4.000000,4.000000,4.000000,4.000000,4.000000,4.000000,4.000000,4.000000,4.000000,1.000000,4.000000,4.000000,4.000000,,,,,,,,,,,,
1703163761.070896,1703163761.071863,90.000000,0.000000,4165.512695,4135.512695,4249.230957,4208.205078,4125.384766,4115.897461,4202.948730,4129.358887,4130.512695,4121.666504,4644.358887,4418.717773,4374.102539,4508.205078,5716.000000,3.000000,72.000000,,,,0.000000,4.000000,4.000000,4.000000,4.000000,4.000000,4.000000,4.000000,4.000000,4.000000,4.000000,4.000000,4.000000,4.000000,4.000000,100.000000,,,,,,,,,,,,,,,,,,,,,,,,,,,,
1703163761.078704,1703163761.079572,91.000000,0.000000,4167.436035,4131.666504,4252.948730,4212.179688,4127.563965,4122.692383,4205.897461,4140.769043,4132.820313,4132.563965,4622.820313,4432.179688,4378.461426,4509.102539,6078.000000,3.000000,72.000000,,,,0.000000,4.000000,4.000000,4.000000,4.000000,4.000000,4.000000,4.000000,4.000000,4.000000,4.000000,4.000000,4.000000,4.000000,4.000000,100.000000,,,,,,,,,,,,,,,,,,,,,,,,,,,,
1703163761.086512,1703163761.087380,92.000000,0.000000,4167.692383,4129.743652,4255.512695,4206.538574,4125.128418,4114.102539,4205.256348,4138.077148,4114.871582,4125.641113,4620.897461,4435.256348,4384.102539,4503.077148,6391.000000,3.000000,72.000000,,,,0.000000,4.000000,4.000000,4.000000,4.000000,4.000000,4.000000,4.000000,4.000000,4.000000,4.000000,4.000000,4.000000,4.000000,4.000000,100.000000,,,,,,,,,,,,,,,,,23.000000,0.000000,0.654707,0.129517,-0.696533,0.263489,0.975217,-0.208522,-0.017092,-9.367126,-45.066959,64.867310
1703163761.094320,1703163761.095088,93.000000,0.000000,4169.102539,4135.128418,4258.717773,4202.563965,4117.051270,4105.897461,4198.717773,4134.743652,4102.307617,4112.179688,4633.589844,4424.358887,4373.461426,4511.922852,6199.000000,3.000000,72.000000,,,,0.000000,4.000000,4.000000,4.000000,4.000000,4.000000,4.000000,4.000000,4.000000,4.000000,4.000000,4.000000,4.000000,4.000000,4.000000,100.000000,,,,,,,,,,,,,,,,,,,,,,,,,,,,
1703163761.102128,1703163761.102896,94.000000,0.000000,4177.820313,4141.410156,4262.820313,4212.820313,4127.436035,4111.922852,4196.922852,4140.512695,4108.717773,4108.974121,4622.692383,4435.256348,4375.641113,4522.563965,5716.000000,3.000000,72.000000,,,,0.000000,4.000000,4.000000,4.000000,4.000000,4.000000,4.000000,4.000000,4.000000,4.000000,4.000000,4.000000,4.000000,4.000000,4.000000,100.000000,,,,,,,,,,,,,,,,,,,,,,,,,,,,
1703163761.109937,1703163761.110604,95.000000,0.000000,4185.641113,4147.948730,4266.025879,4223.077148,4145.256348,4111.153809,4198.846191,4141.153809,4119.102539,4125.641113,4603.846191,4446.410156,4395.128418,4524.230957,6078.000000,3.000000,72.000000,,,,0.000000,4.000000,4.000000,4.000000,4.000000,4.000000,4.000000,4.000000,4.000000,4.000000,4.000000,4.000000,4.000000,4.000000,4.000000,100.000000,,,,,,,,,,,,,,,,,,,,,,,,,,,,
1703163761.117745,1703163761.118412,96.000000,0.000000,4184.230957,4151.794922,4265.641113,4217.179688,4135.897461,4097.051270,4197.179688,4135.128418,4117.436035,4132.436035,4616.153809,4436.538574,4397.051270,4526.538574,6391.000000,3.000000,72.000000,,,,0.000000,4.000000,4.000000,4.000000,4.000000,4.000000,4.000000,4.000000,4.000000,4.000000,4.000000,4.000000,4.000000,4.000000,4.000000,100.000000,,,,,,,,,,,,,,,,,24.000000,0.000000,0.654722,0.129395,-0.696472,0.263672,0.975217,-0.204615,-0.019534,-9.363748,-45.010265,64.847252
1703163761.125553,1703163761.126120,97.000000,0.000000,4185.512695,4154.102539,4265.897461,4215.512695,4125.128418,4094.871826,4189.230957,4135.384766,4116.282227,4116.153809,4652.051270,4431.538574,4390.384766,4526.282227,6199.000000,3.000000,72.000000,,,,0.000000,4.000000,4.000000,4.000000,4.000000,4.000000,4.000000,4.000000,4.000000,4.000000,4.000000,4.000000,4.000000,4.000000,4.000000,100.000000,,,,,,,,,,,,,,,,,,,,,,,,,,,,
1703163761.133361,1703163761.133928,98.000000,0.000000,4190.128418,4157.307617,4269.615234,4231.794922,4136.025879,4106.922852,4188.461426,4139.871582,4130.897461,4119.487305,4661.538574,4435.641113,4399.230957,4524.743652,5716.000000,3.000000,72.000000,,,,0.000000,4.000000,4.000000,4.000000,4.000000,4.000000,4.000000,4.000000,4.000000,4.000000,4.000000,4.000000,4.000000,4.000000,4.000000,100.000000,,,,,,,,,,,,,,,,,,,,,,,,,,,,
1703163761.141169,1703163761.141636,99.000000,0.000000,4186.538574,4158.717773,4272.051270,4237.692383,4142.051270,4111.922852,4195.769043,4140.256348,4143.461426,4143.717773,4645.128418,4442.307617,4401.922852,4525.641113,6078.000000,3.000000,72.000000,,,,0.000000,4.000000,4.000000,4.000000,4.000000,4.000000,4.000000,4.000000,4.000000,4.000000,4.000000,4.000000,4.000000,4.000000,4.000000,100.000000,,,,,,,,,,,,,,,,,,,,,,,,,,,,
1703163761.148977,1703163761.149444,100.000000,0.000000,4183.461426,4155.384766,4262.436035,4220.512695,4137.563965,4113.846191,4192.948730,4139.487305,4143.974121,4149.615234,4635.384766,4428.461426,4393.333496,4526.025879,6391.000000,3.000000,72.000000,,,,0.000000,4.000000,4.000000,4.000000,4.000000,4.000000,4.000000,4.000000,4.000000,4.000000,4.000000,4.000000,4.000000,4.000000,4.000000,100.000000,,,,,,,,,,,,,,,,,25.000000,0.000000,0.654831,0.129089,-0.696472,0.263550,0.970822,-0.215358,-0.006837,-9.477372,-45.025906,64.812523
1703163761.156785,1703163761.157152,101.000000,0.000000,4181.025879,4147.307617,4249.487305,4210.641113,4139.487305,4123.333496,4191.922852,4138.205078,4139.358887,4138.846191,4627.692383,4409.743652,4392.051270,4520.384766,6199.000000,3.000000,72.000000,,,,0.000000,4.000000,4.000000,4.000000,4.000000,4.000000,4.000000,4.000000,4.000000,4.000000,4.000000,4.000000,4.000000,4.000000,4.000000,100.000000,,,,,,,,,,,,,,,,,,,,,,,,,,,,
1703163761.164593,1703163761.164960,102.000000,0.000000,4171.922852,4140.897461,4245.512695,4216.025879,4139.358887,4128.846191,4201.282227,4132.692383,4129.102539,4131.025879,4635.000000,4418.589844,4392.436035,4518.205078,5716.000000,3.000000,72.000000,,,,0.000000,4.000000,4.000000,4.000000,4.000000,4.000000,4.000000,4.000000,4.000000,4.000000,4.000000,4.000000,4.000000,4.000000,4.000000,100.000000,,,,,,,,,,,,,,,,,,,,,,,,,,,,
1703163761.172401,1703163761.172668,103.000000,0.000000,4163.461426,4138.846191,4250.256348,4217.307617,4138.461426,4127.179688,4204.102539,4127.692383,4119.358887,4123.589844,4637.307617,4425.256348,4386.538574,4519.102539,6078.000000,3.000000,72.000000,,,,0.000000,4.000000,4.000000,4.000000,4.000000,4.000000,4.000000,4.000000,4.000000,4.000000,4.000000,4.000000,4.000000,4.000000,4.000000,100.000000,,,,,,,,,,,,,,,,,,,,,,,,,,,,
1703163761.180209,1703163761.180476,104.000000,0.000000,4167.436035,4138.333496,4257.692383,4215.897461,4136.538574,4121.410156,4199.743652,4125.256348,4109.743652,4108.589844,4599.871582,4429.358887,4375.384766,4521.025879,6391.000000,3.000000,72.000000,,,,0.000000,4.000000,4.000000,4.000000,4.000000,4.000000,4.000000,4.000000,4.000000,4.000000,4.000000,4.000000,4.000000,4.000000,4.000000,100.000000,,,,,,,,,,,,,,,,,26.000000,0.000000,0.654819,0.129150,-0.696472,0.263550,0.961055,-0.199731,0.000488,-9.612968,-44.956646,64.697937
1703163761.188017,1703163761.188184,105.000000,0.000000,4179.743652,4143.717773,4265.384766,4218.974121,4123.846191,4107.307617,4191.794922,4122.948730,4099.358887,4096.538574,4597.179688,4437.051270,4378.589844,4527.948730,6199.000000,3.000000,72.000000,,,,0.000000,4.000000,4.000000,4.000000,4.000000,4.000000,4.000000,4.000000,4.000000,4.000000,4.000000,4.000000,4.000000,4.000000,4.000000,100.000000,,,,,,,,,,,,,,,,,,,,,,,,,,,,
1703163761.195825,1703163761.196092,106.000000,0.000000,4186.666504,4152.179688,4275.128418,4223.077148,4124.487305,4101.153809,4188.974121,4123.205078,4105.384766,4107.948730,4650.641113,4439.358887,4392.307617,4530.897461,5716.000000,3.000000,72.000000,,,,0.000000,4.000000,4.000000,4.000000,4.000000,4.000000,4.000000,4.000000,4.000000,4.000000,4.000000,4.000000,4.000000,4.000000,4.000000,100.000000,,,,,,,,,,,,,,,,,,,,,,,,,,,,
1703163761.203633,1703163761.203900,107.000000,0.000000,4186.538574,4154.358887,4281.153809,4228.974121,4141.153809,4106.666504,4193.846191,4126.794922,4120.641113,4129.102539,4668.461426,4448.846191,4392.692383,4530.000000,6078.000000,3.000000,72.000000,,,,0.000000,4.000000,4.000000,4.000000,4.000000,4.000000,4.000000,4.000000,4.000000,4.000000,4.000000,4.000000,4.000000,4.000000,4.000000,100.000000,,,,,,,,,,,,,,,,,,,,,,,,,,,,
1703163761.211441,1703163761.211808,108.000000,0.000000,4191.538574,4161.410156,4281.794922,4235.128418,4145.128418,4109.871582,4191.282227,4133.846191,4128.205078,4137.563965,4648.974121,4454.358887,4398.589844,4544.871582,6391.000000,3.000000,72.000000,,,,0.000000,4.000000,4.000000,4.000000,4.000000,4.000000,4.000000,4.000000,4.000000,4.000000,4.000000,4.000000,4.000000,4.000000,4.000000,100.000000,,,,,,,,,,,,,,,,,27.000000,0.000000,0.654831,0.129089,-0.696472,0.263550,0.960566,-0.217800,0.004883,-9.701672,-45.060982,64.728142
1703163761.219249,1703163761.219616,109.000000,0.000000,4196.025879,4168.333496,4283.333496,4232.820313,4134.871582,4107.179688,4189.102539,4138.461426,4128.846191,4132.307617,4651.666504,4449.743652,4404.871582,4557.051270,6199.000000,3.000000,72.000000,,,,0.000000,4.000000,4.000000,4.000000,4.000000,4.000000,4.000000,4.000000,4.000000,4.000000,4.000000,4.000000,4.000000,4.000000,4.000000,100.000000,,,,,,,,,,,,,,,,,,,,,,,,,,,,
1703163761.227057,1703163761.227524,110.000000,0.000000,4184.102539,4157.307617,4279.615234,4225.641113,4131.282227,4107.820313,4190.641113,4133.974121,4125.897461,4123.333496,4650.256348,4442.436035,4392.307617,4540.641113,5716.000000,3.000000,72.000000,,,,0.000000,4.000000,4.000000,4.000000,4.000000,4.000000,4.000000,4.000000,4.000000,4.000000,4.000000,4.000000,4.000000,4.000000,4.000000,100.000000,,,,,,,,,,,,,,,,,,,,,,,,,,,,
1703163761.234865,1703163761.235332,111.000000,0.000000,4169.743652,4147.307617,4268.205078,4210.897461,4131.922852,4111.794922,4188.333496,4124.230957,4122.692383,4125.000000,4630.128418,4428.205078,4382.436035,4513.717773,6078.000000,3.000000,72.000000,,,,0.000000,4.000000,4.000000,4.000000,4.000000,4.000000,4.000000,4.000000,4.000000,4.000000,4.000000,4.000000,4.000000,4.000000,4.000000,100.000000,,,,,,,,,,,,,,,,,,,,,,,,,,,,
1703163761.242673,1703163761.243240,112.000000,0.000000,4168.589844,4152.948730,4259.615234,4205.769043,4132.948730,4114.358887,4190.512695,4121.538574,4122.820313,4130.769043,4636.666504,4422.179688,4384.743652,4508.461426,6391.000000,3.000000,72.000000,,,,0.000000,4.000000,4.000000,4.000000,4.000000,4.000000,4.000000,4.000000,4.000000,4.000000,4.000000,4.000000,4.000000,4.000000,4.000000,100.000000,,,,,,,,,,,,,,,,,28.000000,0.000000,0.654884,0.129028,-0.696411,0.263611,0.965450,-0.210963,-0.002442,-9.714838,-45.054886,64.605331
1703163761.250481,1703163761.251048,113.000000,0.000000,4171.922852,4155.128418,4259.358887,4222.307617,4140.897461,4120.128418,4192.692383,4126.794922,4128.974121,4125.512695,4646.922852,4420.384766,4386.282227,4519.743652,6199.000000,3.000000,72.000000,,,,0.000000,4.000000,4.000000,4.000000,4.000000,4.000000,4.000000,4.000000,4.000000,4.000000,4.000000,4.000000,4.000000,4.000000,4.000000,100.000000,,,,,,,,,,,,,,,,,,,,,,,,,,,,
1703163761.258289,1703163761.258756,114.000000,0.000000,4172.051270,4150.897461,4260.256348,4223.846191,4143.974121,4126.153809,4192.563965,4130.769043,4131.538574,4119.615234,4614.358887,4420.512695,4388.461426,4511.794922,5716.000000,3.000000,72.000000,,,,0.000000,4.000000,4.000000,4.000000,4.000000,4.000000,4.000000,4.000000,4.000000,4.000000,4.000000,4.000000,4.000000,4.000000,4.000000,100.000000,,,,,,,,,,,,,,,,,,,,,,,,,,,,
1703163761.266097,1703163761.266564,115.000000,0.000000,4168.589844,4144.358887,4260.000000,4206.794922,4135.897461,4117.820313,4196.153809,4131.666504,4126.794922,4127.820313,4594.871582,4432.436035,4388.846191,4503.846191,6078.000000,3.000000,72.000000,,,,0.000000,4.000000,4.000000,4.000000,4.000000,4.000000,4.000000,4.000000,4.000000,4.000000,4.000000,4.000000,4.000000,4.000000,4.000000,100.000000,,,,,,,,,,,,,,,,,,,,,,,,,,,,
1703163761.273905,1703163761.274272,116.000000,0.000000,4172.820313,4138.717773,4260.128418,4211.794922,4121.922852,4103.717773,4191.282227,4132.692383,4128.077148,4135.128418,4639.102539,4432.436035,4381.153809,4535.641113,6391.000000,3.000000,72.000000,,,,0.000000,4.000000,4.000000,4.000000,4.000000,4.000000,4.000000,4.000000,4.000000,4.000000,4.000000,4.000000,4.000000,4.000000,4.000000,100.000000,,,,,,,,,,,,,,,,,29.000000,0.000000,0.655197,0.128662,-0.696045,0.263977,0.961543,-0.216823,0.004883,-9.676687,-45.132729,64.694794
1703163761.281714,1703163761.282080,117.000000,0.000000,4185.128418,4145.512695,4263.333496,4229.230957,4120.000000,4104.615234,4182.820313,4143.205078,4133.974121,4127.563965,4673.333496,4433.077148,4383.333496,4555.512695,6199.000000,3.000000,72.000000,,,,0.000000,4.000000,4.000000,4.000000,4.000000,4.000000,4.000000,4.000000,4.000000,4.000000,4.000000,4.000000,4.000000,4.000000,4.000000,100.000000,,,,,,,,,,,,,,,,,,,,,,,,,,,,
1703163761.289522,1703163761.289788,118.000000,0.000000,4185.000000,4155.000000,4267.179688,4220.000000,4134.871582,4110.769043,4186.282227,4155.769043,4136.282227,4130.128418,4652.436035,4442.179688,4395.897461,4533.077148,5716.000000,3.000000,72.000000,,,,0.000000,4.000000,4.000000,4.000000,4.000000,4.000000,4.000000,4.000000,4.000000,4.000000,4.000000,4.000000,4.000000,4.000000,4.000000,100.000000,,,,,,,,,,,,,,,,,,,,,,,,,,,,
1703163761.297330,1703163761.297696,119.000000,0.000000,4171.666504,4155.000000,4264.871582,4208.333496,4135.384766,4102.563965,4188.846191,4152.051270,4132.051270,4131.538574,4626.922852,4431.282227,4393.589844,4520.384766,6078.000000,3.000000,72.000000,,,,0.000000,4.000000,4.000000,4.000000,4.000000,4.000000,4.000000,4.000000,4.000000,4.000000,4.000000,4.000000,4.000000,4.000000,4.000000,100.000000,,,,,,,,,,,,,,,,,,,,,,,,,,,,
1703163761.305138,1703163761.305504,120.000000,0.000000,4168.461426,4154.487305,4261.282227,4217.179688,4118.717773,4096.282227,4184.487305,4137.436035,4124.102539,4105.256348,4627.051270,4424.743652,4376.282227,4528.589844,6391.000000,3.000000,72.000000,,,,0.000000,4.000000,4.000000,4.000000,4.000000,4.000000,4.000000,4.000000,4.000000,4.000000,4.000000,4.000000,4.000000,4.000000,4.000000,100.000000,,,,,,,,,,,,,,,,,30.000000,0.000000,0.655220,0.128296,-0.696045,0.264099,0.980588,-0.218777,-0.002930,-9.692352,-45.236122,64.608650
1703163761.312946,1703163761.313312,121.000000,0.000000,4176.410156,4160.512695,4269.358887,4223.333496,4125.256348,4113.717773,4186.794922,4133.205078,4116.922852,4094.743652,4632.948730,4430.769043,4375.769043,4526.922852,6199.000000,3.000000,72.000000,,,,0.000000,4.000000,4.000000,4.000000,4.000000,4.000000,4.000000,4.000000,4.000000,4.000000,4.000000,4.000000,4.000000,4.000000,4.000000,100.000000,,,,,,,,,,,,,,,,,,,,,,,,,,,,
1703163761.320754,1703163761.321020,122.000000,0.000000,4174.358887,4159.487305,4275.000000,4214.871582,4147.820313,4128.717773,4197.563965,4136.153809,4109.358887,4107.563965,4609.230957,4434.615234,4379.615234,4517.948730,5716.000000,3.000000,72.000000,,,,0.000000,4.000000,4.000000,4.000000,4.000000,4.000000,4.000000,4.000000,4.000000,4.000000,4.000000,4.000000,4.000000,4.000000,4.000000,100.000000,,,,,,,,,,,,,,,,,,,,,,,,,,,,
1703163761.328562,1703163761.328828,123.000000,0.000000,4167.051270,4153.846191,4263.846191,4207.820313,4140.512695,4118.589844,4201.794922,4125.512695,4099.102539,4095.897461,4581.666504,4436.666504,4366.794922,4508.333496,6078.000000,3.000000,72.000000,,,,0.000000,4.000000,4.000000,4.000000,4.000000,4.000000,4.000000,4.000000,4.000000,4.000000,4.000000,4.000000,4.000000,4.000000,4.000000,100.000000,,,,,,,,,,,,,,,,,,,,,,,,,,,,
1703163761.336370,1703163761.336536,124.000000,0.000000,4178.717773,4161.025879,4263.077148,4215.769043,4128.589844,4114.871582,4195.769043,4120.128418,4099.358887,4087.820557,4616.410156,4428.461426,4378.461426,4515.384766,6391.000000,3.000000,72.000000,,,,0.000000,4.000000,4.000000,4.000000,4.000000,4.000000,4.000000,4.000000,4.000000,4.000000,4.000000,4.000000,4.000000,4.000000,4.000000,100.000000,,,,,,,,,,,,,,,,,31.000000,0.000000,0.655122,0.128052,-0.696228,0.263977,0.952265,-0.208522,0.011232,-9.673117,-45.195843,64.564453
1703163761.344178,1703163761.344344,125.000000,0.000000,4190.641113,4161.153809,4279.871582,4215.512695,4137.948730,4124.743652,4198.717773,4133.333496,4113.333496,4113.461426,4663.077148,4435.512695,4395.000000,4534.102539,6199.000000,3.000000,72.000000,,,,0.000000,4.000000,4.000000,4.000000,4.000000,4.000000,4.000000,4.000000,4.000000,4.000000,4.000000,4.000000,4.000000,4.000000,4.000000,100.000000,,,,,,,,,,,,,,,,,,,,,,,,,,,,
1703163761.351986,1703163761.352052,126.000000,0.000000,4181.922852,4143.717773,4277.820313,4210.000000,4137.179688,4126.538574,4202.948730,4141.410156,4122.179688,4134.230957,4654.230957,4451.282227,4390.512695,4537.436035,5716.000000,3.000000,72.000000,,,,0.000000,4.000000,4.000000,4.000000,4.000000,4.000000,4.000000,4.000000,4.000000,4.000000,4.000000,4.000000,4.000000,4.000000,4.000000,100.000000,,,,,,,,,,,,,,,,,,,,,,,,,,,,
1703163761.359794,1703163761.359961,127.000000,0.000000,4180.256348,4132.948730,4265.641113,4222.307617,4126.794922,4120.384766,4198.974121,4143.974121,4123.461426,4127.307617,4640.897461,4441.410156,4406.282227,4536.410156,72.000000,3.000000,72.000000,,,,0.000000,4.000000,4.000000,4.000000,4.000000,4.000000,4.000000,4.000000,4.000000,4.000000,4.000000,4.000000,4.000000,4.000000,4.000000,100.000000,,,,,,,,,,,,,,,,,,,,,,,,,,,,
1703163761.367602,1703163761.367769,0.000000,0.000000,4185.769043,4137.563965,4269.615234,4224.743652,4133.589844,4116.922852,4197.051270,4150.384766,4129.871582,4122.948730,4648.077148,4435.128418,4423.077148,4536.666504,5459.000000,3.000000,72.000000,,,,0.000000,4.000000,4.000000,4.000000,4.000000,4.000000,4.000000,4.000000,4.000000,4.000000,4.000000,4.000000,4.000000,4.000000,4.000000,100.000000,,,,,,,,,,,,,,,,,0.000000,0.000000,0.655082,0.128052,-0.696289,0.263916,0.968868,-0.200708,-0.001465,-9.572472,-45.276260,64.641342
1703163761.375410,1703163761.375677,1.000000,0.000000,4174.230957,4137.820313,4271.410156,4201.794922,4149.871582,4120.256348,4197.307617,4153.461426,4143.205078,4140.384766,4661.410156,4434.102539,4414.743652,4534.230957,5404.000000,3.000000,72.000000,,,,0.000000,4.000000,4.000000,4.000000,4.000000,4.000000,4.000000,4.000000,4.000000,4.000000,4.000000,4.000000,4.000000,4.000000,4.000000,100.000000,,,,,,,,,,,,,,,,,,,,,,,,,,,,
1703163761.383218,1703163761.383485,2.000000,0.000000,4163.717773,4126.922852,4261.666504,4188.717773,4146.538574,4121.025879,4197.563965,4149.615234,4144.358887,4145.256348,4643.846191,4436.153809,4407.051270,4527.436035,5307.000000,3.000000,72.000000,,,,0.000000,4.000000,4.000000,4.000000,4.000000,4.000000,4.000000,4.000000,4.000000,4.000000,4.000000,4.000000,4.000000,4.000000,4.000000,100.000000,,,,,,,,,,,,,,,,,,,,,,,,,,,,
1703163761.391026,1703163761.391393,3.000000,0.000000,4177.692383,4128.461426,4261.538574,4210.000000,4138.461426,4121.666504,4195.256348,4152.820313,4143.205078,4135.000000,4608.461426,4448.333496,4410.256348,4533.846191,5253.000000,3.000000,72.000000,,,,0.000000,4.000000,4.000000,4.000000,4.000000,4.000000,4.000000,4.000000,4.000000,4.000000,4.000000,4.000000,4.000000,4.000000,4.000000,100.000000,,,,,,,,,,,,,,,,,,,,,,,,,,,,
1703163761.398834,1703163761.399201,4.000000,0.000000,4187.436035,4137.436035,4268.205078,4233.589844,4146.794922,4126.410156,4194.743652,4155.384766,4156.922852,4146.666504,4632.436035,4441.282227,4412.948730,4546.410156,4993.000000,3.000000,72.000000,,,,0.000000,4.000000,4.000000,4.000000,4.000000,4.000000,4.000000,4.000000,4.000000,4.000000,4.000000,4.000000,4.000000,4.000000,4.000000,100.000000,,,,,,,,,,,,,,,,,1.000000,0.000000,0.655099,0.128296,-0.696228,0.263916,0.965450,-0.209498,0.003418,-9.665225,-45.348633,64.627205
1703163761.406642,1703163761.407109,5.000000,0.000000,4172.820313,4126.153809,4262.820313,4228.461426,4137.307617,4121.025879,4198.205078,4145.641113,4152.179688,4152.820313,4668.717773,4426.794922,4412.820313,4531.282227,5043.000000,3.000000,72.000000,,,,0.000000,4.000000,4.000000,4.000000,4.000000,4.000000,4.000000,4.000000,4.000000,4.000000,4.000000,4.000000,4.000000,4.000000,4.000000,100.000000,,,,,,,,,,,,,,,,,,,,,,,,,,,,
1703163761.414450,1703163761.414917,6.000000,0.000000,4165.256348,4118.717773,4259.743652,4219.487305,4124.358887,4115.128418,4200.512695,4144.487305,4141.666504,4137.563965,4660.769043,4429.358887,4409.230957,4529.743652,2027.000000,3.000000,72.000000,,,,0.000000,4.000000,4.000000,4.000000,4.000000,4.000000,4.000000,4.000000,4.000000,4.000000,4.000000,4.000000,4.000000,4.000000,4.000000,100.000000,,,,,,,,,,,,,,,,,,,,,,,,,,,,
1703163761.422258,1703163761.422825,7.000000,0.000000,4179.358887,4135.256348,4273.846191,4228.205078,4143.077148,4123.205078,4205.128418,4158.333496,4155.384766,4148.589844,4659.230957,4444.230957,4410.769043,4558.077148,4624.000000,3.000000,72.000000,,,,0.000000,4.000000,4.000000,4.000000,4.000000,4.000000,4.000000,4.000000,4.000000,4.000000,4.000000,4.000000,4.000000,4.000000,4.000000,100.000000,,,,,,,,,,,,,,,,,,,,,,,,,,,,
1703163761.430066,1703163761.430633,8.000000,0.000000,4192.563965,4139.743652,4281.666504,4237.692383,4160.897461,4133.974121,4209.358887,4158.846191,4159.615234,4167.948730,4663.461426,4456.922852,4425.512695,4557.436035,5192.000000,3.000000,72.000000,,,,0.000000,4.000000,4.000000,4.000000,4.000000,4.000000,4.000000,4.000000,4.000000,4.000000,4.000000,4.000000,4.000000,4.000000,4.000000,100.000000,,,,,,,,,,,,,,,,,2.000000,0.000000,0.655129,0.128601,-0.696167,0.263855,0.969845,-0.214870,-0.002930,-9.615369,-45.380436,64.697823
1703163761.437874,1703163761.438541,9.000000,0.000000,4186.538574,4123.589844,4270.128418,4226.922852,4152.179688,4134.230957,4205.256348,4141.282227,4141.282227,4150.256348,4649.230957,4446.025879,4431.410156,4535.641113,5352.000000,3.000000,72.000000,,,,0.000000,4.000000,4.000000,4.000000,4.000000,4.000000,4.000000,4.000000,4.000000,4.000000,4.000000,4.000000,4.000000,4.000000,4.000000,100.000000,,,,,,,,,,,,,,,,,,,,,,,,,,,,
1703163761.445682,1703163761.446349,10.000000,0.000000,4176.410156,4119.102539,4260.384766,4217.307617,4145.128418,4128.846191,4201.282227,4135.769043,4128.589844,4126.922852,4649.615234,4432.436035,4416.794922,4533.205078,5691.000000,3.000000,72.000000,,,,0.000000,4.000000,4.000000,4.000000,4.000000,4.000000,4.000000,4.000000,4.000000,4.000000,4.000000,4.000000,4.000000,4.000000,4.000000,100.000000,,,,,,,,,,,,,,,,,,,,,,,,,,,,
1703163761.453491,1703163761.454057,11.000000,0.000000,4178.846191,4124.487305,4263.846191,4226.794922,4149.487305,4125.512695,4202.820313,4140.641113,4130.000000,4125.641113,4631.410156,4439.358887,4405.512695,4531.666504,6083.000000,3.000000,72.000000,,,,0.000000,4.000000,4.000000,4.000000,4.000000,4.000000,4.000000,4.000000,4.000000,4.000000,4.000000,4.000000,4.000000,4.000000,4.000000,100.000000,,,,,,,,,,,,,,,,,,,,,,,,,,,,
1703163761.461299,1703163761.461865,12.000000,0.000000,4177.436035,4118.205078,4263.717773,4231.538574,4138.846191,4122.307617,4201.410156,4139.743652,4134.743652,4122.436035,4601.153809,4440.769043,4409.871582,4524.871582,6397.000000,3.000000,72.000000,,,,0.000000,4.000000,4.000000,4.000000,4.000000,4.000000,4.000000,4.000000,4.000000,4.000000,4.000000,4.000000,4.000000,4.000000,4.000000,100.000000,,,,,,,,,,,,,,,,,3.000000,0.000000,0.655308,0.128601,-0.696045,0.263733,0.986937,-0.218777,0.002930,-9.870499,-45.325726,64.728035
1703163761.469107,1703163761.469573,13.000000,0.000000,4172.307617,4107.307617,4261.666504,4224.743652,4126.025879,4119.487305,4200.641113,4143.974121,4136.025879,4117.051270,4631.538574,4436.282227,4410.769043,4540.769043,6199.000000,3.000000,72.000000,,,,0.000000,4.000000,4.000000,4.000000,4.000000,4.000000,4.000000,4.000000,4.000000,4.000000,4.000000,4.000000,4.000000,4.000000,4.000000,100.000000,,,,,,,,,,,,,,,,,,,,,,,,,,,,
1703163761.476915,1703163761.477381,14.000000,0.000000,4175.641113,4105.769043,4264.743652,4227.179688,4131.282227,4118.974121,4199.743652,4156.282227,4141.153809,4128.846191,4665.256348,4437.692383,4404.615234,4553.846191,5691.000000,3.000000,72.000000,,,,0.000000,4.000000,4.000000,4.000000,4.000000,4.000000,4.000000,4.000000,4.000000,4.000000,4.000000,4.000000,4.000000,4.000000,4.000000,100.000000,,,,,,,,,,,,,,,,,,,,,,,,,,,,
1703163761.484723,1703163761.485089,15.000000,0.000000,4174.743652,4106.410156,4262.820313,4236.794922,4141.025879,4119.871582,4200.128418,4161.282227,4148.846191,4138.077148,4651.410156,4446.410156,4408.205078,4539.358887,6083.000000,3.000000,72.000000,,,,0.000000,4.000000,4.000000,4.000000,4.000000,4.000000,4.000000,4.000000,4.000000,4.000000,4.000000,4.000000,4.000000,4.000000,4.000000,100.000000,,,,,,,,,,,,,,,,,,,,,,,,,,,,
1703163761.492531,1703163761.492897,16.000000,0.000000,4173.846191,4109.102539,4265.000000,4233.717773,4148.846191,4120.256348,4201.538574,4157.436035,4147.436035,4134.230957,4643.205078,4454.615234,4414.615234,4527.948730,0.000000,3.000000,72.000000,,,,0.000000,4.000000,4.000000,4.000000,4.000000,4.000000,4.000000,4.000000,4.000000,4.000000,4.000000,4.000000,4.000000,4.000000,4.000000,100.000000,,,,,,,,,,,,,,,,,4.000000,0.000000,0.655379,0.128784,-0.696106,0.263306,0.960566,-0.203150,0.002442,-9.866782,-45.509819,64.771896
1703163761.500339,1703163761.500605,17.000000,0.000000,4183.589844,4118.205078,4272.179688,4225.384766,4149.743652,4119.230957,4200.897461,4154.871582,4141.025879,4138.461426,4649.487305,4450.512695,4411.282227,4541.538574,0.000000,3.000000,72.000000,,,,0.000000,4.000000,4.000000,4.000000,4.000000,4.000000,4.000000,4.000000,4.000000,4.000000,4.000000,4.000000,4.000000,4.000000,4.000000,100.000000,,,,,,,,,,,,,,,,,,,,,,,,,,,,
1703163761.508147,1703163761.508413,18.000000,0.000000,4185.128418,4118.846191,4271.410156,4220.256348,4143.846191,4113.333496,4198.846191,4148.077148,4134.871582,4141.794922,4651.410156,4452.179688,4402.820313,4548.974121,0.000000,3.000000,72.000000,,,,0.000000,4.000000,4.000000,4.000000,4.000000,4.000000,4.000000,4.000000,4.000000,4.000000,4.000000,4.000000,4.000000,4.000000,4.000000,100.000000,,,,,,,,,,,,,,,,,,,,,,,,,,,,
1703163761.515955,1703163761.516121,19.000000,0.000000,4177.436035,4114.615234,4270.641113,4221.025879,4138.974121,4106.922852,4192.179688,4140.769043,4127.563965,4136.666504,4647.948730,4448.589844,4406.794922,4537.307617,0.000000,3.000000,72.000000,,,,0.000000,4.000000,4.000000,4.000000,4.000000,4.000000,4.000000,4.000000,4.000000,4.000000,4.000000,4.000000,4.000000,4.000000,4.000000,100.000000,,,,,,,,,,,,,,,,,,,,,,,,,,,,
1703163761.523763,1703163761.523929,20.000000,0.000000,4177.948730,4120.641113,4270.256348,4215.769043,4131.282227,4106.922852,4192.692383,4136.538574,4120.128418,4123.333496,4621.922852,4441.922852,4412.820313,4533.974121,0.000000,3.000000,72.000000,,,,0.000000,4.000000,4.000000,4.000000,4.000000,4.000000,4.000000,4.000000,4.000000,4.000000,4.000000,4.000000,4.000000,4.000000,4.000000,100.000000,,,,,,,,,,,,,,,,,5.000000,0.000000,0.655594,0.128723,-0.695984,0.263123,0.972287,-0.205591,-0.004883,-9.730103,-45.492172,64.811378
1703163761.531571,1703163761.531637,21.000000,0.000000,4179.358887,4125.000000,4265.000000,4203.974121,4126.282227,4110.769043,4201.666504,4128.205078,4115.000000,4108.333496,4613.205078,4447.179688,4403.205078,4541.153809,0.000000,3.000000,72.000000,,,,0.000000,4.000000,4.000000,4.000000,4.000000,4.000000,4.000000,4.000000,4.000000,4.000000,4.000000,4.000000,4.000000,4.000000,4.000000,100.000000,,,,,,,,,,,,,,,,,,,,,,,,,,,,
1703163761.539379,1703163761.539545,22.000000,0.000000,4182.563965,4126.153809,4270.897461,4219.358887,4134.615234,4117.563965,4201.538574,4121.282227,4117.948730,4121.922852,4654.743652,4439.358887,4409.615234,4543.589844,0.000000,3.000000,72.000000,,,,0.000000,4.000000,4.000000,4.000000,4.000000,4.000000,4.000000,4.000000,4.000000,4.000000,4.000000,4.000000,4.000000,4.000000,4.000000,100.000000,,,,,,,,,,,,,,,,,,,,,,,,,,,,
1703163761.547187,1703163761.547354,23.000000,0.000000,4190.000000,4127.948730,4277.820313,4237.692383,4138.974121,4126.153809,4200.512695,4123.077148,4125.384766,4145.256348,4663.589844,4432.820313,4428.205078,4540.769043,0.000000,3.000000,72.000000,,,,0.000000,4.000000,4.000000,4.000000,4.000000,4.000000,4.000000,4.000000,4.000000,4.000000,4.000000,4.000000,4.000000,4.000000,4.000000,100.000000,,,,,,,,,,,,,,,,,,,,,,,,,,,,
1703163761.554995,1703163761.555262,24.000000,0.000000,4187.563965,4127.820313,4268.589844,4228.077148,4138.589844,4132.948730,4204.358887,4129.743652,4128.717773,4135.384766,4629.487305,4436.666504,4421.794922,4542.948730,0.000000,3.000000,72.000000,,,,0.000000,4.000000,4.000000,4.000000,4.000000,4.000000,4.000000,4.000000,4.000000,4.000000,4.000000,4.000000,4.000000,4.000000,4.000000,100.000000,,,,,,,,,,,,,,,,,6.000000,0.000000,0.655582,0.128784,-0.695984,0.263123,0.967403,-0.209498,-0.002930,-9.773760,-45.359623,64.880241
1703163761.562803,1703163761.563070,25.000000,0.000000,4184.358887,4132.820313,4269.102539,4218.846191,4149.615234,4135.512695,4203.461426,4133.077148,4129.871582,4119.358887,4627.820313,4433.974121,4408.461426,4543.205078,0.000000,3.000000,72.000000,,,,0.000000,4.000000,4.000000,4.000000,4.000000,4.000000,4.000000,4.000000,4.000000,4.000000,4.000000,4.000000,4.000000,4.000000,4.000000,100.000000,1.000000,75.000000,4.000000,4.000000,4.000000,4.000000,4.000000,4.000000,4.000000,4.000000,4.000000,4.000000,1.000000,4.000000,4.000000,4.000000,,,,,,,,,,,,
1703163761.570611,1703163761.570978,26.000000,0.000000,4185.000000,4140.128418,4281.282227,4223.846191,4149.871582,4127.307617,4202.436035,4135.256348,4133.974121,4133.333496,4648.333496,4440.512695,4408.589844,4525.512695,0.000000,3.000000,72.000000,,,,0.000000,4.000000,4.000000,4.000000,4.000000,4.000000,4.000000,4.000000,4.000000,4.000000,4.000000,4.000000,4.000000,4.000000,4.000000,100.000000,,,,,,,,,,,,,,,,,,,,,,,,,,,,
1703163761.578419,1703163761.578786,27.000000,0.000000,4188.589844,4138.461426,4278.974121,4226.538574,4134.358887,4118.589844,4202.307617,4142.820313,4137.307617,4136.025879,4628.205078,4446.153809,4413.077148,4531.025879,0.000000,3.000000,72.000000,,,,0.000000,4.000000,4.000000,4.000000,4.000000,4.000000,4.000000,4.000000,4.000000,4.000000,4.000000,4.000000,4.000000,4.000000,4.000000,100.000000,,,,,,,,,,,,,,,,,,,,,,,,,,,,
1703163761.586227,1703163761.586694,28.000000,0.000000,4193.333496,4138.589844,4274.615234,4220.641113,4137.051270,4123.717773,4201.922852,4154.743652,4139.743652,4117.692383,4602.563965,4445.000000,4416.410156,4557.179688,0.000000,3.000000,72.000000,,,,0.000000,4.000000,4.000000,4.000000,4.000000,4.000000,4.000000,4.000000,4.000000,4.000000,4.000000,4.000000,4.000000,4.000000,4.000000,100.000000,,,,,,,,,,,,,,,,,7.000000,0.000000,0.655483,0.128662,-0.695984,0.263428,0.967892,-0.190941,-0.005372,-9.879718,-45.306992,64.842216
1703163761.594035,1703163761.594502,29.000000,0.000000,4190.769043,4140.641113,4279.487305,4218.205078,4146.538574,4126.794922,4202.820313,4158.974121,4145.256348,4127.820313,4628.589844,4450.512695,4412.948730,4546.922852,0.000000,3.000000,72.000000,,,,0.000000,4.000000,4.000000,4.000000,4.000000,4.000000,4.000000,4.000000,4.000000,4.000000,4.000000,4.000000,4.000000,4.000000,4.000000,100.000000,,,,,,,,,,,,,,,,,,,,,,,,,,,,
1703163761.601843,1703163761.602410,30.000000,0.000000,4189.743652,4138.717773,4281.282227,4225.641113,4140.512695,4121.538574,4199.358887,4156.410156,4152.948730,4156.282227,4667.820313,4448.461426,4415.512695,4543.717773,0.000000,3.000000,72.000000,,,,0.000000,4.000000,4.000000,4.000000,4.000000,4.000000,4.000000,4.000000,4.000000,4.000000,4.000000,4.000000,4.000000,4.000000,4.000000,100.000000,,,,,,,,,,,,,,,,,,,,,,,,,,,,
1703163761.609651,1703163761.610218,31.000000,0.000000,4191.794922,4136.282227,4271.538574,4222.563965,4133.333496,4119.615234,4199.102539,4151.410156,4146.410156,4151.666504,4652.179688,4446.410156,4422.948730,4566.538574,0.000000,3.000000,72.000000,,,,0.000000,4.000000,4.000000,4.000000,4.000000,4.000000,4.000000,4.000000,4.000000,4.000000,4.000000,4.000000,4.000000,4.000000,4.000000,100.000000,,,,,,,,,,,,,,,,,,,,,,,,,,,,
1703163761.617459,1703163761.618126,32.000000,0.000000,4187.820313,4137.179688,4267.436035,4214.358887,4146.666504,4128.205078,4202.948730,4141.922852,4130.256348,4134.487305,4629.230957,4448.589844,4418.205078,4553.333496,0.000000,3.000000,72.000000,,,,0.000000,4.000000,4.000000,4.000000,4.000000,4.000000,4.000000,4.000000,4.000000,4.000000,4.000000,4.000000,4.000000,4.000000,4.000000,100.000000,,,,,,,,,,,,,,,,,8.000000,0.000000,0.655536,0.128601,-0.695923,0.263489,0.971798,-0.209498,-0.004395,-9.625079,-45.376293,64.941330
1703163761.625268,1703163761.625934,33.000000,0.000000,4186.538574,4139.615234,4279.487305,4223.333496,4159.487305,4135.384766,4204.871582,4136.538574,4126.794922,4143.846191,4635.641113,4446.922852,4412.307617,4533.974121,0.000000,3.000000,72.000000,,,,0.000000,4.000000,4.000000,4.000000,4.000000,4.000000,4.000000,4.000000,4.000000,4.000000,4.000000,4.000000,4.000000,4.000000,4.000000,100.000000,,,,,,,,,,,,,,,,,,,,,,,,,,,,
1703163761.633076,1703163761.633842,34.000000,0.000000,4186.922852,4136.794922,4280.000000,4219.230957,4137.948730,4126.153809,4200.256348,4130.897461,4125.000000,4142.563965,4633.461426,4447.820313,4411.282227,4544.615234,0.000000,3.000000,72.000000,,,,0.000000,4.000000,4.000000,4.000000,4.000000,4.000000,4.000000,4.000000,4.000000,4.000000,4.000000,4.000000,4.000000,4.000000,4.000000,100.000000,,,,,,,,,,,,,,,,,,,,,,,,,,,,
1703163761.640884,1703163761.641650,35.000000,0.000000,4182.692383,4133.846191,4265.128418,4204.358887,4122.179688,4119.230957,4199.743652,4124.743652,4120.128418,4125.000000,4621.922852,4436.282227,4402.307617,4543.846191,0.000000,3.000000,72.000000,,,,0.000000,4.000000,4.000000,4.000000,4.000000,4.000000,4.000000,4.000000,4.000000,4.000000,4.000000,4.000000,4.000000,4.000000,4.000000,100.000000,,,,,,,,,,,,,,,,,,,,,,,,,,,,
1703163761.648692,1703163761.649358,36.000000,0.000000,4177.307617,4133.077148,4261.794922,4212.307617,4138.205078,4125.128418,4208.589844,4129.102539,4121.025879,4115.897461,4594.102539,4427.948730,4392.179688,4527.307617,0.000000,3.000000,72.000000,,,,0.000000,4.000000,4.000000,4.000000,4.000000,4.000000,4.000000,4.000000,4.000000,4.000000,4.000000,4.000000,4.000000,4.000000,4.000000,100.000000,,,,,,,,,,,,,,,,,9.000000,0.000000,0.655576,0.128601,-0.695862,0.263550,0.963008,-0.212428,-0.003907,-9.879238,-45.405331,65.063858
1703163761.656500,1703163761.657266,37.000000,0.000000,4175.384766,4127.563965,4263.846191,4211.538574,4145.641113,4132.948730,4208.974121,4135.769043,4128.974121,4118.461426,4586.410156,4434.615234,4398.974121,4523.846191,0.000000,3.000000,72.000000,,,,0.000000,4.000000,4.000000,4.000000,4.000000,4.000000,4.000000,4.000000,4.000000,4.000000,4.000000,4.000000,4.000000,4.000000,4.000000,100.000000,,,,,,,,,,,,,,,,,,,,,,,,,,,,
1703163761.664308,1703163761.665074,38.000000,0.000000,4173.333496,4123.333496,4260.769043,4196.282227,4138.589844,4137.820313,4206.025879,4141.794922,4141.538574,4134.871582,4631.666504,4429.230957,4405.897461,4528.077148,0.000000,3.000000,72.000000,,,,0.000000,4.000000,4.000000,4.000000,4.000000,4.000000,4.000000,4.000000,4.000000,4.000000,4.000000,4.000000,4.000000,4.000000,4.000000,100.000000,,,,,,,,,,,,,,,,,,,,,,,,,,,,
1703163761.672116,1703163761.672983,39.000000,0.000000,4170.256348,4124.358887,4262.307617,4204.743652,4133.333496,4130.641113,4208.717773,4149.230957,4143.205078,4141.282227,4647.179688,4433.589844,4402.307617,4528.077148,0.000000,3.000000,72.000000,,,,0.000000,4.000000,4.000000,4.000000,4.000000,4.000000,4.000000,4.000000,4.000000,4.000000,4.000000,4.000000,4.000000,4.000000,4.000000,100.000000,,,,,,,,,,,,,,,,,,,,,,,,,,,,
1703163761.679924,1703163761.680791,40.000000,0.000000,4170.256348,4123.461426,4261.153809,4219.358887,4126.794922,4113.461426,4205.897461,4156.025879,4143.589844,4134.358887,4620.256348,4445.384766,4405.641113,4531.025879,0.000000,3.000000,72.000000,,,,0.000000,4.000000,4.000000,4.000000,4.000000,4.000000,4.000000,4.000000,4.000000,4.000000,4.000000,4.000000,4.000000,4.000000,4.000000,100.000000,,,,,,,,,,,,,,,,,10.000000,0.000000,0.655653,0.128540,-0.695801,0.263550,0.980588,-0.203150,-0.002930,-9.707981,-45.348129,65.007477
1703163761.687732,1703163761.688599,41.000000,0.000000,4179.358887,4124.487305,4259.487305,4216.666504,4120.769043,4105.256348,4201.153809,4165.000000,4152.307617,4136.153809,4631.153809,4443.974121,4409.743652,4539.871582,0.000000,3.000000,72.000000,,,,0.000000,4.000000,4.000000,4.000000,4.000000,4.000000,4.000000,4.000000,4.000000,4.000000,4.000000,4.000000,4.000000,4.000000,4.000000,100.000000,,,,,,,,,,,,,,,,,,,,,,,,,,,,
1703163761.695540,1703163761.696307,42.000000,0.000000,4187.948730,4133.717773,4272.692383,4213.974121,4123.589844,4104.615234,4201.153809,4168.461426,4148.974121,4137.820313,4631.538574,4457.307617,4404.102539,4541.794922,0.000000,3.000000,72.000000,,,,0.000000,4.000000,4.000000,4.000000,4.000000,4.000000,4.000000,4.000000,4.000000,4.000000,4.000000,4.000000,4.000000,4.000000,4.000000,100.000000,,,,,,,,,,,,,,,,,,,,,,,,,,,,
1703163761.703348,1703163761.704115,43.000000,0.000000,4186.025879,4138.589844,4286.025879,4218.205078,4129.230957,4105.641113,4197.051270,4157.051270,4133.205078,4125.256348,4599.615234,4465.897461,4406.410156,4535.000000,0.000000,3.000000,72.000000,,,,0.000000,4.000000,4.000000,4.000000,4.000000,4.000000,4.000000,4.000000,4.000000,4.000000,4.000000,4.000000,4.000000,4.000000,4.000000,100.000000,,,,,,,,,,,,,,,,,,,,,,,,,,,,
1703163761.711156,1703163761.711823,44.000000,0.000000,4189.230957,4138.717773,4282.692383,4215.128418,4131.922852,4113.717773,4196.794922,4144.358887,4124.487305,4119.871582,4620.897461,4455.769043,4414.102539,4540.128418,0.000000,3.000000,72.000000,,,,0.000000,4.000000,4.000000,4.000000,4.000000,4.000000,4.000000,4.000000,4.000000,4.000000,4.000000,4.000000,4.000000,4.000000,4.000000,100.000000,,,,,,,,,,,,,,,,,11.000000,0.000000,0.655763,0.128479,-0.695801,0.263306,0.968380,-0.222195,-0.001465,-9.903850,-45.379986,65.090057
1703163761.718964,1703163761.719631,45.000000,0.000000,4199.743652,4147.948730,4278.205078,4208.333496,4141.025879,4124.871582,4204.230957,4140.128418,4122.436035,4135.128418,4654.743652,4447.179688,4410.769043,4546.666504,0.000000,3.000000,72.000000,,,,0.000000,4.000000,4.000000,4.000000,4.000000,4.000000,4.000000,4.000000,4.000000,4.000000,4.000000,4.000000,4.000000,4.000000,4.000000,100.000000,,,,,,,,,,,,,,,,,,,,,,,,,,,,
1703163761.726772,1703163761.727339,46.000000,0.000000,4197.179688,4153.205078,4281.794922,4211.538574,4149.102539,4128.589844,4203.077148,4134.102539,4121.153809,4143.974121,4640.384766,4446.153809,4412.948730,4533.974121,0.000000,3.000000,72.000000,,,,0.000000,4.000000,4.000000,4.000000,4.000000,4.000000,4.000000,4.000000,4.000000,4.000000,4.000000,4.000000,4.000000,4.000000,4.000000,100.000000,,,,,,,,,,,,,,,,,,,,,,,,,,,,
1703163761.734580,1703163761.735147,47.000000,0.000000,4179.358887,4143.205078,4276.153809,4217.563965,4141.666504,4121.282227,4199.615234,4126.282227,4118.974121,4128.717773,4616.794922,4445.256348,4409.102539,4521.282227,0.000000,3.000000,72.000000,,,,0.000000,4.000000,4.000000,4.000000,4.000000,4.000000,4.000000,4.000000,4.000000,4.000000,4.000000,4.000000,4.000000,4.000000,4.000000,100.000000,,,,,,,,,,,,,,,,,,,,,,,,,,,,
1703163761.742388,1703163761.742855,48.000000,0.000000,4167.307617,4137.307617,4264.230957,4217.563965,4134.615234,4120.512695,4199.743652,4121.538574,4124.230957,4117.563965,4608.205078,4428.461426,4389.743652,4522.179688,0.000000,3.000000,72.000000,,,,0.000000,4.000000,4.000000,4.000000,4.000000,4.000000,4.000000,4.000000,4.000000,4.000000,4.000000,4.000000,4.000000,4.000000,4.000000,100.000000,,,,,,,,,,,,,,,,,12.000000,0.000000,0.655888,0.128418,-0.695740,0.263184,0.978147,-0.209498,-0.002442,-9.713465,-45.341988,65.047722
1703163761.750196,1703163761.750663,49.000000,0.000000,4167.436035,4133.974121,4255.384766,4206.794922,4133.589844,4123.205078,4201.538574,4123.333496,4134.230957,4120.641113,4612.051270,4419.102539,4382.563965,4521.410156,0.000000,3.000000,72.000000,,,,0.000000,4.000000,4.000000,4.000000,4.000000,4.000000,4.000000,4.000000,4.000000,4.000000,4.000000,4.000000,4.000000,4.000000,4.000000,100.000000,,,,,,,,,,,,,,,,,,,,,,,,,,,,
1703163761.758004,1703163761.758371,50.000000,0.000000,4167.179688,4127.563965,4251.538574,4197.051270,4123.846191,4117.563965,4197.051270,4130.000000,4140.641113,4125.897461,4620.769043,4429.743652,4389.871582,4519.358887,0.000000,3.000000,72.000000,,,,0.000000,4.000000,4.000000,4.000000,4.000000,4.000000,4.000000,4.000000,4.000000,4.000000,4.000000,4.000000,4.000000,4.000000,4.000000,100.000000,,,,,,,,,,,,,,,,,,,,,,,,,,,,
1703163761.765812,1703163761.766279,51.000000,0.000000,4168.205078,4132.692383,4263.205078,4207.436035,4123.077148,4117.307617,4195.128418,4136.538574,4148.461426,4136.666504,4599.743652,4436.794922,4392.179688,4526.538574,0.000000,3.000000,72.000000,,,,0.000000,4.000000,4.000000,4.000000,4.000000,4.000000,4.000000,4.000000,4.000000,4.000000,4.000000,4.000000,4.000000,4.000000,4.000000,100.000000,,,,,,,,,,,,,,,,,,,,,,,,,,,,
1703163761.773620,1703163761.774087,52.000000,0.000000,4173.846191,4142.948730,4281.025879,4222.051270,4137.179688,4118.974121,4200.512695,4146.922852,4154.102539,4140.769043,4587.692383,4448.077148,4393.717773,4528.974121,0.000000,3.000000,72.000000,,,,0.000000,4.000000,4.000000,4.000000,4.000000,4.000000,4.000000,4.000000,4.000000,4.000000,4.000000,4.000000,4.000000,4.000000,4.000000,100.000000,,,,,,,,,,,,,,,,,13.000000,0.000000,0.655953,0.128418,-0.695679,0.263184,0.975217,-0.208522,0.000000,-9.808784,-45.257786,65.142952
1703163761.781428,1703163761.781996,53.000000,0.000000,4178.461426,4140.256348,4281.025879,4218.333496,4139.743652,4110.769043,4195.384766,4156.666504,4151.025879,4137.820313,4631.794922,4451.922852,4396.538574,4529.615234,0.000000,3.000000,72.000000,,,,0.000000,4.000000,4.000000,4.000000,4.000000,4.000000,4.000000,4.000000,4.000000,4.000000,4.000000,4.000000,4.000000,4.000000,4.000000,100.000000,,,,,,,,,,,,,,,,,,,,,,,,,,,,
1703163761.789236,1703163761.789804,54.000000,0.000000,4175.641113,4134.871582,4274.743652,4211.025879,4133.077148,4104.358887,4191.666504,4155.256348,4139.358887,4137.563965,4645.769043,4444.615234,4387.051270,4537.820313,0.000000,3.000000,72.000000,,,,0.000000,4.000000,4.000000,4.000000,4.000000,4.000000,4.000000,4.000000,4.000000,4.000000,4.000000,4.000000,4.000000,4.000000,4.000000,100.000000,,,,,,,,,,,,,,,,,,,,,,,,,,,,
1703163761.797045,1703163761.797712,55.000000,0.000000,4171.410156,4138.974121,4280.897461,4216.153809,4133.974121,4109.871582,4193.846191,4147.563965,4123.846191,4126.922852,4614.102539,4450.641113,4386.025879,4527.820313,0.000000,3.000000,72.000000,,,,0.000000,4.000000,4.000000,4.000000,4.000000,4.000000,4.000000,4.000000,4.000000,4.000000,4.000000,4.000000,4.000000,4.000000,4.000000,100.000000,,,,,,,,,,,,,,,,,,,,,,,,,,,,
1703163761.804853,1703163761.805520,56.000000,0.000000,4167.563965,4140.512695,4277.051270,4213.077148,4132.436035,4110.128418,4190.256348,4138.333496,4108.077148,4112.820313,4608.077148,4444.102539,4391.153809,4502.436035,0.000000,3.000000,72.000000,,,,0.000000,4.000000,4.000000,4.000000,4.000000,4.000000,4.000000,4.000000,4.000000,4.000000,4.000000,4.000000,4.000000,4.000000,4.000000,100.000000,,,,,,,,,,,,,,,,,14.000000,0.000000,0.656070,0.128357,-0.695557,0.263245,0.980100,-0.220730,0.009767,-9.777906,-45.382008,65.078651
1703163761.812661,1703163761.813427,57.000000,0.000000,4163.461426,4135.897461,4263.589844,4203.205078,4127.820313,4109.230957,4192.820313,4127.051270,4096.666504,4111.538574,4608.717773,4429.871582,4381.666504,4505.128418,0.000000,3.000000,72.000000,,,,0.000000,4.000000,4.000000,4.000000,4.000000,4.000000,4.000000,4.000000,4.000000,4.000000,4.000000,4.000000,4.000000,4.000000,4.000000,100.000000,,,,,,,,,,,,,,,,,,,,,,,,,,,,
1703163761.820469,1703163761.821235,58.000000,0.000000,4171.025879,4141.025879,4268.846191,4210.897461,4133.846191,4125.000000,4198.589844,4121.794922,4099.487305,4117.179688,4610.000000,4432.051270,4382.436035,4526.410156,0.000000,3.000000,72.000000,,,,0.000000,4.000000,4.000000,4.000000,4.000000,4.000000,4.000000,4.000000,4.000000,4.000000,4.000000,4.000000,4.000000,4.000000,4.000000,100.000000,,,,,,,,,,,,,,,,,,,,,,,,,,,,
1703163761.828277,1703163761.828944,59.000000,0.000000,4184.358887,4156.025879,4281.282227,4223.846191,4146.922852,4137.307617,4195.897461,4124.230957,4115.000000,4121.666504,4613.589844,4431.666504,4392.436035,4523.077148,0.000000,3.000000,72.000000,,,,0.000000,4.000000,4.000000,4.000000,4.000000,4.000000,4.000000,4.000000,4.000000,4.000000,4.000000,4.000000,4.000000,4.000000,4.000000,100.000000,,,,,,,,,,,,,,,,,,,,,,,,,,,,
1703163761.836085,1703163761.836752,60.000000,0.000000,4186.282227,4159.743652,4278.589844,4217.820313,4151.410156,4131.025879,4193.205078,4125.512695,4128.974121,4130.256348,4586.922852,4433.846191,4388.461426,4515.128418,0.000000,3.000000,72.000000,,,,0.000000,4.000000,4.000000,4.000000,4.000000,4.000000,4.000000,4.000000,4.000000,4.000000,4.000000,4.000000,4.000000,4.000000,4.000000,100.000000,,,,,,,,,,,,,,,,,15.000000,0.000000,0.655984,0.128296,-0.695557,0.263489,0.980100,-0.203150,-0.000977,-9.600116,-45.293808,65.037453
1703163761.843893,1703163761.844460,61.000000,0.000000,4182.051270,4152.436035,4271.410156,4211.922852,4142.436035,4119.487305,4190.000000,4129.615234,4139.358887,4138.846191,4592.179688,4432.563965,4389.743652,4528.333496,0.000000,3.000000,72.000000,,,,0.000000,4.000000,4.000000,4.000000,4.000000,4.000000,4.000000,4.000000,4.000000,4.000000,4.000000,4.000000,4.000000,4.000000,4.000000,100.000000,,,,,,,,,,,,,,,,,,,,,,,,,,,,
1703163761.851701,1703163761.852268,62.000000,0.000000,4184.615234,4152.692383,4277.948730,4229.615234,4138.717773,4118.846191,4183.846191,4140.769043,4150.256348,4139.358887,4640.769043,4434.743652,4403.461426,4535.512695,0.000000,3.000000,72.000000,,,,0.000000,4.000000,4.000000,4.000000,4.000000,4.000000,4.000000,4.000000,4.000000,4.000000,4.000000,4.000000,4.000000,4.000000,4.000000,100.000000,,,,,,,,,,,,,,,,,,,,,,,,,,,,
1703163761.859509,1703163761.859976,63.000000,0.000000,4188.461426,4159.615234,4286.410156,4241.153809,4144.102539,4119.358887,4185.512695,4147.948730,4151.794922,4141.153809,4647.563965,4447.820313,4403.846191,4531.025879,0.000000,3.000000,72.000000,,,,0.000000,4.000000,4.000000,4.000000,4.000000,4.000000,4.000000,4.000000,4.000000,4.000000,4.000000,4.000000,4.000000,4.000000,4.000000,100.000000,,,,,,,,,,,,,,,,,,,,,,,,,,,,
1703163761.867317,1703163761.867784,64.000000,0.000000,4183.205078,4159.871582,4277.820313,4220.897461,4134.871582,4106.794922,4185.128418,4143.461426,4144.615234,4142.948730,4630.384766,4438.974121,4400.000000,4534.358887,5457.000000,3.000000,72.000000,,,,0.000000,4.000000,4.000000,4.000000,4.000000,4.000000,4.000000,4.000000,4.000000,4.000000,4.000000,4.000000,4.000000,4.000000,4.000000,100.000000,,,,,,,,,,,,,,,,,16.000000,0.000000,0.656024,0.128296,-0.695496,0.263550,0.987914,-0.197778,-0.008790,-9.573438,-45.347759,65.133713
1703163761.875125,1703163761.875492,65.000000,0.000000,4170.769043,4150.000000,4264.358887,4198.589844,4125.000000,4097.436035,4181.794922,4138.333496,4134.871582,4130.641113,4629.871582,4432.436035,4395.000000,4530.000000,5397.000000,3.000000,72.000000,,,,0.000000,4.000000,4.000000,4.000000,4.000000,4.000000,4.000000,4.000000,4.000000,4.000000,4.000000,4.000000,4.000000,4.000000,4.000000,100.000000,,,,,,,,,,,,,,,,,,,,,,,,,,,,
1703163761.882933,1703163761.883300,66.000000,0.000000,4168.717773,4145.641113,4265.512695,4204.871582,4131.666504,4108.461426,4184.871582,4137.307617,4121.538574,4120.769043,4621.922852,4442.436035,4390.256348,4521.922852,5305.000000,3.000000,72.000000,,,,0.000000,4.000000,4.000000,4.000000,4.000000,4.000000,4.000000,4.000000,4.000000,4.000000,4.000000,4.000000,4.000000,4.000000,4.000000,100.000000,,,,,,,,,,,,,,,,,,,,,,,,,,,,
1703163761.890741,1703163761.891008,67.000000,0.000000,4178.461426,4153.589844,4276.794922,4222.051270,4137.051270,4122.692383,4193.974121,4136.922852,4107.692383,4130.897461,4627.307617,4439.487305,4395.000000,4529.743652,5245.000000,3.000000,72.000000,,,,0.000000,4.000000,4.000000,4.000000,4.000000,4.000000,4.000000,4.000000,4.000000,4.000000,4.000000,4.000000,4.000000,4.000000,4.000000,100.000000,,,,,,,,,,,,,,,,,,,,,,,,,,,,
1703163761.898549,1703163761.898916,68.000000,0.000000,4177.692383,4156.666504,4278.589844,4211.666504,4135.769043,4122.948730,4196.538574,4128.461426,4093.076904,4130.897461,4625.128418,4437.179688,4387.051270,4530.384766,4983.000000,3.000000,72.000000,,,,0.000000,4.000000,4.000000,4.000000,4.000000,4.000000,4.000000,4.000000,4.000000,4.000000,4.000000,4.000000,4.000000,4.000000,4.000000,100.000000,,,,,,,,,,,,,,,,,17.000000,0.000000,0.656020,0.128235,-0.695557,0.263428,0.956171,-0.205591,0.000000,-9.599427,-45.396317,65.137009
1703163761.906357,1703163761.906724,69.000000,0.000000,4166.410156,4149.102539,4271.410156,4190.512695,4132.179688,4121.025879,4190.641113,4112.051270,4086.666748,4108.461426,4581.794922,4434.102539,4373.974121,4514.230957,5043.000000,3.000000,72.000000,,,,0.000000,4.000000,4.000000,4.000000,4.000000,4.000000,4.000000,4.000000,4.000000,4.000000,4.000000,4.000000,4.000000,4.000000,4.000000,100.000000,,,,,,,,,,,,,,,,,,,,,,,,,,,,
1703163761.914165,1703163761.914632,70.000000,0.000000,4166.282227,4148.077148,4269.871582,4201.410156,4120.641113,4117.436035,4190.641113,4107.051270,4096.538574,4099.615234,4583.077148,4431.794922,4381.666504,4511.025879,2029.000000,3.000000,72.000000,,,,0.000000,4.000000,4.000000,4.000000,4.000000,4.000000,4.000000,4.000000,4.000000,4.000000,4.000000,4.000000,4.000000,4.000000,4.000000,100.000000,,,,,,,,,,,,,,,,,,,,,,,,,,,,
1703163761.921973,1703163761.922440,71.000000,0.000000,4178.205078,4160.128418,4279.102539,4227.692383,4121.282227,4114.358887,4191.025879,4125.256348,4124.743652,4122.179688,4640.384766,4443.589844,4399.743652,4536.025879,4624.000000,3.000000,72.000000,,,,0.000000,4.000000,4.000000,4.000000,4.000000,4.000000,4.000000,4.000000,4.000000,4.000000,4.000000,4.000000,4.000000,4.000000,4.000000,100.000000,,,,,,,,,,,,,,,,,,,,,,,,,,,,
1703163761.929781,1703163761.930249,72.000000,0.000000,4182.051270,4168.333496,4290.769043,4225.641113,4141.025879,4121.282227,4188.846191,4150.128418,4160.000000,4154.230957,4660.641113,4450.000000,4408.077148,4547.436035,5180.000000,3.000000,72.000000,,,,0.000000,4.000000,4.000000,4.000000,4.000000,4.000000,4.000000,4.000000,4.000000,4.000000,4.000000,4.000000,4.000000,4.000000,4.000000,100.000000,,,,,,,,,,,,,,,,,18.000000,0.000000,0.655957,0.128479,-0.695618,0.263306,0.969357,-0.203150,-0.005372,-9.589484,-45.340019,65.156639
1703163761.937589,1703163761.937957,73.000000,0.000000,4183.205078,4170.000000,4292.948730,4214.743652,4144.615234,4121.025879,4192.563965,4159.487305,4176.538574,4163.717773,4640.128418,4456.538574,4411.153809,4529.743652,5350.000000,3.000000,72.000000,,,,0.000000,4.000000,4.000000,4.000000,4.000000,4.000000,4.000000,4.000000,4.000000,4.000000,4.000000,4.000000,4.000000,4.000000,4.000000,100.000000,,,,,,,,,,,,,,,,,,,,,,,,,,,,
1703163761.945398,1703163761.945865,74.000000,0.000000,4193.717773,4175.256348,4291.538574,4231.282227,4135.000000,4108.846191,4191.666504,4158.846191,4173.461426,4153.077148,4635.000000,4458.717773,4416.410156,4536.025879,5701.000000,3.000000,72.000000,,,,0.000000,4.000000,4.000000,4.000000,4.000000,4.000000,4.000000,4.000000,4.000000,4.000000,4.000000,4.000000,4.000000,4.000000,4.000000,100.000000,,,,,,,,,,,,,,,,,,,,,,,,,,,,
1703163761.953205,1703163761.953673,75.000000,0.000000,4196.410156,4177.179688,4287.692383,4240.000000,4135.256348,4102.820313,4184.102539,4154.871582,4162.307617,4153.205078,4642.948730,4445.897461,4410.769043,4557.051270,6052.000000,3.000000,72.000000,,,,0.000000,4.000000,4.000000,4.000000,4.000000,4.000000,4.000000,4.000000,4.000000,4.000000,4.000000,4.000000,4.000000,4.000000,4.000000,100.000000,,,,,,,,,,,,,,,,,,,,,,,,,,,,
1703163761.961013,1703163761.961581,76.000000,0.000000,4185.897461,4173.974121,4279.615234,4220.897461,4133.205078,4106.538574,4181.922852,4145.128418,4147.051270,4153.589844,4642.948730,4442.051270,4404.615234,4546.153809,6422.000000,3.000000,72.000000,,,,0.000000,4.000000,4.000000,4.000000,4.000000,4.000000,4.000000,4.000000,4.000000,4.000000,4.000000,4.000000,4.000000,4.000000,4.000000,100.000000,,,,,,,,,,,,,,,,,19.000000,0.000000,0.656033,0.128418,-0.695557,0.263306,0.960078,-0.201196,-0.001953,-9.547202,-45.322685,65.057640
1703163761.968822,1703163761.969389,77.000000,0.000000,4177.948730,4169.358887,4278.205078,4213.974121,4120.897461,4108.717773,4184.102539,4139.230957,4139.615234,4138.205078,4613.717773,4440.000000,4409.102539,4531.538574,6170.000000,3.000000,72.000000,,,,0.000000,4.000000,4.000000,4.000000,4.000000,4.000000,4.000000,4.000000,4.000000,4.000000,4.000000,4.000000,4.000000,4.000000,4.000000,100.000000,,,,,,,,,,,,,,,,,,,,,,,,,,,,
1703163761.976630,1703163761.977297,78.000000,0.000000,4169.871582,4161.153809,4275.897461,4215.000000,4119.230957,4109.358887,4191.666504,4140.641113,4134.487305,4131.538574,4578.333496,4434.358887,4398.333496,4528.717773,5701.000000,3.000000,72.000000,,,,0.000000,4.000000,4.000000,4.000000,4.000000,4.000000,4.000000,4.000000,4.000000,4.000000,4.000000,4.000000,4.000000,4.000000,4.000000,100.000000,,,,,,,,,,,,,,,,,,,,,,,,,,,,
1703163761.984438,1703163761.985105,79.000000,0.000000,4163.717773,4159.102539,4271.922852,4211.538574,4140.897461,4122.563965,4197.948730,4136.153809,4123.461426,4141.410156,4609.230957,4433.461426,4382.563965,4519.102539,6052.000000,3.000000,72.000000,,,,0.000000,4.000000,4.000000,4.000000,4.000000,4.000000,4.000000,4.000000,4.000000,4.000000,4.000000,4.000000,4.000000,4.000000,4.000000,100.000000,,,,,,,,,,,,,,,,,,,,,,,,,,,,
1703163761.992246,1703163761.993013,80.000000,0.000000,4174.743652,4168.846191,4276.666504,4221.282227,4153.974121,4137.051270,4195.512695,4121.794922,4115.641113,4138.333496,4653.974121,4433.589844,4397.692383,4526.538574,6422.000000,3.000000,72.000000,,,,0.000000,4.000000,4.000000,4.000000,4.000000,4.000000,4.000000,4.000000,4.000000,4.000000,4.000000,4.000000,4.000000,4.000000,4.000000,100.000000,,,,,,,,,,,,,,,,,20.000000,0.000000,0.656254,0.128113,-0.695313,0.263550,0.961543,-0.214870,0.004883,-9.675816,-45.357082,65.135208
1703163762.000054,1703163762.000821,81.000000,0.000000,4183.974121,4171.410156,4281.282227,4228.974121,4139.358887,4132.692383,4198.589844,4119.102539,4119.743652,4127.436035,4632.692383,4439.230957,4410.128418,4540.897461,6170.000000,3.000000,72.000000,,,,0.000000,4.000000,4.000000,4.000000,4.000000,4.000000,4.000000,4.000000,4.000000,4.000000,4.000000,4.000000,4.000000,4.000000,4.000000,100.000000,,,,,,,,,,,,,,,,,,,,,,,,,,,,
1703163762.007862,1703163762.008729,82.000000,0.000000,4182.563965,4168.205078,4277.051270,4219.743652,4134.487305,4125.128418,4202.948730,4138.333496,4138.077148,4139.230957,4608.846191,4440.897461,4394.487305,4539.871582,5701.000000,3.000000,72.000000,,,,0.000000,4.000000,4.000000,4.000000,4.000000,4.000000,4.000000,4.000000,4.000000,4.000000,4.000000,4.000000,4.000000,4.000000,4.000000,100.000000,,,,,,,,,,,,,,,,,,,,,,,,,,,,
1703163762.015670,1703163762.016537,83.000000,0.000000,4181.025879,4165.128418,4275.769043,4210.897461,4139.230957,4127.436035,4202.051270,4156.282227,4158.717773,4146.922852,4626.025879,4442.307617,4390.256348,4537.436035,6052.000000,3.000000,72.000000,,,,0.000000,4.000000,4.000000,4.000000,4.000000,4.000000,4.000000,4.000000,4.000000,4.000000,4.000000,4.000000,4.000000,4.000000,4.000000,100.000000,,,,,,,,,,,,,,,,,,,,,,,,,,,,
1703163762.023478,1703163762.024245,84.000000,0.000000,4173.461426,4162.820313,4278.717773,4209.615234,4127.179688,4124.743652,4200.000000,4156.666504,4167.051270,4141.666504,4632.563965,4447.051270,4405.384766,4528.077148,6422.000000,3.000000,72.000000,,,,0.000000,4.000000,4.000000,4.000000,4.000000,4.000000,4.000000,4.000000,4.000000,4.000000,4.000000,4.000000,4.000000,4.000000,4.000000,100.000000,,,,,,,,,,,,,,,,,21.000000,0.000000,0.656163,0.127869,-0.695374,0.263733,0.979123,-0.207057,0.001953,-9.558234,-45.438042,65.138359
1703163762.031286,1703163762.032053,85.000000,0.000000,4169.743652,4166.538574,4280.384766,4210.769043,4116.025879,4117.436035,4199.102539,4154.102539,4165.512695,4143.461426,4607.563965,4445.128418,4407.307617,4525.128418,6170.000000,3.000000,72.000000,,,,0.000000,4.000000,4.000000,4.000000,4.000000,4.000000,4.000000,4.000000,4.000000,4.000000,4.000000,4.000000,4.000000,4.000000,4.000000,100.000000,,,,,,,,,,,,,,,,,,,,,,,,,,,,
1703163762.039094,1703163762.039761,86.000000,0.000000,4173.717773,4163.589844,4278.717773,4215.769043,4118.205078,4112.051270,4200.128418,4157.948730,4160.256348,4142.948730,4596.538574,4451.794922,4393.589844,4537.051270,5701.000000,3.000000,72.000000,,,,0.000000,4.000000,4.000000,4.000000,4.000000,4.000000,4.000000,4.000000,4.000000,4.000000,4.000000,4.000000,4.000000,4.000000,4.000000,100.000000,,,,,,,,,,,,,,,,,,,,,,,,,,,,
1703163762.046902,1703163762.047569,87.000000,0.000000,4171.282227,4157.436035,4273.717773,4218.077148,4131.282227,4113.589844,4201.282227,4157.692383,4156.282227,4146.538574,4628.077148,4448.333496,4389.487305,4533.846191,6052.000000,3.000000,72.000000,,,,0.000000,4.000000,4.000000,4.000000,4.000000,4.000000,4.000000,4.000000,4.000000,4.000000,4.000000,4.000000,4.000000,4.000000,4.000000,100.000000,,,,,,,,,,,,,,,,,,,,,,,,,,,,
1703163762.054710,1703163762.055277,88.000000,0.000000,4163.717773,4165.384766,4272.820313,4217.948730,4136.538574,4123.333496,4206.922852,4152.692383,4147.820313,4145.384766,4648.461426,4433.077148,4392.948730,4517.179688,6422.000000,3.000000,72.000000,,,,0.000000,4.000000,4.000000,4.000000,4.000000,4.000000,4.000000,4.000000,4.000000,4.000000,4.000000,4.000000,4.000000,4.000000,4.000000,100.000000,,,,,,,,,,,,,,,,,22.000000,0.000000,0.656160,0.127808,-0.695435,0.263611,0.965450,-0.220730,0.004395,-9.669077,-45.610905,65.091187
1703163762.062518,1703163762.063085,89.000000,0.000000,4168.846191,4169.102539,4275.769043,4219.487305,4129.358887,4127.051270,4215.641113,4152.051270,4134.230957,4125.384766,4620.256348,4440.769043,4389.615234,4527.179688,6170.000000,3.000000,72.000000,,,,0.000000,4.000000,4.000000,4.000000,4.000000,4.000000,4.000000,4.000000,4.000000,4.000000,4.000000,4.000000,4.000000,4.000000,4.000000,100.000000,1.000000,75.000000,4.000000,4.000000,4.000000,4.000000,4.000000,4.000000,4.000000,4.000000,4.000000,4.000000,1.000000,4.000000,4.000000,4.000000,,,,,,,,,,,,
1703163762.070326,1703163762.070793,90.000000,0.000000,4176.794922,4167.051270,4276.794922,4217.692383,4131.153809,4125.384766,4216.153809,4152.051270,4130.000000,4121.666504,4607.820313,4446.410156,4388.974121,4546.666504,5701.000000,3.000000,72.000000,,,,0.000000,4.000000,4.000000,4.000000,4.000000,4.000000,4.000000,4.000000,4.000000,4.000000,4.000000,4.000000,4.000000,4.000000,4.000000,100.000000,,,,,,,,,,,,,,,,,,,,,,,,,,,,
1703163762.078134,1703163762.078601,91.000000,0.000000,4175.512695,4178.846191,4282.051270,4216.538574,4137.051270,4123.974121,4215.769043,4140.256348,4123.717773,4129.358887,4628.461426,4442.820313,4393.205078,4531.025879,6052.000000,3.000000,72.000000,,,,0.000000,4.000000,4.000000,4.000000,4.000000,4.000000,4.000000,4.000000,4.000000,4.000000,4.000000,4.000000,4.000000,4.000000,4.000000,100.000000,,,,,,,,,,,,,,,,,,,,,,,,,,,,
1703163762.085942,1703163762.086309,92.000000,0.000000,4178.589844,4188.333496,4291.538574,4216.538574,4133.717773,4122.179688,4218.333496,4122.820313,4106.794922,4117.436035,4608.717773,4447.051270,4392.948730,4519.230957,6422.000000,3.000000,72.000000,,,,0.000000,4.000000,4.000000,4.000000,4.000000,4.000000,4.000000,4.000000,4.000000,4.000000,4.000000,4.000000,4.000000,4.000000,4.000000,100.000000,,,,,,,,,,,,,,,,,23.000000,0.000000,0.656084,0.128113,-0.695496,0.263489,0.972287,-0.201685,-0.004395,-9.652169,-45.616478,64.998734
1703163762.093750,1703163762.094117,93.000000,0.000000,4190.512695,4184.615234,4292.563965,4216.410156,4132.307617,4122.179688,4217.948730,4119.230957,4103.077148,4116.153809,4574.871582,4441.538574,4399.615234,4543.205078,6170.000000,3.000000,72.000000,,,,0.000000,4.000000,4.000000,4.000000,4.000000,4.000000,4.000000,4.000000,4.000000,4.000000,4.000000,4.000000,4.000000,4.000000,4.000000,100.000000,,,,,,,,,,,,,,,,,,,,,,,,,,,,
1703163762.101558,1703163762.101825,94.000000,0.000000,4187.051270,4183.846191,4283.077148,4216.794922,4132.948730,4119.230957,4216.794922,4127.307617,4112.051270,4126.666504,4594.487305,4435.641113,4398.974121,4552.692383,5701.000000,3.000000,72.000000,,,,0.000000,4.000000,4.000000,4.000000,4.000000,4.000000,4.000000,4.000000,4.000000,4.000000,4.000000,4.000000,4.000000,4.000000,4.000000,100.000000,,,,,,,,,,,,,,,,,,,,,,,,,,,,
1703163762.109366,1703163762.109733,95.000000,0.000000,4170.000000,4180.000000,4277.051270,4217.820313,4123.077148,4116.410156,4218.077148,4134.871582,4124.615234,4120.000000,4627.051270,4432.948730,4386.025879,4535.384766,6052.000000,3.000000,72.000000,,,,0.000000,4.000000,4.000000,4.000000,4.000000,4.000000,4.000000,4.000000,4.000000,4.000000,4.000000,4.000000,4.000000,4.000000,4.000000,100.000000,,,,,,,,,,,,,,,,,,,,,,,,,,,,
1703163762.117175,1703163762.117541,96.000000,0.000000,4173.333496,4178.205078,4276.794922,4226.794922,4116.666504,4119.358887,4221.025879,4139.615234,4140.000000,4127.307617,4624.358887,4433.333496,4389.230957,4532.948730,6422.000000,3.000000,72.000000,,,,0.000000,4.000000,4.000000,4.000000,4.000000,4.000000,4.000000,4.000000,4.000000,4.000000,4.000000,4.000000,4.000000,4.000000,4.000000,100.000000,,,,,,,,,,,,,,,,,24.000000,0.000000,0.656113,0.128174,-0.695435,0.263550,0.974240,-0.207545,-0.007813,-9.703619,-45.504833,64.965530
1703163762.124982,1703163762.125449,97.000000,0.000000,4195.000000,4200.256348,4278.974121,4242.179688,4131.025879,4122.436035,4220.384766,4140.512695,4146.025879,4145.128418,4612.051270,4443.589844,4406.025879,4545.897461,6170.000000,3.000000,72.000000,,,,0.000000,4.000000,4.000000,4.000000,4.000000,4.000000,4.000000,4.000000,4.000000,4.000000,4.000000,4.000000,4.000000,4.000000,4.000000,100.000000,,,,,,,,,,,,,,,,,,,,,,,,,,,,
1703163762.132790,1703163762.133258,98.000000,0.000000,4205.384766,4230.000000,4288.974121,4249.102539,4151.538574,4123.461426,4218.205078,4134.871582,4143.461426,4129.487305,4620.384766,4444.102539,4405.897461,4555.000000,5701.000000,3.000000,72.000000,,,,0.000000,4.000000,4.000000,4.000000,4.000000,4.000000,4.000000,4.000000,4.000000,4.000000,4.000000,4.000000,4.000000,4.000000,4.000000,100.000000,,,,,,,,,,,,,,,,,,,,,,,,,,,,
1703163762.140599,1703163762.141066,99.000000,0.000000,4199.615234,4233.461426,4294.871582,4245.256348,4144.358887,4119.102539,4220.128418,4126.538574,4137.948730,4108.717773,4615.512695,4444.230957,4385.000000,4552.820313,6052.000000,3.000000,72.000000,,,,0.000000,4.000000,4.000000,4.000000,4.000000,4.000000,4.000000,4.000000,4.000000,4.000000,4.000000,4.000000,4.000000,4.000000,4.000000,100.000000,,,,,,,,,,,,,,,,,,,,,,,,,,,,
1703163762.148407,1703163762.148774,100.000000,0.000000,4195.256348,4229.358887,4289.871582,4247.436035,4130.128418,4118.846191,4218.077148,4123.205078,4131.153809,4126.538574,4609.871582,4444.230957,4381.410156,4548.846191,6422.000000,3.000000,72.000000,,,,0.000000,4.000000,4.000000,4.000000,4.000000,4.000000,4.000000,4.000000,4.000000,4.000000,4.000000,4.000000,4.000000,4.000000,4.000000,100.000000,,,,,,,,,,,,,,,,,25.000000,0.000000,0.656182,0.128357,-0.695313,0.263611,0.966915,-0.215847,-0.000977,-9.683257,-45.604347,65.052307
1703163762.156215,1703163762.156682,101.000000,0.000000,4195.000000,4237.820313,4290.384766,4249.230957,4141.538574,4118.333496,4218.205078,4123.974121,4124.615234,4145.641113,4619.487305,4435.256348,4390.128418,4549.487305,6170.000000,3.000000,72.000000,,,,0.000000,4.000000,4.000000,4.000000,4.000000,4.000000,4.000000,4.000000,4.000000,4.000000,4.000000,4.000000,4.000000,4.000000,4.000000,100.000000,,,,,,,,,,,,,,,,,,,,,,,,,,,,
1703163762.164023,1703163762.164490,102.000000,0.000000,4188.589844,4233.333496,4289.743652,4233.589844,4138.333496,4109.487305,4223.589844,4117.948730,4111.282227,4125.256348,4590.128418,4441.025879,4379.358887,4538.589844,5701.000000,3.000000,72.000000,,,,0.000000,4.000000,4.000000,4.000000,4.000000,4.000000,4.000000,4.000000,4.000000,4.000000,4.000000,4.000000,4.000000,4.000000,4.000000,100.000000,,,,,,,,,,,,,,,,,,,,,,,,,,,,
1703163762.171831,1703163762.172398,103.000000,0.000000,4182.051270,4217.307617,4279.743652,4218.205078,4120.641113,4110.256348,4227.692383,4112.051270,4103.589844,4107.436035,4566.666504,4441.538574,4369.743652,4524.358887,6052.000000,3.000000,72.000000,,,,0.000000,4.000000,4.000000,4.000000,4.000000,4.000000,4.000000,4.000000,4.000000,4.000000,4.000000,4.000000,4.000000,4.000000,4.000000,100.000000,,,,,,,,,,,,,,,,,,,,,,,,,,,,
1703163762.179639,1703163762.180206,104.000000,0.000000,4180.769043,4214.743652,4276.025879,4225.128418,4131.025879,4121.794922,4234.102539,4117.692383,4115.128418,4120.897461,4597.820313,4432.692383,4376.538574,4530.897461,6422.000000,3.000000,72.000000,,,,0.000000,4.000000,4.000000,4.000000,4.000000,4.000000,4.000000,4.000000,4.000000,4.000000,4.000000,4.000000,4.000000,4.000000,4.000000,100.000000,,,,,,,,,,,,,,,,,26.000000,0.000000,0.656259,0.128418,-0.695251,0.263550,0.980588,-0.214382,-0.001953,-9.798265,-45.443913,65.080414
1703163762.187447,1703163762.188114,105.000000,0.000000,4184.487305,4221.153809,4279.102539,4244.102539,4142.051270,4124.358887,4238.461426,4130.512695,4131.282227,4132.051270,4628.205078,4434.102539,4383.205078,4546.538574,6170.000000,3.000000,72.000000,,,,0.000000,4.000000,4.000000,4.000000,4.000000,4.000000,4.000000,4.000000,4.000000,4.000000,4.000000,4.000000,4.000000,4.000000,4.000000,100.000000,,,,,,,,,,,,,,,,,,,,,,,,,,,,
1703163762.195255,1703163762.195922,106.000000,0.000000,4186.282227,4218.974121,4275.641113,4243.846191,4122.307617,4120.641113,4238.333496,4139.487305,4137.692383,4123.077148,4615.769043,4431.922852,4374.615234,4553.205078,5701.000000,3.000000,72.000000,,,,0.000000,4.000000,4.000000,4.000000,4.000000,4.000000,4.000000,4.000000,4.000000,4.000000,4.000000,4.000000,4.000000,4.000000,4.000000,100.000000,,,,,,,,,,,,,,,,,,,,,,,,,,,,
1703163762.203063,1703163762.203830,107.000000,0.000000,4185.769043,4215.641113,4275.384766,4231.153809,4120.128418,4123.974121,4243.974121,4142.179688,4140.512695,4120.128418,4602.948730,4436.282227,4370.384766,4556.410156,6052.000000,3.000000,72.000000,,,,0.000000,4.000000,4.000000,4.000000,4.000000,4.000000,4.000000,4.000000,4.000000,4.000000,4.000000,4.000000,4.000000,4.000000,4.000000,100.000000,,,,,,,,,,,,,,,,,,,,,,,,,,,,
1703163762.210871,1703163762.211638,108.000000,0.000000,4188.589844,4223.461426,4284.743652,4236.794922,4144.743652,4126.794922,4242.820313,4141.538574,4142.307617,4139.230957,4617.307617,4440.384766,4384.871582,4552.179688,6422.000000,3.000000,72.000000,,,,0.000000,4.000000,4.000000,4.000000,4.000000,4.000000,4.000000,4.000000,4.000000,4.000000,4.000000,4.000000,4.000000,4.000000,4.000000,100.000000,,,,,,,,,,,,,,,,,27.000000,0.000000,0.656356,0.128296,-0.695251,0.263367,0.952265,-0.209987,-0.007325,-9.685105,-45.466190,64.989037
1703163762.218679,1703163762.219346,109.000000,0.000000,4188.974121,4225.769043,4284.871582,4240.512695,4145.897461,4115.641113,4231.538574,4136.282227,4132.051270,4130.641113,4611.794922,4431.666504,4389.743652,4542.948730,6170.000000,3.000000,72.000000,,,,0.000000,4.000000,4.000000,4.000000,4.000000,4.000000,4.000000,4.000000,4.000000,4.000000,4.000000,4.000000,4.000000,4.000000,4.000000,100.000000,,,,,,,,,,,,,,,,,,,,,,,,,,,,
1703163762.226487,1703163762.227154,110.000000,0.000000,4186.153809,4225.000000,4280.000000,4226.538574,4130.384766,4105.000000,4229.615234,4133.717773,4124.871582,4100.128418,4610.769043,4436.153809,4377.179688,4544.102539,5701.000000,3.000000,72.000000,,,,0.000000,4.000000,4.000000,4.000000,4.000000,4.000000,4.000000,4.000000,4.000000,4.000000,4.000000,4.000000,4.000000,4.000000,4.000000,100.000000,,,,,,,,,,,,,,,,,,,,,,,,,,,,
1703163762.234295,1703163762.234862,111.000000,0.000000,4191.410156,4230.769043,4288.974121,4231.025879,4135.128418,4114.615234,4236.153809,4146.410156,4139.230957,4125.769043,4636.794922,4448.846191,4386.025879,4552.436035,6052.000000,3.000000,72.000000,,,,0.000000,4.000000,4.000000,4.000000,4.000000,4.000000,4.000000,4.000000,4.000000,4.000000,4.000000,4.000000,4.000000,4.000000,4.000000,100.000000,,,,,,,,,,,,,,,,,,,,,,,,,,,,
1703163762.242103,1703163762.242770,112.000000,0.000000,4198.333496,4227.692383,4296.538574,4252.948730,4144.743652,4122.820313,4238.461426,4156.922852,4148.205078,4161.794922,4618.461426,4455.769043,4401.538574,4556.153809,6422.000000,3.000000,72.000000,,,,0.000000,4.000000,4.000000,4.000000,4.000000,4.000000,4.000000,4.000000,4.000000,4.000000,4.000000,4.000000,4.000000,4.000000,4.000000,100.000000,,,,,,,,,,,,,,,,,28.000000,0.000000,0.656509,0.128052,-0.695129,0.263428,0.967892,-0.213893,-0.006348,-9.449928,-45.352905,64.940132
1703163762.249911,1703163762.250578,113.000000,0.000000,4193.461426,4212.436035,4283.974121,4250.256348,4140.128418,4111.025879,4234.743652,4141.794922,4136.282227,4140.897461,4586.794922,4444.102539,4389.615234,4554.743652,6170.000000,3.000000,72.000000,,,,0.000000,4.000000,4.000000,4.000000,4.000000,4.000000,4.000000,4.000000,4.000000,4.000000,4.000000,4.000000,4.000000,4.000000,4.000000,100.000000,,,,,,,,,,,,,,,,,,,,,,,,,,,,
1703163762.257719,1703163762.258386,114.000000,0.000000,4186.153809,4206.282227,4273.974121,4236.025879,4135.769043,4112.179688,4237.051270,4122.948730,4128.205078,4122.436035,4619.358887,4424.358887,4382.948730,4552.179688,5701.000000,3.000000,72.000000,,,,0.000000,4.000000,4.000000,4.000000,4.000000,4.000000,4.000000,4.000000,4.000000,4.000000,4.000000,4.000000,4.000000,4.000000,4.000000,100.000000,,,,,,,,,,,,,,,,,,,,,,,,,,,,
1703163762.265527,1703163762.266094,115.000000,0.000000,4185.384766,4211.410156,4277.307617,4230.128418,4136.282227,4125.641113,4245.641113,4118.589844,4118.717773,4133.333496,4642.436035,4428.205078,4388.589844,4546.025879,6052.000000,3.000000,72.000000,,,,0.000000,4.000000,4.000000,4.000000,4.000000,4.000000,4.000000,4.000000,4.000000,4.000000,4.000000,4.000000,4.000000,4.000000,4.000000,100.000000,,,,,,,,,,,,,,,,,,,,,,,,,,,,
1703163762.273335,1703163762.273902,116.000000,0.000000,4185.641113,4211.538574,4277.307617,4226.922852,4139.487305,4123.974121,4244.102539,4116.666504,4106.538574,4120.769043,4604.230957,4430.769043,4374.871582,4539.615234,6422.000000,3.000000,72.000000,,,,0.000000,4.000000,4.000000,4.000000,4.000000,4.000000,4.000000,4.000000,4.000000,4.000000,4.000000,4.000000,4.000000,4.000000,4.000000,100.000000,,,,,,,,,,,,,,,,,29.000000,0.000000,0.656750,0.127808,-0.694946,0.263428,0.973263,-0.206080,-0.002442,-9.588268,-45.417614,64.862785
1703163762.281143,1703163762.281611,117.000000,0.000000,4181.922852,4210.512695,4274.487305,4230.641113,4137.820313,4121.666504,4242.692383,4118.974121,4113.717773,4097.692383,4588.717773,4425.000000,4363.717773,4539.743652,6170.000000,3.000000,72.000000,,,,0.000000,4.000000,4.000000,4.000000,4.000000,4.000000,4.000000,4.000000,4.000000,4.000000,4.000000,4.000000,4.000000,4.000000,4.000000,100.000000,,,,,,,,,,,,,,,,,,,,,,,,,,,,
1703163762.288952,1703163762.289419,118.000000,0.000000,4175.512695,4208.846191,4270.000000,4235.384766,4131.153809,4128.333496,4249.871582,4129.487305,4128.205078,4108.846191,4603.205078,4431.538574,4377.820313,4543.077148,5701.000000,3.000000,72.000000,,,,0.000000,4.000000,4.000000,4.000000,4.000000,4.000000,4.000000,4.000000,4.000000,4.000000,4.000000,4.000000,4.000000,4.000000,4.000000,100.000000,,,,,,,,,,,,,,,,,,,,,,,,,,,,
1703163762.296759,1703163762.297127,119.000000,0.000000,4171.153809,4204.487305,4264.358887,4230.128418,4129.487305,4128.846191,4250.897461,4143.461426,4136.025879,4135.641113,4612.692383,4431.922852,4385.256348,4541.025879,6052.000000,3.000000,72.000000,,,,0.000000,4.000000,4.000000,4.000000,4.000000,4.000000,4.000000,4.000000,4.000000,4.000000,4.000000,4.000000,4.000000,4.000000,4.000000,100.000000,,,,,,,,,,,,,,,,,,,,,,,,,,,,
1703163762.304567,1703163762.304935,120.000000,0.000000,4169.358887,4201.666504,4264.743652,4226.153809,4129.487305,4124.487305,4251.153809,4151.922852,4140.384766,4141.025879,4600.128418,4435.128418,4369.102539,4530.897461,6422.000000,3.000000,72.000000,,,,0.000000,4.000000,4.000000,4.000000,4.000000,4.000000,4.000000,4.000000,4.000000,4.000000,4.000000,4.000000,4.000000,4.000000,4.000000,100.000000,,,,,,,,,,,,,,,,,30.000000,0.000000,0.656749,0.127563,-0.694946,0.263550,0.968380,-0.198755,-0.002930,-9.412775,-45.359184,64.876511
1703163762.312376,1703163762.312643,121.000000,0.000000,4168.205078,4196.794922,4264.743652,4231.282227,4127.436035,4119.487305,4252.179688,4146.922852,4137.307617,4121.025879,4567.179688,4438.717773,4366.282227,4525.512695,6170.000000,3.000000,72.000000,,,,0.000000,4.000000,4.000000,4.000000,4.000000,4.000000,4.000000,4.000000,4.000000,4.000000,4.000000,4.000000,4.000000,4.000000,4.000000,100.000000,,,,,,,,,,,,,,,,,,,,,,,,,,,,
1703163762.320184,1703163762.320551,122.000000,0.000000,4169.871582,4191.025879,4264.358887,4226.794922,4131.538574,4113.589844,4247.307617,4139.487305,4129.230957,4113.333496,4585.128418,4433.461426,4383.589844,4539.743652,5701.000000,3.000000,72.000000,,,,0.000000,4.000000,4.000000,4.000000,4.000000,4.000000,4.000000,4.000000,4.000000,4.000000,4.000000,4.000000,4.000000,4.000000,4.000000,100.000000,,,,,,,,,,,,,,,,,,,,,,,,,,,,
1703163762.327992,1703163762.328359,123.000000,0.000000,4170.512695,4188.333496,4273.077148,4216.922852,4136.922852,4109.358887,4247.307617,4142.051270,4125.512695,4129.358887,4632.436035,4441.153809,4384.487305,4552.563965,6052.000000,3.000000,72.000000,,,,0.000000,4.000000,4.000000,4.000000,4.000000,4.000000,4.000000,4.000000,4.000000,4.000000,4.000000,4.000000,4.000000,4.000000,4.000000,100.000000,,,,,,,,,,,,,,,,,,,,,,,,,,,,
1703163762.335800,1703163762.336267,124.000000,0.000000,4171.538574,4185.512695,4277.948730,4225.256348,4129.230957,4106.282227,4248.846191,4137.948730,4122.820313,4128.974121,4623.461426,4444.230957,4370.128418,4540.897461,6422.000000,3.000000,72.000000,,,,0.000000,4.000000,4.000000,4.000000,4.000000,4.000000,4.000000,4.000000,4.000000,4.000000,4.000000,4.000000,4.000000,4.000000,4.000000,100.000000,,,,,,,,,,,,,,,,,31.000000,0.000000,0.656639,0.127625,-0.694946,0.263794,0.970822,-0.199731,-0.000488,-9.638165,-45.389935,64.805527
1703163762.343608,1703163762.344075,125.000000,0.000000,4179.871582,4185.897461,4267.820313,4235.512695,4119.743652,4103.589844,4247.436035,4124.358887,4112.179688,4110.641113,4597.051270,4438.077148,4371.410156,4532.051270,6170.000000,3.000000,72.000000,,,,0.000000,4.000000,4.000000,4.000000,4.000000,4.000000,4.000000,4.000000,4.000000,4.000000,4.000000,4.000000,4.000000,4.000000,4.000000,100.000000,,,,,,,,,,,,,,,,,,,,,,,,,,,,
1703163762.351416,1703163762.351983,126.000000,0.000000,4185.769043,4196.794922,4262.692383,4233.717773,4129.358887,4115.512695,4246.922852,4120.641113,4107.820313,4120.256348,4608.333496,4437.307617,4393.589844,4546.794922,5701.000000,3.000000,72.000000,,,,0.000000,4.000000,4.000000,4.000000,4.000000,4.000000,4.000000,4.000000,4.000000,4.000000,4.000000,4.000000,4.000000,4.000000,4.000000,100.000000,,,,,,,,,,,,,,,,,,,,,,,,,,,,
1703163762.359224,1703163762.359792,127.000000,0.000000,4176.922852,4199.743652,4268.717773,4231.538574,4142.307617,4133.205078,4249.230957,4121.025879,4110.897461,4138.205078,4606.153809,4428.333496,4393.589844,4557.436035,72.000000,3.000000,72.000000,,,,0.000000,4.000000,4.000000,4.000000,4.000000,4.000000,4.000000,4.000000,4.000000,4.000000,4.000000,4.000000,4.000000,4.000000,4.000000,100.000000,,,,,,,,,,,,,,,,,,,,,,,,,,,,
1703163762.367032,1703163762.367699,0.000000,0.000000,4164.102539,4186.282227,4263.974121,4227.948730,4135.000000,4129.615234,4249.230957,4116.025879,4111.282227,4118.846191,4580.384766,4421.666504,4364.358887,4541.410156,5447.000000,3.000000,72.000000,,,,0.000000,4.000000,4.000000,4.000000,4.000000,4.000000,4.000000,4.000000,4.000000,4.000000,4.000000,4.000000,4.000000,4.000000,4.000000,100.000000,,,,,,,,,,,,,,,,,0.000000,0.000000,0.656654,0.127625,-0.694885,0.263916,0.969845,-0.209010,-0.014650,-9.691014,-45.434273,64.874969
1703163762.374840,1703163762.375507,1.000000,0.000000,4158.589844,4180.769043,4251.666504,4217.692383,4133.589844,4124.743652,4247.563965,4121.922852,4121.153809,4107.820313,4588.846191,4419.230957,4361.282227,4522.692383,5385.000000,3.000000,72.000000,,,,0.000000,4.000000,4.000000,4.000000,4.000000,4.000000,4.000000,4.000000,4.000000,4.000000,4.000000,4.000000,4.000000,4.000000,4.000000,100.000000,,,,,,,,,,,,,,,,,,,,,,,,,,,,
1703163762.382648,1703163762.383415,2.000000,0.000000,4155.769043,4185.000000,4255.641113,4210.256348,4153.846191,4135.897461,4253.205078,4137.692383,4139.615234,4128.461426,4586.282227,4429.615234,4379.358887,4523.461426,5293.000000,3.000000,72.000000,,,,0.000000,4.000000,4.000000,4.000000,4.000000,4.000000,4.000000,4.000000,4.000000,4.000000,4.000000,4.000000,4.000000,4.000000,4.000000,100.000000,,,,,,,,,,,,,,,,,,,,,,,,,,,,
1703163762.390456,1703163762.391223,3.000000,0.000000,4157.820313,4184.871582,4266.794922,4214.615234,4153.974121,4135.897461,4256.538574,4143.077148,4148.205078,4126.025879,4567.563965,4449.358887,4379.615234,4530.000000,5232.000000,3.000000,72.000000,,,,0.000000,4.000000,4.000000,4.000000,4.000000,4.000000,4.000000,4.000000,4.000000,4.000000,4.000000,4.000000,4.000000,4.000000,4.000000,100.000000,,,,,,,,,,,,,,,,,,,,,,,,,,,,
1703163762.398264,1703163762.399131,4.000000,0.000000,4168.333496,4185.384766,4266.025879,4227.051270,4131.153809,4121.282227,4248.333496,4141.153809,4149.615234,4114.358887,4596.025879,4440.512695,4377.179688,4535.641113,4968.000000,3.000000,72.000000,,,,0.000000,4.000000,4.000000,4.000000,4.000000,4.000000,4.000000,4.000000,4.000000,4.000000,4.000000,4.000000,4.000000,4.000000,4.000000,100.000000,,,,,,,,,,,,,,,,,1.000000,0.000000,0.656646,0.127747,-0.694824,0.264038,0.966427,-0.209987,0.009767,-9.738580,-45.474178,64.770805
1703163762.406072,1703163762.406939,5.000000,0.000000,4174.743652,4187.436035,4264.487305,4238.717773,4128.974121,4118.205078,4244.230957,4148.846191,4153.461426,4132.948730,4637.436035,4432.307617,4383.205078,4538.077148,5023.000000,3.000000,72.000000,,,,0.000000,4.000000,4.000000,4.000000,4.000000,4.000000,4.000000,4.000000,4.000000,4.000000,4.000000,4.000000,4.000000,4.000000,4.000000,100.000000,,,,,,,,,,,,,,,,,,,,,,,,,,,,
1703163762.413880,1703163762.414647,6.000000,0.000000,4171.538574,4184.358887,4267.563965,4234.615234,4136.153809,4123.333496,4247.948730,4153.589844,4157.436035,4150.128418,4626.922852,4443.333496,4383.077148,4536.538574,2029.000000,3.000000,72.000000,,,,0.000000,4.000000,4.000000,4.000000,4.000000,4.000000,4.000000,4.000000,4.000000,4.000000,4.000000,4.000000,4.000000,4.000000,4.000000,100.000000,,,,,,,,,,,,,,,,,,,,,,,,,,,,
1703163762.421688,1703163762.422455,7.000000,0.000000,4169.230957,4182.436035,4265.128418,4212.948730,4131.153809,4115.897461,4248.461426,4145.128418,4146.922852,4136.282227,4599.358887,4440.384766,4380.384766,4533.717773,4620.000000,3.000000,72.000000,,,,0.000000,4.000000,4.000000,4.000000,4.000000,4.000000,4.000000,4.000000,4.000000,4.000000,4.000000,4.000000,4.000000,4.000000,4.000000,100.000000,,,,,,,,,,,,,,,,,,,,,,,,,,,,
1703163762.429496,1703163762.430163,8.000000,0.000000,4174.871582,4183.717773,4267.820313,4209.871582,4130.128418,4105.256348,4243.205078,4133.333496,4124.102539,4117.692383,4604.743652,4436.794922,4379.743652,4535.384766,5170.000000,3.000000,72.000000,,,,0.000000,4.000000,4.000000,4.000000,4.000000,4.000000,4.000000,4.000000,4.000000,4.000000,4.000000,4.000000,4.000000,4.000000,4.000000,100.000000,,,,,,,,,,,,,,,,,2.000000,0.000000,0.656841,0.127869,-0.694641,0.263977,0.966915,-0.207545,0.000977,-9.514722,-45.376762,64.643730
1703163762.437304,1703163762.437971,9.000000,0.000000,4185.256348,4186.922852,4283.333496,4235.128418,4137.051270,4111.538574,4241.025879,4124.871582,4113.077148,4126.153809,4623.461426,4440.641113,4389.102539,4549.102539,5337.000000,3.000000,72.000000,,,,0.000000,4.000000,4.000000,4.000000,4.000000,4.000000,4.000000,4.000000,4.000000,4.000000,4.000000,4.000000,4.000000,4.000000,4.000000,100.000000,,,,,,,,,,,,,,,,,,,,,,,,,,,,
1703163762.445112,1703163762.445679,10.000000,0.000000,4186.794922,4189.102539,4291.282227,4238.333496,4143.974121,4125.128418,4247.692383,4125.128418,4115.512695,4133.846191,4602.436035,4448.461426,4391.538574,4555.641113,5693.000000,3.000000,72.000000,,,,0.000000,4.000000,4.000000,4.000000,4.000000,4.000000,4.000000,4.000000,4.000000,4.000000,4.000000,4.000000,4.000000,4.000000,4.000000,100.000000,,,,,,,,,,,,,,,,,,,,,,,,,,,,
1703163762.452920,1703163762.453487,11.000000,0.000000,4179.102539,4187.948730,4279.743652,4217.948730,4140.000000,4124.743652,4250.769043,4130.641113,4118.974121,4118.846191,4570.769043,4450.512695,4373.461426,4548.461426,6050.000000,3.000000,72.000000,,,,0.000000,4.000000,4.000000,4.000000,4.000000,4.000000,4.000000,4.000000,4.000000,4.000000,4.000000,4.000000,4.000000,4.000000,4.000000,100.000000,,,,,,,,,,,,,,,,,,,,,,,,,,,,
1703163762.460729,1703163762.461195,12.000000,0.000000,4169.871582,4181.666504,4267.948730,4219.487305,4129.871582,4122.563965,4247.692383,4137.436035,4132.692383,4111.794922,4595.769043,4433.846191,4370.512695,4536.025879,6335.000000,3.000000,72.000000,,,,0.000000,4.000000,4.000000,4.000000,4.000000,4.000000,4.000000,4.000000,4.000000,4.000000,4.000000,4.000000,4.000000,4.000000,4.000000,100.000000,,,,,,,,,,,,,,,,,3.000000,0.000000,0.657030,0.127808,-0.694519,0.263855,0.964962,-0.195825,0.000977,-9.629916,-45.289085,64.729355
1703163762.468537,1703163762.469003,13.000000,0.000000,4158.717773,4171.025879,4264.615234,4226.922852,4123.333496,4125.641113,4250.897461,4146.922852,4150.128418,4128.461426,4626.666504,4426.666504,4377.436035,4520.769043,6182.000000,3.000000,72.000000,,,,0.000000,4.000000,4.000000,4.000000,4.000000,4.000000,4.000000,4.000000,4.000000,4.000000,4.000000,4.000000,4.000000,4.000000,4.000000,100.000000,,,,,,,,,,,,,,,,,,,,,,,,,,,,
1703163762.476344,1703163762.476711,14.000000,0.000000,4156.282227,4165.000000,4262.692383,4212.948730,4122.436035,4123.589844,4251.794922,4154.487305,4156.025879,4136.410156,4601.025879,4429.871582,4365.512695,4523.717773,5693.000000,3.000000,72.000000,,,,0.000000,4.000000,4.000000,4.000000,4.000000,4.000000,4.000000,4.000000,4.000000,4.000000,4.000000,4.000000,4.000000,4.000000,4.000000,100.000000,,,,,,,,,,,,,,,,,,,,,,,,,,,,
1703163762.484152,1703163762.484519,15.000000,0.000000,4167.692383,4168.205078,4260.769043,4204.743652,4127.692383,4120.256348,4250.000000,4156.410156,4154.102539,4127.307617,4585.384766,4427.820313,4357.820313,4539.743652,6050.000000,3.000000,72.000000,,,,0.000000,4.000000,4.000000,4.000000,4.000000,4.000000,4.000000,4.000000,4.000000,4.000000,4.000000,4.000000,4.000000,4.000000,4.000000,100.000000,,,,,,,,,,,,,,,,,,,,,,,,,,,,
1703163762.491961,1703163762.492227,16.000000,0.000000,4170.128418,4177.307617,4262.820313,4217.820313,4132.179688,4122.948730,4247.436035,4151.153809,4144.743652,4120.384766,4599.487305,4432.179688,4368.974121,4531.153809,0.000000,3.000000,72.000000,,,,0.000000,4.000000,4.000000,4.000000,4.000000,4.000000,4.000000,4.000000,4.000000,4.000000,4.000000,4.000000,4.000000,4.000000,4.000000,100.000000,,,,,,,,,,,,,,,,,4.000000,0.000000,0.657063,0.127686,-0.694580,0.263672,0.961543,-0.211940,0.007813,-9.683591,-45.343510,64.639755
1703163762.499769,1703163762.500035,17.000000,0.000000,4167.179688,4183.205078,4271.025879,4229.487305,4133.461426,4123.333496,4240.000000,4145.384766,4135.000000,4117.948730,4600.641113,4434.487305,4377.179688,4521.282227,0.000000,3.000000,72.000000,,,,0.000000,4.000000,4.000000,4.000000,4.000000,4.000000,4.000000,4.000000,4.000000,4.000000,4.000000,4.000000,4.000000,4.000000,4.000000,100.000000,,,,,,,,,,,,,,,,,,,,,,,,,,,,
1703163762.507577,1703163762.507743,18.000000,0.000000,4176.410156,4183.717773,4281.538574,4229.743652,4134.102539,4114.487305,4237.948730,4145.128418,4131.538574,4121.794922,4601.153809,4441.410156,4377.051270,4544.230957,0.000000,3.000000,72.000000,,,,0.000000,4.000000,4.000000,4.000000,4.000000,4.000000,4.000000,4.000000,4.000000,4.000000,4.000000,4.000000,4.000000,4.000000,4.000000,100.000000,,,,,,,,,,,,,,,,,,,,,,,,,,,,
1703163762.515385,1703163762.515551,19.000000,0.000000,4187.692383,4190.769043,4290.256348,4237.179688,4149.230957,4113.589844,4238.974121,4144.487305,4131.410156,4140.384766,4624.230957,4451.794922,4390.512695,4563.717773,0.000000,3.000000,72.000000,,,,0.000000,4.000000,4.000000,4.000000,4.000000,4.000000,4.000000,4.000000,4.000000,4.000000,4.000000,4.000000,4.000000,4.000000,4.000000,100.000000,,,,,,,,,,,,,,,,,,,,,,,,,,,,
1703163762.523193,1703163762.523259,20.000000,0.000000,4194.230957,4201.538574,4294.102539,4245.641113,4155.384766,4115.641113,4233.077148,4133.974121,4129.871582,4153.461426,4618.333496,4450.384766,4396.282227,4557.820313,0.000000,3.000000,72.000000,,,,0.000000,4.000000,4.000000,4.000000,4.000000,4.000000,4.000000,4.000000,4.000000,4.000000,4.000000,4.000000,4.000000,4.000000,4.000000,100.000000,,,,,,,,,,,,,,,,,5.000000,0.000000,0.657140,0.127625,-0.694519,0.263672,0.975217,-0.198266,-0.003418,-9.648565,-45.309158,64.859108
1703163762.531001,1703163762.531168,21.000000,0.000000,4197.563965,4205.256348,4293.717773,4238.846191,4141.282227,4108.717773,4227.948730,4122.820313,4125.256348,4141.666504,4583.333496,4454.615234,4388.205078,4553.717773,0.000000,3.000000,72.000000,,,,0.000000,4.000000,4.000000,4.000000,4.000000,4.000000,4.000000,4.000000,4.000000,4.000000,4.000000,4.000000,4.000000,4.000000,4.000000,100.000000,,,,,,,,,,,,,,,,,,,,,,,,,,,,
1703163762.538809,1703163762.538976,22.000000,0.000000,4192.948730,4199.743652,4293.077148,4232.563965,4140.897461,4113.717773,4232.051270,4127.307617,4132.307617,4139.102539,4606.538574,4449.487305,4401.153809,4559.487305,0.000000,3.000000,72.000000,,,,0.000000,4.000000,4.000000,4.000000,4.000000,4.000000,4.000000,4.000000,4.000000,4.000000,4.000000,4.000000,4.000000,4.000000,4.000000,100.000000,,,,,,,,,,,,,,,,,,,,,,,,,,,,
1703163762.546617,1703163762.546884,23.000000,0.000000,4179.487305,4182.307617,4281.666504,4227.820313,4141.666504,4128.205078,4242.820313,4135.897461,4149.230957,4158.589844,4651.153809,4431.538574,4409.615234,4555.641113,0.000000,3.000000,72.000000,,,,0.000000,4.000000,4.000000,4.000000,4.000000,4.000000,4.000000,4.000000,4.000000,4.000000,4.000000,4.000000,4.000000,4.000000,4.000000,100.000000,,,,,,,,,,,,,,,,,,,,,,,,,,,,
1703163762.554425,1703163762.554692,24.000000,0.000000,4167.948730,4166.538574,4265.256348,4212.307617,4127.948730,4130.384766,4248.205078,4140.897461,4157.948730,4156.282227,4624.487305,4430.769043,4384.743652,4541.025879,0.000000,3.000000,72.000000,,,,0.000000,4.000000,4.000000,4.000000,4.000000,4.000000,4.000000,4.000000,4.000000,4.000000,4.000000,4.000000,4.000000,4.000000,4.000000,100.000000,,,,,,,,,,,,,,,,,6.000000,0.000000,0.657272,0.127686,-0.694336,0.263794,0.975705,-0.200220,0.009767,-9.500376,-45.294910,64.906532
1703163762.562233,1703163762.562599,25.000000,0.000000,4165.384766,4164.743652,4263.974121,4208.717773,4120.128418,4126.282227,4246.153809,4146.922852,4158.077148,4134.743652,4593.717773,4432.051270,4374.230957,4532.051270,0.000000,3.000000,72.000000,,,,0.000000,4.000000,4.000000,4.000000,4.000000,4.000000,4.000000,4.000000,4.000000,4.000000,4.000000,4.000000,4.000000,4.000000,4.000000,100.000000,1.000000,75.000000,4.000000,4.000000,4.000000,4.000000,4.000000,4.000000,4.000000,4.000000,4.000000,4.000000,1.000000,4.000000,4.000000,4.000000,,,,,,,,,,,,
1703163762.570041,1703163762.570407,26.000000,0.000000,4167.820313,4166.922852,4270.256348,4219.487305,4128.974121,4130.512695,4245.641113,4154.743652,4158.589844,4132.692383,4608.205078,4434.743652,4388.205078,4534.102539,0.000000,3.000000,72.000000,,,,0.000000,4.000000,4.000000,4.000000,4.000000,4.000000,4.000000,4.000000,4.000000,4.000000,4.000000,4.000000,4.000000,4.000000,4.000000,100.000000,,,,,,,,,,,,,,,,,,,,,,,,,,,,
1703163762.577849,1703163762.578315,27.000000,0.000000,4170.641113,4173.077148,4270.000000,4218.333496,4136.153809,4131.922852,4246.538574,4158.846191,4157.051270,4145.256348,4609.871582,4436.153809,4390.128418,4541.025879,0.000000,3.000000,72.000000,,,,0.000000,4.000000,4.000000,4.000000,4.000000,4.000000,4.000000,4.000000,4.000000,4.000000,4.000000,4.000000,4.000000,4.000000,4.000000,100.000000,,,,,,,,,,,,,,,,,,,,,,,,,,,,
1703163762.585657,1703163762.586123,28.000000,0.000000,4169.487305,4182.820313,4271.025879,4216.794922,4132.948730,4125.128418,4242.692383,4151.153809,4144.871582,4136.922852,4606.282227,4427.820313,4390.641113,4541.538574,0.000000,3.000000,72.000000,,,,0.000000,4.000000,4.000000,4.000000,4.000000,4.000000,4.000000,4.000000,4.000000,4.000000,4.000000,4.000000,4.000000,4.000000,4.000000,100.000000,,,,,,,,,,,,,,,,,7.000000,0.000000,0.657300,0.127747,-0.694275,0.263855,0.963008,-0.215847,0.000000,-9.550338,-45.282085,64.865883
1703163762.593465,1703163762.594031,29.000000,0.000000,4174.743652,4184.743652,4275.769043,4226.282227,4138.333496,4122.051270,4237.051270,4141.282227,4128.974121,4117.436035,4598.461426,4438.077148,4391.538574,4539.871582,0.000000,3.000000,72.000000,,,,0.000000,4.000000,4.000000,4.000000,4.000000,4.000000,4.000000,4.000000,4.000000,4.000000,4.000000,4.000000,4.000000,4.000000,4.000000,100.000000,,,,,,,,,,,,,,,,,,,,,,,,,,,,
1703163762.601273,1703163762.601839,30.000000,0.000000,4185.769043,4188.846191,4282.948730,4234.102539,4145.512695,4120.769043,4234.615234,4134.102539,4119.102539,4113.717773,4572.436035,4448.846191,4381.922852,4545.512695,0.000000,3.000000,72.000000,,,,0.000000,4.000000,4.000000,4.000000,4.000000,4.000000,4.000000,4.000000,4.000000,4.000000,4.000000,4.000000,4.000000,4.000000,4.000000,100.000000,,,,,,,,,,,,,,,,,,,,,,,,,,,,
1703163762.609081,1703163762.609547,31.000000,0.000000,4187.563965,4201.538574,4290.769043,4237.563965,4137.051270,4111.025879,4232.307617,4122.692383,4100.897461,4110.256348,4587.563965,4441.922852,4383.333496,4545.384766,0.000000,3.000000,72.000000,,,,0.000000,4.000000,4.000000,4.000000,4.000000,4.000000,4.000000,4.000000,4.000000,4.000000,4.000000,4.000000,4.000000,4.000000,4.000000,100.000000,,,,,,,,,,,,,,,,,,,,,,,,,,,,
1703163762.616889,1703163762.617355,32.000000,0.000000,4183.333496,4207.692383,4287.307617,4231.025879,4127.948730,4097.692383,4222.692383,4107.436035,4080.769287,4089.102539,4620.000000,4433.461426,4396.282227,4533.589844,0.000000,3.000000,72.000000,,,,0.000000,4.000000,4.000000,4.000000,4.000000,4.000000,4.000000,4.000000,4.000000,4.000000,4.000000,4.000000,4.000000,4.000000,4.000000,100.000000,,,,,,,,,,,,,,,,,8.000000,0.000000,0.657341,0.127869,-0.694214,0.263855,0.973752,-0.219265,0.002930,-9.528638,-45.120544,64.762627
1703163762.624697,1703163762.625063,33.000000,0.000000,4178.589844,4204.615234,4280.641113,4216.538574,4135.641113,4095.512939,4218.974121,4100.897461,4086.923096,4083.589844,4609.230957,4425.256348,4398.333496,4530.384766,0.000000,3.000000,72.000000,,,,0.000000,4.000000,4.000000,4.000000,4.000000,4.000000,4.000000,4.000000,4.000000,4.000000,4.000000,4.000000,4.000000,4.000000,4.000000,100.000000,,,,,,,,,,,,,,,,,,,,,,,,,,,,
1703163762.632505,1703163762.632871,34.000000,0.000000,4173.205078,4201.794922,4278.461426,4209.743652,4142.051270,4101.666504,4227.692383,4110.128418,4107.948730,4109.230957,4593.333496,4428.077148,4387.948730,4531.922852,0.000000,3.000000,72.000000,,,,0.000000,4.000000,4.000000,4.000000,4.000000,4.000000,4.000000,4.000000,4.000000,4.000000,4.000000,4.000000,4.000000,4.000000,4.000000,100.000000,,,,,,,,,,,,,,,,,,,,,,,,,,,,
1703163762.640314,1703163762.640579,35.000000,0.000000,4178.974121,4205.512695,4271.410156,4223.974121,4141.153809,4113.974121,4230.384766,4129.230957,4133.846191,4141.538574,4612.692383,4430.897461,4398.717773,4539.743652,0.000000,3.000000,72.000000,,,,0.000000,4.000000,4.000000,4.000000,4.000000,4.000000,4.000000,4.000000,4.000000,4.000000,4.000000,4.000000,4.000000,4.000000,4.000000,100.000000,,,,,,,,,,,,,,,,,,,,,,,,,,,,
1703163762.648121,1703163762.648387,36.000000,0.000000,4185.000000,4203.461426,4263.974121,4235.641113,4136.025879,4125.769043,4229.615234,4143.205078,4158.461426,4152.692383,4624.358887,4427.179688,4414.615234,4553.974121,0.000000,3.000000,72.000000,,,,0.000000,4.000000,4.000000,4.000000,4.000000,4.000000,4.000000,4.000000,4.000000,4.000000,4.000000,4.000000,4.000000,4.000000,4.000000,100.000000,,,,,,,,,,,,,,,,,9.000000,0.000000,0.657314,0.128052,-0.694275,0.263672,0.974240,-0.211940,0.005372,-9.625773,-45.091824,64.786362
1703163762.655929,1703163762.656095,37.000000,0.000000,4173.077148,4188.077148,4260.897461,4223.846191,4123.717773,4124.743652,4234.487305,4141.282227,4161.922852,4148.974121,4610.256348,4425.384766,4401.922852,4545.641113,0.000000,3.000000,72.000000,,,,0.000000,4.000000,4.000000,4.000000,4.000000,4.000000,4.000000,4.000000,4.000000,4.000000,4.000000,4.000000,4.000000,4.000000,4.000000,100.000000,,,,,,,,,,,,,,,,,,,,,,,,,,,,
1703163762.663738,1703163762.663903,38.000000,0.000000,4165.384766,4179.487305,4263.205078,4215.000000,4120.000000,4123.461426,4233.205078,4138.333496,4155.769043,4137.563965,4608.077148,4423.717773,4394.358887,4539.358887,0.000000,3.000000,72.000000,,,,0.000000,4.000000,4.000000,4.000000,4.000000,4.000000,4.000000,4.000000,4.000000,4.000000,4.000000,4.000000,4.000000,4.000000,4.000000,100.000000,,,,,,,,,,,,,,,,,,,,,,,,,,,,
1703163762.671546,1703163762.671611,39.000000,0.000000,4173.077148,4182.948730,4269.487305,4216.153809,4127.948730,4128.205078,4232.436035,4142.563965,4151.153809,4125.000000,4611.666504,4432.692383,4400.128418,4557.051270,0.000000,3.000000,72.000000,,,,0.000000,4.000000,4.000000,4.000000,4.000000,4.000000,4.000000,4.000000,4.000000,4.000000,4.000000,4.000000,4.000000,4.000000,4.000000,100.000000,,,,,,,,,,,,,,,,,,,,,,,,,,,,
1703163762.679354,1703163762.679519,40.000000,0.000000,4172.563965,4181.794922,4270.641113,4212.820313,4125.384766,4126.025879,4235.000000,4139.102539,4138.077148,4130.128418,4605.897461,4432.436035,4393.589844,4543.846191,0.000000,3.000000,72.000000,,,,0.000000,4.000000,4.000000,4.000000,4.000000,4.000000,4.000000,4.000000,4.000000,4.000000,4.000000,4.000000,4.000000,4.000000,4.000000,100.000000,,,,,,,,,,,,,,,,,10.000000,0.000000,0.657323,0.128052,-0.694336,0.263489,0.967892,-0.204615,0.006348,-9.646530,-45.165974,64.774391
1703163762.687162,1703163762.687328,41.000000,0.000000,4165.384766,4179.230957,4266.538574,4210.128418,4114.871582,4118.333496,4232.179688,4127.307617,4118.717773,4135.256348,4591.794922,4416.153809,4381.794922,4514.615234,0.000000,3.000000,72.000000,,,,0.000000,4.000000,4.000000,4.000000,4.000000,4.000000,4.000000,4.000000,4.000000,4.000000,4.000000,4.000000,4.000000,4.000000,4.000000,100.000000,,,,,,,,,,,,,,,,,,,,,,,,,,,,
1703163762.694970,1703163762.695236,42.000000,0.000000,4172.563965,4189.871582,4274.358887,4219.230957,4126.922852,4119.230957,4226.410156,4120.512695,4105.769043,4123.717773,4592.820313,4425.000000,4384.102539,4537.307617,0.000000,3.000000,72.000000,,,,0.000000,4.000000,4.000000,4.000000,4.000000,4.000000,4.000000,4.000000,4.000000,4.000000,4.000000,4.000000,4.000000,4.000000,4.000000,100.000000,,,,,,,,,,,,,,,,,,,,,,,,,,,,
1703163762.702778,1703163762.703044,43.000000,0.000000,4189.230957,4209.230957,4290.128418,4234.358887,4151.666504,4124.743652,4218.974121,4121.153809,4109.102539,4118.333496,4609.743652,4442.436035,4400.000000,4568.461426,0.000000,3.000000,72.000000,,,,0.000000,4.000000,4.000000,4.000000,4.000000,4.000000,4.000000,4.000000,4.000000,4.000000,4.000000,4.000000,4.000000,4.000000,4.000000,100.000000,,,,,,,,,,,,,,,,,,,,,,,,,,,,
1703163762.710586,1703163762.710952,44.000000,0.000000,4201.282227,4218.974121,4295.512695,4246.922852,4145.769043,4115.256348,4215.641113,4121.666504,4115.256348,4121.538574,4617.563965,4440.384766,4410.641113,4561.153809,0.000000,3.000000,72.000000,,,,0.000000,4.000000,4.000000,4.000000,4.000000,4.000000,4.000000,4.000000,4.000000,4.000000,4.000000,4.000000,4.000000,4.000000,4.000000,100.000000,,,,,,,,,,,,,,,,,11.000000,0.000000,0.657628,0.127686,-0.694092,0.263550,0.969357,-0.199243,0.002930,-9.848543,-45.249374,64.796951
1703163762.718394,1703163762.718760,45.000000,0.000000,4206.922852,4224.358887,4298.461426,4256.410156,4134.102539,4108.717773,4216.410156,4121.282227,4112.820313,4125.641113,4622.563965,4434.743652,4414.230957,4565.000000,0.000000,3.000000,72.000000,,,,0.000000,4.000000,4.000000,4.000000,4.000000,4.000000,4.000000,4.000000,4.000000,4.000000,4.000000,4.000000,4.000000,4.000000,4.000000,100.000000,,,,,,,,,,,,,,,,,,,,,,,,,,,,
1703163762.726202,1703163762.726668,46.000000,0.000000,4200.384766,4221.666504,4296.410156,4248.461426,4138.974121,4113.589844,4215.256348,4119.871582,4106.922852,4121.282227,4599.358887,4428.846191,4407.948730,4571.666504,0.000000,3.000000,72.000000,,,,0.000000,4.000000,4.000000,4.000000,4.000000,4.000000,4.000000,4.000000,4.000000,4.000000,4.000000,4.000000,4.000000,4.000000,4.000000,100.000000,,,,,,,,,,,,,,,,,,,,,,,,,,,,
1703163762.734010,1703163762.734476,47.000000,0.000000,4185.256348,4206.410156,4281.538574,4229.487305,4121.153809,4110.000000,4214.102539,4115.128418,4104.230957,4101.153809,4565.641113,4429.358887,4394.358887,4544.102539,0.000000,3.000000,72.000000,,,,0.000000,4.000000,4.000000,4.000000,4.000000,4.000000,4.000000,4.000000,4.000000,4.000000,4.000000,4.000000,4.000000,4.000000,4.000000,100.000000,,,,,,,,,,,,,,,,,,,,,,,,,,,,
1703163762.741818,1703163762.742384,48.000000,0.000000,4189.102539,4206.282227,4277.307617,4232.948730,4109.615234,4110.384766,4213.461426,4117.948730,4111.794922,4104.743652,4594.871582,4428.589844,4406.153809,4542.820313,0.000000,3.000000,72.000000,,,,0.000000,4.000000,4.000000,4.000000,4.000000,4.000000,4.000000,4.000000,4.000000,4.000000,4.000000,4.000000,4.000000,4.000000,4.000000,100.000000,,,,,,,,,,,,,,,,,12.000000,0.000000,0.657740,0.127441,-0.694031,0.263550,0.984495,-0.206568,0.000977,-9.730356,-45.241104,64.767258
1703163762.749626,1703163762.750192,49.000000,0.000000,4202.051270,4212.051270,4285.128418,4249.358887,4143.333496,4125.384766,4215.641113,4129.615234,4125.512695,4138.589844,4650.384766,4424.102539,4436.794922,4580.641113,0.000000,3.000000,72.000000,,,,0.000000,4.000000,4.000000,4.000000,4.000000,4.000000,4.000000,4.000000,4.000000,4.000000,4.000000,4.000000,4.000000,4.000000,4.000000,100.000000,,,,,,,,,,,,,,,,,,,,,,,,,,,,
1703163762.757434,1703163762.758100,50.000000,0.000000,4195.000000,4198.077148,4282.563965,4234.743652,4165.000000,4129.358887,4219.743652,4140.897461,4136.410156,4150.384766,4652.692383,4432.051270,4439.358887,4590.512695,0.000000,3.000000,72.000000,,,,0.000000,4.000000,4.000000,4.000000,4.000000,4.000000,4.000000,4.000000,4.000000,4.000000,4.000000,4.000000,4.000000,4.000000,4.000000,100.000000,,,,,,,,,,,,,,,,,,,,,,,,,,,,
1703163762.765242,1703163762.765908,51.000000,0.000000,4181.794922,4176.922852,4275.512695,4205.641113,4146.794922,4122.948730,4219.743652,4149.358887,4144.230957,4146.153809,4613.974121,4436.538574,4420.641113,4567.051270,0.000000,3.000000,72.000000,,,,0.000000,4.000000,4.000000,4.000000,4.000000,4.000000,4.000000,4.000000,4.000000,4.000000,4.000000,4.000000,4.000000,4.000000,4.000000,100.000000,,,,,,,,,,,,,,,,,,,,,,,,,,,,
1703163762.773050,1703163762.773716,52.000000,0.000000,4176.025879,4160.641113,4274.358887,4210.769043,4130.897461,4124.615234,4218.846191,4151.282227,4145.897461,4143.333496,4602.179688,4441.153809,4422.948730,4555.641113,0.000000,3.000000,72.000000,,,,0.000000,4.000000,4.000000,4.000000,4.000000,4.000000,4.000000,4.000000,4.000000,4.000000,4.000000,4.000000,4.000000,4.000000,4.000000,100.000000,,,,,,,,,,,,,,,,,13.000000,0.000000,0.657712,0.127380,-0.694092,0.263489,0.961543,-0.190941,-0.002930,-9.773987,-45.216995,64.640533
1703163762.780858,1703163762.781524,53.000000,0.000000,4169.615234,4148.333496,4266.794922,4234.615234,4124.871582,4122.051270,4217.820313,4137.692383,4132.436035,4134.871582,4634.358887,4440.000000,4431.922852,4562.436035,0.000000,3.000000,72.000000,,,,0.000000,4.000000,4.000000,4.000000,4.000000,4.000000,4.000000,4.000000,4.000000,4.000000,4.000000,4.000000,4.000000,4.000000,4.000000,100.000000,,,,,,,,,,,,,,,,,,,,,,,,,,,,
1703163762.788666,1703163762.789232,54.000000,0.000000,4172.820313,4149.358887,4266.794922,4236.538574,4123.717773,4110.384766,4217.436035,4121.666504,4119.230957,4137.436035,4662.820313,4427.179688,4431.153809,4562.820313,0.000000,3.000000,72.000000,,,,0.000000,4.000000,4.000000,4.000000,4.000000,4.000000,4.000000,4.000000,4.000000,4.000000,4.000000,4.000000,4.000000,4.000000,4.000000,100.000000,,,,,,,,,,,,,,,,,,,,,,,,,,,,
1703163762.796474,1703163762.797040,55.000000,0.000000,4184.871582,4156.922852,4280.641113,4219.358887,4129.743652,4106.282227,4211.666504,4118.077148,4118.589844,4147.692383,4642.436035,4432.692383,4433.461426,4555.512695,0.000000,3.000000,72.000000,,,,0.000000,4.000000,4.000000,4.000000,4.000000,4.000000,4.000000,4.000000,4.000000,4.000000,4.000000,4.000000,4.000000,4.000000,4.000000,100.000000,,,,,,,,,,,,,,,,,,,,,,,,,,,,
1703163762.804282,1703163762.804748,56.000000,0.000000,4185.256348,4158.333496,4288.461426,4215.897461,4135.641113,4114.102539,4204.615234,4120.512695,4123.589844,4145.128418,4620.641113,4440.641113,4440.128418,4557.051270,0.000000,3.000000,72.000000,,,,0.000000,4.000000,4.000000,4.000000,4.000000,4.000000,4.000000,4.000000,4.000000,4.000000,4.000000,4.000000,4.000000,4.000000,4.000000,100.000000,,,,,,,,,,,,,,,,,14.000000,0.000000,0.657623,0.127502,-0.694153,0.263489,0.961543,-0.196801,0.005860,-9.613255,-45.178627,64.709816
1703163762.812091,1703163762.812656,57.000000,0.000000,4187.436035,4167.563965,4291.153809,4228.974121,4148.974121,4123.461426,4207.179688,4126.025879,4128.205078,4143.205078,4642.820313,4441.538574,4441.153809,4574.230957,0.000000,3.000000,72.000000,,,,0.000000,4.000000,4.000000,4.000000,4.000000,4.000000,4.000000,4.000000,4.000000,4.000000,4.000000,4.000000,4.000000,4.000000,4.000000,100.000000,,,,,,,,,,,,,,,,,,,,,,,,,,,,
1703163762.819898,1703163762.820464,58.000000,0.000000,4192.563965,4170.641113,4290.641113,4228.846191,4160.128418,4125.769043,4208.077148,4129.102539,4127.692383,4142.563965,4655.256348,4439.871582,4432.948730,4575.769043,0.000000,3.000000,72.000000,,,,0.000000,4.000000,4.000000,4.000000,4.000000,4.000000,4.000000,4.000000,4.000000,4.000000,4.000000,4.000000,4.000000,4.000000,4.000000,100.000000,,,,,,,,,,,,,,,,,,,,,,,,,,,,
1703163762.827706,1703163762.828272,59.000000,0.000000,4181.025879,4153.461426,4278.205078,4215.769043,4139.102539,4121.666504,4205.000000,4122.051270,4120.128418,4121.282227,4614.743652,4422.820313,4425.641113,4558.205078,0.000000,3.000000,72.000000,,,,0.000000,4.000000,4.000000,4.000000,4.000000,4.000000,4.000000,4.000000,4.000000,4.000000,4.000000,4.000000,4.000000,4.000000,4.000000,100.000000,,,,,,,,,,,,,,,,,,,,,,,,,,,,
1703163762.835515,1703163762.835980,60.000000,0.000000,4166.282227,4135.641113,4264.487305,4212.051270,4115.641113,4118.333496,4211.410156,4118.589844,4111.922852,4099.358887,4572.563965,4419.871582,4415.000000,4546.410156,0.000000,3.000000,72.000000,,,,0.000000,4.000000,4.000000,4.000000,4.000000,4.000000,4.000000,4.000000,4.000000,4.000000,4.000000,4.000000,4.000000,4.000000,4.000000,100.000000,,,,,,,,,,,,,,,,,15.000000,0.000000,0.657488,0.127869,-0.694214,0.263489,0.968380,-0.199243,0.008790,-9.801929,-45.110767,64.538834
1703163762.843323,1703163762.843788,61.000000,0.000000,4168.077148,4135.641113,4264.487305,4225.000000,4133.205078,4129.102539,4218.461426,4129.358887,4122.563965,4108.846191,4602.307617,4429.487305,4411.666504,4544.487305,0.000000,3.000000,72.000000,,,,0.000000,4.000000,4.000000,4.000000,4.000000,4.000000,4.000000,4.000000,4.000000,4.000000,4.000000,4.000000,4.000000,4.000000,4.000000,100.000000,,,,,,,,,,,,,,,,,,,,,,,,,,,,
1703163762.851131,1703163762.851497,62.000000,0.000000,4173.077148,4144.102539,4272.307617,4232.307617,4143.589844,4137.820313,4216.538574,4139.230957,4135.897461,4125.641113,4653.205078,4425.128418,4424.615234,4553.974121,0.000000,3.000000,72.000000,,,,0.000000,4.000000,4.000000,4.000000,4.000000,4.000000,4.000000,4.000000,4.000000,4.000000,4.000000,4.000000,4.000000,4.000000,4.000000,100.000000,,,,,,,,,,,,,,,,,,,,,,,,,,,,
1703163762.858939,1703163762.859304,63.000000,0.000000,4169.102539,4140.256348,4275.897461,4215.128418,4122.948730,4126.410156,4214.102539,4137.307617,4129.743652,4125.000000,4637.563965,4427.051270,4427.948730,4551.153809,0.000000,3.000000,72.000000,,,,0.000000,4.000000,4.000000,4.000000,4.000000,4.000000,4.000000,4.000000,4.000000,4.000000,4.000000,4.000000,4.000000,4.000000,4.000000,100.000000,,,,,,,,,,,,,,,,,,,,,,,,,,,,
1703163762.866747,1703163762.867013,64.000000,0.000000,4173.077148,4137.051270,4276.282227,4204.615234,4123.205078,4118.974121,4214.358887,4136.025879,4128.589844,4127.692383,4616.922852,4434.102539,4423.333496,4538.461426,5447.000000,3.000000,72.000000,,,,0.000000,4.000000,4.000000,4.000000,4.000000,4.000000,4.000000,4.000000,4.000000,4.000000,4.000000,4.000000,4.000000,4.000000,4.000000,100.000000,,,,,,,,,,,,,,,,,16.000000,0.000000,0.657497,0.128235,-0.694092,0.263611,0.970333,-0.215358,0.000977,-9.871737,-44.916355,64.501617
1703163762.874555,1703163762.874921,65.000000,0.000000,4185.384766,4147.820313,4279.743652,4222.692383,4132.820313,4122.820313,4217.692383,4138.589844,4133.974121,4141.794922,4637.307617,4436.410156,4428.205078,4553.846191,5385.000000,3.000000,72.000000,,,,0.000000,4.000000,4.000000,4.000000,4.000000,4.000000,4.000000,4.000000,4.000000,4.000000,4.000000,4.000000,4.000000,4.000000,4.000000,100.000000,,,,,,,,,,,,,,,,,,,,,,,,,,,,
1703163762.882363,1703163762.882729,66.000000,0.000000,4192.563965,4154.743652,4287.436035,4240.897461,4124.615234,4115.769043,4213.077148,4137.692383,4131.025879,4151.282227,4650.641113,4438.461426,4439.358887,4586.794922,5293.000000,3.000000,72.000000,,,,0.000000,4.000000,4.000000,4.000000,4.000000,4.000000,4.000000,4.000000,4.000000,4.000000,4.000000,4.000000,4.000000,4.000000,4.000000,100.000000,,,,,,,,,,,,,,,,,,,,,,,,,,,,
1703163762.890171,1703163762.890637,67.000000,0.000000,4197.948730,4152.948730,4293.333496,4237.051270,4118.077148,4102.436035,4204.230957,4134.871582,4126.153809,4147.179688,4647.436035,4442.820313,4439.615234,4586.025879,5230.000000,3.000000,72.000000,,,,0.000000,4.000000,4.000000,4.000000,4.000000,4.000000,4.000000,4.000000,4.000000,4.000000,4.000000,4.000000,4.000000,4.000000,4.000000,100.000000,,,,,,,,,,,,,,,,,,,,,,,,,,,,
1703163762.897979,1703163762.898445,68.000000,0.000000,4200.256348,4158.846191,4297.692383,4228.846191,4127.436035,4101.025879,4205.512695,4136.025879,4129.487305,4145.641113,4661.153809,4454.615234,4441.666504,4568.589844,4978.000000,3.000000,72.000000,,,,0.000000,4.000000,4.000000,4.000000,4.000000,4.000000,4.000000,4.000000,4.000000,4.000000,4.000000,4.000000,4.000000,4.000000,4.000000,100.000000,,,,,,,,,,,,,,,,,17.000000,0.000000,0.657576,0.128235,-0.693970,0.263733,0.971798,-0.209010,-0.001465,-9.901230,-44.924721,64.568123
