title:عمار دواء, start timestamp:1703503580.279119, stop timestamp:1703503591.046424, headset type:EPOCX, headset serial:E50206EF, headset firmware:720, channels:67, sampling rate:eeg_128;mot_32, samples:1380      , version:2.2, 
Timestamp,OriginalTimestamp,EEG.Counter,EEG.Interpolated,EEG.AF3,EEG.F7,EEG.F3,EEG.FC5,EEG.T7,EEG.P7,EEG.O1,EEG.O2,EEG.P8,EEG.T8,EEG.FC6,EEG.F4,EEG.F8,EEG.AF4,EEG.RawCq,EEG.Battery,EEG.BatteryPercent,MarkerIndex,MarkerType,MarkerValueInt,EEG.MarkerHardware,CQ.AF3,CQ.F7,CQ.F3,CQ.FC5,CQ.T7,CQ.P7,CQ.O1,CQ.O2,CQ.P8,CQ.T8,CQ.FC6,CQ.F4,CQ.F8,CQ.AF4,CQ.Overall,EQ.SampleRateQuality,EQ.OVERALL,EQ.AF3,EQ.F7,EQ.F3,EQ.FC5,EQ.T7,EQ.P7,EQ.O1,EQ.O2,EQ.P8,EQ.T8,EQ.FC6,EQ.F4,EQ.F8,EQ.AF4,MOT.CounterMems,MOT.InterpolatedMems,MOT.Q0,MOT.Q1,MOT.Q2,MOT.Q3,MOT.AccX,MOT.AccY,MOT.AccZ,MOT.MagX,MOT.MagY,MOT.MagZ
1703503580.279119,1703503580.279491,126.000000,0.000000,4245.128418,4240.512695,4282.820313,4257.820313,4247.051270,4249.102539,4262.820313,4276.282227,4266.666504,4257.820313,4496.025879,4469.358887,4342.563965,4424.871582,6078.000000,3.000000,62.000000,,,,0.000000,4.000000,4.000000,4.000000,4.000000,4.000000,4.000000,4.000000,4.000000,4.000000,4.000000,4.000000,4.000000,4.000000,4.000000,100.000000,,,,,,,,,,,,,,,,,,,,,,,,,,,,
1703503580.286927,1703503580.287199,127.000000,0.000000,4248.205078,4245.769043,4286.922852,4259.743652,4252.179688,4251.282227,4263.333496,4268.717773,4258.717773,4252.692383,4486.922852,4467.436035,4336.410156,4420.128418,61.000000,3.000000,61.000000,,,,0.000000,4.000000,4.000000,4.000000,4.000000,4.000000,4.000000,4.000000,4.000000,4.000000,4.000000,4.000000,4.000000,4.000000,4.000000,100.000000,,,,,,,,,,,,,,,,,,,,,,,,,,,,
1703503580.294735,1703503580.295107,0.000000,0.000000,4248.846191,4246.410156,4282.179688,4258.333496,4250.256348,4250.512695,4262.820313,4262.948730,4254.615234,4246.153809,4483.077148,4460.897461,4331.282227,4412.948730,5280.000000,3.000000,61.000000,,,,0.000000,4.000000,4.000000,4.000000,4.000000,4.000000,4.000000,4.000000,4.000000,4.000000,4.000000,4.000000,4.000000,4.000000,4.000000,100.000000,,,,,,,,,,,,,,,,,0.000000,0.000000,0.434032,0.523193,-0.452454,0.577209,0.987914,-0.075204,0.044439,-13.901382,-39.695847,61.761131
1703503580.302543,1703503580.302915,1.000000,0.000000,4245.384766,4242.051270,4277.051270,4250.256348,4244.230957,4247.436035,4263.077148,4251.538574,4245.256348,4235.128418,4482.948730,4456.922852,4320.512695,4413.589844,5526.000000,3.000000,61.000000,,,,0.000000,4.000000,4.000000,4.000000,4.000000,4.000000,4.000000,4.000000,4.000000,4.000000,4.000000,4.000000,4.000000,4.000000,4.000000,100.000000,,,,,,,,,,,,,,,,,,,,,,,,,,,,
1703503580.310351,1703503580.310724,2.000000,0.000000,4250.512695,4244.358887,4283.333496,4251.922852,4247.563965,4252.948730,4265.641113,4244.487305,4233.717773,4227.179688,4486.282227,4455.256348,4291.922852,4417.563965,5425.000000,3.000000,61.000000,,,,0.000000,4.000000,4.000000,4.000000,4.000000,4.000000,4.000000,4.000000,4.000000,4.000000,4.000000,4.000000,4.000000,4.000000,4.000000,100.000000,,,,,,,,,,,,,,,,,,,,,,,,,,,,
1703503580.318159,1703503580.318631,3.000000,0.000000,4261.922852,4251.410156,4294.230957,4259.102539,4253.205078,4265.000000,4274.358887,4257.179688,4238.589844,4234.358887,4501.410156,4463.077148,4270.897461,4426.666504,5399.000000,3.000000,61.000000,,,,0.000000,4.000000,4.000000,4.000000,4.000000,4.000000,4.000000,4.000000,4.000000,4.000000,4.000000,4.000000,4.000000,4.000000,4.000000,100.000000,,,,,,,,,,,,,,,,,,,,,,,,,,,,
1703503580.325967,1703503580.326539,4.000000,0.000000,4261.410156,4249.743652,4297.179688,4253.589844,4249.487305,4264.358887,4280.897461,4266.153809,4245.256348,4243.333496,4512.563965,4474.102539,4263.589844,4433.205078,5313.000000,3.000000,61.000000,,,,0.000000,4.000000,4.000000,4.000000,4.000000,4.000000,4.000000,4.000000,4.000000,4.000000,4.000000,4.000000,4.000000,4.000000,4.000000,100.000000,,,,,,,,,,,,,,,,,1.000000,0.000000,0.433720,0.523438,-0.452393,0.577271,0.998657,-0.071786,0.049322,-13.844578,-39.592926,61.718353
1703503580.333775,1703503580.334347,5.000000,0.000000,4247.948730,4240.512695,4288.205078,4241.153809,4244.615234,4254.102539,4271.410156,4254.230957,4236.410156,4237.436035,4503.205078,4465.384766,4252.179688,4421.410156,4929.000000,3.000000,61.000000,,,,0.000000,4.000000,4.000000,4.000000,4.000000,4.000000,4.000000,4.000000,4.000000,4.000000,4.000000,4.000000,4.000000,4.000000,4.000000,100.000000,,,,,,,,,,,,,,,,,,,,,,,,,,,,
1703503580.341583,1703503580.342155,6.000000,0.000000,4243.974121,4239.871582,4280.128418,4239.615234,4244.871582,4254.102539,4259.871582,4248.846191,4232.051270,4229.230957,4489.743652,4447.051270,4248.974121,4409.615234,4001.000000,3.000000,61.000000,,,,0.000000,4.000000,4.000000,4.000000,4.000000,4.000000,4.000000,4.000000,4.000000,4.000000,4.000000,4.000000,4.000000,4.000000,4.000000,100.000000,,,,,,,,,,,,,,,,,,,,,,,,,,,,
1703503580.349391,1703503580.349863,7.000000,0.000000,4247.051270,4246.410156,4278.333496,4244.102539,4249.102539,4261.153809,4262.563965,4259.743652,4244.358887,4232.307617,4490.000000,4445.000000,4260.384766,4411.794922,5025.000000,3.000000,61.000000,,,,0.000000,4.000000,4.000000,4.000000,4.000000,4.000000,4.000000,4.000000,4.000000,4.000000,4.000000,4.000000,4.000000,4.000000,4.000000,100.000000,,,,,,,,,,,,,,,,,,,,,,,,,,,,
1703503580.357199,1703503580.357671,8.000000,0.000000,4238.077148,4242.436035,4270.384766,4243.717773,4254.358887,4259.743652,4264.358887,4265.128418,4256.410156,4243.205078,4499.102539,4451.410156,4266.922852,4412.051270,4984.000000,3.000000,61.000000,,,,0.000000,4.000000,4.000000,4.000000,4.000000,4.000000,4.000000,4.000000,4.000000,4.000000,4.000000,4.000000,4.000000,4.000000,4.000000,100.000000,,,,,,,,,,,,,,,,,2.000000,0.000000,0.433532,0.523804,-0.452148,0.577271,0.985960,-0.064949,0.047369,-13.726787,-39.650303,61.663181
1703503580.365007,1703503580.365379,9.000000,0.000000,4228.717773,4233.461426,4267.179688,4240.769043,4255.000000,4251.922852,4260.897461,4264.230957,4262.820313,4253.846191,4502.692383,4454.487305,4265.897461,4407.436035,5504.000000,3.000000,61.000000,,,,0.000000,4.000000,4.000000,4.000000,4.000000,4.000000,4.000000,4.000000,4.000000,4.000000,4.000000,4.000000,4.000000,4.000000,4.000000,100.000000,,,,,,,,,,,,,,,,,,,,,,,,,,,,
1703503580.372815,1703503580.373187,10.000000,0.000000,4236.794922,4237.948730,4277.948730,4246.666504,4257.436035,4250.256348,4262.179688,4266.538574,4267.820313,4256.153809,4500.512695,4456.666504,4271.794922,4407.563965,6078.000000,3.000000,61.000000,,,,0.000000,4.000000,4.000000,4.000000,4.000000,4.000000,4.000000,4.000000,4.000000,4.000000,4.000000,4.000000,4.000000,4.000000,4.000000,100.000000,,,,,,,,,,,,,,,,,,,,,,,,,,,,
1703503580.380623,1703503580.380895,11.000000,0.000000,4246.666504,4249.102539,4282.820313,4260.000000,4261.025879,4253.077148,4266.153809,4272.820313,4267.948730,4249.487305,4502.436035,4458.974121,4281.538574,4412.307617,6339.000000,3.000000,61.000000,,,,0.000000,4.000000,4.000000,4.000000,4.000000,4.000000,4.000000,4.000000,4.000000,4.000000,4.000000,4.000000,4.000000,4.000000,4.000000,100.000000,,,,,,,,,,,,,,,,,,,,,,,,,,,,
1703503580.388431,1703503580.388803,12.000000,0.000000,4249.743652,4247.692383,4282.692383,4261.794922,4253.589844,4249.615234,4270.128418,4278.205078,4266.153809,4247.436035,4504.615234,4462.563965,4283.846191,4416.794922,6863.000000,3.000000,61.000000,,,,0.000000,4.000000,4.000000,4.000000,4.000000,4.000000,4.000000,4.000000,4.000000,4.000000,4.000000,4.000000,4.000000,4.000000,4.000000,100.000000,,,,,,,,,,,,,,,,,3.000000,0.000000,0.433535,0.524109,-0.452026,0.577087,0.992309,-0.069833,0.048834,-13.987441,-39.635273,61.630199
1703503580.396239,1703503580.396611,13.000000,0.000000,4256.666504,4245.000000,4290.897461,4263.077148,4247.179688,4248.974121,4273.974121,4279.230957,4264.871582,4258.077148,4507.563965,4472.692383,4290.512695,4429.487305,7244.000000,3.000000,61.000000,,,,0.000000,4.000000,4.000000,4.000000,4.000000,4.000000,4.000000,4.000000,4.000000,4.000000,4.000000,4.000000,4.000000,4.000000,4.000000,100.000000,,,,,,,,,,,,,,,,,,,,,,,,,,,,
1703503580.404047,1703503580.404519,14.000000,0.000000,4266.538574,4256.922852,4301.282227,4277.307617,4253.974121,4257.948730,4276.666504,4275.769043,4265.384766,4265.256348,4519.102539,4486.153809,4307.436035,4444.615234,6078.000000,3.000000,61.000000,,,,0.000000,4.000000,4.000000,4.000000,4.000000,4.000000,4.000000,4.000000,4.000000,4.000000,4.000000,4.000000,4.000000,4.000000,4.000000,100.000000,,,,,,,,,,,,,,,,,,,,,,,,,,,,
1703503580.411856,1703503580.412327,15.000000,0.000000,4273.589844,4267.179688,4306.410156,4285.384766,4262.563965,4263.589844,4279.358887,4268.974121,4261.025879,4254.487305,4521.282227,4492.051270,4314.743652,4446.410156,6339.000000,3.000000,61.000000,,,,0.000000,4.000000,4.000000,4.000000,4.000000,4.000000,4.000000,4.000000,4.000000,4.000000,4.000000,4.000000,4.000000,4.000000,4.000000,100.000000,,,,,,,,,,,,,,,,,,,,,,,,,,,,
1703503580.419664,1703503580.420235,16.000000,0.000000,4277.820313,4263.974121,4308.461426,4280.769043,4261.922852,4263.333496,4280.384766,4262.563965,4251.282227,4244.743652,4510.000000,4490.384766,4310.256348,4444.230957,0.000000,3.000000,61.000000,,,,0.000000,4.000000,4.000000,4.000000,4.000000,4.000000,4.000000,4.000000,4.000000,4.000000,4.000000,4.000000,4.000000,4.000000,4.000000,100.000000,,,,,,,,,,,,,,,,,4.000000,0.000000,0.433468,0.524231,-0.452026,0.577026,0.991820,-0.070321,0.049811,-14.022031,-39.688412,61.550510
1703503580.427472,1703503580.428043,17.000000,0.000000,4277.563965,4260.256348,4309.487305,4279.743652,4256.153809,4263.077148,4280.000000,4259.871582,4244.743652,4243.589844,4502.692383,4483.717773,4305.256348,4441.666504,0.000000,3.000000,61.000000,,,,0.000000,4.000000,4.000000,4.000000,4.000000,4.000000,4.000000,4.000000,4.000000,4.000000,4.000000,4.000000,4.000000,4.000000,4.000000,100.000000,,,,,,,,,,,,,,,,,,,,,,,,,,,,
1703503580.435280,1703503580.435951,18.000000,0.000000,4272.436035,4264.102539,4306.666504,4282.948730,4254.615234,4265.256348,4278.717773,4262.820313,4246.410156,4237.820313,4501.025879,4475.512695,4303.077148,4433.974121,0.000000,3.000000,61.000000,,,,0.000000,4.000000,4.000000,4.000000,4.000000,4.000000,4.000000,4.000000,4.000000,4.000000,4.000000,4.000000,4.000000,4.000000,4.000000,100.000000,,,,,,,,,,,,,,,,,,,,,,,,,,,,
1703503580.443088,1703503580.443759,19.000000,0.000000,4266.538574,4264.230957,4299.358887,4279.358887,4262.436035,4270.641113,4278.974121,4273.974121,4258.205078,4241.153809,4503.077148,4471.538574,4307.563965,4429.871582,0.000000,3.000000,61.000000,,,,0.000000,4.000000,4.000000,4.000000,4.000000,4.000000,4.000000,4.000000,4.000000,4.000000,4.000000,4.000000,4.000000,4.000000,4.000000,100.000000,,,,,,,,,,,,,,,,,,,,,,,,,,,,
1703503580.450896,1703503580.451467,20.000000,0.000000,4263.846191,4254.358887,4294.871582,4275.256348,4266.282227,4275.512695,4281.282227,4282.692383,4268.077148,4252.948730,4507.820313,4472.820313,4314.102539,4430.256348,0.000000,3.000000,61.000000,,,,0.000000,4.000000,4.000000,4.000000,4.000000,4.000000,4.000000,4.000000,4.000000,4.000000,4.000000,4.000000,4.000000,4.000000,4.000000,100.000000,,,,,,,,,,,,,,,,,5.000000,0.000000,0.433508,0.524414,-0.452087,0.576782,0.994262,-0.062508,0.051764,-13.919827,-39.736237,61.512127
1703503580.458704,1703503580.459275,21.000000,0.000000,4260.000000,4246.666504,4296.282227,4275.769043,4263.717773,4275.384766,4282.563965,4282.436035,4270.384766,4253.205078,4508.974121,4476.538574,4315.512695,4431.794922,0.000000,3.000000,61.000000,,,,0.000000,4.000000,4.000000,4.000000,4.000000,4.000000,4.000000,4.000000,4.000000,4.000000,4.000000,4.000000,4.000000,4.000000,4.000000,100.000000,,,,,,,,,,,,,,,,,,,,,,,,,,,,
1703503580.466512,1703503580.466983,22.000000,0.000000,4257.948730,4247.563965,4294.358887,4276.538574,4265.384766,4271.922852,4281.922852,4281.410156,4267.948730,4246.922852,4501.153809,4470.384766,4313.461426,4429.743652,0.000000,3.000000,61.000000,,,,0.000000,4.000000,4.000000,4.000000,4.000000,4.000000,4.000000,4.000000,4.000000,4.000000,4.000000,4.000000,4.000000,4.000000,4.000000,100.000000,,,,,,,,,,,,,,,,,,,,,,,,,,,,
1703503580.474320,1703503580.474791,23.000000,0.000000,4258.077148,4249.230957,4285.128418,4276.666504,4267.307617,4268.077148,4279.487305,4280.641113,4268.077148,4252.307617,4497.820313,4460.512695,4314.871582,4426.282227,0.000000,3.000000,61.000000,,,,0.000000,4.000000,4.000000,4.000000,4.000000,4.000000,4.000000,4.000000,4.000000,4.000000,4.000000,4.000000,4.000000,4.000000,4.000000,100.000000,,,,,,,,,,,,,,,,,,,,,,,,,,,,
1703503580.482128,1703503580.482499,24.000000,0.000000,4254.358887,4245.897461,4279.102539,4273.461426,4266.538574,4264.615234,4274.871582,4280.512695,4270.512695,4258.077148,4505.897461,4465.641113,4318.846191,4426.025879,0.000000,3.000000,61.000000,,,,0.000000,4.000000,4.000000,4.000000,4.000000,4.000000,4.000000,4.000000,4.000000,4.000000,4.000000,4.000000,4.000000,4.000000,4.000000,100.000000,,,,,,,,,,,,,,,,,6.000000,0.000000,0.433413,0.524536,-0.452271,0.576599,0.988402,-0.069344,0.042974,-13.927845,-39.612614,61.527580
1703503580.489936,1703503580.490307,25.000000,0.000000,4255.769043,4250.769043,4289.102539,4274.871582,4265.256348,4263.461426,4275.000000,4280.384766,4268.205078,4250.641113,4508.461426,4475.128418,4317.436035,4426.666504,0.000000,3.000000,61.000000,,,,0.000000,4.000000,4.000000,4.000000,4.000000,4.000000,4.000000,4.000000,4.000000,4.000000,4.000000,4.000000,4.000000,4.000000,4.000000,100.000000,,,,,,,,,,,,,,,,,,,,,,,,,,,,
1703503580.497744,1703503580.498015,26.000000,0.000000,4268.461426,4263.846191,4303.589844,4287.179688,4265.128418,4262.948730,4277.436035,4272.563965,4264.743652,4250.769043,4504.358887,4476.153809,4318.205078,4433.205078,0.000000,3.000000,61.000000,,,,0.000000,4.000000,4.000000,4.000000,4.000000,4.000000,4.000000,4.000000,4.000000,4.000000,4.000000,4.000000,4.000000,4.000000,4.000000,100.000000,,,,,,,,,,,,,,,,,,,,,,,,,,,,
1703503580.505552,1703503580.505923,27.000000,0.000000,4272.563965,4266.153809,4308.974121,4292.436035,4266.410156,4260.256348,4273.974121,4264.487305,4264.871582,4259.102539,4505.000000,4477.179688,4326.410156,4439.487305,0.000000,3.000000,61.000000,,,,0.000000,4.000000,4.000000,4.000000,4.000000,4.000000,4.000000,4.000000,4.000000,4.000000,4.000000,4.000000,4.000000,4.000000,4.000000,100.000000,,,,,,,,,,,,,,,,,,,,,,,,,,,,
1703503580.513360,1703503580.513731,28.000000,0.000000,4265.769043,4259.358887,4308.974121,4284.615234,4263.077148,4258.461426,4269.230957,4261.025879,4265.128418,4255.384766,4505.384766,4475.512695,4328.461426,4434.358887,0.000000,3.000000,61.000000,,,,0.000000,4.000000,4.000000,4.000000,4.000000,4.000000,4.000000,4.000000,4.000000,4.000000,4.000000,4.000000,4.000000,4.000000,4.000000,100.000000,,,,,,,,,,,,,,,,,7.000000,0.000000,0.433148,0.524597,-0.452454,0.576599,0.980588,-0.066414,0.043462,-13.985061,-39.601353,61.591488
1703503580.521168,1703503580.521539,29.000000,0.000000,4260.769043,4254.743652,4301.153809,4279.871582,4263.333496,4261.282227,4272.051270,4251.794922,4258.717773,4242.307617,4494.615234,4462.820313,4321.666504,4424.615234,0.000000,3.000000,61.000000,,,,0.000000,4.000000,4.000000,4.000000,4.000000,4.000000,4.000000,4.000000,4.000000,4.000000,4.000000,4.000000,4.000000,4.000000,4.000000,100.000000,,,,,,,,,,,,,,,,,,,,,,,,,,,,
1703503580.528976,1703503580.529247,30.000000,0.000000,4260.641113,4251.538574,4292.563965,4281.538574,4265.641113,4264.871582,4276.538574,4242.820313,4249.743652,4233.333496,4479.358887,4450.897461,4313.717773,4419.358887,0.000000,3.000000,61.000000,,,,0.000000,4.000000,4.000000,4.000000,4.000000,4.000000,4.000000,4.000000,4.000000,4.000000,4.000000,4.000000,4.000000,4.000000,4.000000,100.000000,,,,,,,,,,,,,,,,,,,,,,,,,,,,
1703503580.536784,1703503580.537055,31.000000,0.000000,4258.333496,4248.974121,4293.461426,4283.205078,4261.410156,4263.077148,4274.615234,4244.487305,4246.025879,4231.666504,4477.692383,4451.794922,4309.615234,4418.846191,0.000000,3.000000,61.000000,,,,0.000000,4.000000,4.000000,4.000000,4.000000,4.000000,4.000000,4.000000,4.000000,4.000000,4.000000,4.000000,4.000000,4.000000,4.000000,100.000000,,,,,,,,,,,,,,,,,,,,,,,,,,,,
1703503580.544592,1703503580.544763,32.000000,0.000000,4254.230957,4247.692383,4295.000000,4282.820313,4258.333496,4261.794922,4273.717773,4250.641113,4246.025879,4230.128418,4487.563965,4457.436035,4312.692383,4423.717773,0.000000,3.000000,61.000000,,,,0.000000,4.000000,4.000000,4.000000,4.000000,4.000000,4.000000,4.000000,4.000000,4.000000,4.000000,4.000000,4.000000,4.000000,4.000000,100.000000,,,,,,,,,,,,,,,,,8.000000,0.000000,0.432855,0.524719,-0.452515,0.576660,0.996704,-0.063973,0.053229,-14.153221,-39.574551,61.549007
1703503580.552400,1703503580.552571,33.000000,0.000000,4256.666504,4248.589844,4296.410156,4283.589844,4262.436035,4263.461426,4277.307617,4255.641113,4248.461426,4228.589844,4489.743652,4457.820313,4314.230957,4427.179688,0.000000,3.000000,61.000000,,,,0.000000,4.000000,4.000000,4.000000,4.000000,4.000000,4.000000,4.000000,4.000000,4.000000,4.000000,4.000000,4.000000,4.000000,4.000000,100.000000,1.000000,100.000000,4.000000,4.000000,4.000000,4.000000,4.000000,4.000000,4.000000,4.000000,4.000000,4.000000,4.000000,4.000000,4.000000,4.000000,,,,,,,,,,,,
1703503580.560208,1703503580.560279,34.000000,0.000000,4263.846191,4252.563965,4298.846191,4287.563965,4264.230957,4263.717773,4279.102539,4267.436035,4257.051270,4237.692383,4491.025879,4460.384766,4315.256348,4425.512695,0.000000,3.000000,61.000000,,,,0.000000,4.000000,4.000000,4.000000,4.000000,4.000000,4.000000,4.000000,4.000000,4.000000,4.000000,4.000000,4.000000,4.000000,4.000000,100.000000,,,,,,,,,,,,,,,,,,,,,,,,,,,,
1703503580.568016,1703503580.568187,35.000000,0.000000,4263.846191,4252.051270,4297.307617,4291.538574,4261.153809,4265.000000,4277.948730,4277.436035,4263.846191,4248.974121,4499.102539,4470.769043,4320.769043,4426.538574,0.000000,3.000000,61.000000,,,,0.000000,4.000000,4.000000,4.000000,4.000000,4.000000,4.000000,4.000000,4.000000,4.000000,4.000000,4.000000,4.000000,4.000000,4.000000,100.000000,,,,,,,,,,,,,,,,,,,,,,,,,,,,
1703503580.575825,1703503580.575995,36.000000,0.000000,4260.897461,4247.948730,4297.307617,4288.461426,4263.205078,4267.563965,4273.974121,4274.230957,4262.692383,4244.871582,4504.615234,4478.589844,4326.153809,4433.077148,0.000000,3.000000,61.000000,,,,0.000000,4.000000,4.000000,4.000000,4.000000,4.000000,4.000000,4.000000,4.000000,4.000000,4.000000,4.000000,4.000000,4.000000,4.000000,100.000000,,,,,,,,,,,,,,,,,9.000000,0.000000,0.432589,0.524780,-0.452698,0.576660,0.992309,-0.074716,0.041509,-14.154566,-39.733761,61.410774
1703503580.583633,1703503580.583903,37.000000,0.000000,4266.922852,4248.461426,4302.692383,4287.051270,4263.333496,4261.666504,4266.922852,4266.282227,4260.512695,4244.230957,4506.922852,4477.948730,4331.025879,4442.051270,0.000000,3.000000,61.000000,,,,0.000000,4.000000,4.000000,4.000000,4.000000,4.000000,4.000000,4.000000,4.000000,4.000000,4.000000,4.000000,4.000000,4.000000,4.000000,100.000000,,,,,,,,,,,,,,,,,,,,,,,,,,,,
1703503580.591441,1703503580.591711,38.000000,0.000000,4270.384766,4250.512695,4308.333496,4293.077148,4255.512695,4249.102539,4261.922852,4259.615234,4255.512695,4250.256348,4503.717773,4474.102539,4329.871582,4439.871582,0.000000,3.000000,61.000000,,,,0.000000,4.000000,4.000000,4.000000,4.000000,4.000000,4.000000,4.000000,4.000000,4.000000,4.000000,4.000000,4.000000,4.000000,4.000000,100.000000,,,,,,,,,,,,,,,,,,,,,,,,,,,,
1703503580.599249,1703503580.599618,39.000000,0.000000,4266.153809,4256.922852,4307.436035,4297.179688,4254.871582,4245.769043,4260.641113,4257.179688,4255.769043,4250.000000,4501.025879,4473.846191,4331.025879,4432.051270,0.000000,3.000000,61.000000,,,,0.000000,4.000000,4.000000,4.000000,4.000000,4.000000,4.000000,4.000000,4.000000,4.000000,4.000000,4.000000,4.000000,4.000000,4.000000,100.000000,,,,,,,,,,,,,,,,,,,,,,,,,,,,
1703503580.607057,1703503580.607426,40.000000,0.000000,4265.641113,4264.487305,4300.769043,4297.820313,4262.436035,4253.717773,4261.282227,4255.769043,4260.769043,4252.948730,4509.871582,4475.256348,4342.179688,4434.615234,0.000000,3.000000,61.000000,,,,0.000000,4.000000,4.000000,4.000000,4.000000,4.000000,4.000000,4.000000,4.000000,4.000000,4.000000,4.000000,4.000000,4.000000,4.000000,100.000000,,,,,,,,,,,,,,,,,10.000000,0.000000,0.432422,0.524841,-0.452942,0.576538,0.991332,-0.069833,0.038579,-14.105776,-39.710384,61.369698
1703503580.614865,1703503580.615334,41.000000,0.000000,4264.358887,4259.230957,4290.512695,4295.000000,4264.102539,4262.179688,4263.589844,4247.948730,4253.205078,4252.051270,4506.922852,4462.051270,4336.922852,4428.333496,0.000000,3.000000,61.000000,,,,0.000000,4.000000,4.000000,4.000000,4.000000,4.000000,4.000000,4.000000,4.000000,4.000000,4.000000,4.000000,4.000000,4.000000,4.000000,100.000000,,,,,,,,,,,,,,,,,,,,,,,,,,,,
1703503580.622673,1703503580.623142,42.000000,0.000000,4256.794922,4250.769043,4282.436035,4289.230957,4262.948730,4265.641113,4265.641113,4244.615234,4249.102539,4242.563965,4495.641113,4445.897461,4322.820313,4416.410156,0.000000,3.000000,61.000000,,,,0.000000,4.000000,4.000000,4.000000,4.000000,4.000000,4.000000,4.000000,4.000000,4.000000,4.000000,4.000000,4.000000,4.000000,4.000000,100.000000,,,,,,,,,,,,,,,,,,,,,,,,,,,,
1703503580.630481,1703503580.631050,43.000000,0.000000,4256.538574,4249.615234,4286.666504,4289.871582,4264.487305,4266.666504,4271.666504,4260.256348,4263.589844,4245.897461,4504.358887,4458.461426,4333.717773,4424.615234,0.000000,3.000000,61.000000,,,,0.000000,4.000000,4.000000,4.000000,4.000000,4.000000,4.000000,4.000000,4.000000,4.000000,4.000000,4.000000,4.000000,4.000000,4.000000,100.000000,,,,,,,,,,,,,,,,,,,,,,,,,,,,
1703503580.638289,1703503580.638858,44.000000,0.000000,4263.077148,4248.717773,4290.641113,4290.512695,4265.897461,4267.307617,4276.922852,4278.333496,4270.897461,4257.948730,4513.333496,4477.692383,4349.358887,4433.205078,0.000000,3.000000,61.000000,,,,0.000000,4.000000,4.000000,4.000000,4.000000,4.000000,4.000000,4.000000,4.000000,4.000000,4.000000,4.000000,4.000000,4.000000,4.000000,100.000000,,,,,,,,,,,,,,,,,11.000000,0.000000,0.432188,0.525024,-0.453186,0.576355,0.994262,-0.067879,0.041997,-14.395198,-39.672680,61.232727
1703503580.646097,1703503580.646566,45.000000,0.000000,4257.307617,4245.769043,4281.025879,4283.333496,4260.256348,4266.025879,4273.077148,4276.794922,4264.487305,4256.282227,4507.436035,4469.487305,4341.794922,4422.820313,0.000000,3.000000,61.000000,,,,0.000000,4.000000,4.000000,4.000000,4.000000,4.000000,4.000000,4.000000,4.000000,4.000000,4.000000,4.000000,4.000000,4.000000,4.000000,100.000000,,,,,,,,,,,,,,,,,,,,,,,,,,,,
1703503580.653905,1703503580.654374,46.000000,0.000000,4252.820313,4244.615234,4277.948730,4280.384766,4251.282227,4262.948730,4267.307617,4273.717773,4262.563965,4246.410156,4504.743652,4456.794922,4332.948730,4416.538574,0.000000,3.000000,61.000000,,,,0.000000,4.000000,4.000000,4.000000,4.000000,4.000000,4.000000,4.000000,4.000000,4.000000,4.000000,4.000000,4.000000,4.000000,4.000000,100.000000,,,,,,,,,,,,,,,,,,,,,,,,,,,,
1703503580.661713,1703503580.662082,47.000000,0.000000,4264.230957,4246.410156,4288.589844,4287.948730,4251.410156,4262.820313,4268.333496,4276.153809,4267.179688,4247.563965,4508.717773,4465.769043,4342.563965,4426.410156,0.000000,3.000000,61.000000,,,,0.000000,4.000000,4.000000,4.000000,4.000000,4.000000,4.000000,4.000000,4.000000,4.000000,4.000000,4.000000,4.000000,4.000000,4.000000,100.000000,,,,,,,,,,,,,,,,,,,,,,,,,,,,
1703503580.669521,1703503580.669890,48.000000,0.000000,4268.589844,4247.948730,4293.717773,4287.820313,4255.128418,4264.230957,4273.077148,4270.897461,4265.512695,4250.512695,4506.538574,4472.307617,4348.077148,4431.410156,0.000000,3.000000,61.000000,,,,0.000000,4.000000,4.000000,4.000000,4.000000,4.000000,4.000000,4.000000,4.000000,4.000000,4.000000,4.000000,4.000000,4.000000,4.000000,100.000000,,,,,,,,,,,,,,,,,12.000000,0.000000,0.431993,0.525146,-0.453308,0.576294,0.995727,-0.060066,0.022464,-14.305678,-39.638744,61.226120
1703503580.677329,1703503580.677598,49.000000,0.000000,4263.461426,4249.102539,4293.461426,4281.794922,4251.922852,4265.128418,4271.922852,4259.230957,4253.461426,4240.769043,4501.410156,4464.102539,4341.153809,4427.307617,0.000000,3.000000,61.000000,,,,0.000000,4.000000,4.000000,4.000000,4.000000,4.000000,4.000000,4.000000,4.000000,4.000000,4.000000,4.000000,4.000000,4.000000,4.000000,100.000000,,,,,,,,,,,,,,,,,,,,,,,,,,,,
1703503580.685137,1703503580.685406,50.000000,0.000000,4264.615234,4249.615234,4294.871582,4282.179688,4249.102539,4258.846191,4264.230957,4256.410156,4246.153809,4229.487305,4497.436035,4460.000000,4335.641113,4427.692383,0.000000,3.000000,61.000000,,,,0.000000,4.000000,4.000000,4.000000,4.000000,4.000000,4.000000,4.000000,4.000000,4.000000,4.000000,4.000000,4.000000,4.000000,4.000000,100.000000,,,,,,,,,,,,,,,,,,,,,,,,,,,,
1703503580.692945,1703503580.693114,51.000000,0.000000,4264.487305,4248.333496,4292.820313,4280.128418,4246.282227,4249.487305,4261.794922,4263.077148,4249.102539,4228.974121,4489.743652,4461.922852,4331.410156,4424.743652,0.000000,3.000000,61.000000,,,,0.000000,4.000000,4.000000,4.000000,4.000000,4.000000,4.000000,4.000000,4.000000,4.000000,4.000000,4.000000,4.000000,4.000000,4.000000,100.000000,,,,,,,,,,,,,,,,,,,,,,,,,,,,
1703503580.700753,1703503580.700922,52.000000,0.000000,4261.794922,4247.051270,4289.230957,4277.948730,4246.410156,4253.589844,4266.666504,4264.615234,4255.384766,4238.589844,4486.025879,4460.769043,4331.666504,4420.641113,0.000000,3.000000,61.000000,,,,0.000000,4.000000,4.000000,4.000000,4.000000,4.000000,4.000000,4.000000,4.000000,4.000000,4.000000,4.000000,4.000000,4.000000,4.000000,100.000000,,,,,,,,,,,,,,,,,13.000000,0.000000,0.431788,0.525330,-0.453369,0.576233,0.992797,-0.067879,0.037602,-14.358444,-39.558205,61.186840
1703503580.708562,1703503580.708630,53.000000,0.000000,4261.666504,4247.692383,4284.102539,4285.256348,4253.205078,4262.948730,4268.205078,4263.589844,4262.436035,4248.846191,4490.256348,4457.820313,4338.333496,4422.179688,0.000000,3.000000,61.000000,,,,0.000000,4.000000,4.000000,4.000000,4.000000,4.000000,4.000000,4.000000,4.000000,4.000000,4.000000,4.000000,4.000000,4.000000,4.000000,100.000000,,,,,,,,,,,,,,,,,,,,,,,,,,,,
1703503580.716370,1703503580.716538,54.000000,0.000000,4259.358887,4247.051270,4279.615234,4292.051270,4255.384766,4263.717773,4265.769043,4264.230957,4264.230957,4248.333496,4492.051270,4457.179688,4341.922852,4420.000000,0.000000,3.000000,61.000000,,,,0.000000,4.000000,4.000000,4.000000,4.000000,4.000000,4.000000,4.000000,4.000000,4.000000,4.000000,4.000000,4.000000,4.000000,4.000000,100.000000,,,,,,,,,,,,,,,,,,,,,,,,,,,,
1703503580.724177,1703503580.724346,55.000000,0.000000,4257.307617,4243.333496,4278.461426,4293.333496,4255.512695,4262.563965,4269.615234,4265.000000,4262.307617,4245.641113,4490.641113,4457.436035,4342.436035,4414.230957,0.000000,3.000000,61.000000,,,,0.000000,4.000000,4.000000,4.000000,4.000000,4.000000,4.000000,4.000000,4.000000,4.000000,4.000000,4.000000,4.000000,4.000000,4.000000,100.000000,,,,,,,,,,,,,,,,,,,,,,,,,,,,
1703503580.731986,1703503580.732154,56.000000,0.000000,4259.230957,4242.307617,4279.102539,4293.846191,4264.102539,4267.692383,4275.512695,4264.487305,4263.333496,4244.743652,4485.897461,4452.051270,4343.205078,4414.358887,0.000000,3.000000,61.000000,,,,0.000000,4.000000,4.000000,4.000000,4.000000,4.000000,4.000000,4.000000,4.000000,4.000000,4.000000,4.000000,4.000000,4.000000,4.000000,100.000000,,,,,,,,,,,,,,,,,14.000000,0.000000,0.431647,0.525513,-0.453369,0.576172,0.979123,-0.076181,0.023929,-14.205933,-39.552383,61.251492
1703503580.739794,1703503580.739862,57.000000,0.000000,4262.051270,4247.307617,4279.871582,4296.025879,4266.794922,4274.358887,4277.179688,4263.333496,4261.538574,4241.794922,4480.641113,4444.871582,4342.051270,4417.563965,0.000000,3.000000,61.000000,,,,0.000000,4.000000,4.000000,4.000000,4.000000,4.000000,4.000000,4.000000,4.000000,4.000000,4.000000,4.000000,4.000000,4.000000,4.000000,100.000000,,,,,,,,,,,,,,,,,,,,,,,,,,,,
1703503580.747602,1703503580.747770,58.000000,0.000000,4264.615234,4251.025879,4283.077148,4298.589844,4261.666504,4272.820313,4275.384766,4263.717773,4260.512695,4243.077148,4483.846191,4456.666504,4351.666504,4424.358887,0.000000,3.000000,61.000000,,,,0.000000,4.000000,4.000000,4.000000,4.000000,4.000000,4.000000,4.000000,4.000000,4.000000,4.000000,4.000000,4.000000,4.000000,4.000000,100.000000,,,,,,,,,,,,,,,,,,,,,,,,,,,,
1703503580.755410,1703503580.755578,59.000000,0.000000,4268.974121,4248.846191,4291.794922,4299.487305,4261.153809,4266.282227,4271.025879,4263.205078,4264.615234,4248.077148,4492.051270,4478.461426,4366.666504,4435.769043,0.000000,3.000000,61.000000,,,,0.000000,4.000000,4.000000,4.000000,4.000000,4.000000,4.000000,4.000000,4.000000,4.000000,4.000000,4.000000,4.000000,4.000000,4.000000,100.000000,,,,,,,,,,,,,,,,,,,,,,,,,,,,
1703503580.763218,1703503580.763486,60.000000,0.000000,4266.153809,4249.230957,4296.282227,4295.000000,4263.333496,4266.922852,4267.692383,4265.256348,4266.410156,4248.205078,4493.333496,4474.102539,4363.846191,4431.922852,0.000000,3.000000,61.000000,,,,0.000000,4.000000,4.000000,4.000000,4.000000,4.000000,4.000000,4.000000,4.000000,4.000000,4.000000,4.000000,4.000000,4.000000,4.000000,100.000000,,,,,,,,,,,,,,,,,15.000000,0.000000,0.431498,0.525635,-0.453369,0.576172,0.982053,-0.076181,0.041021,-14.202006,-39.430477,61.226341
1703503580.771026,1703503580.771294,61.000000,0.000000,4260.128418,4255.000000,4293.717773,4294.230957,4262.436035,4270.641113,4271.025879,4266.282227,4265.512695,4246.666504,4489.230957,4457.820313,4353.205078,4419.358887,0.000000,3.000000,61.000000,,,,0.000000,4.000000,4.000000,4.000000,4.000000,4.000000,4.000000,4.000000,4.000000,4.000000,4.000000,4.000000,4.000000,4.000000,4.000000,100.000000,,,,,,,,,,,,,,,,,,,,,,,,,,,,
1703503580.778834,1703503580.779202,62.000000,0.000000,4271.282227,4262.948730,4294.743652,4306.153809,4262.051270,4264.102539,4274.102539,4264.615234,4263.974121,4248.974121,4495.512695,4464.743652,4362.436035,4427.948730,0.000000,3.000000,61.000000,,,,0.000000,4.000000,4.000000,4.000000,4.000000,4.000000,4.000000,4.000000,4.000000,4.000000,4.000000,4.000000,4.000000,4.000000,4.000000,100.000000,,,,,,,,,,,,,,,,,,,,,,,,,,,,
1703503580.786642,1703503580.787010,63.000000,0.000000,4282.051270,4262.820313,4298.461426,4312.307617,4260.384766,4260.512695,4273.333496,4270.384766,4263.333496,4252.563965,4512.051270,4481.282227,4386.538574,4447.307617,0.000000,3.000000,61.000000,,,,0.000000,4.000000,4.000000,4.000000,4.000000,4.000000,4.000000,4.000000,4.000000,4.000000,4.000000,4.000000,4.000000,4.000000,4.000000,100.000000,,,,,,,,,,,,,,,,,,,,,,,,,,,,
1703503580.794450,1703503580.794918,64.000000,0.000000,4268.589844,4248.077148,4297.179688,4299.743652,4256.922852,4264.487305,4277.948730,4274.871582,4262.820313,4252.179688,4515.897461,4481.282227,4390.769043,4447.692383,5280.000000,3.000000,61.000000,,,,0.000000,4.000000,4.000000,4.000000,4.000000,4.000000,4.000000,4.000000,4.000000,4.000000,4.000000,4.000000,4.000000,4.000000,4.000000,100.000000,,,,,,,,,,,,,,,,,16.000000,0.000000,0.431488,0.525696,-0.453308,0.576172,0.993285,-0.072763,0.037114,-14.131805,-39.454098,61.387039
1703503580.802258,1703503580.802726,65.000000,0.000000,4261.922852,4245.769043,4294.358887,4294.871582,4258.205078,4263.589844,4277.948730,4271.794922,4262.820313,4252.051270,4508.205078,4476.282227,4386.922852,4442.307617,5526.000000,3.000000,61.000000,,,,0.000000,4.000000,4.000000,4.000000,4.000000,4.000000,4.000000,4.000000,4.000000,4.000000,4.000000,4.000000,4.000000,4.000000,4.000000,100.000000,,,,,,,,,,,,,,,,,,,,,,,,,,,,
1703503580.810066,1703503580.810633,66.000000,0.000000,4274.871582,4263.974121,4293.333496,4305.384766,4260.897461,4258.205078,4267.179688,4263.461426,4257.820313,4251.025879,4505.384766,4474.615234,4389.743652,4444.487305,5424.000000,3.000000,61.000000,,,,0.000000,4.000000,4.000000,4.000000,4.000000,4.000000,4.000000,4.000000,4.000000,4.000000,4.000000,4.000000,4.000000,4.000000,4.000000,100.000000,,,,,,,,,,,,,,,,,,,,,,,,,,,,
1703503580.817874,1703503580.818441,67.000000,0.000000,4278.077148,4267.820313,4293.717773,4307.179688,4259.358887,4255.128418,4262.179688,4252.179688,4247.820313,4240.769043,4497.436035,4465.641113,4379.871582,4434.102539,5392.000000,3.000000,61.000000,,,,0.000000,4.000000,4.000000,4.000000,4.000000,4.000000,4.000000,4.000000,4.000000,4.000000,4.000000,4.000000,4.000000,4.000000,4.000000,100.000000,,,,,,,,,,,,,,,,,,,,,,,,,,,,
1703503580.825682,1703503580.826349,68.000000,0.000000,4271.153809,4256.794922,4294.487305,4304.230957,4259.743652,4260.128418,4267.051270,4251.794922,4252.436035,4238.974121,4489.358887,4460.256348,4371.153809,4424.487305,5313.000000,3.000000,61.000000,,,,0.000000,4.000000,4.000000,4.000000,4.000000,4.000000,4.000000,4.000000,4.000000,4.000000,4.000000,4.000000,4.000000,4.000000,4.000000,100.000000,,,,,,,,,,,,,,,,,17.000000,0.000000,0.431491,0.525574,-0.453369,0.576233,0.998169,-0.070809,0.032719,-14.051958,-39.425354,61.631672
1703503580.833490,1703503580.834157,69.000000,0.000000,4274.230957,4258.717773,4296.666504,4310.384766,4258.974121,4264.871582,4267.820313,4261.794922,4265.384766,4247.948730,4493.461426,4465.641113,4375.512695,4429.743652,4929.000000,3.000000,61.000000,,,,0.000000,4.000000,4.000000,4.000000,4.000000,4.000000,4.000000,4.000000,4.000000,4.000000,4.000000,4.000000,4.000000,4.000000,4.000000,100.000000,,,,,,,,,,,,,,,,,,,,,,,,,,,,
1703503580.841298,1703503580.841865,70.000000,0.000000,4280.512695,4264.358887,4300.384766,4313.846191,4257.436035,4263.077148,4266.666504,4261.794922,4265.128418,4243.461426,4493.077148,4465.384766,4369.743652,4429.230957,4001.000000,3.000000,61.000000,,,,0.000000,4.000000,4.000000,4.000000,4.000000,4.000000,4.000000,4.000000,4.000000,4.000000,4.000000,4.000000,4.000000,4.000000,4.000000,100.000000,,,,,,,,,,,,,,,,,,,,,,,,,,,,
1703503580.849106,1703503580.849673,71.000000,0.000000,4279.743652,4262.179688,4303.974121,4309.743652,4261.282227,4263.205078,4269.230957,4251.922852,4257.692383,4232.692383,4485.897461,4459.743652,4363.077148,4424.871582,5025.000000,3.000000,61.000000,,,,0.000000,4.000000,4.000000,4.000000,4.000000,4.000000,4.000000,4.000000,4.000000,4.000000,4.000000,4.000000,4.000000,4.000000,4.000000,100.000000,,,,,,,,,,,,,,,,,,,,,,,,,,,,
1703503580.856914,1703503580.857381,72.000000,0.000000,4277.948730,4261.666504,4310.769043,4309.743652,4264.358887,4267.307617,4270.641113,4250.256348,4252.307617,4229.871582,4478.846191,4461.282227,4366.282227,4428.717773,4984.000000,3.000000,61.000000,,,,0.000000,4.000000,4.000000,4.000000,4.000000,4.000000,4.000000,4.000000,4.000000,4.000000,4.000000,4.000000,4.000000,4.000000,4.000000,100.000000,,,,,,,,,,,,,,,,,18.000000,0.000000,0.431395,0.525452,-0.453369,0.576416,0.988890,-0.079111,0.044439,-13.946762,-39.332821,61.501835
1703503580.864723,1703503580.865289,73.000000,0.000000,4277.948730,4262.436035,4308.077148,4312.436035,4262.436035,4268.333496,4270.256348,4251.538574,4247.692383,4229.487305,4476.153809,4463.205078,4364.358887,4431.410156,5504.000000,3.000000,61.000000,,,,0.000000,4.000000,4.000000,4.000000,4.000000,4.000000,4.000000,4.000000,4.000000,4.000000,4.000000,4.000000,4.000000,4.000000,4.000000,100.000000,,,,,,,,,,,,,,,,,,,,,,,,,,,,
1703503580.872531,1703503580.873097,74.000000,0.000000,4278.205078,4263.717773,4297.563965,4311.282227,4263.205078,4265.641113,4274.743652,4248.717773,4246.410156,4228.461426,4482.948730,4462.948730,4366.025879,4428.333496,6065.000000,3.000000,61.000000,,,,0.000000,4.000000,4.000000,4.000000,4.000000,4.000000,4.000000,4.000000,4.000000,4.000000,4.000000,4.000000,4.000000,4.000000,4.000000,100.000000,,,,,,,,,,,,,,,,,,,,,,,,,,,,
1703503580.880339,1703503580.881005,75.000000,0.000000,4279.102539,4262.307617,4301.666504,4308.461426,4261.282227,4263.974121,4279.871582,4253.077148,4248.974121,4235.384766,4495.128418,4469.487305,4379.615234,4434.487305,6337.000000,3.000000,61.000000,,,,0.000000,4.000000,4.000000,4.000000,4.000000,4.000000,4.000000,4.000000,4.000000,4.000000,4.000000,4.000000,4.000000,4.000000,4.000000,100.000000,,,,,,,,,,,,,,,,,,,,,,,,,,,,
1703503580.888147,1703503580.888814,76.000000,0.000000,4278.205078,4258.717773,4311.282227,4309.102539,4259.615234,4264.743652,4277.436035,4259.230957,4248.974121,4241.153809,4497.820313,4475.000000,4383.717773,4446.153809,6863.000000,3.000000,61.000000,,,,0.000000,4.000000,4.000000,4.000000,4.000000,4.000000,4.000000,4.000000,4.000000,4.000000,4.000000,4.000000,4.000000,4.000000,4.000000,100.000000,,,,,,,,,,,,,,,,,19.000000,0.000000,0.431395,0.525452,-0.453369,0.576416,0.994750,-0.064461,0.048834,-13.985419,-39.466206,61.218319
1703503580.895955,1703503580.896721,77.000000,0.000000,4278.589844,4261.410156,4311.538574,4313.077148,4265.897461,4266.922852,4276.153809,4259.871582,4245.769043,4233.717773,4491.666504,4473.717773,4374.743652,4443.077148,7244.000000,3.000000,61.000000,,,,0.000000,4.000000,4.000000,4.000000,4.000000,4.000000,4.000000,4.000000,4.000000,4.000000,4.000000,4.000000,4.000000,4.000000,4.000000,100.000000,,,,,,,,,,,,,,,,,,,,,,,,,,,,
1703503580.903763,1703503580.904529,78.000000,0.000000,4278.461426,4265.641113,4305.000000,4313.205078,4267.563965,4267.436035,4280.512695,4260.256348,4246.410156,4235.128418,4494.743652,4475.769043,4373.461426,4433.974121,6065.000000,3.000000,61.000000,,,,0.000000,4.000000,4.000000,4.000000,4.000000,4.000000,4.000000,4.000000,4.000000,4.000000,4.000000,4.000000,4.000000,4.000000,4.000000,100.000000,,,,,,,,,,,,,,,,,,,,,,,,,,,,
1703503580.911571,1703503580.912337,79.000000,0.000000,4271.538574,4261.922852,4300.256348,4309.871582,4261.153809,4265.641113,4277.179688,4260.512695,4250.769043,4245.512695,4501.153809,4476.153809,4380.769043,4433.589844,6337.000000,3.000000,61.000000,,,,0.000000,4.000000,4.000000,4.000000,4.000000,4.000000,4.000000,4.000000,4.000000,4.000000,4.000000,4.000000,4.000000,4.000000,4.000000,100.000000,,,,,,,,,,,,,,,,,,,,,,,,,,,,
1703503580.919379,1703503580.920045,80.000000,0.000000,4269.871582,4259.358887,4300.897461,4308.205078,4260.128418,4262.051270,4268.205078,4251.794922,4244.487305,4236.794922,4493.205078,4465.769043,4378.077148,4429.230957,6863.000000,3.000000,61.000000,,,,0.000000,4.000000,4.000000,4.000000,4.000000,4.000000,4.000000,4.000000,4.000000,4.000000,4.000000,4.000000,4.000000,4.000000,4.000000,100.000000,,,,,,,,,,,,,,,,,20.000000,0.000000,0.431412,0.525452,-0.453430,0.576355,1.005005,-0.072763,0.046392,-14.003544,-39.469582,61.113155
1703503580.927187,1703503580.927853,81.000000,0.000000,4280.000000,4261.666504,4305.128418,4309.230957,4264.102539,4258.205078,4264.358887,4243.077148,4239.102539,4227.436035,4484.230957,4461.666504,4372.051270,4428.205078,7244.000000,3.000000,61.000000,,,,0.000000,4.000000,4.000000,4.000000,4.000000,4.000000,4.000000,4.000000,4.000000,4.000000,4.000000,4.000000,4.000000,4.000000,4.000000,100.000000,,,,,,,,,,,,,,,,,,,,,,,,,,,,
1703503580.934995,1703503580.935561,82.000000,0.000000,4284.358887,4261.153809,4310.512695,4311.410156,4260.512695,4257.563965,4264.102539,4252.179688,4251.922852,4239.871582,4493.077148,4472.436035,4377.563965,4440.769043,6065.000000,3.000000,61.000000,,,,0.000000,4.000000,4.000000,4.000000,4.000000,4.000000,4.000000,4.000000,4.000000,4.000000,4.000000,4.000000,4.000000,4.000000,4.000000,100.000000,,,,,,,,,,,,,,,,,,,,,,,,,,,,
1703503580.942803,1703503580.943469,83.000000,0.000000,4279.743652,4264.615234,4310.384766,4309.615234,4258.717773,4260.641113,4264.102539,4267.948730,4268.974121,4250.128418,4504.743652,4480.512695,4387.563965,4446.282227,6337.000000,3.000000,61.000000,,,,0.000000,4.000000,4.000000,4.000000,4.000000,4.000000,4.000000,4.000000,4.000000,4.000000,4.000000,4.000000,4.000000,4.000000,4.000000,100.000000,,,,,,,,,,,,,,,,,,,,,,,,,,,,
1703503580.950611,1703503580.951277,84.000000,0.000000,4279.487305,4263.974121,4303.717773,4305.128418,4258.846191,4263.846191,4271.410156,4273.333496,4272.948730,4250.769043,4509.743652,4479.487305,4392.948730,4442.692383,6863.000000,3.000000,61.000000,,,,0.000000,4.000000,4.000000,4.000000,4.000000,4.000000,4.000000,4.000000,4.000000,4.000000,4.000000,4.000000,4.000000,4.000000,4.000000,100.000000,,,,,,,,,,,,,,,,,21.000000,0.000000,0.431427,0.525574,-0.453430,0.576233,0.989867,-0.064461,0.033207,-14.186523,-39.522625,61.185173
1703503580.958419,1703503580.959185,85.000000,0.000000,4278.717773,4252.820313,4296.153809,4305.641113,4251.666504,4265.641113,4279.615234,4268.974121,4266.538574,4253.205078,4505.000000,4471.666504,4390.256348,4440.000000,7244.000000,3.000000,61.000000,,,,0.000000,4.000000,4.000000,4.000000,4.000000,4.000000,4.000000,4.000000,4.000000,4.000000,4.000000,4.000000,4.000000,4.000000,4.000000,100.000000,,,,,,,,,,,,,,,,,,,,,,,,,,,,
1703503580.966227,1703503580.966993,86.000000,0.000000,4273.846191,4252.179688,4296.025879,4309.487305,4257.179688,4266.922852,4278.589844,4264.358887,4262.436035,4249.230957,4492.820313,4464.230957,4383.974121,4438.717773,6065.000000,3.000000,61.000000,,,,0.000000,4.000000,4.000000,4.000000,4.000000,4.000000,4.000000,4.000000,4.000000,4.000000,4.000000,4.000000,4.000000,4.000000,4.000000,100.000000,,,,,,,,,,,,,,,,,,,,,,,,,,,,
1703503580.974035,1703503580.974901,87.000000,0.000000,4274.871582,4262.820313,4300.897461,4311.538574,4265.897461,4266.025879,4276.794922,4262.948730,4257.820313,4240.256348,4491.153809,4461.922852,4382.051270,4436.282227,6337.000000,3.000000,61.000000,,,,0.000000,4.000000,4.000000,4.000000,4.000000,4.000000,4.000000,4.000000,4.000000,4.000000,4.000000,4.000000,4.000000,4.000000,4.000000,100.000000,,,,,,,,,,,,,,,,,,,,,,,,,,,,
1703503580.981843,1703503580.982709,88.000000,0.000000,4278.717773,4263.717773,4306.025879,4313.846191,4254.358887,4262.692383,4279.358887,4258.846191,4250.512695,4235.000000,4496.153809,4466.025879,4383.461426,4437.436035,6863.000000,3.000000,61.000000,,,,0.000000,4.000000,4.000000,4.000000,4.000000,4.000000,4.000000,4.000000,4.000000,4.000000,4.000000,4.000000,4.000000,4.000000,4.000000,100.000000,,,,,,,,,,,,,,,,,22.000000,0.000000,0.431396,0.525757,-0.453247,0.576233,0.980100,-0.059089,0.042486,-14.201204,-39.503696,61.183323
1703503580.989651,1703503580.990617,89.000000,0.000000,4282.179688,4262.179688,4310.512695,4321.666504,4250.769043,4261.153809,4278.589844,4257.179688,4254.230957,4240.384766,4502.563965,4479.230957,4389.615234,4445.641113,7244.000000,3.000000,61.000000,,,,0.000000,4.000000,4.000000,4.000000,4.000000,4.000000,4.000000,4.000000,4.000000,4.000000,4.000000,4.000000,4.000000,4.000000,4.000000,100.000000,,,,,,,,,,,,,,,,,,,,,,,,,,,,
1703503580.997460,1703503580.998425,90.000000,0.000000,4290.128418,4266.538574,4316.794922,4330.512695,4265.000000,4262.692383,4277.563965,4263.205078,4261.410156,4248.589844,4507.692383,4491.153809,4396.666504,4451.153809,6065.000000,3.000000,61.000000,,,,0.000000,4.000000,4.000000,4.000000,4.000000,4.000000,4.000000,4.000000,4.000000,4.000000,4.000000,4.000000,4.000000,4.000000,4.000000,100.000000,,,,,,,,,,,,,,,,,,,,,,,,,,,,
1703503581.005268,1703503581.006133,91.000000,0.000000,4296.025879,4268.846191,4324.102539,4334.358887,4267.820313,4263.461426,4276.410156,4263.589844,4256.025879,4250.384766,4511.922852,4495.128418,4400.256348,4454.102539,6337.000000,3.000000,61.000000,,,,0.000000,4.000000,4.000000,4.000000,4.000000,4.000000,4.000000,4.000000,4.000000,4.000000,4.000000,4.000000,4.000000,4.000000,4.000000,100.000000,,,,,,,,,,,,,,,,,,,,,,,,,,,,
1703503581.013075,1703503581.013941,92.000000,0.000000,4288.589844,4264.743652,4318.846191,4330.641113,4261.666504,4261.666504,4274.102539,4253.077148,4245.256348,4245.000000,4509.871582,4490.641113,4397.051270,4455.256348,6863.000000,3.000000,61.000000,,,,0.000000,4.000000,4.000000,4.000000,4.000000,4.000000,4.000000,4.000000,4.000000,4.000000,4.000000,4.000000,4.000000,4.000000,4.000000,100.000000,,,,,,,,,,,,,,,,,23.000000,0.000000,0.431522,0.525635,-0.452881,0.576538,0.985960,-0.062996,0.043462,-14.281084,-39.586658,61.198322
1703503581.020884,1703503581.021649,93.000000,0.000000,4277.179688,4261.666504,4311.794922,4325.641113,4264.615234,4264.487305,4276.666504,4244.102539,4240.000000,4232.948730,4495.128418,4478.461426,4385.384766,4446.666504,7244.000000,3.000000,61.000000,,,,0.000000,4.000000,4.000000,4.000000,4.000000,4.000000,4.000000,4.000000,4.000000,4.000000,4.000000,4.000000,4.000000,4.000000,4.000000,100.000000,,,,,,,,,,,,,,,,,,,,,,,,,,,,
1703503581.028692,1703503581.029457,94.000000,0.000000,4280.512695,4268.461426,4318.077148,4332.820313,4274.871582,4274.743652,4280.256348,4251.666504,4246.922852,4233.077148,4493.846191,4479.743652,4388.461426,4444.230957,6065.000000,3.000000,61.000000,,,,0.000000,4.000000,4.000000,4.000000,4.000000,4.000000,4.000000,4.000000,4.000000,4.000000,4.000000,4.000000,4.000000,4.000000,4.000000,100.000000,,,,,,,,,,,,,,,,,,,,,,,,,,,,
1703503581.036500,1703503581.037265,95.000000,0.000000,4287.820313,4272.307617,4317.948730,4337.948730,4280.128418,4279.230957,4280.641113,4264.102539,4262.948730,4246.794922,4508.333496,4490.512695,4397.051270,4448.974121,6337.000000,3.000000,61.000000,,,,0.000000,4.000000,4.000000,4.000000,4.000000,4.000000,4.000000,4.000000,4.000000,4.000000,4.000000,4.000000,4.000000,4.000000,4.000000,100.000000,,,,,,,,,,,,,,,,,,,,,,,,,,,,
1703503581.044308,1703503581.045073,96.000000,0.000000,4276.025879,4262.436035,4309.230957,4330.512695,4270.128418,4275.769043,4280.641113,4266.282227,4269.102539,4251.153809,4506.794922,4483.589844,4385.769043,4438.077148,6863.000000,3.000000,61.000000,,,,0.000000,4.000000,4.000000,4.000000,4.000000,4.000000,4.000000,4.000000,4.000000,4.000000,4.000000,4.000000,4.000000,4.000000,4.000000,100.000000,,,,,,,,,,,,,,,,,24.000000,0.000000,0.431677,0.525330,-0.452698,0.576843,0.996215,-0.074228,0.042974,-14.302976,-39.794659,61.128490
1703503581.052116,1703503581.052781,97.000000,0.000000,4263.205078,4256.282227,4308.077148,4323.205078,4262.436035,4273.717773,4282.179688,4273.333496,4274.615234,4255.128418,4502.948730,4479.487305,4384.102539,4432.948730,7244.000000,3.000000,61.000000,,,,0.000000,4.000000,4.000000,4.000000,4.000000,4.000000,4.000000,4.000000,4.000000,4.000000,4.000000,4.000000,4.000000,4.000000,4.000000,100.000000,1.000000,100.000000,4.000000,4.000000,4.000000,4.000000,4.000000,4.000000,4.000000,4.000000,4.000000,4.000000,4.000000,4.000000,4.000000,4.000000,,,,,,,,,,,,
1703503581.059924,1703503581.060589,98.000000,0.000000,4271.410156,4260.897461,4311.666504,4319.230957,4268.205078,4270.897461,4281.666504,4280.641113,4281.794922,4260.256348,4520.897461,4495.128418,4401.538574,4448.461426,6065.000000,3.000000,61.000000,,,,0.000000,4.000000,4.000000,4.000000,4.000000,4.000000,4.000000,4.000000,4.000000,4.000000,4.000000,4.000000,4.000000,4.000000,4.000000,100.000000,,,,,,,,,,,,,,,,,,,,,,,,,,,,
1703503581.067732,1703503581.068297,99.000000,0.000000,4281.410156,4261.794922,4310.384766,4315.256348,4270.128418,4264.743652,4277.692383,4269.743652,4271.794922,4253.846191,4526.282227,4493.333496,4401.025879,4453.589844,6337.000000,3.000000,61.000000,,,,0.000000,4.000000,4.000000,4.000000,4.000000,4.000000,4.000000,4.000000,4.000000,4.000000,4.000000,4.000000,4.000000,4.000000,4.000000,100.000000,,,,,,,,,,,,,,,,,,,,,,,,,,,,
1703503581.075540,1703503581.076105,100.000000,0.000000,4274.871582,4260.128418,4308.205078,4315.769043,4264.102539,4264.487305,4276.538574,4257.820313,4261.153809,4250.000000,4508.461426,4473.461426,4383.205078,4438.205078,6863.000000,3.000000,61.000000,,,,0.000000,4.000000,4.000000,4.000000,4.000000,4.000000,4.000000,4.000000,4.000000,4.000000,4.000000,4.000000,4.000000,4.000000,4.000000,100.000000,,,,,,,,,,,,,,,,,25.000000,0.000000,0.431938,0.525024,-0.452881,0.576782,1.001099,-0.079111,0.037114,-14.322678,-39.731861,61.198975
1703503581.083348,1703503581.083813,101.000000,0.000000,4267.436035,4262.436035,4307.307617,4320.897461,4263.461426,4264.743652,4278.846191,4260.128418,4263.846191,4253.461426,4503.205078,4469.871582,4377.948730,4426.922852,7244.000000,3.000000,61.000000,,,,0.000000,4.000000,4.000000,4.000000,4.000000,4.000000,4.000000,4.000000,4.000000,4.000000,4.000000,4.000000,4.000000,4.000000,4.000000,100.000000,,,,,,,,,,,,,,,,,,,,,,,,,,,,
1703503581.091156,1703503581.091621,102.000000,0.000000,4270.384766,4261.666504,4305.128418,4322.563965,4271.794922,4262.820313,4279.871582,4261.666504,4262.179688,4246.794922,4509.358887,4476.794922,4383.717773,4433.974121,6065.000000,3.000000,61.000000,,,,0.000000,4.000000,4.000000,4.000000,4.000000,4.000000,4.000000,4.000000,4.000000,4.000000,4.000000,4.000000,4.000000,4.000000,4.000000,100.000000,,,,,,,,,,,,,,,,,,,,,,,,,,,,
1703503581.098964,1703503581.099329,103.000000,0.000000,4276.153809,4258.333496,4306.410156,4324.358887,4278.589844,4269.487305,4280.256348,4260.256348,4256.922852,4239.230957,4506.794922,4477.436035,4383.461426,4440.384766,6337.000000,3.000000,61.000000,,,,0.000000,4.000000,4.000000,4.000000,4.000000,4.000000,4.000000,4.000000,4.000000,4.000000,4.000000,4.000000,4.000000,4.000000,4.000000,100.000000,,,,,,,,,,,,,,,,,,,,,,,,,,,,
1703503581.106772,1703503581.107237,104.000000,0.000000,4280.897461,4264.487305,4310.256348,4327.820313,4279.358887,4278.461426,4281.794922,4264.743652,4260.384766,4247.307617,4507.436035,4475.897461,4383.846191,4435.641113,6863.000000,3.000000,61.000000,,,,0.000000,4.000000,4.000000,4.000000,4.000000,4.000000,4.000000,4.000000,4.000000,4.000000,4.000000,4.000000,4.000000,4.000000,4.000000,100.000000,,,,,,,,,,,,,,,,,26.000000,0.000000,0.432043,0.524780,-0.453064,0.576782,0.985960,-0.076181,0.048834,-14.373743,-39.525341,61.162411
1703503581.114580,1703503581.115045,105.000000,0.000000,4281.153809,4273.846191,4313.205078,4328.205078,4279.487305,4276.153809,4280.512695,4267.307617,4266.025879,4257.051270,4518.205078,4479.615234,4392.563965,4437.051270,7244.000000,3.000000,61.000000,,,,0.000000,4.000000,4.000000,4.000000,4.000000,4.000000,4.000000,4.000000,4.000000,4.000000,4.000000,4.000000,4.000000,4.000000,4.000000,100.000000,,,,,,,,,,,,,,,,,,,,,,,,,,,,
1703503581.122388,1703503581.122953,106.000000,0.000000,4281.153809,4271.922852,4316.410156,4330.384766,4280.000000,4266.922852,4278.077148,4265.384766,4264.871582,4255.769043,4521.410156,4482.051270,4394.102539,4447.692383,6065.000000,3.000000,61.000000,,,,0.000000,4.000000,4.000000,4.000000,4.000000,4.000000,4.000000,4.000000,4.000000,4.000000,4.000000,4.000000,4.000000,4.000000,4.000000,100.000000,,,,,,,,,,,,,,,,,,,,,,,,,,,,
1703503581.130196,1703503581.130761,107.000000,0.000000,4284.358887,4265.641113,4316.538574,4327.179688,4276.538574,4262.820313,4274.487305,4264.358887,4262.948730,4252.051270,4519.487305,4478.461426,4385.641113,4448.461426,6337.000000,3.000000,61.000000,,,,0.000000,4.000000,4.000000,4.000000,4.000000,4.000000,4.000000,4.000000,4.000000,4.000000,4.000000,4.000000,4.000000,4.000000,4.000000,100.000000,,,,,,,,,,,,,,,,,,,,,,,,,,,,
1703503581.138004,1703503581.138569,108.000000,0.000000,4276.922852,4260.641113,4308.333496,4318.077148,4268.333496,4263.205078,4269.102539,4266.410156,4265.000000,4253.974121,4517.436035,4475.384766,4381.025879,4439.102539,6863.000000,3.000000,61.000000,,,,0.000000,4.000000,4.000000,4.000000,4.000000,4.000000,4.000000,4.000000,4.000000,4.000000,4.000000,4.000000,4.000000,4.000000,4.000000,100.000000,,,,,,,,,,,,,,,,,27.000000,0.000000,0.432305,0.524353,-0.453308,0.576782,0.988402,-0.064949,0.044439,-14.286369,-39.456142,61.246170
1703503581.145812,1703503581.146277,109.000000,0.000000,4263.846191,4253.461426,4298.205078,4308.974121,4262.307617,4263.846191,4265.128418,4267.563965,4267.307617,4253.846191,4513.589844,4473.717773,4376.794922,4428.974121,7244.000000,3.000000,61.000000,,,,0.000000,4.000000,4.000000,4.000000,4.000000,4.000000,4.000000,4.000000,4.000000,4.000000,4.000000,4.000000,4.000000,4.000000,4.000000,100.000000,,,,,,,,,,,,,,,,,,,,,,,,,,,,
1703503581.153621,1703503581.154185,110.000000,0.000000,4259.743652,4247.692383,4294.358887,4300.641113,4261.794922,4257.563965,4263.333496,4266.538574,4267.563965,4250.256348,4513.846191,4474.102539,4368.333496,4425.128418,6065.000000,3.000000,61.000000,,,,0.000000,4.000000,4.000000,4.000000,4.000000,4.000000,4.000000,4.000000,4.000000,4.000000,4.000000,4.000000,4.000000,4.000000,4.000000,100.000000,,,,,,,,,,,,,,,,,,,,,,,,,,,,
1703503581.161429,1703503581.161993,111.000000,0.000000,4264.358887,4249.487305,4295.384766,4298.717773,4262.179688,4248.846191,4264.487305,4268.205078,4265.128418,4246.410156,4512.307617,4476.282227,4361.538574,4428.974121,6337.000000,3.000000,61.000000,,,,0.000000,4.000000,4.000000,4.000000,4.000000,4.000000,4.000000,4.000000,4.000000,4.000000,4.000000,4.000000,4.000000,4.000000,4.000000,100.000000,,,,,,,,,,,,,,,,,,,,,,,,,,,,
1703503581.169237,1703503581.169900,112.000000,0.000000,4265.769043,4249.487305,4294.487305,4301.794922,4262.051270,4256.025879,4267.436035,4275.384766,4265.897461,4246.153809,4510.897461,4474.230957,4361.666504,4429.487305,6863.000000,3.000000,61.000000,,,,0.000000,4.000000,4.000000,4.000000,4.000000,4.000000,4.000000,4.000000,4.000000,4.000000,4.000000,4.000000,4.000000,4.000000,4.000000,100.000000,,,,,,,,,,,,,,,,,28.000000,0.000000,0.432389,0.524231,-0.453369,0.576782,0.989867,-0.059089,0.049322,-14.191066,-39.593861,61.304886
1703503581.177045,1703503581.177708,113.000000,0.000000,4263.974121,4246.282227,4296.025879,4302.179688,4263.717773,4261.410156,4267.563965,4278.717773,4270.128418,4252.307617,4515.000000,4473.846191,4366.282227,4427.692383,7244.000000,3.000000,61.000000,,,,0.000000,4.000000,4.000000,4.000000,4.000000,4.000000,4.000000,4.000000,4.000000,4.000000,4.000000,4.000000,4.000000,4.000000,4.000000,100.000000,,,,,,,,,,,,,,,,,,,,,,,,,,,,
1703503581.184853,1703503581.185616,114.000000,0.000000,4269.871582,4253.717773,4304.230957,4304.615234,4262.563965,4252.051270,4265.384766,4270.256348,4263.205078,4253.333496,4513.974121,4481.410156,4362.948730,4427.563965,6065.000000,3.000000,61.000000,,,,0.000000,4.000000,4.000000,4.000000,4.000000,4.000000,4.000000,4.000000,4.000000,4.000000,4.000000,4.000000,4.000000,4.000000,4.000000,100.000000,,,,,,,,,,,,,,,,,,,,,,,,,,,,
1703503581.192661,1703503581.193424,115.000000,0.000000,4277.051270,4262.179688,4308.846191,4309.230957,4260.384766,4251.282227,4264.615234,4255.641113,4251.025879,4240.897461,4504.871582,4483.205078,4353.589844,4432.436035,6337.000000,3.000000,61.000000,,,,0.000000,4.000000,4.000000,4.000000,4.000000,4.000000,4.000000,4.000000,4.000000,4.000000,4.000000,4.000000,4.000000,4.000000,4.000000,100.000000,,,,,,,,,,,,,,,,,,,,,,,,,,,,
1703503581.200469,1703503581.201332,116.000000,0.000000,4276.794922,4261.538574,4306.794922,4308.461426,4261.922852,4261.025879,4266.153809,4247.563965,4241.666504,4230.769043,4496.153809,4471.538574,4350.769043,4431.282227,6863.000000,3.000000,61.000000,,,,0.000000,4.000000,4.000000,4.000000,4.000000,4.000000,4.000000,4.000000,4.000000,4.000000,4.000000,4.000000,4.000000,4.000000,4.000000,100.000000,,,,,,,,,,,,,,,,,29.000000,0.000000,0.432347,0.524170,-0.453247,0.576965,0.987914,-0.065926,0.046881,-14.221959,-39.467808,61.474396
1703503581.208277,1703503581.209140,117.000000,0.000000,4273.589844,4263.205078,4301.025879,4307.692383,4266.410156,4260.512695,4266.666504,4245.641113,4235.512695,4232.051270,4495.000000,4461.538574,4346.282227,4417.436035,7244.000000,3.000000,61.000000,,,,0.000000,4.000000,4.000000,4.000000,4.000000,4.000000,4.000000,4.000000,4.000000,4.000000,4.000000,4.000000,4.000000,4.000000,4.000000,100.000000,,,,,,,,,,,,,,,,,,,,,,,,,,,,
1703503581.216085,1703503581.216848,118.000000,0.000000,4273.589844,4264.743652,4296.025879,4310.769043,4268.846191,4258.333496,4264.871582,4244.358887,4236.025879,4231.282227,4497.948730,4459.871582,4337.563965,4413.589844,6065.000000,3.000000,61.000000,,,,0.000000,4.000000,4.000000,4.000000,4.000000,4.000000,4.000000,4.000000,4.000000,4.000000,4.000000,4.000000,4.000000,4.000000,4.000000,100.000000,,,,,,,,,,,,,,,,,,,,,,,,,,,,
1703503581.223893,1703503581.224656,119.000000,0.000000,4276.410156,4260.769043,4300.000000,4309.615234,4265.384766,4263.589844,4266.282227,4252.051270,4245.512695,4228.333496,4502.051270,4465.384766,4339.615234,4426.794922,6337.000000,3.000000,61.000000,,,,0.000000,4.000000,4.000000,4.000000,4.000000,4.000000,4.000000,4.000000,4.000000,4.000000,4.000000,4.000000,4.000000,4.000000,4.000000,100.000000,,,,,,,,,,,,,,,,,,,,,,,,,,,,
1703503581.231701,1703503581.232364,120.000000,0.000000,4273.974121,4260.000000,4303.077148,4309.358887,4264.230957,4263.461426,4273.461426,4272.563965,4262.692383,4241.922852,4511.538574,4473.333496,4339.615234,4430.384766,6863.000000,3.000000,61.000000,,,,0.000000,4.000000,4.000000,4.000000,4.000000,4.000000,4.000000,4.000000,4.000000,4.000000,4.000000,4.000000,4.000000,4.000000,4.000000,100.000000,,,,,,,,,,,,,,,,,30.000000,0.000000,0.432062,0.524414,-0.453003,0.577148,0.989379,-0.074716,0.039067,-14.099763,-39.371025,61.410290
1703503581.239509,1703503581.240172,121.000000,0.000000,4262.563965,4257.307617,4295.128418,4309.615234,4266.282227,4261.794922,4277.563965,4287.051270,4274.743652,4258.717773,4523.846191,4475.512695,4318.974121,4416.410156,7244.000000,3.000000,61.000000,,,,0.000000,4.000000,4.000000,4.000000,4.000000,4.000000,4.000000,4.000000,4.000000,4.000000,4.000000,4.000000,4.000000,4.000000,4.000000,100.000000,,,,,,,,,,,,,,,,,,,,,,,,,,,,
1703503581.247317,1703503581.247880,122.000000,0.000000,4258.589844,4249.102539,4290.000000,4306.025879,4262.948730,4262.820313,4270.769043,4285.256348,4272.307617,4253.974121,4530.000000,4471.538574,4301.025879,4416.025879,6065.000000,3.000000,61.000000,,,,0.000000,4.000000,4.000000,4.000000,4.000000,4.000000,4.000000,4.000000,4.000000,4.000000,4.000000,4.000000,4.000000,4.000000,4.000000,100.000000,,,,,,,,,,,,,,,,,,,,,,,,,,,,
1703503581.255125,1703503581.255688,123.000000,0.000000,4270.897461,4247.820313,4298.846191,4306.538574,4259.102539,4262.692383,4266.025879,4282.563965,4264.358887,4244.358887,4535.000000,4473.077148,4307.692383,4437.948730,6337.000000,3.000000,61.000000,,,,0.000000,4.000000,4.000000,4.000000,4.000000,4.000000,4.000000,4.000000,4.000000,4.000000,4.000000,4.000000,4.000000,4.000000,4.000000,100.000000,,,,,,,,,,,,,,,,,,,,,,,,,,,,
1703503581.262933,1703503581.263396,124.000000,0.000000,4279.102539,4250.512695,4309.102539,4312.436035,4261.025879,4261.922852,4274.102539,4283.461426,4266.153809,4250.641113,4542.948730,4484.615234,4318.717773,4448.717773,6863.000000,3.000000,61.000000,,,,0.000000,4.000000,4.000000,4.000000,4.000000,4.000000,4.000000,4.000000,4.000000,4.000000,4.000000,4.000000,4.000000,4.000000,4.000000,100.000000,,,,,,,,,,,,,,,,,31.000000,0.000000,0.432007,0.524536,-0.452759,0.577271,0.996215,-0.078623,0.037602,-14.056454,-39.300591,61.402596
1703503581.270741,1703503581.271204,125.000000,0.000000,4277.563965,4254.230957,4311.025879,4319.358887,4263.077148,4263.589844,4281.282227,4282.179688,4273.974121,4261.282227,4542.179688,4493.077148,4324.615234,4447.692383,7244.000000,3.000000,61.000000,,,,0.000000,4.000000,4.000000,4.000000,4.000000,4.000000,4.000000,4.000000,4.000000,4.000000,4.000000,4.000000,4.000000,4.000000,4.000000,100.000000,,,,,,,,,,,,,,,,,,,,,,,,,,,,
1703503581.278549,1703503581.278912,126.000000,0.000000,4277.307617,4263.077148,4312.563965,4323.461426,4263.205078,4265.641113,4279.358887,4276.282227,4272.692383,4258.205078,4539.871582,4493.333496,4330.641113,4453.846191,6065.000000,3.000000,61.000000,,,,0.000000,4.000000,4.000000,4.000000,4.000000,4.000000,4.000000,4.000000,4.000000,4.000000,4.000000,4.000000,4.000000,4.000000,4.000000,100.000000,,,,,,,,,,,,,,,,,,,,,,,,,,,,
1703503581.286357,1703503581.286720,127.000000,0.000000,4280.384766,4265.641113,4317.820313,4324.487305,4265.000000,4268.333496,4278.846191,4268.205078,4265.384766,4248.589844,4542.179688,4493.589844,4330.128418,4455.384766,61.000000,3.000000,61.000000,,,,0.000000,4.000000,4.000000,4.000000,4.000000,4.000000,4.000000,4.000000,4.000000,4.000000,4.000000,4.000000,4.000000,4.000000,4.000000,100.000000,,,,,,,,,,,,,,,,,,,,,,,,,,,,
1703503581.294165,1703503581.294428,0.000000,0.000000,4279.615234,4259.743652,4317.179688,4323.461426,4267.307617,4270.512695,4280.128418,4266.410156,4263.974121,4251.794922,4538.461426,4490.256348,4330.512695,4449.102539,5277.000000,3.000000,61.000000,,,,0.000000,4.000000,4.000000,4.000000,4.000000,4.000000,4.000000,4.000000,4.000000,4.000000,4.000000,4.000000,4.000000,4.000000,4.000000,100.000000,,,,,,,,,,,,,,,,,0.000000,0.000000,0.432135,0.524536,-0.452637,0.577271,0.980100,-0.078135,0.046881,-14.284142,-39.287197,61.395668
1703503581.301973,1703503581.302336,1.000000,0.000000,4270.641113,4258.205078,4309.871582,4318.205078,4266.666504,4267.051270,4275.256348,4265.512695,4263.077148,4255.256348,4528.717773,4478.461426,4329.871582,4441.794922,5522.000000,3.000000,61.000000,,,,0.000000,4.000000,4.000000,4.000000,4.000000,4.000000,4.000000,4.000000,4.000000,4.000000,4.000000,4.000000,4.000000,4.000000,4.000000,100.000000,,,,,,,,,,,,,,,,,,,,,,,,,,,,
1703503581.309782,1703503581.310144,2.000000,0.000000,4262.307617,4256.794922,4304.615234,4312.051270,4264.102539,4263.974121,4272.948730,4263.846191,4254.102539,4240.769043,4521.922852,4471.538574,4321.794922,4431.025879,5414.000000,3.000000,61.000000,,,,0.000000,4.000000,4.000000,4.000000,4.000000,4.000000,4.000000,4.000000,4.000000,4.000000,4.000000,4.000000,4.000000,4.000000,4.000000,100.000000,,,,,,,,,,,,,,,,,,,,,,,,,,,,
1703503581.317590,1703503581.318052,3.000000,0.000000,4262.307617,4251.922852,4298.974121,4308.333496,4264.487305,4264.615234,4275.897461,4266.282227,4247.179688,4228.077148,4521.410156,4474.871582,4320.256348,4424.615234,5392.000000,3.000000,61.000000,,,,0.000000,4.000000,4.000000,4.000000,4.000000,4.000000,4.000000,4.000000,4.000000,4.000000,4.000000,4.000000,4.000000,4.000000,4.000000,100.000000,,,,,,,,,,,,,,,,,,,,,,,,,,,,
1703503581.325398,1703503581.325860,4.000000,0.000000,4264.743652,4247.436035,4295.384766,4305.769043,4264.230957,4262.179688,4271.153809,4268.717773,4246.282227,4234.358887,4516.794922,4475.256348,4323.589844,4428.205078,5312.000000,3.000000,61.000000,,,,0.000000,4.000000,4.000000,4.000000,4.000000,4.000000,4.000000,4.000000,4.000000,4.000000,4.000000,4.000000,4.000000,4.000000,4.000000,100.000000,,,,,,,,,,,,,,,,,1.000000,0.000000,0.432308,0.524475,-0.452698,0.577148,0.988890,-0.079111,0.052741,-14.189060,-39.391811,61.306103
1703503581.333206,1703503581.333768,5.000000,0.000000,4263.333496,4247.820313,4296.025879,4306.025879,4259.743652,4257.948730,4266.025879,4267.307617,4250.000000,4239.743652,4513.717773,4472.563965,4325.512695,4432.948730,4929.000000,3.000000,61.000000,,,,0.000000,4.000000,4.000000,4.000000,4.000000,4.000000,4.000000,4.000000,4.000000,4.000000,4.000000,4.000000,4.000000,4.000000,4.000000,100.000000,,,,,,,,,,,,,,,,,,,,,,,,,,,,
1703503581.341014,1703503581.341576,6.000000,0.000000,4264.102539,4254.615234,4298.974121,4310.128418,4261.538574,4261.794922,4274.102539,4268.717773,4253.846191,4236.282227,4520.384766,4474.358887,4331.282227,4434.230957,4001.000000,3.000000,61.000000,,,,0.000000,4.000000,4.000000,4.000000,4.000000,4.000000,4.000000,4.000000,4.000000,4.000000,4.000000,4.000000,4.000000,4.000000,4.000000,100.000000,,,,,,,,,,,,,,,,,,,,,,,,,,,,
1703503581.348822,1703503581.349484,7.000000,0.000000,4272.051270,4262.563965,4305.512695,4314.102539,4270.384766,4267.563965,4282.307617,4272.692383,4251.666504,4237.307617,4524.615234,4479.230957,4340.512695,4438.205078,5025.000000,3.000000,61.000000,,,,0.000000,4.000000,4.000000,4.000000,4.000000,4.000000,4.000000,4.000000,4.000000,4.000000,4.000000,4.000000,4.000000,4.000000,4.000000,100.000000,,,,,,,,,,,,,,,,,,,,,,,,,,,,
1703503581.356630,1703503581.357292,8.000000,0.000000,4280.512695,4263.717773,4309.871582,4318.077148,4272.051270,4265.769043,4278.461426,4277.436035,4255.769043,4246.794922,4525.000000,4484.487305,4347.436035,4443.974121,4984.000000,3.000000,61.000000,,,,0.000000,4.000000,4.000000,4.000000,4.000000,4.000000,4.000000,4.000000,4.000000,4.000000,4.000000,4.000000,4.000000,4.000000,4.000000,100.000000,,,,,,,,,,,,,,,,,2.000000,0.000000,0.432328,0.524353,-0.452820,0.577148,0.987425,-0.060066,0.048834,-14.186821,-39.485966,61.275494
1703503581.364438,1703503581.365200,9.000000,0.000000,4286.666504,4262.179688,4313.589844,4325.256348,4265.897461,4262.820313,4278.717773,4278.974121,4265.769043,4249.615234,4526.153809,4489.871582,4351.922852,4450.256348,5504.000000,3.000000,61.000000,,,,0.000000,4.000000,4.000000,4.000000,4.000000,4.000000,4.000000,4.000000,4.000000,4.000000,4.000000,4.000000,4.000000,4.000000,4.000000,100.000000,,,,,,,,,,,,,,,,,,,,,,,,,,,,
1703503581.372246,1703503581.373008,10.000000,0.000000,4289.615234,4271.282227,4316.666504,4327.948730,4263.717773,4262.307617,4278.974121,4268.205078,4263.333496,4245.256348,4525.256348,4488.846191,4354.487305,4456.538574,6063.000000,3.000000,61.000000,,,,0.000000,4.000000,4.000000,4.000000,4.000000,4.000000,4.000000,4.000000,4.000000,4.000000,4.000000,4.000000,4.000000,4.000000,4.000000,100.000000,,,,,,,,,,,,,,,,,,,,,,,,,,,,
1703503581.380054,1703503581.380915,11.000000,0.000000,4289.487305,4279.871582,4312.820313,4326.794922,4266.153809,4262.307617,4271.025879,4259.871582,4253.589844,4245.384766,4523.333496,4481.922852,4356.538574,4457.820313,6337.000000,3.000000,61.000000,,,,0.000000,4.000000,4.000000,4.000000,4.000000,4.000000,4.000000,4.000000,4.000000,4.000000,4.000000,4.000000,4.000000,4.000000,4.000000,100.000000,,,,,,,,,,,,,,,,,,,,,,,,,,,,
1703503581.387862,1703503581.388723,12.000000,0.000000,4290.256348,4276.410156,4310.512695,4327.563965,4266.538574,4261.794922,4265.769043,4262.436035,4252.692383,4247.051270,4523.589844,4479.743652,4359.358887,4451.282227,6857.000000,3.000000,61.000000,,,,0.000000,4.000000,4.000000,4.000000,4.000000,4.000000,4.000000,4.000000,4.000000,4.000000,4.000000,4.000000,4.000000,4.000000,4.000000,100.000000,,,,,,,,,,,,,,,,,3.000000,0.000000,0.432260,0.524170,-0.452942,0.577271,0.993285,-0.065926,0.046392,-14.184806,-39.487366,61.331276
1703503581.395670,1703503581.396431,13.000000,0.000000,4293.461426,4273.205078,4311.666504,4326.794922,4266.025879,4261.153809,4267.436035,4264.102539,4254.743652,4246.153809,4520.000000,4481.153809,4361.794922,4444.358887,7241.000000,3.000000,61.000000,,,,0.000000,4.000000,4.000000,4.000000,4.000000,4.000000,4.000000,4.000000,4.000000,4.000000,4.000000,4.000000,4.000000,4.000000,4.000000,100.000000,,,,,,,,,,,,,,,,,,,,,,,,,,,,
1703503581.403478,1703503581.404239,14.000000,0.000000,4294.871582,4271.922852,4311.153809,4322.563965,4265.512695,4262.179688,4272.179688,4263.846191,4253.589844,4242.179688,4511.538574,4477.820313,4361.410156,4446.794922,6063.000000,3.000000,61.000000,,,,0.000000,4.000000,4.000000,4.000000,4.000000,4.000000,4.000000,4.000000,4.000000,4.000000,4.000000,4.000000,4.000000,4.000000,4.000000,100.000000,,,,,,,,,,,,,,,,,,,,,,,,,,,,
1703503581.411286,1703503581.411948,15.000000,0.000000,4288.077148,4266.666504,4308.077148,4317.436035,4264.743652,4264.358887,4274.871582,4265.000000,4248.333496,4242.051270,4507.179688,4477.051270,4361.153809,4449.487305,6337.000000,3.000000,61.000000,,,,0.000000,4.000000,4.000000,4.000000,4.000000,4.000000,4.000000,4.000000,4.000000,4.000000,4.000000,4.000000,4.000000,4.000000,4.000000,100.000000,,,,,,,,,,,,,,,,,,,,,,,,,,,,
1703503581.419094,1703503581.419756,16.000000,0.000000,4278.205078,4260.256348,4300.641113,4308.461426,4264.358887,4264.102539,4275.641113,4271.153809,4247.051270,4243.205078,4505.256348,4483.461426,4356.025879,4443.333496,0.000000,3.000000,61.000000,,,,0.000000,4.000000,4.000000,4.000000,4.000000,4.000000,4.000000,4.000000,4.000000,4.000000,4.000000,4.000000,4.000000,4.000000,4.000000,100.000000,,,,,,,,,,,,,,,,,4.000000,0.000000,0.432328,0.523926,-0.453003,0.577393,0.998169,-0.074716,0.041509,-14.116325,-39.421963,61.198147
1703503581.426902,1703503581.427464,17.000000,0.000000,4276.410156,4258.333496,4294.615234,4301.282227,4265.512695,4263.846191,4278.846191,4280.128418,4256.666504,4238.333496,4502.307617,4487.179688,4349.102539,4437.307617,0.000000,3.000000,61.000000,,,,0.000000,4.000000,4.000000,4.000000,4.000000,4.000000,4.000000,4.000000,4.000000,4.000000,4.000000,4.000000,4.000000,4.000000,4.000000,100.000000,,,,,,,,,,,,,,,,,,,,,,,,,,,,
1703503581.434710,1703503581.435371,18.000000,0.000000,4280.128418,4260.897461,4294.615234,4305.641113,4270.000000,4267.948730,4280.769043,4285.000000,4266.538574,4240.256348,4508.717773,4489.615234,4359.102539,4443.589844,0.000000,3.000000,61.000000,,,,0.000000,4.000000,4.000000,4.000000,4.000000,4.000000,4.000000,4.000000,4.000000,4.000000,4.000000,4.000000,4.000000,4.000000,4.000000,100.000000,,,,,,,,,,,,,,,,,,,,,,,,,,,,
1703503581.442518,1703503581.443179,19.000000,0.000000,4282.436035,4265.128418,4298.205078,4309.871582,4267.820313,4267.051270,4278.846191,4279.615234,4260.641113,4241.922852,4510.512695,4487.692383,4368.846191,4448.333496,0.000000,3.000000,61.000000,,,,0.000000,4.000000,4.000000,4.000000,4.000000,4.000000,4.000000,4.000000,4.000000,4.000000,4.000000,4.000000,4.000000,4.000000,4.000000,100.000000,,,,,,,,,,,,,,,,,,,,,,,,,,,,
1703503581.450327,1703503581.451088,20.000000,0.000000,4287.563965,4266.282227,4305.000000,4306.538574,4259.102539,4259.871582,4273.333496,4268.205078,4247.948730,4234.102539,4496.282227,4477.179688,4360.641113,4442.692383,0.000000,3.000000,61.000000,,,,0.000000,4.000000,4.000000,4.000000,4.000000,4.000000,4.000000,4.000000,4.000000,4.000000,4.000000,4.000000,4.000000,4.000000,4.000000,100.000000,,,,,,,,,,,,,,,,,5.000000,0.000000,0.432030,0.523865,-0.453125,0.577576,0.988402,-0.072763,0.030277,-14.121359,-39.229767,61.211666
1703503581.458135,1703503581.458896,21.000000,0.000000,4294.871582,4266.666504,4311.666504,4306.410156,4260.128418,4259.871582,4268.589844,4261.922852,4252.563965,4237.563965,4496.666504,4477.436035,4365.769043,4450.641113,0.000000,3.000000,61.000000,,,,0.000000,4.000000,4.000000,4.000000,4.000000,4.000000,4.000000,4.000000,4.000000,4.000000,4.000000,4.000000,4.000000,4.000000,4.000000,100.000000,,,,,,,,,,,,,,,,,,,,,,,,,,,,
1703503581.465943,1703503581.466704,22.000000,0.000000,4291.153809,4265.256348,4315.128418,4308.717773,4266.538574,4263.974121,4269.358887,4263.974121,4265.256348,4250.641113,4509.102539,4492.436035,4381.538574,4457.692383,0.000000,3.000000,61.000000,,,,0.000000,4.000000,4.000000,4.000000,4.000000,4.000000,4.000000,4.000000,4.000000,4.000000,4.000000,4.000000,4.000000,4.000000,4.000000,100.000000,,,,,,,,,,,,,,,,,,,,,,,,,,,,
1703503581.473751,1703503581.474412,23.000000,0.000000,4289.358887,4261.666504,4317.948730,4308.846191,4266.410156,4262.563965,4273.077148,4266.538574,4266.922852,4253.589844,4509.358887,4500.000000,4381.922852,4448.589844,0.000000,3.000000,61.000000,,,,0.000000,4.000000,4.000000,4.000000,4.000000,4.000000,4.000000,4.000000,4.000000,4.000000,4.000000,4.000000,4.000000,4.000000,4.000000,100.000000,,,,,,,,,,,,,,,,,,,,,,,,,,,,
1703503581.481559,1703503581.482220,24.000000,0.000000,4293.589844,4262.563965,4317.563965,4311.153809,4264.230957,4261.794922,4275.384766,4266.666504,4262.051270,4249.743652,4506.794922,4492.692383,4376.025879,4445.897461,0.000000,3.000000,61.000000,,,,0.000000,4.000000,4.000000,4.000000,4.000000,4.000000,4.000000,4.000000,4.000000,4.000000,4.000000,4.000000,4.000000,4.000000,4.000000,100.000000,,,,,,,,,,,,,,,,,6.000000,0.000000,0.431996,0.523682,-0.453369,0.577576,0.991332,-0.079111,0.039556,-14.192556,-39.373459,61.257168
1703503581.489367,1703503581.489928,25.000000,0.000000,4288.461426,4266.666504,4312.436035,4311.025879,4264.102539,4264.102539,4277.948730,4264.102539,4251.922852,4237.948730,4495.128418,4480.641113,4361.538574,4439.871582,0.000000,3.000000,61.000000,,,,0.000000,4.000000,4.000000,4.000000,4.000000,4.000000,4.000000,4.000000,4.000000,4.000000,4.000000,4.000000,4.000000,4.000000,4.000000,100.000000,,,,,,,,,,,,,,,,,,,,,,,,,,,,
1703503581.497175,1703503581.497836,26.000000,0.000000,4279.615234,4260.641113,4310.384766,4301.666504,4264.102539,4266.025879,4279.358887,4264.487305,4245.512695,4226.794922,4479.230957,4474.615234,4348.333496,4426.410156,0.000000,3.000000,61.000000,,,,0.000000,4.000000,4.000000,4.000000,4.000000,4.000000,4.000000,4.000000,4.000000,4.000000,4.000000,4.000000,4.000000,4.000000,4.000000,100.000000,,,,,,,,,,,,,,,,,,,,,,,,,,,,
1703503581.504983,1703503581.505644,27.000000,0.000000,4275.897461,4246.410156,4310.641113,4291.666504,4262.307617,4267.051270,4281.153809,4269.743652,4248.077148,4233.461426,4484.358887,4476.794922,4359.871582,4427.051270,0.000000,3.000000,61.000000,,,,0.000000,4.000000,4.000000,4.000000,4.000000,4.000000,4.000000,4.000000,4.000000,4.000000,4.000000,4.000000,4.000000,4.000000,4.000000,100.000000,,,,,,,,,,,,,,,,,,,,,,,,,,,,
1703503581.512791,1703503581.513552,28.000000,0.000000,4279.358887,4252.051270,4310.128418,4294.871582,4261.666504,4267.179688,4283.077148,4269.871582,4248.205078,4237.051270,4495.000000,4478.589844,4369.871582,4437.820313,0.000000,3.000000,61.000000,,,,0.000000,4.000000,4.000000,4.000000,4.000000,4.000000,4.000000,4.000000,4.000000,4.000000,4.000000,4.000000,4.000000,4.000000,4.000000,100.000000,,,,,,,,,,,,,,,,,7.000000,0.000000,0.431796,0.523621,-0.453552,0.577637,0.986937,-0.069833,0.048834,-14.189968,-39.269444,61.348118
1703503581.520599,1703503581.521360,29.000000,0.000000,4289.615234,4271.922852,4311.153809,4305.512695,4265.897461,4264.743652,4282.820313,4264.743652,4246.282227,4230.769043,4489.871582,4476.794922,4366.282227,4443.589844,0.000000,3.000000,61.000000,,,,0.000000,4.000000,4.000000,4.000000,4.000000,4.000000,4.000000,4.000000,4.000000,4.000000,4.000000,4.000000,4.000000,4.000000,4.000000,100.000000,,,,,,,,,,,,,,,,,,,,,,,,,,,,
1703503581.528407,1703503581.529268,30.000000,0.000000,4296.794922,4270.769043,4311.666504,4303.846191,4266.794922,4262.692383,4278.846191,4261.666504,4247.051270,4228.205078,4478.333496,4472.820313,4365.000000,4439.615234,0.000000,3.000000,61.000000,,,,0.000000,4.000000,4.000000,4.000000,4.000000,4.000000,4.000000,4.000000,4.000000,4.000000,4.000000,4.000000,4.000000,4.000000,4.000000,100.000000,,,,,,,,,,,,,,,,,,,,,,,,,,,,
1703503581.536215,1703503581.537076,31.000000,0.000000,4294.102539,4263.846191,4308.589844,4298.589844,4266.410156,4263.717773,4271.922852,4259.230957,4246.794922,4232.948730,4474.871582,4471.025879,4369.871582,4435.128418,0.000000,3.000000,61.000000,,,,0.000000,4.000000,4.000000,4.000000,4.000000,4.000000,4.000000,4.000000,4.000000,4.000000,4.000000,4.000000,4.000000,4.000000,4.000000,100.000000,,,,,,,,,,,,,,,,,,,,,,,,,,,,
1703503581.544023,1703503581.544983,32.000000,0.000000,4297.563965,4272.436035,4310.769043,4307.563965,4268.205078,4263.589844,4271.282227,4255.769043,4248.461426,4238.717773,4478.589844,4475.128418,4377.307617,4443.846191,0.000000,3.000000,61.000000,,,,0.000000,4.000000,4.000000,4.000000,4.000000,4.000000,4.000000,4.000000,4.000000,4.000000,4.000000,4.000000,4.000000,4.000000,4.000000,100.000000,,,,,,,,,,,,,,,,,8.000000,0.000000,0.431632,0.523621,-0.453552,0.577759,0.991820,-0.078135,0.042486,-14.320971,-39.259167,61.429974
1703503581.551831,1703503581.552791,33.000000,0.000000,4307.948730,4273.333496,4319.230957,4313.589844,4265.641113,4262.051270,4273.461426,4258.205078,4251.666504,4237.051270,4481.922852,4479.615234,4384.102539,4453.974121,0.000000,3.000000,61.000000,,,,0.000000,4.000000,4.000000,4.000000,4.000000,4.000000,4.000000,4.000000,4.000000,4.000000,4.000000,4.000000,4.000000,4.000000,4.000000,100.000000,1.000000,100.000000,4.000000,4.000000,4.000000,4.000000,4.000000,4.000000,4.000000,4.000000,4.000000,4.000000,4.000000,4.000000,4.000000,4.000000,,,,,,,,,,,,
1703503581.559639,1703503581.560699,34.000000,0.000000,4305.000000,4266.025879,4318.205078,4302.692383,4263.846191,4262.563965,4267.820313,4260.641113,4252.948730,4234.102539,4476.538574,4475.512695,4384.743652,4449.358887,0.000000,3.000000,61.000000,,,,0.000000,4.000000,4.000000,4.000000,4.000000,4.000000,4.000000,4.000000,4.000000,4.000000,4.000000,4.000000,4.000000,4.000000,4.000000,100.000000,,,,,,,,,,,,,,,,,,,,,,,,,,,,
1703503581.567447,1703503581.568607,35.000000,0.000000,4289.615234,4261.025879,4307.051270,4292.692383,4262.948730,4264.358887,4266.794922,4251.666504,4242.948730,4226.410156,4460.897461,4461.794922,4368.461426,4434.487305,0.000000,3.000000,61.000000,,,,0.000000,4.000000,4.000000,4.000000,4.000000,4.000000,4.000000,4.000000,4.000000,4.000000,4.000000,4.000000,4.000000,4.000000,4.000000,100.000000,,,,,,,,,,,,,,,,,,,,,,,,,,,,
1703503581.575255,1703503581.576416,36.000000,0.000000,4279.615234,4254.615234,4297.820313,4293.846191,4265.128418,4270.128418,4278.333496,4250.897461,4237.563965,4223.333496,4457.820313,4456.025879,4363.846191,4428.589844,0.000000,3.000000,61.000000,,,,0.000000,4.000000,4.000000,4.000000,4.000000,4.000000,4.000000,4.000000,4.000000,4.000000,4.000000,4.000000,4.000000,4.000000,4.000000,100.000000,,,,,,,,,,,,,,,,,9.000000,0.000000,0.431568,0.523621,-0.453613,0.577759,0.987425,-0.067879,0.035649,-14.455541,-39.399918,61.403641
1703503581.583063,1703503581.584224,37.000000,0.000000,4283.589844,4256.410156,4297.948730,4294.871582,4274.102539,4276.025879,4282.692383,4262.692383,4248.717773,4238.717773,4474.358887,4467.307617,4385.897461,4443.077148,0.000000,3.000000,61.000000,,,,0.000000,4.000000,4.000000,4.000000,4.000000,4.000000,4.000000,4.000000,4.000000,4.000000,4.000000,4.000000,4.000000,4.000000,4.000000,100.000000,,,,,,,,,,,,,,,,,,,,,,,,,,,,
1703503581.590871,1703503581.591932,38.000000,0.000000,4292.820313,4265.256348,4305.128418,4295.769043,4275.256348,4276.153809,4278.589844,4266.153809,4252.692383,4244.487305,4481.538574,4481.410156,4388.846191,4451.922852,0.000000,3.000000,61.000000,,,,0.000000,4.000000,4.000000,4.000000,4.000000,4.000000,4.000000,4.000000,4.000000,4.000000,4.000000,4.000000,4.000000,4.000000,4.000000,100.000000,,,,,,,,,,,,,,,,,,,,,,,,,,,,
1703503581.598679,1703503581.599740,39.000000,0.000000,4297.436035,4264.102539,4312.051270,4300.128418,4265.512695,4273.333496,4279.871582,4270.000000,4250.512695,4237.820313,4477.820313,4492.948730,4376.410156,4446.666504,0.000000,3.000000,61.000000,,,,0.000000,4.000000,4.000000,4.000000,4.000000,4.000000,4.000000,4.000000,4.000000,4.000000,4.000000,4.000000,4.000000,4.000000,4.000000,100.000000,,,,,,,,,,,,,,,,,,,,,,,,,,,,
1703503581.606488,1703503581.607448,40.000000,0.000000,4303.205078,4264.102539,4319.358887,4305.641113,4261.794922,4271.025879,4282.948730,4288.717773,4260.769043,4250.897461,4489.743652,4507.820313,4397.436035,4462.436035,0.000000,3.000000,61.000000,,,,0.000000,4.000000,4.000000,4.000000,4.000000,4.000000,4.000000,4.000000,4.000000,4.000000,4.000000,4.000000,4.000000,4.000000,4.000000,100.000000,,,,,,,,,,,,,,,,,10.000000,0.000000,0.431422,0.523621,-0.453674,0.577820,0.989867,-0.080088,0.037602,-14.376653,-39.409927,61.563278
1703503581.614296,1703503581.615256,41.000000,0.000000,4311.410156,4277.692383,4327.307617,4310.641113,4265.256348,4271.153809,4282.563965,4301.410156,4272.820313,4268.717773,4507.307617,4514.102539,4420.256348,4481.410156,0.000000,3.000000,61.000000,,,,0.000000,4.000000,4.000000,4.000000,4.000000,4.000000,4.000000,4.000000,4.000000,4.000000,4.000000,4.000000,4.000000,4.000000,4.000000,100.000000,,,,,,,,,,,,,,,,,,,,,,,,,,,,
1703503581.622104,1703503581.622964,42.000000,0.000000,4306.410156,4280.384766,4327.307617,4312.307617,4266.922852,4273.846191,4280.897461,4294.743652,4272.307617,4265.128418,4504.871582,4504.102539,4410.256348,4470.256348,0.000000,3.000000,61.000000,,,,0.000000,4.000000,4.000000,4.000000,4.000000,4.000000,4.000000,4.000000,4.000000,4.000000,4.000000,4.000000,4.000000,4.000000,4.000000,100.000000,,,,,,,,,,,,,,,,,,,,,,,,,,,,
1703503581.629912,1703503581.630772,43.000000,0.000000,4295.641113,4268.461426,4322.436035,4311.282227,4265.000000,4276.794922,4280.897461,4285.769043,4268.461426,4261.538574,4498.589844,4496.922852,4410.384766,4459.487305,0.000000,3.000000,61.000000,,,,0.000000,4.000000,4.000000,4.000000,4.000000,4.000000,4.000000,4.000000,4.000000,4.000000,4.000000,4.000000,4.000000,4.000000,4.000000,100.000000,,,,,,,,,,,,,,,,,,,,,,,,,,,,
1703503581.637720,1703503581.638480,44.000000,0.000000,4298.333496,4264.871582,4318.974121,4311.153809,4265.897461,4277.692383,4282.563965,4282.307617,4268.589844,4267.820313,4500.897461,4494.487305,4421.794922,4465.897461,0.000000,3.000000,61.000000,,,,0.000000,4.000000,4.000000,4.000000,4.000000,4.000000,4.000000,4.000000,4.000000,4.000000,4.000000,4.000000,4.000000,4.000000,4.000000,100.000000,,,,,,,,,,,,,,,,,11.000000,0.000000,0.431403,0.523743,-0.453552,0.577820,0.992309,-0.068368,0.040532,-14.422321,-39.352264,61.490284
1703503581.645528,1703503581.646288,45.000000,0.000000,4295.000000,4263.077148,4310.128418,4304.487305,4269.615234,4277.563965,4285.897461,4277.179688,4262.948730,4263.589844,4497.948730,4489.102539,4416.282227,4461.025879,0.000000,3.000000,61.000000,,,,0.000000,4.000000,4.000000,4.000000,4.000000,4.000000,4.000000,4.000000,4.000000,4.000000,4.000000,4.000000,4.000000,4.000000,4.000000,100.000000,,,,,,,,,,,,,,,,,,,,,,,,,,,,
1703503581.653336,1703503581.653996,46.000000,0.000000,4283.846191,4254.102539,4306.538574,4294.102539,4268.333496,4277.179688,4288.205078,4270.641113,4253.974121,4253.205078,4491.153809,4489.615234,4411.282227,4449.102539,0.000000,3.000000,61.000000,,,,0.000000,4.000000,4.000000,4.000000,4.000000,4.000000,4.000000,4.000000,4.000000,4.000000,4.000000,4.000000,4.000000,4.000000,4.000000,100.000000,,,,,,,,,,,,,,,,,,,,,,,,,,,,
1703503581.661144,1703503581.661804,47.000000,0.000000,4285.641113,4254.358887,4311.922852,4292.307617,4265.769043,4277.692383,4285.641113,4267.051270,4251.666504,4249.615234,4488.589844,4487.179688,4412.820313,4448.974121,0.000000,3.000000,61.000000,,,,0.000000,4.000000,4.000000,4.000000,4.000000,4.000000,4.000000,4.000000,4.000000,4.000000,4.000000,4.000000,4.000000,4.000000,4.000000,100.000000,,,,,,,,,,,,,,,,,,,,,,,,,,,,
1703503581.668952,1703503581.669512,48.000000,0.000000,4291.922852,4263.461426,4313.717773,4297.563965,4269.615234,4279.743652,4289.230957,4266.282227,4252.051270,4245.384766,4482.948730,4478.077148,4402.179688,4450.641113,0.000000,3.000000,61.000000,,,,0.000000,4.000000,4.000000,4.000000,4.000000,4.000000,4.000000,4.000000,4.000000,4.000000,4.000000,4.000000,4.000000,4.000000,4.000000,100.000000,,,,,,,,,,,,,,,,,12.000000,0.000000,0.431467,0.523743,-0.453491,0.577820,0.982542,-0.074228,0.048346,-14.430089,-39.250374,61.557922
1703503581.676760,1703503581.677420,49.000000,0.000000,4288.333496,4262.436035,4309.743652,4296.922852,4273.333496,4278.974121,4293.077148,4269.358887,4246.922852,4236.153809,4469.102539,4478.333496,4386.922852,4443.974121,0.000000,3.000000,61.000000,,,,0.000000,4.000000,4.000000,4.000000,4.000000,4.000000,4.000000,4.000000,4.000000,4.000000,4.000000,4.000000,4.000000,4.000000,4.000000,100.000000,,,,,,,,,,,,,,,,,,,,,,,,,,,,
1703503581.684568,1703503581.685228,50.000000,0.000000,4286.410156,4256.922852,4308.846191,4293.333496,4273.205078,4279.743652,4286.794922,4276.666504,4249.102539,4237.436035,4468.205078,4489.487305,4386.025879,4440.769043,0.000000,3.000000,61.000000,,,,0.000000,4.000000,4.000000,4.000000,4.000000,4.000000,4.000000,4.000000,4.000000,4.000000,4.000000,4.000000,4.000000,4.000000,4.000000,100.000000,,,,,,,,,,,,,,,,,,,,,,,,,,,,
1703503581.692376,1703503581.693136,51.000000,0.000000,4294.358887,4259.871582,4317.179688,4298.589844,4270.641113,4278.205078,4281.153809,4279.102539,4260.512695,4251.922852,4486.153809,4499.615234,4399.230957,4449.743652,0.000000,3.000000,61.000000,,,,0.000000,4.000000,4.000000,4.000000,4.000000,4.000000,4.000000,4.000000,4.000000,4.000000,4.000000,4.000000,4.000000,4.000000,4.000000,100.000000,,,,,,,,,,,,,,,,,,,,,,,,,,,,
1703503581.700184,1703503581.700944,52.000000,0.000000,4305.256348,4270.897461,4326.025879,4307.179688,4266.538574,4269.487305,4281.153809,4280.641113,4267.051270,4261.922852,4502.563965,4506.153809,4418.717773,4466.794922,0.000000,3.000000,61.000000,,,,0.000000,4.000000,4.000000,4.000000,4.000000,4.000000,4.000000,4.000000,4.000000,4.000000,4.000000,4.000000,4.000000,4.000000,4.000000,100.000000,,,,,,,,,,,,,,,,,13.000000,0.000000,0.431477,0.523682,-0.453552,0.577820,0.989379,-0.076181,0.038579,-14.337080,-39.342003,61.568794
1703503581.707992,1703503581.708852,53.000000,0.000000,4311.538574,4281.410156,4329.871582,4310.769043,4265.000000,4263.461426,4280.384766,4291.666504,4272.948730,4266.538574,4507.051270,4512.179688,4427.948730,4476.025879,0.000000,3.000000,61.000000,,,,0.000000,4.000000,4.000000,4.000000,4.000000,4.000000,4.000000,4.000000,4.000000,4.000000,4.000000,4.000000,4.000000,4.000000,4.000000,100.000000,,,,,,,,,,,,,,,,,,,,,,,,,,,,
1703503581.715800,1703503581.716660,54.000000,0.000000,4313.461426,4280.384766,4335.000000,4310.000000,4266.410156,4264.743652,4279.615234,4299.487305,4280.256348,4274.871582,4512.436035,4518.205078,4427.563965,4473.974121,0.000000,3.000000,61.000000,,,,0.000000,4.000000,4.000000,4.000000,4.000000,4.000000,4.000000,4.000000,4.000000,4.000000,4.000000,4.000000,4.000000,4.000000,4.000000,100.000000,,,,,,,,,,,,,,,,,,,,,,,,,,,,
1703503581.723608,1703503581.724567,55.000000,0.000000,4318.846191,4277.307617,4339.102539,4310.384766,4266.538574,4268.974121,4281.922852,4293.333496,4278.205078,4276.282227,4522.692383,4521.538574,4434.871582,4477.307617,0.000000,3.000000,61.000000,,,,0.000000,4.000000,4.000000,4.000000,4.000000,4.000000,4.000000,4.000000,4.000000,4.000000,4.000000,4.000000,4.000000,4.000000,4.000000,100.000000,,,,,,,,,,,,,,,,,,,,,,,,,,,,
1703503581.731416,1703503581.732375,56.000000,0.000000,4321.538574,4282.179688,4340.000000,4314.358887,4264.871582,4272.436035,4287.948730,4285.769043,4266.922852,4258.717773,4509.615234,4509.230957,4429.871582,4473.461426,0.000000,3.000000,61.000000,,,,0.000000,4.000000,4.000000,4.000000,4.000000,4.000000,4.000000,4.000000,4.000000,4.000000,4.000000,4.000000,4.000000,4.000000,4.000000,100.000000,,,,,,,,,,,,,,,,,14.000000,0.000000,0.431623,0.523682,-0.453491,0.577759,0.977658,-0.078135,0.031254,-14.203372,-39.374470,61.495251
1703503581.739225,1703503581.740283,57.000000,0.000000,4313.717773,4281.666504,4337.820313,4316.538574,4266.666504,4276.666504,4294.358887,4281.666504,4260.000000,4246.538574,4491.922852,4493.077148,4415.512695,4460.256348,0.000000,3.000000,61.000000,,,,0.000000,4.000000,4.000000,4.000000,4.000000,4.000000,4.000000,4.000000,4.000000,4.000000,4.000000,4.000000,4.000000,4.000000,4.000000,100.000000,,,,,,,,,,,,,,,,,,,,,,,,,,,,
1703503581.747033,1703503581.748091,58.000000,0.000000,4307.948730,4274.102539,4333.461426,4312.307617,4270.256348,4279.230957,4296.922852,4282.179688,4264.230957,4258.077148,4498.717773,4497.820313,4422.948730,4464.102539,0.000000,3.000000,61.000000,,,,0.000000,4.000000,4.000000,4.000000,4.000000,4.000000,4.000000,4.000000,4.000000,4.000000,4.000000,4.000000,4.000000,4.000000,4.000000,100.000000,,,,,,,,,,,,,,,,,,,,,,,,,,,,
1703503581.754840,1703503581.755799,59.000000,0.000000,4309.358887,4273.846191,4330.512695,4308.974121,4270.384766,4279.230957,4294.487305,4280.256348,4262.820313,4261.153809,4502.436035,4503.846191,4429.487305,4467.051270,0.000000,3.000000,61.000000,,,,0.000000,4.000000,4.000000,4.000000,4.000000,4.000000,4.000000,4.000000,4.000000,4.000000,4.000000,4.000000,4.000000,4.000000,4.000000,100.000000,,,,,,,,,,,,,,,,,,,,,,,,,,,,
1703503581.762649,1703503581.763607,60.000000,0.000000,4308.846191,4273.717773,4331.538574,4310.128418,4271.666504,4280.128418,4287.948730,4271.025879,4252.179688,4247.051270,4492.820313,4500.000000,4420.769043,4460.641113,0.000000,3.000000,61.000000,,,,0.000000,4.000000,4.000000,4.000000,4.000000,4.000000,4.000000,4.000000,4.000000,4.000000,4.000000,4.000000,4.000000,4.000000,4.000000,100.000000,,,,,,,,,,,,,,,,,15.000000,0.000000,0.431539,0.523804,-0.453430,0.577759,0.987425,-0.070321,0.042486,-14.233035,-39.470356,61.445724
1703503581.770457,1703503581.771515,61.000000,0.000000,4308.846191,4268.717773,4333.846191,4307.820313,4276.282227,4278.846191,4284.230957,4263.589844,4247.692383,4245.897461,4492.307617,4498.205078,4422.692383,4468.077148,0.000000,3.000000,61.000000,,,,0.000000,4.000000,4.000000,4.000000,4.000000,4.000000,4.000000,4.000000,4.000000,4.000000,4.000000,4.000000,4.000000,4.000000,4.000000,100.000000,,,,,,,,,,,,,,,,,,,,,,,,,,,,
1703503581.778265,1703503581.779323,62.000000,0.000000,4315.769043,4272.820313,4338.461426,4312.436035,4278.205078,4276.025879,4284.743652,4262.948730,4251.794922,4255.897461,4500.897461,4505.641113,4428.846191,4477.820313,0.000000,3.000000,61.000000,,,,0.000000,4.000000,4.000000,4.000000,4.000000,4.000000,4.000000,4.000000,4.000000,4.000000,4.000000,4.000000,4.000000,4.000000,4.000000,100.000000,,,,,,,,,,,,,,,,,,,,,,,,,,,,
1703503581.786073,1703503581.787031,63.000000,0.000000,4318.846191,4279.102539,4347.051270,4325.000000,4277.563965,4276.922852,4285.256348,4267.051270,4259.615234,4259.358887,4507.307617,4518.077148,4427.051270,4476.282227,0.000000,3.000000,61.000000,,,,0.000000,4.000000,4.000000,4.000000,4.000000,4.000000,4.000000,4.000000,4.000000,4.000000,4.000000,4.000000,4.000000,4.000000,4.000000,100.000000,,,,,,,,,,,,,,,,,,,,,,,,,,,,
1703503581.793881,1703503581.794839,64.000000,0.000000,4317.692383,4280.769043,4353.205078,4326.922852,4279.743652,4278.974121,4283.974121,4272.436035,4263.974121,4262.436035,4512.179688,4521.794922,4431.153809,4479.871582,5273.000000,3.000000,61.000000,,,,0.000000,4.000000,4.000000,4.000000,4.000000,4.000000,4.000000,4.000000,4.000000,4.000000,4.000000,4.000000,4.000000,4.000000,4.000000,100.000000,,,,,,,,,,,,,,,,,16.000000,0.000000,0.431590,0.523987,-0.453247,0.577698,0.999145,-0.074228,0.038579,-14.393064,-39.689987,61.401154
1703503581.801689,1703503581.802547,65.000000,0.000000,4321.666504,4287.563965,4351.538574,4325.769043,4279.871582,4273.205078,4281.282227,4274.102539,4264.615234,4264.102539,4508.077148,4515.000000,4431.666504,4478.077148,5522.000000,3.000000,61.000000,,,,0.000000,4.000000,4.000000,4.000000,4.000000,4.000000,4.000000,4.000000,4.000000,4.000000,4.000000,4.000000,4.000000,4.000000,4.000000,100.000000,,,,,,,,,,,,,,,,,,,,,,,,,,,,
1703503581.809497,1703503581.810355,66.000000,0.000000,4321.153809,4292.436035,4343.717773,4326.794922,4271.794922,4262.051270,4276.794922,4274.102539,4264.102539,4254.487305,4495.897461,4504.230957,4418.461426,4462.563965,5414.000000,3.000000,61.000000,,,,0.000000,4.000000,4.000000,4.000000,4.000000,4.000000,4.000000,4.000000,4.000000,4.000000,4.000000,4.000000,4.000000,4.000000,4.000000,100.000000,,,,,,,,,,,,,,,,,,,,,,,,,,,,
1703503581.817305,1703503581.818063,67.000000,0.000000,4308.974121,4278.846191,4335.000000,4316.538574,4263.846191,4262.307617,4277.436035,4280.641113,4266.410156,4252.948730,4495.128418,4500.641113,4416.410156,4457.948730,5389.000000,3.000000,61.000000,,,,0.000000,4.000000,4.000000,4.000000,4.000000,4.000000,4.000000,4.000000,4.000000,4.000000,4.000000,4.000000,4.000000,4.000000,4.000000,100.000000,,,,,,,,,,,,,,,,,,,,,,,,,,,,
1703503581.825113,1703503581.825871,68.000000,0.000000,4295.384766,4263.717773,4326.538574,4306.794922,4267.436035,4274.230957,4286.922852,4293.717773,4275.128418,4267.051270,4506.410156,4499.487305,4429.358887,4460.641113,5312.000000,3.000000,61.000000,,,,0.000000,4.000000,4.000000,4.000000,4.000000,4.000000,4.000000,4.000000,4.000000,4.000000,4.000000,4.000000,4.000000,4.000000,4.000000,100.000000,,,,,,,,,,,,,,,,,17.000000,0.000000,0.431417,0.524048,-0.453186,0.577820,0.976193,-0.072763,0.042486,-14.220425,-39.787655,61.377705
1703503581.832921,1703503581.833579,69.000000,0.000000,4293.846191,4270.000000,4321.153809,4316.922852,4275.256348,4280.256348,4294.743652,4297.179688,4278.589844,4269.487305,4504.615234,4495.512695,4430.000000,4453.333496,4929.000000,3.000000,61.000000,,,,0.000000,4.000000,4.000000,4.000000,4.000000,4.000000,4.000000,4.000000,4.000000,4.000000,4.000000,4.000000,4.000000,4.000000,4.000000,100.000000,,,,,,,,,,,,,,,,,,,,,,,,,,,,
1703503581.840729,1703503581.841387,70.000000,0.000000,4298.846191,4281.025879,4324.358887,4328.589844,4277.563965,4278.846191,4296.282227,4292.051270,4275.128418,4261.282227,4495.128418,4498.333496,4421.922852,4451.794922,4001.000000,3.000000,61.000000,,,,0.000000,4.000000,4.000000,4.000000,4.000000,4.000000,4.000000,4.000000,4.000000,4.000000,4.000000,4.000000,4.000000,4.000000,4.000000,100.000000,,,,,,,,,,,,,,,,,,,,,,,,,,,,
1703503581.848537,1703503581.849095,71.000000,0.000000,4297.948730,4281.410156,4326.153809,4326.794922,4278.333496,4281.153809,4294.615234,4288.333496,4274.487305,4265.384766,4498.333496,4502.563965,4425.641113,4457.179688,5025.000000,3.000000,61.000000,,,,0.000000,4.000000,4.000000,4.000000,4.000000,4.000000,4.000000,4.000000,4.000000,4.000000,4.000000,4.000000,4.000000,4.000000,4.000000,100.000000,,,,,,,,,,,,,,,,,,,,,,,,,,,,
1703503581.856345,1703503581.856903,72.000000,0.000000,4296.282227,4276.922852,4323.333496,4326.025879,4281.922852,4284.102539,4295.384766,4280.128418,4269.487305,4263.205078,4495.897461,4497.179688,4427.948730,4450.128418,4984.000000,3.000000,61.000000,,,,0.000000,4.000000,4.000000,4.000000,4.000000,4.000000,4.000000,4.000000,4.000000,4.000000,4.000000,4.000000,4.000000,4.000000,4.000000,100.000000,,,,,,,,,,,,,,,,,18.000000,0.000000,0.431643,0.523804,-0.452942,0.578064,0.981077,-0.083506,0.048346,-14.281715,-39.692223,61.406601
1703503581.864153,1703503581.864611,73.000000,0.000000,4301.922852,4280.000000,4323.589844,4328.589844,4289.230957,4282.948730,4294.871582,4267.820313,4262.563965,4255.641113,4493.589844,4494.487305,4430.256348,4449.871582,5505.000000,3.000000,61.000000,,,,0.000000,4.000000,4.000000,4.000000,4.000000,4.000000,4.000000,4.000000,4.000000,4.000000,4.000000,4.000000,4.000000,4.000000,4.000000,100.000000,,,,,,,,,,,,,,,,,,,,,,,,,,,,
1703503581.871961,1703503581.872519,74.000000,0.000000,4311.282227,4289.871582,4330.641113,4331.282227,4289.871582,4281.922852,4292.563965,4260.128418,4260.769043,4261.666504,4505.000000,4502.051270,4442.179688,4464.102539,6062.000000,3.000000,61.000000,,,,0.000000,4.000000,4.000000,4.000000,4.000000,4.000000,4.000000,4.000000,4.000000,4.000000,4.000000,4.000000,4.000000,4.000000,4.000000,100.000000,,,,,,,,,,,,,,,,,,,,,,,,,,,,
1703503581.879769,1703503581.880327,75.000000,0.000000,4318.846191,4296.794922,4340.256348,4335.000000,4285.384766,4282.307617,4291.153809,4258.846191,4257.948730,4267.051270,4512.051270,4507.051270,4448.333496,4467.948730,6337.000000,3.000000,61.000000,,,,0.000000,4.000000,4.000000,4.000000,4.000000,4.000000,4.000000,4.000000,4.000000,4.000000,4.000000,4.000000,4.000000,4.000000,4.000000,100.000000,,,,,,,,,,,,,,,,,,,,,,,,,,,,
1703503581.887577,1703503581.888235,76.000000,0.000000,4319.102539,4293.461426,4340.769043,4331.922852,4284.230957,4280.512695,4285.512695,4259.615234,4257.563965,4265.512695,4506.538574,4503.974121,4444.358887,4462.179688,6857.000000,3.000000,61.000000,,,,0.000000,4.000000,4.000000,4.000000,4.000000,4.000000,4.000000,4.000000,4.000000,4.000000,4.000000,4.000000,4.000000,4.000000,4.000000,100.000000,,,,,,,,,,,,,,,,,19.000000,0.000000,0.431701,0.523621,-0.452942,0.578186,0.997680,-0.074716,0.043951,-14.336878,-39.789665,61.299274
1703503581.895386,1703503581.896043,77.000000,0.000000,4312.436035,4287.051270,4333.205078,4324.230957,4281.153809,4281.410156,4281.666504,4263.333496,4262.051270,4262.307617,4501.282227,4497.436035,4437.948730,4460.512695,7237.000000,3.000000,61.000000,,,,0.000000,4.000000,4.000000,4.000000,4.000000,4.000000,4.000000,4.000000,4.000000,4.000000,4.000000,4.000000,4.000000,4.000000,4.000000,100.000000,,,,,,,,,,,,,,,,,,,,,,,,,,,,
1703503581.903194,1703503581.903951,78.000000,0.000000,4310.000000,4295.000000,4327.563965,4322.820313,4279.487305,4277.820313,4281.666504,4270.256348,4266.282227,4263.077148,4503.461426,4491.153809,4437.692383,4460.641113,6062.000000,3.000000,61.000000,,,,0.000000,4.000000,4.000000,4.000000,4.000000,4.000000,4.000000,4.000000,4.000000,4.000000,4.000000,4.000000,4.000000,4.000000,4.000000,100.000000,,,,,,,,,,,,,,,,,,,,,,,,,,,,
1703503581.911002,1703503581.911759,79.000000,0.000000,4310.000000,4295.512695,4325.769043,4319.102539,4276.410156,4268.333496,4281.025879,4280.000000,4272.436035,4268.717773,4506.538574,4494.230957,4436.153809,4456.025879,6337.000000,3.000000,61.000000,,,,0.000000,4.000000,4.000000,4.000000,4.000000,4.000000,4.000000,4.000000,4.000000,4.000000,4.000000,4.000000,4.000000,4.000000,4.000000,100.000000,,,,,,,,,,,,,,,,,,,,,,,,,,,,
1703503581.918810,1703503581.919667,80.000000,0.000000,4308.974121,4280.897461,4325.512695,4313.717773,4266.922852,4268.205078,4280.256348,4290.769043,4281.282227,4272.436035,4509.358887,4501.410156,4436.538574,4455.000000,6857.000000,3.000000,61.000000,,,,0.000000,4.000000,4.000000,4.000000,4.000000,4.000000,4.000000,4.000000,4.000000,4.000000,4.000000,4.000000,4.000000,4.000000,4.000000,100.000000,,,,,,,,,,,,,,,,,20.000000,0.000000,0.431889,0.523254,-0.453186,0.578186,1.001099,-0.086436,0.045416,-14.236523,-39.810699,61.352680
1703503581.926618,1703503581.927475,81.000000,0.000000,4308.846191,4279.358887,4328.205078,4316.153809,4268.974121,4276.794922,4280.897461,4292.436035,4281.025879,4269.358887,4509.743652,4499.871582,4441.153809,4457.820313,7237.000000,3.000000,61.000000,,,,0.000000,4.000000,4.000000,4.000000,4.000000,4.000000,4.000000,4.000000,4.000000,4.000000,4.000000,4.000000,4.000000,4.000000,4.000000,100.000000,,,,,,,,,,,,,,,,,,,,,,,,,,,,
1703503581.934426,1703503581.935383,82.000000,0.000000,4302.563965,4282.436035,4326.794922,4313.333496,4277.820313,4275.256348,4281.410156,4283.589844,4269.871582,4258.205078,4501.410156,4489.230957,4430.000000,4447.692383,6062.000000,3.000000,61.000000,,,,0.000000,4.000000,4.000000,4.000000,4.000000,4.000000,4.000000,4.000000,4.000000,4.000000,4.000000,4.000000,4.000000,4.000000,4.000000,100.000000,,,,,,,,,,,,,,,,,,,,,,,,,,,,
1703503581.942234,1703503581.943191,83.000000,0.000000,4291.666504,4268.974121,4315.512695,4302.051270,4271.666504,4265.384766,4280.000000,4278.717773,4261.922852,4251.153809,4490.256348,4478.589844,4415.769043,4431.922852,6337.000000,3.000000,61.000000,,,,0.000000,4.000000,4.000000,4.000000,4.000000,4.000000,4.000000,4.000000,4.000000,4.000000,4.000000,4.000000,4.000000,4.000000,4.000000,100.000000,,,,,,,,,,,,,,,,,,,,,,,,,,,,
1703503581.950042,1703503581.951098,84.000000,0.000000,4292.179688,4261.153809,4308.333496,4301.922852,4262.563965,4263.333496,4278.205078,4280.512695,4262.820313,4256.153809,4490.000000,4479.743652,4419.358887,4434.615234,6857.000000,3.000000,61.000000,,,,0.000000,4.000000,4.000000,4.000000,4.000000,4.000000,4.000000,4.000000,4.000000,4.000000,4.000000,4.000000,4.000000,4.000000,4.000000,100.000000,,,,,,,,,,,,,,,,,21.000000,0.000000,0.432183,0.522949,-0.453491,0.578003,0.988402,-0.072763,0.051276,-14.179538,-39.746296,61.350746
1703503581.957850,1703503581.958906,85.000000,0.000000,4303.333496,4274.358887,4321.282227,4308.333496,4264.487305,4265.769043,4276.922852,4270.897461,4259.871582,4252.820313,4486.922852,4487.179688,4421.538574,4444.358887,7237.000000,3.000000,61.000000,,,,0.000000,4.000000,4.000000,4.000000,4.000000,4.000000,4.000000,4.000000,4.000000,4.000000,4.000000,4.000000,4.000000,4.000000,4.000000,100.000000,,,,,,,,,,,,,,,,,,,,,,,,,,,,
1703503581.965658,1703503581.966615,86.000000,0.000000,4310.128418,4283.461426,4336.410156,4311.153809,4274.102539,4265.641113,4276.153809,4252.948730,4246.794922,4234.871582,4475.512695,4485.256348,4409.487305,4444.487305,6062.000000,3.000000,61.000000,,,,0.000000,4.000000,4.000000,4.000000,4.000000,4.000000,4.000000,4.000000,4.000000,4.000000,4.000000,4.000000,4.000000,4.000000,4.000000,100.000000,,,,,,,,,,,,,,,,,,,,,,,,,,,,
1703503581.973466,1703503581.974423,87.000000,0.000000,4309.487305,4279.230957,4333.077148,4311.282227,4276.794922,4264.102539,4275.512695,4242.820313,4233.077148,4225.512695,4470.000000,4478.077148,4400.769043,4441.666504,6337.000000,3.000000,61.000000,,,,0.000000,4.000000,4.000000,4.000000,4.000000,4.000000,4.000000,4.000000,4.000000,4.000000,4.000000,4.000000,4.000000,4.000000,4.000000,100.000000,,,,,,,,,,,,,,,,,,,,,,,,,,,,
1703503581.981274,1703503581.982131,88.000000,0.000000,4305.769043,4276.666504,4323.205078,4302.051270,4266.153809,4261.025879,4272.179688,4241.666504,4230.897461,4230.128418,4467.436035,4473.589844,4398.974121,4433.846191,6857.000000,3.000000,61.000000,,,,0.000000,4.000000,4.000000,4.000000,4.000000,4.000000,4.000000,4.000000,4.000000,4.000000,4.000000,4.000000,4.000000,4.000000,4.000000,100.000000,,,,,,,,,,,,,,,,,22.000000,0.000000,0.432448,0.522827,-0.453613,0.577820,0.989867,-0.075204,0.045416,-14.244917,-39.738335,61.332336
1703503581.989082,1703503581.989939,89.000000,0.000000,4300.641113,4279.487305,4321.794922,4292.179688,4261.025879,4260.384766,4271.025879,4249.487305,4240.256348,4238.333496,4470.897461,4474.102539,4403.974121,4431.666504,7237.000000,3.000000,61.000000,,,,0.000000,4.000000,4.000000,4.000000,4.000000,4.000000,4.000000,4.000000,4.000000,4.000000,4.000000,4.000000,4.000000,4.000000,4.000000,100.000000,,,,,,,,,,,,,,,,,,,,,,,,,,,,
1703503581.996890,1703503581.997647,90.000000,0.000000,4297.563965,4281.025879,4325.897461,4297.436035,4266.794922,4262.692383,4274.871582,4261.794922,4248.333496,4247.307617,4482.563965,4483.846191,4411.666504,4442.692383,6062.000000,3.000000,61.000000,,,,0.000000,4.000000,4.000000,4.000000,4.000000,4.000000,4.000000,4.000000,4.000000,4.000000,4.000000,4.000000,4.000000,4.000000,4.000000,100.000000,,,,,,,,,,,,,,,,,,,,,,,,,,,,
1703503582.004698,1703503582.005555,91.000000,0.000000,4296.282227,4277.179688,4325.128418,4303.205078,4267.436035,4264.358887,4275.897461,4271.410156,4256.922852,4254.871582,4497.307617,4495.256348,4418.205078,4448.077148,6337.000000,3.000000,61.000000,,,,0.000000,4.000000,4.000000,4.000000,4.000000,4.000000,4.000000,4.000000,4.000000,4.000000,4.000000,4.000000,4.000000,4.000000,4.000000,100.000000,,,,,,,,,,,,,,,,,,,,,,,,,,,,
1703503582.012506,1703503582.013363,92.000000,0.000000,4293.205078,4268.077148,4319.102539,4296.282227,4262.307617,4263.333496,4276.282227,4279.743652,4269.615234,4262.051270,4506.282227,4498.333496,4428.077148,4445.128418,6857.000000,3.000000,61.000000,,,,0.000000,4.000000,4.000000,4.000000,4.000000,4.000000,4.000000,4.000000,4.000000,4.000000,4.000000,4.000000,4.000000,4.000000,4.000000,100.000000,,,,,,,,,,,,,,,,,23.000000,0.000000,0.432531,0.522705,-0.453674,0.577820,1.005982,-0.073739,0.033696,-14.370425,-39.797832,61.299103
1703503582.020314,1703503582.021271,93.000000,0.000000,4288.333496,4262.436035,4320.256348,4292.563965,4262.563965,4268.846191,4280.641113,4284.615234,4272.820313,4268.974121,4503.077148,4496.153809,4428.717773,4442.179688,7237.000000,3.000000,61.000000,,,,0.000000,4.000000,4.000000,4.000000,4.000000,4.000000,4.000000,4.000000,4.000000,4.000000,4.000000,4.000000,4.000000,4.000000,4.000000,100.000000,,,,,,,,,,,,,,,,,,,,,,,,,,,,
1703503582.028123,1703503582.029079,94.000000,0.000000,4283.333496,4264.615234,4322.179688,4297.179688,4268.589844,4277.436035,4283.333496,4280.897461,4269.487305,4264.615234,4494.615234,4490.641113,4419.615234,4436.282227,6062.000000,3.000000,61.000000,,,,0.000000,4.000000,4.000000,4.000000,4.000000,4.000000,4.000000,4.000000,4.000000,4.000000,4.000000,4.000000,4.000000,4.000000,4.000000,100.000000,,,,,,,,,,,,,,,,,,,,,,,,,,,,
1703503582.035931,1703503582.036887,95.000000,0.000000,4277.948730,4266.410156,4315.384766,4297.692383,4273.205078,4274.230957,4283.461426,4267.563965,4258.589844,4246.282227,4484.487305,4480.641113,4409.615234,4425.000000,6337.000000,3.000000,61.000000,,,,0.000000,4.000000,4.000000,4.000000,4.000000,4.000000,4.000000,4.000000,4.000000,4.000000,4.000000,4.000000,4.000000,4.000000,4.000000,100.000000,,,,,,,,,,,,,,,,,,,,,,,,,,,,
1703503582.043738,1703503582.044595,96.000000,0.000000,4280.384766,4265.256348,4312.051270,4293.461426,4267.179688,4263.461426,4279.615234,4248.974121,4239.871582,4229.615234,4472.820313,4474.615234,4400.897461,4418.589844,6857.000000,3.000000,61.000000,,,,0.000000,4.000000,4.000000,4.000000,4.000000,4.000000,4.000000,4.000000,4.000000,4.000000,4.000000,4.000000,4.000000,4.000000,4.000000,100.000000,,,,,,,,,,,,,,,,,24.000000,0.000000,0.432283,0.522949,-0.453552,0.577881,0.987425,-0.073739,0.048834,-14.433383,-39.934715,61.219193
1703503582.051547,1703503582.052403,97.000000,0.000000,4289.871582,4262.820313,4320.000000,4292.692383,4259.871582,4259.743652,4273.717773,4239.615234,4232.563965,4226.922852,4470.641113,4478.589844,4403.205078,4425.769043,7237.000000,3.000000,61.000000,,,,0.000000,4.000000,4.000000,4.000000,4.000000,4.000000,4.000000,4.000000,4.000000,4.000000,4.000000,4.000000,4.000000,4.000000,4.000000,100.000000,1.000000,100.000000,4.000000,4.000000,4.000000,4.000000,4.000000,4.000000,4.000000,4.000000,4.000000,4.000000,4.000000,4.000000,4.000000,4.000000,,,,,,,,,,,,
1703503582.059355,1703503582.060111,98.000000,0.000000,4293.589844,4266.025879,4327.051270,4295.000000,4261.410156,4262.179688,4275.256348,4240.128418,4236.153809,4229.487305,4474.102539,4478.846191,4409.743652,4431.794922,6062.000000,3.000000,61.000000,,,,0.000000,4.000000,4.000000,4.000000,4.000000,4.000000,4.000000,4.000000,4.000000,4.000000,4.000000,4.000000,4.000000,4.000000,4.000000,100.000000,,,,,,,,,,,,,,,,,,,,,,,,,,,,
1703503582.067163,1703503582.068019,99.000000,0.000000,4290.897461,4273.461426,4324.871582,4296.410156,4264.743652,4262.563965,4280.512695,4240.512695,4235.384766,4229.102539,4477.948730,4474.871582,4408.333496,4426.282227,6337.000000,3.000000,61.000000,,,,0.000000,4.000000,4.000000,4.000000,4.000000,4.000000,4.000000,4.000000,4.000000,4.000000,4.000000,4.000000,4.000000,4.000000,4.000000,100.000000,,,,,,,,,,,,,,,,,,,,,,,,,,,,
1703503582.074971,1703503582.075827,100.000000,0.000000,4287.563965,4271.922852,4322.692383,4300.000000,4265.512695,4262.051270,4279.487305,4243.077148,4233.077148,4228.589844,4480.769043,4476.794922,4408.205078,4422.948730,6857.000000,3.000000,61.000000,,,,0.000000,4.000000,4.000000,4.000000,4.000000,4.000000,4.000000,4.000000,4.000000,4.000000,4.000000,4.000000,4.000000,4.000000,4.000000,100.000000,,,,,,,,,,,,,,,,,25.000000,0.000000,0.432043,0.523315,-0.453125,0.578064,0.988402,-0.079600,0.047857,-14.290045,-39.907913,61.180607
1703503582.082779,1703503582.083735,101.000000,0.000000,4290.000000,4266.153809,4327.307617,4307.820313,4267.820313,4263.461426,4278.461426,4246.538574,4237.051270,4232.307617,4485.000000,4483.974121,4418.333496,4432.820313,7237.000000,3.000000,61.000000,,,,0.000000,4.000000,4.000000,4.000000,4.000000,4.000000,4.000000,4.000000,4.000000,4.000000,4.000000,4.000000,4.000000,4.000000,4.000000,100.000000,,,,,,,,,,,,,,,,,,,,,,,,,,,,
1703503582.090587,1703503582.091543,102.000000,0.000000,4295.512695,4271.410156,4334.102539,4311.922852,4271.666504,4263.077148,4280.769043,4251.410156,4246.922852,4243.717773,4497.948730,4490.641113,4430.384766,4444.230957,6062.000000,3.000000,61.000000,,,,0.000000,4.000000,4.000000,4.000000,4.000000,4.000000,4.000000,4.000000,4.000000,4.000000,4.000000,4.000000,4.000000,4.000000,4.000000,100.000000,,,,,,,,,,,,,,,,,,,,,,,,,,,,
1703503582.098395,1703503582.099450,103.000000,0.000000,4297.307617,4276.666504,4338.461426,4313.589844,4275.769043,4266.794922,4281.922852,4259.230957,4251.282227,4252.436035,4505.000000,4492.948730,4433.717773,4446.410156,6337.000000,3.000000,61.000000,,,,0.000000,4.000000,4.000000,4.000000,4.000000,4.000000,4.000000,4.000000,4.000000,4.000000,4.000000,4.000000,4.000000,4.000000,4.000000,100.000000,,,,,,,,,,,,,,,,,,,,,,,,,,,,
1703503582.106203,1703503582.107258,104.000000,0.000000,4297.563965,4275.000000,4336.025879,4319.615234,4280.256348,4275.897461,4282.051270,4264.615234,4250.769043,4250.384766,4502.820313,4498.589844,4435.384766,4444.487305,6857.000000,3.000000,61.000000,,,,0.000000,4.000000,4.000000,4.000000,4.000000,4.000000,4.000000,4.000000,4.000000,4.000000,4.000000,4.000000,4.000000,4.000000,4.000000,100.000000,,,,,,,,,,,,,,,,,26.000000,0.000000,0.432151,0.523438,-0.452881,0.578064,0.993774,-0.075204,0.060066,-14.227707,-39.783787,61.245880
1703503582.114011,1703503582.115166,105.000000,0.000000,4298.589844,4276.538574,4332.179688,4323.717773,4278.589844,4273.077148,4280.641113,4264.615234,4256.025879,4250.256348,4502.820313,4502.436035,4439.230957,4445.000000,7237.000000,3.000000,61.000000,,,,0.000000,4.000000,4.000000,4.000000,4.000000,4.000000,4.000000,4.000000,4.000000,4.000000,4.000000,4.000000,4.000000,4.000000,4.000000,100.000000,,,,,,,,,,,,,,,,,,,,,,,,,,,,
1703503582.121819,1703503582.122974,106.000000,0.000000,4298.333496,4279.871582,4337.307617,4321.282227,4273.333496,4265.769043,4278.974121,4263.205078,4256.538574,4249.743652,4498.974121,4494.871582,4433.205078,4445.128418,6062.000000,3.000000,61.000000,,,,0.000000,4.000000,4.000000,4.000000,4.000000,4.000000,4.000000,4.000000,4.000000,4.000000,4.000000,4.000000,4.000000,4.000000,4.000000,100.000000,,,,,,,,,,,,,,,,,,,,,,,,,,,,
1703503582.129627,1703503582.130882,107.000000,0.000000,4295.641113,4280.769043,4341.410156,4319.487305,4276.282227,4271.538574,4282.948730,4263.461426,4249.743652,4245.641113,4496.282227,4491.153809,4426.922852,4447.436035,6337.000000,3.000000,61.000000,,,,0.000000,4.000000,4.000000,4.000000,4.000000,4.000000,4.000000,4.000000,4.000000,4.000000,4.000000,4.000000,4.000000,4.000000,4.000000,100.000000,,,,,,,,,,,,,,,,,,,,,,,,,,,,
1703503582.137435,1703503582.138690,108.000000,0.000000,4294.358887,4278.846191,4333.205078,4319.230957,4279.230957,4277.051270,4289.743652,4262.179688,4250.512695,4247.563965,4498.461426,4492.692383,4429.230957,4445.897461,6857.000000,3.000000,61.000000,,,,0.000000,4.000000,4.000000,4.000000,4.000000,4.000000,4.000000,4.000000,4.000000,4.000000,4.000000,4.000000,4.000000,4.000000,4.000000,100.000000,,,,,,,,,,,,,,,,,27.000000,0.000000,0.432294,0.523560,-0.452759,0.577942,0.989379,-0.063484,0.036626,-14.004936,-39.755409,61.087959
1703503582.145243,1703503582.146398,109.000000,0.000000,4293.974121,4273.333496,4322.692383,4316.922852,4277.692383,4273.974121,4289.102539,4255.512695,4250.128418,4247.179688,4485.641113,4484.102539,4421.538574,4433.205078,7237.000000,3.000000,61.000000,,,,0.000000,4.000000,4.000000,4.000000,4.000000,4.000000,4.000000,4.000000,4.000000,4.000000,4.000000,4.000000,4.000000,4.000000,4.000000,100.000000,,,,,,,,,,,,,,,,,,,,,,,,,,,,
1703503582.153051,1703503582.154206,110.000000,0.000000,4287.051270,4270.384766,4319.487305,4313.205078,4275.641113,4270.512695,4282.563965,4246.025879,4244.871582,4235.128418,4470.769043,4471.794922,4408.589844,4423.077148,6062.000000,3.000000,61.000000,,,,0.000000,4.000000,4.000000,4.000000,4.000000,4.000000,4.000000,4.000000,4.000000,4.000000,4.000000,4.000000,4.000000,4.000000,4.000000,100.000000,,,,,,,,,,,,,,,,,,,,,,,,,,,,
1703503582.160859,1703503582.161914,111.000000,0.000000,4281.666504,4268.846191,4322.051270,4308.846191,4270.769043,4265.256348,4280.256348,4246.025879,4242.307617,4228.717773,4479.615234,4471.538574,4407.692383,4423.846191,6337.000000,3.000000,61.000000,,,,0.000000,4.000000,4.000000,4.000000,4.000000,4.000000,4.000000,4.000000,4.000000,4.000000,4.000000,4.000000,4.000000,4.000000,4.000000,100.000000,,,,,,,,,,,,,,,,,,,,,,,,,,,,
1703503582.168667,1703503582.169722,112.000000,0.000000,4289.230957,4264.871582,4324.871582,4309.358887,4268.333496,4263.077148,4281.666504,4257.820313,4248.974121,4238.846191,4495.512695,4482.436035,4420.512695,4436.025879,6857.000000,3.000000,61.000000,,,,0.000000,4.000000,4.000000,4.000000,4.000000,4.000000,4.000000,4.000000,4.000000,4.000000,4.000000,4.000000,4.000000,4.000000,4.000000,100.000000,,,,,,,,,,,,,,,,,28.000000,0.000000,0.432428,0.523560,-0.452942,0.577698,0.986449,-0.062996,0.050299,-13.837776,-39.729866,60.995831
1703503582.176475,1703503582.177430,113.000000,0.000000,4295.769043,4264.358887,4325.128418,4317.179688,4276.025879,4265.769043,4284.871582,4267.692383,4258.461426,4249.871582,4503.974121,4493.846191,4434.615234,4443.077148,7237.000000,3.000000,61.000000,,,,0.000000,4.000000,4.000000,4.000000,4.000000,4.000000,4.000000,4.000000,4.000000,4.000000,4.000000,4.000000,4.000000,4.000000,4.000000,100.000000,,,,,,,,,,,,,,,,,,,,,,,,,,,,
1703503582.184283,1703503582.185238,114.000000,0.000000,4292.563965,4271.666504,4326.153809,4320.641113,4279.615234,4265.128418,4285.256348,4267.563965,4256.025879,4250.512695,4507.820313,4491.666504,4435.384766,4431.922852,6062.000000,3.000000,61.000000,,,,0.000000,4.000000,4.000000,4.000000,4.000000,4.000000,4.000000,4.000000,4.000000,4.000000,4.000000,4.000000,4.000000,4.000000,4.000000,100.000000,,,,,,,,,,,,,,,,,,,,,,,,,,,,
1703503582.192092,1703503582.192946,115.000000,0.000000,4291.153809,4275.384766,4325.384766,4315.000000,4277.948730,4270.384766,4280.897461,4264.743652,4252.563965,4249.102539,4504.743652,4479.615234,4434.615234,4428.974121,6337.000000,3.000000,61.000000,,,,0.000000,4.000000,4.000000,4.000000,4.000000,4.000000,4.000000,4.000000,4.000000,4.000000,4.000000,4.000000,4.000000,4.000000,4.000000,100.000000,,,,,,,,,,,,,,,,,,,,,,,,,,,,
1703503582.199900,1703503582.200754,116.000000,0.000000,4293.717773,4272.820313,4322.563965,4309.743652,4278.846191,4275.000000,4279.743652,4266.922852,4258.974121,4250.256348,4500.256348,4477.820313,4437.179688,4438.589844,6857.000000,3.000000,61.000000,,,,0.000000,4.000000,4.000000,4.000000,4.000000,4.000000,4.000000,4.000000,4.000000,4.000000,4.000000,4.000000,4.000000,4.000000,4.000000,100.000000,,,,,,,,,,,,,,,,,29.000000,0.000000,0.432330,0.523376,-0.453247,0.577698,0.987425,-0.065438,0.044439,-13.937331,-39.556881,60.929581
1703503582.207708,1703503582.208462,117.000000,0.000000,4291.410156,4270.384766,4320.000000,4312.307617,4278.077148,4267.307617,4278.717773,4263.974121,4256.922852,4250.897461,4501.922852,4481.153809,4436.794922,4441.538574,7237.000000,3.000000,61.000000,,,,0.000000,4.000000,4.000000,4.000000,4.000000,4.000000,4.000000,4.000000,4.000000,4.000000,4.000000,4.000000,4.000000,4.000000,4.000000,100.000000,,,,,,,,,,,,,,,,,,,,,,,,,,,,
1703503582.215516,1703503582.216270,118.000000,0.000000,4288.974121,4266.410156,4320.512695,4310.384766,4272.820313,4261.666504,4273.974121,4251.410156,4245.384766,4243.589844,4501.153809,4477.948730,4436.410156,4437.436035,6062.000000,3.000000,61.000000,,,,0.000000,4.000000,4.000000,4.000000,4.000000,4.000000,4.000000,4.000000,4.000000,4.000000,4.000000,4.000000,4.000000,4.000000,4.000000,100.000000,,,,,,,,,,,,,,,,,,,,,,,,,,,,
1703503582.223324,1703503582.223978,119.000000,0.000000,4290.256348,4265.769043,4321.025879,4302.692383,4267.436035,4263.589844,4272.948730,4248.717773,4247.436035,4236.025879,4493.974121,4477.307617,4434.743652,4433.589844,6337.000000,3.000000,61.000000,,,,0.000000,4.000000,4.000000,4.000000,4.000000,4.000000,4.000000,4.000000,4.000000,4.000000,4.000000,4.000000,4.000000,4.000000,4.000000,100.000000,,,,,,,,,,,,,,,,,,,,,,,,,,,,
1703503582.231132,1703503582.231786,120.000000,0.000000,4286.666504,4264.743652,4315.641113,4297.051270,4265.512695,4264.102539,4273.974121,4245.897461,4248.461426,4238.205078,4488.461426,4474.487305,4430.000000,4426.922852,6857.000000,3.000000,61.000000,,,,0.000000,4.000000,4.000000,4.000000,4.000000,4.000000,4.000000,4.000000,4.000000,4.000000,4.000000,4.000000,4.000000,4.000000,4.000000,100.000000,,,,,,,,,,,,,,,,,30.000000,0.000000,0.432212,0.523315,-0.453430,0.577698,0.983030,-0.080088,0.058601,-13.993598,-39.601192,60.886623
1703503582.238940,1703503582.239494,121.000000,0.000000,4279.358887,4255.000000,4307.692383,4290.256348,4264.358887,4263.461426,4273.205078,4233.205078,4235.256348,4236.025879,4482.820313,4465.128418,4426.538574,4425.384766,7237.000000,3.000000,61.000000,,,,0.000000,4.000000,4.000000,4.000000,4.000000,4.000000,4.000000,4.000000,4.000000,4.000000,4.000000,4.000000,4.000000,4.000000,4.000000,100.000000,,,,,,,,,,,,,,,,,,,,,,,,,,,,
1703503582.246748,1703503582.247302,122.000000,0.000000,4278.974121,4250.641113,4309.358887,4289.230957,4263.333496,4265.000000,4274.102539,4234.102539,4237.563965,4232.563965,4481.153809,4466.025879,4425.897461,4431.922852,6062.000000,3.000000,61.000000,,,,0.000000,4.000000,4.000000,4.000000,4.000000,4.000000,4.000000,4.000000,4.000000,4.000000,4.000000,4.000000,4.000000,4.000000,4.000000,100.000000,,,,,,,,,,,,,,,,,,,,,,,,,,,,
1703503582.254556,1703503582.255010,123.000000,0.000000,4282.051270,4254.871582,4312.820313,4289.487305,4264.615234,4262.692383,4276.538574,4247.051270,4250.128418,4237.179688,4486.538574,4475.256348,4427.692383,4428.717773,6337.000000,3.000000,61.000000,,,,0.000000,4.000000,4.000000,4.000000,4.000000,4.000000,4.000000,4.000000,4.000000,4.000000,4.000000,4.000000,4.000000,4.000000,4.000000,100.000000,,,,,,,,,,,,,,,,,,,,,,,,,,,,
1703503582.262364,1703503582.262818,124.000000,0.000000,4280.769043,4249.743652,4309.615234,4284.102539,4263.589844,4258.717773,4277.179688,4250.384766,4248.717773,4237.051270,4491.538574,4475.769043,4431.538574,4423.461426,6857.000000,3.000000,61.000000,,,,0.000000,4.000000,4.000000,4.000000,4.000000,4.000000,4.000000,4.000000,4.000000,4.000000,4.000000,4.000000,4.000000,4.000000,4.000000,100.000000,,,,,,,,,,,,,,,,,31.000000,0.000000,0.432049,0.523315,-0.453430,0.577820,0.995239,-0.075204,0.049811,-13.827572,-39.724407,60.931293
1703503582.270172,1703503582.270526,125.000000,0.000000,4279.871582,4246.922852,4310.384766,4287.307617,4262.563965,4259.487305,4277.436035,4255.769043,4248.205078,4239.358887,4493.333496,4474.230957,4432.692383,4434.230957,7237.000000,3.000000,61.000000,,,,0.000000,4.000000,4.000000,4.000000,4.000000,4.000000,4.000000,4.000000,4.000000,4.000000,4.000000,4.000000,4.000000,4.000000,4.000000,100.000000,,,,,,,,,,,,,,,,,,,,,,,,,,,,
1703503582.277980,1703503582.278434,126.000000,0.000000,4281.282227,4254.102539,4313.974121,4297.179688,4264.615234,4262.307617,4278.333496,4266.025879,4255.128418,4246.410156,4496.282227,4478.205078,4431.025879,4443.077148,6062.000000,3.000000,61.000000,,,,0.000000,4.000000,4.000000,4.000000,4.000000,4.000000,4.000000,4.000000,4.000000,4.000000,4.000000,4.000000,4.000000,4.000000,4.000000,100.000000,,,,,,,,,,,,,,,,,,,,,,,,,,,,
1703503582.285788,1703503582.286242,127.000000,0.000000,4279.871582,4253.333496,4312.436035,4297.179688,4263.717773,4262.307617,4277.307617,4259.102539,4252.820313,4240.128418,4492.820313,4474.358887,4429.230957,4432.563965,61.000000,3.000000,61.000000,,,,0.000000,4.000000,4.000000,4.000000,4.000000,4.000000,4.000000,4.000000,4.000000,4.000000,4.000000,4.000000,4.000000,4.000000,4.000000,100.000000,,,,,,,,,,,,,,,,,,,,,,,,,,,,
1703503582.293596,1703503582.294150,0.000000,0.000000,4278.846191,4251.025879,4310.256348,4293.589844,4260.384766,4261.282227,4275.384766,4244.871582,4244.615234,4229.230957,4484.230957,4464.743652,4422.563965,4423.077148,5273.000000,3.000000,61.000000,,,,0.000000,4.000000,4.000000,4.000000,4.000000,4.000000,4.000000,4.000000,4.000000,4.000000,4.000000,4.000000,4.000000,4.000000,4.000000,100.000000,,,,,,,,,,,,,,,,,0.000000,0.000000,0.432000,0.523438,-0.453491,0.577698,0.988890,-0.079600,0.043462,-13.811481,-39.868633,60.804829
1703503582.301404,1703503582.301958,1.000000,0.000000,4282.692383,4257.692383,4310.897461,4296.922852,4260.256348,4263.077148,4274.230957,4239.615234,4240.512695,4226.538574,4479.871582,4461.922852,4415.384766,4423.717773,5521.000000,3.000000,61.000000,,,,0.000000,4.000000,4.000000,4.000000,4.000000,4.000000,4.000000,4.000000,4.000000,4.000000,4.000000,4.000000,4.000000,4.000000,4.000000,100.000000,,,,,,,,,,,,,,,,,,,,,,,,,,,,
