title:نوار دواء, start timestamp:1703161934.672811, stop timestamp:1703161945.502580, headset type:EPOCX, headset serial:E50206EF, headset firmware:720, channels:67, sampling rate:eeg_128;mot_32, samples:1388      , version:2.2, 
Timestamp,OriginalTimestamp,EEG.Counter,EEG.Interpolated,EEG.AF3,EEG.F7,EEG.F3,EEG.FC5,EEG.T7,EEG.P7,EEG.O1,EEG.O2,EEG.P8,EEG.T8,EEG.FC6,EEG.F4,EEG.F8,EEG.AF4,EEG.RawCq,EEG.Battery,EEG.BatteryPercent,MarkerIndex,MarkerType,MarkerValueInt,EEG.MarkerHardware,CQ.AF3,CQ.F7,CQ.F3,CQ.FC5,CQ.T7,CQ.P7,CQ.O1,CQ.O2,CQ.P8,CQ.T8,CQ.FC6,CQ.F4,CQ.F8,CQ.AF4,CQ.Overall,EQ.SampleRateQuality,EQ.OVERALL,EQ.AF3,EQ.F7,EQ.F3,EQ.FC5,EQ.T7,EQ.P7,EQ.O1,EQ.O2,EQ.P8,EQ.T8,EQ.FC6,EQ.F4,EQ.F8,EQ.AF4,MOT.CounterMems,MOT.InterpolatedMems,MOT.Q0,MOT.Q1,MOT.Q2,MOT.Q3,MOT.AccX,MOT.AccY,MOT.AccZ,MOT.MagX,MOT.MagY,MOT.MagZ
1703161934.672811,1703161934.673200,73.000000,0.000000,4218.589844,4145.897461,4267.820313,4243.077148,4138.205078,4122.820313,4153.461426,4135.128418,4138.333496,4139.743652,4639.615234,4441.153809,4403.333496,4544.743652,5243.000000,4.000000,77.000000,,,,0.000000,4.000000,4.000000,4.000000,4.000000,4.000000,4.000000,4.000000,4.000000,4.000000,4.000000,4.000000,4.000000,4.000000,4.000000,100.000000,,,,,,,,,,,,,,,,,,,,,,,,,,,,
1703161934.680619,1703161934.680908,74.000000,0.000000,4216.794922,4151.538574,4273.717773,4249.615234,4136.538574,4122.307617,4155.897461,4137.820313,4146.025879,4141.922852,4647.179688,4443.846191,4401.153809,4540.384766,5791.000000,4.000000,77.000000,,,,0.000000,4.000000,4.000000,4.000000,4.000000,4.000000,4.000000,4.000000,4.000000,4.000000,4.000000,4.000000,4.000000,4.000000,4.000000,100.000000,,,,,,,,,,,,,,,,,,,,,,,,,,,,
1703161934.688427,1703161934.688716,75.000000,0.000000,4221.794922,4158.589844,4279.102539,4249.358887,4143.333496,4118.333496,4150.641113,4140.512695,4146.922852,4143.461426,4648.077148,4444.358887,4399.358887,4546.153809,6133.000000,4.000000,77.000000,,,,0.000000,4.000000,4.000000,4.000000,4.000000,4.000000,4.000000,4.000000,4.000000,4.000000,4.000000,4.000000,4.000000,4.000000,4.000000,100.000000,,,,,,,,,,,,,,,,,,,,,,,,,,,,
1703161934.696235,1703161934.696424,76.000000,0.000000,4223.974121,4153.974121,4279.102539,4249.102539,4143.717773,4118.205078,4143.846191,4133.077148,4138.717773,4132.948730,4637.179688,4439.102539,4397.179688,4553.333496,6569.000000,4.000000,77.000000,,,,0.000000,4.000000,4.000000,4.000000,4.000000,4.000000,4.000000,4.000000,4.000000,4.000000,4.000000,4.000000,4.000000,4.000000,4.000000,100.000000,,,,,,,,,,,,,,,,,19.000000,0.000000,0.556184,-0.402466,-0.520630,-0.507568,0.987914,0.090343,0.132829,-17.522438,-31.925930,64.496758
1703161934.704044,1703161934.704232,77.000000,0.000000,4228.461426,4155.512695,4280.256348,4253.461426,4140.000000,4122.692383,4147.179688,4123.974121,4134.743652,4127.179688,4638.077148,4438.205078,4401.025879,4554.743652,6826.000000,4.000000,77.000000,,,,0.000000,4.000000,4.000000,4.000000,4.000000,4.000000,4.000000,4.000000,4.000000,4.000000,4.000000,4.000000,4.000000,4.000000,4.000000,100.000000,,,,,,,,,,,,,,,,,,,,,,,,,,,,
1703161934.711851,1703161934.711940,78.000000,0.000000,4235.128418,4157.948730,4282.820313,4252.436035,4145.512695,4124.358887,4156.538574,4125.512695,4135.384766,4137.563965,4649.102539,4446.666504,4407.179688,4556.025879,5791.000000,4.000000,77.000000,,,,0.000000,4.000000,4.000000,4.000000,4.000000,4.000000,4.000000,4.000000,4.000000,4.000000,4.000000,4.000000,4.000000,4.000000,4.000000,100.000000,,,,,,,,,,,,,,,,,,,,,,,,,,,,
1703161934.719659,1703161934.719748,79.000000,0.000000,4231.153809,4150.128418,4279.743652,4247.436035,4149.871582,4124.743652,4154.743652,4126.282227,4130.128418,4134.871582,4640.128418,4443.461426,4398.333496,4548.974121,6133.000000,4.000000,77.000000,,,,0.000000,4.000000,4.000000,4.000000,4.000000,4.000000,4.000000,4.000000,4.000000,4.000000,4.000000,4.000000,4.000000,4.000000,4.000000,100.000000,,,,,,,,,,,,,,,,,,,,,,,,,,,,
1703161934.727468,1703161934.727456,80.000000,0.000000,4221.410156,4151.025879,4276.025879,4249.358887,4145.897461,4129.230957,4148.461426,4120.000000,4129.230957,4121.410156,4630.769043,4429.743652,4388.589844,4539.102539,6569.000000,4.000000,77.000000,,,,0.000000,4.000000,4.000000,4.000000,4.000000,4.000000,4.000000,4.000000,4.000000,4.000000,4.000000,4.000000,4.000000,4.000000,4.000000,100.000000,,,,,,,,,,,,,,,,,20.000000,0.000000,0.556488,-0.402588,-0.520508,-0.507263,0.976682,0.092785,0.135270,-17.603527,-31.833338,64.497078
1703161934.735276,1703161934.735264,81.000000,0.000000,4218.205078,4152.692383,4271.666504,4248.205078,4148.589844,4136.538574,4157.436035,4122.692383,4135.256348,4132.307617,4637.436035,4432.563965,4393.461426,4538.461426,6826.000000,4.000000,77.000000,,,,0.000000,4.000000,4.000000,4.000000,4.000000,4.000000,4.000000,4.000000,4.000000,4.000000,4.000000,4.000000,4.000000,4.000000,4.000000,100.000000,,,,,,,,,,,,,,,,,,,,,,,,,,,,
1703161934.743084,1703161934.742972,82.000000,0.000000,4219.230957,4137.820313,4265.256348,4237.436035,4151.538574,4141.922852,4167.051270,4135.256348,4136.025879,4139.102539,4637.436035,4440.256348,4394.358887,4541.538574,5791.000000,4.000000,77.000000,,,,0.000000,4.000000,4.000000,4.000000,4.000000,4.000000,4.000000,4.000000,4.000000,4.000000,4.000000,4.000000,4.000000,4.000000,4.000000,100.000000,,,,,,,,,,,,,,,,,,,,,,,,,,,,
1703161934.750892,1703161934.750880,83.000000,0.000000,4211.794922,4120.641113,4260.641113,4228.846191,4140.512695,4139.358887,4163.205078,4143.589844,4143.077148,4128.333496,4632.948730,4435.128418,4393.461426,4540.512695,6133.000000,4.000000,77.000000,,,,0.000000,4.000000,4.000000,4.000000,4.000000,4.000000,4.000000,4.000000,4.000000,4.000000,4.000000,4.000000,4.000000,4.000000,4.000000,100.000000,,,,,,,,,,,,,,,,,,,,,,,,,,,,
1703161934.758700,1703161934.758688,84.000000,0.000000,4205.641113,4119.743652,4258.077148,4227.179688,4134.871582,4131.410156,4161.282227,4144.358887,4157.307617,4141.153809,4640.769043,4434.102539,4399.743652,4536.922852,6569.000000,4.000000,77.000000,,,,0.000000,4.000000,4.000000,4.000000,4.000000,4.000000,4.000000,4.000000,4.000000,4.000000,4.000000,4.000000,4.000000,4.000000,4.000000,100.000000,,,,,,,,,,,,,,,,,21.000000,0.000000,0.556565,-0.402710,-0.520569,-0.507019,0.972775,0.078135,0.141619,-17.676508,-31.950005,64.414040
1703161934.766508,1703161934.766596,85.000000,0.000000,4213.205078,4131.666504,4260.897461,4230.897461,4140.769043,4126.153809,4163.974121,4142.436035,4153.333496,4160.641113,4649.102539,4442.692383,4402.179688,4538.974121,6826.000000,4.000000,77.000000,,,,0.000000,4.000000,4.000000,4.000000,4.000000,4.000000,4.000000,4.000000,4.000000,4.000000,4.000000,4.000000,4.000000,4.000000,4.000000,100.000000,,,,,,,,,,,,,,,,,,,,,,,,,,,,
1703161934.774316,1703161934.774404,86.000000,0.000000,4221.153809,4145.769043,4267.948730,4241.282227,4138.589844,4120.128418,4159.102539,4141.538574,4143.846191,4155.641113,4651.794922,4445.641113,4406.794922,4549.358887,5791.000000,4.000000,77.000000,,,,0.000000,4.000000,4.000000,4.000000,4.000000,4.000000,4.000000,4.000000,4.000000,4.000000,4.000000,4.000000,4.000000,4.000000,4.000000,100.000000,,,,,,,,,,,,,,,,,,,,,,,,,,,,
1703161934.782124,1703161934.782312,87.000000,0.000000,4219.230957,4153.461426,4267.307617,4248.333496,4142.179688,4115.769043,4151.666504,4141.410156,4151.538574,4150.384766,4648.461426,4442.692383,4409.230957,4551.025879,6133.000000,4.000000,77.000000,,,,0.000000,4.000000,4.000000,4.000000,4.000000,4.000000,4.000000,4.000000,4.000000,4.000000,4.000000,4.000000,4.000000,4.000000,4.000000,100.000000,,,,,,,,,,,,,,,,,,,,,,,,,,,,
1703161934.789932,1703161934.790120,88.000000,0.000000,4219.871582,4153.589844,4263.205078,4248.717773,4154.615234,4119.230957,4149.230957,4141.922852,4157.820313,4155.769043,4643.589844,4442.692383,4402.948730,4544.615234,6569.000000,4.000000,77.000000,,,,0.000000,4.000000,4.000000,4.000000,4.000000,4.000000,4.000000,4.000000,4.000000,4.000000,4.000000,4.000000,4.000000,4.000000,4.000000,100.000000,,,,,,,,,,,,,,,,,22.000000,0.000000,0.556678,-0.402710,-0.520508,-0.506958,0.980100,0.088878,0.133805,-17.658857,-31.938337,64.472633
1703161934.797740,1703161934.798028,89.000000,0.000000,4228.974121,4152.179688,4270.000000,4253.974121,4151.025879,4124.230957,4150.512695,4141.153809,4148.077148,4152.436035,4646.538574,4445.256348,4403.717773,4550.128418,6826.000000,4.000000,77.000000,,,,0.000000,4.000000,4.000000,4.000000,4.000000,4.000000,4.000000,4.000000,4.000000,4.000000,4.000000,4.000000,4.000000,4.000000,4.000000,100.000000,,,,,,,,,,,,,,,,,,,,,,,,,,,,
1703161934.805548,1703161934.805836,90.000000,0.000000,4237.436035,4163.077148,4280.512695,4264.615234,4144.871582,4122.307617,4150.512695,4133.205078,4140.000000,4148.461426,4651.794922,4447.307617,4412.436035,4559.230957,5791.000000,4.000000,77.000000,,,,0.000000,4.000000,4.000000,4.000000,4.000000,4.000000,4.000000,4.000000,4.000000,4.000000,4.000000,4.000000,4.000000,4.000000,4.000000,100.000000,,,,,,,,,,,,,,,,,,,,,,,,,,,,
1703161934.813356,1703161934.813743,91.000000,0.000000,4237.307617,4172.948730,4281.794922,4265.641113,4153.717773,4120.384766,4146.922852,4121.025879,4137.948730,4153.333496,4651.666504,4447.692383,4413.589844,4557.948730,6133.000000,4.000000,77.000000,,,,0.000000,4.000000,4.000000,4.000000,4.000000,4.000000,4.000000,4.000000,4.000000,4.000000,4.000000,4.000000,4.000000,4.000000,4.000000,100.000000,,,,,,,,,,,,,,,,,,,,,,,,,,,,
1703161934.821164,1703161934.821551,92.000000,0.000000,4232.436035,4162.051270,4273.589844,4256.666504,4154.487305,4124.102539,4146.538574,4123.333496,4138.846191,4153.717773,4647.948730,4444.615234,4402.692383,4552.436035,6569.000000,4.000000,77.000000,,,,0.000000,4.000000,4.000000,4.000000,4.000000,4.000000,4.000000,4.000000,4.000000,4.000000,4.000000,4.000000,4.000000,4.000000,4.000000,100.000000,,,,,,,,,,,,,,,,,23.000000,0.000000,0.556692,-0.402771,-0.520386,-0.507019,0.983518,0.085460,0.138200,-17.609638,-31.811169,64.542038
1703161934.828972,1703161934.829459,93.000000,0.000000,4229.358887,4151.282227,4266.153809,4249.615234,4147.179688,4132.051270,4154.102539,4137.179688,4145.256348,4149.871582,4643.077148,4442.692383,4400.256348,4548.333496,6826.000000,4.000000,77.000000,,,,0.000000,4.000000,4.000000,4.000000,4.000000,4.000000,4.000000,4.000000,4.000000,4.000000,4.000000,4.000000,4.000000,4.000000,4.000000,100.000000,,,,,,,,,,,,,,,,,,,,,,,,,,,,
1703161934.836780,1703161934.837267,94.000000,0.000000,4222.436035,4154.487305,4264.230957,4246.153809,4145.512695,4135.769043,4156.794922,4140.128418,4152.179688,4152.051270,4643.077148,4443.205078,4404.615234,4542.307617,5791.000000,4.000000,77.000000,,,,0.000000,4.000000,4.000000,4.000000,4.000000,4.000000,4.000000,4.000000,4.000000,4.000000,4.000000,4.000000,4.000000,4.000000,4.000000,100.000000,,,,,,,,,,,,,,,,,,,,,,,,,,,,
1703161934.844588,1703161934.844975,95.000000,0.000000,4215.128418,4154.871582,4263.461426,4245.384766,4145.384766,4130.641113,4155.000000,4143.846191,4163.205078,4156.666504,4647.051270,4444.102539,4404.487305,4540.512695,6133.000000,4.000000,77.000000,,,,0.000000,4.000000,4.000000,4.000000,4.000000,4.000000,4.000000,4.000000,4.000000,4.000000,4.000000,4.000000,4.000000,4.000000,4.000000,100.000000,,,,,,,,,,,,,,,,,,,,,,,,,,,,
1703161934.852396,1703161934.852783,96.000000,0.000000,4221.666504,4149.871582,4266.794922,4246.794922,4148.589844,4128.974121,4159.871582,4155.384766,4169.615234,4153.846191,4648.717773,4447.051270,4405.897461,4543.846191,6569.000000,4.000000,77.000000,,,,0.000000,4.000000,4.000000,4.000000,4.000000,4.000000,4.000000,4.000000,4.000000,4.000000,4.000000,4.000000,4.000000,4.000000,4.000000,100.000000,,,,,,,,,,,,,,,,,24.000000,0.000000,0.556705,-0.402832,-0.520325,-0.507019,0.992797,0.073251,0.126969,-17.598675,-31.813387,64.737831
1703161934.860204,1703161934.860491,97.000000,0.000000,4229.102539,4152.179688,4274.615234,4249.230957,4151.538574,4132.563965,4163.077148,4151.794922,4163.461426,4153.333496,4648.589844,4450.384766,4409.743652,4546.794922,6826.000000,4.000000,77.000000,,,,0.000000,4.000000,4.000000,4.000000,4.000000,4.000000,4.000000,4.000000,4.000000,4.000000,4.000000,4.000000,4.000000,4.000000,4.000000,100.000000,,,,,,,,,,,,,,,,,,,,,,,,,,,,
1703161934.868013,1703161934.868299,98.000000,0.000000,4221.410156,4153.461426,4272.820313,4248.846191,4142.307617,4130.897461,4158.077148,4138.846191,4155.897461,4153.077148,4649.102539,4447.179688,4406.282227,4543.333496,5791.000000,4.000000,77.000000,,,,0.000000,4.000000,4.000000,4.000000,4.000000,4.000000,4.000000,4.000000,4.000000,4.000000,4.000000,4.000000,4.000000,4.000000,4.000000,100.000000,,,,,,,,,,,,,,,,,,,,,,,,,,,,
1703161934.875821,1703161934.876007,99.000000,0.000000,4213.974121,4150.641113,4266.794922,4244.871582,4133.077148,4124.743652,4155.256348,4138.974121,4151.153809,4142.051270,4644.230957,4442.820313,4402.307617,4537.563965,6133.000000,4.000000,77.000000,,,,0.000000,4.000000,4.000000,4.000000,4.000000,4.000000,4.000000,4.000000,4.000000,4.000000,4.000000,4.000000,4.000000,4.000000,4.000000,100.000000,,,,,,,,,,,,,,,,,,,,,,,,,,,,
1703161934.883629,1703161934.883815,100.000000,0.000000,4219.358887,4151.410156,4271.538574,4247.051270,4138.846191,4124.487305,4154.487305,4136.666504,4143.077148,4136.410156,4639.230957,4446.153809,4405.769043,4540.641113,6569.000000,4.000000,77.000000,,,,0.000000,4.000000,4.000000,4.000000,4.000000,4.000000,4.000000,4.000000,4.000000,4.000000,4.000000,4.000000,4.000000,4.000000,4.000000,100.000000,,,,,,,,,,,,,,,,,25.000000,0.000000,0.556793,-0.403259,-0.519958,-0.506958,0.977658,0.089366,0.144061,-17.538807,-31.898714,64.764053
1703161934.891437,1703161934.891523,101.000000,0.000000,4217.307617,4147.820313,4270.897461,4247.563965,4141.153809,4122.179688,4149.102539,4123.846191,4130.384766,4138.205078,4637.692383,4443.333496,4403.333496,4538.461426,6826.000000,4.000000,77.000000,,,,0.000000,4.000000,4.000000,4.000000,4.000000,4.000000,4.000000,4.000000,4.000000,4.000000,4.000000,4.000000,4.000000,4.000000,4.000000,100.000000,,,,,,,,,,,,,,,,,,,,,,,,,,,,
1703161934.899245,1703161934.899331,102.000000,0.000000,4205.641113,4139.358887,4261.282227,4240.512695,4137.307617,4115.897461,4144.871582,4120.769043,4123.333496,4132.179688,4633.333496,4431.794922,4396.282227,4524.743652,5791.000000,4.000000,77.000000,,,,0.000000,4.000000,4.000000,4.000000,4.000000,4.000000,4.000000,4.000000,4.000000,4.000000,4.000000,4.000000,4.000000,4.000000,4.000000,100.000000,,,,,,,,,,,,,,,,,,,,,,,,,,,,
1703161934.907053,1703161934.907039,103.000000,0.000000,4200.384766,4139.358887,4261.538574,4239.102539,4140.897461,4116.666504,4146.666504,4123.717773,4121.666504,4125.641113,4627.692383,4427.051270,4391.666504,4519.615234,6133.000000,4.000000,77.000000,,,,0.000000,4.000000,4.000000,4.000000,4.000000,4.000000,4.000000,4.000000,4.000000,4.000000,4.000000,4.000000,4.000000,4.000000,4.000000,100.000000,,,,,,,,,,,,,,,,,,,,,,,,,,,,
1703161934.914861,1703161934.914847,104.000000,0.000000,4200.512695,4139.487305,4265.769043,4239.871582,4140.641113,4121.922852,4149.358887,4122.051270,4118.846191,4124.743652,4627.307617,4429.487305,4388.461426,4518.717773,6569.000000,4.000000,77.000000,,,,0.000000,4.000000,4.000000,4.000000,4.000000,4.000000,4.000000,4.000000,4.000000,4.000000,4.000000,4.000000,4.000000,4.000000,4.000000,100.000000,,,,,,,,,,,,,,,,,26.000000,0.000000,0.556922,-0.403625,-0.519714,-0.506775,0.984007,0.072274,0.142107,-17.701593,-31.925508,64.620979
1703161934.922669,1703161934.922555,105.000000,0.000000,4201.153809,4126.922852,4262.948730,4232.051270,4136.794922,4130.384766,4151.538574,4125.256348,4119.615234,4122.820313,4624.743652,4433.461426,4386.025879,4510.384766,6826.000000,4.000000,77.000000,,,,0.000000,4.000000,4.000000,4.000000,4.000000,4.000000,4.000000,4.000000,4.000000,4.000000,4.000000,4.000000,4.000000,4.000000,4.000000,100.000000,,,,,,,,,,,,,,,,,,,,,,,,,,,,
1703161934.930477,1703161934.930463,106.000000,0.000000,4197.820313,4119.743652,4261.282227,4227.692383,4140.769043,4135.769043,4155.384766,4136.666504,4138.205078,4131.538574,4627.948730,4437.436035,4388.461426,4512.563965,5791.000000,4.000000,77.000000,,,,0.000000,4.000000,4.000000,4.000000,4.000000,4.000000,4.000000,4.000000,4.000000,4.000000,4.000000,4.000000,4.000000,4.000000,4.000000,100.000000,,,,,,,,,,,,,,,,,,,,,,,,,,,,
1703161934.938285,1703161934.938271,107.000000,0.000000,4188.717773,4121.666504,4260.384766,4227.563965,4140.769043,4130.128418,4154.487305,4143.333496,4157.948730,4140.256348,4637.563965,4438.846191,4395.769043,4520.641113,6133.000000,4.000000,77.000000,,,,0.000000,4.000000,4.000000,4.000000,4.000000,4.000000,4.000000,4.000000,4.000000,4.000000,4.000000,4.000000,4.000000,4.000000,4.000000,100.000000,,,,,,,,,,,,,,,,,,,,,,,,,,,,
1703161934.946093,1703161934.946179,108.000000,0.000000,4188.077148,4118.461426,4256.538574,4223.589844,4131.410156,4128.717773,4151.794922,4143.846191,4153.589844,4136.922852,4641.666504,4439.615234,4397.820313,4516.794922,6569.000000,4.000000,77.000000,,,,0.000000,4.000000,4.000000,4.000000,4.000000,4.000000,4.000000,4.000000,4.000000,4.000000,4.000000,4.000000,4.000000,4.000000,4.000000,100.000000,,,,,,,,,,,,,,,,,27.000000,0.000000,0.557053,-0.403992,-0.519409,-0.506653,0.981077,0.077158,0.143572,-17.698099,-31.932959,64.758881
1703161934.953901,1703161934.953987,109.000000,0.000000,4199.743652,4121.538574,4261.153809,4227.692383,4134.615234,4138.846191,4156.538574,4145.000000,4151.025879,4142.179688,4643.205078,4444.871582,4398.974121,4520.000000,6826.000000,4.000000,77.000000,,,,0.000000,4.000000,4.000000,4.000000,4.000000,4.000000,4.000000,4.000000,4.000000,4.000000,4.000000,4.000000,4.000000,4.000000,4.000000,100.000000,,,,,,,,,,,,,,,,,,,,,,,,,,,,
1703161934.961709,1703161934.961895,110.000000,0.000000,4204.102539,4136.282227,4267.692383,4235.641113,4145.897461,4136.538574,4161.025879,4143.333496,4157.563965,4141.794922,4640.000000,4445.128418,4402.179688,4528.077148,5791.000000,4.000000,77.000000,,,,0.000000,4.000000,4.000000,4.000000,4.000000,4.000000,4.000000,4.000000,4.000000,4.000000,4.000000,4.000000,4.000000,4.000000,4.000000,100.000000,,,,,,,,,,,,,,,,,,,,,,,,,,,,
1703161934.969517,1703161934.969703,111.000000,0.000000,4201.025879,4142.051270,4264.358887,4235.256348,4147.307617,4123.846191,4157.307617,4136.922852,4148.717773,4130.897461,4632.820313,4440.641113,4401.538574,4524.487305,6133.000000,4.000000,77.000000,,,,0.000000,4.000000,4.000000,4.000000,4.000000,4.000000,4.000000,4.000000,4.000000,4.000000,4.000000,4.000000,4.000000,4.000000,4.000000,100.000000,,,,,,,,,,,,,,,,,,,,,,,,,,,,
1703161934.977325,1703161934.977611,112.000000,0.000000,4202.692383,4137.051270,4264.487305,4236.410156,4151.282227,4125.128418,4154.358887,4135.000000,4136.153809,4131.410156,4635.641113,4442.948730,4400.512695,4526.025879,6569.000000,4.000000,77.000000,,,,0.000000,4.000000,4.000000,4.000000,4.000000,4.000000,4.000000,4.000000,4.000000,4.000000,4.000000,4.000000,4.000000,4.000000,4.000000,100.000000,,,,,,,,,,,,,,,,,28.000000,0.000000,0.557170,-0.404297,-0.519165,-0.506531,0.992309,0.079600,0.146014,-17.711624,-31.839663,64.699661
1703161934.985133,1703161934.985419,113.000000,0.000000,4205.512695,4137.692383,4270.384766,4237.820313,4151.922852,4127.436035,4155.256348,4137.563965,4136.922852,4133.846191,4641.794922,4444.487305,4400.512695,4530.641113,6826.000000,4.000000,77.000000,,,,0.000000,4.000000,4.000000,4.000000,4.000000,4.000000,4.000000,4.000000,4.000000,4.000000,4.000000,4.000000,4.000000,4.000000,4.000000,100.000000,,,,,,,,,,,,,,,,,,,,,,,,,,,,
1703161934.992941,1703161934.993327,114.000000,0.000000,4208.717773,4139.102539,4272.948730,4235.512695,4141.282227,4121.794922,4155.769043,4133.461426,4132.307617,4121.666504,4632.692383,4443.461426,4397.436035,4523.205078,5791.000000,4.000000,77.000000,,,,0.000000,4.000000,4.000000,4.000000,4.000000,4.000000,4.000000,4.000000,4.000000,4.000000,4.000000,4.000000,4.000000,4.000000,4.000000,100.000000,,,,,,,,,,,,,,,,,,,,,,,,,,,,
1703161935.000749,1703161935.001135,115.000000,0.000000,4208.205078,4135.769043,4275.512695,4234.743652,4139.487305,4121.922852,4156.666504,4127.820313,4117.563965,4110.384766,4620.000000,4443.846191,4391.282227,4519.743652,6133.000000,4.000000,77.000000,,,,0.000000,4.000000,4.000000,4.000000,4.000000,4.000000,4.000000,4.000000,4.000000,4.000000,4.000000,4.000000,4.000000,4.000000,4.000000,100.000000,,,,,,,,,,,,,,,,,,,,,,,,,,,,
1703161935.008557,1703161935.008843,116.000000,0.000000,4202.436035,4134.615234,4276.538574,4235.000000,4143.589844,4126.153809,4156.153809,4133.077148,4120.000000,4115.641113,4624.102539,4443.974121,4390.000000,4524.102539,6569.000000,4.000000,77.000000,,,,0.000000,4.000000,4.000000,4.000000,4.000000,4.000000,4.000000,4.000000,4.000000,4.000000,4.000000,4.000000,4.000000,4.000000,4.000000,100.000000,,,,,,,,,,,,,,,,,29.000000,0.000000,0.557319,-0.404480,-0.518982,-0.506409,0.984007,0.078135,0.131364,-17.623795,-31.772364,64.579697
1703161935.016365,1703161935.016651,117.000000,0.000000,4202.307617,4132.692383,4273.974121,4233.846191,4136.538574,4131.153809,4156.153809,4142.307617,4136.794922,4123.846191,4636.282227,4446.025879,4395.641113,4525.128418,6826.000000,4.000000,77.000000,,,,0.000000,4.000000,4.000000,4.000000,4.000000,4.000000,4.000000,4.000000,4.000000,4.000000,4.000000,4.000000,4.000000,4.000000,4.000000,100.000000,,,,,,,,,,,,,,,,,,,,,,,,,,,,
1703161935.024174,1703161935.024359,118.000000,0.000000,4198.589844,4124.102539,4270.641113,4227.051270,4132.692383,4137.692383,4158.846191,4142.436035,4139.230957,4122.436035,4634.615234,4446.794922,4394.615234,4518.333496,5791.000000,4.000000,77.000000,,,,0.000000,4.000000,4.000000,4.000000,4.000000,4.000000,4.000000,4.000000,4.000000,4.000000,4.000000,4.000000,4.000000,4.000000,4.000000,100.000000,,,,,,,,,,,,,,,,,,,,,,,,,,,,
1703161935.031982,1703161935.032267,119.000000,0.000000,4189.615234,4117.051270,4266.025879,4221.282227,4146.410156,4140.641113,4163.846191,4146.025879,4139.615234,4123.333496,4627.820313,4443.846191,4386.922852,4513.974121,6133.000000,4.000000,77.000000,,,,0.000000,4.000000,4.000000,4.000000,4.000000,4.000000,4.000000,4.000000,4.000000,4.000000,4.000000,4.000000,4.000000,4.000000,4.000000,100.000000,,,,,,,,,,,,,,,,,,,,,,,,,,,,
1703161935.039790,1703161935.040075,120.000000,0.000000,4193.717773,4120.128418,4264.871582,4223.717773,4153.205078,4141.025879,4170.000000,4164.743652,4161.410156,4132.179688,4639.102539,4450.128418,4393.461426,4520.512695,6569.000000,4.000000,77.000000,,,,0.000000,4.000000,4.000000,4.000000,4.000000,4.000000,4.000000,4.000000,4.000000,4.000000,4.000000,4.000000,4.000000,4.000000,4.000000,100.000000,,,,,,,,,,,,,,,,,30.000000,0.000000,0.557499,-0.404541,-0.518860,-0.506287,0.992797,0.080576,0.134294,-17.578081,-31.878460,64.721725
1703161935.047598,1703161935.047883,121.000000,0.000000,4202.436035,4124.102539,4266.025879,4228.077148,4142.436035,4141.538574,4170.769043,4171.153809,4173.846191,4134.358887,4647.563965,4459.743652,4405.000000,4527.179688,6826.000000,4.000000,77.000000,,,,0.000000,4.000000,4.000000,4.000000,4.000000,4.000000,4.000000,4.000000,4.000000,4.000000,4.000000,4.000000,4.000000,4.000000,4.000000,100.000000,1.000000,100.000000,4.000000,4.000000,4.000000,4.000000,4.000000,4.000000,4.000000,4.000000,4.000000,4.000000,4.000000,4.000000,4.000000,4.000000,,,,,,,,,,,,
1703161935.055406,1703161935.055591,122.000000,0.000000,4199.615234,4123.717773,4265.897461,4229.743652,4134.871582,4140.769043,4163.717773,4153.205078,4158.846191,4132.307617,4640.897461,4452.179688,4404.615234,4528.205078,5791.000000,4.000000,77.000000,,,,0.000000,4.000000,4.000000,4.000000,4.000000,4.000000,4.000000,4.000000,4.000000,4.000000,4.000000,4.000000,4.000000,4.000000,4.000000,100.000000,,,,,,,,,,,,,,,,,,,,,,,,,,,,
1703161935.063214,1703161935.063499,123.000000,0.000000,4201.794922,4128.846191,4268.077148,4231.282227,4137.307617,4135.769043,4159.615234,4137.948730,4152.692383,4141.794922,4643.589844,4441.282227,4408.974121,4533.846191,6133.000000,4.000000,77.000000,,,,0.000000,4.000000,4.000000,4.000000,4.000000,4.000000,4.000000,4.000000,4.000000,4.000000,4.000000,4.000000,4.000000,4.000000,4.000000,100.000000,,,,,,,,,,,,,,,,,,,,,,,,,,,,
1703161935.071022,1703161935.071308,124.000000,0.000000,4210.512695,4136.538574,4270.641113,4234.871582,4145.512695,4128.717773,4159.615234,4138.589844,4154.358887,4141.410156,4646.666504,4443.461426,4415.897461,4538.846191,6569.000000,4.000000,77.000000,,,,0.000000,4.000000,4.000000,4.000000,4.000000,4.000000,4.000000,4.000000,4.000000,4.000000,4.000000,4.000000,4.000000,4.000000,4.000000,100.000000,,,,,,,,,,,,,,,,,31.000000,0.000000,0.557510,-0.404602,-0.518860,-0.506226,0.976193,0.081065,0.127457,-17.603607,-31.823948,64.749550
1703161935.078830,1703161935.079216,125.000000,0.000000,4213.077148,4140.384766,4270.128418,4239.358887,4147.692383,4124.743652,4154.487305,4135.256348,4138.974121,4127.179688,4639.102539,4445.384766,4413.333496,4536.282227,6826.000000,4.000000,77.000000,,,,0.000000,4.000000,4.000000,4.000000,4.000000,4.000000,4.000000,4.000000,4.000000,4.000000,4.000000,4.000000,4.000000,4.000000,4.000000,100.000000,,,,,,,,,,,,,,,,,,,,,,,,,,,,
1703161935.086638,1703161935.087024,126.000000,0.000000,4216.538574,4142.563965,4276.538574,4242.307617,4141.282227,4122.948730,4151.538574,4124.230957,4121.410156,4122.692383,4640.512695,4442.563965,4413.077148,4538.461426,5791.000000,4.000000,77.000000,,,,0.000000,4.000000,4.000000,4.000000,4.000000,4.000000,4.000000,4.000000,4.000000,4.000000,4.000000,4.000000,4.000000,4.000000,4.000000,100.000000,,,,,,,,,,,,,,,,,,,,,,,,,,,,
1703161935.094446,1703161935.094832,127.000000,0.000000,4216.153809,4141.922852,4280.256348,4236.410156,4137.820313,4121.922852,4157.436035,4119.102539,4115.384766,4119.102539,4642.307617,4444.871582,4409.230957,4538.077148,77.000000,4.000000,77.000000,,,,0.000000,4.000000,4.000000,4.000000,4.000000,4.000000,4.000000,4.000000,4.000000,4.000000,4.000000,4.000000,4.000000,4.000000,4.000000,100.000000,,,,,,,,,,,,,,,,,,,,,,,,,,,,
1703161935.102254,1703161935.102540,0.000000,0.000000,4207.307617,4134.230957,4269.743652,4231.025879,4142.563965,4127.692383,4162.436035,4123.461426,4114.230957,4108.589844,4629.358887,4442.307617,4396.153809,4526.282227,5310.000000,4.000000,77.000000,,,,0.000000,4.000000,4.000000,4.000000,4.000000,4.000000,4.000000,4.000000,4.000000,4.000000,4.000000,4.000000,4.000000,4.000000,4.000000,100.000000,,,,,,,,,,,,,,,,,0.000000,0.000000,0.557351,-0.404663,-0.519043,-0.506165,0.977658,0.087413,0.124039,-17.543245,-31.941553,64.807930
1703161935.110062,1703161935.110348,1.000000,0.000000,4197.051270,4127.307617,4261.153809,4230.641113,4142.051270,4137.948730,4159.358887,4131.282227,4122.179688,4109.358887,4622.820313,4430.641113,4392.307617,4518.461426,5340.000000,4.000000,77.000000,,,,0.000000,4.000000,4.000000,4.000000,4.000000,4.000000,4.000000,4.000000,4.000000,4.000000,4.000000,4.000000,4.000000,4.000000,4.000000,100.000000,,,,,,,,,,,,,,,,,,,,,,,,,,,,
1703161935.117870,1703161935.118056,2.000000,0.000000,4188.717773,4121.922852,4260.512695,4222.179688,4136.153809,4136.153809,4157.436035,4138.333496,4134.487305,4117.563965,4621.666504,4426.794922,4393.846191,4517.948730,5235.000000,4.000000,77.000000,,,,0.000000,4.000000,4.000000,4.000000,4.000000,4.000000,4.000000,4.000000,4.000000,4.000000,4.000000,4.000000,4.000000,4.000000,4.000000,100.000000,,,,,,,,,,,,,,,,,,,,,,,,,,,,
1703161935.125678,1703161935.125963,3.000000,0.000000,4190.897461,4120.769043,4260.897461,4216.410156,4135.769043,4129.102539,4160.769043,4148.846191,4142.948730,4122.307617,4625.000000,4440.384766,4395.512695,4520.641113,5232.000000,4.000000,77.000000,,,,0.000000,4.000000,4.000000,4.000000,4.000000,4.000000,4.000000,4.000000,4.000000,4.000000,4.000000,4.000000,4.000000,4.000000,4.000000,100.000000,,,,,,,,,,,,,,,,,,,,,,,,,,,,
1703161935.133486,1703161935.133771,4.000000,0.000000,4201.666504,4130.897461,4266.922852,4225.641113,4137.436035,4133.205078,4165.384766,4157.948730,4154.743652,4131.282227,4645.000000,4456.282227,4408.333496,4529.102539,5115.000000,4.000000,77.000000,,,,0.000000,4.000000,4.000000,4.000000,4.000000,4.000000,4.000000,4.000000,4.000000,4.000000,4.000000,4.000000,4.000000,4.000000,4.000000,100.000000,,,,,,,,,,,,,,,,,1.000000,0.000000,0.557464,-0.404663,-0.518921,-0.506165,0.973752,0.074228,0.133805,-17.555588,-31.980730,64.843803
1703161935.141294,1703161935.141679,5.000000,0.000000,4205.128418,4140.769043,4272.179688,4232.820313,4138.077148,4135.256348,4165.641113,4159.230957,4163.077148,4137.692383,4659.743652,4461.282227,4419.871582,4537.692383,5156.000000,4.000000,77.000000,,,,0.000000,4.000000,4.000000,4.000000,4.000000,4.000000,4.000000,4.000000,4.000000,4.000000,4.000000,4.000000,4.000000,4.000000,4.000000,100.000000,,,,,,,,,,,,,,,,,,,,,,,,,,,,
1703161935.149102,1703161935.149487,6.000000,0.000000,4204.487305,4139.487305,4268.846191,4228.846191,4138.205078,4126.538574,4159.615234,4156.538574,4157.692383,4134.615234,4649.871582,4456.666504,4415.641113,4537.563965,4008.000000,4.000000,77.000000,,,,0.000000,4.000000,4.000000,4.000000,4.000000,4.000000,4.000000,4.000000,4.000000,4.000000,4.000000,4.000000,4.000000,4.000000,4.000000,100.000000,,,,,,,,,,,,,,,,,,,,,,,,,,,,
1703161935.156911,1703161935.157395,7.000000,0.000000,4212.051270,4138.461426,4269.871582,4230.769043,4138.461426,4122.179688,4154.230957,4152.179688,4150.128418,4132.948730,4642.179688,4452.179688,4412.820313,4536.538574,5260.000000,4.000000,77.000000,,,,0.000000,4.000000,4.000000,4.000000,4.000000,4.000000,4.000000,4.000000,4.000000,4.000000,4.000000,4.000000,4.000000,4.000000,4.000000,100.000000,,,,,,,,,,,,,,,,,,,,,,,,,,,,
1703161935.164719,1703161935.165203,8.000000,0.000000,4216.153809,4144.487305,4274.487305,4237.051270,4141.410156,4125.641113,4152.436035,4142.820313,4146.025879,4128.974121,4645.512695,4451.538574,4416.282227,4538.846191,5088.000000,4.000000,77.000000,,,,0.000000,4.000000,4.000000,4.000000,4.000000,4.000000,4.000000,4.000000,4.000000,4.000000,4.000000,4.000000,4.000000,4.000000,4.000000,100.000000,,,,,,,,,,,,,,,,,2.000000,0.000000,0.557671,-0.405151,-0.518616,-0.505859,1.004517,0.072763,0.139665,-17.516695,-31.899324,65.076088
1703161935.172526,1703161935.173111,9.000000,0.000000,4211.666504,4145.512695,4270.384766,4234.743652,4144.230957,4124.615234,4150.000000,4135.641113,4140.128418,4122.051270,4645.384766,4450.512695,4415.384766,4538.333496,5243.000000,4.000000,77.000000,,,,0.000000,4.000000,4.000000,4.000000,4.000000,4.000000,4.000000,4.000000,4.000000,4.000000,4.000000,4.000000,4.000000,4.000000,4.000000,100.000000,,,,,,,,,,,,,,,,,,,,,,,,,,,,
1703161935.180335,1703161935.180919,10.000000,0.000000,4212.692383,4139.615234,4270.000000,4233.717773,4140.256348,4115.384766,4147.051270,4136.282227,4134.871582,4122.692383,4644.743652,4451.410156,4412.820313,4538.846191,5809.000000,4.000000,77.000000,,,,0.000000,4.000000,4.000000,4.000000,4.000000,4.000000,4.000000,4.000000,4.000000,4.000000,4.000000,4.000000,4.000000,4.000000,4.000000,100.000000,,,,,,,,,,,,,,,,,,,,,,,,,,,,
1703161935.188143,1703161935.188627,11.000000,0.000000,4218.077148,4138.205078,4279.871582,4236.410156,4133.077148,4113.077148,4151.922852,4135.256348,4121.794922,4114.487305,4640.128418,4456.922852,4404.358887,4540.897461,6147.000000,4.000000,77.000000,,,,0.000000,4.000000,4.000000,4.000000,4.000000,4.000000,4.000000,4.000000,4.000000,4.000000,4.000000,4.000000,4.000000,4.000000,4.000000,100.000000,,,,,,,,,,,,,,,,,,,,,,,,,,,,
1703161935.195951,1703161935.196535,12.000000,0.000000,4218.205078,4134.358887,4282.307617,4235.000000,4133.589844,4120.384766,4162.563965,4133.974121,4109.871582,4107.563965,4629.102539,4460.128418,4393.589844,4539.743652,6584.000000,4.000000,77.000000,,,,0.000000,4.000000,4.000000,4.000000,4.000000,4.000000,4.000000,4.000000,4.000000,4.000000,4.000000,4.000000,4.000000,4.000000,4.000000,100.000000,,,,,,,,,,,,,,,,,3.000000,0.000000,0.557704,-0.405640,-0.518555,-0.505493,0.986449,0.074228,0.129899,-17.548359,-31.892725,64.985146
1703161935.203759,1703161935.204343,13.000000,0.000000,4215.000000,4124.871582,4276.025879,4233.717773,4138.846191,4126.666504,4164.743652,4135.000000,4116.282227,4117.563965,4629.487305,4455.897461,4394.743652,4537.179688,6826.000000,4.000000,77.000000,,,,0.000000,4.000000,4.000000,4.000000,4.000000,4.000000,4.000000,4.000000,4.000000,4.000000,4.000000,4.000000,4.000000,4.000000,4.000000,100.000000,,,,,,,,,,,,,,,,,,,,,,,,,,,,
1703161935.211567,1703161935.212152,14.000000,0.000000,4214.743652,4125.897461,4275.128418,4234.743652,4136.282227,4124.358887,4160.256348,4137.307617,4122.436035,4120.641113,4637.692383,4451.153809,4400.000000,4536.538574,5809.000000,4.000000,77.000000,,,,0.000000,4.000000,4.000000,4.000000,4.000000,4.000000,4.000000,4.000000,4.000000,4.000000,4.000000,4.000000,4.000000,4.000000,4.000000,100.000000,,,,,,,,,,,,,,,,,,,,,,,,,,,,
1703161935.219375,1703161935.219860,15.000000,0.000000,4217.563965,4132.051270,4276.538574,4235.641113,4132.948730,4123.846191,4163.717773,4146.794922,4127.307617,4128.589844,4642.820313,4458.589844,4401.025879,4538.205078,6147.000000,4.000000,77.000000,,,,0.000000,4.000000,4.000000,4.000000,4.000000,4.000000,4.000000,4.000000,4.000000,4.000000,4.000000,4.000000,4.000000,4.000000,4.000000,100.000000,,,,,,,,,,,,,,,,,,,,,,,,,,,,
1703161935.227183,1703161935.227668,16.000000,0.000000,4220.384766,4129.743652,4278.717773,4237.692383,4142.179688,4132.179688,4173.846191,4164.230957,4146.025879,4163.461426,4654.358887,4473.717773,4408.846191,4542.051270,0.000000,4.000000,77.000000,,,,0.000000,4.000000,4.000000,4.000000,4.000000,4.000000,4.000000,4.000000,4.000000,4.000000,4.000000,4.000000,4.000000,4.000000,4.000000,100.000000,,,,,,,,,,,,,,,,,4.000000,0.000000,0.558016,-0.405823,-0.518433,-0.505127,0.963497,0.078135,0.133805,-17.493525,-32.136787,65.136635
1703161935.234991,1703161935.235376,17.000000,0.000000,4218.974121,4127.820313,4282.563965,4241.538574,4152.436035,4132.820313,4174.358887,4172.307617,4158.461426,4188.077148,4666.794922,4478.333496,4417.307617,4543.846191,0.000000,4.000000,77.000000,,,,0.000000,4.000000,4.000000,4.000000,4.000000,4.000000,4.000000,4.000000,4.000000,4.000000,4.000000,4.000000,4.000000,4.000000,4.000000,100.000000,,,,,,,,,,,,,,,,,,,,,,,,,,,,
1703161935.242799,1703161935.243184,18.000000,0.000000,4218.333496,4133.846191,4284.743652,4246.410156,4153.333496,4130.000000,4170.384766,4170.256348,4159.615234,4191.282227,4666.025879,4477.051270,4418.333496,4547.179688,0.000000,4.000000,77.000000,,,,0.000000,4.000000,4.000000,4.000000,4.000000,4.000000,4.000000,4.000000,4.000000,4.000000,4.000000,4.000000,4.000000,4.000000,4.000000,100.000000,,,,,,,,,,,,,,,,,,,,,,,,,,,,
1703161935.250607,1703161935.250892,19.000000,0.000000,4227.307617,4143.717773,4288.717773,4250.384766,4150.256348,4135.000000,4171.538574,4169.743652,4170.769043,4207.436035,4668.205078,4483.846191,4425.897461,4555.128418,0.000000,4.000000,77.000000,,,,0.000000,4.000000,4.000000,4.000000,4.000000,4.000000,4.000000,4.000000,4.000000,4.000000,4.000000,4.000000,4.000000,4.000000,4.000000,100.000000,,,,,,,,,,,,,,,,,,,,,,,,,,,,
1703161935.258415,1703161935.258700,20.000000,0.000000,4236.153809,4147.692383,4293.461426,4250.641113,4152.820313,4135.000000,4172.692383,4164.743652,4173.077148,4216.794922,4673.974121,4484.230957,4430.512695,4556.666504,0.000000,4.000000,77.000000,,,,0.000000,4.000000,4.000000,4.000000,4.000000,4.000000,4.000000,4.000000,4.000000,4.000000,4.000000,4.000000,4.000000,4.000000,4.000000,100.000000,,,,,,,,,,,,,,,,,5.000000,0.000000,0.558292,-0.405823,-0.518433,-0.504822,0.983030,0.078135,0.137712,-17.527504,-32.139774,65.206306
1703161935.266223,1703161935.266408,21.000000,0.000000,4235.000000,4145.000000,4291.153809,4250.000000,4154.102539,4124.102539,4166.282227,4156.025879,4157.948730,4206.666504,4671.794922,4473.205078,4423.589844,4555.641113,0.000000,4.000000,77.000000,,,,0.000000,4.000000,4.000000,4.000000,4.000000,4.000000,4.000000,4.000000,4.000000,4.000000,4.000000,4.000000,4.000000,4.000000,4.000000,100.000000,,,,,,,,,,,,,,,,,,,,,,,,,,,,
1703161935.274031,1703161935.274216,22.000000,0.000000,4230.769043,4140.128418,4282.307617,4249.102539,4150.512695,4119.102539,4157.051270,4149.230957,4150.128418,4203.846191,4661.794922,4464.102539,4416.794922,4553.846191,0.000000,4.000000,77.000000,,,,0.000000,4.000000,4.000000,4.000000,4.000000,4.000000,4.000000,4.000000,4.000000,4.000000,4.000000,4.000000,4.000000,4.000000,4.000000,100.000000,,,,,,,,,,,,,,,,,,,,,,,,,,,,
1703161935.281839,1703161935.281924,23.000000,0.000000,4228.717773,4139.871582,4277.436035,4246.538574,4150.769043,4122.307617,4156.410156,4141.282227,4141.794922,4204.487305,4649.230957,4459.615234,4413.205078,4545.641113,0.000000,4.000000,77.000000,,,,0.000000,4.000000,4.000000,4.000000,4.000000,4.000000,4.000000,4.000000,4.000000,4.000000,4.000000,4.000000,4.000000,4.000000,4.000000,100.000000,,,,,,,,,,,,,,,,,,,,,,,,,,,,
1703161935.289647,1703161935.289732,24.000000,0.000000,4230.000000,4144.871582,4279.358887,4247.307617,4150.641113,4119.230957,4160.256348,4136.794922,4126.410156,4198.717773,4646.282227,4458.589844,4413.846191,4546.538574,0.000000,4.000000,77.000000,,,,0.000000,4.000000,4.000000,4.000000,4.000000,4.000000,4.000000,4.000000,4.000000,4.000000,4.000000,4.000000,4.000000,4.000000,4.000000,100.000000,,,,,,,,,,,,,,,,,6.000000,0.000000,0.558311,-0.405640,-0.518616,-0.504761,0.987425,0.064461,0.134294,-17.474754,-32.309132,65.219009
1703161935.297455,1703161935.297440,25.000000,0.000000,4234.487305,4152.307617,4280.769043,4251.153809,4149.230957,4119.102539,4161.538574,4138.333496,4119.102539,4192.436035,4650.641113,4457.820313,4416.410156,4552.820313,0.000000,4.000000,77.000000,,,,0.000000,4.000000,4.000000,4.000000,4.000000,4.000000,4.000000,4.000000,4.000000,4.000000,4.000000,4.000000,4.000000,4.000000,4.000000,100.000000,,,,,,,,,,,,,,,,,,,,,,,,,,,,
1703161935.305263,1703161935.305248,26.000000,0.000000,4229.615234,4156.153809,4279.230957,4251.666504,4152.563965,4127.692383,4166.410156,4137.692383,4122.948730,4193.077148,4650.641113,4455.384766,4413.333496,4545.128418,0.000000,4.000000,77.000000,,,,0.000000,4.000000,4.000000,4.000000,4.000000,4.000000,4.000000,4.000000,4.000000,4.000000,4.000000,4.000000,4.000000,4.000000,4.000000,100.000000,,,,,,,,,,,,,,,,,,,,,,,,,,,,
1703161935.313072,1703161935.312956,27.000000,0.000000,4218.589844,4149.871582,4278.461426,4250.512695,4155.256348,4136.025879,4172.563965,4141.538574,4133.717773,4200.512695,4647.692383,4457.307617,4410.769043,4536.282227,0.000000,4.000000,77.000000,,,,0.000000,4.000000,4.000000,4.000000,4.000000,4.000000,4.000000,4.000000,4.000000,4.000000,4.000000,4.000000,4.000000,4.000000,4.000000,100.000000,,,,,,,,,,,,,,,,,,,,,,,,,,,,
1703161935.320880,1703161935.320864,28.000000,0.000000,4216.282227,4142.179688,4276.025879,4247.948730,4153.717773,4138.846191,4171.410156,4152.820313,4143.589844,4204.102539,4646.153809,4461.922852,4411.153809,4535.256348,0.000000,4.000000,77.000000,,,,0.000000,4.000000,4.000000,4.000000,4.000000,4.000000,4.000000,4.000000,4.000000,4.000000,4.000000,4.000000,4.000000,4.000000,4.000000,100.000000,,,,,,,,,,,,,,,,,7.000000,0.000000,0.558177,-0.405518,-0.518677,-0.504944,0.976193,0.084483,0.131364,-17.510612,-32.378216,65.063774
1703161935.328688,1703161935.328672,29.000000,0.000000,4214.615234,4137.307617,4267.179688,4243.461426,4153.205078,4137.179688,4169.487305,4156.666504,4146.794922,4202.436035,4645.769043,4460.384766,4411.794922,4531.922852,0.000000,4.000000,77.000000,,,,0.000000,4.000000,4.000000,4.000000,4.000000,4.000000,4.000000,4.000000,4.000000,4.000000,4.000000,4.000000,4.000000,4.000000,4.000000,100.000000,,,,,,,,,,,,,,,,,,,,,,,,,,,,
1703161935.336496,1703161935.336580,30.000000,0.000000,4210.128418,4135.128418,4261.282227,4241.282227,4148.974121,4133.974121,4172.051270,4154.743652,4150.769043,4206.538574,4651.794922,4458.846191,4419.487305,4533.205078,0.000000,4.000000,77.000000,,,,0.000000,4.000000,4.000000,4.000000,4.000000,4.000000,4.000000,4.000000,4.000000,4.000000,4.000000,4.000000,4.000000,4.000000,4.000000,100.000000,,,,,,,,,,,,,,,,,,,,,,,,,,,,
1703161935.344304,1703161935.344388,31.000000,0.000000,4211.282227,4134.871582,4267.820313,4242.179688,4143.077148,4127.820313,4167.051270,4156.282227,4156.794922,4211.025879,4660.128418,4462.563965,4423.205078,4541.410156,0.000000,4.000000,77.000000,,,,0.000000,4.000000,4.000000,4.000000,4.000000,4.000000,4.000000,4.000000,4.000000,4.000000,4.000000,4.000000,4.000000,4.000000,4.000000,100.000000,,,,,,,,,,,,,,,,,,,,,,,,,,,,
1703161935.352112,1703161935.352295,32.000000,0.000000,4215.384766,4139.615234,4277.820313,4246.794922,4152.948730,4124.487305,4160.769043,4159.102539,4157.692383,4203.461426,4658.205078,4465.128418,4417.692383,4540.641113,0.000000,4.000000,77.000000,,,,0.000000,4.000000,4.000000,4.000000,4.000000,4.000000,4.000000,4.000000,4.000000,4.000000,4.000000,4.000000,4.000000,4.000000,4.000000,100.000000,,,,,,,,,,,,,,,,,8.000000,0.000000,0.558011,-0.405212,-0.518738,-0.505310,0.983030,0.077158,0.125992,-17.376217,-32.323730,65.140732
1703161935.359920,1703161935.360103,33.000000,0.000000,4217.820313,4151.025879,4281.922852,4255.128418,4163.205078,4124.871582,4163.461426,4151.794922,4149.871582,4197.307617,4654.743652,4467.051270,4422.307617,4538.333496,0.000000,4.000000,77.000000,,,,0.000000,4.000000,4.000000,4.000000,4.000000,4.000000,4.000000,4.000000,4.000000,4.000000,4.000000,4.000000,4.000000,4.000000,4.000000,100.000000,,,,,,,,,,,,,,,,,,,,,,,,,,,,
1703161935.367728,1703161935.368011,34.000000,0.000000,4226.282227,4156.025879,4286.153809,4261.922852,4155.897461,4122.692383,4162.563965,4142.179688,4144.230957,4208.974121,4660.384766,4473.077148,4437.179688,4548.589844,0.000000,4.000000,77.000000,,,,0.000000,4.000000,4.000000,4.000000,4.000000,4.000000,4.000000,4.000000,4.000000,4.000000,4.000000,4.000000,4.000000,4.000000,4.000000,100.000000,,,,,,,,,,,,,,,,,,,,,,,,,,,,
1703161935.375536,1703161935.375819,35.000000,0.000000,4234.358887,4157.436035,4295.769043,4265.897461,4151.282227,4118.717773,4154.102539,4144.615234,4146.153809,4216.025879,4670.641113,4479.102539,4441.153809,4556.538574,0.000000,4.000000,77.000000,,,,0.000000,4.000000,4.000000,4.000000,4.000000,4.000000,4.000000,4.000000,4.000000,4.000000,4.000000,4.000000,4.000000,4.000000,4.000000,100.000000,,,,,,,,,,,,,,,,,,,,,,,,,,,,
1703161935.383344,1703161935.383727,36.000000,0.000000,4227.948730,4158.717773,4296.794922,4265.512695,4157.179688,4118.589844,4158.205078,4152.051270,4143.846191,4200.512695,4671.153809,4479.358887,4433.717773,4549.102539,0.000000,4.000000,77.000000,,,,0.000000,4.000000,4.000000,4.000000,4.000000,4.000000,4.000000,4.000000,4.000000,4.000000,4.000000,4.000000,4.000000,4.000000,4.000000,100.000000,,,,,,,,,,,,,,,,,9.000000,0.000000,0.557908,-0.404968,-0.518860,-0.505493,0.979123,0.087413,0.129410,-17.388596,-32.308022,65.326653
1703161935.391152,1703161935.391535,37.000000,0.000000,4213.589844,4150.897461,4285.769043,4256.282227,4157.179688,4127.051270,4170.512695,4153.077148,4135.897461,4191.666504,4657.051270,4473.205078,4425.512695,4536.410156,0.000000,4.000000,77.000000,,,,0.000000,4.000000,4.000000,4.000000,4.000000,4.000000,4.000000,4.000000,4.000000,4.000000,4.000000,4.000000,4.000000,4.000000,4.000000,100.000000,,,,,,,,,,,,,,,,,,,,,,,,,,,,
1703161935.398960,1703161935.399243,38.000000,0.000000,4204.358887,4136.666504,4279.102539,4244.230957,4151.794922,4138.077148,4172.179688,4153.846191,4134.487305,4199.358887,4645.641113,4465.641113,4415.641113,4527.051270,0.000000,4.000000,77.000000,,,,0.000000,4.000000,4.000000,4.000000,4.000000,4.000000,4.000000,4.000000,4.000000,4.000000,4.000000,4.000000,4.000000,4.000000,4.000000,100.000000,,,,,,,,,,,,,,,,,,,,,,,,,,,,
1703161935.406768,1703161935.407051,39.000000,0.000000,4196.538574,4127.051270,4276.153809,4241.666504,4152.563965,4140.512695,4169.743652,4156.410156,4137.179688,4194.487305,4645.256348,4460.384766,4406.153809,4513.846191,0.000000,4.000000,77.000000,,,,0.000000,4.000000,4.000000,4.000000,4.000000,4.000000,4.000000,4.000000,4.000000,4.000000,4.000000,4.000000,4.000000,4.000000,4.000000,100.000000,,,,,,,,,,,,,,,,,,,,,,,,,,,,
1703161935.414576,1703161935.414759,40.000000,0.000000,4185.512695,4120.512695,4268.717773,4239.743652,4152.820313,4137.307617,4172.051270,4153.717773,4134.743652,4177.179688,4641.410156,4456.794922,4401.922852,4503.205078,0.000000,4.000000,77.000000,,,,0.000000,4.000000,4.000000,4.000000,4.000000,4.000000,4.000000,4.000000,4.000000,4.000000,4.000000,4.000000,4.000000,4.000000,4.000000,100.000000,,,,,,,,,,,,,,,,,10.000000,0.000000,0.558019,-0.404663,-0.518860,-0.505615,0.994750,0.080576,0.142596,-17.349737,-32.343887,65.127319
1703161935.422384,1703161935.422567,41.000000,0.000000,4182.563965,4118.077148,4265.384766,4234.102539,4150.512695,4136.538574,4173.589844,4152.948730,4134.487305,4171.282227,4630.256348,4454.102539,4400.512695,4503.205078,0.000000,4.000000,77.000000,,,,0.000000,4.000000,4.000000,4.000000,4.000000,4.000000,4.000000,4.000000,4.000000,4.000000,4.000000,4.000000,4.000000,4.000000,4.000000,100.000000,,,,,,,,,,,,,,,,,,,,,,,,,,,,
1703161935.430192,1703161935.430275,42.000000,0.000000,4189.102539,4128.205078,4272.051270,4238.717773,4154.358887,4140.000000,4175.000000,4158.461426,4143.974121,4170.512695,4631.666504,4457.692383,4398.846191,4505.384766,0.000000,4.000000,77.000000,,,,0.000000,4.000000,4.000000,4.000000,4.000000,4.000000,4.000000,4.000000,4.000000,4.000000,4.000000,4.000000,4.000000,4.000000,4.000000,100.000000,,,,,,,,,,,,,,,,,,,,,,,,,,,,
1703161935.438000,1703161935.438083,43.000000,0.000000,4189.871582,4132.948730,4277.307617,4244.358887,4156.538574,4142.051270,4173.589844,4160.641113,4151.025879,4171.410156,4643.846191,4462.692383,4402.948730,4506.538574,0.000000,4.000000,77.000000,,,,0.000000,4.000000,4.000000,4.000000,4.000000,4.000000,4.000000,4.000000,4.000000,4.000000,4.000000,4.000000,4.000000,4.000000,4.000000,100.000000,,,,,,,,,,,,,,,,,,,,,,,,,,,,
1703161935.445808,1703161935.445791,44.000000,0.000000,4188.717773,4126.538574,4274.615234,4240.512695,4153.077148,4134.102539,4165.769043,4156.410156,4152.179688,4172.179688,4645.256348,4460.128418,4409.743652,4509.743652,0.000000,4.000000,77.000000,,,,0.000000,4.000000,4.000000,4.000000,4.000000,4.000000,4.000000,4.000000,4.000000,4.000000,4.000000,4.000000,4.000000,4.000000,4.000000,100.000000,,,,,,,,,,,,,,,,,11.000000,0.000000,0.557985,-0.404785,-0.518921,-0.505493,0.974728,0.081065,0.135759,-17.314762,-32.459499,65.231255
1703161935.453617,1703161935.453599,45.000000,0.000000,4196.025879,4130.128418,4274.871582,4241.410156,4151.922852,4124.487305,4162.179688,4153.717773,4149.871582,4168.333496,4642.692383,4458.077148,4411.410156,4517.436035,0.000000,4.000000,77.000000,,,,0.000000,4.000000,4.000000,4.000000,4.000000,4.000000,4.000000,4.000000,4.000000,4.000000,4.000000,4.000000,4.000000,4.000000,4.000000,100.000000,,,,,,,,,,,,,,,,,,,,,,,,,,,,
1703161935.461424,1703161935.461307,46.000000,0.000000,4206.025879,4141.410156,4284.230957,4247.563965,4154.487305,4123.077148,4163.717773,4153.589844,4146.922852,4169.487305,4644.230957,4461.410156,4411.410156,4526.794922,0.000000,4.000000,77.000000,,,,0.000000,4.000000,4.000000,4.000000,4.000000,4.000000,4.000000,4.000000,4.000000,4.000000,4.000000,4.000000,4.000000,4.000000,4.000000,100.000000,,,,,,,,,,,,,,,,,,,,,,,,,,,,
1703161935.469232,1703161935.469115,47.000000,0.000000,4211.153809,4147.179688,4292.436035,4252.436035,4154.871582,4122.563965,4159.871582,4144.230957,4139.743652,4172.948730,4647.307617,4462.692383,4416.153809,4527.948730,0.000000,4.000000,77.000000,,,,0.000000,4.000000,4.000000,4.000000,4.000000,4.000000,4.000000,4.000000,4.000000,4.000000,4.000000,4.000000,4.000000,4.000000,4.000000,100.000000,,,,,,,,,,,,,,,,,,,,,,,,,,,,
1703161935.477041,1703161935.476823,48.000000,0.000000,4216.538574,4147.692383,4294.487305,4256.025879,4147.948730,4118.461426,4152.563965,4128.846191,4126.153809,4166.025879,4652.820313,4461.410156,4424.743652,4525.128418,0.000000,4.000000,77.000000,,,,0.000000,4.000000,4.000000,4.000000,4.000000,4.000000,4.000000,4.000000,4.000000,4.000000,4.000000,4.000000,4.000000,4.000000,4.000000,100.000000,,,,,,,,,,,,,,,,,12.000000,0.000000,0.558153,-0.404785,-0.518799,-0.505432,0.982542,0.067391,0.133805,-17.266621,-32.413548,65.141464
1703161935.484849,1703161935.484731,49.000000,0.000000,4216.410156,4144.230957,4291.025879,4253.205078,4143.461426,4116.922852,4151.282227,4118.846191,4113.205078,4153.717773,4650.641113,4460.128418,4425.512695,4525.769043,0.000000,4.000000,77.000000,,,,0.000000,4.000000,4.000000,4.000000,4.000000,4.000000,4.000000,4.000000,4.000000,4.000000,4.000000,4.000000,4.000000,4.000000,4.000000,100.000000,,,,,,,,,,,,,,,,,,,,,,,,,,,,
1703161935.492657,1703161935.492539,50.000000,0.000000,4208.077148,4138.717773,4284.102539,4246.153809,4150.897461,4118.974121,4155.897461,4119.230957,4110.769043,4155.769043,4645.641113,4460.769043,4421.282227,4527.820313,0.000000,4.000000,77.000000,,,,0.000000,4.000000,4.000000,4.000000,4.000000,4.000000,4.000000,4.000000,4.000000,4.000000,4.000000,4.000000,4.000000,4.000000,4.000000,100.000000,,,,,,,,,,,,,,,,,,,,,,,,,,,,
1703161935.500465,1703161935.500447,51.000000,0.000000,4201.794922,4138.717773,4278.974121,4243.333496,4158.077148,4124.230957,4161.538574,4129.487305,4124.487305,4165.256348,4645.256348,4459.743652,4419.871582,4524.102539,0.000000,4.000000,77.000000,,,,0.000000,4.000000,4.000000,4.000000,4.000000,4.000000,4.000000,4.000000,4.000000,4.000000,4.000000,4.000000,4.000000,4.000000,4.000000,100.000000,,,,,,,,,,,,,,,,,,,,,,,,,,,,
1703161935.508273,1703161935.508255,52.000000,0.000000,4194.743652,4134.487305,4274.358887,4240.128418,4151.538574,4133.461426,4167.692383,4144.743652,4138.589844,4165.000000,4640.000000,4452.692383,4415.512695,4511.922852,0.000000,4.000000,77.000000,,,,0.000000,4.000000,4.000000,4.000000,4.000000,4.000000,4.000000,4.000000,4.000000,4.000000,4.000000,4.000000,4.000000,4.000000,4.000000,100.000000,,,,,,,,,,,,,,,,,13.000000,0.000000,0.558166,-0.404846,-0.518738,-0.505432,0.988890,0.090831,0.133317,-17.306623,-32.322193,65.060654
1703161935.516081,1703161935.516163,53.000000,0.000000,4186.922852,4123.333496,4269.358887,4234.102539,4148.717773,4139.358887,4174.102539,4152.179688,4138.717773,4163.333496,4636.153809,4447.820313,4408.589844,4505.512695,0.000000,4.000000,77.000000,,,,0.000000,4.000000,4.000000,4.000000,4.000000,4.000000,4.000000,4.000000,4.000000,4.000000,4.000000,4.000000,4.000000,4.000000,4.000000,100.000000,,,,,,,,,,,,,,,,,,,,,,,,,,,,
1703161935.523889,1703161935.523971,54.000000,0.000000,4189.102539,4125.128418,4272.051270,4235.512695,4155.897461,4141.282227,4177.563965,4153.333496,4142.179688,4167.436035,4647.436035,4455.256348,4413.205078,4515.000000,0.000000,4.000000,77.000000,,,,0.000000,4.000000,4.000000,4.000000,4.000000,4.000000,4.000000,4.000000,4.000000,4.000000,4.000000,4.000000,4.000000,4.000000,4.000000,100.000000,,,,,,,,,,,,,,,,,,,,,,,,,,,,
1703161935.531697,1703161935.531879,55.000000,0.000000,4194.230957,4135.512695,4276.666504,4242.051270,4156.538574,4141.538574,4176.538574,4164.102539,4153.717773,4171.153809,4656.538574,4463.333496,4420.769043,4523.717773,0.000000,4.000000,77.000000,,,,0.000000,4.000000,4.000000,4.000000,4.000000,4.000000,4.000000,4.000000,4.000000,4.000000,4.000000,4.000000,4.000000,4.000000,4.000000,100.000000,,,,,,,,,,,,,,,,,,,,,,,,,,,,
1703161935.539505,1703161935.539687,56.000000,0.000000,4190.000000,4135.641113,4273.077148,4241.794922,4154.487305,4143.205078,4175.641113,4171.025879,4157.307617,4168.205078,4650.512695,4461.282227,4414.487305,4521.025879,0.000000,4.000000,77.000000,,,,0.000000,4.000000,4.000000,4.000000,4.000000,4.000000,4.000000,4.000000,4.000000,4.000000,4.000000,4.000000,4.000000,4.000000,4.000000,100.000000,,,,,,,,,,,,,,,,,14.000000,0.000000,0.558198,-0.404724,-0.518799,-0.505432,0.987914,0.070809,0.141619,-17.259295,-32.323307,64.987923
1703161935.547313,1703161935.547595,57.000000,0.000000,4185.128418,4130.641113,4266.922852,4237.051270,4157.051270,4143.461426,4175.384766,4159.487305,4151.153809,4160.512695,4645.128418,4457.436035,4410.512695,4519.615234,0.000000,4.000000,77.000000,,,,0.000000,4.000000,4.000000,4.000000,4.000000,4.000000,4.000000,4.000000,4.000000,4.000000,4.000000,4.000000,4.000000,4.000000,4.000000,100.000000,1.000000,91.666664,4.000000,4.000000,4.000000,4.000000,4.000000,3.000000,4.000000,4.000000,4.000000,4.000000,4.000000,4.000000,4.000000,4.000000,,,,,,,,,,,,
1703161935.555121,1703161935.555403,58.000000,0.000000,4193.205078,4134.487305,4267.051270,4235.256348,4158.461426,4134.230957,4172.948730,4152.820313,4152.948730,4163.333496,4649.230957,4459.102539,4416.666504,4522.692383,0.000000,4.000000,77.000000,,,,0.000000,4.000000,4.000000,4.000000,4.000000,4.000000,4.000000,4.000000,4.000000,4.000000,4.000000,4.000000,4.000000,4.000000,4.000000,100.000000,,,,,,,,,,,,,,,,,,,,,,,,,,,,
1703161935.562929,1703161935.563310,59.000000,0.000000,4200.641113,4141.410156,4273.077148,4240.512695,4154.743652,4123.589844,4170.384766,4162.051270,4155.641113,4178.846191,4657.436035,4461.922852,4422.948730,4523.974121,0.000000,4.000000,77.000000,,,,0.000000,4.000000,4.000000,4.000000,4.000000,4.000000,4.000000,4.000000,4.000000,4.000000,4.000000,4.000000,4.000000,4.000000,4.000000,100.000000,,,,,,,,,,,,,,,,,,,,,,,,,,,,
1703161935.570737,1703161935.571118,60.000000,0.000000,4202.179688,4142.051270,4280.641113,4246.410156,4153.333496,4119.615234,4164.743652,4160.384766,4145.512695,4179.871582,4660.000000,4463.077148,4424.743652,4529.743652,0.000000,4.000000,77.000000,,,,0.000000,4.000000,4.000000,4.000000,4.000000,4.000000,4.000000,4.000000,4.000000,4.000000,4.000000,4.000000,4.000000,4.000000,4.000000,100.000000,,,,,,,,,,,,,,,,,15.000000,0.000000,0.558108,-0.404541,-0.518860,-0.505615,0.983518,0.067879,0.128434,-17.366699,-32.190975,64.939125
1703161935.578545,1703161935.578826,61.000000,0.000000,4208.461426,4141.794922,4282.692383,4247.436035,4153.205078,4119.615234,4162.051270,4144.230957,4131.666504,4167.436035,4653.717773,4464.615234,4426.666504,4537.051270,0.000000,4.000000,77.000000,,,,0.000000,4.000000,4.000000,4.000000,4.000000,4.000000,4.000000,4.000000,4.000000,4.000000,4.000000,4.000000,4.000000,4.000000,4.000000,100.000000,,,,,,,,,,,,,,,,,,,,,,,,,,,,
1703161935.586353,1703161935.586634,62.000000,0.000000,4213.461426,4147.563965,4282.820313,4247.179688,4151.538574,4120.897461,4163.717773,4137.307617,4122.563965,4161.153809,4651.153809,4465.384766,4430.128418,4538.205078,0.000000,4.000000,77.000000,,,,0.000000,4.000000,4.000000,4.000000,4.000000,4.000000,4.000000,4.000000,4.000000,4.000000,4.000000,4.000000,4.000000,4.000000,4.000000,100.000000,,,,,,,,,,,,,,,,,,,,,,,,,,,,
1703161935.594161,1703161935.594343,63.000000,0.000000,4205.000000,4148.589844,4281.538574,4246.153809,4152.179688,4121.922852,4163.717773,4137.563965,4117.563965,4155.512695,4652.436035,4460.769043,4427.820313,4532.692383,0.000000,4.000000,77.000000,,,,0.000000,4.000000,4.000000,4.000000,4.000000,4.000000,4.000000,4.000000,4.000000,4.000000,4.000000,4.000000,4.000000,4.000000,4.000000,100.000000,,,,,,,,,,,,,,,,,,,,,,,,,,,,
1703161935.601969,1703161935.602150,64.000000,0.000000,4197.436035,4140.512695,4277.051270,4242.692383,4148.461426,4121.922852,4161.794922,4134.871582,4117.563965,4151.025879,4650.641113,4454.871582,4422.563965,4524.230957,5315.000000,4.000000,77.000000,,,,0.000000,4.000000,4.000000,4.000000,4.000000,4.000000,4.000000,4.000000,4.000000,4.000000,4.000000,4.000000,4.000000,4.000000,4.000000,100.000000,,,,,,,,,,,,,,,,,16.000000,0.000000,0.557918,-0.404419,-0.518921,-0.505859,0.979612,0.069344,0.124039,-17.396696,-32.205212,64.961884
1703161935.609778,1703161935.609859,65.000000,0.000000,4201.922852,4138.077148,4275.128418,4239.871582,4146.153809,4126.794922,4162.820313,4139.358887,4122.948730,4157.692383,4649.615234,4458.205078,4424.615234,4523.846191,5344.000000,4.000000,77.000000,,,,0.000000,4.000000,4.000000,4.000000,4.000000,4.000000,4.000000,4.000000,4.000000,4.000000,4.000000,4.000000,4.000000,4.000000,4.000000,100.000000,,,,,,,,,,,,,,,,,,,,,,,,,,,,
1703161935.617586,1703161935.617667,66.000000,0.000000,4198.461426,4142.051270,4271.282227,4240.384766,4150.384766,4135.769043,4166.282227,4151.410156,4136.282227,4167.307617,4653.461426,4463.461426,4429.102539,4528.589844,5237.000000,4.000000,77.000000,,,,0.000000,4.000000,4.000000,4.000000,4.000000,4.000000,4.000000,4.000000,4.000000,4.000000,4.000000,4.000000,4.000000,4.000000,4.000000,100.000000,,,,,,,,,,,,,,,,,,,,,,,,,,,,
1703161935.625394,1703161935.625375,67.000000,0.000000,4185.256348,4136.282227,4261.538574,4235.000000,4156.538574,4138.205078,4168.717773,4157.307617,4150.384766,4171.282227,4653.077148,4453.333496,4423.589844,4519.102539,5237.000000,4.000000,77.000000,,,,0.000000,4.000000,4.000000,4.000000,4.000000,4.000000,4.000000,4.000000,4.000000,4.000000,4.000000,4.000000,4.000000,4.000000,4.000000,100.000000,,,,,,,,,,,,,,,,,,,,,,,,,,,,
1703161935.633202,1703161935.633283,68.000000,0.000000,4178.077148,4130.256348,4256.410156,4228.205078,4159.358887,4137.948730,4170.256348,4158.974121,4155.897461,4168.589844,4648.205078,4442.948730,4417.692383,4506.666504,5101.000000,4.000000,77.000000,,,,0.000000,4.000000,4.000000,4.000000,4.000000,4.000000,4.000000,4.000000,4.000000,4.000000,4.000000,4.000000,4.000000,4.000000,4.000000,100.000000,,,,,,,,,,,,,,,,,17.000000,0.000000,0.557828,-0.404236,-0.518982,-0.506042,0.976682,0.073251,0.140642,-17.273693,-32.201359,65.049026
1703161935.641010,1703161935.641091,69.000000,0.000000,4184.487305,4136.538574,4266.794922,4236.666504,4156.922852,4142.436035,4172.692383,4168.461426,4162.948730,4170.641113,4655.512695,4453.717773,4426.282227,4516.538574,5158.000000,4.000000,77.000000,,,,0.000000,4.000000,4.000000,4.000000,4.000000,4.000000,4.000000,4.000000,4.000000,4.000000,4.000000,4.000000,4.000000,4.000000,4.000000,100.000000,,,,,,,,,,,,,,,,,,,,,,,,,,,,
1703161935.648818,1703161935.648999,70.000000,0.000000,4192.948730,4142.820313,4275.128418,4244.743652,4153.589844,4141.025879,4174.743652,4177.563965,4170.641113,4173.846191,4665.512695,4467.307617,4433.333496,4528.717773,4006.000000,4.000000,77.000000,,,,0.000000,4.000000,4.000000,4.000000,4.000000,4.000000,4.000000,4.000000,4.000000,4.000000,4.000000,4.000000,4.000000,4.000000,4.000000,100.000000,,,,,,,,,,,,,,,,,,,,,,,,,,,,
1703161935.656626,1703161935.656807,71.000000,0.000000,4190.000000,4138.589844,4267.692383,4235.641113,4151.282227,4130.256348,4171.794922,4168.077148,4157.179688,4163.205078,4656.025879,4462.051270,4427.563965,4522.563965,5258.000000,4.000000,77.000000,,,,0.000000,4.000000,4.000000,4.000000,4.000000,4.000000,4.000000,4.000000,4.000000,4.000000,4.000000,4.000000,4.000000,4.000000,4.000000,100.000000,,,,,,,,,,,,,,,,,,,,,,,,,,,,
1703161935.664434,1703161935.664615,72.000000,0.000000,4189.487305,4136.025879,4266.922852,4230.641113,4145.128418,4122.051270,4164.487305,4155.384766,4139.102539,4150.641113,4646.025879,4455.897461,4423.717773,4518.974121,5080.000000,4.000000,77.000000,,,,0.000000,4.000000,4.000000,4.000000,4.000000,4.000000,4.000000,4.000000,4.000000,4.000000,4.000000,4.000000,4.000000,4.000000,4.000000,100.000000,,,,,,,,,,,,,,,,,18.000000,0.000000,0.557746,-0.404114,-0.519165,-0.506042,0.982542,0.080088,0.132829,-17.162991,-32.197887,65.077461
1703161935.672242,1703161935.672323,73.000000,0.000000,4199.871582,4143.461426,4279.102539,4240.897461,4138.589844,4119.743652,4162.563965,4155.512695,4139.102539,4152.307617,4654.743652,4462.307617,4427.820313,4528.974121,5238.000000,4.000000,77.000000,,,,0.000000,4.000000,4.000000,4.000000,4.000000,4.000000,4.000000,4.000000,4.000000,4.000000,4.000000,4.000000,4.000000,4.000000,4.000000,100.000000,,,,,,,,,,,,,,,,,,,,,,,,,,,,
1703161935.680050,1703161935.680131,74.000000,0.000000,4206.538574,4148.333496,4285.000000,4249.102539,4139.358887,4119.230957,4164.230957,4152.820313,4136.025879,4152.692383,4660.128418,4465.769043,4430.384766,4536.922852,5796.000000,4.000000,77.000000,,,,0.000000,4.000000,4.000000,4.000000,4.000000,4.000000,4.000000,4.000000,4.000000,4.000000,4.000000,4.000000,4.000000,4.000000,4.000000,100.000000,,,,,,,,,,,,,,,,,,,,,,,,,,,,
1703161935.687858,1703161935.687839,75.000000,0.000000,4205.897461,4150.641113,4281.794922,4249.358887,4140.641113,4120.000000,4161.410156,4140.128418,4120.512695,4142.436035,4652.051270,4461.666504,4428.974121,4536.922852,6140.000000,4.000000,77.000000,,,,0.000000,4.000000,4.000000,4.000000,4.000000,4.000000,4.000000,4.000000,4.000000,4.000000,4.000000,4.000000,4.000000,4.000000,4.000000,100.000000,,,,,,,,,,,,,,,,,,,,,,,,,,,,
1703161935.695666,1703161935.695747,76.000000,0.000000,4203.717773,4148.974121,4281.794922,4245.128418,4141.538574,4122.436035,4159.102539,4134.615234,4111.282227,4132.948730,4647.179688,4460.769043,4429.871582,4532.179688,6574.000000,4.000000,77.000000,,,,0.000000,4.000000,4.000000,4.000000,4.000000,4.000000,4.000000,4.000000,4.000000,4.000000,4.000000,4.000000,4.000000,4.000000,4.000000,100.000000,,,,,,,,,,,,,,,,,19.000000,0.000000,0.557790,-0.404053,-0.519165,-0.506042,0.985960,0.070809,0.136735,-17.213358,-32.178101,65.036377
1703161935.703474,1703161935.703555,77.000000,0.000000,4195.256348,4138.846191,4278.333496,4236.282227,4151.025879,4127.436035,4163.717773,4139.871582,4112.436035,4129.487305,4641.282227,4458.974121,4424.487305,4523.974121,6823.000000,4.000000,77.000000,,,,0.000000,4.000000,4.000000,4.000000,4.000000,4.000000,4.000000,4.000000,4.000000,4.000000,4.000000,4.000000,4.000000,4.000000,4.000000,100.000000,,,,,,,,,,,,,,,,,,,,,,,,,,,,
1703161935.711282,1703161935.711463,78.000000,0.000000,4185.641113,4139.230957,4268.205078,4231.410156,4158.461426,4132.436035,4168.846191,4140.641113,4117.307617,4131.922852,4632.179688,4448.333496,4410.641113,4520.128418,5796.000000,4.000000,77.000000,,,,0.000000,4.000000,4.000000,4.000000,4.000000,4.000000,4.000000,4.000000,4.000000,4.000000,4.000000,4.000000,4.000000,4.000000,4.000000,100.000000,,,,,,,,,,,,,,,,,,,,,,,,,,,,
1703161935.719090,1703161935.719271,79.000000,0.000000,4183.333496,4148.717773,4264.487305,4230.256348,4150.000000,4129.358887,4167.051270,4145.641113,4128.846191,4131.666504,4638.333496,4443.205078,4409.358887,4519.871582,6140.000000,4.000000,77.000000,,,,0.000000,4.000000,4.000000,4.000000,4.000000,4.000000,4.000000,4.000000,4.000000,4.000000,4.000000,4.000000,4.000000,4.000000,4.000000,100.000000,,,,,,,,,,,,,,,,,,,,,,,,,,,,
1703161935.726898,1703161935.727178,80.000000,0.000000,4187.563965,4151.282227,4270.128418,4231.025879,4143.461426,4128.333496,4167.307617,4159.102539,4144.230957,4130.897461,4649.358887,4453.846191,4422.436035,4522.051270,6574.000000,4.000000,77.000000,,,,0.000000,4.000000,4.000000,4.000000,4.000000,4.000000,4.000000,4.000000,4.000000,4.000000,4.000000,4.000000,4.000000,4.000000,4.000000,100.000000,,,,,,,,,,,,,,,,,20.000000,0.000000,0.557790,-0.404053,-0.519165,-0.506042,0.982053,0.085460,0.139665,-17.292023,-32.243622,65.082741
1703161935.734706,1703161935.734986,81.000000,0.000000,4197.948730,4158.717773,4278.077148,4241.282227,4151.794922,4137.436035,4173.205078,4164.871582,4155.384766,4144.230957,4649.743652,4466.410156,4429.487305,4533.077148,6823.000000,4.000000,77.000000,,,,0.000000,4.000000,4.000000,4.000000,4.000000,4.000000,4.000000,4.000000,4.000000,4.000000,4.000000,4.000000,4.000000,4.000000,4.000000,100.000000,,,,,,,,,,,,,,,,,,,,,,,,,,,,
1703161935.742514,1703161935.742894,82.000000,0.000000,4203.333496,4172.692383,4276.666504,4247.051270,4157.692383,4135.512695,4171.922852,4158.846191,4154.871582,4145.641113,4648.461426,4462.051270,4422.948730,4535.512695,5796.000000,4.000000,77.000000,,,,0.000000,4.000000,4.000000,4.000000,4.000000,4.000000,4.000000,4.000000,4.000000,4.000000,4.000000,4.000000,4.000000,4.000000,4.000000,100.000000,,,,,,,,,,,,,,,,,,,,,,,,,,,,
1703161935.750322,1703161935.750702,83.000000,0.000000,4197.692383,4172.051270,4270.897461,4240.641113,4152.051270,4124.743652,4162.820313,4151.922852,4145.512695,4127.051270,4644.487305,4446.794922,4413.077148,4522.307617,6140.000000,4.000000,77.000000,,,,0.000000,4.000000,4.000000,4.000000,4.000000,4.000000,4.000000,4.000000,4.000000,4.000000,4.000000,4.000000,4.000000,4.000000,4.000000,100.000000,,,,,,,,,,,,,,,,,,,,,,,,,,,,
1703161935.758130,1703161935.758610,84.000000,0.000000,4197.820313,4168.205078,4274.487305,4241.922852,4146.922852,4125.641113,4161.922852,4154.871582,4141.794922,4129.358887,4642.948730,4447.179688,4411.410156,4525.128418,6574.000000,4.000000,77.000000,,,,0.000000,4.000000,4.000000,4.000000,4.000000,4.000000,4.000000,4.000000,4.000000,4.000000,4.000000,4.000000,4.000000,4.000000,4.000000,100.000000,,,,,,,,,,,,,,,,,21.000000,0.000000,0.557790,-0.404053,-0.519165,-0.506042,0.979612,0.078623,0.123550,-17.279486,-32.335926,65.041130
1703161935.765939,1703161935.766418,85.000000,0.000000,4205.384766,4171.410156,4277.948730,4248.846191,4147.692383,4128.589844,4166.794922,4157.307617,4137.179688,4142.820313,4647.948730,4457.307617,4417.436035,4538.589844,6823.000000,4.000000,77.000000,,,,0.000000,4.000000,4.000000,4.000000,4.000000,4.000000,4.000000,4.000000,4.000000,4.000000,4.000000,4.000000,4.000000,4.000000,4.000000,100.000000,,,,,,,,,,,,,,,,,,,,,,,,,,,,
1703161935.773747,1703161935.774326,86.000000,0.000000,4197.436035,4166.282227,4270.769043,4242.948730,4148.205078,4122.692383,4164.871582,4152.563965,4126.538574,4128.846191,4638.589844,4452.307617,4411.666504,4529.230957,5796.000000,4.000000,77.000000,,,,0.000000,4.000000,4.000000,4.000000,4.000000,4.000000,4.000000,4.000000,4.000000,4.000000,4.000000,4.000000,4.000000,4.000000,4.000000,100.000000,,,,,,,,,,,,,,,,,,,,,,,,,,,,
1703161935.781555,1703161935.782134,87.000000,0.000000,4188.846191,4165.897461,4269.615234,4239.230957,4149.743652,4122.051270,4163.333496,4149.743652,4121.282227,4115.512695,4628.589844,4446.538574,4400.897461,4517.563965,6140.000000,4.000000,77.000000,,,,0.000000,4.000000,4.000000,4.000000,4.000000,4.000000,4.000000,4.000000,4.000000,4.000000,4.000000,4.000000,4.000000,4.000000,4.000000,100.000000,,,,,,,,,,,,,,,,,,,,,,,,,,,,
1703161935.789363,1703161935.789842,88.000000,0.000000,4198.974121,4173.589844,4279.230957,4247.948730,4155.128418,4126.025879,4165.128418,4148.717773,4120.897461,4123.717773,4639.615234,4455.128418,4406.410156,4526.794922,6574.000000,4.000000,77.000000,,,,0.000000,4.000000,4.000000,4.000000,4.000000,4.000000,4.000000,4.000000,4.000000,4.000000,4.000000,4.000000,4.000000,4.000000,4.000000,100.000000,,,,,,,,,,,,,,,,,22.000000,0.000000,0.557623,-0.404053,-0.519226,-0.506165,0.977170,0.078135,0.134294,-17.251537,-32.285667,65.153687
1703161935.797171,1703161935.797650,89.000000,0.000000,4200.897461,4171.538574,4277.563965,4246.666504,4155.128418,4123.461426,4163.717773,4141.410156,4112.436035,4119.487305,4644.358887,4454.487305,4410.384766,4526.153809,6823.000000,4.000000,77.000000,,,,0.000000,4.000000,4.000000,4.000000,4.000000,4.000000,4.000000,4.000000,4.000000,4.000000,4.000000,4.000000,4.000000,4.000000,4.000000,100.000000,,,,,,,,,,,,,,,,,,,,,,,,,,,,
1703161935.804979,1703161935.805358,90.000000,0.000000,4185.384766,4167.051270,4267.692383,4237.179688,4143.589844,4119.743652,4159.743652,4136.153809,4106.922852,4105.384766,4631.153809,4442.563965,4397.948730,4510.897461,5796.000000,4.000000,77.000000,,,,0.000000,4.000000,4.000000,4.000000,4.000000,4.000000,4.000000,4.000000,4.000000,4.000000,4.000000,4.000000,4.000000,4.000000,4.000000,100.000000,,,,,,,,,,,,,,,,,,,,,,,,,,,,
1703161935.812787,1703161935.813166,91.000000,0.000000,4178.846191,4164.487305,4266.922852,4235.897461,4140.641113,4123.717773,4159.358887,4139.230957,4117.436035,4110.641113,4625.769043,4440.512695,4390.000000,4503.846191,6140.000000,4.000000,77.000000,,,,0.000000,4.000000,4.000000,4.000000,4.000000,4.000000,4.000000,4.000000,4.000000,4.000000,4.000000,4.000000,4.000000,4.000000,4.000000,100.000000,,,,,,,,,,,,,,,,,,,,,,,,,,,,
1703161935.820595,1703161935.820874,92.000000,0.000000,4181.538574,4159.615234,4267.820313,4238.333496,4153.589844,4129.487305,4164.230957,4140.128418,4130.000000,4117.051270,4627.563965,4443.717773,4395.128418,4502.948730,6574.000000,4.000000,77.000000,,,,0.000000,4.000000,4.000000,4.000000,4.000000,4.000000,4.000000,4.000000,4.000000,4.000000,4.000000,4.000000,4.000000,4.000000,4.000000,100.000000,,,,,,,,,,,,,,,,,23.000000,0.000000,0.557667,-0.403992,-0.519226,-0.506165,0.982053,0.073251,0.142107,-17.276384,-32.407101,65.054985
1703161935.828403,1703161935.828682,93.000000,0.000000,4179.487305,4153.846191,4263.846191,4234.615234,4155.641113,4128.717773,4166.410156,4141.153809,4134.358887,4116.538574,4630.512695,4442.563965,4398.846191,4501.025879,6823.000000,4.000000,77.000000,,,,0.000000,4.000000,4.000000,4.000000,4.000000,4.000000,4.000000,4.000000,4.000000,4.000000,4.000000,4.000000,4.000000,4.000000,4.000000,100.000000,,,,,,,,,,,,,,,,,,,,,,,,,,,,
1703161935.836211,1703161935.836390,94.000000,0.000000,4177.436035,4150.897461,4262.436035,4229.487305,4147.436035,4125.128418,4162.692383,4145.256348,4138.974121,4122.692383,4636.282227,4441.538574,4397.179688,4503.205078,5796.000000,4.000000,77.000000,,,,0.000000,4.000000,4.000000,4.000000,4.000000,4.000000,4.000000,4.000000,4.000000,4.000000,4.000000,4.000000,4.000000,4.000000,4.000000,100.000000,,,,,,,,,,,,,,,,,,,,,,,,,,,,
1703161935.844019,1703161935.844198,95.000000,0.000000,4183.333496,4159.743652,4267.820313,4235.128418,4149.487305,4124.487305,4158.974121,4143.461426,4142.563965,4125.000000,4634.871582,4443.974121,4399.871582,4513.333496,6140.000000,4.000000,77.000000,,,,0.000000,4.000000,4.000000,4.000000,4.000000,4.000000,4.000000,4.000000,4.000000,4.000000,4.000000,4.000000,4.000000,4.000000,4.000000,100.000000,,,,,,,,,,,,,,,,,,,,,,,,,,,,
1703161935.851827,1703161935.851906,96.000000,0.000000,4194.230957,4175.641113,4278.333496,4246.666504,4154.743652,4123.205078,4160.000000,4138.974121,4135.128418,4119.871582,4636.153809,4447.948730,4410.641113,4524.230957,6574.000000,4.000000,77.000000,,,,0.000000,4.000000,4.000000,4.000000,4.000000,4.000000,4.000000,4.000000,4.000000,4.000000,4.000000,4.000000,4.000000,4.000000,4.000000,100.000000,,,,,,,,,,,,,,,,,24.000000,0.000000,0.557687,-0.403809,-0.519287,-0.506226,0.983518,0.081553,0.133317,-17.298746,-32.383057,65.049484
1703161935.859635,1703161935.859714,97.000000,0.000000,4194.487305,4177.436035,4277.948730,4248.846191,4154.615234,4120.641113,4160.769043,4137.051270,4125.128418,4117.563965,4640.512695,4447.436035,4412.820313,4523.846191,6823.000000,4.000000,77.000000,,,,0.000000,4.000000,4.000000,4.000000,4.000000,4.000000,4.000000,4.000000,4.000000,4.000000,4.000000,4.000000,4.000000,4.000000,4.000000,100.000000,,,,,,,,,,,,,,,,,,,,,,,,,,,,
1703161935.867443,1703161935.867422,98.000000,0.000000,4185.897461,4166.410156,4267.692383,4242.820313,4154.487305,4122.051270,4161.794922,4134.358887,4119.487305,4112.948730,4635.641113,4440.769043,4403.974121,4516.153809,5796.000000,4.000000,77.000000,,,,0.000000,4.000000,4.000000,4.000000,4.000000,4.000000,4.000000,4.000000,4.000000,4.000000,4.000000,4.000000,4.000000,4.000000,4.000000,100.000000,,,,,,,,,,,,,,,,,,,,,,,,,,,,
1703161935.875251,1703161935.875330,99.000000,0.000000,4189.230957,4168.333496,4272.051270,4243.717773,4156.282227,4125.641113,4163.717773,4134.102539,4116.153809,4104.871582,4634.230957,4443.333496,4407.563965,4518.333496,6140.000000,4.000000,77.000000,,,,0.000000,4.000000,4.000000,4.000000,4.000000,4.000000,4.000000,4.000000,4.000000,4.000000,4.000000,4.000000,4.000000,4.000000,4.000000,100.000000,,,,,,,,,,,,,,,,,,,,,,,,,,,,
1703161935.883059,1703161935.883138,100.000000,0.000000,4193.974121,4176.410156,4281.794922,4249.102539,4157.948730,4126.794922,4166.794922,4138.205078,4109.871582,4105.128418,4639.102539,4451.922852,4413.974121,4525.256348,6574.000000,4.000000,77.000000,,,,0.000000,4.000000,4.000000,4.000000,4.000000,4.000000,4.000000,4.000000,4.000000,4.000000,4.000000,4.000000,4.000000,4.000000,4.000000,100.000000,,,,,,,,,,,,,,,,,25.000000,0.000000,0.557689,-0.403809,-0.519226,-0.506287,0.987425,0.078135,0.135759,-17.252205,-32.428085,64.977867
1703161935.890867,1703161935.891046,101.000000,0.000000,4188.589844,4172.948730,4277.948730,4246.666504,4155.897461,4129.615234,4172.179688,4138.077148,4106.153809,4107.820313,4640.384766,4451.538574,4411.410156,4524.102539,6823.000000,4.000000,77.000000,,,,0.000000,4.000000,4.000000,4.000000,4.000000,4.000000,4.000000,4.000000,4.000000,4.000000,4.000000,4.000000,4.000000,4.000000,4.000000,100.000000,,,,,,,,,,,,,,,,,,,,,,,,,,,,
1703161935.898675,1703161935.898854,102.000000,0.000000,4191.666504,4171.282227,4276.153809,4246.153809,4153.205078,4130.384766,4170.769043,4137.563965,4112.179688,4109.102539,4646.025879,4452.436035,4416.025879,4522.436035,5796.000000,4.000000,77.000000,,,,0.000000,4.000000,4.000000,4.000000,4.000000,4.000000,4.000000,4.000000,4.000000,4.000000,4.000000,4.000000,4.000000,4.000000,4.000000,100.000000,,,,,,,,,,,,,,,,,,,,,,,,,,,,
1703161935.906484,1703161935.906762,103.000000,0.000000,4200.128418,4176.666504,4277.051270,4248.077148,4153.974121,4130.384766,4165.128418,4145.000000,4122.051270,4113.846191,4652.948730,4456.025879,4422.948730,4526.153809,6140.000000,4.000000,77.000000,,,,0.000000,4.000000,4.000000,4.000000,4.000000,4.000000,4.000000,4.000000,4.000000,4.000000,4.000000,4.000000,4.000000,4.000000,4.000000,100.000000,,,,,,,,,,,,,,,,,,,,,,,,,,,,
1703161935.914292,1703161935.914570,104.000000,0.000000,4196.666504,4178.589844,4272.307617,4245.897461,4152.051270,4131.025879,4166.153809,4153.717773,4135.256348,4121.922852,4650.256348,4453.846191,4418.461426,4529.358887,6574.000000,4.000000,77.000000,,,,0.000000,4.000000,4.000000,4.000000,4.000000,4.000000,4.000000,4.000000,4.000000,4.000000,4.000000,4.000000,4.000000,4.000000,4.000000,100.000000,,,,,,,,,,,,,,,,,26.000000,0.000000,0.557612,-0.403992,-0.519226,-0.506226,0.981565,0.088390,0.138200,-17.276983,-32.451942,64.930084
1703161935.922099,1703161935.922478,105.000000,0.000000,4190.512695,4174.487305,4271.282227,4240.384766,4149.743652,4128.974121,4168.974121,4158.461426,4143.974121,4128.589844,4645.000000,4449.358887,4412.692383,4526.922852,6823.000000,4.000000,77.000000,,,,0.000000,4.000000,4.000000,4.000000,4.000000,4.000000,4.000000,4.000000,4.000000,4.000000,4.000000,4.000000,4.000000,4.000000,4.000000,100.000000,,,,,,,,,,,,,,,,,,,,,,,,,,,,
1703161935.929908,1703161935.930286,106.000000,0.000000,4186.538574,4171.025879,4269.615234,4235.384766,4150.897461,4124.102539,4163.717773,4153.077148,4142.307617,4123.077148,4637.563965,4444.358887,4412.179688,4521.922852,5796.000000,4.000000,77.000000,,,,0.000000,4.000000,4.000000,4.000000,4.000000,4.000000,4.000000,4.000000,4.000000,4.000000,4.000000,4.000000,4.000000,4.000000,4.000000,100.000000,,,,,,,,,,,,,,,,,,,,,,,,,,,,
1703161935.937716,1703161935.938193,107.000000,0.000000,4185.512695,4168.717773,4260.769043,4232.307617,4153.461426,4123.846191,4159.230957,4140.897461,4137.692383,4111.922852,4630.256348,4437.563965,4409.615234,4518.461426,6140.000000,4.000000,77.000000,,,,0.000000,4.000000,4.000000,4.000000,4.000000,4.000000,4.000000,4.000000,4.000000,4.000000,4.000000,4.000000,4.000000,4.000000,4.000000,100.000000,,,,,,,,,,,,,,,,,,,,,,,,,,,,
1703161935.945524,1703161935.946001,108.000000,0.000000,4193.077148,4169.358887,4264.358887,4232.948730,4155.384766,4128.717773,4162.179688,4137.820313,4134.487305,4109.102539,4634.487305,4437.563965,4406.666504,4522.051270,6574.000000,4.000000,77.000000,,,,0.000000,4.000000,4.000000,4.000000,4.000000,4.000000,4.000000,4.000000,4.000000,4.000000,4.000000,4.000000,4.000000,4.000000,4.000000,100.000000,,,,,,,,,,,,,,,,,27.000000,0.000000,0.557682,-0.404053,-0.519043,-0.506287,0.968380,0.083018,0.132829,-17.349285,-32.406750,64.787079
1703161935.953332,1703161935.953809,109.000000,0.000000,4202.948730,4179.743652,4277.692383,4240.128418,4155.512695,4127.307617,4164.230957,4135.000000,4124.743652,4108.717773,4642.692383,4445.000000,4409.487305,4532.051270,6823.000000,4.000000,77.000000,,,,0.000000,4.000000,4.000000,4.000000,4.000000,4.000000,4.000000,4.000000,4.000000,4.000000,4.000000,4.000000,4.000000,4.000000,4.000000,100.000000,,,,,,,,,,,,,,,,,,,,,,,,,,,,
1703161935.961140,1703161935.961617,110.000000,0.000000,4206.025879,4185.128418,4283.205078,4247.051270,4154.230957,4118.717773,4160.000000,4123.077148,4111.282227,4103.205078,4639.358887,4450.897461,4413.974121,4536.922852,5796.000000,4.000000,77.000000,,,,0.000000,4.000000,4.000000,4.000000,4.000000,4.000000,4.000000,4.000000,4.000000,4.000000,4.000000,4.000000,4.000000,4.000000,4.000000,100.000000,,,,,,,,,,,,,,,,,,,,,,,,,,,,
1703161935.968948,1703161935.969325,111.000000,0.000000,4207.692383,4180.256348,4284.743652,4250.256348,4150.769043,4115.512695,4156.538574,4122.563965,4113.846191,4101.153809,4634.615234,4458.205078,4413.717773,4536.666504,6140.000000,4.000000,77.000000,,,,0.000000,4.000000,4.000000,4.000000,4.000000,4.000000,4.000000,4.000000,4.000000,4.000000,4.000000,4.000000,4.000000,4.000000,4.000000,100.000000,,,,,,,,,,,,,,,,,,,,,,,,,,,,
1703161935.976756,1703161935.977133,112.000000,0.000000,4206.282227,4171.794922,4285.000000,4245.000000,4146.282227,4120.128418,4159.615234,4138.205078,4119.358887,4103.205078,4640.256348,4463.205078,4410.000000,4535.000000,6574.000000,4.000000,77.000000,,,,0.000000,4.000000,4.000000,4.000000,4.000000,4.000000,4.000000,4.000000,4.000000,4.000000,4.000000,4.000000,4.000000,4.000000,4.000000,100.000000,,,,,,,,,,,,,,,,,28.000000,0.000000,0.557990,-0.404175,-0.518677,-0.506226,0.999145,0.073739,0.140154,-17.297691,-32.232742,64.691704
1703161935.984564,1703161935.984841,113.000000,0.000000,4195.000000,4159.615234,4275.897461,4234.358887,4140.769043,4122.820313,4167.563965,4141.410156,4109.102539,4100.128418,4636.666504,4457.692383,4405.897461,4527.820313,6823.000000,4.000000,77.000000,,,,0.000000,4.000000,4.000000,4.000000,4.000000,4.000000,4.000000,4.000000,4.000000,4.000000,4.000000,4.000000,4.000000,4.000000,4.000000,100.000000,,,,,,,,,,,,,,,,,,,,,,,,,,,,
1703161935.992372,1703161935.992649,114.000000,0.000000,4184.102539,4155.897461,4268.461426,4230.512695,4139.358887,4122.820313,4172.820313,4137.051270,4099.743652,4093.974365,4621.922852,4449.615234,4398.333496,4520.256348,5796.000000,4.000000,77.000000,,,,0.000000,4.000000,4.000000,4.000000,4.000000,4.000000,4.000000,4.000000,4.000000,4.000000,4.000000,4.000000,4.000000,4.000000,4.000000,100.000000,,,,,,,,,,,,,,,,,,,,,,,,,,,,
1703161936.000180,1703161936.000357,115.000000,0.000000,4187.948730,4166.922852,4273.077148,4233.077148,4141.794922,4126.538574,4170.384766,4145.769043,4110.256348,4092.820557,4624.615234,4449.487305,4393.974121,4520.897461,6140.000000,4.000000,77.000000,,,,0.000000,4.000000,4.000000,4.000000,4.000000,4.000000,4.000000,4.000000,4.000000,4.000000,4.000000,4.000000,4.000000,4.000000,4.000000,100.000000,,,,,,,,,,,,,,,,,,,,,,,,,,,,
1703161936.007988,1703161936.008165,116.000000,0.000000,4196.025879,4172.692383,4279.487305,4234.230957,4144.230957,4131.922852,4170.128418,4155.769043,4122.563965,4098.846191,4640.641113,4456.282227,4398.974121,4522.820313,6574.000000,4.000000,77.000000,,,,0.000000,4.000000,4.000000,4.000000,4.000000,4.000000,4.000000,4.000000,4.000000,4.000000,4.000000,4.000000,4.000000,4.000000,4.000000,100.000000,,,,,,,,,,,,,,,,,29.000000,0.000000,0.557957,-0.404297,-0.518677,-0.506165,0.992309,0.083995,0.137224,-17.401255,-32.276134,64.755867
1703161936.015796,1703161936.015873,117.000000,0.000000,4199.102539,4167.948730,4278.717773,4236.025879,4149.358887,4131.666504,4171.794922,4157.307617,4123.717773,4103.333496,4646.153809,4459.871582,4407.692383,4527.563965,6823.000000,4.000000,77.000000,,,,0.000000,4.000000,4.000000,4.000000,4.000000,4.000000,4.000000,4.000000,4.000000,4.000000,4.000000,4.000000,4.000000,4.000000,4.000000,100.000000,,,,,,,,,,,,,,,,,,,,,,,,,,,,
1703161936.023604,1703161936.023782,118.000000,0.000000,4206.666504,4172.307617,4280.384766,4245.128418,4154.358887,4126.794922,4169.102539,4156.666504,4130.897461,4113.077148,4647.948730,4460.641113,4416.025879,4539.871582,5796.000000,4.000000,77.000000,,,,0.000000,4.000000,4.000000,4.000000,4.000000,4.000000,4.000000,4.000000,4.000000,4.000000,4.000000,4.000000,4.000000,4.000000,4.000000,100.000000,,,,,,,,,,,,,,,,,,,,,,,,,,,,
1703161936.031412,1703161936.031590,119.000000,0.000000,4217.563965,4179.358887,4285.384766,4252.436035,4155.897461,4125.897461,4166.538574,4157.692383,4141.794922,4130.512695,4655.256348,4463.717773,4419.102539,4544.358887,6140.000000,4.000000,77.000000,,,,0.000000,4.000000,4.000000,4.000000,4.000000,4.000000,4.000000,4.000000,4.000000,4.000000,4.000000,4.000000,4.000000,4.000000,4.000000,100.000000,,,,,,,,,,,,,,,,,,,,,,,,,,,,
1703161936.039220,1703161936.039398,120.000000,0.000000,4212.051270,4168.974121,4281.282227,4245.512695,4151.922852,4127.436035,4167.948730,4158.717773,4144.230957,4138.333496,4655.128418,4463.717773,4413.717773,4538.717773,6574.000000,4.000000,77.000000,,,,0.000000,4.000000,4.000000,4.000000,4.000000,4.000000,4.000000,4.000000,4.000000,4.000000,4.000000,4.000000,4.000000,4.000000,4.000000,100.000000,,,,,,,,,,,,,,,,,30.000000,0.000000,0.557878,-0.404480,-0.518738,-0.506042,0.970822,0.076670,0.141619,-17.411129,-32.148521,64.696945
1703161936.047028,1703161936.047106,121.000000,0.000000,4204.358887,4160.000000,4277.820313,4235.384766,4149.743652,4123.974121,4167.179688,4154.487305,4140.000000,4143.077148,4657.563965,4463.205078,4413.717773,4540.641113,6823.000000,4.000000,77.000000,,,,0.000000,4.000000,4.000000,4.000000,4.000000,4.000000,4.000000,4.000000,4.000000,4.000000,4.000000,4.000000,4.000000,4.000000,4.000000,100.000000,1.000000,91.666664,4.000000,4.000000,4.000000,4.000000,4.000000,3.000000,4.000000,4.000000,4.000000,4.000000,4.000000,4.000000,4.000000,4.000000,,,,,,,,,,,,
1703161936.054836,1703161936.055014,122.000000,0.000000,4209.615234,4165.512695,4278.846191,4234.743652,4151.025879,4119.230957,4161.410156,4146.282227,4133.461426,4157.179688,4663.461426,4461.153809,4417.436035,4542.051270,5796.000000,4.000000,77.000000,,,,0.000000,4.000000,4.000000,4.000000,4.000000,4.000000,4.000000,4.000000,4.000000,4.000000,4.000000,4.000000,4.000000,4.000000,4.000000,100.000000,,,,,,,,,,,,,,,,,,,,,,,,,,,,
1703161936.062645,1703161936.062822,123.000000,0.000000,4207.307617,4163.974121,4269.743652,4233.974121,4151.794922,4121.794922,4158.077148,4135.769043,4126.282227,4157.436035,4648.589844,4446.666504,4402.307617,4527.948730,6140.000000,4.000000,77.000000,,,,0.000000,4.000000,4.000000,4.000000,4.000000,4.000000,4.000000,4.000000,4.000000,4.000000,4.000000,4.000000,4.000000,4.000000,4.000000,100.000000,,,,,,,,,,,,,,,,,,,,,,,,,,,,
1703161936.070453,1703161936.070730,124.000000,0.000000,4195.769043,4150.256348,4258.589844,4226.794922,4153.974121,4122.948730,4159.743652,4125.000000,4111.666504,4135.128418,4624.358887,4433.461426,4384.230957,4518.205078,6574.000000,4.000000,77.000000,,,,0.000000,4.000000,4.000000,4.000000,4.000000,4.000000,4.000000,4.000000,4.000000,4.000000,4.000000,4.000000,4.000000,4.000000,4.000000,100.000000,,,,,,,,,,,,,,,,,31.000000,0.000000,0.558059,-0.404541,-0.518555,-0.505981,0.973752,0.082041,0.127457,-17.503349,-32.233669,64.560585
1703161936.078261,1703161936.078538,125.000000,0.000000,4196.025879,4148.205078,4265.384766,4227.051270,4150.000000,4121.025879,4164.871582,4121.922852,4093.846191,4125.512695,4622.051270,4436.794922,4382.051270,4520.256348,6823.000000,4.000000,77.000000,,,,0.000000,4.000000,4.000000,4.000000,4.000000,4.000000,4.000000,4.000000,4.000000,4.000000,4.000000,4.000000,4.000000,4.000000,4.000000,100.000000,,,,,,,,,,,,,,,,,,,,,,,,,,,,
1703161936.086069,1703161936.086446,126.000000,0.000000,4200.256348,4155.512695,4274.358887,4232.948730,4142.563965,4123.077148,4169.743652,4132.051270,4095.128174,4141.153809,4635.000000,4446.538574,4386.922852,4522.563965,5796.000000,4.000000,77.000000,,,,0.000000,4.000000,4.000000,4.000000,4.000000,4.000000,4.000000,4.000000,4.000000,4.000000,4.000000,4.000000,4.000000,4.000000,4.000000,100.000000,,,,,,,,,,,,,,,,,,,,,,,,,,,,
1703161936.093877,1703161936.094254,127.000000,0.000000,4199.871582,4154.487305,4269.615234,4231.922852,4142.692383,4124.871582,4172.692383,4148.333496,4120.384766,4163.589844,4641.922852,4453.077148,4396.666504,4527.820313,77.000000,4.000000,77.000000,,,,0.000000,4.000000,4.000000,4.000000,4.000000,4.000000,4.000000,4.000000,4.000000,4.000000,4.000000,4.000000,4.000000,4.000000,4.000000,100.000000,,,,,,,,,,,,,,,,,,,,,,,,,,,,
1703161936.101685,1703161936.102161,0.000000,0.000000,4201.153809,4159.487305,4265.128418,4232.948730,4155.000000,4125.769043,4175.128418,4156.025879,4137.820313,4179.871582,4646.922852,4457.820313,4410.128418,4535.384766,5317.000000,4.000000,77.000000,,,,0.000000,4.000000,4.000000,4.000000,4.000000,4.000000,4.000000,4.000000,4.000000,4.000000,4.000000,4.000000,4.000000,4.000000,4.000000,100.000000,,,,,,,,,,,,,,,,,0.000000,0.000000,0.558212,-0.404480,-0.518677,-0.505737,0.989379,0.081553,0.144061,-17.536348,-32.310303,64.637856
1703161936.109493,1703161936.109969,1.000000,0.000000,4200.000000,4168.717773,4265.000000,4237.692383,4166.794922,4129.743652,4174.487305,4156.025879,4139.102539,4190.384766,4650.384766,4457.307617,4412.179688,4536.153809,5347.000000,4.000000,77.000000,,,,0.000000,4.000000,4.000000,4.000000,4.000000,4.000000,4.000000,4.000000,4.000000,4.000000,4.000000,4.000000,4.000000,4.000000,4.000000,100.000000,,,,,,,,,,,,,,,,,,,,,,,,,,,,
1703161936.117301,1703161936.117877,2.000000,0.000000,4201.922852,4170.641113,4269.102539,4243.333496,4164.871582,4134.743652,4174.743652,4161.025879,4144.871582,4196.666504,4650.897461,4457.436035,4409.615234,4533.589844,5238.000000,4.000000,77.000000,,,,0.000000,4.000000,4.000000,4.000000,4.000000,4.000000,4.000000,4.000000,4.000000,4.000000,4.000000,4.000000,4.000000,4.000000,4.000000,100.000000,,,,,,,,,,,,,,,,,,,,,,,,,,,,
1703161936.125109,1703161936.125685,3.000000,0.000000,4213.974121,4176.922852,4276.538574,4250.641113,4162.820313,4137.692383,4176.794922,4169.743652,4157.179688,4205.000000,4663.717773,4465.128418,4421.282227,4539.358887,5237.000000,4.000000,77.000000,,,,0.000000,4.000000,4.000000,4.000000,4.000000,4.000000,4.000000,4.000000,4.000000,4.000000,4.000000,4.000000,4.000000,4.000000,4.000000,100.000000,,,,,,,,,,,,,,,,,,,,,,,,,,,,
1703161936.132917,1703161936.133593,4.000000,0.000000,4221.666504,4186.153809,4283.205078,4251.922852,4168.461426,4137.820313,4175.769043,4173.846191,4165.769043,4214.102539,4680.641113,4473.846191,4434.358887,4552.179688,5098.000000,4.000000,77.000000,,,,0.000000,4.000000,4.000000,4.000000,4.000000,4.000000,4.000000,4.000000,4.000000,4.000000,4.000000,4.000000,4.000000,4.000000,4.000000,100.000000,,,,,,,,,,,,,,,,,1.000000,0.000000,0.558097,-0.404480,-0.518860,-0.505676,0.982542,0.078135,0.136247,-17.566046,-32.262604,64.790741
1703161936.140725,1703161936.141401,5.000000,0.000000,4220.128418,4183.077148,4289.230957,4248.974121,4167.948730,4131.794922,4171.794922,4171.025879,4159.487305,4210.512695,4679.230957,4472.820313,4430.641113,4556.025879,5158.000000,4.000000,77.000000,,,,0.000000,4.000000,4.000000,4.000000,4.000000,4.000000,4.000000,4.000000,4.000000,4.000000,4.000000,4.000000,4.000000,4.000000,4.000000,100.000000,,,,,,,,,,,,,,,,,,,,,,,,,,,,
1703161936.148533,1703161936.149309,6.000000,0.000000,4216.025879,4172.692383,4288.974121,4248.717773,4156.922852,4129.358887,4172.307617,4164.615234,4147.179688,4200.256348,4663.205078,4464.487305,4416.025879,4545.512695,4004.000000,4.000000,77.000000,,,,0.000000,4.000000,4.000000,4.000000,4.000000,4.000000,4.000000,4.000000,4.000000,4.000000,4.000000,4.000000,4.000000,4.000000,4.000000,100.000000,,,,,,,,,,,,,,,,,,,,,,,,,,,,
1703161936.156341,1703161936.157117,7.000000,0.000000,4215.128418,4170.384766,4285.641113,4249.487305,4154.871582,4133.333496,4172.436035,4157.948730,4140.897461,4195.512695,4653.077148,4460.512695,4409.871582,4539.358887,5260.000000,4.000000,77.000000,,,,0.000000,4.000000,4.000000,4.000000,4.000000,4.000000,4.000000,4.000000,4.000000,4.000000,4.000000,4.000000,4.000000,4.000000,4.000000,100.000000,,,,,,,,,,,,,,,,,,,,,,,,,,,,
1703161936.164149,1703161936.164825,8.000000,0.000000,4211.666504,4170.256348,4285.000000,4247.436035,4157.307617,4130.897461,4168.077148,4150.769043,4130.384766,4186.025879,4650.256348,4460.384766,4410.512695,4541.794922,5091.000000,4.000000,77.000000,,,,0.000000,4.000000,4.000000,4.000000,4.000000,4.000000,4.000000,4.000000,4.000000,4.000000,4.000000,4.000000,4.000000,4.000000,4.000000,100.000000,,,,,,,,,,,,,,,,,2.000000,0.000000,0.558063,-0.404297,-0.518860,-0.505859,0.979612,0.058601,0.141131,-17.559443,-32.253010,64.894997
1703161936.171957,1703161936.172633,9.000000,0.000000,4204.102539,4167.563965,4284.615234,4246.025879,4153.205078,4128.717773,4170.897461,4143.846191,4115.256348,4166.538574,4645.128418,4457.307617,4402.820313,4535.000000,5252.000000,4.000000,77.000000,,,,0.000000,4.000000,4.000000,4.000000,4.000000,4.000000,4.000000,4.000000,4.000000,4.000000,4.000000,4.000000,4.000000,4.000000,4.000000,100.000000,,,,,,,,,,,,,,,,,,,,,,,,,,,,
1703161936.179765,1703161936.180341,10.000000,0.000000,4200.769043,4167.692383,4282.563965,4247.051270,4156.282227,4136.538574,4177.051270,4144.230957,4106.794922,4162.051270,4641.153809,4456.922852,4397.820313,4528.846191,5789.000000,4.000000,77.000000,,,,0.000000,4.000000,4.000000,4.000000,4.000000,4.000000,4.000000,4.000000,4.000000,4.000000,4.000000,4.000000,4.000000,4.000000,4.000000,100.000000,,,,,,,,,,,,,,,,,,,,,,,,,,,,
1703161936.187573,1703161936.188149,11.000000,0.000000,4203.077148,4167.820313,4283.205078,4247.179688,4157.051270,4138.333496,4175.769043,4150.641113,4112.179688,4175.256348,4645.769043,4459.615234,4405.128418,4534.358887,6132.000000,4.000000,77.000000,,,,0.000000,4.000000,4.000000,4.000000,4.000000,4.000000,4.000000,4.000000,4.000000,4.000000,4.000000,4.000000,4.000000,4.000000,4.000000,100.000000,,,,,,,,,,,,,,,,,,,,,,,,,,,,
1703161936.195382,1703161936.195857,12.000000,0.000000,4205.769043,4166.282227,4283.077148,4246.538574,4156.666504,4134.102539,4170.384766,4154.102539,4126.410156,4182.179688,4653.077148,4462.307617,4417.563965,4537.051270,6561.000000,4.000000,77.000000,,,,0.000000,4.000000,4.000000,4.000000,4.000000,4.000000,4.000000,4.000000,4.000000,4.000000,4.000000,4.000000,4.000000,4.000000,4.000000,100.000000,,,,,,,,,,,,,,,,,3.000000,0.000000,0.558010,-0.404297,-0.518799,-0.505981,0.979123,0.083995,0.137712,-17.453497,-32.161041,64.938835
1703161936.203189,1703161936.203765,13.000000,0.000000,4208.717773,4169.358887,4283.333496,4249.871582,4166.666504,4137.051270,4168.461426,4157.307617,4138.974121,4182.563965,4655.384766,4466.538574,4424.230957,4537.948730,6823.000000,4.000000,77.000000,,,,0.000000,4.000000,4.000000,4.000000,4.000000,4.000000,4.000000,4.000000,4.000000,4.000000,4.000000,4.000000,4.000000,4.000000,4.000000,100.000000,,,,,,,,,,,,,,,,,,,,,,,,,,,,
1703161936.210997,1703161936.211573,14.000000,0.000000,4217.948730,4180.384766,4291.538574,4259.487305,4173.333496,4138.974121,4168.461426,4159.871582,4142.051270,4185.512695,4665.256348,4472.820313,4432.436035,4549.230957,5789.000000,4.000000,77.000000,,,,0.000000,4.000000,4.000000,4.000000,4.000000,4.000000,4.000000,4.000000,4.000000,4.000000,4.000000,4.000000,4.000000,4.000000,4.000000,100.000000,,,,,,,,,,,,,,,,,,,,,,,,,,,,
1703161936.218806,1703161936.219482,15.000000,0.000000,4227.692383,4188.461426,4297.692383,4265.897461,4168.333496,4135.128418,4167.051270,4157.307617,4141.282227,4190.128418,4679.487305,4476.410156,4442.179688,4560.128418,6132.000000,4.000000,77.000000,,,,0.000000,4.000000,4.000000,4.000000,4.000000,4.000000,4.000000,4.000000,4.000000,4.000000,4.000000,4.000000,4.000000,4.000000,4.000000,100.000000,,,,,,,,,,,,,,,,,,,,,,,,,,,,
1703161936.226614,1703161936.227290,16.000000,0.000000,4230.769043,4187.820313,4296.538574,4265.641113,4168.205078,4129.743652,4162.436035,4154.358887,4140.769043,4188.846191,4674.358887,4476.666504,4441.538574,4558.974121,0.000000,4.000000,77.000000,,,,0.000000,4.000000,4.000000,4.000000,4.000000,4.000000,4.000000,4.000000,4.000000,4.000000,4.000000,4.000000,4.000000,4.000000,4.000000,100.000000,,,,,,,,,,,,,,,,,4.000000,0.000000,0.557886,-0.404236,-0.518860,-0.506104,0.986937,0.076181,0.129899,-17.391481,-32.261604,64.794952
1703161936.234422,1703161936.235098,17.000000,0.000000,4230.384766,4187.179688,4295.641113,4264.102539,4172.436035,4123.077148,4158.205078,4155.512695,4138.589844,4185.512695,4665.256348,4475.897461,4438.077148,4560.128418,0.000000,4.000000,77.000000,,,,0.000000,4.000000,4.000000,4.000000,4.000000,4.000000,4.000000,4.000000,4.000000,4.000000,4.000000,4.000000,4.000000,4.000000,4.000000,100.000000,,,,,,,,,,,,,,,,,,,,,,,,,,,,
1703161936.242230,1703161936.242806,18.000000,0.000000,4233.333496,4193.846191,4299.487305,4266.282227,4170.641113,4120.512695,4157.692383,4156.282227,4140.769043,4186.410156,4675.128418,4478.077148,4446.153809,4572.948730,0.000000,4.000000,77.000000,,,,0.000000,4.000000,4.000000,4.000000,4.000000,4.000000,4.000000,4.000000,4.000000,4.000000,4.000000,4.000000,4.000000,4.000000,4.000000,100.000000,,,,,,,,,,,,,,,,,,,,,,,,,,,,
1703161936.250038,1703161936.250714,19.000000,0.000000,4236.922852,4201.410156,4306.666504,4272.948730,4168.846191,4121.794922,4157.563965,4148.333496,4134.615234,4186.794922,4681.025879,4481.153809,4450.000000,4575.000000,0.000000,4.000000,77.000000,,,,0.000000,4.000000,4.000000,4.000000,4.000000,4.000000,4.000000,4.000000,4.000000,4.000000,4.000000,4.000000,4.000000,4.000000,4.000000,100.000000,,,,,,,,,,,,,,,,,,,,,,,,,,,,
1703161936.257846,1703161936.258522,20.000000,0.000000,4238.077148,4202.436035,4311.794922,4276.025879,4163.846191,4124.230957,4159.358887,4136.922852,4122.051270,4182.563965,4672.948730,4482.820313,4446.025879,4569.102539,0.000000,4.000000,77.000000,,,,0.000000,4.000000,4.000000,4.000000,4.000000,4.000000,4.000000,4.000000,4.000000,4.000000,4.000000,4.000000,4.000000,4.000000,4.000000,100.000000,,,,,,,,,,,,,,,,,5.000000,0.000000,0.557941,-0.403931,-0.518860,-0.506287,0.995239,0.084483,0.149432,-17.302334,-32.335445,64.815453
1703161936.265654,1703161936.266430,21.000000,0.000000,4236.282227,4196.025879,4308.589844,4270.512695,4162.051270,4130.384766,4167.051270,4136.282227,4118.974121,4170.641113,4667.692383,4478.717773,4446.666504,4571.153809,0.000000,4.000000,77.000000,,,,0.000000,4.000000,4.000000,4.000000,4.000000,4.000000,4.000000,4.000000,4.000000,4.000000,4.000000,4.000000,4.000000,4.000000,4.000000,100.000000,,,,,,,,,,,,,,,,,,,,,,,,,,,,
1703161936.273462,1703161936.274238,22.000000,0.000000,4217.307617,4175.769043,4291.410156,4257.051270,4165.641113,4136.922852,4171.666504,4136.410156,4112.692383,4155.000000,4657.436035,4465.641113,4433.589844,4559.230957,0.000000,4.000000,77.000000,,,,0.000000,4.000000,4.000000,4.000000,4.000000,4.000000,4.000000,4.000000,4.000000,4.000000,4.000000,4.000000,4.000000,4.000000,4.000000,100.000000,,,,,,,,,,,,,,,,,,,,,,,,,,,,
1703161936.281270,1703161936.282146,23.000000,0.000000,4197.307617,4163.205078,4276.282227,4246.794922,4166.025879,4139.230957,4171.922852,4134.102539,4099.871582,4146.410156,4645.384766,4454.743652,4415.897461,4535.641113,0.000000,4.000000,77.000000,,,,0.000000,4.000000,4.000000,4.000000,4.000000,4.000000,4.000000,4.000000,4.000000,4.000000,4.000000,4.000000,4.000000,4.000000,4.000000,100.000000,,,,,,,,,,,,,,,,,,,,,,,,,,,,
1703161936.289078,1703161936.289954,24.000000,0.000000,4199.487305,4173.205078,4276.922852,4247.563965,4167.563965,4140.897461,4173.461426,4144.743652,4108.077148,4150.000000,4649.615234,4455.384766,4419.358887,4532.820313,0.000000,4.000000,77.000000,,,,0.000000,4.000000,4.000000,4.000000,4.000000,4.000000,4.000000,4.000000,4.000000,4.000000,4.000000,4.000000,4.000000,4.000000,4.000000,100.000000,,,,,,,,,,,,,,,,,6.000000,0.000000,0.557863,-0.403809,-0.518860,-0.506470,0.982053,0.075204,0.132340,-17.372099,-32.251900,64.800575
1703161936.296886,1703161936.297861,25.000000,0.000000,4202.820313,4177.563965,4278.846191,4248.717773,4170.256348,4140.128418,4173.077148,4157.436035,4133.846191,4163.974121,4660.641113,4457.307617,4429.358887,4540.769043,0.000000,4.000000,77.000000,,,,0.000000,4.000000,4.000000,4.000000,4.000000,4.000000,4.000000,4.000000,4.000000,4.000000,4.000000,4.000000,4.000000,4.000000,4.000000,100.000000,,,,,,,,,,,,,,,,,,,,,,,,,,,,
1703161936.304694,1703161936.305669,26.000000,0.000000,4199.487305,4177.436035,4275.641113,4249.358887,4168.974121,4136.794922,4166.410156,4156.410156,4143.461426,4173.717773,4664.230957,4456.410156,4429.487305,4539.487305,0.000000,4.000000,77.000000,,,,0.000000,4.000000,4.000000,4.000000,4.000000,4.000000,4.000000,4.000000,4.000000,4.000000,4.000000,4.000000,4.000000,4.000000,4.000000,100.000000,,,,,,,,,,,,,,,,,,,,,,,,,,,,
1703161936.312502,1703161936.313577,27.000000,0.000000,4208.205078,4196.410156,4280.000000,4259.102539,4168.205078,4139.230957,4161.153809,4153.846191,4139.615234,4172.307617,4662.948730,4462.179688,4427.820313,4542.820313,0.000000,4.000000,77.000000,,,,0.000000,4.000000,4.000000,4.000000,4.000000,4.000000,4.000000,4.000000,4.000000,4.000000,4.000000,4.000000,4.000000,4.000000,4.000000,100.000000,,,,,,,,,,,,,,,,,,,,,,,,,,,,
1703161936.320310,1703161936.321385,28.000000,0.000000,4219.615234,4210.000000,4292.179688,4268.077148,4172.307617,4140.512695,4162.307617,4156.538574,4143.974121,4172.051270,4663.077148,4468.461426,4427.436035,4552.179688,0.000000,4.000000,77.000000,,,,0.000000,4.000000,4.000000,4.000000,4.000000,4.000000,4.000000,4.000000,4.000000,4.000000,4.000000,4.000000,4.000000,4.000000,4.000000,100.000000,,,,,,,,,,,,,,,,,7.000000,0.000000,0.557773,-0.403625,-0.518921,-0.506653,0.973263,0.082530,0.137224,-17.351557,-32.260044,64.837181
1703161936.328118,1703161936.329193,29.000000,0.000000,4217.436035,4202.307617,4296.025879,4265.641113,4172.436035,4132.563965,4164.230957,4156.025879,4146.153809,4175.000000,4664.615234,4465.128418,4428.589844,4554.615234,0.000000,4.000000,77.000000,,,,0.000000,4.000000,4.000000,4.000000,4.000000,4.000000,4.000000,4.000000,4.000000,4.000000,4.000000,4.000000,4.000000,4.000000,4.000000,100.000000,,,,,,,,,,,,,,,,,,,,,,,,,,,,
1703161936.335926,1703161936.337001,30.000000,0.000000,4214.230957,4195.384766,4289.615234,4263.333496,4170.641113,4123.974121,4158.717773,4148.077148,4135.000000,4167.820313,4665.897461,4460.897461,4429.615234,4550.000000,0.000000,4.000000,77.000000,,,,0.000000,4.000000,4.000000,4.000000,4.000000,4.000000,4.000000,4.000000,4.000000,4.000000,4.000000,4.000000,4.000000,4.000000,4.000000,100.000000,,,,,,,,,,,,,,,,,,,,,,,,,,,,
1703161936.343734,1703161936.344709,31.000000,0.000000,4215.256348,4193.589844,4286.538574,4262.820313,4168.846191,4120.256348,4152.563965,4138.205078,4123.846191,4157.820313,4658.846191,4458.333496,4423.077148,4541.794922,0.000000,4.000000,77.000000,,,,0.000000,4.000000,4.000000,4.000000,4.000000,4.000000,4.000000,4.000000,4.000000,4.000000,4.000000,4.000000,4.000000,4.000000,4.000000,100.000000,,,,,,,,,,,,,,,,,,,,,,,,,,,,
1703161936.351542,1703161936.352517,32.000000,0.000000,4218.077148,4193.974121,4291.794922,4261.410156,4160.641113,4120.512695,4156.282227,4132.307617,4118.717773,4157.051270,4651.666504,4453.333496,4420.641113,4541.538574,0.000000,4.000000,77.000000,,,,0.000000,4.000000,4.000000,4.000000,4.000000,4.000000,4.000000,4.000000,4.000000,4.000000,4.000000,4.000000,4.000000,4.000000,4.000000,100.000000,,,,,,,,,,,,,,,,,8.000000,0.000000,0.557774,-0.403625,-0.518860,-0.506714,0.985960,0.102552,0.144061,-17.483068,-32.167374,64.886803
1703161936.359351,1703161936.360225,33.000000,0.000000,4217.051270,4195.128418,4292.820313,4259.871582,4152.948730,4121.410156,4160.384766,4127.820313,4108.333496,4152.820313,4651.922852,4449.743652,4422.051270,4544.230957,0.000000,4.000000,77.000000,,,,0.000000,4.000000,4.000000,4.000000,4.000000,4.000000,4.000000,4.000000,4.000000,4.000000,4.000000,4.000000,4.000000,4.000000,4.000000,100.000000,,,,,,,,,,,,,,,,,,,,,,,,,,,,
1703161936.367159,1703161936.368033,34.000000,0.000000,4205.384766,4185.256348,4279.615234,4250.128418,4153.461426,4118.589844,4154.871582,4120.256348,4096.538574,4139.743652,4641.410156,4444.230957,4407.436035,4531.153809,0.000000,4.000000,77.000000,,,,0.000000,4.000000,4.000000,4.000000,4.000000,4.000000,4.000000,4.000000,4.000000,4.000000,4.000000,4.000000,4.000000,4.000000,4.000000,100.000000,,,,,,,,,,,,,,,,,,,,,,,,,,,,
1703161936.374967,1703161936.375741,35.000000,0.000000,4195.897461,4178.974121,4267.051270,4241.282227,4158.205078,4118.846191,4155.384766,4123.333496,4098.589844,4130.769043,4628.717773,4436.153809,4394.615234,4517.563965,0.000000,4.000000,77.000000,,,,0.000000,4.000000,4.000000,4.000000,4.000000,4.000000,4.000000,4.000000,4.000000,4.000000,4.000000,4.000000,4.000000,4.000000,4.000000,100.000000,,,,,,,,,,,,,,,,,,,,,,,,,,,,
1703161936.382775,1703161936.383549,36.000000,0.000000,4198.717773,4182.948730,4270.512695,4245.897461,4158.846191,4129.871582,4164.743652,4143.333496,4118.077148,4143.205078,4638.717773,4439.743652,4405.897461,4522.820313,0.000000,4.000000,77.000000,,,,0.000000,4.000000,4.000000,4.000000,4.000000,4.000000,4.000000,4.000000,4.000000,4.000000,4.000000,4.000000,4.000000,4.000000,4.000000,100.000000,,,,,,,,,,,,,,,,,9.000000,0.000000,0.557871,-0.403259,-0.518921,-0.506836,0.978147,0.073739,0.136247,-17.534761,-32.317303,64.998123
1703161936.390583,1703161936.391257,37.000000,0.000000,4201.538574,4177.436035,4274.230957,4246.282227,4158.589844,4134.358887,4164.102539,4157.692383,4137.051270,4164.871582,4654.230957,4447.563965,4416.922852,4527.948730,0.000000,4.000000,77.000000,,,,0.000000,4.000000,4.000000,4.000000,4.000000,4.000000,4.000000,4.000000,4.000000,4.000000,4.000000,4.000000,4.000000,4.000000,4.000000,100.000000,,,,,,,,,,,,,,,,,,,,,,,,,,,,
1703161936.398391,1703161936.399065,38.000000,0.000000,4195.256348,4166.794922,4266.410156,4234.615234,4158.333496,4124.487305,4159.102539,4152.436035,4139.743652,4165.897461,4648.846191,4443.589844,4412.563965,4521.410156,0.000000,4.000000,77.000000,,,,0.000000,4.000000,4.000000,4.000000,4.000000,4.000000,4.000000,4.000000,4.000000,4.000000,4.000000,4.000000,4.000000,4.000000,4.000000,100.000000,,,,,,,,,,,,,,,,,,,,,,,,,,,,
1703161936.406199,1703161936.406773,39.000000,0.000000,4191.922852,4168.717773,4261.538574,4231.282227,4153.717773,4121.794922,4161.153809,4148.846191,4138.717773,4157.179688,4642.948730,4441.538574,4410.256348,4520.769043,0.000000,4.000000,77.000000,,,,0.000000,4.000000,4.000000,4.000000,4.000000,4.000000,4.000000,4.000000,4.000000,4.000000,4.000000,4.000000,4.000000,4.000000,4.000000,100.000000,,,,,,,,,,,,,,,,,,,,,,,,,,,,
1703161936.414007,1703161936.414581,40.000000,0.000000,4195.897461,4174.615234,4263.974121,4239.615234,4150.641113,4128.846191,4161.538574,4152.436035,4143.077148,4158.589844,4650.256348,4443.589844,4416.538574,4528.205078,0.000000,4.000000,77.000000,,,,0.000000,4.000000,4.000000,4.000000,4.000000,4.000000,4.000000,4.000000,4.000000,4.000000,4.000000,4.000000,4.000000,4.000000,4.000000,100.000000,,,,,,,,,,,,,,,,,10.000000,0.000000,0.557920,-0.402954,-0.519165,-0.506775,0.991820,0.073739,0.139665,-17.431284,-32.385571,65.114975
1703161936.421815,1703161936.422289,41.000000,0.000000,4201.538574,4175.769043,4267.692383,4245.256348,4156.282227,4126.666504,4158.205078,4148.205078,4137.436035,4161.153809,4654.102539,4442.820313,4421.922852,4535.256348,0.000000,4.000000,77.000000,,,,0.000000,4.000000,4.000000,4.000000,4.000000,4.000000,4.000000,4.000000,4.000000,4.000000,4.000000,4.000000,4.000000,4.000000,4.000000,100.000000,,,,,,,,,,,,,,,,,,,,,,,,,,,,
1703161936.429623,1703161936.430097,42.000000,0.000000,4205.128418,4177.563965,4273.974121,4247.563965,4156.666504,4115.641113,4155.128418,4136.666504,4123.333496,4154.230957,4649.487305,4444.615234,4419.358887,4538.333496,0.000000,4.000000,77.000000,,,,0.000000,4.000000,4.000000,4.000000,4.000000,4.000000,4.000000,4.000000,4.000000,4.000000,4.000000,4.000000,4.000000,4.000000,4.000000,100.000000,,,,,,,,,,,,,,,,,,,,,,,,,,,,
1703161936.437431,1703161936.437805,43.000000,0.000000,4201.922852,4179.487305,4276.282227,4248.589844,4143.974121,4106.282227,4148.846191,4125.000000,4111.794922,4142.179688,4642.307617,4443.846191,4411.538574,4536.410156,0.000000,4.000000,77.000000,,,,0.000000,4.000000,4.000000,4.000000,4.000000,4.000000,4.000000,4.000000,4.000000,4.000000,4.000000,4.000000,4.000000,4.000000,4.000000,100.000000,,,,,,,,,,,,,,,,,,,,,,,,,,,,
1703161936.445239,1703161936.445613,44.000000,0.000000,4201.794922,4180.897461,4275.000000,4250.128418,4145.128418,4105.384766,4146.922852,4118.205078,4101.282227,4133.846191,4641.153809,4442.948730,4411.410156,4534.358887,0.000000,4.000000,77.000000,,,,0.000000,4.000000,4.000000,4.000000,4.000000,4.000000,4.000000,4.000000,4.000000,4.000000,4.000000,4.000000,4.000000,4.000000,4.000000,100.000000,,,,,,,,,,,,,,,,,11.000000,0.000000,0.558007,-0.402832,-0.519226,-0.506714,0.987425,0.068856,0.146014,-17.404823,-32.513680,64.903481
1703161936.453047,1703161936.453322,45.000000,0.000000,4214.102539,4185.000000,4282.307617,4258.974121,4166.666504,4114.615234,4154.102539,4120.897461,4097.051270,4136.410156,4648.589844,4450.256348,4418.974121,4539.487305,0.000000,4.000000,77.000000,,,,0.000000,4.000000,4.000000,4.000000,4.000000,4.000000,4.000000,4.000000,4.000000,4.000000,4.000000,4.000000,4.000000,4.000000,4.000000,100.000000,,,,,,,,,,,,,,,,,,,,,,,,,,,,
1703161936.460855,1703161936.461229,46.000000,0.000000,4219.487305,4187.179688,4284.487305,4261.282227,4171.282227,4117.820313,4156.153809,4117.563965,4094.615479,4134.102539,4644.358887,4450.769043,4415.128418,4540.897461,0.000000,4.000000,77.000000,,,,0.000000,4.000000,4.000000,4.000000,4.000000,4.000000,4.000000,4.000000,4.000000,4.000000,4.000000,4.000000,4.000000,4.000000,4.000000,100.000000,,,,,,,,,,,,,,,,,,,,,,,,,,,,
1703161936.468663,1703161936.469037,47.000000,0.000000,4207.307617,4185.384766,4278.333496,4252.563965,4157.307617,4112.948730,4154.358887,4102.307617,4080.128174,4117.563965,4630.897461,4442.179688,4407.820313,4530.000000,0.000000,4.000000,77.000000,,,,0.000000,4.000000,4.000000,4.000000,4.000000,4.000000,4.000000,4.000000,4.000000,4.000000,4.000000,4.000000,4.000000,4.000000,4.000000,100.000000,,,,,,,,,,,,,,,,,,,,,,,,,,,,
1703161936.476471,1703161936.476945,48.000000,0.000000,4201.666504,4179.358887,4280.000000,4248.974121,4153.589844,4116.666504,4154.230957,4108.077148,4082.051270,4113.333496,4635.512695,4443.077148,4409.102539,4523.461426,0.000000,4.000000,77.000000,,,,0.000000,4.000000,4.000000,4.000000,4.000000,4.000000,4.000000,4.000000,4.000000,4.000000,4.000000,4.000000,4.000000,4.000000,4.000000,100.000000,,,,,,,,,,,,,,,,,12.000000,0.000000,0.558189,-0.402649,-0.519470,-0.506409,0.992797,0.087413,0.132340,-17.364340,-32.445648,64.996460
1703161936.484279,1703161936.484753,49.000000,0.000000,4199.102539,4167.051270,4277.820313,4244.615234,4149.871582,4123.205078,4154.358887,4134.358887,4113.589844,4127.436035,4645.769043,4447.692383,4409.615234,4524.871582,0.000000,4.000000,77.000000,,,,0.000000,4.000000,4.000000,4.000000,4.000000,4.000000,4.000000,4.000000,4.000000,4.000000,4.000000,4.000000,4.000000,4.000000,4.000000,100.000000,,,,,,,,,,,,,,,,,,,,,,,,,,,,
1703161936.492087,1703161936.492661,50.000000,0.000000,4187.179688,4159.358887,4266.025879,4236.025879,4142.307617,4121.794922,4155.128418,4142.307617,4128.974121,4134.871582,4637.051270,4440.000000,4402.436035,4521.666504,0.000000,4.000000,77.000000,,,,0.000000,4.000000,4.000000,4.000000,4.000000,4.000000,4.000000,4.000000,4.000000,4.000000,4.000000,4.000000,4.000000,4.000000,4.000000,100.000000,,,,,,,,,,,,,,,,,,,,,,,,,,,,
1703161936.499895,1703161936.500469,51.000000,0.000000,4180.384766,4164.615234,4260.256348,4236.666504,4149.871582,4121.666504,4156.922852,4140.384766,4124.743652,4133.589844,4631.025879,4433.589844,4398.589844,4517.820313,0.000000,4.000000,77.000000,,,,0.000000,4.000000,4.000000,4.000000,4.000000,4.000000,4.000000,4.000000,4.000000,4.000000,4.000000,4.000000,4.000000,4.000000,4.000000,100.000000,,,,,,,,,,,,,,,,,,,,,,,,,,,,
1703161936.507703,1703161936.508377,52.000000,0.000000,4187.051270,4169.615234,4262.820313,4244.230957,4157.820313,4127.692383,4156.666504,4151.025879,4134.487305,4143.974121,4640.512695,4438.461426,4408.333496,4520.128418,0.000000,4.000000,77.000000,,,,0.000000,4.000000,4.000000,4.000000,4.000000,4.000000,4.000000,4.000000,4.000000,4.000000,4.000000,4.000000,4.000000,4.000000,4.000000,100.000000,,,,,,,,,,,,,,,,,13.000000,0.000000,0.558241,-0.402649,-0.519592,-0.506226,0.993285,0.079111,0.137712,-17.327906,-32.417747,65.080147
1703161936.515512,1703161936.516185,53.000000,0.000000,4192.307617,4168.461426,4268.589844,4242.307617,4156.666504,4129.743652,4157.307617,4161.666504,4147.436035,4155.000000,4651.025879,4446.666504,4414.615234,4522.307617,0.000000,4.000000,77.000000,,,,0.000000,4.000000,4.000000,4.000000,4.000000,4.000000,4.000000,4.000000,4.000000,4.000000,4.000000,4.000000,4.000000,4.000000,4.000000,100.000000,,,,,,,,,,,,,,,,,,,,,,,,,,,,
1703161936.523320,1703161936.524093,54.000000,0.000000,4190.769043,4168.333496,4275.256348,4239.102539,4159.487305,4126.666504,4161.410156,4157.820313,4145.384766,4147.692383,4649.487305,4449.230957,4408.974121,4524.743652,0.000000,4.000000,77.000000,,,,0.000000,4.000000,4.000000,4.000000,4.000000,4.000000,4.000000,4.000000,4.000000,4.000000,4.000000,4.000000,4.000000,4.000000,4.000000,100.000000,,,,,,,,,,,,,,,,,,,,,,,,,,,,
1703161936.531128,1703161936.531901,55.000000,0.000000,4192.051270,4169.102539,4279.358887,4243.846191,4166.794922,4125.512695,4160.000000,4147.563965,4135.897461,4135.641113,4634.487305,4445.128418,4404.102539,4525.000000,0.000000,4.000000,77.000000,,,,0.000000,4.000000,4.000000,4.000000,4.000000,4.000000,4.000000,4.000000,4.000000,4.000000,4.000000,4.000000,4.000000,4.000000,4.000000,100.000000,,,,,,,,,,,,,,,,,,,,,,,,,,,,
1703161936.538936,1703161936.539609,56.000000,0.000000,4198.974121,4170.641113,4280.000000,4246.538574,4165.769043,4125.128418,4153.333496,4140.641113,4127.307617,4131.666504,4629.743652,4443.333496,4410.000000,4524.102539,0.000000,4.000000,77.000000,,,,0.000000,4.000000,4.000000,4.000000,4.000000,4.000000,4.000000,4.000000,4.000000,4.000000,4.000000,4.000000,4.000000,4.000000,4.000000,100.000000,,,,,,,,,,,,,,,,,14.000000,0.000000,0.558309,-0.402710,-0.519531,-0.506165,0.977170,0.077158,0.141619,-17.345116,-32.442642,65.105469
1703161936.546744,1703161936.547417,57.000000,0.000000,4204.871582,4172.563965,4279.871582,4244.615234,4158.461426,4118.333496,4147.948730,4133.077148,4120.000000,4130.256348,4640.384766,4441.282227,4415.256348,4525.641113,0.000000,4.000000,77.000000,,,,0.000000,4.000000,4.000000,4.000000,4.000000,4.000000,4.000000,4.000000,4.000000,4.000000,4.000000,4.000000,4.000000,4.000000,4.000000,100.000000,1.000000,83.333336,4.000000,4.000000,4.000000,4.000000,4.000000,3.000000,4.000000,4.000000,4.000000,3.000000,4.000000,4.000000,4.000000,4.000000,,,,,,,,,,,,
1703161936.554552,1703161936.555125,58.000000,0.000000,4204.743652,4170.256348,4278.205078,4244.743652,4152.692383,4113.974121,4148.589844,4123.717773,4110.384766,4123.589844,4638.461426,4434.743652,4409.230957,4523.461426,0.000000,4.000000,77.000000,,,,0.000000,4.000000,4.000000,4.000000,4.000000,4.000000,4.000000,4.000000,4.000000,4.000000,4.000000,4.000000,4.000000,4.000000,4.000000,100.000000,,,,,,,,,,,,,,,,,,,,,,,,,,,,
1703161936.562360,1703161936.562933,59.000000,0.000000,4201.666504,4172.051270,4281.538574,4250.256348,4155.769043,4122.820313,4156.794922,4118.589844,4095.256348,4114.871582,4628.333496,4435.256348,4402.051270,4524.871582,0.000000,4.000000,77.000000,,,,0.000000,4.000000,4.000000,4.000000,4.000000,4.000000,4.000000,4.000000,4.000000,4.000000,4.000000,4.000000,4.000000,4.000000,4.000000,100.000000,,,,,,,,,,,,,,,,,,,,,,,,,,,,
1703161936.570168,1703161936.570641,60.000000,0.000000,4193.461426,4171.282227,4281.538574,4245.512695,4156.794922,4129.102539,4160.384766,4119.230957,4088.589844,4104.871582,4628.717773,4438.846191,4398.461426,4524.487305,0.000000,4.000000,77.000000,,,,0.000000,4.000000,4.000000,4.000000,4.000000,4.000000,4.000000,4.000000,4.000000,4.000000,4.000000,4.000000,4.000000,4.000000,4.000000,100.000000,,,,,,,,,,,,,,,,,15.000000,0.000000,0.558471,-0.402954,-0.519287,-0.506042,0.990355,0.056648,0.133317,-17.360605,-32.498375,65.044922
1703161936.577976,1703161936.578449,61.000000,0.000000,4183.974121,4157.692383,4267.563965,4232.051270,4145.641113,4123.846191,4158.205078,4122.563965,4097.948730,4102.179688,4626.025879,4429.871582,4395.128418,4509.743652,0.000000,4.000000,77.000000,,,,0.000000,4.000000,4.000000,4.000000,4.000000,4.000000,4.000000,4.000000,4.000000,4.000000,4.000000,4.000000,4.000000,4.000000,4.000000,100.000000,,,,,,,,,,,,,,,,,,,,,,,,,,,,
1703161936.585784,1703161936.586157,62.000000,0.000000,4182.948730,4149.743652,4261.922852,4229.615234,4141.922852,4128.461426,4160.384766,4135.128418,4120.384766,4113.846191,4627.436035,4426.153809,4395.512695,4501.153809,0.000000,4.000000,77.000000,,,,0.000000,4.000000,4.000000,4.000000,4.000000,4.000000,4.000000,4.000000,4.000000,4.000000,4.000000,4.000000,4.000000,4.000000,4.000000,100.000000,,,,,,,,,,,,,,,,,,,,,,,,,,,,
1703161936.593592,1703161936.593965,63.000000,0.000000,4176.282227,4152.179688,4263.974121,4230.256348,4151.153809,4138.205078,4164.743652,4152.436035,4140.769043,4124.743652,4640.897461,4433.974121,4398.333496,4507.307617,0.000000,4.000000,77.000000,,,,0.000000,4.000000,4.000000,4.000000,4.000000,4.000000,4.000000,4.000000,4.000000,4.000000,4.000000,4.000000,4.000000,4.000000,4.000000,100.000000,,,,,,,,,,,,,,,,,,,,,,,,,,,,
1703161936.601400,1703161936.601673,64.000000,0.000000,4165.897461,4147.436035,4257.692383,4222.436035,4156.538574,4132.179688,4158.589844,4155.769043,4142.563965,4128.077148,4642.051270,4432.692383,4398.077148,4506.794922,5315.000000,4.000000,77.000000,,,,0.000000,4.000000,4.000000,4.000000,4.000000,4.000000,4.000000,4.000000,4.000000,4.000000,4.000000,4.000000,4.000000,4.000000,4.000000,100.000000,,,,,,,,,,,,,,,,,16.000000,0.000000,0.558544,-0.403320,-0.519043,-0.505920,0.989379,0.084971,0.140154,-17.341211,-32.281872,65.007095
1703161936.609208,1703161936.609481,65.000000,0.000000,4172.948730,4145.512695,4256.025879,4221.922852,4154.871582,4126.922852,4153.846191,4154.102539,4144.743652,4134.743652,4635.641113,4433.461426,4403.333496,4503.589844,5347.000000,4.000000,77.000000,,,,0.000000,4.000000,4.000000,4.000000,4.000000,4.000000,4.000000,4.000000,4.000000,4.000000,4.000000,4.000000,4.000000,4.000000,4.000000,100.000000,,,,,,,,,,,,,,,,,,,,,,,,,,,,
1703161936.617016,1703161936.617189,66.000000,0.000000,4185.256348,4155.256348,4264.615234,4230.897461,4151.794922,4134.358887,4162.179688,4158.589844,4154.871582,4138.205078,4639.487305,4443.846191,4406.538574,4512.051270,5233.000000,4.000000,77.000000,,,,0.000000,4.000000,4.000000,4.000000,4.000000,4.000000,4.000000,4.000000,4.000000,4.000000,4.000000,4.000000,4.000000,4.000000,4.000000,100.000000,,,,,,,,,,,,,,,,,,,,,,,,,,,,
1703161936.624824,1703161936.624997,67.000000,0.000000,4184.743652,4156.025879,4265.256348,4232.692383,4154.487305,4134.358887,4165.512695,4156.025879,4146.282227,4127.179688,4645.897461,4445.000000,4403.589844,4519.230957,5233.000000,4.000000,77.000000,,,,0.000000,4.000000,4.000000,4.000000,4.000000,4.000000,4.000000,4.000000,4.000000,4.000000,4.000000,4.000000,4.000000,4.000000,4.000000,100.000000,,,,,,,,,,,,,,,,,,,,,,,,,,,,
1703161936.632632,1703161936.632705,68.000000,0.000000,4186.666504,4150.641113,4263.461426,4230.000000,4157.179688,4125.384766,4160.256348,4145.000000,4125.641113,4118.077148,4647.692383,4441.153809,4408.974121,4521.282227,5093.000000,4.000000,77.000000,,,,0.000000,4.000000,4.000000,4.000000,4.000000,4.000000,4.000000,4.000000,4.000000,4.000000,4.000000,4.000000,4.000000,4.000000,4.000000,100.000000,,,,,,,,,,,,,,,,,17.000000,0.000000,0.558751,-0.403503,-0.518738,-0.505859,0.979123,0.062019,0.136735,-17.223757,-32.187019,65.039719
1703161936.640440,1703161936.640613,69.000000,0.000000,4195.128418,4157.820313,4271.794922,4234.871582,4151.666504,4124.615234,4159.743652,4137.948730,4121.538574,4120.000000,4642.051270,4443.846191,4408.205078,4520.256348,5155.000000,4.000000,77.000000,,,,0.000000,4.000000,4.000000,4.000000,4.000000,4.000000,4.000000,4.000000,4.000000,4.000000,4.000000,4.000000,4.000000,4.000000,4.000000,100.000000,,,,,,,,,,,,,,,,,,,,,,,,,,,,
1703161936.648249,1703161936.648421,70.000000,0.000000,4198.461426,4167.179688,4279.358887,4241.538574,4147.051270,4125.000000,4161.282227,4139.615234,4126.282227,4119.102539,4637.051270,4445.641113,4400.128418,4521.153809,4004.000000,4.000000,77.000000,,,,0.000000,4.000000,4.000000,4.000000,4.000000,4.000000,4.000000,4.000000,4.000000,4.000000,4.000000,4.000000,4.000000,4.000000,4.000000,100.000000,,,,,,,,,,,,,,,,,,,,,,,,,,,,
1703161936.656057,1703161936.656329,71.000000,0.000000,4202.051270,4164.871582,4282.563965,4241.794922,4147.051270,4121.025879,4161.282227,4139.743652,4115.384766,4113.589844,4643.077148,4448.077148,4407.307617,4529.743652,5262.000000,4.000000,77.000000,,,,0.000000,4.000000,4.000000,4.000000,4.000000,4.000000,4.000000,4.000000,4.000000,4.000000,4.000000,4.000000,4.000000,4.000000,4.000000,100.000000,,,,,,,,,,,,,,,,,,,,,,,,,,,,
1703161936.663864,1703161936.664137,72.000000,0.000000,4205.000000,4157.563965,4282.820313,4237.563965,4145.512695,4120.384766,4160.769043,4130.000000,4097.307617,4101.922852,4646.410156,4452.436035,4411.410156,4531.538574,5093.000000,4.000000,77.000000,,,,0.000000,4.000000,4.000000,4.000000,4.000000,4.000000,4.000000,4.000000,4.000000,4.000000,4.000000,4.000000,4.000000,4.000000,4.000000,100.000000,,,,,,,,,,,,,,,,,18.000000,0.000000,0.558776,-0.403625,-0.518616,-0.505859,0.985960,0.074228,0.145037,-17.268047,-32.251648,65.052414
1703161936.671673,1703161936.672045,73.000000,0.000000,4202.051270,4153.717773,4282.692383,4232.179688,4139.615234,4121.153809,4159.615234,4123.461426,4094.358887,4095.512939,4640.000000,4448.077148,4399.230957,4524.487305,5253.000000,4.000000,77.000000,,,,0.000000,4.000000,4.000000,4.000000,4.000000,4.000000,4.000000,4.000000,4.000000,4.000000,4.000000,4.000000,4.000000,4.000000,4.000000,100.000000,,,,,,,,,,,,,,,,,,,,,,,,,,,,
1703161936.679481,1703161936.679853,74.000000,0.000000,4198.846191,4156.153809,4284.487305,4231.922852,4135.897461,4123.333496,4159.230957,4133.461426,4109.615234,4105.384766,4640.769043,4446.153809,4399.102539,4523.717773,5789.000000,4.000000,77.000000,,,,0.000000,4.000000,4.000000,4.000000,4.000000,4.000000,4.000000,4.000000,4.000000,4.000000,4.000000,4.000000,4.000000,4.000000,4.000000,100.000000,,,,,,,,,,,,,,,,,,,,,,,,,,,,
1703161936.687289,1703161936.687760,75.000000,0.000000,4192.307617,4155.769043,4277.051270,4233.589844,4144.615234,4125.256348,4158.846191,4141.282227,4121.025879,4110.384766,4639.487305,4443.717773,4401.538574,4523.205078,6132.000000,4.000000,77.000000,,,,0.000000,4.000000,4.000000,4.000000,4.000000,4.000000,4.000000,4.000000,4.000000,4.000000,4.000000,4.000000,4.000000,4.000000,4.000000,100.000000,,,,,,,,,,,,,,,,,,,,,,,,,,,,
1703161936.695097,1703161936.695568,76.000000,0.000000,4183.846191,4146.922852,4264.743652,4225.897461,4155.256348,4126.025879,4156.410156,4137.948730,4123.846191,4106.410156,4629.871582,4433.077148,4394.102539,4517.179688,6558.000000,4.000000,77.000000,,,,0.000000,4.000000,4.000000,4.000000,4.000000,4.000000,4.000000,4.000000,4.000000,4.000000,4.000000,4.000000,4.000000,4.000000,4.000000,100.000000,,,,,,,,,,,,,,,,,19.000000,0.000000,0.558923,-0.403809,-0.518494,-0.505676,0.974240,0.076670,0.136247,-17.241243,-32.076485,64.963837
