title:منى دواء, start timestamp:1703411640.936505, stop timestamp:1703411651.797504, headset type:EPOCX, headset serial:E50206EF, headset firmware:720, channels:67, sampling rate:eeg_128;mot_32, samples:1392      , version:2.2, 
Timestamp,OriginalTimestamp,EEG.Counter,EEG.Interpolated,EEG.AF3,EEG.F7,EEG.F3,EEG.FC5,EEG.T7,EEG.P7,EEG.O1,EEG.O2,EEG.P8,EEG.T8,EEG.FC6,EEG.F4,EEG.F8,EEG.AF4,EEG.RawCq,EEG.Battery,EEG.BatteryPercent,MarkerIndex,MarkerType,MarkerValueInt,EEG.MarkerHardware,CQ.AF3,CQ.F7,CQ.F3,CQ.FC5,CQ.T7,CQ.P7,CQ.O1,CQ.O2,CQ.P8,CQ.T8,CQ.FC6,CQ.F4,CQ.F8,CQ.AF4,CQ.Overall,EQ.SampleRateQuality,EQ.OVERALL,EQ.AF3,EQ.F7,EQ.F3,EQ.FC5,EQ.T7,EQ.P7,EQ.O1,EQ.O2,EQ.P8,EQ.T8,EQ.FC6,EQ.F4,EQ.F8,EQ.AF4,MOT.CounterMems,MOT.InterpolatedMems,MOT.Q0,MOT.Q1,MOT.Q2,MOT.Q3,MOT.AccX,MOT.AccY,MOT.AccZ,MOT.MagX,MOT.MagY,MOT.MagZ
1703411640.936505,1703411640.937224,40.000000,0.000000,4189.230957,4172.948730,4267.179688,4258.333496,4172.179688,4150.512695,4208.461426,4181.922852,4181.666504,4155.641113,4558.846191,4435.769043,4335.128418,4482.179688,0.000000,3.000000,64.000000,,,,0.000000,4.000000,4.000000,4.000000,4.000000,4.000000,4.000000,4.000000,4.000000,4.000000,4.000000,4.000000,4.000000,4.000000,4.000000,100.000000,,,,,,,,,,,,,,,,,10.000000,0.000000,0.742920,0.050720,-0.663391,0.073547,0.999634,-0.023440,0.106458,-17.791880,-36.659866,65.678864
1703411640.944313,1703411640.944932,41.000000,0.000000,4197.307617,4187.051270,4273.461426,4272.051270,4181.922852,4153.717773,4217.051270,4195.256348,4189.230957,4181.538574,4572.948730,4447.563965,4362.051270,4490.769043,0.000000,3.000000,64.000000,,,,0.000000,4.000000,4.000000,4.000000,4.000000,4.000000,4.000000,4.000000,4.000000,4.000000,4.000000,4.000000,4.000000,4.000000,4.000000,100.000000,,,,,,,,,,,,,,,,,,,,,,,,,,,,
1703411640.952121,1703411640.952740,42.000000,0.000000,4170.128418,4164.871582,4271.666504,4259.358887,4174.102539,4155.384766,4216.794922,4191.538574,4183.974121,4186.666504,4567.820313,4436.153809,4363.077148,4484.743652,0.000000,3.000000,64.000000,,,,0.000000,4.000000,4.000000,4.000000,4.000000,4.000000,4.000000,4.000000,4.000000,4.000000,4.000000,4.000000,4.000000,4.000000,4.000000,100.000000,,,,,,,,,,,,,,,,,,,,,,,,,,,,
1703411640.959929,1703411640.960448,43.000000,0.000000,4176.922852,4161.794922,4256.025879,4244.871582,4174.871582,4154.871582,4212.820313,4184.102539,4182.692383,4165.128418,4566.153809,4427.179688,4356.666504,4482.948730,0.000000,3.000000,64.000000,,,,0.000000,4.000000,4.000000,4.000000,4.000000,4.000000,4.000000,4.000000,4.000000,4.000000,4.000000,4.000000,4.000000,4.000000,4.000000,100.000000,,,,,,,,,,,,,,,,,,,,,,,,,,,,
1703411640.967737,1703411640.968256,44.000000,0.000000,4208.589844,4182.436035,4249.230957,4255.256348,4184.487305,4147.436035,4216.153809,4186.410156,4187.436035,4166.538574,4572.692383,4436.794922,4366.153809,4490.769043,0.000000,3.000000,64.000000,,,,0.000000,4.000000,4.000000,4.000000,4.000000,4.000000,4.000000,4.000000,4.000000,4.000000,4.000000,4.000000,4.000000,4.000000,4.000000,100.000000,,,,,,,,,,,,,,,,,11.000000,0.000000,0.742799,0.050720,-0.663513,0.073669,0.986937,-0.011720,0.102552,-17.762691,-36.710545,65.644310
1703411640.975546,1703411640.975964,45.000000,0.000000,4196.410156,4182.051270,4258.846191,4266.410156,4181.538574,4135.384766,4216.282227,4183.589844,4186.410156,4171.794922,4580.769043,4445.769043,4370.128418,4502.436035,0.000000,3.000000,64.000000,,,,0.000000,4.000000,4.000000,4.000000,4.000000,4.000000,4.000000,4.000000,4.000000,4.000000,4.000000,4.000000,4.000000,4.000000,4.000000,100.000000,,,,,,,,,,,,,,,,,,,,,,,,,,,,
1703411640.983354,1703411640.983772,46.000000,0.000000,4182.307617,4174.358887,4259.615234,4256.282227,4178.717773,4130.128418,4209.230957,4182.820313,4184.871582,4163.461426,4586.282227,4440.769043,4373.461426,4500.384766,0.000000,3.000000,64.000000,,,,0.000000,4.000000,4.000000,4.000000,4.000000,4.000000,4.000000,4.000000,4.000000,4.000000,4.000000,4.000000,4.000000,4.000000,4.000000,100.000000,,,,,,,,,,,,,,,,,,,,,,,,,,,,
1703411640.991161,1703411640.991480,47.000000,0.000000,4201.282227,4177.307617,4250.000000,4245.000000,4187.436035,4132.179688,4210.512695,4190.384766,4190.769043,4185.128418,4586.153809,4441.410156,4386.153809,4478.846191,0.000000,3.000000,64.000000,,,,0.000000,4.000000,4.000000,4.000000,4.000000,4.000000,4.000000,4.000000,4.000000,4.000000,4.000000,4.000000,4.000000,4.000000,4.000000,100.000000,,,,,,,,,,,,,,,,,,,,,,,,,,,,
1703411640.998970,1703411640.999288,48.000000,0.000000,4197.820313,4174.230957,4246.794922,4250.897461,4181.410156,4128.589844,4212.051270,4190.000000,4191.410156,4200.769043,4571.666504,4435.769043,4379.358887,4462.820313,0.000000,3.000000,64.000000,,,,0.000000,4.000000,4.000000,4.000000,4.000000,4.000000,4.000000,4.000000,4.000000,4.000000,4.000000,4.000000,4.000000,4.000000,4.000000,100.000000,,,,,,,,,,,,,,,,,12.000000,0.000000,0.742896,0.050903,-0.663391,0.073669,0.989379,-0.027347,0.110853,-17.736422,-36.639492,65.663216
1703411641.006778,1703411641.006996,49.000000,0.000000,4181.538574,4171.282227,4251.794922,4259.358887,4171.153809,4125.256348,4208.589844,4180.512695,4178.717773,4170.256348,4560.641113,4420.641113,4356.538574,4469.230957,0.000000,3.000000,64.000000,,,,0.000000,4.000000,4.000000,4.000000,4.000000,4.000000,4.000000,4.000000,4.000000,4.000000,4.000000,4.000000,4.000000,4.000000,4.000000,100.000000,,,,,,,,,,,,,,,,,,,,,,,,,,,,
1703411641.014586,1703411641.014804,50.000000,0.000000,4178.077148,4178.461426,4257.692383,4257.563965,4183.205078,4132.948730,4210.897461,4178.333496,4175.897461,4165.641113,4576.025879,4423.077148,4360.128418,4473.589844,0.000000,3.000000,64.000000,,,,0.000000,4.000000,4.000000,4.000000,4.000000,4.000000,4.000000,4.000000,4.000000,4.000000,4.000000,4.000000,4.000000,4.000000,4.000000,100.000000,,,,,,,,,,,,,,,,,,,,,,,,,,,,
1703411641.022394,1703411641.022512,51.000000,0.000000,4175.641113,4183.846191,4258.717773,4256.922852,4191.922852,4136.025879,4213.846191,4184.743652,4186.666504,4192.820313,4580.769043,4433.205078,4372.051270,4476.153809,0.000000,3.000000,64.000000,,,,0.000000,4.000000,4.000000,4.000000,4.000000,4.000000,4.000000,4.000000,4.000000,4.000000,4.000000,4.000000,4.000000,4.000000,4.000000,100.000000,,,,,,,,,,,,,,,,,,,,,,,,,,,,
1703411641.030202,1703411641.030320,52.000000,0.000000,4172.820313,4179.871582,4258.974121,4262.436035,4179.102539,4134.230957,4213.846191,4182.307617,4180.769043,4171.666504,4556.922852,4424.743652,4359.487305,4475.000000,0.000000,3.000000,64.000000,,,,0.000000,4.000000,4.000000,4.000000,4.000000,4.000000,4.000000,4.000000,4.000000,4.000000,4.000000,4.000000,4.000000,4.000000,4.000000,100.000000,,,,,,,,,,,,,,,,,13.000000,0.000000,0.742960,0.050842,-0.663330,0.073608,0.987914,-0.017092,0.102063,-17.829447,-36.692207,65.830223
1703411641.038010,1703411641.038029,53.000000,0.000000,4171.153809,4176.410156,4261.538574,4265.769043,4173.717773,4135.384766,4211.282227,4176.153809,4169.358887,4136.153809,4546.794922,4417.436035,4343.974121,4458.205078,0.000000,3.000000,64.000000,,,,0.000000,4.000000,4.000000,4.000000,4.000000,4.000000,4.000000,4.000000,4.000000,4.000000,4.000000,4.000000,4.000000,4.000000,4.000000,100.000000,,,,,,,,,,,,,,,,,,,,,,,,,,,,
1703411641.045818,1703411641.045836,54.000000,0.000000,4168.333496,4177.051270,4258.333496,4260.512695,4183.205078,4131.025879,4207.051270,4183.205078,4180.897461,4154.358887,4558.717773,4427.563965,4342.436035,4453.077148,0.000000,3.000000,64.000000,,,,0.000000,4.000000,4.000000,4.000000,4.000000,4.000000,4.000000,4.000000,4.000000,4.000000,4.000000,4.000000,4.000000,4.000000,4.000000,100.000000,,,,,,,,,,,,,,,,,,,,,,,,,,,,
1703411641.053626,1703411641.053545,55.000000,0.000000,4177.820313,4183.974121,4246.282227,4251.538574,4188.333496,4127.820313,4208.461426,4185.897461,4192.051270,4179.615234,4564.358887,4428.974121,4356.153809,4468.589844,0.000000,3.000000,64.000000,,,,0.000000,4.000000,4.000000,4.000000,4.000000,4.000000,4.000000,4.000000,4.000000,4.000000,4.000000,4.000000,4.000000,4.000000,4.000000,100.000000,,,,,,,,,,,,,,,,,,,,,,,,,,,,
1703411641.061434,1703411641.061452,56.000000,0.000000,4188.461426,4186.538574,4240.128418,4247.051270,4185.128418,4135.128418,4212.563965,4174.487305,4184.743652,4175.384766,4567.563965,4422.948730,4367.692383,4480.769043,0.000000,3.000000,64.000000,,,,0.000000,4.000000,4.000000,4.000000,4.000000,4.000000,4.000000,4.000000,4.000000,4.000000,4.000000,4.000000,4.000000,4.000000,4.000000,100.000000,,,,,,,,,,,,,,,,,14.000000,0.000000,0.742971,0.050781,-0.663330,0.073547,0.984984,-0.015627,0.117202,-17.913168,-36.622990,65.697205
1703411641.069242,1703411641.069260,57.000000,0.000000,4184.743652,4185.128418,4248.589844,4255.641113,4181.410156,4136.153809,4208.333496,4169.743652,4181.410156,4166.922852,4570.897461,4422.436035,4364.615234,4477.307617,0.000000,3.000000,64.000000,,,,0.000000,4.000000,4.000000,4.000000,4.000000,4.000000,4.000000,4.000000,4.000000,4.000000,4.000000,4.000000,4.000000,4.000000,4.000000,100.000000,,,,,,,,,,,,,,,,,,,,,,,,,,,,
1703411641.077050,1703411641.077168,58.000000,0.000000,4190.769043,4186.282227,4261.282227,4264.102539,4181.922852,4128.205078,4204.102539,4178.205078,4183.205078,4166.153809,4558.846191,4426.025879,4361.282227,4473.461426,0.000000,3.000000,64.000000,,,,0.000000,4.000000,4.000000,4.000000,4.000000,4.000000,4.000000,4.000000,4.000000,4.000000,4.000000,4.000000,4.000000,4.000000,4.000000,100.000000,,,,,,,,,,,,,,,,,,,,,,,,,,,,
1703411641.084858,1703411641.084976,59.000000,0.000000,4195.128418,4174.743652,4261.153809,4254.230957,4179.487305,4128.589844,4206.153809,4180.512695,4177.948730,4159.230957,4548.846191,4428.077148,4355.000000,4475.000000,0.000000,3.000000,64.000000,,,,0.000000,4.000000,4.000000,4.000000,4.000000,4.000000,4.000000,4.000000,4.000000,4.000000,4.000000,4.000000,4.000000,4.000000,4.000000,100.000000,,,,,,,,,,,,,,,,,,,,,,,,,,,,
1703411641.092666,1703411641.092884,60.000000,0.000000,4181.282227,4164.871582,4251.410156,4246.153809,4173.974121,4132.820313,4205.512695,4171.282227,4169.487305,4142.051270,4550.769043,4420.512695,4341.282227,4475.769043,0.000000,3.000000,64.000000,,,,0.000000,4.000000,4.000000,4.000000,4.000000,4.000000,4.000000,4.000000,4.000000,4.000000,4.000000,4.000000,4.000000,4.000000,4.000000,100.000000,,,,,,,,,,,,,,,,,15.000000,0.000000,0.743078,0.050537,-0.663269,0.073181,0.997192,0.005372,0.110853,-17.921852,-36.544022,65.677483
1703411641.100474,1703411641.100692,61.000000,0.000000,4179.743652,4168.333496,4248.974121,4251.538574,4168.846191,4131.538574,4204.871582,4168.461426,4171.282227,4144.230957,4552.051270,4415.897461,4336.282227,4472.436035,0.000000,3.000000,64.000000,,,,0.000000,4.000000,4.000000,4.000000,4.000000,4.000000,4.000000,4.000000,4.000000,4.000000,4.000000,4.000000,4.000000,4.000000,4.000000,100.000000,,,,,,,,,,,,,,,,,,,,,,,,,,,,
1703411641.108282,1703411641.108600,62.000000,0.000000,4194.230957,4168.077148,4253.846191,4251.410156,4172.820313,4131.666504,4206.538574,4171.794922,4179.102539,4163.846191,4557.692383,4428.205078,4351.153809,4477.692383,0.000000,3.000000,64.000000,,,,0.000000,4.000000,4.000000,4.000000,4.000000,4.000000,4.000000,4.000000,4.000000,4.000000,4.000000,4.000000,4.000000,4.000000,4.000000,100.000000,,,,,,,,,,,,,,,,,,,,,,,,,,,,
1703411641.116090,1703411641.116408,63.000000,0.000000,4199.358887,4171.794922,4257.948730,4247.563965,4179.615234,4134.871582,4206.922852,4172.051270,4182.307617,4167.692383,4571.666504,4442.563965,4371.410156,4498.974121,0.000000,3.000000,64.000000,,,,0.000000,4.000000,4.000000,4.000000,4.000000,4.000000,4.000000,4.000000,4.000000,4.000000,4.000000,4.000000,4.000000,4.000000,4.000000,100.000000,,,,,,,,,,,,,,,,,,,,,,,,,,,,
1703411641.123898,1703411641.124116,64.000000,0.000000,4205.256348,4182.436035,4262.692383,4253.846191,4178.846191,4137.563965,4205.897461,4178.846191,4188.846191,4168.717773,4581.538574,4449.230957,4381.666504,4513.205078,5081.000000,3.000000,64.000000,,,,0.000000,4.000000,4.000000,4.000000,4.000000,4.000000,4.000000,4.000000,4.000000,4.000000,4.000000,4.000000,4.000000,4.000000,4.000000,100.000000,,,,,,,,,,,,,,,,,16.000000,0.000000,0.743197,0.050476,-0.663147,0.073120,0.985472,-0.021487,0.111342,-17.829666,-36.689621,65.526398
1703411641.131707,1703411641.131924,65.000000,0.000000,4212.307617,4187.563965,4270.128418,4263.589844,4175.897461,4136.410156,4208.333496,4188.974121,4193.333496,4182.563965,4584.230957,4458.846191,4389.102539,4515.769043,5447.000000,3.000000,64.000000,,,,0.000000,4.000000,4.000000,4.000000,4.000000,4.000000,4.000000,4.000000,4.000000,4.000000,4.000000,4.000000,4.000000,4.000000,4.000000,100.000000,,,,,,,,,,,,,,,,,,,,,,,,,,,,
1703411641.139515,1703411641.139632,66.000000,0.000000,4198.589844,4181.538574,4275.641113,4267.179688,4173.461426,4135.641113,4211.922852,4186.794922,4183.974121,4182.436035,4592.179688,4461.922852,4395.000000,4523.717773,5365.000000,3.000000,64.000000,,,,0.000000,4.000000,4.000000,4.000000,4.000000,4.000000,4.000000,4.000000,4.000000,4.000000,4.000000,4.000000,4.000000,4.000000,4.000000,100.000000,,,,,,,,,,,,,,,,,,,,,,,,,,,,
1703411641.147323,1703411641.147440,67.000000,0.000000,4197.307617,4173.461426,4273.974121,4265.000000,4172.563965,4137.820313,4208.974121,4179.743652,4172.179688,4157.179688,4588.717773,4451.025879,4391.153809,4523.846191,5362.000000,3.000000,64.000000,,,,0.000000,4.000000,4.000000,4.000000,4.000000,4.000000,4.000000,4.000000,4.000000,4.000000,4.000000,4.000000,4.000000,4.000000,4.000000,100.000000,,,,,,,,,,,,,,,,,,,,,,,,,,,,
1703411641.155131,1703411641.155148,68.000000,0.000000,4220.769043,4171.922852,4266.282227,4257.307617,4171.153809,4136.025879,4200.000000,4172.692383,4167.948730,4141.794922,4565.128418,4442.307617,4380.128418,4514.358887,5116.000000,3.000000,64.000000,,,,0.000000,4.000000,4.000000,4.000000,4.000000,4.000000,4.000000,4.000000,4.000000,4.000000,4.000000,4.000000,4.000000,4.000000,4.000000,100.000000,,,,,,,,,,,,,,,,,17.000000,0.000000,0.743269,0.050476,-0.663086,0.072937,0.987425,-0.012697,0.107923,-17.880033,-36.653992,65.590431
1703411641.162939,1703411641.162956,69.000000,0.000000,4223.077148,4170.128418,4265.641113,4248.717773,4173.333496,4136.538574,4199.102539,4168.589844,4174.743652,4160.000000,4564.358887,4447.051270,4383.717773,4516.794922,3962.000000,3.000000,64.000000,,,,0.000000,4.000000,4.000000,4.000000,4.000000,4.000000,4.000000,4.000000,4.000000,4.000000,4.000000,4.000000,4.000000,4.000000,4.000000,100.000000,,,,,,,,,,,,,,,,,,,,,,,,,,,,
1703411641.170747,1703411641.170664,70.000000,0.000000,4203.333496,4159.615234,4265.256348,4246.153809,4179.871582,4141.025879,4209.230957,4178.717773,4185.769043,4169.358887,4585.256348,4455.897461,4391.922852,4522.563965,2543.000000,3.000000,64.000000,,,,0.000000,4.000000,4.000000,4.000000,4.000000,4.000000,4.000000,4.000000,4.000000,4.000000,4.000000,4.000000,4.000000,4.000000,4.000000,100.000000,,,,,,,,,,,,,,,,,,,,,,,,,,,,
1703411641.178555,1703411641.178472,71.000000,0.000000,4190.512695,4152.051270,4258.333496,4249.102539,4185.641113,4143.461426,4212.179688,4187.948730,4183.974121,4148.846191,4585.512695,4457.179688,4389.102539,4526.666504,5023.000000,3.000000,64.000000,,,,0.000000,4.000000,4.000000,4.000000,4.000000,4.000000,4.000000,4.000000,4.000000,4.000000,4.000000,4.000000,4.000000,4.000000,4.000000,100.000000,,,,,,,,,,,,,,,,,,,,,,,,,,,,
1703411641.186363,1703411641.186180,72.000000,0.000000,4186.153809,4158.974121,4263.974121,4251.538574,4185.512695,4141.282227,4207.436035,4182.948730,4173.589844,4157.307617,4584.230957,4458.974121,4400.384766,4548.333496,4360.000000,3.000000,64.000000,,,,0.000000,4.000000,4.000000,4.000000,4.000000,4.000000,4.000000,4.000000,4.000000,4.000000,4.000000,4.000000,4.000000,4.000000,4.000000,100.000000,,,,,,,,,,,,,,,,,18.000000,0.000000,0.743388,0.050598,-0.662964,0.072754,0.987914,0.000000,0.109877,-18.058697,-36.588593,65.614716
1703411641.194171,1703411641.194088,73.000000,0.000000,4196.410156,4157.820313,4273.589844,4247.820313,4178.205078,4138.077148,4207.179688,4187.307617,4180.897461,4192.563965,4601.410156,4468.205078,4421.794922,4558.205078,5235.000000,3.000000,64.000000,,,,0.000000,4.000000,4.000000,4.000000,4.000000,4.000000,4.000000,4.000000,4.000000,4.000000,4.000000,4.000000,4.000000,4.000000,4.000000,100.000000,,,,,,,,,,,,,,,,,,,,,,,,,,,,
1703411641.201979,1703411641.201896,74.000000,0.000000,4208.077148,4143.077148,4266.153809,4234.102539,4167.820313,4141.794922,4211.922852,4206.410156,4198.974121,4194.615234,4605.128418,4478.589844,4419.487305,4537.948730,5973.000000,3.000000,64.000000,,,,0.000000,4.000000,4.000000,4.000000,4.000000,4.000000,4.000000,4.000000,4.000000,4.000000,4.000000,4.000000,4.000000,4.000000,4.000000,100.000000,1.000000,83.333336,3.000000,4.000000,4.000000,4.000000,4.000000,4.000000,4.000000,4.000000,4.000000,3.000000,4.000000,4.000000,4.000000,4.000000,,,,,,,,,,,,
1703411641.209787,1703411641.209705,75.000000,0.000000,4196.538574,4143.333496,4267.563965,4229.615234,4164.358887,4148.589844,4215.256348,4207.307617,4198.974121,4190.897461,4605.641113,4484.615234,4406.666504,4541.538574,6138.000000,3.000000,64.000000,,,,0.000000,4.000000,4.000000,4.000000,4.000000,4.000000,4.000000,4.000000,4.000000,4.000000,4.000000,4.000000,4.000000,4.000000,4.000000,100.000000,,,,,,,,,,,,,,,,,,,,,,,,,,,,
1703411641.217595,1703411641.217413,76.000000,0.000000,4194.102539,4161.538574,4282.051270,4247.563965,4175.769043,4144.871582,4212.051270,4190.128418,4185.512695,4200.641113,4615.641113,4482.051270,4420.384766,4573.846191,6648.000000,3.000000,64.000000,,,,0.000000,4.000000,4.000000,4.000000,4.000000,4.000000,4.000000,4.000000,4.000000,4.000000,4.000000,4.000000,4.000000,4.000000,4.000000,100.000000,,,,,,,,,,,,,,,,,19.000000,0.000000,0.743390,0.050659,-0.662964,0.072693,0.976682,-0.010255,0.105970,-18.102827,-36.546398,65.736580
1703411641.225403,1703411641.225221,77.000000,0.000000,4207.051270,4170.384766,4277.948730,4263.077148,4185.384766,4137.436035,4205.769043,4185.256348,4180.641113,4189.102539,4613.461426,4469.743652,4433.589844,4566.666504,6977.000000,3.000000,64.000000,,,,0.000000,4.000000,4.000000,4.000000,4.000000,4.000000,4.000000,4.000000,4.000000,4.000000,4.000000,4.000000,4.000000,4.000000,4.000000,100.000000,,,,,,,,,,,,,,,,,,,,,,,,,,,,
1703411641.233211,1703411641.232929,78.000000,0.000000,4204.358887,4168.077148,4267.179688,4261.922852,4185.128418,4144.743652,4205.897461,4189.230957,4183.717773,4178.205078,4613.589844,4468.589844,4427.051270,4523.717773,5973.000000,3.000000,64.000000,,,,0.000000,4.000000,4.000000,4.000000,4.000000,4.000000,4.000000,4.000000,4.000000,4.000000,4.000000,4.000000,4.000000,4.000000,4.000000,100.000000,,,,,,,,,,,,,,,,,,,,,,,,,,,,
1703411641.241019,1703411641.240837,79.000000,0.000000,4194.871582,4170.128418,4266.538574,4256.922852,4185.641113,4149.487305,4209.615234,4185.128418,4177.692383,4187.948730,4611.794922,4476.410156,4418.589844,4512.692383,6138.000000,3.000000,64.000000,,,,0.000000,4.000000,4.000000,4.000000,4.000000,4.000000,4.000000,4.000000,4.000000,4.000000,4.000000,4.000000,4.000000,4.000000,4.000000,100.000000,,,,,,,,,,,,,,,,,,,,,,,,,,,,
1703411641.248827,1703411641.248645,80.000000,0.000000,4187.948730,4170.384766,4257.563965,4252.692383,4183.333496,4143.333496,4208.205078,4180.769043,4165.256348,4184.230957,4590.897461,4459.743652,4407.563965,4532.436035,6648.000000,3.000000,64.000000,,,,0.000000,4.000000,4.000000,4.000000,4.000000,4.000000,4.000000,4.000000,4.000000,4.000000,4.000000,4.000000,4.000000,4.000000,4.000000,100.000000,,,,,,,,,,,,,,,,,20.000000,0.000000,0.743441,0.050964,-0.662903,0.072510,0.994262,-0.007813,0.112318,-18.092545,-36.558426,65.846252
1703411641.256635,1703411641.256553,81.000000,0.000000,4181.153809,4167.436035,4247.436035,4248.077148,4178.717773,4142.563965,4204.230957,4181.794922,4167.692383,4172.563965,4585.897461,4441.282227,4403.205078,4538.717773,6977.000000,3.000000,64.000000,,,,0.000000,4.000000,4.000000,4.000000,4.000000,4.000000,4.000000,4.000000,4.000000,4.000000,4.000000,4.000000,4.000000,4.000000,4.000000,100.000000,,,,,,,,,,,,,,,,,,,,,,,,,,,,
1703411641.264443,1703411641.264360,82.000000,0.000000,4185.769043,4169.102539,4257.948730,4249.230957,4183.333496,4146.282227,4205.256348,4181.538574,4179.871582,4187.563965,4603.589844,4458.461426,4414.487305,4535.256348,5973.000000,3.000000,64.000000,,,,0.000000,4.000000,4.000000,4.000000,4.000000,4.000000,4.000000,4.000000,4.000000,4.000000,4.000000,4.000000,4.000000,4.000000,4.000000,100.000000,,,,,,,,,,,,,,,,,,,,,,,,,,,,
1703411641.272251,1703411641.272268,83.000000,0.000000,4197.948730,4175.256348,4276.153809,4255.256348,4188.974121,4149.358887,4209.230957,4192.948730,4193.205078,4211.153809,4610.769043,4483.333496,4423.846191,4547.436035,6138.000000,3.000000,64.000000,,,,0.000000,4.000000,4.000000,4.000000,4.000000,4.000000,4.000000,4.000000,4.000000,4.000000,4.000000,4.000000,4.000000,4.000000,4.000000,100.000000,,,,,,,,,,,,,,,,,,,,,,,,,,,,
1703411641.280059,1703411641.280076,84.000000,0.000000,4204.358887,4173.846191,4281.538574,4253.717773,4178.974121,4152.436035,4214.230957,4202.692383,4191.025879,4186.794922,4602.820313,4478.333496,4415.256348,4554.230957,6648.000000,3.000000,64.000000,,,,0.000000,4.000000,4.000000,4.000000,4.000000,4.000000,4.000000,4.000000,4.000000,4.000000,4.000000,4.000000,4.000000,4.000000,4.000000,100.000000,,,,,,,,,,,,,,,,,21.000000,0.000000,0.743382,0.051208,-0.662964,0.072388,1.014284,-0.008302,0.110853,-18.049957,-36.569252,65.978294
1703411641.287867,1703411641.287984,85.000000,0.000000,4206.025879,4163.333496,4280.256348,4246.025879,4168.205078,4152.307617,4216.153809,4192.563965,4181.153809,4161.153809,4597.436035,4461.282227,4408.717773,4539.615234,6977.000000,3.000000,64.000000,,,,0.000000,4.000000,4.000000,4.000000,4.000000,4.000000,4.000000,4.000000,4.000000,4.000000,4.000000,4.000000,4.000000,4.000000,4.000000,100.000000,,,,,,,,,,,,,,,,,,,,,,,,,,,,
1703411641.295676,1703411641.295792,86.000000,0.000000,4200.256348,4158.077148,4278.205078,4244.102539,4168.077148,4150.384766,4213.974121,4191.794922,4195.128418,4205.512695,4600.769043,4466.153809,4411.666504,4531.410156,5973.000000,3.000000,64.000000,,,,0.000000,4.000000,4.000000,4.000000,4.000000,4.000000,4.000000,4.000000,4.000000,4.000000,4.000000,4.000000,4.000000,4.000000,4.000000,100.000000,,,,,,,,,,,,,,,,,,,,,,,,,,,,
1703411641.303484,1703411641.303700,87.000000,0.000000,4187.948730,4156.538574,4267.948730,4241.025879,4168.333496,4150.897461,4213.589844,4200.897461,4207.563965,4227.820313,4607.179688,4475.512695,4406.025879,4534.871582,6138.000000,3.000000,64.000000,,,,0.000000,4.000000,4.000000,4.000000,4.000000,4.000000,4.000000,4.000000,4.000000,4.000000,4.000000,4.000000,4.000000,4.000000,4.000000,100.000000,,,,,,,,,,,,,,,,,,,,,,,,,,,,
1703411641.311292,1703411641.311508,88.000000,0.000000,4181.666504,4148.461426,4256.410156,4230.384766,4168.717773,4146.794922,4213.717773,4194.358887,4186.794922,4180.128418,4601.153809,4463.333496,4398.077148,4527.692383,6648.000000,3.000000,64.000000,,,,0.000000,4.000000,4.000000,4.000000,4.000000,4.000000,4.000000,4.000000,4.000000,4.000000,4.000000,4.000000,4.000000,4.000000,4.000000,100.000000,,,,,,,,,,,,,,,,,22.000000,0.000000,0.743275,0.051270,-0.663086,0.072327,0.987914,-0.015139,0.112318,-17.944962,-36.545658,65.913803
1703411641.319100,1703411641.319216,89.000000,0.000000,4183.333496,4150.769043,4259.871582,4234.230957,4175.897461,4137.692383,4209.615234,4177.563965,4164.743652,4176.922852,4593.846191,4455.641113,4403.846191,4509.102539,6977.000000,3.000000,64.000000,,,,0.000000,4.000000,4.000000,4.000000,4.000000,4.000000,4.000000,4.000000,4.000000,4.000000,4.000000,4.000000,4.000000,4.000000,4.000000,100.000000,,,,,,,,,,,,,,,,,,,,,,,,,,,,
1703411641.326908,1703411641.327024,90.000000,0.000000,4185.128418,4174.230957,4269.615234,4255.769043,4183.846191,4138.589844,4203.205078,4175.897461,4170.128418,4217.563965,4610.512695,4467.948730,4422.307617,4509.615234,5973.000000,3.000000,64.000000,,,,0.000000,4.000000,4.000000,4.000000,4.000000,4.000000,4.000000,4.000000,4.000000,4.000000,4.000000,4.000000,4.000000,4.000000,4.000000,100.000000,,,,,,,,,,,,,,,,,,,,,,,,,,,,
1703411641.334716,1703411641.334732,91.000000,0.000000,4187.179688,4185.128418,4272.692383,4263.461426,4187.692383,4147.948730,4204.743652,4182.692383,4178.077148,4210.000000,4624.743652,4468.205078,4429.615234,4534.743652,6138.000000,3.000000,64.000000,,,,0.000000,4.000000,4.000000,4.000000,4.000000,4.000000,4.000000,4.000000,4.000000,4.000000,4.000000,4.000000,4.000000,4.000000,4.000000,100.000000,,,,,,,,,,,,,,,,,,,,,,,,,,,,
1703411641.342524,1703411641.342540,92.000000,0.000000,4199.102539,4182.820313,4271.794922,4261.794922,4186.025879,4154.743652,4215.769043,4182.307617,4178.333496,4188.461426,4620.128418,4458.717773,4431.153809,4556.410156,6648.000000,3.000000,64.000000,,,,0.000000,4.000000,4.000000,4.000000,4.000000,4.000000,4.000000,4.000000,4.000000,4.000000,4.000000,4.000000,4.000000,4.000000,4.000000,100.000000,,,,,,,,,,,,,,,,,23.000000,0.000000,0.742984,0.051453,-0.663391,0.072388,0.986449,-0.015139,0.110365,-17.950464,-36.424427,65.872421
1703411641.350332,1703411641.350248,93.000000,0.000000,4214.743652,4188.333496,4272.563965,4261.922852,4180.000000,4155.897461,4218.333496,4181.025879,4181.922852,4180.512695,4615.128418,4467.179688,4435.512695,4558.846191,6977.000000,3.000000,64.000000,,,,0.000000,4.000000,4.000000,4.000000,4.000000,4.000000,4.000000,4.000000,4.000000,4.000000,4.000000,4.000000,4.000000,4.000000,4.000000,100.000000,,,,,,,,,,,,,,,,,,,,,,,,,,,,
1703411641.358140,1703411641.358056,94.000000,0.000000,4217.051270,4183.205078,4274.615234,4254.743652,4181.410156,4152.563965,4213.846191,4185.384766,4182.948730,4162.563965,4613.846191,4474.743652,4429.487305,4545.641113,5973.000000,3.000000,64.000000,,,,0.000000,4.000000,4.000000,4.000000,4.000000,4.000000,4.000000,4.000000,4.000000,4.000000,4.000000,4.000000,4.000000,4.000000,4.000000,100.000000,,,,,,,,,,,,,,,,,,,,,,,,,,,,
1703411641.365948,1703411641.365764,95.000000,0.000000,4208.717773,4171.922852,4275.384766,4248.077148,4183.077148,4146.538574,4213.077148,4187.692383,4182.563965,4175.897461,4605.641113,4469.487305,4418.974121,4528.974121,6138.000000,3.000000,64.000000,,,,0.000000,4.000000,4.000000,4.000000,4.000000,4.000000,4.000000,4.000000,4.000000,4.000000,4.000000,4.000000,4.000000,4.000000,4.000000,100.000000,,,,,,,,,,,,,,,,,,,,,,,,,,,,
1703411641.373756,1703411641.373572,96.000000,0.000000,4198.846191,4170.000000,4276.153809,4247.948730,4166.922852,4143.205078,4213.077148,4183.333496,4180.897461,4200.641113,4602.436035,4473.077148,4414.358887,4525.769043,6648.000000,3.000000,64.000000,,,,0.000000,4.000000,4.000000,4.000000,4.000000,4.000000,4.000000,4.000000,4.000000,4.000000,4.000000,4.000000,4.000000,4.000000,4.000000,100.000000,,,,,,,,,,,,,,,,,24.000000,0.000000,0.742765,0.051636,-0.663635,0.072266,0.972775,-0.003418,0.104017,-18.122086,-36.381985,65.935181
1703411641.381564,1703411641.381280,97.000000,0.000000,4184.871582,4164.358887,4275.512695,4245.512695,4155.641113,4145.512695,4210.897461,4181.922852,4172.820313,4180.256348,4598.846191,4476.153809,4405.128418,4529.871582,6977.000000,3.000000,64.000000,,,,0.000000,4.000000,4.000000,4.000000,4.000000,4.000000,4.000000,4.000000,4.000000,4.000000,4.000000,4.000000,4.000000,4.000000,4.000000,100.000000,,,,,,,,,,,,,,,,,,,,,,,,,,,,
1703411641.389372,1703411641.389188,98.000000,0.000000,4184.871582,4160.769043,4277.179688,4246.153809,4169.487305,4150.000000,4211.282227,4182.563965,4172.692383,4164.358887,4594.487305,4472.179688,4397.179688,4517.948730,5973.000000,3.000000,64.000000,,,,0.000000,4.000000,4.000000,4.000000,4.000000,4.000000,4.000000,4.000000,4.000000,4.000000,4.000000,4.000000,4.000000,4.000000,4.000000,100.000000,,,,,,,,,,,,,,,,,,,,,,,,,,,,
1703411641.397180,1703411641.396997,99.000000,0.000000,4205.769043,4164.487305,4281.666504,4243.717773,4178.589844,4150.641113,4215.512695,4192.820313,4196.153809,4184.487305,4617.692383,4483.077148,4404.743652,4501.922852,6138.000000,3.000000,64.000000,,,,0.000000,4.000000,4.000000,4.000000,4.000000,4.000000,4.000000,4.000000,4.000000,4.000000,4.000000,4.000000,4.000000,4.000000,4.000000,100.000000,,,,,,,,,,,,,,,,,,,,,,,,,,,,
1703411641.404988,1703411641.404904,100.000000,0.000000,4199.230957,4153.205078,4284.487305,4232.179688,4167.436035,4143.717773,4214.230957,4202.692383,4208.205078,4191.410156,4632.948730,4491.153809,4409.358887,4505.128418,6648.000000,3.000000,64.000000,,,,0.000000,4.000000,4.000000,4.000000,4.000000,4.000000,4.000000,4.000000,4.000000,4.000000,4.000000,4.000000,4.000000,4.000000,4.000000,100.000000,,,,,,,,,,,,,,,,,25.000000,0.000000,0.742579,0.051697,-0.663818,0.072449,0.992797,-0.013185,0.100598,-18.143209,-36.343784,65.924995
1703411641.412796,1703411641.412712,101.000000,0.000000,4173.717773,4148.589844,4286.025879,4237.307617,4160.897461,4136.922852,4208.974121,4186.025879,4191.153809,4181.794922,4612.436035,4468.974121,4408.846191,4519.743652,6977.000000,3.000000,64.000000,,,,0.000000,4.000000,4.000000,4.000000,4.000000,4.000000,4.000000,4.000000,4.000000,4.000000,4.000000,4.000000,4.000000,4.000000,4.000000,100.000000,,,,,,,,,,,,,,,,,,,,,,,,,,,,
1703411641.420604,1703411641.420620,102.000000,0.000000,4188.461426,4172.051270,4287.436035,4252.563965,4169.615234,4139.230957,4212.436035,4166.410156,4177.948730,4181.666504,4597.179688,4452.051270,4412.307617,4523.333496,5973.000000,3.000000,64.000000,,,,0.000000,4.000000,4.000000,4.000000,4.000000,4.000000,4.000000,4.000000,4.000000,4.000000,4.000000,4.000000,4.000000,4.000000,4.000000,100.000000,,,,,,,,,,,,,,,,,,,,,,,,,,,,
1703411641.428412,1703411641.428428,103.000000,0.000000,4208.589844,4178.205078,4282.563965,4246.794922,4178.974121,4143.077148,4218.077148,4168.333496,4175.512695,4174.358887,4594.230957,4460.128418,4403.974121,4512.307617,6138.000000,3.000000,64.000000,,,,0.000000,4.000000,4.000000,4.000000,4.000000,4.000000,4.000000,4.000000,4.000000,4.000000,4.000000,4.000000,4.000000,4.000000,4.000000,100.000000,,,,,,,,,,,,,,,,,,,,,,,,,,,,
1703411641.436221,1703411641.436336,104.000000,0.000000,4192.436035,4165.641113,4275.128418,4244.743652,4181.922852,4144.102539,4215.512695,4169.615234,4170.512695,4153.846191,4593.846191,4460.769043,4394.487305,4503.205078,6648.000000,3.000000,64.000000,,,,0.000000,4.000000,4.000000,4.000000,4.000000,4.000000,4.000000,4.000000,4.000000,4.000000,4.000000,4.000000,4.000000,4.000000,4.000000,100.000000,,,,,,,,,,,,,,,,,26.000000,0.000000,0.742335,0.051636,-0.664063,0.072754,0.996704,-0.010255,0.105482,-18.012222,-36.209408,65.882492
1703411641.444029,1703411641.444144,105.000000,0.000000,4181.922852,4171.538574,4271.794922,4255.512695,4183.974121,4145.769043,4211.666504,4166.153809,4174.615234,4142.820313,4603.974121,4450.128418,4397.436035,4499.871582,6977.000000,3.000000,64.000000,,,,0.000000,4.000000,4.000000,4.000000,4.000000,4.000000,4.000000,4.000000,4.000000,4.000000,4.000000,4.000000,4.000000,4.000000,4.000000,100.000000,,,,,,,,,,,,,,,,,,,,,,,,,,,,
1703411641.451836,1703411641.452052,106.000000,0.000000,4185.769043,4178.589844,4267.692383,4256.666504,4185.000000,4147.436035,4212.051270,4173.077148,4186.025879,4148.077148,4598.717773,4446.794922,4397.948730,4490.641113,5973.000000,3.000000,64.000000,,,,0.000000,4.000000,4.000000,4.000000,4.000000,4.000000,4.000000,4.000000,4.000000,4.000000,4.000000,4.000000,4.000000,4.000000,4.000000,100.000000,,,,,,,,,,,,,,,,,,,,,,,,,,,,
1703411641.459645,1703411641.459860,107.000000,0.000000,4187.051270,4174.230957,4263.974121,4253.846191,4176.922852,4145.769043,4213.589844,4175.512695,4183.077148,4153.333496,4578.717773,4450.512695,4392.820313,4485.897461,6138.000000,3.000000,64.000000,,,,0.000000,4.000000,4.000000,4.000000,4.000000,4.000000,4.000000,4.000000,4.000000,4.000000,4.000000,4.000000,4.000000,4.000000,4.000000,100.000000,,,,,,,,,,,,,,,,,,,,,,,,,,,,
1703411641.467453,1703411641.467768,108.000000,0.000000,4194.358887,4173.077148,4271.922852,4254.487305,4167.563965,4142.179688,4214.230957,4170.384766,4181.922852,4156.538574,4588.846191,4460.512695,4396.153809,4499.358887,6648.000000,3.000000,64.000000,,,,0.000000,4.000000,4.000000,4.000000,4.000000,4.000000,4.000000,4.000000,4.000000,4.000000,4.000000,4.000000,4.000000,4.000000,4.000000,100.000000,,,,,,,,,,,,,,,,,27.000000,0.000000,0.742263,0.051636,-0.664124,0.072937,0.986937,-0.020022,0.106458,-18.011000,-36.255135,65.810913
1703411641.475261,1703411641.475576,109.000000,0.000000,4195.384766,4171.666504,4283.717773,4252.436035,4174.871582,4145.256348,4214.487305,4172.179688,4184.358887,4155.769043,4601.153809,4466.153809,4395.000000,4513.205078,6977.000000,3.000000,64.000000,,,,0.000000,4.000000,4.000000,4.000000,4.000000,4.000000,4.000000,4.000000,4.000000,4.000000,4.000000,4.000000,4.000000,4.000000,4.000000,100.000000,,,,,,,,,,,,,,,,,,,,,,,,,,,,
1703411641.483069,1703411641.483484,110.000000,0.000000,4193.461426,4171.410156,4285.769043,4255.128418,4182.563965,4148.717773,4216.025879,4165.897461,4165.769043,4130.512695,4578.461426,4456.410156,4375.384766,4504.230957,5973.000000,3.000000,64.000000,,,,0.000000,4.000000,4.000000,4.000000,4.000000,4.000000,4.000000,4.000000,4.000000,4.000000,4.000000,4.000000,4.000000,4.000000,4.000000,100.000000,,,,,,,,,,,,,,,,,,,,,,,,,,,,
1703411641.490877,1703411641.491292,111.000000,0.000000,4209.230957,4177.307617,4278.717773,4256.922852,4175.000000,4145.512695,4215.897461,4156.794922,4153.717773,4113.333496,4559.615234,4446.153809,4357.692383,4482.820313,6138.000000,3.000000,64.000000,,,,0.000000,4.000000,4.000000,4.000000,4.000000,4.000000,4.000000,4.000000,4.000000,4.000000,4.000000,4.000000,4.000000,4.000000,4.000000,100.000000,,,,,,,,,,,,,,,,,,,,,,,,,,,,
1703411641.498685,1703411641.499000,112.000000,0.000000,4201.282227,4167.436035,4271.153809,4241.025879,4167.820313,4145.384766,4215.512695,4162.820313,4173.205078,4138.333496,4567.948730,4444.102539,4353.974121,4466.794922,6648.000000,3.000000,64.000000,,,,0.000000,4.000000,4.000000,4.000000,4.000000,4.000000,4.000000,4.000000,4.000000,4.000000,4.000000,4.000000,4.000000,4.000000,4.000000,100.000000,,,,,,,,,,,,,,,,,28.000000,0.000000,0.742089,0.051514,-0.664307,0.073120,0.986937,-0.019045,0.091320,-17.959900,-36.229618,65.879822
1703411641.506493,1703411641.506908,113.000000,0.000000,4170.897461,4148.333496,4268.974121,4229.487305,4169.487305,4149.743652,4221.538574,4174.871582,4191.025879,4159.871582,4579.487305,4438.205078,4360.641113,4465.512695,6977.000000,3.000000,64.000000,,,,0.000000,4.000000,4.000000,4.000000,4.000000,4.000000,4.000000,4.000000,4.000000,4.000000,4.000000,4.000000,4.000000,4.000000,4.000000,100.000000,,,,,,,,,,,,,,,,,,,,,,,,,,,,
1703411641.514301,1703411641.514716,114.000000,0.000000,4176.025879,4153.205078,4272.948730,4239.615234,4171.538574,4148.461426,4228.589844,4181.666504,4190.512695,4164.871582,4584.358887,4436.410156,4370.256348,4483.077148,5973.000000,3.000000,64.000000,,,,0.000000,4.000000,4.000000,4.000000,4.000000,4.000000,4.000000,4.000000,4.000000,4.000000,4.000000,4.000000,4.000000,4.000000,4.000000,100.000000,,,,,,,,,,,,,,,,,,,,,,,,,,,,
1703411641.522109,1703411641.522624,115.000000,0.000000,4191.794922,4169.487305,4273.461426,4247.820313,4171.538574,4145.384766,4231.922852,4183.846191,4186.025879,4173.717773,4587.179688,4440.256348,4378.461426,4493.974121,6138.000000,3.000000,64.000000,,,,0.000000,4.000000,4.000000,4.000000,4.000000,4.000000,4.000000,4.000000,4.000000,4.000000,4.000000,4.000000,4.000000,4.000000,4.000000,100.000000,,,,,,,,,,,,,,,,,,,,,,,,,,,,
1703411641.529917,1703411641.530432,116.000000,0.000000,4182.563965,4169.102539,4266.538574,4244.871582,4171.794922,4148.461426,4233.205078,4176.025879,4173.846191,4169.871582,4583.077148,4441.410156,4372.563965,4480.128418,6648.000000,3.000000,64.000000,,,,0.000000,4.000000,4.000000,4.000000,4.000000,4.000000,4.000000,4.000000,4.000000,4.000000,4.000000,4.000000,4.000000,4.000000,4.000000,100.000000,,,,,,,,,,,,,,,,,29.000000,0.000000,0.742083,0.051514,-0.664307,0.073181,0.986449,-0.024417,0.100110,-18.063910,-36.356659,65.758507
1703411641.537725,1703411641.538240,117.000000,0.000000,4184.871582,4164.102539,4268.846191,4248.333496,4170.384766,4148.461426,4232.948730,4160.000000,4158.077148,4156.794922,4578.461426,4439.358887,4360.000000,4471.794922,6977.000000,3.000000,64.000000,,,,0.000000,4.000000,4.000000,4.000000,4.000000,4.000000,4.000000,4.000000,4.000000,4.000000,4.000000,4.000000,4.000000,4.000000,4.000000,100.000000,,,,,,,,,,,,,,,,,,,,,,,,,,,,
1703411641.545533,1703411641.545949,118.000000,0.000000,4198.333496,4173.333496,4280.256348,4260.384766,4170.384766,4144.358887,4228.333496,4149.743652,4150.641113,4139.358887,4574.487305,4431.666504,4358.974121,4478.974121,5973.000000,3.000000,64.000000,,,,0.000000,4.000000,4.000000,4.000000,4.000000,4.000000,4.000000,4.000000,4.000000,4.000000,4.000000,4.000000,4.000000,4.000000,4.000000,100.000000,,,,,,,,,,,,,,,,,,,,,,,,,,,,
1703411641.553341,1703411641.553757,119.000000,0.000000,4196.666504,4185.000000,4280.897461,4263.974121,4173.205078,4144.743652,4224.743652,4151.025879,4149.102539,4115.897461,4568.461426,4427.307617,4363.717773,4482.692383,6138.000000,3.000000,64.000000,,,,0.000000,4.000000,4.000000,4.000000,4.000000,4.000000,4.000000,4.000000,4.000000,4.000000,4.000000,4.000000,4.000000,4.000000,4.000000,100.000000,,,,,,,,,,,,,,,,,,,,,,,,,,,,
1703411641.561149,1703411641.561465,120.000000,0.000000,4198.461426,4187.179688,4283.461426,4266.538574,4173.589844,4146.666504,4229.615234,4161.538574,4163.077148,4121.922852,4575.000000,4443.077148,4369.871582,4489.358887,6648.000000,3.000000,64.000000,,,,0.000000,4.000000,4.000000,4.000000,4.000000,4.000000,4.000000,4.000000,4.000000,4.000000,4.000000,4.000000,4.000000,4.000000,4.000000,100.000000,,,,,,,,,,,,,,,,,30.000000,0.000000,0.741959,0.051636,-0.664429,0.073242,0.980588,-0.018069,0.103040,-18.024185,-36.337658,65.782654
1703411641.568957,1703411641.569373,121.000000,0.000000,4204.358887,4185.512695,4286.410156,4269.487305,4174.871582,4147.436035,4233.333496,4172.948730,4178.846191,4140.000000,4588.846191,4456.153809,4373.333496,4497.820313,6977.000000,3.000000,64.000000,,,,0.000000,4.000000,4.000000,4.000000,4.000000,4.000000,4.000000,4.000000,4.000000,4.000000,4.000000,4.000000,4.000000,4.000000,4.000000,100.000000,,,,,,,,,,,,,,,,,,,,,,,,,,,,
1703411641.576765,1703411641.577181,122.000000,0.000000,4187.051270,4175.256348,4277.563965,4258.846191,4173.077148,4143.974121,4230.769043,4182.051270,4178.846191,4135.769043,4583.846191,4442.948730,4370.641113,4488.205078,5973.000000,3.000000,64.000000,,,,0.000000,4.000000,4.000000,4.000000,4.000000,4.000000,4.000000,4.000000,4.000000,4.000000,4.000000,4.000000,4.000000,4.000000,4.000000,100.000000,,,,,,,,,,,,,,,,,,,,,,,,,,,,
1703411641.584573,1703411641.585089,123.000000,0.000000,4176.153809,4160.384766,4276.153809,4244.615234,4166.666504,4142.436035,4231.794922,4186.410156,4183.717773,4141.922852,4582.692383,4438.974121,4372.051270,4476.153809,6138.000000,3.000000,64.000000,,,,0.000000,4.000000,4.000000,4.000000,4.000000,4.000000,4.000000,4.000000,4.000000,4.000000,4.000000,4.000000,4.000000,4.000000,4.000000,100.000000,,,,,,,,,,,,,,,,,,,,,,,,,,,,
1703411641.592381,1703411641.592897,124.000000,0.000000,4200.256348,4159.102539,4279.358887,4242.179688,4170.641113,4145.256348,4235.128418,4176.922852,4186.666504,4158.846191,4598.974121,4455.897461,4378.589844,4486.410156,6648.000000,3.000000,64.000000,,,,0.000000,4.000000,4.000000,4.000000,4.000000,4.000000,4.000000,4.000000,4.000000,4.000000,4.000000,4.000000,4.000000,4.000000,4.000000,100.000000,,,,,,,,,,,,,,,,,31.000000,0.000000,0.741848,0.051758,-0.664551,0.073181,0.989379,-0.020022,0.094250,-18.005100,-36.303894,65.704391
1703411641.600190,1703411641.600805,125.000000,0.000000,4208.589844,4171.922852,4274.358887,4247.820313,4185.897461,4146.538574,4231.922852,4168.205078,4174.102539,4161.666504,4597.051270,4459.358887,4387.051270,4502.948730,6977.000000,3.000000,64.000000,,,,0.000000,4.000000,4.000000,4.000000,4.000000,4.000000,4.000000,4.000000,4.000000,4.000000,4.000000,4.000000,4.000000,4.000000,4.000000,100.000000,,,,,,,,,,,,,,,,,,,,,,,,,,,,
1703411641.607998,1703411641.608613,126.000000,0.000000,4180.512695,4176.922852,4277.692383,4249.487305,4189.615234,4147.948730,4228.333496,4171.153809,4174.743652,4168.461426,4590.897461,4452.820313,4393.205078,4501.153809,5973.000000,3.000000,64.000000,,,,0.000000,4.000000,4.000000,4.000000,4.000000,4.000000,4.000000,4.000000,4.000000,4.000000,4.000000,4.000000,4.000000,4.000000,4.000000,100.000000,,,,,,,,,,,,,,,,,,,,,,,,,,,,
1703411641.615806,1703411641.616520,127.000000,0.000000,4171.282227,4165.769043,4281.410156,4247.692383,4178.077148,4150.384766,4231.025879,4172.692383,4187.692383,4173.333496,4596.538574,4449.743652,4385.128418,4485.897461,64.000000,3.000000,64.000000,,,,0.000000,4.000000,4.000000,4.000000,4.000000,4.000000,4.000000,4.000000,4.000000,4.000000,4.000000,4.000000,4.000000,4.000000,4.000000,100.000000,,,,,,,,,,,,,,,,,,,,,,,,,,,,
1703411641.623614,1703411641.624328,0.000000,0.000000,4190.128418,4160.769043,4265.256348,4245.128418,4176.538574,4154.230957,4232.179688,4167.948730,4179.743652,4157.051270,4595.128418,4441.025879,4370.769043,4480.641113,5091.000000,3.000000,64.000000,,,,0.000000,4.000000,4.000000,4.000000,4.000000,4.000000,4.000000,4.000000,4.000000,4.000000,4.000000,4.000000,4.000000,4.000000,4.000000,100.000000,,,,,,,,,,,,,,,,,0.000000,0.000000,0.741731,0.051941,-0.664673,0.073120,0.987425,-0.013674,0.097180,-18.104589,-36.290169,65.650620
1703411641.631422,1703411641.632236,1.000000,0.000000,4193.205078,4166.153809,4253.717773,4243.077148,4183.333496,4155.000000,4229.871582,4168.846191,4166.922852,4147.051270,4580.256348,4427.820313,4374.230957,4486.922852,5452.000000,3.000000,64.000000,,,,0.000000,4.000000,4.000000,4.000000,4.000000,4.000000,4.000000,4.000000,4.000000,4.000000,4.000000,4.000000,4.000000,4.000000,4.000000,100.000000,,,,,,,,,,,,,,,,,,,,,,,,,,,,
1703411641.639230,1703411641.640144,2.000000,0.000000,4180.897461,4170.256348,4258.205078,4244.230957,4183.589844,4150.641113,4229.871582,4165.000000,4167.948730,4153.205078,4568.077148,4423.077148,4377.563965,4482.563965,5332.000000,3.000000,64.000000,,,,0.000000,4.000000,4.000000,4.000000,4.000000,4.000000,4.000000,4.000000,4.000000,4.000000,4.000000,4.000000,4.000000,4.000000,4.000000,100.000000,,,,,,,,,,,,,,,,,,,,,,,,,,,,
1703411641.647038,1703411641.647953,3.000000,0.000000,4185.128418,4172.948730,4262.307617,4252.692383,4180.128418,4145.128418,4231.666504,4164.871582,4177.563965,4151.666504,4573.077148,4429.615234,4370.512695,4476.794922,5362.000000,3.000000,64.000000,,,,0.000000,4.000000,4.000000,4.000000,4.000000,4.000000,4.000000,4.000000,4.000000,4.000000,4.000000,4.000000,4.000000,4.000000,4.000000,100.000000,,,,,,,,,,,,,,,,,,,,,,,,,,,,
1703411641.654846,1703411641.655761,4.000000,0.000000,4199.487305,4182.563965,4274.871582,4265.897461,4181.538574,4145.384766,4232.307617,4187.948730,4194.358887,4154.743652,4592.948730,4448.333496,4383.461426,4495.384766,5113.000000,3.000000,64.000000,,,,0.000000,4.000000,4.000000,4.000000,4.000000,4.000000,4.000000,4.000000,4.000000,4.000000,4.000000,4.000000,4.000000,4.000000,4.000000,100.000000,,,,,,,,,,,,,,,,,1.000000,0.000000,0.741550,0.052185,-0.664856,0.073120,0.978635,-0.016604,0.088390,-17.944132,-36.294487,65.735558
1703411641.662654,1703411641.663669,5.000000,0.000000,4202.179688,4191.025879,4285.128418,4265.256348,4185.641113,4154.871582,4235.256348,4202.948730,4204.871582,4168.461426,4606.410156,4467.563965,4405.000000,4512.436035,3964.000000,3.000000,64.000000,,,,0.000000,4.000000,4.000000,4.000000,4.000000,4.000000,4.000000,4.000000,4.000000,4.000000,4.000000,4.000000,4.000000,4.000000,4.000000,100.000000,,,,,,,,,,,,,,,,,,,,,,,,,,,,
1703411641.670462,1703411641.671477,6.000000,0.000000,4196.153809,4181.025879,4275.769043,4252.051270,4181.410156,4157.820313,4235.897461,4192.820313,4200.641113,4175.000000,4601.538574,4462.563965,4401.153809,4498.846191,2543.000000,3.000000,64.000000,,,,0.000000,4.000000,4.000000,4.000000,4.000000,4.000000,4.000000,4.000000,4.000000,4.000000,4.000000,4.000000,4.000000,4.000000,4.000000,100.000000,,,,,,,,,,,,,,,,,,,,,,,,,,,,
1703411641.678270,1703411641.679185,7.000000,0.000000,4197.307617,4169.358887,4268.974121,4246.153809,4178.333496,4153.205078,4233.077148,4180.512695,4193.077148,4176.153809,4602.692383,4451.666504,4396.666504,4484.615234,5021.000000,3.000000,64.000000,,,,0.000000,4.000000,4.000000,4.000000,4.000000,4.000000,4.000000,4.000000,4.000000,4.000000,4.000000,4.000000,4.000000,4.000000,4.000000,100.000000,,,,,,,,,,,,,,,,,,,,,,,,,,,,
1703411641.686078,1703411641.686993,8.000000,0.000000,4201.666504,4170.641113,4271.025879,4248.717773,4181.922852,4152.179688,4233.717773,4174.615234,4178.717773,4173.846191,4606.410156,4459.230957,4407.948730,4495.512695,4347.000000,3.000000,64.000000,,,,0.000000,4.000000,4.000000,4.000000,4.000000,4.000000,4.000000,4.000000,4.000000,4.000000,4.000000,4.000000,4.000000,4.000000,4.000000,100.000000,,,,,,,,,,,,,,,,,2.000000,0.000000,0.741607,0.052490,-0.664795,0.072876,0.992309,-0.018557,0.094738,-17.933052,-36.348370,65.811996
1703411641.693886,1703411641.694701,9.000000,0.000000,4181.025879,4172.563965,4271.025879,4247.436035,4185.256348,4158.974121,4235.128418,4165.641113,4165.128418,4166.794922,4600.000000,4462.948730,4407.179688,4496.922852,5255.000000,3.000000,64.000000,,,,0.000000,4.000000,4.000000,4.000000,4.000000,4.000000,4.000000,4.000000,4.000000,4.000000,4.000000,4.000000,4.000000,4.000000,4.000000,100.000000,,,,,,,,,,,,,,,,,,,,,,,,,,,,
1703411641.701694,1703411641.702509,10.000000,0.000000,4162.436035,4166.153809,4272.179688,4243.077148,4186.794922,4163.589844,4232.820313,4165.897461,4172.436035,4169.615234,4599.358887,4451.666504,4393.974121,4484.487305,5948.000000,3.000000,64.000000,,,,0.000000,4.000000,4.000000,4.000000,4.000000,4.000000,4.000000,4.000000,4.000000,4.000000,4.000000,4.000000,4.000000,4.000000,4.000000,100.000000,1.000000,83.333336,3.000000,4.000000,4.000000,4.000000,4.000000,4.000000,4.000000,4.000000,4.000000,3.000000,4.000000,4.000000,4.000000,4.000000,,,,,,,,,,,,
1703411641.709502,1703411641.710217,11.000000,0.000000,4181.794922,4163.461426,4278.846191,4246.538574,4181.282227,4163.846191,4236.922852,4178.333496,4185.641113,4175.641113,4609.615234,4451.282227,4395.256348,4496.153809,6142.000000,3.000000,64.000000,,,,0.000000,4.000000,4.000000,4.000000,4.000000,4.000000,4.000000,4.000000,4.000000,4.000000,4.000000,4.000000,4.000000,4.000000,4.000000,100.000000,,,,,,,,,,,,,,,,,,,,,,,,,,,,
1703411641.717310,1703411641.718025,12.000000,0.000000,4203.717773,4173.974121,4285.512695,4260.000000,4173.333496,4166.153809,4240.000000,4186.666504,4188.717773,4167.563965,4622.179688,4469.230957,4408.717773,4510.512695,6629.000000,3.000000,64.000000,,,,0.000000,4.000000,4.000000,4.000000,4.000000,4.000000,4.000000,4.000000,4.000000,4.000000,4.000000,4.000000,4.000000,4.000000,4.000000,100.000000,,,,,,,,,,,,,,,,,3.000000,0.000000,0.741557,0.052856,-0.664856,0.072571,0.988402,-0.006837,0.106947,-17.889746,-36.346867,65.764130
1703411641.725118,1703411641.725733,13.000000,0.000000,4201.153809,4178.589844,4286.794922,4265.769043,4178.974121,4173.589844,4236.282227,4191.410156,4188.846191,4172.179688,4621.666504,4482.179688,4418.717773,4495.769043,6967.000000,3.000000,64.000000,,,,0.000000,4.000000,4.000000,4.000000,4.000000,4.000000,4.000000,4.000000,4.000000,4.000000,4.000000,4.000000,4.000000,4.000000,4.000000,100.000000,,,,,,,,,,,,,,,,,,,,,,,,,,,,
1703411641.732926,1703411641.733541,14.000000,0.000000,4195.897461,4168.205078,4281.282227,4252.179688,4186.666504,4180.769043,4241.538574,4191.794922,4186.666504,4189.743652,4606.410156,4474.230957,4411.410156,4489.871582,5948.000000,3.000000,64.000000,,,,0.000000,4.000000,4.000000,4.000000,4.000000,4.000000,4.000000,4.000000,4.000000,4.000000,4.000000,4.000000,4.000000,4.000000,4.000000,100.000000,,,,,,,,,,,,,,,,,,,,,,,,,,,,
1703411641.740734,1703411641.741249,15.000000,0.000000,4197.307617,4164.743652,4272.820313,4246.282227,4181.153809,4182.179688,4244.743652,4188.846191,4184.358887,4173.974121,4596.794922,4457.051270,4392.692383,4506.922852,6142.000000,3.000000,64.000000,,,,0.000000,4.000000,4.000000,4.000000,4.000000,4.000000,4.000000,4.000000,4.000000,4.000000,4.000000,4.000000,4.000000,4.000000,4.000000,100.000000,,,,,,,,,,,,,,,,,,,,,,,,,,,,
1703411641.748542,1703411641.749057,16.000000,0.000000,4193.461426,4177.436035,4267.948730,4258.974121,4185.000000,4183.589844,4238.974121,4184.487305,4182.436035,4149.743652,4598.589844,4446.025879,4389.487305,4503.205078,0.000000,3.000000,64.000000,,,,0.000000,4.000000,4.000000,4.000000,4.000000,4.000000,4.000000,4.000000,4.000000,4.000000,4.000000,4.000000,4.000000,4.000000,4.000000,100.000000,,,,,,,,,,,,,,,,,4.000000,0.000000,0.741552,0.052917,-0.664856,0.072571,0.989379,-0.011720,0.093273,-18.000772,-36.295513,65.821053
1703411641.756351,1703411641.756765,17.000000,0.000000,4191.025879,4176.922852,4264.358887,4257.307617,4186.410156,4182.563965,4237.948730,4175.897461,4172.948730,4160.897461,4594.743652,4442.820313,4397.051270,4485.512695,0.000000,3.000000,64.000000,,,,0.000000,4.000000,4.000000,4.000000,4.000000,4.000000,4.000000,4.000000,4.000000,4.000000,4.000000,4.000000,4.000000,4.000000,4.000000,100.000000,,,,,,,,,,,,,,,,,,,,,,,,,,,,
1703411641.764159,1703411641.764573,18.000000,0.000000,4200.256348,4163.077148,4267.436035,4243.846191,4170.384766,4174.487305,4239.102539,4170.000000,4165.128418,4175.000000,4593.461426,4448.717773,4393.717773,4493.205078,0.000000,3.000000,64.000000,,,,0.000000,4.000000,4.000000,4.000000,4.000000,4.000000,4.000000,4.000000,4.000000,4.000000,4.000000,4.000000,4.000000,4.000000,4.000000,100.000000,,,,,,,,,,,,,,,,,,,,,,,,,,,,
1703411641.771967,1703411641.772281,19.000000,0.000000,4215.384766,4178.077148,4281.794922,4256.922852,4172.820313,4173.846191,4239.102539,4174.871582,4179.871582,4173.846191,4610.384766,4465.897461,4399.230957,4508.974121,0.000000,3.000000,64.000000,,,,0.000000,4.000000,4.000000,4.000000,4.000000,4.000000,4.000000,4.000000,4.000000,4.000000,4.000000,4.000000,4.000000,4.000000,4.000000,100.000000,,,,,,,,,,,,,,,,,,,,,,,,,,,,
1703411641.779775,1703411641.780089,20.000000,0.000000,4216.794922,4202.307617,4291.922852,4279.102539,4188.461426,4180.512695,4241.538574,4184.743652,4196.538574,4179.487305,4622.692383,4479.615234,4416.538574,4510.769043,0.000000,3.000000,64.000000,,,,0.000000,4.000000,4.000000,4.000000,4.000000,4.000000,4.000000,4.000000,4.000000,4.000000,4.000000,4.000000,4.000000,4.000000,4.000000,100.000000,,,,,,,,,,,,,,,,,5.000000,0.000000,0.741635,0.052856,-0.664795,0.072327,0.971310,0.002442,0.100598,-17.967361,-36.365963,65.838951
1703411641.787583,1703411641.787797,21.000000,0.000000,4205.769043,4195.384766,4289.230957,4273.717773,4184.487305,4177.820313,4238.974121,4183.205078,4186.922852,4180.512695,4614.358887,4475.512695,4414.487305,4507.436035,0.000000,3.000000,64.000000,,,,0.000000,4.000000,4.000000,4.000000,4.000000,4.000000,4.000000,4.000000,4.000000,4.000000,4.000000,4.000000,4.000000,4.000000,4.000000,100.000000,,,,,,,,,,,,,,,,,,,,,,,,,,,,
1703411641.795391,1703411641.795705,22.000000,0.000000,4203.846191,4181.025879,4282.692383,4258.974121,4181.538574,4170.128418,4230.897461,4171.794922,4168.333496,4163.077148,4603.589844,4465.128418,4403.205078,4507.948730,0.000000,3.000000,64.000000,,,,0.000000,4.000000,4.000000,4.000000,4.000000,4.000000,4.000000,4.000000,4.000000,4.000000,4.000000,4.000000,4.000000,4.000000,4.000000,100.000000,,,,,,,,,,,,,,,,,,,,,,,,,,,,
1703411641.803199,1703411641.803513,23.000000,0.000000,4201.794922,4182.051270,4281.794922,4259.615234,4190.128418,4171.282227,4231.922852,4161.410156,4164.358887,4151.410156,4600.000000,4459.487305,4395.512695,4503.333496,0.000000,3.000000,64.000000,,,,0.000000,4.000000,4.000000,4.000000,4.000000,4.000000,4.000000,4.000000,4.000000,4.000000,4.000000,4.000000,4.000000,4.000000,4.000000,100.000000,,,,,,,,,,,,,,,,,,,,,,,,,,,,
1703411641.811007,1703411641.811421,24.000000,0.000000,4204.871582,4188.461426,4284.615234,4266.025879,4186.538574,4173.717773,4233.077148,4160.384766,4168.717773,4148.717773,4598.205078,4457.820313,4391.153809,4491.410156,0.000000,3.000000,64.000000,,,,0.000000,4.000000,4.000000,4.000000,4.000000,4.000000,4.000000,4.000000,4.000000,4.000000,4.000000,4.000000,4.000000,4.000000,4.000000,100.000000,,,,,,,,,,,,,,,,,6.000000,0.000000,0.741776,0.052917,-0.664673,0.071960,0.984495,0.001465,0.099133,-18.003958,-36.446033,65.755051
1703411641.818815,1703411641.819229,25.000000,0.000000,4224.615234,4191.794922,4289.487305,4265.512695,4178.974121,4173.333496,4231.538574,4169.102539,4172.051270,4154.102539,4599.230957,4468.461426,4405.384766,4494.230957,0.000000,3.000000,64.000000,,,,0.000000,4.000000,4.000000,4.000000,4.000000,4.000000,4.000000,4.000000,4.000000,4.000000,4.000000,4.000000,4.000000,4.000000,4.000000,100.000000,,,,,,,,,,,,,,,,,,,,,,,,,,,,
1703411641.826623,1703411641.827137,26.000000,0.000000,4228.077148,4193.589844,4290.256348,4261.282227,4181.922852,4174.230957,4235.384766,4173.333496,4171.538574,4166.794922,4596.794922,4476.666504,4414.102539,4507.563965,0.000000,3.000000,64.000000,,,,0.000000,4.000000,4.000000,4.000000,4.000000,4.000000,4.000000,4.000000,4.000000,4.000000,4.000000,4.000000,4.000000,4.000000,4.000000,100.000000,,,,,,,,,,,,,,,,,,,,,,,,,,,,
1703411641.834431,1703411641.834945,27.000000,0.000000,4212.179688,4197.692383,4280.641113,4261.282227,4183.846191,4175.897461,4235.000000,4169.615234,4169.358887,4165.256348,4593.589844,4466.922852,4401.922852,4509.487305,0.000000,3.000000,64.000000,,,,0.000000,4.000000,4.000000,4.000000,4.000000,4.000000,4.000000,4.000000,4.000000,4.000000,4.000000,4.000000,4.000000,4.000000,4.000000,100.000000,,,,,,,,,,,,,,,,,,,,,,,,,,,,
1703411641.842239,1703411641.842852,28.000000,0.000000,4211.282227,4196.538574,4272.948730,4261.410156,4181.922852,4178.461426,4233.077148,4175.256348,4181.922852,4172.692383,4602.948730,4461.153809,4397.307617,4506.410156,0.000000,3.000000,64.000000,,,,0.000000,4.000000,4.000000,4.000000,4.000000,4.000000,4.000000,4.000000,4.000000,4.000000,4.000000,4.000000,4.000000,4.000000,4.000000,100.000000,,,,,,,,,,,,,,,,,7.000000,0.000000,0.741974,0.053101,-0.664490,0.071472,0.993285,-0.002442,0.093761,-18.103563,-36.551430,65.729546
1703411641.850047,1703411641.850660,29.000000,0.000000,4220.641113,4193.589844,4275.897461,4260.641113,4183.461426,4181.922852,4237.051270,4188.461426,4196.922852,4185.128418,4612.051270,4466.922852,4402.307617,4508.974121,0.000000,3.000000,64.000000,,,,0.000000,4.000000,4.000000,4.000000,4.000000,4.000000,4.000000,4.000000,4.000000,4.000000,4.000000,4.000000,4.000000,4.000000,4.000000,100.000000,,,,,,,,,,,,,,,,,,,,,,,,,,,,
1703411641.857855,1703411641.858568,30.000000,0.000000,4217.307617,4195.256348,4275.384766,4263.077148,4188.333496,4181.153809,4239.358887,4184.358887,4183.205078,4167.436035,4603.717773,4460.000000,4396.538574,4507.692383,0.000000,3.000000,64.000000,,,,0.000000,4.000000,4.000000,4.000000,4.000000,4.000000,4.000000,4.000000,4.000000,4.000000,4.000000,4.000000,4.000000,4.000000,4.000000,100.000000,,,,,,,,,,,,,,,,,,,,,,,,,,,,
1703411641.865663,1703411641.866376,31.000000,0.000000,4205.641113,4192.692383,4272.051270,4267.051270,4182.948730,4175.128418,4235.641113,4173.077148,4168.077148,4156.794922,4596.025879,4452.051270,4395.128418,4501.153809,0.000000,3.000000,64.000000,,,,0.000000,4.000000,4.000000,4.000000,4.000000,4.000000,4.000000,4.000000,4.000000,4.000000,4.000000,4.000000,4.000000,4.000000,4.000000,100.000000,,,,,,,,,,,,,,,,,,,,,,,,,,,,
1703411641.873471,1703411641.874084,32.000000,0.000000,4203.077148,4186.538574,4279.358887,4268.589844,4169.230957,4170.769043,4233.333496,4173.589844,4172.179688,4166.025879,4600.512695,4461.153809,4400.384766,4500.897461,0.000000,3.000000,64.000000,,,,0.000000,4.000000,4.000000,4.000000,4.000000,4.000000,4.000000,4.000000,4.000000,4.000000,4.000000,4.000000,4.000000,4.000000,4.000000,100.000000,,,,,,,,,,,,,,,,,8.000000,0.000000,0.742234,0.053101,-0.664246,0.071045,0.992309,-0.003907,0.104993,-17.909874,-36.579620,65.773262
1703411641.881279,1703411641.881892,33.000000,0.000000,4206.410156,4187.307617,4285.128418,4262.948730,4166.666504,4170.128418,4233.205078,4174.487305,4167.179688,4157.051270,4590.897461,4462.051270,4391.794922,4504.230957,0.000000,3.000000,64.000000,,,,0.000000,4.000000,4.000000,4.000000,4.000000,4.000000,4.000000,4.000000,4.000000,4.000000,4.000000,4.000000,4.000000,4.000000,4.000000,100.000000,,,,,,,,,,,,,,,,,,,,,,,,,,,,
1703411641.889087,1703411641.889600,34.000000,0.000000,4195.512695,4179.743652,4276.538574,4246.922852,4171.922852,4170.000000,4231.153809,4168.846191,4172.436035,4166.410156,4579.358887,4451.922852,4385.384766,4493.205078,0.000000,3.000000,64.000000,,,,0.000000,4.000000,4.000000,4.000000,4.000000,4.000000,4.000000,4.000000,4.000000,4.000000,4.000000,4.000000,4.000000,4.000000,4.000000,100.000000,,,,,,,,,,,,,,,,,,,,,,,,,,,,
1703411641.896896,1703411641.897408,35.000000,0.000000,4186.025879,4166.922852,4271.666504,4240.512695,4172.307617,4176.538574,4231.025879,4168.205078,4190.256348,4189.487305,4591.538574,4455.384766,4386.282227,4472.436035,0.000000,3.000000,64.000000,,,,0.000000,4.000000,4.000000,4.000000,4.000000,4.000000,4.000000,4.000000,4.000000,4.000000,4.000000,4.000000,4.000000,4.000000,4.000000,100.000000,,,,,,,,,,,,,,,,,,,,,,,,,,,,
1703411641.904704,1703411641.905116,36.000000,0.000000,4196.153809,4178.589844,4280.512695,4252.820313,4176.666504,4183.077148,4232.948730,4169.743652,4173.461426,4160.769043,4599.615234,4465.897461,4387.820313,4478.077148,0.000000,3.000000,64.000000,,,,0.000000,4.000000,4.000000,4.000000,4.000000,4.000000,4.000000,4.000000,4.000000,4.000000,4.000000,4.000000,4.000000,4.000000,4.000000,100.000000,,,,,,,,,,,,,,,,,9.000000,0.000000,0.742403,0.053101,-0.664063,0.070984,0.977658,-0.004883,0.112318,-17.835552,-36.588326,65.712601
1703411641.912511,1703411641.912924,37.000000,0.000000,4205.128418,4185.384766,4282.692383,4255.384766,4182.179688,4176.025879,4232.820313,4168.205078,4150.384766,4136.666504,4583.205078,4458.974121,4385.256348,4495.000000,0.000000,3.000000,64.000000,,,,0.000000,4.000000,4.000000,4.000000,4.000000,4.000000,4.000000,4.000000,4.000000,4.000000,4.000000,4.000000,4.000000,4.000000,4.000000,100.000000,,,,,,,,,,,,,,,,,,,,,,,,,,,,
1703411641.920320,1703411641.920632,38.000000,0.000000,4198.589844,4171.025879,4274.871582,4245.512695,4175.512695,4166.794922,4232.307617,4170.769043,4164.487305,4163.717773,4577.820313,4444.230957,4381.153809,4487.948730,0.000000,3.000000,64.000000,,,,0.000000,4.000000,4.000000,4.000000,4.000000,4.000000,4.000000,4.000000,4.000000,4.000000,4.000000,4.000000,4.000000,4.000000,4.000000,100.000000,,,,,,,,,,,,,,,,,,,,,,,,,,,,
1703411641.928128,1703411641.928440,39.000000,0.000000,4192.948730,4170.512695,4272.563965,4245.512695,4168.461426,4170.897461,4232.436035,4172.436035,4177.307617,4182.692383,4588.846191,4438.846191,4385.769043,4482.563965,0.000000,3.000000,64.000000,,,,0.000000,4.000000,4.000000,4.000000,4.000000,4.000000,4.000000,4.000000,4.000000,4.000000,4.000000,4.000000,4.000000,4.000000,4.000000,100.000000,,,,,,,,,,,,,,,,,,,,,,,,,,,,
1703411641.935936,1703411641.936148,40.000000,0.000000,4198.333496,4168.717773,4275.641113,4241.794922,4171.538574,4179.230957,4232.436035,4169.871582,4169.487305,4163.205078,4578.461426,4441.922852,4381.922852,4490.769043,0.000000,3.000000,64.000000,,,,0.000000,4.000000,4.000000,4.000000,4.000000,4.000000,4.000000,4.000000,4.000000,4.000000,4.000000,4.000000,4.000000,4.000000,4.000000,100.000000,,,,,,,,,,,,,,,,,10.000000,0.000000,0.742403,0.053101,-0.664063,0.070984,1.004517,-0.014162,0.102063,-17.685331,-36.596157,65.658005
1703411641.943744,1703411641.944057,41.000000,0.000000,4205.512695,4160.641113,4276.922852,4234.743652,4176.282227,4176.794922,4232.563965,4168.589844,4167.948730,4139.871582,4575.128418,4444.743652,4379.230957,4488.717773,0.000000,3.000000,64.000000,,,,0.000000,4.000000,4.000000,4.000000,4.000000,4.000000,4.000000,4.000000,4.000000,4.000000,4.000000,4.000000,4.000000,4.000000,4.000000,100.000000,,,,,,,,,,,,,,,,,,,,,,,,,,,,
1703411641.951552,1703411641.951865,42.000000,0.000000,4201.025879,4170.641113,4273.333496,4240.641113,4175.000000,4175.384766,4233.205078,4162.179688,4168.589844,4144.102539,4588.974121,4437.307617,4386.794922,4479.487305,0.000000,3.000000,64.000000,,,,0.000000,4.000000,4.000000,4.000000,4.000000,4.000000,4.000000,4.000000,4.000000,4.000000,4.000000,4.000000,4.000000,4.000000,4.000000,100.000000,,,,,,,,,,,,,,,,,,,,,,,,,,,,
1703411641.959360,1703411641.959773,43.000000,0.000000,4194.615234,4186.666504,4266.666504,4251.282227,4176.538574,4180.512695,4232.820313,4159.102539,4171.410156,4165.256348,4587.307617,4429.102539,4389.102539,4472.563965,0.000000,3.000000,64.000000,,,,0.000000,4.000000,4.000000,4.000000,4.000000,4.000000,4.000000,4.000000,4.000000,4.000000,4.000000,4.000000,4.000000,4.000000,4.000000,100.000000,,,,,,,,,,,,,,,,,,,,,,,,,,,,
1703411641.967168,1703411641.967581,44.000000,0.000000,4205.641113,4193.077148,4268.461426,4258.846191,4185.641113,4176.922852,4232.820313,4174.871582,4182.820313,4170.897461,4585.128418,4445.256348,4390.641113,4473.461426,0.000000,3.000000,64.000000,,,,0.000000,4.000000,4.000000,4.000000,4.000000,4.000000,4.000000,4.000000,4.000000,4.000000,4.000000,4.000000,4.000000,4.000000,4.000000,100.000000,,,,,,,,,,,,,,,,,11.000000,0.000000,0.742399,0.053162,-0.664063,0.070984,0.991820,-0.018069,0.103528,-17.533464,-36.703209,65.708870
1703411641.974976,1703411641.975489,45.000000,0.000000,4220.641113,4196.282227,4281.153809,4262.307617,4185.256348,4168.333496,4234.487305,4190.384766,4188.461426,4173.974121,4603.717773,4472.436035,4400.128418,4492.692383,0.000000,3.000000,64.000000,,,,0.000000,4.000000,4.000000,4.000000,4.000000,4.000000,4.000000,4.000000,4.000000,4.000000,4.000000,4.000000,4.000000,4.000000,4.000000,100.000000,,,,,,,,,,,,,,,,,,,,,,,,,,,,
1703411641.982784,1703411641.983297,46.000000,0.000000,4220.128418,4193.589844,4287.948730,4257.179688,4172.307617,4171.025879,4229.871582,4176.666504,4180.641113,4175.512695,4609.743652,4468.461426,4396.282227,4503.974121,0.000000,3.000000,64.000000,,,,0.000000,4.000000,4.000000,4.000000,4.000000,4.000000,4.000000,4.000000,4.000000,4.000000,4.000000,4.000000,4.000000,4.000000,4.000000,100.000000,,,,,,,,,,,,,,,,,,,,,,,,,,,,
1703411641.990592,1703411641.991205,47.000000,0.000000,4205.897461,4179.230957,4285.000000,4246.025879,4166.794922,4173.846191,4223.461426,4155.256348,4162.563965,4153.333496,4583.589844,4446.794922,4378.974121,4485.384766,0.000000,3.000000,64.000000,,,,0.000000,4.000000,4.000000,4.000000,4.000000,4.000000,4.000000,4.000000,4.000000,4.000000,4.000000,4.000000,4.000000,4.000000,4.000000,100.000000,,,,,,,,,,,,,,,,,,,,,,,,,,,,
1703411641.998400,1703411641.999013,48.000000,0.000000,4187.436035,4164.487305,4276.153809,4236.025879,4170.128418,4168.589844,4226.282227,4152.179688,4157.051270,4148.717773,4568.589844,4440.897461,4379.230957,4465.512695,0.000000,3.000000,64.000000,,,,0.000000,4.000000,4.000000,4.000000,4.000000,4.000000,4.000000,4.000000,4.000000,4.000000,4.000000,4.000000,4.000000,4.000000,4.000000,100.000000,,,,,,,,,,,,,,,,,12.000000,0.000000,0.742579,0.052856,-0.663879,0.071045,1.007936,-0.029300,0.100110,-17.563452,-36.716221,65.554649
1703411642.006208,1703411642.006921,49.000000,0.000000,4176.282227,4159.871582,4268.077148,4233.846191,4171.666504,4170.897461,4231.666504,4153.974121,4165.384766,4154.871582,4576.282227,4443.846191,4386.410156,4463.205078,0.000000,3.000000,64.000000,,,,0.000000,4.000000,4.000000,4.000000,4.000000,4.000000,4.000000,4.000000,4.000000,4.000000,4.000000,4.000000,4.000000,4.000000,4.000000,100.000000,,,,,,,,,,,,,,,,,,,,,,,,,,,,
1703411642.014016,1703411642.014729,50.000000,0.000000,4187.307617,4168.846191,4277.436035,4237.820313,4173.974121,4174.102539,4231.410156,4161.282227,4172.563965,4140.897461,4587.820313,4460.128418,4392.563965,4475.897461,0.000000,3.000000,64.000000,,,,0.000000,4.000000,4.000000,4.000000,4.000000,4.000000,4.000000,4.000000,4.000000,4.000000,4.000000,4.000000,4.000000,4.000000,4.000000,100.000000,,,,,,,,,,,,,,,,,,,,,,,,,,,,
1703411642.021824,1703411642.022636,51.000000,0.000000,4207.436035,4175.641113,4288.974121,4238.846191,4174.615234,4171.666504,4231.282227,4178.333496,4174.358887,4154.743652,4592.692383,4472.948730,4405.128418,4494.102539,0.000000,3.000000,64.000000,,,,0.000000,4.000000,4.000000,4.000000,4.000000,4.000000,4.000000,4.000000,4.000000,4.000000,4.000000,4.000000,4.000000,4.000000,4.000000,100.000000,,,,,,,,,,,,,,,,,,,,,,,,,,,,
1703411642.029632,1703411642.030444,52.000000,0.000000,4192.179688,4161.538574,4274.102539,4232.436035,4168.077148,4174.358887,4235.000000,4183.461426,4174.487305,4169.743652,4583.077148,4456.922852,4391.922852,4492.563965,0.000000,3.000000,64.000000,,,,0.000000,4.000000,4.000000,4.000000,4.000000,4.000000,4.000000,4.000000,4.000000,4.000000,4.000000,4.000000,4.000000,4.000000,4.000000,100.000000,,,,,,,,,,,,,,,,,13.000000,0.000000,0.742744,0.052307,-0.663757,0.070862,0.988402,-0.018069,0.110853,-17.573772,-36.461266,65.432518
1703411642.037440,1703411642.038352,53.000000,0.000000,4164.358887,4152.051270,4256.922852,4229.871582,4166.922852,4175.769043,4233.077148,4173.333496,4171.538574,4141.410156,4577.820313,4438.717773,4368.589844,4470.769043,0.000000,3.000000,64.000000,,,,0.000000,4.000000,4.000000,4.000000,4.000000,4.000000,4.000000,4.000000,4.000000,4.000000,4.000000,4.000000,4.000000,4.000000,4.000000,100.000000,,,,,,,,,,,,,,,,,,,,,,,,,,,,
1703411642.045248,1703411642.046160,54.000000,0.000000,4177.307617,4159.487305,4265.000000,4237.179688,4173.846191,4169.743652,4225.641113,4167.948730,4169.615234,4152.436035,4591.794922,4445.256348,4384.871582,4469.743652,0.000000,3.000000,64.000000,,,,0.000000,4.000000,4.000000,4.000000,4.000000,4.000000,4.000000,4.000000,4.000000,4.000000,4.000000,4.000000,4.000000,4.000000,4.000000,100.000000,,,,,,,,,,,,,,,,,,,,,,,,,,,,
1703411642.053056,1703411642.053868,55.000000,0.000000,4200.256348,4175.384766,4274.487305,4248.333496,4173.589844,4166.410156,4224.487305,4173.717773,4176.538574,4203.205078,4611.794922,4454.743652,4415.128418,4489.487305,0.000000,3.000000,64.000000,,,,0.000000,4.000000,4.000000,4.000000,4.000000,4.000000,4.000000,4.000000,4.000000,4.000000,4.000000,4.000000,4.000000,4.000000,4.000000,100.000000,,,,,,,,,,,,,,,,,,,,,,,,,,,,
1703411642.060865,1703411642.061676,56.000000,0.000000,4192.820313,4186.282227,4269.871582,4254.102539,4172.307617,4169.102539,4226.794922,4180.256348,4183.333496,4196.922852,4604.743652,4456.666504,4407.820313,4491.794922,0.000000,3.000000,64.000000,,,,0.000000,4.000000,4.000000,4.000000,4.000000,4.000000,4.000000,4.000000,4.000000,4.000000,4.000000,4.000000,4.000000,4.000000,4.000000,100.000000,,,,,,,,,,,,,,,,,14.000000,0.000000,0.742752,0.052246,-0.663818,0.070251,0.991820,-0.007325,0.109388,-17.533062,-36.515141,65.522598
1703411642.068673,1703411642.069384,57.000000,0.000000,4186.538574,4184.230957,4267.820313,4249.487305,4176.794922,4168.846191,4226.153809,4180.256348,4185.384766,4177.692383,4589.615234,4459.487305,4389.871582,4478.589844,0.000000,3.000000,64.000000,,,,0.000000,4.000000,4.000000,4.000000,4.000000,4.000000,4.000000,4.000000,4.000000,4.000000,4.000000,4.000000,4.000000,4.000000,4.000000,100.000000,,,,,,,,,,,,,,,,,,,,,,,,,,,,
1703411642.076481,1703411642.077192,58.000000,0.000000,4199.358887,4183.077148,4275.384766,4250.256348,4176.153809,4168.077148,4225.641113,4173.461426,4178.589844,4183.589844,4593.846191,4453.974121,4394.871582,4476.153809,0.000000,3.000000,64.000000,,,,0.000000,4.000000,4.000000,4.000000,4.000000,4.000000,4.000000,4.000000,4.000000,4.000000,4.000000,4.000000,4.000000,4.000000,4.000000,100.000000,,,,,,,,,,,,,,,,,,,,,,,,,,,,
1703411642.084289,1703411642.084900,59.000000,0.000000,4208.077148,4187.051270,4280.000000,4256.410156,4172.307617,4172.563965,4230.641113,4170.000000,4176.153809,4175.256348,4594.871582,4446.025879,4401.410156,4477.307617,0.000000,3.000000,64.000000,,,,0.000000,4.000000,4.000000,4.000000,4.000000,4.000000,4.000000,4.000000,4.000000,4.000000,4.000000,4.000000,4.000000,4.000000,4.000000,100.000000,,,,,,,,,,,,,,,,,,,,,,,,,,,,
1703411642.092097,1703411642.092809,60.000000,0.000000,4202.948730,4188.974121,4280.897461,4253.589844,4175.512695,4174.358887,4238.077148,4173.717773,4184.487305,4168.333496,4595.384766,4454.871582,4395.384766,4480.000000,0.000000,3.000000,64.000000,,,,0.000000,4.000000,4.000000,4.000000,4.000000,4.000000,4.000000,4.000000,4.000000,4.000000,4.000000,4.000000,4.000000,4.000000,4.000000,100.000000,,,,,,,,,,,,,,,,,15.000000,0.000000,0.742729,0.052368,-0.663879,0.069824,0.983030,-0.000488,0.104505,-17.613089,-36.413628,65.503677
1703411642.099905,1703411642.100617,61.000000,0.000000,4194.743652,4179.743652,4284.358887,4248.333496,4171.666504,4171.025879,4238.717773,4172.820313,4179.615234,4173.333496,4599.743652,4467.051270,4386.666504,4488.589844,0.000000,3.000000,64.000000,,,,0.000000,4.000000,4.000000,4.000000,4.000000,4.000000,4.000000,4.000000,4.000000,4.000000,4.000000,4.000000,4.000000,4.000000,4.000000,100.000000,,,,,,,,,,,,,,,,,,,,,,,,,,,,
1703411642.107713,1703411642.108425,62.000000,0.000000,4202.307617,4169.487305,4287.307617,4245.000000,4163.974121,4170.512695,4235.512695,4168.205078,4168.333496,4168.589844,4591.410156,4467.563965,4387.307617,4491.410156,0.000000,3.000000,64.000000,,,,0.000000,4.000000,4.000000,4.000000,4.000000,4.000000,4.000000,4.000000,4.000000,4.000000,4.000000,4.000000,4.000000,4.000000,4.000000,100.000000,,,,,,,,,,,,,,,,,,,,,,,,,,,,
1703411642.115521,1703411642.116133,63.000000,0.000000,4218.077148,4174.230957,4287.948730,4245.128418,4176.666504,4174.102539,4235.641113,4171.025879,4167.948730,4169.871582,4586.410156,4466.666504,4397.563965,4491.282227,0.000000,3.000000,64.000000,,,,0.000000,4.000000,4.000000,4.000000,4.000000,4.000000,4.000000,4.000000,4.000000,4.000000,4.000000,4.000000,4.000000,4.000000,4.000000,100.000000,,,,,,,,,,,,,,,,,,,,,,,,,,,,
1703411642.123329,1703411642.123941,64.000000,0.000000,4218.077148,4189.230957,4287.820313,4256.282227,4186.922852,4173.461426,4239.487305,4176.153809,4172.436035,4186.794922,4598.205078,4470.000000,4400.897461,4497.692383,5091.000000,3.000000,64.000000,,,,0.000000,4.000000,4.000000,4.000000,4.000000,4.000000,4.000000,4.000000,4.000000,4.000000,4.000000,4.000000,4.000000,4.000000,4.000000,100.000000,,,,,,,,,,,,,,,,,16.000000,0.000000,0.742786,0.053101,-0.663757,0.069824,0.989379,0.013185,0.102552,-17.651781,-36.272263,65.586639
1703411642.131137,1703411642.131649,65.000000,0.000000,4216.282227,4193.077148,4289.487305,4264.487305,4177.948730,4173.589844,4245.128418,4175.128418,4177.179688,4193.846191,4608.333496,4465.000000,4401.282227,4498.077148,5452.000000,3.000000,64.000000,,,,0.000000,4.000000,4.000000,4.000000,4.000000,4.000000,4.000000,4.000000,4.000000,4.000000,4.000000,4.000000,4.000000,4.000000,4.000000,100.000000,,,,,,,,,,,,,,,,,,,,,,,,,,,,
1703411642.138945,1703411642.139457,66.000000,0.000000,4212.692383,4181.922852,4289.358887,4250.128418,4175.897461,4178.461426,4245.256348,4171.410156,4183.974121,4186.025879,4603.974121,4457.692383,4399.230957,4490.769043,5312.000000,3.000000,64.000000,,,,0.000000,4.000000,4.000000,4.000000,4.000000,4.000000,4.000000,4.000000,4.000000,4.000000,4.000000,4.000000,4.000000,4.000000,4.000000,100.000000,,,,,,,,,,,,,,,,,,,,,,,,,,,,
1703411642.146753,1703411642.147165,67.000000,0.000000,4200.897461,4190.128418,4286.794922,4247.179688,4185.641113,4176.922852,4238.461426,4171.025879,4180.128418,4175.641113,4604.487305,4459.230957,4397.307617,4491.922852,5350.000000,3.000000,64.000000,,,,0.000000,4.000000,4.000000,4.000000,4.000000,4.000000,4.000000,4.000000,4.000000,4.000000,4.000000,4.000000,4.000000,4.000000,4.000000,100.000000,,,,,,,,,,,,,,,,,,,,,,,,,,,,
1703411642.154561,1703411642.154973,68.000000,0.000000,4208.717773,4208.717773,4286.282227,4271.025879,4184.871582,4170.897461,4239.871582,4172.820313,4168.205078,4166.025879,4597.820313,4459.230957,4400.000000,4489.358887,5125.000000,3.000000,64.000000,,,,0.000000,4.000000,4.000000,4.000000,4.000000,4.000000,4.000000,4.000000,4.000000,4.000000,4.000000,4.000000,4.000000,4.000000,4.000000,100.000000,,,,,,,,,,,,,,,,,17.000000,0.000000,0.742987,0.054016,-0.663452,0.069885,0.999145,-0.011720,0.105970,-17.603270,-36.345036,65.744644
1703411642.162369,1703411642.162681,69.000000,0.000000,4218.461426,4197.948730,4288.846191,4270.128418,4175.128418,4171.922852,4244.871582,4180.897461,4175.897461,4175.256348,4592.179688,4458.846191,4400.512695,4480.384766,3964.000000,3.000000,64.000000,,,,0.000000,4.000000,4.000000,4.000000,4.000000,4.000000,4.000000,4.000000,4.000000,4.000000,4.000000,4.000000,4.000000,4.000000,4.000000,100.000000,,,,,,,,,,,,,,,,,,,,,,,,,,,,
1703411642.170177,1703411642.170589,70.000000,0.000000,4200.769043,4175.897461,4289.230957,4246.282227,4171.794922,4173.846191,4240.769043,4183.589844,4183.846191,4180.256348,4595.256348,4461.153809,4386.666504,4478.205078,2543.000000,3.000000,64.000000,,,,0.000000,4.000000,4.000000,4.000000,4.000000,4.000000,4.000000,4.000000,4.000000,4.000000,4.000000,4.000000,4.000000,4.000000,4.000000,100.000000,,,,,,,,,,,,,,,,,,,,,,,,,,,,
1703411642.177985,1703411642.178397,71.000000,0.000000,4195.897461,4184.358887,4285.897461,4248.333496,4171.666504,4170.897461,4237.051270,4174.102539,4173.205078,4164.358887,4578.717773,4457.179688,4375.769043,4481.794922,5011.000000,3.000000,64.000000,,,,0.000000,4.000000,4.000000,4.000000,4.000000,4.000000,4.000000,4.000000,4.000000,4.000000,4.000000,4.000000,4.000000,4.000000,4.000000,100.000000,,,,,,,,,,,,,,,,,,,,,,,,,,,,
1703411642.185793,1703411642.186305,72.000000,0.000000,4220.641113,4205.769043,4289.102539,4267.051270,4172.307617,4170.897461,4240.512695,4169.487305,4169.615234,4162.820313,4572.820313,4455.769043,4385.641113,4483.205078,4342.000000,3.000000,64.000000,,,,0.000000,4.000000,4.000000,4.000000,4.000000,4.000000,4.000000,4.000000,4.000000,4.000000,4.000000,4.000000,4.000000,4.000000,4.000000,100.000000,,,,,,,,,,,,,,,,,18.000000,0.000000,0.742970,0.054199,-0.663391,0.070496,1.001587,-0.013185,0.109877,-17.626276,-36.310532,65.670181
1703411642.193601,1703411642.194113,73.000000,0.000000,4224.743652,4199.615234,4294.230957,4263.077148,4172.307617,4171.538574,4242.051270,4169.743652,4173.077148,4171.025879,4595.769043,4462.820313,4386.282227,4478.077148,5263.000000,3.000000,64.000000,,,,0.000000,4.000000,4.000000,4.000000,4.000000,4.000000,4.000000,4.000000,4.000000,4.000000,4.000000,4.000000,4.000000,4.000000,4.000000,100.000000,,,,,,,,,,,,,,,,,,,,,,,,,,,,
1703411642.201409,1703411642.202021,74.000000,0.000000,4206.282227,4185.384766,4290.512695,4249.102539,4171.153809,4170.000000,4238.974121,4167.307617,4170.769043,4165.384766,4593.846191,4458.846191,4371.153809,4478.974121,5981.000000,3.000000,64.000000,,,,0.000000,4.000000,4.000000,4.000000,4.000000,4.000000,4.000000,4.000000,4.000000,4.000000,4.000000,4.000000,4.000000,4.000000,4.000000,100.000000,1.000000,66.666664,1.000000,4.000000,4.000000,4.000000,4.000000,4.000000,4.000000,4.000000,4.000000,3.000000,4.000000,4.000000,4.000000,4.000000,,,,,,,,,,,,
1703411642.209217,1703411642.209929,75.000000,0.000000,4199.102539,4187.179688,4285.384766,4248.717773,4171.025879,4169.871582,4235.641113,4169.230957,4176.794922,4155.384766,4568.589844,4443.333496,4367.820313,4476.410156,6122.000000,3.000000,64.000000,,,,0.000000,4.000000,4.000000,4.000000,4.000000,4.000000,4.000000,4.000000,4.000000,4.000000,4.000000,4.000000,4.000000,4.000000,4.000000,100.000000,,,,,,,,,,,,,,,,,,,,,,,,,,,,
1703411642.217025,1703411642.217737,76.000000,0.000000,4197.307617,4181.153809,4285.769043,4248.205078,4170.256348,4170.769043,4236.025879,4171.410156,4182.563965,4138.461426,4567.692383,4439.358887,4368.461426,4457.307617,6604.000000,3.000000,64.000000,,,,0.000000,4.000000,4.000000,4.000000,4.000000,4.000000,4.000000,4.000000,4.000000,4.000000,4.000000,4.000000,4.000000,4.000000,4.000000,100.000000,,,,,,,,,,,,,,,,,19.000000,0.000000,0.742977,0.053955,-0.663391,0.070618,0.985960,-0.016604,0.106947,-17.763647,-36.262814,65.736496
1703411642.224834,1703411642.225545,77.000000,0.000000,4196.282227,4167.179688,4284.358887,4246.153809,4170.128418,4172.436035,4238.717773,4166.410156,4169.358887,4139.230957,4576.153809,4440.384766,4355.512695,4452.692383,6943.000000,3.000000,64.000000,,,,0.000000,4.000000,4.000000,4.000000,4.000000,4.000000,4.000000,4.000000,4.000000,4.000000,4.000000,4.000000,4.000000,4.000000,4.000000,100.000000,,,,,,,,,,,,,,,,,,,,,,,,,,,,
1703411642.232642,1703411642.233453,78.000000,0.000000,4198.846191,4176.794922,4279.871582,4255.384766,4171.282227,4171.666504,4233.205078,4170.897461,4170.512695,4179.230957,4567.692383,4432.436035,4350.769043,4463.333496,5981.000000,3.000000,64.000000,,,,0.000000,4.000000,4.000000,4.000000,4.000000,4.000000,4.000000,4.000000,4.000000,4.000000,4.000000,4.000000,4.000000,4.000000,4.000000,100.000000,,,,,,,,,,,,,,,,,,,,,,,,,,,,
1703411642.240450,1703411642.241261,79.000000,0.000000,4196.922852,4195.512695,4279.102539,4261.666504,4172.051270,4169.102539,4229.487305,4170.128418,4172.051270,4176.025879,4560.641113,4422.307617,4353.589844,4448.077148,6122.000000,3.000000,64.000000,,,,0.000000,4.000000,4.000000,4.000000,4.000000,4.000000,4.000000,4.000000,4.000000,4.000000,4.000000,4.000000,4.000000,4.000000,4.000000,100.000000,,,,,,,,,,,,,,,,,,,,,,,,,,,,
1703411642.248258,1703411642.248969,80.000000,0.000000,4188.846191,4189.615234,4276.153809,4251.282227,4171.025879,4168.846191,4234.230957,4153.974121,4149.743652,4122.692383,4552.179688,4416.025879,4340.897461,4426.025879,6604.000000,3.000000,64.000000,,,,0.000000,4.000000,4.000000,4.000000,4.000000,4.000000,4.000000,4.000000,4.000000,4.000000,4.000000,4.000000,4.000000,4.000000,4.000000,100.000000,,,,,,,,,,,,,,,,,20.000000,0.000000,0.742920,0.052979,-0.663513,0.070801,0.991820,-0.000488,0.098645,-17.820616,-36.319866,65.779510
1703411642.256066,1703411642.256777,81.000000,0.000000,4182.307617,4180.256348,4272.051270,4243.717773,4170.128418,4169.871582,4232.179688,4158.077148,4153.077148,4131.025879,4547.436035,4412.307617,4335.641113,4436.025879,6943.000000,3.000000,64.000000,,,,0.000000,4.000000,4.000000,4.000000,4.000000,4.000000,4.000000,4.000000,4.000000,4.000000,4.000000,4.000000,4.000000,4.000000,4.000000,100.000000,,,,,,,,,,,,,,,,,,,,,,,,,,,,
1703411642.263874,1703411642.264485,82.000000,0.000000,4184.358887,4194.230957,4277.436035,4256.922852,4172.051270,4168.589844,4226.025879,4166.410156,4168.717773,4166.666504,4555.256348,4415.512695,4341.538574,4448.333496,5981.000000,3.000000,64.000000,,,,0.000000,4.000000,4.000000,4.000000,4.000000,4.000000,4.000000,4.000000,4.000000,4.000000,4.000000,4.000000,4.000000,4.000000,4.000000,100.000000,,,,,,,,,,,,,,,,,,,,,,,,,,,,
1703411642.271682,1703411642.272293,83.000000,0.000000,4190.384766,4204.358887,4282.436035,4263.077148,4173.846191,4168.461426,4226.794922,4157.563965,4161.410156,4146.666504,4556.538574,4421.025879,4335.128418,4435.000000,6122.000000,3.000000,64.000000,,,,0.000000,4.000000,4.000000,4.000000,4.000000,4.000000,4.000000,4.000000,4.000000,4.000000,4.000000,4.000000,4.000000,4.000000,4.000000,100.000000,,,,,,,,,,,,,,,,,,,,,,,,,,,,
1703411642.279490,1703411642.280001,84.000000,0.000000,4188.077148,4197.179688,4282.436035,4250.897461,4173.077148,4169.230957,4232.051270,4154.358887,4161.794922,4136.666504,4549.487305,4416.025879,4331.794922,4420.769043,6604.000000,3.000000,64.000000,,,,0.000000,4.000000,4.000000,4.000000,4.000000,4.000000,4.000000,4.000000,4.000000,4.000000,4.000000,4.000000,4.000000,4.000000,4.000000,100.000000,,,,,,,,,,,,,,,,,21.000000,0.000000,0.742905,0.052185,-0.663574,0.070984,0.984984,0.004883,0.106947,-17.838554,-36.271214,65.751564
1703411642.287298,1703411642.287809,85.000000,0.000000,4181.538574,4191.153809,4287.563965,4245.384766,4174.743652,4172.051270,4234.230957,4160.897461,4173.333496,4160.897461,4550.512695,4410.769043,4343.717773,4428.461426,6943.000000,3.000000,64.000000,,,,0.000000,4.000000,4.000000,4.000000,4.000000,4.000000,4.000000,4.000000,4.000000,4.000000,4.000000,4.000000,4.000000,4.000000,4.000000,100.000000,,,,,,,,,,,,,,,,,,,,,,,,,,,,
1703411642.295106,1703411642.295517,86.000000,0.000000,4190.256348,4198.589844,4291.282227,4257.307617,4181.025879,4177.820313,4233.205078,4157.051270,4170.512695,4157.692383,4556.282227,4419.230957,4344.743652,4444.358887,5981.000000,3.000000,64.000000,,,,0.000000,4.000000,4.000000,4.000000,4.000000,4.000000,4.000000,4.000000,4.000000,4.000000,4.000000,4.000000,4.000000,4.000000,4.000000,100.000000,,,,,,,,,,,,,,,,,,,,,,,,,,,,
1703411642.302914,1703411642.303325,87.000000,0.000000,4204.743652,4212.307617,4286.666504,4270.384766,4188.077148,4175.769043,4230.897461,4152.563965,4167.692383,4144.487305,4560.897461,4422.692383,4338.461426,4451.282227,6122.000000,3.000000,64.000000,,,,0.000000,4.000000,4.000000,4.000000,4.000000,4.000000,4.000000,4.000000,4.000000,4.000000,4.000000,4.000000,4.000000,4.000000,4.000000,100.000000,,,,,,,,,,,,,,,,,,,,,,,,,,,,
1703411642.310722,1703411642.311033,88.000000,0.000000,4204.102539,4216.410156,4283.974121,4275.897461,4185.000000,4168.333496,4228.205078,4157.436035,4168.333496,4156.410156,4565.512695,4415.128418,4345.897461,4440.000000,6604.000000,3.000000,64.000000,,,,0.000000,4.000000,4.000000,4.000000,4.000000,4.000000,4.000000,4.000000,4.000000,4.000000,4.000000,4.000000,4.000000,4.000000,4.000000,100.000000,,,,,,,,,,,,,,,,,22.000000,0.000000,0.742996,0.052185,-0.663452,0.071167,0.980100,0.003418,0.098157,-17.954699,-36.477425,65.643074
1703411642.318530,1703411642.318841,89.000000,0.000000,4194.102539,4213.717773,4287.820313,4276.025879,4172.692383,4167.948730,4228.589844,4159.358887,4167.179688,4152.051270,4571.794922,4421.922852,4352.436035,4426.794922,6943.000000,3.000000,64.000000,,,,0.000000,4.000000,4.000000,4.000000,4.000000,4.000000,4.000000,4.000000,4.000000,4.000000,4.000000,4.000000,4.000000,4.000000,4.000000,100.000000,,,,,,,,,,,,,,,,,,,,,,,,,,,,
1703411642.326338,1703411642.326549,90.000000,0.000000,4186.666504,4201.025879,4286.794922,4268.461426,4172.820313,4170.128418,4231.538574,4158.077148,4170.512695,4125.256348,4569.743652,4429.487305,4346.666504,4435.512695,5981.000000,3.000000,64.000000,,,,0.000000,4.000000,4.000000,4.000000,4.000000,4.000000,4.000000,4.000000,4.000000,4.000000,4.000000,4.000000,4.000000,4.000000,4.000000,100.000000,,,,,,,,,,,,,,,,,,,,,,,,,,,,
1703411642.334146,1703411642.334357,91.000000,0.000000,4184.743652,4190.256348,4280.128418,4260.641113,4180.384766,4170.256348,4232.948730,4151.282227,4161.666504,4141.025879,4563.333496,4418.717773,4344.230957,4444.358887,6122.000000,3.000000,64.000000,,,,0.000000,4.000000,4.000000,4.000000,4.000000,4.000000,4.000000,4.000000,4.000000,4.000000,4.000000,4.000000,4.000000,4.000000,4.000000,100.000000,,,,,,,,,,,,,,,,,,,,,,,,,,,,
1703411642.341954,1703411642.342065,92.000000,0.000000,4184.487305,4192.179688,4271.282227,4253.077148,4175.641113,4172.051270,4232.948730,4154.230957,4159.615234,4174.358887,4568.333496,4414.230957,4353.974121,4429.487305,6604.000000,3.000000,64.000000,,,,0.000000,4.000000,4.000000,4.000000,4.000000,4.000000,4.000000,4.000000,4.000000,4.000000,4.000000,4.000000,4.000000,4.000000,4.000000,100.000000,,,,,,,,,,,,,,,,,23.000000,0.000000,0.742968,0.052612,-0.663391,0.071716,0.992797,-0.009767,0.105970,-17.942562,-36.463017,65.862099
1703411642.349762,1703411642.349873,93.000000,0.000000,4182.051270,4194.102539,4269.615234,4246.410156,4166.538574,4173.205078,4232.436035,4168.333496,4173.461426,4174.102539,4572.948730,4416.794922,4357.948730,4424.102539,6943.000000,3.000000,64.000000,,,,0.000000,4.000000,4.000000,4.000000,4.000000,4.000000,4.000000,4.000000,4.000000,4.000000,4.000000,4.000000,4.000000,4.000000,4.000000,100.000000,,,,,,,,,,,,,,,,,,,,,,,,,,,,
1703411642.357571,1703411642.357581,94.000000,0.000000,4187.051270,4191.794922,4277.820313,4252.692383,4167.820313,4171.666504,4232.307617,4172.051270,4174.871582,4170.897461,4569.871582,4413.205078,4350.512695,4441.538574,5981.000000,3.000000,64.000000,,,,0.000000,4.000000,4.000000,4.000000,4.000000,4.000000,4.000000,4.000000,4.000000,4.000000,4.000000,4.000000,4.000000,4.000000,4.000000,100.000000,,,,,,,,,,,,,,,,,,,,,,,,,,,,
1703411642.365379,1703411642.365389,95.000000,0.000000,4203.077148,4191.666504,4286.153809,4259.102539,4177.948730,4171.922852,4234.230957,4171.282227,4177.948730,4184.871582,4578.461426,4419.871582,4354.102539,4448.333496,6122.000000,3.000000,64.000000,,,,0.000000,4.000000,4.000000,4.000000,4.000000,4.000000,4.000000,4.000000,4.000000,4.000000,4.000000,4.000000,4.000000,4.000000,4.000000,100.000000,,,,,,,,,,,,,,,,,,,,,,,,,,,,
1703411642.373186,1703411642.373097,96.000000,0.000000,4205.128418,4190.512695,4290.000000,4251.794922,4182.692383,4173.077148,4235.769043,4172.820313,4188.205078,4194.102539,4589.871582,4434.743652,4369.230957,4446.922852,6604.000000,3.000000,64.000000,,,,0.000000,4.000000,4.000000,4.000000,4.000000,4.000000,4.000000,4.000000,4.000000,4.000000,4.000000,4.000000,4.000000,4.000000,4.000000,100.000000,,,,,,,,,,,,,,,,,24.000000,0.000000,0.742885,0.052856,-0.663391,0.072388,0.977170,-0.020999,0.103528,-17.981640,-36.416714,65.859222
1703411642.380995,1703411642.381005,97.000000,0.000000,4187.436035,4182.563965,4286.538574,4242.820313,4176.922852,4171.538574,4232.948730,4168.974121,4174.871582,4172.307617,4573.846191,4431.282227,4361.410156,4440.641113,6943.000000,3.000000,64.000000,,,,0.000000,4.000000,4.000000,4.000000,4.000000,4.000000,4.000000,4.000000,4.000000,4.000000,4.000000,4.000000,4.000000,4.000000,4.000000,100.000000,,,,,,,,,,,,,,,,,,,,,,,,,,,,
1703411642.388803,1703411642.388813,98.000000,0.000000,4182.179688,4187.563965,4282.179688,4249.487305,4174.358887,4173.205078,4232.692383,4167.948730,4158.333496,4150.641113,4557.563965,4425.256348,4335.256348,4429.487305,5981.000000,3.000000,64.000000,,,,0.000000,4.000000,4.000000,4.000000,4.000000,4.000000,4.000000,4.000000,4.000000,4.000000,4.000000,4.000000,4.000000,4.000000,4.000000,100.000000,,,,,,,,,,,,,,,,,,,,,,,,,,,,
1703411642.396611,1703411642.396721,99.000000,0.000000,4190.384766,4201.153809,4286.538574,4259.743652,4184.358887,4181.794922,4239.487305,4177.820313,4175.256348,4165.000000,4576.025879,4432.948730,4341.025879,4435.641113,6122.000000,3.000000,64.000000,,,,0.000000,4.000000,4.000000,4.000000,4.000000,4.000000,4.000000,4.000000,4.000000,4.000000,4.000000,4.000000,4.000000,4.000000,4.000000,100.000000,,,,,,,,,,,,,,,,,,,,,,,,,,,,
1703411642.404419,1703411642.404529,100.000000,0.000000,4187.436035,4199.487305,4291.025879,4262.436035,4190.384766,4182.820313,4240.769043,4179.487305,4184.615234,4173.717773,4587.948730,4431.025879,4362.179688,4439.615234,6604.000000,3.000000,64.000000,,,,0.000000,4.000000,4.000000,4.000000,4.000000,4.000000,4.000000,4.000000,4.000000,4.000000,4.000000,4.000000,4.000000,4.000000,4.000000,100.000000,,,,,,,,,,,,,,,,,25.000000,0.000000,0.742812,0.053040,-0.663452,0.072449,0.981565,-0.041021,0.108412,-18.033476,-36.308376,65.739967
1703411642.412227,1703411642.412437,101.000000,0.000000,4180.897461,4196.282227,4287.820313,4263.846191,4180.384766,4173.077148,4233.205078,4168.974121,4169.102539,4154.871582,4571.282227,4416.794922,4354.102539,4426.025879,6943.000000,3.000000,64.000000,,,,0.000000,4.000000,4.000000,4.000000,4.000000,4.000000,4.000000,4.000000,4.000000,4.000000,4.000000,4.000000,4.000000,4.000000,4.000000,100.000000,,,,,,,,,,,,,,,,,,,,,,,,,,,,
1703411642.420035,1703411642.420245,102.000000,0.000000,4182.692383,4198.717773,4285.256348,4258.974121,4170.769043,4165.384766,4229.102539,4167.820313,4171.666504,4156.538574,4562.948730,4414.743652,4339.102539,4425.256348,5981.000000,3.000000,64.000000,,,,0.000000,4.000000,4.000000,4.000000,4.000000,4.000000,4.000000,4.000000,4.000000,4.000000,4.000000,4.000000,4.000000,4.000000,4.000000,100.000000,,,,,,,,,,,,,,,,,,,,,,,,,,,,
1703411642.427843,1703411642.428153,103.000000,0.000000,4179.230957,4191.025879,4284.743652,4248.205078,4173.077148,4167.051270,4232.179688,4176.538574,4187.820313,4168.974121,4571.410156,4423.205078,4344.358887,4427.820313,6122.000000,3.000000,64.000000,,,,0.000000,4.000000,4.000000,4.000000,4.000000,4.000000,4.000000,4.000000,4.000000,4.000000,4.000000,4.000000,4.000000,4.000000,4.000000,100.000000,,,,,,,,,,,,,,,,,,,,,,,,,,,,
1703411642.435651,1703411642.435961,104.000000,0.000000,4167.307617,4181.666504,4282.307617,4246.025879,4181.025879,4168.461426,4235.128418,4180.641113,4187.179688,4170.000000,4577.307617,4423.077148,4353.974121,4414.487305,6604.000000,3.000000,64.000000,,,,0.000000,4.000000,4.000000,4.000000,4.000000,4.000000,4.000000,4.000000,4.000000,4.000000,4.000000,4.000000,4.000000,4.000000,4.000000,100.000000,,,,,,,,,,,,,,,,,26.000000,0.000000,0.742869,0.052917,-0.663391,0.072510,0.993774,-0.022464,0.119155,-18.013462,-36.477539,65.782639
1703411642.443459,1703411642.443869,105.000000,0.000000,4166.153809,4183.717773,4279.615234,4247.179688,4176.153809,4160.128418,4231.025879,4170.512695,4172.692383,4179.615234,4568.974121,4410.384766,4353.333496,4412.820313,6943.000000,3.000000,64.000000,,,,0.000000,4.000000,4.000000,4.000000,4.000000,4.000000,4.000000,4.000000,4.000000,4.000000,4.000000,4.000000,4.000000,4.000000,4.000000,100.000000,,,,,,,,,,,,,,,,,,,,,,,,,,,,
1703411642.451267,1703411642.451677,106.000000,0.000000,4167.820313,4178.846191,4275.256348,4241.538574,4165.256348,4156.025879,4225.128418,4158.077148,4165.000000,4178.205078,4552.436035,4402.179688,4342.820313,4417.692383,5981.000000,3.000000,64.000000,,,,0.000000,4.000000,4.000000,4.000000,4.000000,4.000000,4.000000,4.000000,4.000000,4.000000,4.000000,4.000000,4.000000,4.000000,4.000000,100.000000,,,,,,,,,,,,,,,,,,,,,,,,,,,,
1703411642.459075,1703411642.459485,107.000000,0.000000,4164.102539,4174.871582,4279.358887,4241.538574,4173.589844,4161.922852,4228.205078,4163.717773,4172.820313,4172.436035,4556.538574,4412.307617,4339.615234,4406.794922,6122.000000,3.000000,64.000000,,,,0.000000,4.000000,4.000000,4.000000,4.000000,4.000000,4.000000,4.000000,4.000000,4.000000,4.000000,4.000000,4.000000,4.000000,4.000000,100.000000,,,,,,,,,,,,,,,,,,,,,,,,,,,,
1703411642.466883,1703411642.467293,108.000000,0.000000,4173.205078,4184.102539,4288.846191,4248.077148,4186.153809,4170.641113,4235.256348,4175.769043,4186.282227,4181.410156,4577.820313,4429.230957,4356.410156,4414.102539,6604.000000,3.000000,64.000000,,,,0.000000,4.000000,4.000000,4.000000,4.000000,4.000000,4.000000,4.000000,4.000000,4.000000,4.000000,4.000000,4.000000,4.000000,4.000000,100.000000,,,,,,,,,,,,,,,,,27.000000,0.000000,0.742887,0.052917,-0.663391,0.072327,0.981565,-0.023929,0.107923,-18.045448,-36.379784,65.737709
1703411642.474691,1703411642.475001,109.000000,0.000000,4189.230957,4185.256348,4284.487305,4244.102539,4184.102539,4180.384766,4234.487305,4176.025879,4186.153809,4181.922852,4585.256348,4433.077148,4363.077148,4447.436035,6943.000000,3.000000,64.000000,,,,0.000000,4.000000,4.000000,4.000000,4.000000,4.000000,4.000000,4.000000,4.000000,4.000000,4.000000,4.000000,4.000000,4.000000,4.000000,100.000000,,,,,,,,,,,,,,,,,,,,,,,,,,,,
1703411642.482499,1703411642.482809,110.000000,0.000000,4184.743652,4184.102539,4277.436035,4245.769043,4181.025879,4188.974121,4232.436035,4176.666504,4178.589844,4189.358887,4586.153809,4425.769043,4356.025879,4457.563965,5981.000000,3.000000,64.000000,,,,0.000000,4.000000,4.000000,4.000000,4.000000,4.000000,4.000000,4.000000,4.000000,4.000000,4.000000,4.000000,4.000000,4.000000,4.000000,100.000000,,,,,,,,,,,,,,,,,,,,,,,,,,,,
1703411642.490307,1703411642.490517,111.000000,0.000000,4176.538574,4193.589844,4279.615234,4259.743652,4185.897461,4191.153809,4236.538574,4182.307617,4182.820313,4198.077148,4588.205078,4422.051270,4365.384766,4432.051270,6122.000000,3.000000,64.000000,,,,0.000000,4.000000,4.000000,4.000000,4.000000,4.000000,4.000000,4.000000,4.000000,4.000000,4.000000,4.000000,4.000000,4.000000,4.000000,100.000000,,,,,,,,,,,,,,,,,,,,,,,,,,,,
1703411642.498115,1703411642.498325,112.000000,0.000000,4179.871582,4193.205078,4275.256348,4255.384766,4187.179688,4189.743652,4239.358887,4178.205078,4184.487305,4168.333496,4567.436035,4420.384766,4360.384766,4414.230957,6604.000000,3.000000,64.000000,,,,0.000000,4.000000,4.000000,4.000000,4.000000,4.000000,4.000000,4.000000,4.000000,4.000000,4.000000,4.000000,4.000000,4.000000,4.000000,100.000000,,,,,,,,,,,,,,,,,28.000000,0.000000,0.742984,0.052979,-0.663330,0.071838,0.986449,0.000977,0.098645,-17.890903,-36.375137,65.697266
1703411642.505923,1703411642.506033,113.000000,0.000000,4175.384766,4179.487305,4263.077148,4237.692383,4182.179688,4189.871582,4237.051270,4170.000000,4176.153809,4149.230957,4548.589844,4412.179688,4329.102539,4419.230957,6943.000000,3.000000,64.000000,,,,0.000000,4.000000,4.000000,4.000000,4.000000,4.000000,4.000000,4.000000,4.000000,4.000000,4.000000,4.000000,4.000000,4.000000,4.000000,100.000000,,,,,,,,,,,,,,,,,,,,,,,,,,,,
1703411642.513731,1703411642.513841,114.000000,0.000000,4172.820313,4180.512695,4263.333496,4240.769043,4181.666504,4186.538574,4233.333496,4168.589844,4171.153809,4171.410156,4560.128418,4408.333496,4331.410156,4425.512695,5981.000000,3.000000,64.000000,,,,0.000000,4.000000,4.000000,4.000000,4.000000,4.000000,4.000000,4.000000,4.000000,4.000000,4.000000,4.000000,4.000000,4.000000,4.000000,100.000000,,,,,,,,,,,,,,,,,,,,,,,,,,,,
1703411642.521540,1703411642.521549,115.000000,0.000000,4183.589844,4196.282227,4278.717773,4254.487305,4185.256348,4184.615234,4233.077148,4168.461426,4171.153809,4178.077148,4570.384766,4415.512695,4352.820313,4430.000000,6122.000000,3.000000,64.000000,,,,0.000000,4.000000,4.000000,4.000000,4.000000,4.000000,4.000000,4.000000,4.000000,4.000000,4.000000,4.000000,4.000000,4.000000,4.000000,100.000000,,,,,,,,,,,,,,,,,,,,,,,,,,,,
1703411642.529348,1703411642.529457,116.000000,0.000000,4184.743652,4196.282227,4294.743652,4252.179688,4187.179688,4188.589844,4233.077148,4168.974121,4169.358887,4170.384766,4567.436035,4423.205078,4350.769043,4442.820313,6604.000000,3.000000,64.000000,,,,0.000000,4.000000,4.000000,4.000000,4.000000,4.000000,4.000000,4.000000,4.000000,4.000000,4.000000,4.000000,4.000000,4.000000,4.000000,100.000000,,,,,,,,,,,,,,,,,29.000000,0.000000,0.743236,0.053162,-0.663086,0.071350,0.981565,-0.014162,0.101575,-17.851814,-36.504292,65.744209
1703411642.537156,1703411642.537265,117.000000,0.000000,4186.410156,4189.487305,4302.179688,4248.846191,4184.615234,4191.538574,4232.051270,4170.256348,4169.230957,4182.307617,4574.743652,4434.615234,4357.307617,4459.743652,6943.000000,3.000000,64.000000,,,,0.000000,4.000000,4.000000,4.000000,4.000000,4.000000,4.000000,4.000000,4.000000,4.000000,4.000000,4.000000,4.000000,4.000000,4.000000,100.000000,,,,,,,,,,,,,,,,,,,,,,,,,,,,
1703411642.544964,1703411642.545173,118.000000,0.000000,4202.692383,4192.051270,4304.230957,4251.410156,4182.051270,4190.512695,4233.077148,4172.051270,4177.820313,4194.230957,4581.538574,4443.974121,4370.641113,4461.538574,5981.000000,3.000000,64.000000,,,,0.000000,4.000000,4.000000,4.000000,4.000000,4.000000,4.000000,4.000000,4.000000,4.000000,4.000000,4.000000,4.000000,4.000000,4.000000,100.000000,,,,,,,,,,,,,,,,,,,,,,,,,,,,
1703411642.552772,1703411642.552981,119.000000,0.000000,4201.794922,4190.384766,4299.487305,4247.820313,4186.282227,4187.051270,4233.333496,4174.358887,4181.922852,4183.717773,4575.256348,4431.025879,4359.230957,4447.179688,6122.000000,3.000000,64.000000,,,,0.000000,4.000000,4.000000,4.000000,4.000000,4.000000,4.000000,4.000000,4.000000,4.000000,4.000000,4.000000,4.000000,4.000000,4.000000,100.000000,,,,,,,,,,,,,,,,,,,,,,,,,,,,
1703411642.560580,1703411642.560790,120.000000,0.000000,4183.333496,4184.871582,4292.307617,4246.538574,4189.230957,4186.153809,4233.205078,4172.820313,4174.102539,4167.820313,4564.487305,4417.436035,4348.077148,4444.615234,6604.000000,3.000000,64.000000,,,,0.000000,4.000000,4.000000,4.000000,4.000000,4.000000,4.000000,4.000000,4.000000,4.000000,4.000000,4.000000,4.000000,4.000000,4.000000,100.000000,,,,,,,,,,,,,,,,,30.000000,0.000000,0.743404,0.053589,-0.662903,0.070984,0.982053,0.001465,0.104505,-17.783298,-36.520531,65.803123
1703411642.568388,1703411642.568498,121.000000,0.000000,4186.666504,4184.615234,4292.692383,4249.615234,4183.846191,4188.589844,4233.974121,4170.897461,4174.230957,4175.384766,4562.563965,4427.948730,4346.538574,4456.666504,6943.000000,3.000000,64.000000,,,,0.000000,4.000000,4.000000,4.000000,4.000000,4.000000,4.000000,4.000000,4.000000,4.000000,4.000000,4.000000,4.000000,4.000000,4.000000,100.000000,,,,,,,,,,,,,,,,,,,,,,,,,,,,
1703411642.576196,1703411642.576406,122.000000,0.000000,4203.205078,4187.820313,4296.538574,4249.487305,4181.666504,4188.589844,4232.051270,4172.948730,4186.153809,4202.179688,4571.410156,4434.230957,4349.487305,4461.153809,5981.000000,3.000000,64.000000,,,,0.000000,4.000000,4.000000,4.000000,4.000000,4.000000,4.000000,4.000000,4.000000,4.000000,4.000000,4.000000,4.000000,4.000000,4.000000,100.000000,,,,,,,,,,,,,,,,,,,,,,,,,,,,
1703411642.584004,1703411642.584214,123.000000,0.000000,4203.974121,4185.897461,4294.102539,4248.333496,4184.102539,4188.717773,4232.563965,4176.666504,4186.922852,4199.102539,4575.641113,4425.384766,4359.743652,4457.436035,6122.000000,3.000000,64.000000,,,,0.000000,4.000000,4.000000,4.000000,4.000000,4.000000,4.000000,4.000000,4.000000,4.000000,4.000000,4.000000,4.000000,4.000000,4.000000,100.000000,,,,,,,,,,,,,,,,,,,,,,,,,,,,
1703411642.591812,1703411642.592121,124.000000,0.000000,4202.436035,4190.897461,4292.820313,4254.358887,4184.102539,4193.846191,4235.128418,4173.461426,4175.641113,4163.974121,4572.948730,4429.358887,4361.794922,4466.922852,6604.000000,3.000000,64.000000,,,,0.000000,4.000000,4.000000,4.000000,4.000000,4.000000,4.000000,4.000000,4.000000,4.000000,4.000000,4.000000,4.000000,4.000000,4.000000,100.000000,,,,,,,,,,,,,,,,,31.000000,0.000000,0.743549,0.054077,-0.662720,0.070801,0.993774,-0.009278,0.108412,-17.654968,-36.635143,65.872810
1703411642.599620,1703411642.599929,125.000000,0.000000,4212.948730,4202.307617,4299.871582,4260.384766,4185.128418,4195.256348,4233.077148,4166.025879,4167.820313,4147.307617,4569.743652,4445.000000,4361.410156,4480.256348,6943.000000,3.000000,64.000000,,,,0.000000,4.000000,4.000000,4.000000,4.000000,4.000000,4.000000,4.000000,4.000000,4.000000,4.000000,4.000000,4.000000,4.000000,4.000000,100.000000,,,,,,,,,,,,,,,,,,,,,,,,,,,,
1703411642.607428,1703411642.607837,126.000000,0.000000,4223.974121,4205.897461,4308.333496,4261.922852,4188.333496,4186.666504,4230.000000,4167.563965,4166.025879,4162.820313,4571.794922,4449.743652,4375.128418,4479.358887,5981.000000,3.000000,63.000000,,,,0.000000,4.000000,4.000000,4.000000,4.000000,4.000000,4.000000,4.000000,4.000000,4.000000,4.000000,4.000000,4.000000,4.000000,4.000000,100.000000,,,,,,,,,,,,,,,,,,,,,,,,,,,,
1703411642.615236,1703411642.615645,127.000000,0.000000,4223.461426,4200.641113,4307.307617,4260.256348,4188.717773,4180.384766,4230.512695,4180.128418,4175.641113,4193.974121,4579.102539,4442.436035,4381.794922,4480.512695,63.000000,3.000000,63.000000,,,,0.000000,4.000000,4.000000,4.000000,4.000000,4.000000,4.000000,4.000000,4.000000,4.000000,4.000000,4.000000,4.000000,4.000000,4.000000,100.000000,,,,,,,,,,,,,,,,,,,,,,,,,,,,
1703411642.623044,1703411642.623553,0.000000,0.000000,4211.153809,4185.641113,4295.256348,4250.000000,4186.410156,4184.743652,4232.051270,4190.641113,4186.153809,4209.102539,4577.179688,4442.051270,4367.179688,4479.743652,5086.000000,3.000000,63.000000,,,,0.000000,4.000000,4.000000,4.000000,4.000000,4.000000,4.000000,4.000000,4.000000,4.000000,4.000000,4.000000,4.000000,4.000000,4.000000,100.000000,,,,,,,,,,,,,,,,,0.000000,0.000000,0.743718,0.054321,-0.662537,0.070557,0.992309,-0.004395,0.108412,-17.756138,-36.821629,65.868858
1703411642.630852,1703411642.631361,1.000000,0.000000,4199.102539,4170.897461,4289.358887,4240.384766,4179.871582,4187.051270,4231.410156,4186.922852,4183.333496,4189.871582,4568.205078,4445.128418,4354.358887,4460.384766,5452.000000,3.000000,63.000000,,,,0.000000,4.000000,4.000000,4.000000,4.000000,4.000000,4.000000,4.000000,4.000000,4.000000,4.000000,4.000000,4.000000,4.000000,4.000000,100.000000,,,,,,,,,,,,,,,,,,,,,,,,,,,,
1703411642.638660,1703411642.639269,2.000000,0.000000,4197.436035,4170.256348,4294.487305,4239.615234,4174.743652,4185.256348,4230.384766,4175.384766,4183.717773,4184.487305,4569.487305,4441.410156,4353.846191,4442.820313,5325.000000,3.000000,63.000000,,,,0.000000,4.000000,4.000000,4.000000,4.000000,4.000000,4.000000,4.000000,4.000000,4.000000,4.000000,4.000000,4.000000,4.000000,4.000000,100.000000,,,,,,,,,,,,,,,,,,,,,,,,,,,,
1703411642.646468,1703411642.647077,3.000000,0.000000,4202.820313,4185.769043,4299.743652,4251.922852,4180.128418,4186.794922,4231.922852,4171.282227,4186.025879,4200.384766,4580.256348,4442.563965,4361.282227,4455.128418,5349.000000,3.000000,63.000000,,,,0.000000,4.000000,4.000000,4.000000,4.000000,4.000000,4.000000,4.000000,4.000000,4.000000,4.000000,4.000000,4.000000,4.000000,4.000000,100.000000,,,,,,,,,,,,,,,,,,,,,,,,,,,,
1703411642.654276,1703411642.654785,4.000000,0.000000,4212.692383,4191.922852,4303.589844,4265.897461,4188.077148,4189.230957,4231.922852,4173.846191,4175.769043,4177.948730,4584.487305,4449.487305,4373.974121,4486.025879,5125.000000,3.000000,63.000000,,,,0.000000,4.000000,4.000000,4.000000,4.000000,4.000000,4.000000,4.000000,4.000000,4.000000,4.000000,4.000000,4.000000,4.000000,4.000000,100.000000,,,,,,,,,,,,,,,,,1.000000,0.000000,0.743835,0.054443,-0.662415,0.070374,0.998169,-0.003907,0.106947,-17.963858,-36.806133,65.881973
1703411642.662084,1703411642.662693,5.000000,0.000000,4217.820313,4180.769043,4300.384766,4262.820313,4187.436035,4187.179688,4225.512695,4172.563965,4162.563965,4146.538574,4577.948730,4448.589844,4372.820313,4494.102539,3964.000000,3.000000,63.000000,,,,0.000000,4.000000,4.000000,4.000000,4.000000,4.000000,4.000000,4.000000,4.000000,4.000000,4.000000,4.000000,4.000000,4.000000,4.000000,100.000000,,,,,,,,,,,,,,,,,,,,,,,,,,,,
1703411642.669892,1703411642.670501,6.000000,0.000000,4208.974121,4179.743652,4293.205078,4253.974121,4186.153809,4187.051270,4223.461426,4173.333496,4164.230957,4165.512695,4571.922852,4442.563965,4363.974121,4476.666504,2543.000000,3.000000,63.000000,,,,0.000000,4.000000,4.000000,4.000000,4.000000,4.000000,4.000000,4.000000,4.000000,4.000000,4.000000,4.000000,4.000000,4.000000,4.000000,100.000000,,,,,,,,,,,,,,,,,,,,,,,,,,,,
1703411642.677700,1703411642.678309,7.000000,0.000000,4198.461426,4190.128418,4297.307617,4258.846191,4188.333496,4196.025879,4230.641113,4185.000000,4184.230957,4205.128418,4574.743652,4444.487305,4365.000000,4470.512695,5010.000000,3.000000,63.000000,,,,0.000000,4.000000,4.000000,4.000000,4.000000,4.000000,4.000000,4.000000,4.000000,4.000000,4.000000,4.000000,4.000000,4.000000,4.000000,100.000000,,,,,,,,,,,,,,,,,,,,,,,,,,,,
1703411642.685509,1703411642.686018,8.000000,0.000000,4204.102539,4192.051270,4303.589844,4266.025879,4186.666504,4202.948730,4234.615234,4187.948730,4192.436035,4207.436035,4580.128418,4443.846191,4363.461426,4478.461426,4343.000000,3.000000,63.000000,,,,0.000000,4.000000,4.000000,4.000000,4.000000,4.000000,4.000000,4.000000,4.000000,4.000000,4.000000,4.000000,4.000000,4.000000,4.000000,100.000000,,,,,,,,,,,,,,,,,2.000000,0.000000,0.744172,0.054443,-0.662048,0.070251,0.984984,-0.006837,0.104993,-18.234138,-36.742188,65.893776
1703411642.693317,1703411642.693826,9.000000,0.000000,4208.846191,4177.948730,4298.461426,4255.769043,4183.717773,4200.512695,4233.717773,4174.230957,4172.051270,4171.025879,4567.307617,4430.897461,4349.487305,4468.077148,5235.000000,3.000000,63.000000,,,,0.000000,4.000000,4.000000,4.000000,4.000000,4.000000,4.000000,4.000000,4.000000,4.000000,4.000000,4.000000,4.000000,4.000000,4.000000,100.000000,,,,,,,,,,,,,,,,,,,,,,,,,,,,
1703411642.701125,1703411642.701534,10.000000,0.000000,4200.641113,4175.128418,4297.307617,4251.794922,4185.512695,4197.948730,4231.153809,4163.589844,4157.436035,4152.692383,4551.025879,4427.820313,4345.897461,4444.487305,6001.000000,3.000000,63.000000,,,,0.000000,4.000000,4.000000,4.000000,4.000000,4.000000,4.000000,4.000000,4.000000,4.000000,4.000000,4.000000,4.000000,4.000000,4.000000,100.000000,1.000000,91.666664,4.000000,4.000000,4.000000,4.000000,4.000000,4.000000,4.000000,4.000000,4.000000,3.000000,4.000000,4.000000,4.000000,4.000000,,,,,,,,,,,,
1703411642.708933,1703411642.709342,11.000000,0.000000,4203.077148,4197.179688,4302.179688,4260.897461,4189.230957,4198.846191,4232.436035,4165.000000,4167.436035,4167.179688,4563.077148,4443.077148,4359.871582,4453.205078,6115.000000,3.000000,63.000000,,,,0.000000,4.000000,4.000000,4.000000,4.000000,4.000000,4.000000,4.000000,4.000000,4.000000,4.000000,4.000000,4.000000,4.000000,4.000000,100.000000,,,,,,,,,,,,,,,,,,,,,,,,,,,,
1703411642.716741,1703411642.717050,12.000000,0.000000,4213.589844,4203.717773,4302.948730,4263.974121,4189.230957,4201.922852,4237.307617,4173.717773,4178.077148,4170.897461,4580.641113,4451.666504,4370.769043,4480.769043,6624.000000,3.000000,63.000000,,,,0.000000,4.000000,4.000000,4.000000,4.000000,4.000000,4.000000,4.000000,4.000000,4.000000,4.000000,4.000000,4.000000,4.000000,4.000000,100.000000,,,,,,,,,,,,,,,,,3.000000,0.000000,0.744193,0.054626,-0.662048,0.069885,0.999634,0.008302,0.110853,-18.327393,-36.617966,65.954399
1703411642.724549,1703411642.724858,13.000000,0.000000,4218.461426,4191.538574,4306.922852,4263.333496,4186.410156,4204.743652,4237.436035,4181.922852,4187.051270,4180.128418,4586.538574,4455.128418,4376.410156,4492.692383,6943.000000,3.000000,63.000000,,,,0.000000,4.000000,4.000000,4.000000,4.000000,4.000000,4.000000,4.000000,4.000000,4.000000,4.000000,4.000000,4.000000,4.000000,4.000000,100.000000,,,,,,,,,,,,,,,,,,,,,,,,,,,,
1703411642.732357,1703411642.732566,14.000000,0.000000,4218.974121,4189.230957,4311.410156,4263.461426,4185.512695,4204.743652,4239.230957,4187.179688,4200.641113,4210.128418,4599.230957,4469.230957,4385.897461,4492.820313,6001.000000,3.000000,63.000000,,,,0.000000,4.000000,4.000000,4.000000,4.000000,4.000000,4.000000,4.000000,4.000000,4.000000,4.000000,4.000000,4.000000,4.000000,4.000000,100.000000,,,,,,,,,,,,,,,,,,,,,,,,,,,,
1703411642.740165,1703411642.740374,15.000000,0.000000,4207.948730,4188.974121,4302.436035,4260.256348,4188.077148,4202.307617,4242.179688,4188.846191,4193.589844,4190.512695,4600.769043,4464.871582,4383.461426,4486.025879,6115.000000,3.000000,63.000000,,,,0.000000,4.000000,4.000000,4.000000,4.000000,4.000000,4.000000,4.000000,4.000000,4.000000,4.000000,4.000000,4.000000,4.000000,4.000000,100.000000,,,,,,,,,,,,,,,,,,,,,,,,,,,,
1703411642.747973,1703411642.748082,16.000000,0.000000,4199.487305,4188.846191,4297.179688,4257.692383,4196.538574,4201.922852,4240.769043,4180.769043,4169.743652,4152.563965,4576.538574,4444.615234,4367.179688,4476.282227,0.000000,3.000000,63.000000,,,,0.000000,4.000000,4.000000,4.000000,4.000000,4.000000,4.000000,4.000000,4.000000,4.000000,4.000000,4.000000,4.000000,4.000000,4.000000,100.000000,,,,,,,,,,,,,,,,,4.000000,0.000000,0.744245,0.054626,-0.662048,0.069336,0.980588,-0.007325,0.116225,-18.361319,-36.422836,65.808960
1703411642.755781,1703411642.755990,17.000000,0.000000,4217.692383,4198.974121,4306.538574,4270.000000,4200.384766,4203.205078,4240.769043,4176.410156,4165.769043,4162.692383,4561.666504,4451.025879,4357.563965,4480.128418,0.000000,3.000000,63.000000,,,,0.000000,4.000000,4.000000,4.000000,4.000000,4.000000,4.000000,4.000000,4.000000,4.000000,4.000000,4.000000,4.000000,4.000000,4.000000,100.000000,,,,,,,,,,,,,,,,,,,,,,,,,,,,
1703411642.763589,1703411642.763798,18.000000,0.000000,4237.563965,4204.615234,4309.871582,4281.538574,4191.794922,4197.563965,4237.820313,4176.410156,4175.384766,4171.666504,4576.153809,4461.922852,4364.871582,4491.922852,0.000000,3.000000,63.000000,,,,0.000000,4.000000,4.000000,4.000000,4.000000,4.000000,4.000000,4.000000,4.000000,4.000000,4.000000,4.000000,4.000000,4.000000,4.000000,100.000000,,,,,,,,,,,,,,,,,,,,,,,,,,,,
1703411642.771397,1703411642.771705,19.000000,0.000000,4228.974121,4203.846191,4307.051270,4275.641113,4183.717773,4192.179688,4230.512695,4170.384766,4176.538574,4172.820313,4586.153809,4455.897461,4373.333496,4487.948730,0.000000,3.000000,63.000000,,,,0.000000,4.000000,4.000000,4.000000,4.000000,4.000000,4.000000,4.000000,4.000000,4.000000,4.000000,4.000000,4.000000,4.000000,4.000000,100.000000,,,,,,,,,,,,,,,,,,,,,,,,,,,,
1703411642.779205,1703411642.779513,20.000000,0.000000,4218.589844,4201.025879,4305.769043,4261.410156,4184.871582,4198.077148,4229.358887,4172.307617,4178.461426,4187.051270,4580.128418,4453.205078,4367.436035,4475.000000,0.000000,3.000000,63.000000,,,,0.000000,4.000000,4.000000,4.000000,4.000000,4.000000,4.000000,4.000000,4.000000,4.000000,4.000000,4.000000,4.000000,4.000000,4.000000,100.000000,,,,,,,,,,,,,,,,,5.000000,0.000000,0.744248,0.054504,-0.662048,0.069397,0.991820,-0.008302,0.105482,-18.458521,-36.480553,65.944733
1703411642.787013,1703411642.787421,21.000000,0.000000,4213.077148,4185.769043,4296.666504,4249.102539,4188.205078,4206.025879,4237.307617,4179.871582,4185.769043,4173.077148,4561.538574,4453.205078,4352.692383,4466.025879,0.000000,3.000000,63.000000,,,,0.000000,4.000000,4.000000,4.000000,4.000000,4.000000,4.000000,4.000000,4.000000,4.000000,4.000000,4.000000,4.000000,4.000000,4.000000,100.000000,,,,,,,,,,,,,,,,,,,,,,,,,,,,
1703411642.794821,1703411642.795229,22.000000,0.000000,4207.307617,4179.487305,4289.358887,4247.051270,4188.205078,4208.461426,4243.461426,4177.179688,4184.230957,4147.307617,4548.589844,4443.077148,4338.461426,4468.589844,0.000000,3.000000,63.000000,,,,0.000000,4.000000,4.000000,4.000000,4.000000,4.000000,4.000000,4.000000,4.000000,4.000000,4.000000,4.000000,4.000000,4.000000,4.000000,100.000000,,,,,,,,,,,,,,,,,,,,,,,,,,,,
1703411642.802629,1703411642.803137,23.000000,0.000000,4213.333496,4190.769043,4296.538574,4254.615234,4187.563965,4207.051270,4243.974121,4174.487305,4181.666504,4163.589844,4565.000000,4440.128418,4342.436035,4474.358887,0.000000,3.000000,63.000000,,,,0.000000,4.000000,4.000000,4.000000,4.000000,4.000000,4.000000,4.000000,4.000000,4.000000,4.000000,4.000000,4.000000,4.000000,4.000000,100.000000,,,,,,,,,,,,,,,,,,,,,,,,,,,,
1703411642.810437,1703411642.810945,24.000000,0.000000,4216.666504,4189.358887,4302.436035,4256.666504,4187.692383,4206.282227,4244.615234,4176.282227,4185.128418,4169.102539,4579.358887,4453.205078,4352.948730,4466.282227,0.000000,3.000000,63.000000,,,,0.000000,4.000000,4.000000,4.000000,4.000000,4.000000,4.000000,4.000000,4.000000,4.000000,4.000000,4.000000,4.000000,4.000000,4.000000,100.000000,,,,,,,,,,,,,,,,,6.000000,0.000000,0.744244,0.054565,-0.662048,0.069397,0.998657,-0.003907,0.101087,-18.296001,-36.449165,66.033592
1703411642.818245,1703411642.818853,25.000000,0.000000,4212.179688,4182.307617,4299.102539,4253.717773,4188.717773,4206.153809,4244.230957,4171.025879,4178.717773,4136.538574,4567.820313,4458.461426,4347.563965,4458.717773,0.000000,3.000000,63.000000,,,,0.000000,4.000000,4.000000,4.000000,4.000000,4.000000,4.000000,4.000000,4.000000,4.000000,4.000000,4.000000,4.000000,4.000000,4.000000,100.000000,,,,,,,,,,,,,,,,,,,,,,,,,,,,
1703411642.826054,1703411642.826661,26.000000,0.000000,4213.717773,4186.922852,4298.077148,4259.230957,4186.282227,4204.615234,4241.794922,4167.436035,4167.820313,4134.102539,4558.974121,4450.384766,4340.000000,4465.641113,0.000000,3.000000,63.000000,,,,0.000000,4.000000,4.000000,4.000000,4.000000,4.000000,4.000000,4.000000,4.000000,4.000000,4.000000,4.000000,4.000000,4.000000,4.000000,100.000000,,,,,,,,,,,,,,,,,,,,,,,,,,,,
1703411642.833861,1703411642.834369,27.000000,0.000000,4216.666504,4186.410156,4299.615234,4260.512695,4180.512695,4201.282227,4243.461426,4170.384766,4172.820313,4160.000000,4553.589844,4441.282227,4332.820313,4469.487305,0.000000,3.000000,63.000000,,,,0.000000,4.000000,4.000000,4.000000,4.000000,4.000000,4.000000,4.000000,4.000000,4.000000,4.000000,4.000000,4.000000,4.000000,4.000000,100.000000,,,,,,,,,,,,,,,,,,,,,,,,,,,,
1703411642.841669,1703411642.842177,28.000000,0.000000,4212.179688,4186.025879,4305.256348,4256.025879,4181.794922,4199.743652,4244.615234,4174.102539,4187.820313,4159.487305,4540.897461,4447.436035,4321.153809,4457.307617,0.000000,3.000000,63.000000,,,,0.000000,4.000000,4.000000,4.000000,4.000000,4.000000,4.000000,4.000000,4.000000,4.000000,4.000000,4.000000,4.000000,4.000000,4.000000,100.000000,,,,,,,,,,,,,,,,,7.000000,0.000000,0.744057,0.054810,-0.662231,0.069458,0.992309,-0.004395,0.119644,-18.266401,-36.387581,66.230232
1703411642.849478,1703411642.849885,29.000000,0.000000,4216.025879,4207.948730,4312.051270,4265.000000,4189.743652,4200.512695,4244.102539,4179.487305,4187.692383,4142.820313,4543.333496,4452.820313,4311.922852,4442.948730,0.000000,3.000000,63.000000,,,,0.000000,4.000000,4.000000,4.000000,4.000000,4.000000,4.000000,4.000000,4.000000,4.000000,4.000000,4.000000,4.000000,4.000000,4.000000,100.000000,,,,,,,,,,,,,,,,,,,,,,,,,,,,
1703411642.857286,1703411642.857693,30.000000,0.000000,4232.563965,4222.179688,4310.000000,4272.436035,4193.205078,4200.384766,4243.205078,4173.589844,4169.358887,4147.179688,4545.384766,4431.025879,4312.051270,4440.897461,0.000000,3.000000,63.000000,,,,0.000000,4.000000,4.000000,4.000000,4.000000,4.000000,4.000000,4.000000,4.000000,4.000000,4.000000,4.000000,4.000000,4.000000,4.000000,100.000000,,,,,,,,,,,,,,,,,,,,,,,,,,,,
1703411642.865094,1703411642.865401,31.000000,0.000000,4236.410156,4207.692383,4300.128418,4264.743652,4187.692383,4201.794922,4239.102539,4161.153809,4165.641113,4172.692383,4531.922852,4412.307617,4310.512695,4454.871582,0.000000,3.000000,63.000000,,,,0.000000,4.000000,4.000000,4.000000,4.000000,4.000000,4.000000,4.000000,4.000000,4.000000,4.000000,4.000000,4.000000,4.000000,4.000000,100.000000,,,,,,,,,,,,,,,,,,,,,,,,,,,,
1703411642.872902,1703411642.873209,32.000000,0.000000,4221.410156,4196.538574,4293.846191,4261.538574,4182.051270,4200.128418,4238.717773,4156.666504,4174.743652,4181.666504,4529.871582,4417.948730,4302.179688,4465.769043,0.000000,3.000000,63.000000,,,,0.000000,4.000000,4.000000,4.000000,4.000000,4.000000,4.000000,4.000000,4.000000,4.000000,4.000000,4.000000,4.000000,4.000000,4.000000,100.000000,,,,,,,,,,,,,,,,,8.000000,0.000000,0.744048,0.054932,-0.662231,0.069458,0.979123,-0.020510,0.110853,-18.223095,-36.465488,66.257210
1703411642.880710,1703411642.880917,33.000000,0.000000,4211.153809,4198.717773,4293.717773,4265.128418,4183.461426,4197.948730,4240.897461,4154.615234,4166.794922,4148.589844,4526.153809,4423.974121,4292.692383,4453.077148,0.000000,3.000000,63.000000,,,,0.000000,4.000000,4.000000,4.000000,4.000000,4.000000,4.000000,4.000000,4.000000,4.000000,4.000000,4.000000,4.000000,4.000000,4.000000,100.000000,,,,,,,,,,,,,,,,,,,,,,,,,,,,
1703411642.888518,1703411642.888725,34.000000,0.000000,4218.846191,4198.589844,4296.410156,4261.794922,4188.205078,4199.615234,4240.000000,4157.563965,4162.051270,4128.717773,4525.641113,4430.256348,4296.282227,4450.256348,0.000000,3.000000,63.000000,,,,0.000000,4.000000,4.000000,4.000000,4.000000,4.000000,4.000000,4.000000,4.000000,4.000000,4.000000,4.000000,4.000000,4.000000,4.000000,100.000000,,,,,,,,,,,,,,,,,,,,,,,,,,,,
1703411642.896326,1703411642.896433,35.000000,0.000000,4228.077148,4197.051270,4299.615234,4259.358887,4190.384766,4200.384766,4239.871582,4169.102539,4174.871582,4146.794922,4551.153809,4446.410156,4318.589844,4468.974121,0.000000,3.000000,63.000000,,,,0.000000,4.000000,4.000000,4.000000,4.000000,4.000000,4.000000,4.000000,4.000000,4.000000,4.000000,4.000000,4.000000,4.000000,4.000000,100.000000,,,,,,,,,,,,,,,,,,,,,,,,,,,,
1703411642.904134,1703411642.904241,36.000000,0.000000,4236.282227,4205.897461,4301.922852,4263.846191,4188.333496,4200.769043,4243.077148,4175.000000,4179.230957,4154.743652,4565.000000,4452.563965,4332.051270,4474.743652,0.000000,3.000000,63.000000,,,,0.000000,4.000000,4.000000,4.000000,4.000000,4.000000,4.000000,4.000000,4.000000,4.000000,4.000000,4.000000,4.000000,4.000000,4.000000,100.000000,,,,,,,,,,,,,,,,,9.000000,0.000000,0.743934,0.055237,-0.662354,0.069275,0.993774,-0.005860,0.103040,-18.117453,-36.602276,66.398155
1703411642.911942,1703411642.911949,37.000000,0.000000,4234.230957,4212.563965,4304.358887,4265.256348,4183.589844,4200.384766,4242.051270,4165.897461,4169.487305,4144.487305,4542.051270,4443.846191,4325.512695,4457.820313,0.000000,3.000000,63.000000,,,,0.000000,4.000000,4.000000,4.000000,4.000000,4.000000,4.000000,4.000000,4.000000,4.000000,4.000000,4.000000,4.000000,4.000000,4.000000,100.000000,,,,,,,,,,,,,,,,,,,,,,,,,,,,
1703411642.919750,1703411642.919857,38.000000,0.000000,4220.384766,4208.077148,4303.205078,4261.794922,4184.487305,4198.974121,4237.436035,4155.641113,4166.794922,4150.512695,4527.307617,4438.589844,4314.358887,4456.153809,0.000000,3.000000,63.000000,,,,0.000000,4.000000,4.000000,4.000000,4.000000,4.000000,4.000000,4.000000,4.000000,4.000000,4.000000,4.000000,4.000000,4.000000,4.000000,100.000000,,,,,,,,,,,,,,,,,,,,,,,,,,,,
1703411642.927558,1703411642.927665,39.000000,0.000000,4213.717773,4201.153809,4292.179688,4261.282227,4187.948730,4198.589844,4238.077148,4153.333496,4170.641113,4162.692383,4535.641113,4430.384766,4310.256348,4464.102539,0.000000,3.000000,63.000000,,,,0.000000,4.000000,4.000000,4.000000,4.000000,4.000000,4.000000,4.000000,4.000000,4.000000,4.000000,4.000000,4.000000,4.000000,4.000000,100.000000,,,,,,,,,,,,,,,,,,,,,,,,,,,,
1703411642.935366,1703411642.935473,40.000000,0.000000,4219.743652,4198.333496,4281.153809,4262.692383,4181.282227,4201.153809,4240.000000,4155.641113,4167.948730,4156.666504,4539.871582,4422.948730,4312.820313,4452.051270,0.000000,3.000000,63.000000,,,,0.000000,4.000000,4.000000,4.000000,4.000000,4.000000,4.000000,4.000000,4.000000,4.000000,4.000000,4.000000,4.000000,4.000000,4.000000,100.000000,,,,,,,,,,,,,,,,,10.000000,0.000000,0.743783,0.055298,-0.662537,0.069092,0.998657,-0.003907,0.104017,-18.222374,-36.658714,66.408340
1703411642.943174,1703411642.943181,41.000000,0.000000,4218.205078,4201.025879,4280.256348,4261.025879,4176.922852,4201.410156,4239.487305,4159.358887,4169.102539,4161.538574,4539.102539,4426.538574,4313.333496,4441.282227,0.000000,3.000000,63.000000,,,,0.000000,4.000000,4.000000,4.000000,4.000000,4.000000,4.000000,4.000000,4.000000,4.000000,4.000000,4.000000,4.000000,4.000000,4.000000,100.000000,,,,,,,,,,,,,,,,,,,,,,,,,,,,
1703411642.950982,1703411642.951089,42.000000,0.000000,4201.410156,4204.615234,4280.641113,4257.820313,4183.974121,4200.000000,4237.179688,4160.128418,4171.794922,4165.897461,4542.307617,4428.589844,4315.897461,4440.512695,0.000000,3.000000,63.000000,,,,0.000000,4.000000,4.000000,4.000000,4.000000,4.000000,4.000000,4.000000,4.000000,4.000000,4.000000,4.000000,4.000000,4.000000,4.000000,100.000000,,,,,,,,,,,,,,,,,,,,,,,,,,,,
1703411642.958790,1703411642.958897,43.000000,0.000000,4200.128418,4211.666504,4279.358887,4261.282227,4192.436035,4207.948730,4241.794922,4156.666504,4169.615234,4157.051270,4550.256348,4430.000000,4325.128418,4444.743652,0.000000,3.000000,63.000000,,,,0.000000,4.000000,4.000000,4.000000,4.000000,4.000000,4.000000,4.000000,4.000000,4.000000,4.000000,4.000000,4.000000,4.000000,4.000000,100.000000,,,,,,,,,,,,,,,,,,,,,,,,,,,,
