title:مريان دواء, start timestamp:1703413919.450628, stop timestamp:1703413930.444367, headset type:EPOCX, headset serial:E50206EF, headset firmware:720, channels:67, sampling rate:eeg_128;mot_32, samples:1409      , version:2.2, 
Timestamp,OriginalTimestamp,EEG.Counter,EEG.Interpolated,EEG.AF3,EEG.F7,EEG.F3,EEG.FC5,EEG.T7,EEG.P7,EEG.O1,EEG.O2,EEG.P8,EEG.T8,EEG.FC6,EEG.F4,EEG.F8,EEG.AF4,EEG.RawCq,EEG.Battery,EEG.BatteryPercent,MarkerIndex,MarkerType,MarkerValueInt,EEG.MarkerHardware,CQ.AF3,CQ.F7,CQ.F3,CQ.FC5,CQ.T7,CQ.P7,CQ.O1,CQ.O2,CQ.P8,CQ.T8,CQ.FC6,CQ.F4,CQ.F8,CQ.AF4,CQ.Overall,EQ.SampleRateQuality,EQ.OVERALL,EQ.AF3,EQ.F7,EQ.F3,EQ.FC5,EQ.T7,EQ.P7,EQ.O1,EQ.O2,EQ.P8,EQ.T8,EQ.FC6,EQ.F4,EQ.F8,EQ.AF4,MOT.CounterMems,MOT.InterpolatedMems,MOT.Q0,MOT.Q1,MOT.Q2,MOT.Q3,MOT.AccX,MOT.AccY,MOT.AccZ,MOT.MagX,MOT.MagY,MOT.MagZ
1703413919.450628,1703413919.451654,62.000000,0.000000,4272.307617,4239.615234,4316.025879,4311.538574,4262.051270,4205.128418,4247.307617,4263.077148,4251.410156,4257.179688,4575.897461,4510.384766,4417.692383,4499.743652,0.000000,3.000000,57.000000,,,,0.000000,4.000000,4.000000,4.000000,4.000000,4.000000,4.000000,4.000000,4.000000,4.000000,4.000000,4.000000,4.000000,4.000000,4.000000,100.000000,,,,,,,,,,,,,,,,,,,,,,,,,,,,
1703413919.458436,1703413919.459362,63.000000,0.000000,4259.358887,4232.563965,4312.563965,4304.358887,4260.256348,4194.102539,4244.743652,4248.589844,4252.563965,4236.922852,4568.589844,4491.153809,4403.205078,4491.666504,0.000000,3.000000,57.000000,,,,0.000000,4.000000,4.000000,4.000000,4.000000,4.000000,4.000000,4.000000,4.000000,4.000000,4.000000,4.000000,4.000000,4.000000,4.000000,100.000000,,,,,,,,,,,,,,,,,,,,,,,,,,,,
1703413919.466245,1703413919.467171,64.000000,0.000000,4259.871582,4234.230957,4307.948730,4304.871582,4249.358887,4197.179688,4248.717773,4245.641113,4256.794922,4217.179688,4549.102539,4479.871582,4392.179688,4477.179688,3662.000000,3.000000,57.000000,,,,0.000000,4.000000,4.000000,4.000000,4.000000,4.000000,4.000000,4.000000,4.000000,4.000000,4.000000,4.000000,4.000000,4.000000,4.000000,100.000000,,,,,,,,,,,,,,,,,16.000000,0.000000,0.331843,0.625122,-0.260071,0.656860,0.993774,0.095226,0.081065,-18.523724,-35.755634,66.143150
1703413919.474053,1703413919.474879,65.000000,0.000000,4259.743652,4238.205078,4304.743652,4304.102539,4249.487305,4213.333496,4253.205078,4247.436035,4249.743652,4219.871582,4533.333496,4474.743652,4382.820313,4472.436035,5409.000000,3.000000,57.000000,,,,0.000000,4.000000,4.000000,4.000000,4.000000,4.000000,4.000000,4.000000,4.000000,4.000000,4.000000,4.000000,4.000000,4.000000,4.000000,100.000000,,,,,,,,,,,,,,,,,,,,,,,,,,,,
1703413919.481861,1703413919.482687,66.000000,0.000000,4249.743652,4232.436035,4305.769043,4295.000000,4251.922852,4212.948730,4251.794922,4246.794922,4244.230957,4232.948730,4539.871582,4475.512695,4384.358887,4477.051270,5071.000000,3.000000,57.000000,,,,0.000000,4.000000,4.000000,4.000000,4.000000,4.000000,4.000000,4.000000,4.000000,4.000000,4.000000,4.000000,4.000000,4.000000,4.000000,100.000000,,,,,,,,,,,,,,,,,,,,,,,,,,,,
1703413919.489669,1703413919.490395,67.000000,0.000000,4243.589844,4220.769043,4302.692383,4289.487305,4249.743652,4204.487305,4248.846191,4255.897461,4256.025879,4240.128418,4551.922852,4481.922852,4397.948730,4476.922852,5275.000000,3.000000,57.000000,,,,0.000000,4.000000,4.000000,4.000000,4.000000,4.000000,4.000000,4.000000,4.000000,4.000000,4.000000,4.000000,4.000000,4.000000,4.000000,100.000000,,,,,,,,,,,,,,,,,,,,,,,,,,,,
1703413919.497477,1703413919.498203,68.000000,0.000000,4243.461426,4225.641113,4297.051270,4295.897461,4250.256348,4207.820313,4251.025879,4267.051270,4264.358887,4227.820313,4555.897461,4482.436035,4397.436035,4472.820313,5153.000000,3.000000,57.000000,,,,0.000000,4.000000,4.000000,4.000000,4.000000,4.000000,4.000000,4.000000,4.000000,4.000000,4.000000,4.000000,4.000000,4.000000,4.000000,100.000000,,,,,,,,,,,,,,,,,17.000000,0.000000,0.332121,0.625000,-0.260010,0.656860,0.992797,0.090343,0.087901,-18.571352,-35.763405,66.212166
1703413919.505285,1703413919.505911,69.000000,0.000000,4244.102539,4238.717773,4298.205078,4300.897461,4250.769043,4210.384766,4255.000000,4259.230957,4255.769043,4218.717773,4555.000000,4475.512695,4387.436035,4464.743652,4473.000000,3.000000,57.000000,,,,0.000000,4.000000,4.000000,4.000000,4.000000,4.000000,4.000000,4.000000,4.000000,4.000000,4.000000,4.000000,4.000000,4.000000,4.000000,100.000000,,,,,,,,,,,,,,,,,,,,,,,,,,,,
1703413919.513093,1703413919.513719,70.000000,0.000000,4247.692383,4237.179688,4300.384766,4299.102539,4249.102539,4203.974121,4253.461426,4241.153809,4243.974121,4224.743652,4541.666504,4470.128418,4383.846191,4461.282227,2672.000000,3.000000,57.000000,,,,0.000000,4.000000,4.000000,4.000000,4.000000,4.000000,4.000000,4.000000,4.000000,4.000000,4.000000,4.000000,4.000000,4.000000,4.000000,100.000000,,,,,,,,,,,,,,,,,,,,,,,,,,,,
1703413919.520901,1703413919.521427,71.000000,0.000000,4258.461426,4234.230957,4308.717773,4303.589844,4255.000000,4197.179688,4248.333496,4238.333496,4246.025879,4234.487305,4539.871582,4481.794922,4396.794922,4479.871582,4772.000000,3.000000,57.000000,,,,0.000000,4.000000,4.000000,4.000000,4.000000,4.000000,4.000000,4.000000,4.000000,4.000000,4.000000,4.000000,4.000000,4.000000,4.000000,100.000000,,,,,,,,,,,,,,,,,,,,,,,,,,,,
1703413919.528709,1703413919.529235,72.000000,0.000000,4270.769043,4236.025879,4324.871582,4309.615234,4260.641113,4190.769043,4246.153809,4253.205078,4254.102539,4239.358887,4564.102539,4506.282227,4414.102539,4504.871582,4403.000000,3.000000,57.000000,,,,0.000000,4.000000,4.000000,4.000000,4.000000,4.000000,4.000000,4.000000,4.000000,4.000000,4.000000,4.000000,4.000000,4.000000,4.000000,100.000000,,,,,,,,,,,,,,,,,18.000000,0.000000,0.332121,0.625000,-0.260010,0.656860,0.979612,0.099622,0.081553,-18.497549,-35.653728,66.240952
1703413919.536517,1703413919.536943,73.000000,0.000000,4275.000000,4233.589844,4330.256348,4312.948730,4257.436035,4188.205078,4243.846191,4262.820313,4256.538574,4238.461426,4577.179688,4516.666504,4414.743652,4514.358887,5330.000000,3.000000,57.000000,,,,0.000000,4.000000,4.000000,4.000000,4.000000,4.000000,4.000000,4.000000,4.000000,4.000000,4.000000,4.000000,4.000000,4.000000,4.000000,100.000000,,,,,,,,,,,,,,,,,,,,,,,,,,,,
1703413919.544325,1703413919.544751,74.000000,0.000000,4283.205078,4240.897461,4329.358887,4320.641113,4258.205078,4193.717773,4242.692383,4261.922852,4258.974121,4244.871582,4580.769043,4519.487305,4417.563965,4518.589844,5876.000000,3.000000,57.000000,,,,0.000000,4.000000,4.000000,4.000000,4.000000,4.000000,4.000000,4.000000,4.000000,4.000000,4.000000,4.000000,4.000000,4.000000,4.000000,100.000000,,,,,,,,,,,,,,,,,,,,,,,,,,,,
1703413919.552133,1703413919.552459,75.000000,0.000000,4294.743652,4252.692383,4333.461426,4323.974121,4263.974121,4191.538574,4243.205078,4263.589844,4262.563965,4259.743652,4596.153809,4528.717773,4432.948730,4528.589844,6058.000000,3.000000,57.000000,,,,0.000000,4.000000,4.000000,4.000000,4.000000,4.000000,4.000000,4.000000,4.000000,4.000000,4.000000,4.000000,4.000000,4.000000,4.000000,100.000000,,,,,,,,,,,,,,,,,,,,,,,,,,,,
1703413919.559941,1703413919.560267,76.000000,0.000000,4291.666504,4249.871582,4333.461426,4316.282227,4264.871582,4189.743652,4242.307617,4270.000000,4268.077148,4268.461426,4598.717773,4533.461426,4434.871582,4530.384766,6556.000000,3.000000,57.000000,,,,0.000000,4.000000,4.000000,4.000000,4.000000,4.000000,4.000000,4.000000,4.000000,4.000000,4.000000,4.000000,4.000000,4.000000,4.000000,100.000000,,,,,,,,,,,,,,,,,19.000000,0.000000,0.332207,0.624878,-0.260193,0.656860,0.989867,0.105970,0.086436,-18.397795,-35.555023,66.233521
1703413919.567749,1703413919.567975,77.000000,0.000000,4276.922852,4243.333496,4324.871582,4312.692383,4263.717773,4201.410156,4242.563965,4276.153809,4276.538574,4259.615234,4578.846191,4525.128418,4419.102539,4516.794922,6573.000000,3.000000,57.000000,,,,0.000000,4.000000,4.000000,4.000000,4.000000,4.000000,4.000000,4.000000,4.000000,4.000000,4.000000,4.000000,4.000000,4.000000,4.000000,100.000000,,,,,,,,,,,,,,,,,,,,,,,,,,,,
1703413919.575557,1703413919.575883,78.000000,0.000000,4267.436035,4234.871582,4316.538574,4309.743652,4265.897461,4203.846191,4247.436035,4272.436035,4283.077148,4259.230957,4565.897461,4510.256348,4410.641113,4502.563965,5876.000000,3.000000,57.000000,,,,0.000000,4.000000,4.000000,4.000000,4.000000,4.000000,4.000000,4.000000,4.000000,4.000000,4.000000,4.000000,4.000000,4.000000,4.000000,100.000000,,,,,,,,,,,,,,,,,,,,,,,,,,,,
1703413919.583365,1703413919.583692,79.000000,0.000000,4260.384766,4225.000000,4308.974121,4299.102539,4259.743652,4200.256348,4247.051270,4267.436035,4281.922852,4268.205078,4566.922852,4493.589844,4410.641113,4493.717773,6058.000000,3.000000,57.000000,,,,0.000000,4.000000,4.000000,4.000000,4.000000,4.000000,4.000000,4.000000,4.000000,4.000000,4.000000,4.000000,4.000000,4.000000,4.000000,100.000000,,,,,,,,,,,,,,,,,,,,,,,,,,,,
1703413919.591173,1703413919.591600,80.000000,0.000000,4250.000000,4224.743652,4300.000000,4291.025879,4255.256348,4208.846191,4245.641113,4273.717773,4272.820313,4250.000000,4565.641113,4485.256348,4398.205078,4481.025879,6556.000000,3.000000,57.000000,,,,0.000000,4.000000,4.000000,4.000000,4.000000,4.000000,4.000000,4.000000,4.000000,4.000000,4.000000,4.000000,4.000000,4.000000,4.000000,100.000000,,,,,,,,,,,,,,,,,20.000000,0.000000,0.332215,0.624695,-0.260315,0.656982,0.984984,0.092785,0.082041,-18.341349,-35.716187,66.060165
1703413919.598982,1703413919.599409,81.000000,0.000000,4247.051270,4231.794922,4298.846191,4291.794922,4263.589844,4218.461426,4250.384766,4278.077148,4266.794922,4226.153809,4557.563965,4488.333496,4385.512695,4475.000000,6573.000000,3.000000,57.000000,,,,0.000000,4.000000,4.000000,4.000000,4.000000,4.000000,4.000000,4.000000,4.000000,4.000000,4.000000,4.000000,4.000000,4.000000,4.000000,100.000000,,,,,,,,,,,,,,,,,,,,,,,,,,,,
1703413919.606789,1703413919.607317,82.000000,0.000000,4250.641113,4240.512695,4301.282227,4296.282227,4269.358887,4214.230957,4252.051270,4268.589844,4265.000000,4229.487305,4546.410156,4485.769043,4387.051270,4481.153809,5876.000000,3.000000,57.000000,,,,0.000000,4.000000,4.000000,4.000000,4.000000,4.000000,4.000000,4.000000,4.000000,4.000000,4.000000,4.000000,4.000000,4.000000,4.000000,100.000000,,,,,,,,,,,,,,,,,,,,,,,,,,,,
1703413919.614597,1703413919.615125,83.000000,0.000000,4248.589844,4238.717773,4301.794922,4293.846191,4266.025879,4200.128418,4248.333496,4256.153809,4257.692383,4240.256348,4538.974121,4475.128418,4385.000000,4477.436035,6058.000000,3.000000,57.000000,,,,0.000000,4.000000,4.000000,4.000000,4.000000,4.000000,4.000000,4.000000,4.000000,4.000000,4.000000,4.000000,4.000000,4.000000,4.000000,100.000000,,,,,,,,,,,,,,,,,,,,,,,,,,,,
1703413919.622406,1703413919.623033,84.000000,0.000000,4247.820313,4228.077148,4304.871582,4289.358887,4261.666504,4190.641113,4244.871582,4248.077148,4246.153809,4224.743652,4540.641113,4473.717773,4380.256348,4470.769043,6556.000000,3.000000,57.000000,,,,0.000000,4.000000,4.000000,4.000000,4.000000,4.000000,4.000000,4.000000,4.000000,4.000000,4.000000,4.000000,4.000000,4.000000,4.000000,100.000000,,,,,,,,,,,,,,,,,21.000000,0.000000,0.332282,0.624634,-0.260376,0.656982,0.984495,0.110365,0.083506,-18.373880,-35.611237,66.070816
1703413919.630214,1703413919.630841,85.000000,0.000000,4259.743652,4231.794922,4310.769043,4293.077148,4259.487305,4195.128418,4245.769043,4244.487305,4243.077148,4210.641113,4551.922852,4483.333496,4392.307617,4477.179688,6573.000000,3.000000,57.000000,,,,0.000000,4.000000,4.000000,4.000000,4.000000,4.000000,4.000000,4.000000,4.000000,4.000000,4.000000,4.000000,4.000000,4.000000,4.000000,100.000000,,,,,,,,,,,,,,,,,,,,,,,,,,,,
1703413919.638022,1703413919.638650,86.000000,0.000000,4266.922852,4241.153809,4314.615234,4299.358887,4262.563965,4205.000000,4251.025879,4243.333496,4248.589844,4227.436035,4556.538574,4488.077148,4404.871582,4481.025879,5876.000000,3.000000,57.000000,,,,0.000000,4.000000,4.000000,4.000000,4.000000,4.000000,4.000000,4.000000,4.000000,4.000000,4.000000,4.000000,4.000000,4.000000,4.000000,100.000000,,,,,,,,,,,,,,,,,,,,,,,,,,,,
1703413919.645830,1703413919.646458,87.000000,0.000000,4255.128418,4233.205078,4311.666504,4297.179688,4263.846191,4203.461426,4250.897461,4235.128418,4243.077148,4236.153809,4547.563965,4477.948730,4395.641113,4477.820313,6058.000000,3.000000,57.000000,,,,0.000000,4.000000,4.000000,4.000000,4.000000,4.000000,4.000000,4.000000,4.000000,4.000000,4.000000,4.000000,4.000000,4.000000,4.000000,100.000000,,,,,,,,,,,,,,,,,,,,,,,,,,,,
1703413919.653638,1703413919.654166,88.000000,0.000000,4247.563965,4225.512695,4306.666504,4291.410156,4259.230957,4197.307617,4245.128418,4232.436035,4231.666504,4224.358887,4543.717773,4471.794922,4377.051270,4473.717773,6556.000000,3.000000,57.000000,,,,0.000000,4.000000,4.000000,4.000000,4.000000,4.000000,4.000000,4.000000,4.000000,4.000000,4.000000,4.000000,4.000000,4.000000,4.000000,100.000000,,,,,,,,,,,,,,,,,22.000000,0.000000,0.332078,0.624512,-0.260620,0.657104,0.978147,0.096203,0.079111,-18.519825,-35.716778,66.013733
1703413919.661446,1703413919.661974,89.000000,0.000000,4252.051270,4232.436035,4304.358887,4291.794922,4257.820313,4195.256348,4245.384766,4247.051270,4232.436035,4217.820313,4550.897461,4481.410156,4381.025879,4474.230957,6573.000000,3.000000,57.000000,,,,0.000000,4.000000,4.000000,4.000000,4.000000,4.000000,4.000000,4.000000,4.000000,4.000000,4.000000,4.000000,4.000000,4.000000,4.000000,100.000000,,,,,,,,,,,,,,,,,,,,,,,,,,,,
1703413919.669254,1703413919.669682,90.000000,0.000000,4253.205078,4232.179688,4306.410156,4291.538574,4260.256348,4197.051270,4246.153809,4263.461426,4241.538574,4218.974121,4556.025879,4491.410156,4400.641113,4485.769043,5876.000000,3.000000,57.000000,,,,0.000000,4.000000,4.000000,4.000000,4.000000,4.000000,4.000000,4.000000,4.000000,4.000000,4.000000,4.000000,4.000000,4.000000,4.000000,100.000000,,,,,,,,,,,,,,,,,,,,,,,,,,,,
1703413919.677062,1703413919.677490,91.000000,0.000000,4250.769043,4231.153809,4308.333496,4292.563965,4259.871582,4195.000000,4240.128418,4272.307617,4248.333496,4223.077148,4555.641113,4493.333496,4398.077148,4487.948730,6058.000000,3.000000,57.000000,,,,0.000000,4.000000,4.000000,4.000000,4.000000,4.000000,4.000000,4.000000,4.000000,4.000000,4.000000,4.000000,4.000000,4.000000,4.000000,100.000000,,,,,,,,,,,,,,,,,,,,,,,,,,,,
1703413919.684870,1703413919.685198,92.000000,0.000000,4250.256348,4234.615234,4303.077148,4292.692383,4256.922852,4188.846191,4239.358887,4278.589844,4254.230957,4233.077148,4553.205078,4491.666504,4385.384766,4478.717773,6556.000000,3.000000,57.000000,,,,0.000000,4.000000,4.000000,4.000000,4.000000,4.000000,4.000000,4.000000,4.000000,4.000000,4.000000,4.000000,4.000000,4.000000,4.000000,100.000000,,,,,,,,,,,,,,,,,23.000000,0.000000,0.332072,0.624451,-0.260620,0.657166,0.989379,0.076181,0.088878,-18.567842,-35.845100,66.095695
1703413919.692678,1703413919.693006,93.000000,0.000000,4251.153809,4223.846191,4302.692383,4285.000000,4246.538574,4192.563965,4244.743652,4282.563965,4261.538574,4237.179688,4557.436035,4492.692383,4392.692383,4487.179688,6573.000000,3.000000,57.000000,,,,0.000000,4.000000,4.000000,4.000000,4.000000,4.000000,4.000000,4.000000,4.000000,4.000000,4.000000,4.000000,4.000000,4.000000,4.000000,100.000000,,,,,,,,,,,,,,,,,,,,,,,,,,,,
1703413919.700486,1703413919.700714,94.000000,0.000000,4249.358887,4215.897461,4308.461426,4285.256348,4238.205078,4199.743652,4247.179688,4284.487305,4266.282227,4243.205078,4567.820313,4495.897461,4399.615234,4493.974121,5876.000000,3.000000,57.000000,,,,0.000000,4.000000,4.000000,4.000000,4.000000,4.000000,4.000000,4.000000,4.000000,4.000000,4.000000,4.000000,4.000000,4.000000,4.000000,100.000000,,,,,,,,,,,,,,,,,,,,,,,,,,,,
1703413919.708294,1703413919.708623,95.000000,0.000000,4247.436035,4229.743652,4307.436035,4296.666504,4247.692383,4197.307617,4247.307617,4280.128418,4264.230957,4252.692383,4571.153809,4494.871582,4391.282227,4479.487305,6058.000000,3.000000,57.000000,,,,0.000000,4.000000,4.000000,4.000000,4.000000,4.000000,4.000000,4.000000,4.000000,4.000000,4.000000,4.000000,4.000000,4.000000,4.000000,100.000000,,,,,,,,,,,,,,,,,,,,,,,,,,,,
1703413919.716102,1703413919.716432,96.000000,0.000000,4253.717773,4238.333496,4304.102539,4297.820313,4263.333496,4196.794922,4246.282227,4265.384766,4252.307617,4245.641113,4568.205078,4490.384766,4398.846191,4480.897461,6556.000000,3.000000,57.000000,,,,0.000000,4.000000,4.000000,4.000000,4.000000,4.000000,4.000000,4.000000,4.000000,4.000000,4.000000,4.000000,4.000000,4.000000,4.000000,100.000000,1.000000,83.333336,4.000000,3.000000,4.000000,4.000000,3.000000,4.000000,4.000000,4.000000,4.000000,4.000000,4.000000,4.000000,4.000000,4.000000,24.000000,0.000000,0.332333,0.624146,-0.260864,0.657227,0.994262,0.084971,0.083995,-18.427725,-35.793922,66.086128
1703413919.723910,1703413919.724340,97.000000,0.000000,4257.948730,4229.743652,4306.538574,4290.384766,4269.743652,4201.922852,4247.179688,4252.307617,4245.000000,4238.717773,4562.692383,4484.615234,4404.871582,4492.563965,6573.000000,3.000000,57.000000,,,,0.000000,4.000000,4.000000,4.000000,4.000000,4.000000,4.000000,4.000000,4.000000,4.000000,4.000000,4.000000,4.000000,4.000000,4.000000,100.000000,,,,,,,,,,,,,,,,,,,,,,,,,,,,
1703413919.731718,1703413919.732148,98.000000,0.000000,4247.692383,4228.974121,4304.102539,4295.000000,4266.794922,4202.948730,4247.563965,4249.102539,4251.922852,4243.846191,4547.820313,4472.436035,4384.358887,4479.358887,5876.000000,3.000000,57.000000,,,,0.000000,4.000000,4.000000,4.000000,4.000000,4.000000,4.000000,4.000000,4.000000,4.000000,4.000000,4.000000,4.000000,4.000000,4.000000,100.000000,,,,,,,,,,,,,,,,,,,,,,,,,,,,
1703413919.739526,1703413919.740057,99.000000,0.000000,4237.820313,4235.384766,4295.128418,4294.102539,4261.666504,4194.615234,4241.538574,4247.563965,4248.846191,4233.333496,4536.153809,4460.512695,4371.922852,4459.615234,6058.000000,3.000000,57.000000,,,,0.000000,4.000000,4.000000,4.000000,4.000000,4.000000,4.000000,4.000000,4.000000,4.000000,4.000000,4.000000,4.000000,4.000000,4.000000,100.000000,,,,,,,,,,,,,,,,,,,,,,,,,,,,
1703413919.747334,1703413919.747966,100.000000,0.000000,4242.820313,4228.461426,4293.717773,4282.179688,4262.692383,4191.153809,4238.461426,4242.051270,4237.820313,4214.358887,4531.922852,4462.179688,4375.128418,4456.153809,6556.000000,3.000000,57.000000,,,,0.000000,4.000000,4.000000,4.000000,4.000000,4.000000,4.000000,4.000000,4.000000,4.000000,4.000000,4.000000,4.000000,4.000000,4.000000,100.000000,,,,,,,,,,,,,,,,,25.000000,0.000000,0.332394,0.624023,-0.260925,0.657288,0.983518,0.083995,0.080088,-18.434954,-35.664532,66.077515
1703413919.755143,1703413919.755775,101.000000,0.000000,4250.897461,4220.384766,4298.717773,4285.769043,4265.000000,4199.615234,4244.743652,4243.846191,4248.589844,4220.000000,4534.487305,4472.436035,4377.179688,4467.307617,6573.000000,3.000000,57.000000,,,,0.000000,4.000000,4.000000,4.000000,4.000000,4.000000,4.000000,4.000000,4.000000,4.000000,4.000000,4.000000,4.000000,4.000000,4.000000,100.000000,,,,,,,,,,,,,,,,,,,,,,,,,,,,
1703413919.762951,1703413919.763583,102.000000,0.000000,4248.974121,4225.256348,4299.487305,4294.743652,4262.563965,4196.794922,4246.922852,4258.205078,4264.358887,4239.230957,4545.256348,4480.256348,4382.692383,4476.282227,5876.000000,3.000000,57.000000,,,,0.000000,4.000000,4.000000,4.000000,4.000000,4.000000,4.000000,4.000000,4.000000,4.000000,4.000000,4.000000,4.000000,4.000000,4.000000,100.000000,,,,,,,,,,,,,,,,,,,,,,,,,,,,
1703413919.770759,1703413919.771492,103.000000,0.000000,4247.948730,4232.948730,4299.871582,4292.948730,4260.769043,4186.025879,4245.128418,4272.051270,4262.563965,4250.512695,4557.051270,4486.153809,4399.487305,4476.538574,6058.000000,3.000000,57.000000,,,,0.000000,4.000000,4.000000,4.000000,4.000000,4.000000,4.000000,4.000000,4.000000,4.000000,4.000000,4.000000,4.000000,4.000000,4.000000,100.000000,,,,,,,,,,,,,,,,,,,,,,,,,,,,
1703413919.778567,1703413919.779300,104.000000,0.000000,4254.358887,4232.179688,4303.717773,4290.769043,4260.897461,4195.256348,4246.410156,4280.000000,4266.538574,4250.641113,4568.333496,4492.179688,4409.358887,4483.717773,6556.000000,3.000000,57.000000,,,,0.000000,4.000000,4.000000,4.000000,4.000000,4.000000,4.000000,4.000000,4.000000,4.000000,4.000000,4.000000,4.000000,4.000000,4.000000,100.000000,,,,,,,,,,,,,,,,,26.000000,0.000000,0.332473,0.623840,-0.261108,0.657349,0.990355,0.077646,0.087901,-18.458124,-35.731411,66.119766
1703413919.786375,1703413919.787208,105.000000,0.000000,4260.512695,4233.461426,4306.538574,4297.692383,4261.410156,4207.563965,4246.153809,4281.538574,4274.871582,4238.333496,4573.077148,4493.205078,4398.461426,4488.717773,6573.000000,3.000000,57.000000,,,,0.000000,4.000000,4.000000,4.000000,4.000000,4.000000,4.000000,4.000000,4.000000,4.000000,4.000000,4.000000,4.000000,4.000000,4.000000,100.000000,,,,,,,,,,,,,,,,,,,,,,,,,,,,
1703413919.794183,1703413919.795017,106.000000,0.000000,4258.333496,4238.333496,4305.000000,4299.358887,4266.410156,4202.307617,4246.025879,4272.179688,4262.051270,4231.922852,4563.077148,4488.333496,4393.077148,4480.897461,5876.000000,3.000000,57.000000,,,,0.000000,4.000000,4.000000,4.000000,4.000000,4.000000,4.000000,4.000000,4.000000,4.000000,4.000000,4.000000,4.000000,4.000000,4.000000,100.000000,,,,,,,,,,,,,,,,,,,,,,,,,,,,
1703413919.801991,1703413919.802925,107.000000,0.000000,4256.410156,4232.820313,4305.897461,4291.410156,4268.589844,4201.410156,4250.384766,4262.051270,4243.333496,4235.256348,4552.563965,4487.563965,4401.025879,4480.897461,6058.000000,3.000000,57.000000,,,,0.000000,4.000000,4.000000,4.000000,4.000000,4.000000,4.000000,4.000000,4.000000,4.000000,4.000000,4.000000,4.000000,4.000000,4.000000,100.000000,,,,,,,,,,,,,,,,,,,,,,,,,,,,
1703413919.809799,1703413919.810733,108.000000,0.000000,4261.153809,4231.282227,4312.179688,4292.948730,4265.769043,4202.179688,4248.461426,4261.538574,4239.102539,4227.179688,4554.230957,4490.769043,4399.871582,4490.256348,6556.000000,3.000000,57.000000,,,,0.000000,4.000000,4.000000,4.000000,4.000000,4.000000,4.000000,4.000000,4.000000,4.000000,4.000000,4.000000,4.000000,4.000000,4.000000,100.000000,,,,,,,,,,,,,,,,,27.000000,0.000000,0.332448,0.623840,-0.260986,0.657410,0.997192,0.107435,0.075693,-18.462313,-35.741604,66.057785
1703413919.817607,1703413919.818541,109.000000,0.000000,4269.615234,4241.025879,4313.333496,4303.589844,4263.333496,4193.333496,4242.820313,4260.769043,4233.846191,4216.282227,4558.974121,4493.205078,4396.153809,4494.615234,6573.000000,3.000000,57.000000,,,,0.000000,4.000000,4.000000,4.000000,4.000000,4.000000,4.000000,4.000000,4.000000,4.000000,4.000000,4.000000,4.000000,4.000000,4.000000,100.000000,,,,,,,,,,,,,,,,,,,,,,,,,,,,
1703413919.825415,1703413919.826349,110.000000,0.000000,4263.333496,4229.487305,4305.256348,4294.487305,4254.743652,4184.358887,4243.077148,4257.692383,4214.487305,4225.000000,4562.820313,4492.051270,4406.282227,4490.641113,5876.000000,3.000000,57.000000,,,,0.000000,4.000000,4.000000,4.000000,4.000000,4.000000,4.000000,4.000000,4.000000,4.000000,4.000000,4.000000,4.000000,4.000000,4.000000,100.000000,,,,,,,,,,,,,,,,,,,,,,,,,,,,
1703413919.833223,1703413919.834058,111.000000,0.000000,4247.307617,4208.589844,4299.487305,4273.461426,4248.717773,4180.769043,4243.461426,4256.410156,4206.153809,4234.871582,4559.358887,4482.948730,4403.846191,4479.487305,6058.000000,3.000000,57.000000,,,,0.000000,4.000000,4.000000,4.000000,4.000000,4.000000,4.000000,4.000000,4.000000,4.000000,4.000000,4.000000,4.000000,4.000000,4.000000,100.000000,,,,,,,,,,,,,,,,,,,,,,,,,,,,
1703413919.841031,1703413919.841866,112.000000,0.000000,4252.051270,4216.153809,4299.102539,4280.384766,4257.436035,4195.897461,4243.974121,4257.307617,4234.358887,4237.820313,4551.282227,4473.974121,4393.077148,4473.717773,6556.000000,3.000000,57.000000,,,,0.000000,4.000000,4.000000,4.000000,4.000000,4.000000,4.000000,4.000000,4.000000,4.000000,4.000000,4.000000,4.000000,4.000000,4.000000,100.000000,,,,,,,,,,,,,,,,,28.000000,0.000000,0.331969,0.623657,-0.260803,0.657898,0.988402,0.089366,0.088878,-18.516081,-35.784111,66.085342
1703413919.848839,1703413919.849574,113.000000,0.000000,4260.897461,4231.922852,4294.871582,4294.743652,4262.948730,4211.922852,4248.077148,4267.436035,4266.666504,4246.025879,4556.922852,4478.974121,4403.589844,4478.077148,6573.000000,3.000000,57.000000,,,,0.000000,4.000000,4.000000,4.000000,4.000000,4.000000,4.000000,4.000000,4.000000,4.000000,4.000000,4.000000,4.000000,4.000000,4.000000,100.000000,,,,,,,,,,,,,,,,,,,,,,,,,,,,
1703413919.856647,1703413919.857483,114.000000,0.000000,4250.256348,4216.025879,4291.025879,4281.025879,4258.205078,4201.666504,4246.282227,4278.461426,4268.333496,4253.333496,4568.974121,4487.436035,4421.025879,4482.820313,5876.000000,3.000000,57.000000,,,,0.000000,4.000000,4.000000,4.000000,4.000000,4.000000,4.000000,4.000000,4.000000,4.000000,4.000000,4.000000,4.000000,4.000000,4.000000,100.000000,,,,,,,,,,,,,,,,,,,,,,,,,,,,
1703413919.864455,1703413919.865291,115.000000,0.000000,4250.256348,4194.487305,4300.641113,4271.538574,4260.256348,4191.025879,4241.282227,4282.307617,4267.436035,4257.436035,4583.333496,4498.077148,4438.205078,4495.256348,6058.000000,3.000000,57.000000,,,,0.000000,4.000000,4.000000,4.000000,4.000000,4.000000,4.000000,4.000000,4.000000,4.000000,4.000000,4.000000,4.000000,4.000000,4.000000,100.000000,,,,,,,,,,,,,,,,,,,,,,,,,,,,
1703413919.872263,1703413919.873100,116.000000,0.000000,4267.820313,4211.794922,4312.307617,4290.128418,4263.974121,4198.846191,4243.205078,4288.461426,4284.615234,4265.000000,4600.384766,4514.487305,4447.051270,4512.307617,6556.000000,3.000000,57.000000,,,,0.000000,4.000000,4.000000,4.000000,4.000000,4.000000,4.000000,4.000000,4.000000,4.000000,4.000000,4.000000,4.000000,4.000000,4.000000,100.000000,,,,,,,,,,,,,,,,,29.000000,0.000000,0.331902,0.623230,-0.260986,0.658264,1.003052,0.065926,0.090831,-18.514473,-35.872368,66.193474
1703413919.880071,1703413919.880808,117.000000,0.000000,4268.461426,4238.974121,4310.897461,4303.589844,4265.256348,4201.666504,4249.487305,4289.871582,4285.512695,4265.128418,4591.666504,4514.358887,4434.487305,4509.358887,6573.000000,3.000000,57.000000,,,,0.000000,4.000000,4.000000,4.000000,4.000000,4.000000,4.000000,4.000000,4.000000,4.000000,4.000000,4.000000,4.000000,4.000000,4.000000,100.000000,,,,,,,,,,,,,,,,,,,,,,,,,,,,
1703413919.887879,1703413919.888616,118.000000,0.000000,4260.256348,4233.077148,4304.615234,4295.897461,4265.256348,4197.563965,4247.948730,4277.692383,4271.538574,4253.589844,4572.051270,4498.589844,4421.666504,4497.179688,5876.000000,3.000000,57.000000,,,,0.000000,4.000000,4.000000,4.000000,4.000000,4.000000,4.000000,4.000000,4.000000,4.000000,4.000000,4.000000,4.000000,4.000000,4.000000,100.000000,,,,,,,,,,,,,,,,,,,,,,,,,,,,
1703413919.895687,1703413919.896324,119.000000,0.000000,4261.666504,4215.641113,4301.025879,4290.897461,4256.025879,4194.358887,4239.871582,4262.948730,4263.717773,4231.922852,4569.743652,4488.461426,4418.461426,4489.102539,6058.000000,3.000000,57.000000,,,,0.000000,4.000000,4.000000,4.000000,4.000000,4.000000,4.000000,4.000000,4.000000,4.000000,4.000000,4.000000,4.000000,4.000000,4.000000,100.000000,,,,,,,,,,,,,,,,,,,,,,,,,,,,
1703413919.903495,1703413919.904132,120.000000,0.000000,4255.769043,4215.897461,4301.666504,4292.179688,4249.487305,4187.563965,4239.871582,4251.922852,4247.692383,4216.025879,4557.820313,4484.230957,4402.948730,4478.974121,6556.000000,3.000000,57.000000,,,,0.000000,4.000000,4.000000,4.000000,4.000000,4.000000,4.000000,4.000000,4.000000,4.000000,4.000000,4.000000,4.000000,4.000000,4.000000,100.000000,,,,,,,,,,,,,,,,,30.000000,0.000000,0.332279,0.623108,-0.261414,0.658020,0.990844,0.091320,0.089366,-18.513025,-35.701797,66.257462
1703413919.911304,1703413919.911840,121.000000,0.000000,4248.846191,4219.743652,4305.256348,4287.948730,4258.461426,4189.487305,4244.487305,4245.641113,4232.051270,4216.794922,4541.282227,4482.307617,4392.948730,4475.769043,6573.000000,3.000000,57.000000,,,,0.000000,4.000000,4.000000,4.000000,4.000000,4.000000,4.000000,4.000000,4.000000,4.000000,4.000000,4.000000,4.000000,4.000000,4.000000,100.000000,,,,,,,,,,,,,,,,,,,,,,,,,,,,
1703413919.919112,1703413919.919648,122.000000,0.000000,4252.436035,4215.256348,4304.615234,4282.948730,4268.077148,4201.922852,4243.333496,4247.820313,4238.717773,4218.589844,4552.436035,4483.205078,4405.256348,4480.897461,5876.000000,3.000000,57.000000,,,,0.000000,4.000000,4.000000,4.000000,4.000000,4.000000,4.000000,4.000000,4.000000,4.000000,4.000000,4.000000,4.000000,4.000000,4.000000,100.000000,,,,,,,,,,,,,,,,,,,,,,,,,,,,
1703413919.926920,1703413919.927356,123.000000,0.000000,4249.102539,4212.692383,4297.563965,4279.615234,4260.641113,4203.461426,4241.410156,4245.128418,4248.717773,4214.230957,4549.487305,4473.846191,4396.410156,4475.384766,6058.000000,3.000000,57.000000,,,,0.000000,4.000000,4.000000,4.000000,4.000000,4.000000,4.000000,4.000000,4.000000,4.000000,4.000000,4.000000,4.000000,4.000000,4.000000,100.000000,,,,,,,,,,,,,,,,,,,,,,,,,,,,
1703413919.934728,1703413919.935164,124.000000,0.000000,4243.461426,4210.641113,4296.153809,4275.897461,4252.051270,4194.871582,4243.205078,4240.769043,4246.794922,4214.743652,4530.128418,4463.717773,4379.487305,4466.282227,6556.000000,3.000000,57.000000,,,,0.000000,4.000000,4.000000,4.000000,4.000000,4.000000,4.000000,4.000000,4.000000,4.000000,4.000000,4.000000,4.000000,4.000000,4.000000,100.000000,,,,,,,,,,,,,,,,,31.000000,0.000000,0.332363,0.622986,-0.261597,0.658020,0.975705,0.095715,0.087413,-18.428389,-35.664951,66.231712
1703413919.942536,1703413919.942872,125.000000,0.000000,4256.922852,4215.769043,4305.512695,4281.410156,4255.256348,4203.205078,4243.589844,4253.333496,4251.153809,4223.974121,4548.974121,4476.538574,4398.077148,4480.897461,6573.000000,3.000000,57.000000,,,,0.000000,4.000000,4.000000,4.000000,4.000000,4.000000,4.000000,4.000000,4.000000,4.000000,4.000000,4.000000,4.000000,4.000000,4.000000,100.000000,,,,,,,,,,,,,,,,,,,,,,,,,,,,
1703413919.950344,1703413919.950780,126.000000,0.000000,4267.820313,4220.769043,4308.717773,4285.897461,4257.051270,4221.410156,4246.025879,4267.692383,4259.615234,4236.282227,4572.563965,4493.333496,4416.153809,4494.358887,5876.000000,3.000000,57.000000,,,,0.000000,4.000000,4.000000,4.000000,4.000000,4.000000,4.000000,4.000000,4.000000,4.000000,4.000000,4.000000,4.000000,4.000000,4.000000,100.000000,,,,,,,,,,,,,,,,,,,,,,,,,,,,
1703413919.958152,1703413919.958589,127.000000,0.000000,4260.641113,4217.436035,4301.666504,4281.666504,4257.179688,4221.410156,4248.717773,4266.538574,4257.307617,4239.102539,4556.410156,4488.333496,4401.794922,4483.589844,57.000000,3.000000,57.000000,,,,0.000000,4.000000,4.000000,4.000000,4.000000,4.000000,4.000000,4.000000,4.000000,4.000000,4.000000,4.000000,4.000000,4.000000,4.000000,100.000000,,,,,,,,,,,,,,,,,,,,,,,,,,,,
1703413919.965960,1703413919.966497,0.000000,0.000000,4258.205078,4223.717773,4302.436035,4283.974121,4262.051270,4210.256348,4245.384766,4260.384766,4249.615234,4223.461426,4541.153809,4480.512695,4389.743652,4478.333496,3652.000000,3.000000,57.000000,,,,0.000000,4.000000,4.000000,4.000000,4.000000,4.000000,4.000000,4.000000,4.000000,4.000000,4.000000,4.000000,4.000000,4.000000,4.000000,100.000000,,,,,,,,,,,,,,,,,0.000000,0.000000,0.332176,0.623047,-0.261536,0.658081,0.988402,0.078135,0.084971,-18.435551,-35.631786,66.208542
1703413919.973768,1703413919.974306,1.000000,0.000000,4267.436035,4236.282227,4312.692383,4295.384766,4267.436035,4214.615234,4246.666504,4264.871582,4252.307617,4215.769043,4553.974121,4493.717773,4401.282227,4494.615234,5392.000000,3.000000,57.000000,,,,0.000000,4.000000,4.000000,4.000000,4.000000,4.000000,4.000000,4.000000,4.000000,4.000000,4.000000,4.000000,4.000000,4.000000,4.000000,100.000000,,,,,,,,,,,,,,,,,,,,,,,,,,,,
1703413919.981576,1703413919.982214,2.000000,0.000000,4276.922852,4236.410156,4317.820313,4301.153809,4263.077148,4220.641113,4250.000000,4270.897461,4259.615234,4228.974121,4574.230957,4509.871582,4420.384766,4510.128418,5058.000000,3.000000,57.000000,,,,0.000000,4.000000,4.000000,4.000000,4.000000,4.000000,4.000000,4.000000,4.000000,4.000000,4.000000,4.000000,4.000000,4.000000,4.000000,100.000000,,,,,,,,,,,,,,,,,,,,,,,,,,,,
1703413919.989384,1703413919.990022,3.000000,0.000000,4283.589844,4233.717773,4318.589844,4302.563965,4256.153809,4211.025879,4247.436035,4267.948730,4254.102539,4236.794922,4586.538574,4512.820313,4433.077148,4513.589844,5282.000000,3.000000,57.000000,,,,0.000000,4.000000,4.000000,4.000000,4.000000,4.000000,4.000000,4.000000,4.000000,4.000000,4.000000,4.000000,4.000000,4.000000,4.000000,100.000000,,,,,,,,,,,,,,,,,,,,,,,,,,,,
1703413919.997192,1703413919.997931,4.000000,0.000000,4282.307617,4235.384766,4318.589844,4301.025879,4257.307617,4201.025879,4243.461426,4263.717773,4242.820313,4237.948730,4579.102539,4511.153809,4425.512695,4510.512695,5150.000000,3.000000,57.000000,,,,0.000000,4.000000,4.000000,4.000000,4.000000,4.000000,4.000000,4.000000,4.000000,4.000000,4.000000,4.000000,4.000000,4.000000,4.000000,100.000000,,,,,,,,,,,,,,,,,1.000000,0.000000,0.332024,0.622986,-0.261414,0.658264,0.978147,0.078135,0.089855,-18.308662,-35.651943,66.271019
1703413920.005000,1703413920.005739,5.000000,0.000000,4275.512695,4230.256348,4317.692383,4292.051270,4261.410156,4196.025879,4241.538574,4262.820313,4245.512695,4242.051270,4566.282227,4508.717773,4410.128418,4506.538574,4475.000000,3.000000,57.000000,,,,0.000000,4.000000,4.000000,4.000000,4.000000,4.000000,4.000000,4.000000,4.000000,4.000000,4.000000,4.000000,4.000000,4.000000,4.000000,100.000000,,,,,,,,,,,,,,,,,,,,,,,,,,,,
1703413920.012808,1703413920.013647,6.000000,0.000000,4272.307617,4229.487305,4319.102539,4289.358887,4262.692383,4201.410156,4246.666504,4264.871582,4258.589844,4246.666504,4572.436035,4507.307617,4414.487305,4508.589844,2672.000000,3.000000,57.000000,,,,0.000000,4.000000,4.000000,4.000000,4.000000,4.000000,4.000000,4.000000,4.000000,4.000000,4.000000,4.000000,4.000000,4.000000,4.000000,100.000000,,,,,,,,,,,,,,,,,,,,,,,,,,,,
1703413920.020616,1703413920.021455,7.000000,0.000000,4266.666504,4231.025879,4313.974121,4291.025879,4259.615234,4212.436035,4250.256348,4264.871582,4262.692383,4245.384766,4573.717773,4500.897461,4415.769043,4505.641113,4774.000000,3.000000,57.000000,,,,0.000000,4.000000,4.000000,4.000000,4.000000,4.000000,4.000000,4.000000,4.000000,4.000000,4.000000,4.000000,4.000000,4.000000,4.000000,100.000000,,,,,,,,,,,,,,,,,,,,,,,,,,,,
1703413920.028424,1703413920.029363,8.000000,0.000000,4260.769043,4221.153809,4306.025879,4286.282227,4261.282227,4216.666504,4248.461426,4263.974121,4260.512695,4242.436035,4564.743652,4491.153809,4408.333496,4497.948730,4418.000000,3.000000,57.000000,,,,0.000000,4.000000,4.000000,4.000000,4.000000,4.000000,4.000000,4.000000,4.000000,4.000000,4.000000,4.000000,4.000000,4.000000,4.000000,100.000000,,,,,,,,,,,,,,,,,2.000000,0.000000,0.332211,0.622925,-0.261475,0.658203,0.988890,0.077158,0.091808,-18.394463,-35.520081,66.343918
1703413920.036232,1703413920.037171,9.000000,0.000000,4255.769043,4214.615234,4305.256348,4278.077148,4264.358887,4215.256348,4248.974121,4266.410156,4260.512695,4240.384766,4560.128418,4486.794922,4408.589844,4488.589844,5317.000000,3.000000,57.000000,,,,0.000000,4.000000,4.000000,4.000000,4.000000,4.000000,4.000000,4.000000,4.000000,4.000000,4.000000,4.000000,4.000000,4.000000,4.000000,100.000000,,,,,,,,,,,,,,,,,,,,,,,,,,,,
1703413920.044041,1703413920.044880,10.000000,0.000000,4245.128418,4216.794922,4303.974121,4275.000000,4257.436035,4211.153809,4249.230957,4267.820313,4257.820313,4233.974121,4556.410156,4483.589844,4403.461426,4475.512695,5861.000000,3.000000,57.000000,,,,0.000000,4.000000,4.000000,4.000000,4.000000,4.000000,4.000000,4.000000,4.000000,4.000000,4.000000,4.000000,4.000000,4.000000,4.000000,100.000000,,,,,,,,,,,,,,,,,,,,,,,,,,,,
1703413920.051849,1703413920.052688,11.000000,0.000000,4244.358887,4214.487305,4301.794922,4280.256348,4251.794922,4209.487305,4246.922852,4264.230957,4255.769043,4230.256348,4558.205078,4483.077148,4399.615234,4477.307617,6042.000000,3.000000,57.000000,,,,0.000000,4.000000,4.000000,4.000000,4.000000,4.000000,4.000000,4.000000,4.000000,4.000000,4.000000,4.000000,4.000000,4.000000,4.000000,100.000000,,,,,,,,,,,,,,,,,,,,,,,,,,,,
1703413920.059657,1703413920.060396,12.000000,0.000000,4256.794922,4214.358887,4306.666504,4279.615234,4256.538574,4215.128418,4248.589844,4263.205078,4259.358887,4225.641113,4564.358887,4490.769043,4407.563965,4491.282227,6554.000000,3.000000,57.000000,,,,0.000000,4.000000,4.000000,4.000000,4.000000,4.000000,4.000000,4.000000,4.000000,4.000000,4.000000,4.000000,4.000000,4.000000,4.000000,100.000000,,,,,,,,,,,,,,,,,3.000000,0.000000,0.332411,0.622986,-0.261536,0.658020,0.980588,0.098157,0.087413,-18.338350,-35.601406,66.209526
1703413920.067465,1703413920.068204,13.000000,0.000000,4263.717773,4226.153809,4313.974121,4277.692383,4261.794922,4215.769043,4249.102539,4263.846191,4259.871582,4226.666504,4565.000000,4494.230957,4411.025879,4495.769043,6561.000000,3.000000,57.000000,,,,0.000000,4.000000,4.000000,4.000000,4.000000,4.000000,4.000000,4.000000,4.000000,4.000000,4.000000,4.000000,4.000000,4.000000,4.000000,100.000000,,,,,,,,,,,,,,,,,,,,,,,,,,,,
1703413920.075273,1703413920.075913,14.000000,0.000000,4267.948730,4232.820313,4316.025879,4288.589844,4261.153809,4205.512695,4244.615234,4254.358887,4252.948730,4248.333496,4570.256348,4493.846191,4418.077148,4497.820313,5861.000000,3.000000,57.000000,,,,0.000000,4.000000,4.000000,4.000000,4.000000,4.000000,4.000000,4.000000,4.000000,4.000000,4.000000,4.000000,4.000000,4.000000,4.000000,100.000000,,,,,,,,,,,,,,,,,,,,,,,,,,,,
1703413920.083081,1703413920.083720,15.000000,0.000000,4281.153809,4231.025879,4317.820313,4298.205078,4260.897461,4205.000000,4243.846191,4242.436035,4248.589844,4268.589844,4577.307617,4501.153809,4431.666504,4507.307617,6042.000000,3.000000,57.000000,,,,0.000000,4.000000,4.000000,4.000000,4.000000,4.000000,4.000000,4.000000,4.000000,4.000000,4.000000,4.000000,4.000000,4.000000,4.000000,100.000000,,,,,,,,,,,,,,,,,,,,,,,,,,,,
1703413920.090889,1703413920.091429,16.000000,0.000000,4281.666504,4231.153809,4318.589844,4293.974121,4264.102539,4214.487305,4244.358887,4246.153809,4250.000000,4261.794922,4576.410156,4506.794922,4425.512695,4510.384766,0.000000,3.000000,57.000000,,,,0.000000,4.000000,4.000000,4.000000,4.000000,4.000000,4.000000,4.000000,4.000000,4.000000,4.000000,4.000000,4.000000,4.000000,4.000000,100.000000,,,,,,,,,,,,,,,,,4.000000,0.000000,0.332676,0.622986,-0.261353,0.657959,0.981077,0.077158,0.088390,-18.354515,-35.491264,66.305244
1703413920.098697,1703413920.099237,17.000000,0.000000,4267.307617,4232.307617,4315.384766,4292.820313,4267.179688,4216.153809,4245.256348,4258.461426,4254.102539,4246.153809,4577.948730,4505.128418,4412.179688,4502.436035,0.000000,3.000000,57.000000,,,,0.000000,4.000000,4.000000,4.000000,4.000000,4.000000,4.000000,4.000000,4.000000,4.000000,4.000000,4.000000,4.000000,4.000000,4.000000,100.000000,,,,,,,,,,,,,,,,,,,,,,,,,,,,
1703413920.106505,1703413920.106945,18.000000,0.000000,4265.384766,4234.358887,4314.743652,4298.974121,4265.256348,4210.769043,4248.974121,4268.077148,4258.974121,4248.333496,4581.410156,4506.538574,4420.641113,4494.230957,0.000000,3.000000,57.000000,,,,0.000000,4.000000,4.000000,4.000000,4.000000,4.000000,4.000000,4.000000,4.000000,4.000000,4.000000,4.000000,4.000000,4.000000,4.000000,100.000000,,,,,,,,,,,,,,,,,,,,,,,,,,,,
1703413920.114313,1703413920.114753,19.000000,0.000000,4267.948730,4230.897461,4315.000000,4290.769043,4257.820313,4206.410156,4243.717773,4275.256348,4250.256348,4255.384766,4576.025879,4506.282227,4423.717773,4494.230957,0.000000,3.000000,57.000000,,,,0.000000,4.000000,4.000000,4.000000,4.000000,4.000000,4.000000,4.000000,4.000000,4.000000,4.000000,4.000000,4.000000,4.000000,4.000000,100.000000,,,,,,,,,,,,,,,,,,,,,,,,,,,,
1703413920.122121,1703413920.122461,20.000000,0.000000,4258.205078,4219.358887,4309.487305,4277.051270,4252.307617,4203.846191,4240.000000,4274.487305,4234.615234,4247.051270,4564.615234,4496.794922,4404.743652,4493.846191,0.000000,3.000000,57.000000,,,,0.000000,4.000000,4.000000,4.000000,4.000000,4.000000,4.000000,4.000000,4.000000,4.000000,4.000000,4.000000,4.000000,4.000000,4.000000,100.000000,,,,,,,,,,,,,,,,,5.000000,0.000000,0.333023,0.622864,-0.261047,0.658020,0.989867,0.099622,0.076670,-18.302397,-35.458805,66.291382
1703413920.129929,1703413920.130269,21.000000,0.000000,4247.820313,4210.897461,4303.974121,4276.025879,4250.256348,4202.307617,4245.000000,4266.410156,4238.333496,4227.820313,4551.410156,4486.153809,4385.256348,4480.000000,0.000000,3.000000,57.000000,,,,0.000000,4.000000,4.000000,4.000000,4.000000,4.000000,4.000000,4.000000,4.000000,4.000000,4.000000,4.000000,4.000000,4.000000,4.000000,100.000000,,,,,,,,,,,,,,,,,,,,,,,,,,,,
1703413920.137737,1703413920.137977,22.000000,0.000000,4248.717773,4213.589844,4307.436035,4279.102539,4248.077148,4202.948730,4242.948730,4264.615234,4250.000000,4221.922852,4549.871582,4483.077148,4384.358887,4470.000000,0.000000,3.000000,57.000000,,,,0.000000,4.000000,4.000000,4.000000,4.000000,4.000000,4.000000,4.000000,4.000000,4.000000,4.000000,4.000000,4.000000,4.000000,4.000000,100.000000,,,,,,,,,,,,,,,,,,,,,,,,,,,,
1703413920.145545,1703413920.145785,23.000000,0.000000,4252.948730,4217.563965,4307.436035,4277.563965,4246.025879,4203.974121,4238.333496,4263.077148,4244.230957,4230.641113,4556.410156,4481.538574,4396.794922,4474.358887,0.000000,3.000000,57.000000,,,,0.000000,4.000000,4.000000,4.000000,4.000000,4.000000,4.000000,4.000000,4.000000,4.000000,4.000000,4.000000,4.000000,4.000000,4.000000,100.000000,,,,,,,,,,,,,,,,,,,,,,,,,,,,
1703413920.153353,1703413920.153492,24.000000,0.000000,4249.487305,4216.025879,4302.563965,4276.153809,4247.051270,4206.153809,4243.846191,4255.897461,4236.538574,4237.179688,4547.820313,4472.820313,4393.846191,4473.974121,0.000000,3.000000,57.000000,,,,0.000000,4.000000,4.000000,4.000000,4.000000,4.000000,4.000000,4.000000,4.000000,4.000000,4.000000,4.000000,4.000000,4.000000,4.000000,100.000000,,,,,,,,,,,,,,,,,6.000000,0.000000,0.333138,0.622803,-0.261047,0.658020,0.975705,0.097180,0.100110,-18.438824,-35.546261,66.312248
1703413920.161161,1703413920.161401,25.000000,0.000000,4249.102539,4210.769043,4307.051270,4277.820313,4252.820313,4208.846191,4249.358887,4257.692383,4246.410156,4238.077148,4541.922852,4474.487305,4383.461426,4470.000000,0.000000,3.000000,57.000000,,,,0.000000,4.000000,4.000000,4.000000,4.000000,4.000000,4.000000,4.000000,4.000000,4.000000,4.000000,4.000000,4.000000,4.000000,4.000000,100.000000,,,,,,,,,,,,,,,,,,,,,,,,,,,,
1703413920.168969,1703413920.169209,26.000000,0.000000,4259.358887,4214.358887,4316.025879,4277.307617,4258.846191,4207.436035,4246.666504,4259.358887,4251.794922,4234.615234,4555.128418,4494.487305,4397.820313,4480.384766,0.000000,3.000000,57.000000,,,,0.000000,4.000000,4.000000,4.000000,4.000000,4.000000,4.000000,4.000000,4.000000,4.000000,4.000000,4.000000,4.000000,4.000000,4.000000,100.000000,,,,,,,,,,,,,,,,,,,,,,,,,,,,
1703413920.176777,1703413920.177118,27.000000,0.000000,4266.666504,4228.717773,4321.410156,4280.641113,4260.384766,4201.794922,4241.025879,4240.641113,4241.538574,4234.871582,4562.563965,4502.692383,4413.077148,4491.538574,0.000000,3.000000,57.000000,,,,0.000000,4.000000,4.000000,4.000000,4.000000,4.000000,4.000000,4.000000,4.000000,4.000000,4.000000,4.000000,4.000000,4.000000,4.000000,100.000000,,,,,,,,,,,,,,,,,,,,,,,,,,,,
1703413920.184585,1703413920.184926,28.000000,0.000000,4267.820313,4233.077148,4323.846191,4291.794922,4260.512695,4198.077148,4240.256348,4231.538574,4241.794922,4242.051270,4565.769043,4497.436035,4409.487305,4493.205078,0.000000,3.000000,57.000000,,,,0.000000,4.000000,4.000000,4.000000,4.000000,4.000000,4.000000,4.000000,4.000000,4.000000,4.000000,4.000000,4.000000,4.000000,4.000000,100.000000,,,,,,,,,,,,,,,,,7.000000,0.000000,0.333113,0.622803,-0.260925,0.658081,0.989867,0.091320,0.077158,-18.344942,-35.508301,66.331024
1703413920.192393,1703413920.192834,29.000000,0.000000,4275.128418,4230.641113,4322.692383,4299.102539,4263.205078,4202.436035,4242.436035,4248.846191,4256.538574,4250.128418,4577.948730,4501.538574,4416.794922,4498.846191,0.000000,3.000000,57.000000,,,,0.000000,4.000000,4.000000,4.000000,4.000000,4.000000,4.000000,4.000000,4.000000,4.000000,4.000000,4.000000,4.000000,4.000000,4.000000,100.000000,,,,,,,,,,,,,,,,,,,,,,,,,,,,
1703413920.200202,1703413920.200642,30.000000,0.000000,4280.128418,4236.666504,4317.051270,4296.282227,4264.358887,4210.000000,4244.230957,4267.307617,4268.333496,4262.820313,4582.563965,4511.538574,4431.922852,4506.666504,0.000000,3.000000,57.000000,,,,0.000000,4.000000,4.000000,4.000000,4.000000,4.000000,4.000000,4.000000,4.000000,4.000000,4.000000,4.000000,4.000000,4.000000,4.000000,100.000000,,,,,,,,,,,,,,,,,,,,,,,,,,,,
1703413920.208010,1703413920.208551,31.000000,0.000000,4265.769043,4235.384766,4313.333496,4289.871582,4257.820313,4208.333496,4243.461426,4278.333496,4263.846191,4266.538574,4574.743652,4507.820313,4421.538574,4496.794922,0.000000,3.000000,57.000000,,,,0.000000,4.000000,4.000000,4.000000,4.000000,4.000000,4.000000,4.000000,4.000000,4.000000,4.000000,4.000000,4.000000,4.000000,4.000000,100.000000,,,,,,,,,,,,,,,,,,,,,,,,,,,,
1703413920.215818,1703413920.216359,32.000000,0.000000,4247.820313,4213.717773,4309.871582,4279.487305,4246.794922,4198.717773,4240.384766,4282.179688,4249.487305,4242.051270,4567.051270,4496.794922,4396.922852,4477.051270,0.000000,3.000000,57.000000,,,,0.000000,4.000000,4.000000,4.000000,4.000000,4.000000,4.000000,4.000000,4.000000,4.000000,4.000000,4.000000,4.000000,4.000000,4.000000,100.000000,1.000000,100.000000,4.000000,4.000000,4.000000,4.000000,4.000000,4.000000,4.000000,4.000000,4.000000,4.000000,4.000000,4.000000,4.000000,4.000000,8.000000,0.000000,0.333304,0.622803,-0.260681,0.658081,0.983518,0.081553,0.087413,-18.360447,-35.540802,66.547920
1703413920.223626,1703413920.224267,33.000000,0.000000,4244.487305,4198.974121,4307.563965,4270.512695,4244.615234,4198.461426,4240.769043,4277.948730,4243.461426,4220.641113,4553.974121,4489.487305,4383.333496,4470.128418,0.000000,3.000000,57.000000,,,,0.000000,4.000000,4.000000,4.000000,4.000000,4.000000,4.000000,4.000000,4.000000,4.000000,4.000000,4.000000,4.000000,4.000000,4.000000,100.000000,,,,,,,,,,,,,,,,,,,,,,,,,,,,
1703413920.231434,1703413920.232075,34.000000,0.000000,4248.717773,4201.025879,4311.666504,4272.179688,4247.179688,4205.769043,4245.128418,4276.538574,4248.333496,4229.102539,4547.563965,4488.589844,4384.358887,4470.512695,0.000000,3.000000,57.000000,,,,0.000000,4.000000,4.000000,4.000000,4.000000,4.000000,4.000000,4.000000,4.000000,4.000000,4.000000,4.000000,4.000000,4.000000,4.000000,100.000000,,,,,,,,,,,,,,,,,,,,,,,,,,,,
1703413920.239242,1703413920.239783,35.000000,0.000000,4249.871582,4201.153809,4312.563965,4275.769043,4245.000000,4202.179688,4244.487305,4273.717773,4249.743652,4235.000000,4550.641113,4488.205078,4389.871582,4467.820313,0.000000,3.000000,57.000000,,,,0.000000,4.000000,4.000000,4.000000,4.000000,4.000000,4.000000,4.000000,4.000000,4.000000,4.000000,4.000000,4.000000,4.000000,4.000000,100.000000,,,,,,,,,,,,,,,,,,,,,,,,,,,,
1703413920.247050,1703413920.247592,36.000000,0.000000,4252.051270,4203.077148,4310.384766,4275.512695,4251.282227,4202.051270,4241.922852,4266.282227,4246.538574,4225.897461,4552.692383,4489.358887,4393.717773,4475.897461,0.000000,3.000000,57.000000,,,,0.000000,4.000000,4.000000,4.000000,4.000000,4.000000,4.000000,4.000000,4.000000,4.000000,4.000000,4.000000,4.000000,4.000000,4.000000,100.000000,,,,,,,,,,,,,,,,,9.000000,0.000000,0.333310,0.622864,-0.260681,0.658020,0.991820,0.088878,0.091808,-18.374403,-35.603390,66.526459
1703413920.254858,1703413920.255300,37.000000,0.000000,4261.410156,4213.461426,4312.436035,4280.384766,4263.077148,4209.487305,4245.897461,4260.256348,4246.025879,4227.307617,4561.025879,4494.230957,4398.717773,4488.589844,0.000000,3.000000,57.000000,,,,0.000000,4.000000,4.000000,4.000000,4.000000,4.000000,4.000000,4.000000,4.000000,4.000000,4.000000,4.000000,4.000000,4.000000,4.000000,100.000000,,,,,,,,,,,,,,,,,,,,,,,,,,,,
1703413920.262666,1703413920.263108,38.000000,0.000000,4274.102539,4223.974121,4317.820313,4291.153809,4265.000000,4208.589844,4249.230957,4253.077148,4246.666504,4241.922852,4571.153809,4498.461426,4407.948730,4492.563965,0.000000,3.000000,57.000000,,,,0.000000,4.000000,4.000000,4.000000,4.000000,4.000000,4.000000,4.000000,4.000000,4.000000,4.000000,4.000000,4.000000,4.000000,4.000000,100.000000,,,,,,,,,,,,,,,,,,,,,,,,,,,,
1703413920.270474,1703413920.270816,39.000000,0.000000,4281.282227,4229.487305,4326.410156,4298.205078,4262.436035,4209.102539,4244.871582,4250.256348,4249.615234,4250.256348,4573.461426,4507.948730,4417.563965,4499.615234,0.000000,3.000000,57.000000,,,,0.000000,4.000000,4.000000,4.000000,4.000000,4.000000,4.000000,4.000000,4.000000,4.000000,4.000000,4.000000,4.000000,4.000000,4.000000,100.000000,,,,,,,,,,,,,,,,,,,,,,,,,,,,
1703413920.278282,1703413920.278624,40.000000,0.000000,4277.820313,4231.538574,4331.282227,4297.307617,4260.256348,4212.820313,4240.384766,4260.769043,4255.641113,4247.692383,4580.897461,4515.769043,4418.974121,4509.487305,0.000000,3.000000,57.000000,,,,0.000000,4.000000,4.000000,4.000000,4.000000,4.000000,4.000000,4.000000,4.000000,4.000000,4.000000,4.000000,4.000000,4.000000,4.000000,100.000000,,,,,,,,,,,,,,,,,10.000000,0.000000,0.333256,0.622803,-0.260742,0.658081,0.987914,0.080576,0.099133,-18.336962,-35.493050,66.557144
1703413920.286090,1703413920.286332,41.000000,0.000000,4274.871582,4230.897461,4322.948730,4294.487305,4257.307617,4210.384766,4241.282227,4265.384766,4259.615234,4248.974121,4583.846191,4509.743652,4413.846191,4509.358887,0.000000,3.000000,57.000000,,,,0.000000,4.000000,4.000000,4.000000,4.000000,4.000000,4.000000,4.000000,4.000000,4.000000,4.000000,4.000000,4.000000,4.000000,4.000000,100.000000,,,,,,,,,,,,,,,,,,,,,,,,,,,,
1703413920.293898,1703413920.294241,42.000000,0.000000,4280.256348,4233.461426,4318.461426,4297.563965,4262.948730,4206.282227,4243.846191,4262.820313,4261.666504,4256.794922,4575.512695,4505.256348,4416.410156,4507.179688,0.000000,3.000000,57.000000,,,,0.000000,4.000000,4.000000,4.000000,4.000000,4.000000,4.000000,4.000000,4.000000,4.000000,4.000000,4.000000,4.000000,4.000000,4.000000,100.000000,,,,,,,,,,,,,,,,,,,,,,,,,,,,
1703413920.301706,1703413920.302049,43.000000,0.000000,4273.205078,4235.128418,4322.948730,4296.666504,4264.615234,4205.769043,4243.461426,4267.563965,4258.461426,4246.025879,4570.512695,4505.128418,4418.333496,4503.205078,0.000000,3.000000,57.000000,,,,0.000000,4.000000,4.000000,4.000000,4.000000,4.000000,4.000000,4.000000,4.000000,4.000000,4.000000,4.000000,4.000000,4.000000,4.000000,100.000000,,,,,,,,,,,,,,,,,,,,,,,,,,,,
1703413920.309514,1703413920.309957,44.000000,0.000000,4256.922852,4215.769043,4316.794922,4281.794922,4247.820313,4202.051270,4242.948730,4267.307617,4242.563965,4217.051270,4555.512695,4491.666504,4395.897461,4483.205078,0.000000,3.000000,57.000000,,,,0.000000,4.000000,4.000000,4.000000,4.000000,4.000000,4.000000,4.000000,4.000000,4.000000,4.000000,4.000000,4.000000,4.000000,4.000000,100.000000,,,,,,,,,,,,,,,,,11.000000,0.000000,0.333322,0.622742,-0.260803,0.658081,0.986937,0.093273,0.086925,-18.436600,-35.443745,66.668098
1703413920.317322,1703413920.317766,45.000000,0.000000,4258.974121,4196.922852,4306.794922,4272.692383,4238.974121,4201.025879,4245.128418,4263.333496,4235.641113,4206.794922,4541.025879,4478.205078,4373.846191,4469.615234,0.000000,3.000000,57.000000,,,,0.000000,4.000000,4.000000,4.000000,4.000000,4.000000,4.000000,4.000000,4.000000,4.000000,4.000000,4.000000,4.000000,4.000000,4.000000,100.000000,,,,,,,,,,,,,,,,,,,,,,,,,,,,
1703413920.325130,1703413920.325574,46.000000,0.000000,4259.487305,4204.358887,4310.641113,4276.666504,4246.538574,4205.384766,4246.922852,4267.179688,4245.384766,4217.179688,4548.461426,4484.102539,4380.128418,4475.512695,0.000000,3.000000,57.000000,,,,0.000000,4.000000,4.000000,4.000000,4.000000,4.000000,4.000000,4.000000,4.000000,4.000000,4.000000,4.000000,4.000000,4.000000,4.000000,100.000000,,,,,,,,,,,,,,,,,,,,,,,,,,,,
1703413920.332938,1703413920.333282,47.000000,0.000000,4245.641113,4215.897461,4315.128418,4276.410156,4248.205078,4203.589844,4244.615234,4268.333496,4242.948730,4221.153809,4547.563965,4484.743652,4384.871582,4472.436035,0.000000,3.000000,57.000000,,,,0.000000,4.000000,4.000000,4.000000,4.000000,4.000000,4.000000,4.000000,4.000000,4.000000,4.000000,4.000000,4.000000,4.000000,4.000000,100.000000,,,,,,,,,,,,,,,,,,,,,,,,,,,,
1703413920.340747,1703413920.341191,48.000000,0.000000,4250.512695,4212.051270,4314.615234,4272.820313,4242.692383,4206.666504,4244.743652,4262.179688,4231.282227,4223.717773,4544.230957,4481.282227,4382.948730,4470.512695,0.000000,3.000000,57.000000,,,,0.000000,4.000000,4.000000,4.000000,4.000000,4.000000,4.000000,4.000000,4.000000,4.000000,4.000000,4.000000,4.000000,4.000000,4.000000,100.000000,,,,,,,,,,,,,,,,,12.000000,0.000000,0.333534,0.622681,-0.260986,0.657959,0.983030,0.096203,0.092296,-18.376272,-35.532703,66.701286
1703413920.348554,1703413920.348999,49.000000,0.000000,4272.692383,4210.000000,4320.769043,4279.615234,4242.820313,4213.974121,4245.641113,4261.794922,4238.589844,4234.102539,4567.051270,4495.256348,4400.128418,4489.487305,0.000000,3.000000,57.000000,,,,0.000000,4.000000,4.000000,4.000000,4.000000,4.000000,4.000000,4.000000,4.000000,4.000000,4.000000,4.000000,4.000000,4.000000,4.000000,100.000000,,,,,,,,,,,,,,,,,,,,,,,,,,,,
1703413920.356363,1703413920.356907,50.000000,0.000000,4280.128418,4219.871582,4326.538574,4291.538574,4249.615234,4212.436035,4242.179688,4264.230957,4251.922852,4244.230957,4578.717773,4509.615234,4419.358887,4507.051270,0.000000,3.000000,57.000000,,,,0.000000,4.000000,4.000000,4.000000,4.000000,4.000000,4.000000,4.000000,4.000000,4.000000,4.000000,4.000000,4.000000,4.000000,4.000000,100.000000,,,,,,,,,,,,,,,,,,,,,,,,,,,,
1703413920.364171,1703413920.364716,51.000000,0.000000,4283.077148,4231.410156,4329.871582,4295.256348,4254.358887,4205.000000,4239.871582,4256.282227,4248.333496,4248.974121,4569.230957,4512.179688,4419.358887,4508.717773,0.000000,3.000000,57.000000,,,,0.000000,4.000000,4.000000,4.000000,4.000000,4.000000,4.000000,4.000000,4.000000,4.000000,4.000000,4.000000,4.000000,4.000000,4.000000,100.000000,,,,,,,,,,,,,,,,,,,,,,,,,,,,
1703413920.371979,1703413920.372624,52.000000,0.000000,4294.743652,4244.230957,4336.282227,4299.230957,4254.743652,4203.717773,4238.717773,4244.358887,4241.922852,4243.205078,4573.974121,4514.487305,4415.128418,4510.897461,0.000000,3.000000,57.000000,,,,0.000000,4.000000,4.000000,4.000000,4.000000,4.000000,4.000000,4.000000,4.000000,4.000000,4.000000,4.000000,4.000000,4.000000,4.000000,100.000000,,,,,,,,,,,,,,,,,13.000000,0.000000,0.333666,0.622559,-0.261108,0.657959,0.996704,0.095226,0.088878,-18.505312,-35.362766,66.681160
1703413920.379787,1703413920.380432,53.000000,0.000000,4295.769043,4255.128418,4334.358887,4305.641113,4252.179688,4210.512695,4236.666504,4239.102539,4244.230957,4237.820313,4577.179688,4509.102539,4413.461426,4511.153809,0.000000,3.000000,57.000000,,,,0.000000,4.000000,4.000000,4.000000,4.000000,4.000000,4.000000,4.000000,4.000000,4.000000,4.000000,4.000000,4.000000,4.000000,4.000000,100.000000,,,,,,,,,,,,,,,,,,,,,,,,,,,,
1703413920.387595,1703413920.388340,54.000000,0.000000,4285.641113,4248.077148,4323.589844,4305.384766,4250.384766,4214.743652,4238.461426,4243.205078,4248.589844,4244.487305,4567.307617,4495.384766,4410.000000,4502.436035,0.000000,3.000000,57.000000,,,,0.000000,4.000000,4.000000,4.000000,4.000000,4.000000,4.000000,4.000000,4.000000,4.000000,4.000000,4.000000,4.000000,4.000000,4.000000,100.000000,,,,,,,,,,,,,,,,,,,,,,,,,,,,
1703413920.395403,1703413920.396148,55.000000,0.000000,4276.666504,4235.897461,4317.563965,4295.512695,4249.871582,4214.102539,4242.563965,4247.948730,4248.974121,4242.820313,4559.102539,4488.589844,4406.410156,4490.641113,0.000000,3.000000,57.000000,,,,0.000000,4.000000,4.000000,4.000000,4.000000,4.000000,4.000000,4.000000,4.000000,4.000000,4.000000,4.000000,4.000000,4.000000,4.000000,100.000000,,,,,,,,,,,,,,,,,,,,,,,,,,,,
1703413920.403211,1703413920.404057,56.000000,0.000000,4269.743652,4230.128418,4315.128418,4283.077148,4249.487305,4214.230957,4243.974121,4248.846191,4240.897461,4222.307617,4554.743652,4482.436035,4396.666504,4479.230957,0.000000,3.000000,57.000000,,,,0.000000,4.000000,4.000000,4.000000,4.000000,4.000000,4.000000,4.000000,4.000000,4.000000,4.000000,4.000000,4.000000,4.000000,4.000000,100.000000,,,,,,,,,,,,,,,,,14.000000,0.000000,0.333499,0.622803,-0.261047,0.657837,0.977170,0.086925,0.088390,-18.588114,-35.326492,66.529709
1703413920.411019,1703413920.411865,57.000000,0.000000,4259.871582,4221.794922,4309.230957,4276.282227,4239.743652,4216.794922,4244.358887,4253.205078,4232.307617,4211.922852,4548.846191,4474.102539,4381.410156,4473.589844,0.000000,3.000000,57.000000,,,,0.000000,4.000000,4.000000,4.000000,4.000000,4.000000,4.000000,4.000000,4.000000,4.000000,4.000000,4.000000,4.000000,4.000000,4.000000,100.000000,,,,,,,,,,,,,,,,,,,,,,,,,,,,
1703413920.418827,1703413920.419573,58.000000,0.000000,4247.563965,4209.102539,4302.948730,4274.615234,4228.974121,4213.846191,4243.205078,4260.128418,4230.769043,4214.358887,4531.538574,4468.974121,4366.538574,4466.666504,0.000000,3.000000,57.000000,,,,0.000000,4.000000,4.000000,4.000000,4.000000,4.000000,4.000000,4.000000,4.000000,4.000000,4.000000,4.000000,4.000000,4.000000,4.000000,100.000000,,,,,,,,,,,,,,,,,,,,,,,,,,,,
1703413920.426635,1703413920.427482,59.000000,0.000000,4244.358887,4210.512695,4301.410156,4273.461426,4237.563965,4208.589844,4243.205078,4261.538574,4235.897461,4215.128418,4516.025879,4466.794922,4357.563965,4457.563965,0.000000,3.000000,57.000000,,,,0.000000,4.000000,4.000000,4.000000,4.000000,4.000000,4.000000,4.000000,4.000000,4.000000,4.000000,4.000000,4.000000,4.000000,4.000000,100.000000,,,,,,,,,,,,,,,,,,,,,,,,,,,,
1703413920.434443,1703413920.435290,60.000000,0.000000,4254.358887,4225.256348,4305.384766,4277.820313,4250.897461,4212.692383,4247.436035,4258.974121,4242.948730,4224.102539,4527.948730,4470.000000,4366.410156,4463.077148,0.000000,3.000000,57.000000,,,,0.000000,4.000000,4.000000,4.000000,4.000000,4.000000,4.000000,4.000000,4.000000,4.000000,4.000000,4.000000,4.000000,4.000000,4.000000,100.000000,,,,,,,,,,,,,,,,,15.000000,0.000000,0.333547,0.622803,-0.260986,0.657837,0.989867,0.076181,0.088390,-18.629303,-35.243843,66.510071
1703413920.442251,1703413920.443099,61.000000,0.000000,4265.256348,4229.871582,4309.743652,4288.333496,4250.384766,4214.102539,4245.769043,4260.641113,4244.743652,4231.666504,4546.794922,4478.461426,4382.179688,4475.000000,0.000000,3.000000,57.000000,,,,0.000000,4.000000,4.000000,4.000000,4.000000,4.000000,4.000000,4.000000,4.000000,4.000000,4.000000,4.000000,4.000000,4.000000,4.000000,100.000000,,,,,,,,,,,,,,,,,,,,,,,,,,,,
1703413920.450059,1703413920.450807,62.000000,0.000000,4271.025879,4226.922852,4312.820313,4291.282227,4245.512695,4207.692383,4243.717773,4256.538574,4238.077148,4222.051270,4547.307617,4483.974121,4383.077148,4479.743652,0.000000,3.000000,57.000000,,,,0.000000,4.000000,4.000000,4.000000,4.000000,4.000000,4.000000,4.000000,4.000000,4.000000,4.000000,4.000000,4.000000,4.000000,4.000000,100.000000,,,,,,,,,,,,,,,,,,,,,,,,,,,,
1703413920.457867,1703413920.458615,63.000000,0.000000,4279.102539,4235.384766,4321.410156,4293.333496,4244.615234,4205.769043,4248.077148,4247.179688,4234.102539,4221.922852,4553.974121,4490.641113,4385.128418,4488.974121,0.000000,3.000000,57.000000,,,,0.000000,4.000000,4.000000,4.000000,4.000000,4.000000,4.000000,4.000000,4.000000,4.000000,4.000000,4.000000,4.000000,4.000000,4.000000,100.000000,,,,,,,,,,,,,,,,,,,,,,,,,,,,
1703413920.465675,1703413920.466323,64.000000,0.000000,4286.282227,4247.179688,4329.102539,4303.205078,4247.179688,4210.384766,4246.153809,4247.436035,4238.974121,4240.256348,4573.717773,4502.692383,4401.282227,4500.256348,3653.000000,3.000000,57.000000,,,,0.000000,4.000000,4.000000,4.000000,4.000000,4.000000,4.000000,4.000000,4.000000,4.000000,4.000000,4.000000,4.000000,4.000000,4.000000,100.000000,,,,,,,,,,,,,,,,,16.000000,0.000000,0.333689,0.622559,-0.260925,0.658020,0.972287,0.080088,0.098645,-18.633039,-35.236122,66.592400
1703413920.473483,1703413920.474131,65.000000,0.000000,4283.461426,4248.717773,4325.128418,4301.666504,4250.897461,4213.461426,4241.282227,4245.256348,4244.871582,4244.230957,4571.922852,4503.589844,4404.871582,4497.051270,5397.000000,3.000000,57.000000,,,,0.000000,4.000000,4.000000,4.000000,4.000000,4.000000,4.000000,4.000000,4.000000,4.000000,4.000000,4.000000,4.000000,4.000000,4.000000,100.000000,,,,,,,,,,,,,,,,,,,,,,,,,,,,
1703413920.481291,1703413920.481839,66.000000,0.000000,4280.512695,4246.410156,4315.897461,4295.641113,4250.256348,4214.871582,4244.230957,4232.948730,4249.615234,4236.794922,4558.205078,4490.897461,4397.948730,4492.436035,5070.000000,3.000000,57.000000,,,,0.000000,4.000000,4.000000,4.000000,4.000000,4.000000,4.000000,4.000000,4.000000,4.000000,4.000000,4.000000,4.000000,4.000000,4.000000,100.000000,,,,,,,,,,,,,,,,,,,,,,,,,,,,
1703413920.489099,1703413920.489647,67.000000,0.000000,4277.563965,4244.102539,4309.102539,4295.128418,4247.179688,4214.743652,4243.717773,4231.922852,4247.307617,4237.307617,4552.051270,4477.692383,4395.512695,4487.307617,5283.000000,3.000000,57.000000,,,,0.000000,4.000000,4.000000,4.000000,4.000000,4.000000,4.000000,4.000000,4.000000,4.000000,4.000000,4.000000,4.000000,4.000000,4.000000,100.000000,,,,,,,,,,,,,,,,,,,,,,,,,,,,
1703413920.496908,1703413920.497355,68.000000,0.000000,4263.077148,4229.871582,4306.538574,4282.563965,4246.666504,4213.077148,4239.871582,4245.641113,4236.538574,4230.128418,4545.769043,4472.307617,4386.538574,4471.025879,5150.000000,3.000000,57.000000,,,,0.000000,4.000000,4.000000,4.000000,4.000000,4.000000,4.000000,4.000000,4.000000,4.000000,4.000000,4.000000,4.000000,4.000000,4.000000,100.000000,,,,,,,,,,,,,,,,,17.000000,0.000000,0.333780,0.622498,-0.261108,0.657959,0.994262,0.085460,0.085460,-18.603069,-35.062511,66.516495
1703413920.504716,1703413920.505163,69.000000,0.000000,4246.538574,4213.974121,4304.358887,4264.487305,4241.794922,4209.358887,4241.794922,4252.179688,4230.256348,4206.025879,4536.153809,4466.922852,4366.794922,4459.102539,4475.000000,3.000000,57.000000,,,,0.000000,4.000000,4.000000,4.000000,4.000000,4.000000,4.000000,4.000000,4.000000,4.000000,4.000000,4.000000,4.000000,4.000000,4.000000,100.000000,,,,,,,,,,,,,,,,,,,,,,,,,,,,
1703413920.512524,1703413920.512871,70.000000,0.000000,4242.948730,4210.641113,4301.153809,4261.538574,4233.974121,4204.230957,4244.487305,4252.436035,4231.666504,4193.205078,4521.922852,4460.256348,4352.436035,4456.410156,2677.000000,3.000000,57.000000,,,,0.000000,4.000000,4.000000,4.000000,4.000000,4.000000,4.000000,4.000000,4.000000,4.000000,4.000000,4.000000,4.000000,4.000000,4.000000,100.000000,,,,,,,,,,,,,,,,,,,,,,,,,,,,
1703413920.520332,1703413920.520780,71.000000,0.000000,4248.461426,4216.410156,4300.769043,4261.922852,4230.897461,4203.205078,4244.102539,4258.589844,4232.179688,4207.820313,4521.666504,4465.897461,4359.743652,4457.563965,4784.000000,3.000000,57.000000,,,,0.000000,4.000000,4.000000,4.000000,4.000000,4.000000,4.000000,4.000000,4.000000,4.000000,4.000000,4.000000,4.000000,4.000000,4.000000,100.000000,,,,,,,,,,,,,,,,,,,,,,,,,,,,
1703413920.528140,1703413920.528588,72.000000,0.000000,4258.461426,4217.563965,4305.128418,4263.333496,4231.538574,4204.102539,4243.974121,4265.384766,4232.563965,4219.358887,4542.051270,4477.307617,4378.974121,4467.051270,4422.000000,3.000000,57.000000,,,,0.000000,4.000000,4.000000,4.000000,4.000000,4.000000,4.000000,4.000000,4.000000,4.000000,4.000000,4.000000,4.000000,4.000000,4.000000,100.000000,,,,,,,,,,,,,,,,,18.000000,0.000000,0.333757,0.622498,-0.261292,0.657898,0.979612,0.083018,0.091320,-18.492762,-35.272926,66.514847
1703413920.535948,1703413920.536496,73.000000,0.000000,4264.358887,4217.051270,4309.743652,4272.436035,4232.948730,4204.487305,4245.256348,4261.922852,4234.487305,4211.922852,4550.769043,4479.743652,4383.205078,4475.512695,5337.000000,3.000000,57.000000,,,,0.000000,4.000000,4.000000,4.000000,4.000000,4.000000,4.000000,4.000000,4.000000,4.000000,4.000000,4.000000,4.000000,4.000000,4.000000,100.000000,,,,,,,,,,,,,,,,,,,,,,,,,,,,
1703413920.543756,1703413920.544305,74.000000,0.000000,4258.333496,4224.358887,4308.589844,4276.538574,4232.436035,4213.461426,4247.051270,4250.256348,4233.717773,4211.794922,4538.077148,4475.512695,4366.538574,4474.230957,5856.000000,3.000000,57.000000,,,,0.000000,4.000000,4.000000,4.000000,4.000000,4.000000,4.000000,4.000000,4.000000,4.000000,4.000000,4.000000,4.000000,4.000000,4.000000,100.000000,,,,,,,,,,,,,,,,,,,,,,,,,,,,
1703413920.551564,1703413920.552213,75.000000,0.000000,4259.487305,4232.307617,4312.307617,4274.102539,4232.563965,4216.794922,4247.179688,4245.641113,4232.948730,4224.743652,4536.025879,4480.000000,4365.384766,4474.743652,6050.000000,3.000000,57.000000,,,,0.000000,4.000000,4.000000,4.000000,4.000000,4.000000,4.000000,4.000000,4.000000,4.000000,4.000000,4.000000,4.000000,4.000000,4.000000,100.000000,,,,,,,,,,,,,,,,,,,,,,,,,,,,
1703413920.559372,1703413920.560022,76.000000,0.000000,4279.871582,4238.333496,4322.692383,4282.948730,4238.461426,4205.512695,4241.410156,4243.846191,4233.205078,4233.077148,4550.641113,4492.307617,4389.358887,4480.641113,6526.000000,3.000000,57.000000,,,,0.000000,4.000000,4.000000,4.000000,4.000000,4.000000,4.000000,4.000000,4.000000,4.000000,4.000000,4.000000,4.000000,4.000000,4.000000,100.000000,,,,,,,,,,,,,,,,,19.000000,0.000000,0.333546,0.622559,-0.261108,0.658020,0.998657,0.094738,0.082041,-18.360151,-35.245636,66.496689
1703413920.567180,1703413920.567930,77.000000,0.000000,4286.922852,4241.153809,4325.512695,4291.410156,4246.282227,4203.461426,4237.179688,4235.000000,4233.461426,4243.717773,4556.282227,4495.897461,4398.077148,4485.512695,6561.000000,3.000000,57.000000,,,,0.000000,4.000000,4.000000,4.000000,4.000000,4.000000,4.000000,4.000000,4.000000,4.000000,4.000000,4.000000,4.000000,4.000000,4.000000,100.000000,,,,,,,,,,,,,,,,,,,,,,,,,,,,
1703413920.574988,1703413920.575738,78.000000,0.000000,4269.871582,4238.205078,4319.102539,4284.358887,4251.282227,4216.922852,4242.692383,4231.282227,4236.410156,4247.436035,4554.487305,4487.563965,4392.436035,4486.922852,5856.000000,3.000000,57.000000,,,,0.000000,4.000000,4.000000,4.000000,4.000000,4.000000,4.000000,4.000000,4.000000,4.000000,4.000000,4.000000,4.000000,4.000000,4.000000,100.000000,,,,,,,,,,,,,,,,,,,,,,,,,,,,
1703413920.582796,1703413920.583646,79.000000,0.000000,4262.307617,4233.077148,4310.256348,4278.077148,4248.846191,4215.128418,4247.692383,4232.563965,4231.666504,4226.153809,4552.563965,4478.974121,4388.461426,4484.230957,6050.000000,3.000000,57.000000,,,,0.000000,4.000000,4.000000,4.000000,4.000000,4.000000,4.000000,4.000000,4.000000,4.000000,4.000000,4.000000,4.000000,4.000000,4.000000,100.000000,,,,,,,,,,,,,,,,,,,,,,,,,,,,
1703413920.590604,1703413920.591454,80.000000,0.000000,4266.025879,4225.512695,4305.769043,4276.282227,4236.666504,4204.487305,4244.230957,4227.563965,4221.538574,4207.051270,4545.256348,4473.077148,4374.871582,4471.153809,6526.000000,3.000000,57.000000,,,,0.000000,4.000000,4.000000,4.000000,4.000000,4.000000,4.000000,4.000000,4.000000,4.000000,4.000000,4.000000,4.000000,4.000000,4.000000,100.000000,,,,,,,,,,,,,,,,,20.000000,0.000000,0.333521,0.622559,-0.260986,0.658081,0.991332,0.091808,0.097180,-18.357470,-35.237736,66.347023
1703413920.598412,1703413920.599263,81.000000,0.000000,4261.922852,4217.307617,4306.794922,4273.589844,4230.000000,4207.948730,4238.461426,4229.358887,4223.205078,4211.794922,4530.128418,4467.948730,4359.615234,4460.769043,6561.000000,3.000000,57.000000,,,,0.000000,4.000000,4.000000,4.000000,4.000000,4.000000,4.000000,4.000000,4.000000,4.000000,4.000000,4.000000,4.000000,4.000000,4.000000,100.000000,,,,,,,,,,,,,,,,,,,,,,,,,,,,
1703413920.606220,1703413920.607071,82.000000,0.000000,4256.794922,4215.384766,4306.153809,4276.410156,4232.820313,4212.948730,4238.717773,4241.794922,4232.820313,4220.128418,4519.871582,4470.256348,4359.487305,4463.205078,5856.000000,3.000000,57.000000,,,,0.000000,4.000000,4.000000,4.000000,4.000000,4.000000,4.000000,4.000000,4.000000,4.000000,4.000000,4.000000,4.000000,4.000000,4.000000,100.000000,,,,,,,,,,,,,,,,,,,,,,,,,,,,
1703413920.614028,1703413920.614779,83.000000,0.000000,4255.897461,4223.333496,4302.820313,4282.820313,4235.641113,4212.436035,4246.922852,4248.717773,4234.615234,4218.333496,4525.897461,4472.948730,4362.051270,4466.282227,6050.000000,3.000000,57.000000,,,,0.000000,4.000000,4.000000,4.000000,4.000000,4.000000,4.000000,4.000000,4.000000,4.000000,4.000000,4.000000,4.000000,4.000000,4.000000,100.000000,,,,,,,,,,,,,,,,,,,,,,,,,,,,
1703413920.621836,1703413920.622587,84.000000,0.000000,4252.436035,4229.487305,4304.102539,4277.820313,4240.641113,4214.743652,4251.153809,4248.205078,4231.153809,4213.974121,4532.820313,4468.205078,4361.794922,4459.487305,6526.000000,3.000000,57.000000,,,,0.000000,4.000000,4.000000,4.000000,4.000000,4.000000,4.000000,4.000000,4.000000,4.000000,4.000000,4.000000,4.000000,4.000000,4.000000,100.000000,,,,,,,,,,,,,,,,,21.000000,0.000000,0.333791,0.622620,-0.260803,0.657959,0.981565,0.095715,0.089855,-18.221724,-35.230629,66.412323
1703413920.629645,1703413920.630296,85.000000,0.000000,4256.666504,4231.282227,4309.358887,4273.717773,4246.666504,4215.384766,4246.025879,4246.922852,4231.282227,4216.538574,4539.871582,4472.563965,4372.307617,4458.333496,6561.000000,3.000000,57.000000,,,,0.000000,4.000000,4.000000,4.000000,4.000000,4.000000,4.000000,4.000000,4.000000,4.000000,4.000000,4.000000,4.000000,4.000000,4.000000,100.000000,,,,,,,,,,,,,,,,,,,,,,,,,,,,
1703413920.637452,1703413920.638104,86.000000,0.000000,4276.153809,4233.333496,4312.692383,4287.307617,4248.846191,4213.974121,4245.512695,4249.102539,4234.615234,4228.717773,4555.000000,4490.769043,4383.589844,4480.512695,5856.000000,3.000000,57.000000,,,,0.000000,4.000000,4.000000,4.000000,4.000000,4.000000,4.000000,4.000000,4.000000,4.000000,4.000000,4.000000,4.000000,4.000000,4.000000,100.000000,,,,,,,,,,,,,,,,,,,,,,,,,,,,
1703413920.645260,1703413920.645812,87.000000,0.000000,4281.538574,4234.615234,4316.794922,4295.128418,4248.846191,4216.922852,4248.589844,4250.769043,4233.717773,4234.102539,4556.153809,4497.820313,4382.948730,4493.205078,6050.000000,3.000000,57.000000,,,,0.000000,4.000000,4.000000,4.000000,4.000000,4.000000,4.000000,4.000000,4.000000,4.000000,4.000000,4.000000,4.000000,4.000000,4.000000,100.000000,,,,,,,,,,,,,,,,,,,,,,,,,,,,
1703413920.653069,1703413920.653620,88.000000,0.000000,4268.717773,4231.153809,4318.205078,4281.794922,4244.102539,4211.538574,4247.436035,4243.077148,4227.820313,4221.153809,4540.769043,4484.871582,4377.051270,4479.102539,6526.000000,3.000000,57.000000,,,,0.000000,4.000000,4.000000,4.000000,4.000000,4.000000,4.000000,4.000000,4.000000,4.000000,4.000000,4.000000,4.000000,4.000000,4.000000,100.000000,,,,,,,,,,,,,,,,,22.000000,0.000000,0.333965,0.622681,-0.260742,0.657837,0.985960,0.082530,0.082041,-18.249552,-35.240902,66.404419
1703413920.660877,1703413920.661328,89.000000,0.000000,4264.102539,4226.025879,4317.436035,4277.692383,4235.000000,4200.384766,4246.282227,4234.230957,4230.256348,4214.102539,4542.563965,4479.487305,4380.769043,4472.051270,6561.000000,3.000000,57.000000,,,,0.000000,4.000000,4.000000,4.000000,4.000000,4.000000,4.000000,4.000000,4.000000,4.000000,4.000000,4.000000,4.000000,4.000000,4.000000,100.000000,,,,,,,,,,,,,,,,,,,,,,,,,,,,
1703413920.668685,1703413920.669236,90.000000,0.000000,4266.666504,4229.102539,4318.461426,4290.769043,4232.948730,4205.256348,4247.436035,4233.333496,4232.820313,4218.589844,4553.461426,4486.025879,4384.358887,4478.589844,5856.000000,3.000000,57.000000,,,,0.000000,4.000000,4.000000,4.000000,4.000000,4.000000,4.000000,4.000000,4.000000,4.000000,4.000000,4.000000,4.000000,4.000000,4.000000,100.000000,,,,,,,,,,,,,,,,,,,,,,,,,,,,
1703413920.676493,1703413920.677045,91.000000,0.000000,4263.974121,4235.256348,4317.820313,4290.128418,4238.461426,4213.333496,4246.025879,4231.410156,4221.025879,4219.358887,4545.256348,4483.717773,4370.128418,4476.282227,6050.000000,3.000000,57.000000,,,,0.000000,4.000000,4.000000,4.000000,4.000000,4.000000,4.000000,4.000000,4.000000,4.000000,4.000000,4.000000,4.000000,4.000000,4.000000,100.000000,,,,,,,,,,,,,,,,,,,,,,,,,,,,
1703413920.684301,1703413920.684853,92.000000,0.000000,4260.384766,4229.615234,4313.333496,4278.974121,4244.615234,4213.077148,4242.948730,4231.794922,4220.000000,4223.717773,4534.230957,4474.487305,4365.256348,4470.641113,6526.000000,3.000000,57.000000,,,,0.000000,4.000000,4.000000,4.000000,4.000000,4.000000,4.000000,4.000000,4.000000,4.000000,4.000000,4.000000,4.000000,4.000000,4.000000,100.000000,,,,,,,,,,,,,,,,,23.000000,0.000000,0.333893,0.622925,-0.260559,0.657715,0.983030,0.099622,0.079111,-18.174597,-35.400143,66.463982
1703413920.692109,1703413920.692561,93.000000,0.000000,4259.743652,4220.384766,4308.077148,4277.820313,4247.692383,4214.615234,4244.871582,4239.743652,4231.153809,4227.436035,4534.358887,4471.538574,4372.563965,4471.410156,6561.000000,3.000000,57.000000,,,,0.000000,4.000000,4.000000,4.000000,4.000000,4.000000,4.000000,4.000000,4.000000,4.000000,4.000000,4.000000,4.000000,4.000000,4.000000,100.000000,,,,,,,,,,,,,,,,,,,,,,,,,,,,
1703413920.699917,1703413920.700470,94.000000,0.000000,4260.641113,4223.846191,4305.128418,4277.948730,4246.153809,4218.717773,4248.333496,4248.205078,4235.000000,4224.102539,4534.615234,4472.820313,4368.077148,4466.153809,5856.000000,3.000000,57.000000,,,,0.000000,4.000000,4.000000,4.000000,4.000000,4.000000,4.000000,4.000000,4.000000,4.000000,4.000000,4.000000,4.000000,4.000000,4.000000,100.000000,,,,,,,,,,,,,,,,,,,,,,,,,,,,
1703413920.707725,1703413920.708278,95.000000,0.000000,4261.410156,4228.974121,4305.128418,4273.461426,4241.922852,4217.692383,4251.666504,4260.641113,4241.666504,4227.948730,4536.922852,4478.205078,4370.641113,4458.077148,6050.000000,3.000000,57.000000,,,,0.000000,4.000000,4.000000,4.000000,4.000000,4.000000,4.000000,4.000000,4.000000,4.000000,4.000000,4.000000,4.000000,4.000000,4.000000,100.000000,,,,,,,,,,,,,,,,,,,,,,,,,,,,
1703413920.715533,1703413920.716186,96.000000,0.000000,4260.256348,4229.230957,4306.666504,4278.846191,4238.333496,4215.128418,4252.051270,4268.077148,4249.487305,4234.871582,4545.384766,4485.641113,4381.538574,4462.692383,6526.000000,3.000000,57.000000,,,,0.000000,4.000000,4.000000,4.000000,4.000000,4.000000,4.000000,4.000000,4.000000,4.000000,4.000000,4.000000,4.000000,4.000000,4.000000,100.000000,1.000000,100.000000,4.000000,4.000000,4.000000,4.000000,4.000000,4.000000,4.000000,4.000000,4.000000,4.000000,4.000000,4.000000,4.000000,4.000000,24.000000,0.000000,0.334137,0.622742,-0.260376,0.657837,0.989379,0.085460,0.088390,-18.190470,-35.376797,66.317581
1703413920.723341,1703413920.723995,97.000000,0.000000,4269.230957,4241.538574,4312.948730,4294.230957,4235.769043,4215.384766,4252.179688,4260.128418,4246.410156,4232.948730,4562.948730,4491.153809,4388.717773,4482.820313,6561.000000,3.000000,57.000000,,,,0.000000,4.000000,4.000000,4.000000,4.000000,4.000000,4.000000,4.000000,4.000000,4.000000,4.000000,4.000000,4.000000,4.000000,4.000000,100.000000,,,,,,,,,,,,,,,,,,,,,,,,,,,,
1703413920.731149,1703413920.731903,98.000000,0.000000,4280.000000,4250.256348,4318.333496,4294.615234,4236.410156,4215.512695,4252.948730,4250.256348,4243.077148,4232.307617,4573.846191,4492.692383,4401.794922,4494.615234,5856.000000,3.000000,57.000000,,,,0.000000,4.000000,4.000000,4.000000,4.000000,4.000000,4.000000,4.000000,4.000000,4.000000,4.000000,4.000000,4.000000,4.000000,4.000000,100.000000,,,,,,,,,,,,,,,,,,,,,,,,,,,,
1703413920.738957,1703413920.739712,99.000000,0.000000,4268.333496,4233.846191,4316.153809,4280.000000,4237.692383,4215.512695,4249.102539,4250.512695,4242.307617,4241.025879,4552.563965,4484.615234,4395.128418,4477.820313,6050.000000,3.000000,57.000000,,,,0.000000,4.000000,4.000000,4.000000,4.000000,4.000000,4.000000,4.000000,4.000000,4.000000,4.000000,4.000000,4.000000,4.000000,4.000000,100.000000,,,,,,,,,,,,,,,,,,,,,,,,,,,,
1703413920.746765,1703413920.747620,100.000000,0.000000,4261.794922,4230.256348,4314.615234,4279.871582,4239.487305,4212.307617,4245.128418,4246.025879,4237.051270,4246.410156,4541.794922,4479.230957,4371.025879,4464.102539,6526.000000,3.000000,57.000000,,,,0.000000,4.000000,4.000000,4.000000,4.000000,4.000000,4.000000,4.000000,4.000000,4.000000,4.000000,4.000000,4.000000,4.000000,4.000000,100.000000,,,,,,,,,,,,,,,,,25.000000,0.000000,0.334108,0.622681,-0.260559,0.657837,0.986449,0.095226,0.086925,-18.238089,-35.439117,66.335823
1703413920.754573,1703413920.755428,101.000000,0.000000,4275.769043,4252.307617,4315.256348,4296.666504,4239.743652,4207.051270,4243.717773,4233.846191,4234.358887,4243.717773,4556.666504,4485.512695,4377.563965,4476.282227,6561.000000,3.000000,57.000000,,,,0.000000,4.000000,4.000000,4.000000,4.000000,4.000000,4.000000,4.000000,4.000000,4.000000,4.000000,4.000000,4.000000,4.000000,4.000000,100.000000,,,,,,,,,,,,,,,,,,,,,,,,,,,,
1703413920.762381,1703413920.763336,102.000000,0.000000,4273.974121,4252.948730,4311.922852,4298.077148,4232.563965,4203.974121,4244.487305,4229.102539,4232.563965,4229.102539,4547.820313,4480.769043,4387.179688,4479.487305,5856.000000,3.000000,57.000000,,,,0.000000,4.000000,4.000000,4.000000,4.000000,4.000000,4.000000,4.000000,4.000000,4.000000,4.000000,4.000000,4.000000,4.000000,4.000000,100.000000,,,,,,,,,,,,,,,,,,,,,,,,,,,,
1703413920.770189,1703413920.771144,103.000000,0.000000,4260.000000,4235.000000,4310.641113,4284.871582,4229.615234,4203.333496,4243.717773,4230.769043,4230.000000,4219.358887,4531.282227,4469.743652,4369.358887,4466.025879,6050.000000,3.000000,57.000000,,,,0.000000,4.000000,4.000000,4.000000,4.000000,4.000000,4.000000,4.000000,4.000000,4.000000,4.000000,4.000000,4.000000,4.000000,4.000000,100.000000,,,,,,,,,,,,,,,,,,,,,,,,,,,,
1703413920.777997,1703413920.779052,104.000000,0.000000,4263.846191,4233.077148,4312.051270,4279.615234,4237.436035,4205.512695,4241.025879,4231.282227,4233.205078,4223.974121,4539.230957,4474.871582,4361.153809,4462.563965,6526.000000,3.000000,57.000000,,,,0.000000,4.000000,4.000000,4.000000,4.000000,4.000000,4.000000,4.000000,4.000000,4.000000,4.000000,4.000000,4.000000,4.000000,4.000000,100.000000,,,,,,,,,,,,,,,,,26.000000,0.000000,0.334104,0.622620,-0.260864,0.657776,0.982053,0.097180,0.087413,-18.264280,-35.261871,66.385574
1703413920.785806,1703413920.786861,105.000000,0.000000,4268.846191,4232.436035,4312.051270,4281.410156,4238.461426,4202.436035,4239.871582,4231.282227,4227.563965,4220.641113,4539.871582,4478.461426,4368.846191,4463.077148,6561.000000,3.000000,57.000000,,,,0.000000,4.000000,4.000000,4.000000,4.000000,4.000000,4.000000,4.000000,4.000000,4.000000,4.000000,4.000000,4.000000,4.000000,4.000000,100.000000,,,,,,,,,,,,,,,,,,,,,,,,,,,,
1703413920.793614,1703413920.794569,106.000000,0.000000,4263.205078,4224.743652,4313.461426,4281.794922,4232.436035,4198.333496,4244.230957,4234.487305,4215.256348,4212.948730,4535.128418,4474.871582,4369.358887,4460.256348,5856.000000,3.000000,57.000000,,,,0.000000,4.000000,4.000000,4.000000,4.000000,4.000000,4.000000,4.000000,4.000000,4.000000,4.000000,4.000000,4.000000,4.000000,4.000000,100.000000,,,,,,,,,,,,,,,,,,,,,,,,,,,,
1703413920.801422,1703413920.802377,107.000000,0.000000,4261.153809,4227.307617,4313.205078,4280.000000,4228.333496,4205.641113,4247.692383,4242.179688,4219.102539,4215.897461,4540.256348,4476.666504,4360.512695,4460.512695,6050.000000,3.000000,57.000000,,,,0.000000,4.000000,4.000000,4.000000,4.000000,4.000000,4.000000,4.000000,4.000000,4.000000,4.000000,4.000000,4.000000,4.000000,4.000000,100.000000,,,,,,,,,,,,,,,,,,,,,,,,,,,,
1703413920.809230,1703413920.810085,108.000000,0.000000,4253.333496,4233.077148,4307.692383,4279.358887,4229.871582,4214.871582,4245.512695,4248.077148,4231.922852,4217.179688,4530.897461,4475.128418,4352.179688,4459.743652,6526.000000,3.000000,57.000000,,,,0.000000,4.000000,4.000000,4.000000,4.000000,4.000000,4.000000,4.000000,4.000000,4.000000,4.000000,4.000000,4.000000,4.000000,4.000000,100.000000,,,,,,,,,,,,,,,,,27.000000,0.000000,0.334272,0.622620,-0.260803,0.657715,0.984007,0.083506,0.082041,-18.287853,-35.269016,66.347015
1703413920.817038,1703413920.817894,109.000000,0.000000,4235.769043,4229.871582,4304.487305,4280.256348,4238.461426,4215.384766,4247.820313,4248.077148,4236.410156,4217.948730,4522.820313,4471.153809,4359.615234,4455.769043,6561.000000,3.000000,57.000000,,,,0.000000,4.000000,4.000000,4.000000,4.000000,4.000000,4.000000,4.000000,4.000000,4.000000,4.000000,4.000000,4.000000,4.000000,4.000000,100.000000,,,,,,,,,,,,,,,,,,,,,,,,,,,,
1703413920.824846,1703413920.825602,110.000000,0.000000,4227.307617,4230.897461,4307.179688,4282.436035,4241.025879,4215.512695,4251.025879,4246.794922,4233.717773,4228.846191,4534.230957,4474.743652,4381.410156,4461.410156,5856.000000,3.000000,57.000000,,,,0.000000,4.000000,4.000000,4.000000,4.000000,4.000000,4.000000,4.000000,4.000000,4.000000,4.000000,4.000000,4.000000,4.000000,4.000000,100.000000,,,,,,,,,,,,,,,,,,,,,,,,,,,,
1703413920.832654,1703413920.833410,111.000000,0.000000,4235.128418,4239.487305,4311.410156,4288.461426,4232.179688,4218.846191,4249.230957,4245.512695,4236.794922,4237.307617,4547.307617,4481.025879,4387.563965,4472.563965,6050.000000,3.000000,57.000000,,,,0.000000,4.000000,4.000000,4.000000,4.000000,4.000000,4.000000,4.000000,4.000000,4.000000,4.000000,4.000000,4.000000,4.000000,4.000000,100.000000,,,,,,,,,,,,,,,,,,,,,,,,,,,,
1703413920.840462,1703413920.841118,112.000000,0.000000,4236.922852,4230.384766,4311.538574,4283.205078,4236.794922,4214.743652,4247.307617,4240.641113,4243.589844,4235.256348,4551.794922,4482.436035,4380.897461,4470.512695,6526.000000,3.000000,57.000000,,,,0.000000,4.000000,4.000000,4.000000,4.000000,4.000000,4.000000,4.000000,4.000000,4.000000,4.000000,4.000000,4.000000,4.000000,4.000000,100.000000,,,,,,,,,,,,,,,,,28.000000,0.000000,0.334140,0.622742,-0.260681,0.657715,0.986449,0.084971,0.088390,-18.425734,-35.258781,66.295647
1703413920.848270,1703413920.848926,113.000000,0.000000,4228.589844,4221.922852,4308.333496,4278.333496,4250.897461,4211.666504,4247.436035,4236.153809,4241.922852,4228.717773,4550.000000,4479.871582,4384.487305,4467.820313,6561.000000,3.000000,57.000000,,,,0.000000,4.000000,4.000000,4.000000,4.000000,4.000000,4.000000,4.000000,4.000000,4.000000,4.000000,4.000000,4.000000,4.000000,4.000000,100.000000,,,,,,,,,,,,,,,,,,,,,,,,,,,,
1703413920.856078,1703413920.856634,114.000000,0.000000,4234.871582,4237.948730,4310.769043,4292.820313,4242.051270,4216.410156,4248.077148,4229.871582,4232.820313,4227.820313,4542.948730,4474.487305,4382.563965,4471.538574,5856.000000,3.000000,57.000000,,,,0.000000,4.000000,4.000000,4.000000,4.000000,4.000000,4.000000,4.000000,4.000000,4.000000,4.000000,4.000000,4.000000,4.000000,4.000000,100.000000,,,,,,,,,,,,,,,,,,,,,,,,,,,,
1703413920.863886,1703413920.864542,115.000000,0.000000,4246.025879,4255.128418,4312.948730,4305.641113,4230.384766,4212.948730,4245.897461,4218.205078,4227.948730,4238.846191,4534.487305,4472.563965,4370.000000,4465.641113,6050.000000,3.000000,57.000000,,,,0.000000,4.000000,4.000000,4.000000,4.000000,4.000000,4.000000,4.000000,4.000000,4.000000,4.000000,4.000000,4.000000,4.000000,4.000000,100.000000,,,,,,,,,,,,,,,,,,,,,,,,,,,,
1703413920.871694,1703413920.872351,116.000000,0.000000,4242.692383,4253.461426,4309.615234,4298.589844,4236.410156,4208.205078,4246.794922,4212.820313,4231.666504,4238.846191,4534.871582,4473.974121,4364.230957,4457.563965,6526.000000,3.000000,57.000000,,,,0.000000,4.000000,4.000000,4.000000,4.000000,4.000000,4.000000,4.000000,4.000000,4.000000,4.000000,4.000000,4.000000,4.000000,4.000000,100.000000,,,,,,,,,,,,,,,,,29.000000,0.000000,0.334133,0.622681,-0.260681,0.657776,0.993285,0.100598,0.085948,-18.383160,-35.149570,66.299416
1703413920.879502,1703413920.880259,117.000000,0.000000,4231.282227,4244.615234,4308.205078,4285.256348,4236.538574,4211.282227,4248.205078,4219.871582,4232.948730,4220.769043,4537.051270,4467.948730,4367.051270,4461.153809,6561.000000,3.000000,57.000000,,,,0.000000,4.000000,4.000000,4.000000,4.000000,4.000000,4.000000,4.000000,4.000000,4.000000,4.000000,4.000000,4.000000,4.000000,4.000000,100.000000,,,,,,,,,,,,,,,,,,,,,,,,,,,,
1703413920.887310,1703413920.888067,118.000000,0.000000,4221.666504,4236.538574,4305.641113,4278.077148,4230.256348,4212.307617,4245.897461,4234.615234,4228.846191,4214.615234,4529.871582,4459.487305,4360.256348,4457.948730,5856.000000,3.000000,57.000000,,,,0.000000,4.000000,4.000000,4.000000,4.000000,4.000000,4.000000,4.000000,4.000000,4.000000,4.000000,4.000000,4.000000,4.000000,4.000000,100.000000,,,,,,,,,,,,,,,,,,,,,,,,,,,,
1703413920.895118,1703413920.895976,119.000000,0.000000,4214.871582,4222.820313,4299.615234,4272.563965,4227.820313,4210.256348,4242.692383,4247.179688,4225.128418,4208.589844,4518.974121,4458.846191,4343.717773,4444.230957,6050.000000,3.000000,57.000000,,,,0.000000,4.000000,4.000000,4.000000,4.000000,4.000000,4.000000,4.000000,4.000000,4.000000,4.000000,4.000000,4.000000,4.000000,4.000000,100.000000,,,,,,,,,,,,,,,,,,,,,,,,,,,,
1703413920.902926,1703413920.903784,120.000000,0.000000,4214.102539,4216.025879,4294.743652,4270.128418,4227.692383,4210.384766,4245.256348,4250.384766,4226.410156,4194.871582,4517.563965,4460.000000,4340.897461,4440.769043,6526.000000,3.000000,57.000000,,,,0.000000,4.000000,4.000000,4.000000,4.000000,4.000000,4.000000,4.000000,4.000000,4.000000,4.000000,4.000000,4.000000,4.000000,4.000000,100.000000,,,,,,,,,,,,,,,,,30.000000,0.000000,0.334349,0.622681,-0.260559,0.657715,0.972775,0.093273,0.085460,-18.461512,-35.067947,66.536140
1703413920.910734,1703413920.911692,121.000000,0.000000,4218.589844,4222.692383,4295.512695,4273.846191,4230.641113,4214.102539,4249.615234,4254.487305,4233.205078,4204.358887,4521.922852,4458.077148,4353.205078,4446.282227,6561.000000,3.000000,57.000000,,,,0.000000,4.000000,4.000000,4.000000,4.000000,4.000000,4.000000,4.000000,4.000000,4.000000,4.000000,4.000000,4.000000,4.000000,4.000000,100.000000,,,,,,,,,,,,,,,,,,,,,,,,,,,,
1703413920.918543,1703413920.919501,122.000000,0.000000,4218.846191,4231.282227,4297.436035,4279.743652,4234.487305,4222.948730,4251.922852,4261.666504,4235.384766,4219.230957,4525.897461,4461.025879,4360.128418,4451.025879,5856.000000,3.000000,57.000000,,,,0.000000,4.000000,4.000000,4.000000,4.000000,4.000000,4.000000,4.000000,4.000000,4.000000,4.000000,4.000000,4.000000,4.000000,4.000000,100.000000,,,,,,,,,,,,,,,,,,,,,,,,,,,,
1703413920.926350,1703413920.927409,123.000000,0.000000,4216.282227,4232.051270,4294.871582,4278.461426,4232.692383,4228.461426,4253.461426,4252.948730,4232.820313,4217.820313,4523.077148,4459.743652,4354.743652,4446.153809,6050.000000,3.000000,57.000000,,,,0.000000,4.000000,4.000000,4.000000,4.000000,4.000000,4.000000,4.000000,4.000000,4.000000,4.000000,4.000000,4.000000,4.000000,4.000000,100.000000,,,,,,,,,,,,,,,,,,,,,,,,,,,,
1703413920.934158,1703413920.935218,124.000000,0.000000,4220.641113,4228.717773,4293.205078,4276.794922,4235.000000,4221.794922,4252.948730,4242.179688,4232.692383,4214.487305,4519.615234,4454.230957,4352.820313,4440.641113,6526.000000,3.000000,57.000000,,,,0.000000,4.000000,4.000000,4.000000,4.000000,4.000000,4.000000,4.000000,4.000000,4.000000,4.000000,4.000000,4.000000,4.000000,4.000000,100.000000,,,,,,,,,,,,,,,,,31.000000,0.000000,0.334553,0.622559,-0.260742,0.657654,0.986449,0.104505,0.091320,-18.382027,-35.011154,66.482529
1703413920.941967,1703413920.943126,125.000000,0.000000,4228.589844,4238.077148,4296.153809,4290.000000,4244.358887,4216.538574,4250.128418,4245.897461,4233.589844,4214.743652,4527.436035,4458.077148,4358.461426,4451.794922,6561.000000,3.000000,57.000000,,,,0.000000,4.000000,4.000000,4.000000,4.000000,4.000000,4.000000,4.000000,4.000000,4.000000,4.000000,4.000000,4.000000,4.000000,4.000000,100.000000,,,,,,,,,,,,,,,,,,,,,,,,,,,,
1703413920.949775,1703413920.950934,126.000000,0.000000,4232.948730,4252.179688,4302.051270,4299.487305,4249.230957,4218.589844,4248.333496,4241.666504,4233.205078,4225.000000,4532.051270,4464.487305,4370.128418,4464.615234,5856.000000,3.000000,57.000000,,,,0.000000,4.000000,4.000000,4.000000,4.000000,4.000000,4.000000,4.000000,4.000000,4.000000,4.000000,4.000000,4.000000,4.000000,4.000000,100.000000,,,,,,,,,,,,,,,,,,,,,,,,,,,,
1703413920.957583,1703413920.958842,127.000000,0.000000,4237.563965,4249.102539,4304.743652,4296.282227,4248.461426,4216.794922,4248.461426,4224.358887,4232.948730,4234.743652,4531.410156,4462.820313,4380.512695,4463.717773,57.000000,3.000000,57.000000,,,,0.000000,4.000000,4.000000,4.000000,4.000000,4.000000,4.000000,4.000000,4.000000,4.000000,4.000000,4.000000,4.000000,4.000000,4.000000,100.000000,,,,,,,,,,,,,,,,,,,,,,,,,,,,
1703413920.965391,1703413920.966650,0.000000,0.000000,4239.487305,4235.384766,4303.846191,4288.717773,4243.974121,4214.487305,4247.948730,4221.922852,4228.077148,4221.794922,4534.743652,4459.871582,4375.769043,4456.410156,3657.000000,3.000000,57.000000,,,,0.000000,4.000000,4.000000,4.000000,4.000000,4.000000,4.000000,4.000000,4.000000,4.000000,4.000000,4.000000,4.000000,4.000000,4.000000,100.000000,,,,,,,,,,,,,,,,,0.000000,0.000000,0.334667,0.622498,-0.260742,0.657654,0.995239,0.100598,0.083018,-18.610491,-34.926704,66.517609
1703413920.973199,1703413920.974359,1.000000,0.000000,4234.487305,4237.563965,4301.153809,4287.179688,4245.769043,4214.487305,4248.077148,4228.589844,4221.025879,4212.948730,4531.282227,4461.153809,4366.794922,4451.282227,5399.000000,3.000000,57.000000,,,,0.000000,4.000000,4.000000,4.000000,4.000000,4.000000,4.000000,4.000000,4.000000,4.000000,4.000000,4.000000,4.000000,4.000000,4.000000,100.000000,,,,,,,,,,,,,,,,,,,,,,,,,,,,
1703413920.981007,1703413920.982267,2.000000,0.000000,4231.794922,4243.589844,4300.384766,4287.820313,4246.666504,4212.563965,4248.205078,4221.794922,4217.692383,4227.307617,4518.461426,4457.179688,4360.512695,4449.102539,5060.000000,3.000000,57.000000,,,,0.000000,4.000000,4.000000,4.000000,4.000000,4.000000,4.000000,4.000000,4.000000,4.000000,4.000000,4.000000,4.000000,4.000000,4.000000,100.000000,,,,,,,,,,,,,,,,,,,,,,,,,,,,
1703413920.988815,1703413920.990076,3.000000,0.000000,4232.179688,4233.717773,4303.333496,4283.589844,4234.487305,4212.051270,4247.051270,4219.743652,4217.563965,4221.538574,4514.358887,4454.230957,4355.641113,4453.461426,5263.000000,3.000000,57.000000,,,,0.000000,4.000000,4.000000,4.000000,4.000000,4.000000,4.000000,4.000000,4.000000,4.000000,4.000000,4.000000,4.000000,4.000000,4.000000,100.000000,,,,,,,,,,,,,,,,,,,,,,,,,,,,
1703413920.996623,1703413920.997984,4.000000,0.000000,4232.051270,4227.436035,4303.589844,4280.128418,4232.948730,4216.282227,4249.230957,4240.897461,4223.717773,4202.436035,4527.179688,4463.974121,4358.846191,4460.000000,5150.000000,3.000000,57.000000,,,,0.000000,4.000000,4.000000,4.000000,4.000000,4.000000,4.000000,4.000000,4.000000,4.000000,4.000000,4.000000,4.000000,4.000000,4.000000,100.000000,,,,,,,,,,,,,,,,,1.000000,0.000000,0.334506,0.622559,-0.260803,0.657654,0.995239,0.086436,0.078623,-18.582775,-34.817368,66.515846
1703413921.004431,1703413921.005793,5.000000,0.000000,4234.230957,4227.820313,4300.641113,4277.563965,4245.128418,4219.230957,4251.922852,4253.461426,4230.512695,4209.487305,4537.436035,4474.102539,4365.384766,4460.897461,4475.000000,3.000000,57.000000,,,,0.000000,4.000000,4.000000,4.000000,4.000000,4.000000,4.000000,4.000000,4.000000,4.000000,4.000000,4.000000,4.000000,4.000000,4.000000,100.000000,,,,,,,,,,,,,,,,,,,,,,,,,,,,
1703413921.012239,1703413921.013702,6.000000,0.000000,4233.717773,4224.487305,4301.153809,4276.922852,4247.563965,4217.179688,4251.410156,4247.692383,4232.051270,4222.692383,4530.256348,4469.615234,4366.666504,4458.974121,2677.000000,3.000000,57.000000,,,,0.000000,4.000000,4.000000,4.000000,4.000000,4.000000,4.000000,4.000000,4.000000,4.000000,4.000000,4.000000,4.000000,4.000000,4.000000,100.000000,,,,,,,,,,,,,,,,,,,,,,,,,,,,
1703413921.020047,1703413921.021510,7.000000,0.000000,4234.358887,4226.922852,4305.769043,4281.410156,4239.230957,4216.538574,4249.743652,4244.743652,4232.692383,4220.769043,4520.641113,4463.589844,4367.563965,4458.717773,4787.000000,3.000000,57.000000,,,,0.000000,4.000000,4.000000,4.000000,4.000000,4.000000,4.000000,4.000000,4.000000,4.000000,4.000000,4.000000,4.000000,4.000000,4.000000,100.000000,,,,,,,,,,,,,,,,,,,,,,,,,,,,
1703413921.027855,1703413921.029319,8.000000,0.000000,4243.333496,4235.256348,4305.512695,4287.307617,4237.563965,4218.717773,4249.615234,4244.871582,4231.538574,4216.794922,4523.974121,4464.743652,4369.871582,4461.538574,4412.000000,3.000000,57.000000,,,,0.000000,4.000000,4.000000,4.000000,4.000000,4.000000,4.000000,4.000000,4.000000,4.000000,4.000000,4.000000,4.000000,4.000000,4.000000,100.000000,,,,,,,,,,,,,,,,,2.000000,0.000000,0.334272,0.622620,-0.260803,0.657715,0.980100,0.071298,0.089366,-18.574497,-34.952297,66.547600
1703413921.035663,1703413921.037027,9.000000,0.000000,4247.307617,4236.282227,4302.051270,4285.769043,4241.153809,4217.563965,4248.717773,4235.256348,4226.410156,4217.307617,4527.563965,4462.692383,4367.948730,4459.871582,5333.000000,3.000000,57.000000,,,,0.000000,4.000000,4.000000,4.000000,4.000000,4.000000,4.000000,4.000000,4.000000,4.000000,4.000000,4.000000,4.000000,4.000000,4.000000,100.000000,,,,,,,,,,,,,,,,,,,,,,,,,,,,
1703413921.043471,1703413921.044835,10.000000,0.000000,4253.589844,4242.179688,4306.153809,4289.615234,4247.820313,4217.692383,4248.333496,4220.897461,4226.922852,4225.384766,4528.846191,4463.205078,4369.487305,4458.589844,5865.000000,3.000000,57.000000,,,,0.000000,4.000000,4.000000,4.000000,4.000000,4.000000,4.000000,4.000000,4.000000,4.000000,4.000000,4.000000,4.000000,4.000000,4.000000,100.000000,,,,,,,,,,,,,,,,,,,,,,,,,,,,
1703413921.051279,1703413921.052543,11.000000,0.000000,4261.025879,4254.358887,4311.410156,4299.487305,4252.820313,4220.000000,4250.769043,4221.153809,4237.051270,4238.974121,4536.153809,4473.205078,4378.846191,4469.743652,6050.000000,3.000000,57.000000,,,,0.000000,4.000000,4.000000,4.000000,4.000000,4.000000,4.000000,4.000000,4.000000,4.000000,4.000000,4.000000,4.000000,4.000000,4.000000,100.000000,,,,,,,,,,,,,,,,,,,,,,,,,,,,
1703413921.059087,1703413921.060351,12.000000,0.000000,4257.179688,4250.641113,4312.563965,4300.128418,4250.000000,4214.743652,4250.128418,4238.461426,4238.846191,4238.333496,4542.820313,4481.666504,4385.512695,4479.871582,6533.000000,3.000000,57.000000,,,,0.000000,4.000000,4.000000,4.000000,4.000000,4.000000,4.000000,4.000000,4.000000,4.000000,4.000000,4.000000,4.000000,4.000000,4.000000,100.000000,,,,,,,,,,,,,,,,,3.000000,0.000000,0.334241,0.622559,-0.260681,0.657837,0.998169,0.083506,0.097668,-18.583714,-34.973732,66.542839
1703413921.066895,1703413921.068059,13.000000,0.000000,4248.205078,4235.512695,4310.897461,4294.358887,4243.589844,4210.769043,4247.051270,4247.692383,4233.846191,4222.948730,4539.487305,4475.897461,4376.538574,4472.307617,6561.000000,3.000000,57.000000,,,,0.000000,4.000000,4.000000,4.000000,4.000000,4.000000,4.000000,4.000000,4.000000,4.000000,4.000000,4.000000,4.000000,4.000000,4.000000,100.000000,,,,,,,,,,,,,,,,,,,,,,,,,,,,
1703413921.074704,1703413921.075867,14.000000,0.000000,4239.102539,4231.025879,4303.717773,4284.487305,4237.692383,4215.641113,4247.179688,4244.487305,4233.974121,4215.000000,4522.436035,4461.538574,4360.000000,4458.589844,5865.000000,3.000000,57.000000,,,,0.000000,4.000000,4.000000,4.000000,4.000000,4.000000,4.000000,4.000000,4.000000,4.000000,4.000000,4.000000,4.000000,4.000000,4.000000,100.000000,,,,,,,,,,,,,,,,,,,,,,,,,,,,
1703413921.082512,1703413921.083575,15.000000,0.000000,4234.743652,4228.717773,4301.410156,4277.692383,4236.282227,4217.179688,4249.871582,4248.974121,4235.897461,4215.641113,4515.384766,4461.025879,4355.769043,4456.666504,6050.000000,3.000000,57.000000,,,,0.000000,4.000000,4.000000,4.000000,4.000000,4.000000,4.000000,4.000000,4.000000,4.000000,4.000000,4.000000,4.000000,4.000000,4.000000,100.000000,,,,,,,,,,,,,,,,,,,,,,,,,,,,
1703413921.090320,1703413921.091484,16.000000,0.000000,4241.538574,4219.871582,4308.717773,4279.487305,4235.384766,4212.692383,4251.025879,4253.589844,4232.436035,4215.256348,4532.820313,4473.333496,4357.051270,4457.692383,0.000000,3.000000,57.000000,,,,0.000000,4.000000,4.000000,4.000000,4.000000,4.000000,4.000000,4.000000,4.000000,4.000000,4.000000,4.000000,4.000000,4.000000,4.000000,100.000000,,,,,,,,,,,,,,,,,4.000000,0.000000,0.334572,0.622498,-0.260864,0.657654,0.968380,0.099133,0.085460,-18.625343,-34.976360,66.521889
1703413921.098128,1703413921.099292,17.000000,0.000000,4247.948730,4223.974121,4311.282227,4281.922852,4229.743652,4212.563965,4249.871582,4249.871582,4230.769043,4219.615234,4536.282227,4477.820313,4358.205078,4456.153809,0.000000,3.000000,57.000000,,,,0.000000,4.000000,4.000000,4.000000,4.000000,4.000000,4.000000,4.000000,4.000000,4.000000,4.000000,4.000000,4.000000,4.000000,4.000000,100.000000,,,,,,,,,,,,,,,,,,,,,,,,,,,,
1703413921.105936,1703413921.107200,18.000000,0.000000,4246.282227,4228.461426,4309.615234,4279.102539,4230.384766,4214.743652,4247.563965,4248.205078,4230.769043,4216.153809,4526.025879,4475.641113,4366.538574,4462.436035,0.000000,3.000000,57.000000,,,,0.000000,4.000000,4.000000,4.000000,4.000000,4.000000,4.000000,4.000000,4.000000,4.000000,4.000000,4.000000,4.000000,4.000000,4.000000,100.000000,,,,,,,,,,,,,,,,,,,,,,,,,,,,
1703413921.113744,1703413921.115009,19.000000,0.000000,4243.461426,4219.487305,4309.230957,4277.563965,4230.641113,4215.256348,4246.794922,4240.641113,4222.436035,4201.282227,4525.256348,4471.666504,4361.153809,4461.794922,0.000000,3.000000,57.000000,,,,0.000000,4.000000,4.000000,4.000000,4.000000,4.000000,4.000000,4.000000,4.000000,4.000000,4.000000,4.000000,4.000000,4.000000,4.000000,100.000000,,,,,,,,,,,,,,,,,,,,,,,,,,,,
1703413921.121552,1703413921.122917,20.000000,0.000000,4246.922852,4225.512695,4311.410156,4286.794922,4230.000000,4216.153809,4248.589844,4230.384766,4216.025879,4205.256348,4523.461426,4468.205078,4350.384766,4452.820313,0.000000,3.000000,57.000000,,,,0.000000,4.000000,4.000000,4.000000,4.000000,4.000000,4.000000,4.000000,4.000000,4.000000,4.000000,4.000000,4.000000,4.000000,4.000000,100.000000,,,,,,,,,,,,,,,,,5.000000,0.000000,0.334483,0.622559,-0.260986,0.657593,0.992309,0.098157,0.083506,-18.629475,-35.112057,66.569695
1703413921.129360,1703413921.130725,21.000000,0.000000,4258.846191,4237.179688,4319.102539,4295.000000,4240.641113,4218.846191,4249.358887,4231.410156,4219.871582,4230.512695,4531.538574,4478.589844,4375.128418,4463.589844,0.000000,3.000000,57.000000,,,,0.000000,4.000000,4.000000,4.000000,4.000000,4.000000,4.000000,4.000000,4.000000,4.000000,4.000000,4.000000,4.000000,4.000000,4.000000,100.000000,,,,,,,,,,,,,,,,,,,,,,,,,,,,
1703413921.137168,1703413921.138633,22.000000,0.000000,4267.948730,4231.666504,4321.922852,4292.692383,4248.846191,4223.974121,4248.974121,4228.461426,4218.589844,4236.794922,4553.077148,4489.615234,4406.410156,4486.025879,0.000000,3.000000,57.000000,,,,0.000000,4.000000,4.000000,4.000000,4.000000,4.000000,4.000000,4.000000,4.000000,4.000000,4.000000,4.000000,4.000000,4.000000,4.000000,100.000000,,,,,,,,,,,,,,,,,,,,,,,,,,,,
1703413921.144976,1703413921.146442,23.000000,0.000000,4266.794922,4237.307617,4316.153809,4294.358887,4245.000000,4224.487305,4251.282227,4218.589844,4217.563965,4226.410156,4560.897461,4483.974121,4397.948730,4492.948730,0.000000,3.000000,57.000000,,,,0.000000,4.000000,4.000000,4.000000,4.000000,4.000000,4.000000,4.000000,4.000000,4.000000,4.000000,4.000000,4.000000,4.000000,4.000000,100.000000,,,,,,,,,,,,,,,,,,,,,,,,,,,,
1703413921.152784,1703413921.154150,24.000000,0.000000,4266.153809,4249.615234,4318.461426,4302.051270,4245.512695,4218.461426,4251.153809,4220.641113,4226.666504,4234.743652,4552.051270,4479.615234,4388.461426,4488.846191,0.000000,3.000000,57.000000,,,,0.000000,4.000000,4.000000,4.000000,4.000000,4.000000,4.000000,4.000000,4.000000,4.000000,4.000000,4.000000,4.000000,4.000000,4.000000,100.000000,,,,,,,,,,,,,,,,,6.000000,0.000000,0.334464,0.622620,-0.260864,0.657593,0.986449,0.106947,0.083018,-18.566528,-35.300854,66.512726
1703413921.160592,1703413921.161958,25.000000,0.000000,4267.436035,4240.128418,4322.948730,4299.358887,4252.436035,4219.743652,4249.615234,4227.563965,4231.025879,4248.205078,4543.333496,4480.769043,4399.743652,4485.897461,0.000000,3.000000,57.000000,,,,0.000000,4.000000,4.000000,4.000000,4.000000,4.000000,4.000000,4.000000,4.000000,4.000000,4.000000,4.000000,4.000000,4.000000,4.000000,100.000000,,,,,,,,,,,,,,,,,,,,,,,,,,,,
1703413921.168400,1703413921.169666,26.000000,0.000000,4263.077148,4230.384766,4314.615234,4291.922852,4246.410156,4221.794922,4251.153809,4233.846191,4229.230957,4242.692383,4537.051270,4475.512695,4391.538574,4480.256348,0.000000,3.000000,57.000000,,,,0.000000,4.000000,4.000000,4.000000,4.000000,4.000000,4.000000,4.000000,4.000000,4.000000,4.000000,4.000000,4.000000,4.000000,4.000000,100.000000,,,,,,,,,,,,,,,,,,,,,,,,,,,,
1703413921.176208,1703413921.177475,27.000000,0.000000,4254.743652,4227.948730,4307.436035,4287.820313,4230.256348,4216.410156,4249.871582,4246.666504,4232.436035,4229.230957,4542.948730,4474.743652,4376.794922,4471.282227,0.000000,3.000000,57.000000,,,,0.000000,4.000000,4.000000,4.000000,4.000000,4.000000,4.000000,4.000000,4.000000,4.000000,4.000000,4.000000,4.000000,4.000000,4.000000,100.000000,,,,,,,,,,,,,,,,,,,,,,,,,,,,
1703413921.184016,1703413921.185183,28.000000,0.000000,4248.717773,4216.794922,4307.563965,4277.436035,4222.307617,4214.871582,4249.487305,4256.025879,4234.358887,4230.897461,4547.436035,4479.487305,4382.307617,4466.666504,0.000000,3.000000,57.000000,,,,0.000000,4.000000,4.000000,4.000000,4.000000,4.000000,4.000000,4.000000,4.000000,4.000000,4.000000,4.000000,4.000000,4.000000,4.000000,100.000000,,,,,,,,,,,,,,,,,7.000000,0.000000,0.334314,0.622803,-0.260620,0.657593,0.988890,0.092785,0.085948,-18.576542,-35.404099,66.478119
1703413921.191824,1703413921.192991,29.000000,0.000000,4245.897461,4211.922852,4306.922852,4270.384766,4228.077148,4220.384766,4251.666504,4252.563965,4231.282227,4244.358887,4535.384766,4473.205078,4386.282227,4462.948730,0.000000,3.000000,57.000000,,,,0.000000,4.000000,4.000000,4.000000,4.000000,4.000000,4.000000,4.000000,4.000000,4.000000,4.000000,4.000000,4.000000,4.000000,4.000000,100.000000,,,,,,,,,,,,,,,,,,,,,,,,,,,,
1703413921.199632,1703413921.200699,30.000000,0.000000,4245.128418,4218.077148,4305.769043,4275.897461,4243.589844,4224.102539,4252.692383,4245.512695,4231.538574,4248.717773,4532.051270,4466.410156,4387.307617,4459.230957,0.000000,3.000000,57.000000,,,,0.000000,4.000000,4.000000,4.000000,4.000000,4.000000,4.000000,4.000000,4.000000,4.000000,4.000000,4.000000,4.000000,4.000000,4.000000,100.000000,,,,,,,,,,,,,,,,,,,,,,,,,,,,
1703413921.207440,1703413921.208507,31.000000,0.000000,4246.538574,4215.256348,4308.717773,4281.025879,4247.436035,4224.871582,4253.589844,4242.563965,4234.615234,4248.974121,4544.487305,4472.179688,4395.000000,4467.307617,0.000000,3.000000,57.000000,,,,0.000000,4.000000,4.000000,4.000000,4.000000,4.000000,4.000000,4.000000,4.000000,4.000000,4.000000,4.000000,4.000000,4.000000,4.000000,100.000000,,,,,,,,,,,,,,,,,,,,,,,,,,,,
1703413921.215248,1703413921.216215,32.000000,0.000000,4250.000000,4215.641113,4313.077148,4281.666504,4240.000000,4228.589844,4254.102539,4236.410156,4233.205078,4251.025879,4543.974121,4479.358887,4394.871582,4477.563965,0.000000,3.000000,57.000000,,,,0.000000,4.000000,4.000000,4.000000,4.000000,4.000000,4.000000,4.000000,4.000000,4.000000,4.000000,4.000000,4.000000,4.000000,4.000000,100.000000,1.000000,91.666664,4.000000,3.000000,4.000000,4.000000,4.000000,4.000000,4.000000,4.000000,4.000000,4.000000,4.000000,4.000000,4.000000,4.000000,8.000000,0.000000,0.334254,0.622925,-0.260559,0.657532,0.998169,0.079111,0.086925,-18.518887,-35.480358,66.596977
1703413921.223056,1703413921.224023,33.000000,0.000000,4250.512695,4225.128418,4313.974121,4286.153809,4242.179688,4231.025879,4252.179688,4229.487305,4231.410156,4250.128418,4537.948730,4476.282227,4387.051270,4468.974121,0.000000,3.000000,57.000000,,,,0.000000,4.000000,4.000000,4.000000,4.000000,4.000000,4.000000,4.000000,4.000000,4.000000,4.000000,4.000000,4.000000,4.000000,4.000000,100.000000,,,,,,,,,,,,,,,,,,,,,,,,,,,,
1703413921.230865,1703413921.231731,34.000000,0.000000,4249.102539,4225.384766,4311.666504,4293.077148,4249.615234,4225.128418,4250.897461,4230.384766,4233.589844,4248.589844,4549.871582,4474.230957,4386.538574,4460.128418,0.000000,3.000000,57.000000,,,,0.000000,4.000000,4.000000,4.000000,4.000000,4.000000,4.000000,4.000000,4.000000,4.000000,4.000000,4.000000,4.000000,4.000000,4.000000,100.000000,,,,,,,,,,,,,,,,,,,,,,,,,,,,
1703413921.238673,1703413921.239539,35.000000,0.000000,4248.717773,4221.282227,4310.256348,4288.589844,4246.538574,4215.641113,4251.922852,4229.615234,4231.666504,4246.666504,4548.205078,4473.717773,4383.846191,4467.051270,0.000000,3.000000,57.000000,,,,0.000000,4.000000,4.000000,4.000000,4.000000,4.000000,4.000000,4.000000,4.000000,4.000000,4.000000,4.000000,4.000000,4.000000,4.000000,100.000000,,,,,,,,,,,,,,,,,,,,,,,,,,,,
1703413921.246481,1703413921.247247,36.000000,0.000000,4252.436035,4224.230957,4313.205078,4280.769043,4245.512695,4215.256348,4247.820313,4215.128418,4219.871582,4237.436035,4523.846191,4465.641113,4376.922852,4468.461426,0.000000,3.000000,57.000000,,,,0.000000,4.000000,4.000000,4.000000,4.000000,4.000000,4.000000,4.000000,4.000000,4.000000,4.000000,4.000000,4.000000,4.000000,4.000000,100.000000,,,,,,,,,,,,,,,,,9.000000,0.000000,0.334428,0.622986,-0.260498,0.657410,0.990844,0.097668,0.088390,-18.516998,-35.515656,66.487282
1703413921.254289,1703413921.255055,37.000000,0.000000,4257.692383,4232.436035,4314.230957,4290.769043,4251.538574,4225.384766,4245.384766,4207.692383,4217.307617,4226.538574,4521.666504,4459.871582,4381.153809,4460.128418,0.000000,3.000000,57.000000,,,,0.000000,4.000000,4.000000,4.000000,4.000000,4.000000,4.000000,4.000000,4.000000,4.000000,4.000000,4.000000,4.000000,4.000000,4.000000,100.000000,,,,,,,,,,,,,,,,,,,,,,,,,,,,
1703413921.262097,1703413921.262763,38.000000,0.000000,4251.922852,4229.743652,4308.461426,4295.256348,4248.589844,4230.000000,4256.538574,4225.512695,4227.820313,4226.153809,4532.436035,4464.487305,4376.922852,4457.179688,0.000000,3.000000,57.000000,,,,0.000000,4.000000,4.000000,4.000000,4.000000,4.000000,4.000000,4.000000,4.000000,4.000000,4.000000,4.000000,4.000000,4.000000,4.000000,100.000000,,,,,,,,,,,,,,,,,,,,,,,,,,,,
1703413921.269905,1703413921.270672,39.000000,0.000000,4246.666504,4220.000000,4305.384766,4280.897461,4246.666504,4232.051270,4261.922852,4243.974121,4231.922852,4236.153809,4527.692383,4470.769043,4367.692383,4464.102539,0.000000,3.000000,57.000000,,,,0.000000,4.000000,4.000000,4.000000,4.000000,4.000000,4.000000,4.000000,4.000000,4.000000,4.000000,4.000000,4.000000,4.000000,4.000000,100.000000,,,,,,,,,,,,,,,,,,,,,,,,,,,,
1703413921.277713,1703413921.278480,40.000000,0.000000,4250.641113,4221.922852,4309.102539,4282.692383,4247.051270,4230.641113,4253.846191,4252.692383,4236.794922,4245.000000,4537.051270,4478.461426,4379.487305,4476.794922,0.000000,3.000000,57.000000,,,,0.000000,4.000000,4.000000,4.000000,4.000000,4.000000,4.000000,4.000000,4.000000,4.000000,4.000000,4.000000,4.000000,4.000000,4.000000,100.000000,,,,,,,,,,,,,,,,,10.000000,0.000000,0.334608,0.623108,-0.260437,0.657227,0.986449,0.097180,0.080576,-18.598633,-35.547421,66.355217
1703413921.285521,1703413921.286388,41.000000,0.000000,4247.563965,4226.922852,4308.205078,4291.922852,4237.436035,4222.436035,4252.948730,4255.897461,4244.871582,4247.948730,4550.769043,4486.666504,4387.948730,4478.333496,0.000000,3.000000,57.000000,,,,0.000000,4.000000,4.000000,4.000000,4.000000,4.000000,4.000000,4.000000,4.000000,4.000000,4.000000,4.000000,4.000000,4.000000,4.000000,100.000000,,,,,,,,,,,,,,,,,,,,,,,,,,,,
1703413921.293329,1703413921.294197,42.000000,0.000000,4248.333496,4224.102539,4306.025879,4283.846191,4232.820313,4222.948730,4257.179688,4253.333496,4244.487305,4257.563965,4545.897461,4487.563965,4383.846191,4473.333496,0.000000,3.000000,57.000000,,,,0.000000,4.000000,4.000000,4.000000,4.000000,4.000000,4.000000,4.000000,4.000000,4.000000,4.000000,4.000000,4.000000,4.000000,4.000000,100.000000,,,,,,,,,,,,,,,,,,,,,,,,,,,,
1703413921.301137,1703413921.302105,43.000000,0.000000,4262.563965,4223.077148,4312.692383,4282.820313,4238.846191,4231.922852,4257.051270,4251.538574,4244.358887,4262.692383,4552.692383,4489.358887,4391.922852,4482.820313,0.000000,3.000000,57.000000,,,,0.000000,4.000000,4.000000,4.000000,4.000000,4.000000,4.000000,4.000000,4.000000,4.000000,4.000000,4.000000,4.000000,4.000000,4.000000,100.000000,,,,,,,,,,,,,,,,,,,,,,,,,,,,
1703413921.308945,1703413921.309914,44.000000,0.000000,4269.102539,4231.538574,4319.358887,4296.025879,4243.461426,4232.436035,4258.077148,4253.205078,4249.487305,4256.922852,4566.025879,4499.230957,4404.230957,4494.102539,0.000000,3.000000,57.000000,,,,0.000000,4.000000,4.000000,4.000000,4.000000,4.000000,4.000000,4.000000,4.000000,4.000000,4.000000,4.000000,4.000000,4.000000,4.000000,100.000000,,,,,,,,,,,,,,,,,11.000000,0.000000,0.334798,0.623108,-0.260193,0.657227,0.984007,0.098157,0.079600,-18.538769,-35.526012,66.319695
1703413921.316753,1703413921.317822,45.000000,0.000000,4270.897461,4232.307617,4323.077148,4297.948730,4247.820313,4229.487305,4258.461426,4253.589844,4250.384766,4262.820313,4566.922852,4506.794922,4405.641113,4499.358887,0.000000,3.000000,57.000000,,,,0.000000,4.000000,4.000000,4.000000,4.000000,4.000000,4.000000,4.000000,4.000000,4.000000,4.000000,4.000000,4.000000,4.000000,4.000000,100.000000,,,,,,,,,,,,,,,,,,,,,,,,,,,,
1703413921.324561,1703413921.325630,46.000000,0.000000,4280.128418,4234.358887,4329.615234,4298.589844,4246.538574,4230.897461,4257.179688,4246.666504,4243.077148,4269.230957,4566.282227,4507.948730,4407.692383,4505.769043,0.000000,3.000000,57.000000,,,,0.000000,4.000000,4.000000,4.000000,4.000000,4.000000,4.000000,4.000000,4.000000,4.000000,4.000000,4.000000,4.000000,4.000000,4.000000,100.000000,,,,,,,,,,,,,,,,,,,,,,,,,,,,
1703413921.332369,1703413921.333538,47.000000,0.000000,4284.230957,4238.717773,4332.307617,4305.256348,4238.974121,4222.820313,4255.256348,4235.641113,4233.205078,4257.051270,4563.461426,4502.820313,4404.230957,4500.256348,0.000000,3.000000,57.000000,,,,0.000000,4.000000,4.000000,4.000000,4.000000,4.000000,4.000000,4.000000,4.000000,4.000000,4.000000,4.000000,4.000000,4.000000,4.000000,100.000000,,,,,,,,,,,,,,,,,,,,,,,,,,,,
1703413921.340177,1703413921.341346,48.000000,0.000000,4272.051270,4225.512695,4323.717773,4298.205078,4238.461426,4214.871582,4251.538574,4229.358887,4230.128418,4244.487305,4552.436035,4492.051270,4391.282227,4485.128418,0.000000,3.000000,57.000000,,,,0.000000,4.000000,4.000000,4.000000,4.000000,4.000000,4.000000,4.000000,4.000000,4.000000,4.000000,4.000000,4.000000,4.000000,4.000000,100.000000,,,,,,,,,,,,,,,,,12.000000,0.000000,0.334905,0.622986,-0.260193,0.657288,0.985472,0.090343,0.086436,-18.368225,-35.506744,66.287727
1703413921.347985,1703413921.349055,49.000000,0.000000,4251.538574,4212.307617,4311.153809,4282.563965,4237.820313,4217.051270,4249.743652,4229.102539,4229.743652,4234.615234,4534.743652,4473.974121,4376.794922,4470.128418,0.000000,3.000000,57.000000,,,,0.000000,4.000000,4.000000,4.000000,4.000000,4.000000,4.000000,4.000000,4.000000,4.000000,4.000000,4.000000,4.000000,4.000000,4.000000,100.000000,,,,,,,,,,,,,,,,,,,,,,,,,,,,
1703413921.355793,1703413921.356863,50.000000,0.000000,4242.051270,4216.282227,4304.743652,4276.153809,4232.307617,4217.820313,4251.922852,4227.436035,4226.538574,4228.717773,4517.820313,4458.589844,4366.922852,4459.487305,0.000000,3.000000,57.000000,,,,0.000000,4.000000,4.000000,4.000000,4.000000,4.000000,4.000000,4.000000,4.000000,4.000000,4.000000,4.000000,4.000000,4.000000,4.000000,100.000000,,,,,,,,,,,,,,,,,,,,,,,,,,,,
1703413921.363601,1703413921.364571,51.000000,0.000000,4249.743652,4220.256348,4305.897461,4280.128418,4235.641113,4225.128418,4256.282227,4229.871582,4230.641113,4239.102539,4521.538574,4461.025879,4371.025879,4458.077148,0.000000,3.000000,57.000000,,,,0.000000,4.000000,4.000000,4.000000,4.000000,4.000000,4.000000,4.000000,4.000000,4.000000,4.000000,4.000000,4.000000,4.000000,4.000000,100.000000,,,,,,,,,,,,,,,,,,,,,,,,,,,,
1703413921.371410,1703413921.372379,52.000000,0.000000,4250.128418,4213.333496,4306.410156,4279.487305,4242.179688,4231.922852,4258.205078,4243.077148,4237.436035,4242.692383,4535.512695,4471.410156,4376.282227,4461.025879,0.000000,3.000000,57.000000,,,,0.000000,4.000000,4.000000,4.000000,4.000000,4.000000,4.000000,4.000000,4.000000,4.000000,4.000000,4.000000,4.000000,4.000000,4.000000,100.000000,,,,,,,,,,,,,,,,,13.000000,0.000000,0.334858,0.622986,-0.260254,0.657288,0.977658,0.086925,0.080088,-18.281403,-35.589405,66.392288
1703413921.379218,1703413921.380088,53.000000,0.000000,4242.948730,4210.256348,4303.717773,4274.102539,4236.410156,4225.000000,4256.025879,4253.333496,4234.230957,4235.128418,4537.307617,4474.358887,4373.589844,4462.948730,0.000000,3.000000,57.000000,,,,0.000000,4.000000,4.000000,4.000000,4.000000,4.000000,4.000000,4.000000,4.000000,4.000000,4.000000,4.000000,4.000000,4.000000,4.000000,100.000000,,,,,,,,,,,,,,,,,,,,,,,,,,,,
1703413921.387025,1703413921.387896,54.000000,0.000000,4255.256348,4217.307617,4309.230957,4281.538574,4229.358887,4217.948730,4253.333496,4255.384766,4233.205078,4241.666504,4541.538574,4478.974121,4377.820313,4473.333496,0.000000,3.000000,57.000000,,,,0.000000,4.000000,4.000000,4.000000,4.000000,4.000000,4.000000,4.000000,4.000000,4.000000,4.000000,4.000000,4.000000,4.000000,4.000000,100.000000,,,,,,,,,,,,,,,,,,,,,,,,,,,,
1703413921.394834,1703413921.395604,55.000000,0.000000,4260.000000,4218.974121,4313.333496,4282.948730,4235.769043,4218.717773,4252.820313,4244.358887,4231.666504,4251.794922,4537.563965,4477.948730,4377.436035,4473.333496,0.000000,3.000000,57.000000,,,,0.000000,4.000000,4.000000,4.000000,4.000000,4.000000,4.000000,4.000000,4.000000,4.000000,4.000000,4.000000,4.000000,4.000000,4.000000,100.000000,,,,,,,,,,,,,,,,,,,,,,,,,,,,
1703413921.402642,1703413921.403412,56.000000,0.000000,4248.205078,4213.333496,4309.615234,4274.871582,4248.205078,4220.641113,4253.461426,4229.871582,4220.512695,4246.922852,4527.948730,4468.461426,4370.256348,4460.512695,0.000000,3.000000,57.000000,,,,0.000000,4.000000,4.000000,4.000000,4.000000,4.000000,4.000000,4.000000,4.000000,4.000000,4.000000,4.000000,4.000000,4.000000,4.000000,100.000000,,,,,,,,,,,,,,,,,14.000000,0.000000,0.335021,0.622925,-0.260498,0.657166,0.988402,0.093761,0.085948,-18.236595,-35.630463,66.453056
1703413921.410450,1703413921.411120,57.000000,0.000000,4254.743652,4217.051270,4313.717773,4284.358887,4243.333496,4219.102539,4254.358887,4234.487305,4208.717773,4236.794922,4541.025879,4477.563965,4375.769043,4468.461426,0.000000,3.000000,57.000000,,,,0.000000,4.000000,4.000000,4.000000,4.000000,4.000000,4.000000,4.000000,4.000000,4.000000,4.000000,4.000000,4.000000,4.000000,4.000000,100.000000,,,,,,,,,,,,,,,,,,,,,,,,,,,,
1703413921.418258,1703413921.419028,58.000000,0.000000,4266.538574,4231.025879,4320.256348,4298.717773,4229.487305,4216.538574,4252.307617,4244.871582,4215.000000,4238.974121,4555.384766,4493.077148,4387.820313,4482.436035,0.000000,3.000000,57.000000,,,,0.000000,4.000000,4.000000,4.000000,4.000000,4.000000,4.000000,4.000000,4.000000,4.000000,4.000000,4.000000,4.000000,4.000000,4.000000,100.000000,,,,,,,,,,,,,,,,,,,,,,,,,,,,
1703413921.426066,1703413921.426837,59.000000,0.000000,4264.615234,4235.000000,4323.205078,4295.128418,4238.205078,4219.615234,4252.948730,4246.153809,4241.025879,4253.974121,4556.666504,4494.358887,4389.743652,4479.743652,0.000000,3.000000,57.000000,,,,0.000000,4.000000,4.000000,4.000000,4.000000,4.000000,4.000000,4.000000,4.000000,4.000000,4.000000,4.000000,4.000000,4.000000,4.000000,100.000000,,,,,,,,,,,,,,,,,,,,,,,,,,,,
1703413921.433874,1703413921.434745,60.000000,0.000000,4271.538574,4232.563965,4327.051270,4297.179688,4254.487305,4230.384766,4257.948730,4252.820313,4253.333496,4268.077148,4572.307617,4502.307617,4400.897461,4488.717773,0.000000,3.000000,57.000000,,,,0.000000,4.000000,4.000000,4.000000,4.000000,4.000000,4.000000,4.000000,4.000000,4.000000,4.000000,4.000000,4.000000,4.000000,4.000000,100.000000,,,,,,,,,,,,,,,,,15.000000,0.000000,0.334794,0.622803,-0.260620,0.657349,0.986937,0.092296,0.092785,-18.196270,-35.750751,66.391083
1703413921.441682,1703413921.442554,61.000000,0.000000,4280.000000,4237.051270,4326.666504,4307.692383,4250.000000,4240.000000,4257.436035,4259.743652,4240.000000,4268.589844,4580.384766,4508.717773,4412.820313,4502.179688,0.000000,3.000000,57.000000,,,,0.000000,4.000000,4.000000,4.000000,4.000000,4.000000,4.000000,4.000000,4.000000,4.000000,4.000000,4.000000,4.000000,4.000000,4.000000,100.000000,,,,,,,,,,,,,,,,,,,,,,,,,,,,
1703413921.449490,1703413921.450462,62.000000,0.000000,4254.615234,4225.128418,4310.384766,4287.563965,4232.692383,4218.846191,4250.512695,4240.256348,4228.077148,4241.025879,4538.205078,4476.794922,4380.128418,4473.205078,0.000000,3.000000,57.000000,,,,0.000000,4.000000,4.000000,4.000000,4.000000,4.000000,4.000000,4.000000,4.000000,4.000000,4.000000,4.000000,4.000000,4.000000,4.000000,100.000000,,,,,,,,,,,,,,,,,,,,,,,,,,,,
1703413921.457298,1703413921.458270,63.000000,0.000000,4228.461426,4203.974121,4296.282227,4263.461426,4222.307617,4195.641113,4247.563965,4221.025879,4231.153809,4213.077148,4505.384766,4446.538574,4345.512695,4438.461426,0.000000,3.000000,57.000000,,,,0.000000,4.000000,4.000000,4.000000,4.000000,4.000000,4.000000,4.000000,4.000000,4.000000,4.000000,4.000000,4.000000,4.000000,4.000000,100.000000,,,,,,,,,,,,,,,,,,,,,,,,,,,,
1703413921.465106,1703413921.466079,64.000000,0.000000,4239.743652,4209.102539,4300.769043,4273.333496,4230.769043,4218.205078,4252.436035,4240.128418,4234.487305,4229.743652,4529.743652,4462.692383,4366.025879,4451.153809,3647.000000,3.000000,57.000000,,,,0.000000,4.000000,4.000000,4.000000,4.000000,4.000000,4.000000,4.000000,4.000000,4.000000,4.000000,4.000000,4.000000,4.000000,4.000000,100.000000,,,,,,,,,,,,,,,,,16.000000,0.000000,0.334901,0.622681,-0.260620,0.657410,0.991332,0.089855,0.078135,-18.026642,-35.859009,66.368645
1703413921.472914,1703413921.473787,65.000000,0.000000,4254.487305,4222.436035,4307.948730,4286.666504,4245.000000,4241.666504,4257.563965,4258.333496,4233.077148,4255.256348,4547.436035,4480.769043,4385.769043,4467.820313,5399.000000,3.000000,57.000000,,,,0.000000,4.000000,4.000000,4.000000,4.000000,4.000000,4.000000,4.000000,4.000000,4.000000,4.000000,4.000000,4.000000,4.000000,4.000000,100.000000,,,,,,,,,,,,,,,,,,,,,,,,,,,,
