title:نوار اسفل, start timestamp:1703161493.416268, stop timestamp:1703161504.308498, headset type:EPOCX, headset serial:E50206EF, headset firmware:720, channels:67, sampling rate:eeg_128;mot_32, samples:1396      , version:2.2, 
Timestamp,OriginalTimestamp,EEG.Counter,EEG.Interpolated,EEG.AF3,EEG.F7,EEG.F3,EEG.FC5,EEG.T7,EEG.P7,EEG.O1,EEG.O2,EEG.P8,EEG.T8,EEG.FC6,EEG.F4,EEG.F8,EEG.AF4,EEG.RawCq,EEG.Battery,EEG.BatteryPercent,MarkerIndex,MarkerType,MarkerValueInt,EEG.MarkerHardware,CQ.AF3,CQ.F7,CQ.F3,CQ.FC5,CQ.T7,CQ.P7,CQ.O1,CQ.O2,CQ.P8,CQ.T8,CQ.FC6,CQ.F4,CQ.F8,CQ.AF4,CQ.Overall,EQ.SampleRateQuality,EQ.OVERALL,EQ.AF3,EQ.F7,EQ.F3,EQ.FC5,EQ.T7,EQ.P7,EQ.O1,EQ.O2,EQ.P8,EQ.T8,EQ.FC6,EQ.F4,EQ.F8,EQ.AF4,MOT.CounterMems,MOT.InterpolatedMems,MOT.Q0,MOT.Q1,MOT.Q2,MOT.Q3,MOT.AccX,MOT.AccY,MOT.AccZ,MOT.MagX,MOT.MagY,MOT.MagZ
1703161493.416268,1703161493.417169,8.000000,0.000000,4152.436035,4140.256348,4278.333496,4227.563965,4153.077148,4123.846191,4134.230957,4120.256348,4137.563965,4153.333496,4655.128418,4453.717773,4417.563965,4520.512695,5028.000000,4.000000,79.000000,,,,0.000000,4.000000,4.000000,4.000000,4.000000,4.000000,4.000000,4.000000,4.000000,4.000000,4.000000,4.000000,4.000000,4.000000,4.000000,100.000000,,,,,,,,,,,,,,,,,2.000000,0.000000,0.729136,0.177429,-0.628845,0.203552,0.988402,0.063973,0.133805,-17.252596,-32.929142,64.784637
1703161493.424076,1703161493.424877,9.000000,0.000000,4154.358887,4147.820313,4278.461426,4230.769043,4144.102539,4121.153809,4123.205078,4119.358887,4134.102539,4149.871582,4653.589844,4455.897461,4414.743652,4519.102539,5255.000000,4.000000,79.000000,,,,0.000000,4.000000,4.000000,4.000000,4.000000,4.000000,4.000000,4.000000,4.000000,4.000000,4.000000,4.000000,4.000000,4.000000,4.000000,100.000000,,,,,,,,,,,,,,,,,,,,,,,,,,,,
1703161493.431884,1703161493.432685,10.000000,0.000000,4158.461426,4156.666504,4290.769043,4234.743652,4137.692383,4121.025879,4127.692383,4126.538574,4134.615234,4139.102539,4652.692383,4468.846191,4409.358887,4522.948730,5819.000000,4.000000,79.000000,,,,0.000000,4.000000,4.000000,4.000000,4.000000,4.000000,4.000000,4.000000,4.000000,4.000000,4.000000,4.000000,4.000000,4.000000,4.000000,100.000000,,,,,,,,,,,,,,,,,,,,,,,,,,,,
1703161493.439692,1703161493.440393,11.000000,0.000000,4157.563965,4146.666504,4297.692383,4232.563965,4137.307617,4123.461426,4134.487305,4128.846191,4140.641113,4145.897461,4664.871582,4470.641113,4412.563965,4525.384766,6150.000000,4.000000,79.000000,,,,0.000000,4.000000,4.000000,4.000000,4.000000,4.000000,4.000000,4.000000,4.000000,4.000000,4.000000,4.000000,4.000000,4.000000,4.000000,100.000000,,,,,,,,,,,,,,,,,,,,,,,,,,,,
1703161493.447500,1703161493.448201,12.000000,0.000000,4153.461426,4137.820313,4290.256348,4230.769043,4146.666504,4123.333496,4127.563965,4126.025879,4144.743652,4164.871582,4669.358887,4463.717773,4420.256348,4521.153809,6588.000000,4.000000,79.000000,,,,0.000000,4.000000,4.000000,4.000000,4.000000,4.000000,4.000000,4.000000,4.000000,4.000000,4.000000,4.000000,4.000000,4.000000,4.000000,100.000000,,,,,,,,,,,,,,,,,3.000000,0.000000,0.729208,0.177490,-0.628784,0.203430,0.983030,0.040044,0.142596,-17.294003,-32.952892,64.939507
1703161493.455308,1703161493.455909,13.000000,0.000000,4160.384766,4153.717773,4289.487305,4235.256348,4154.358887,4123.205078,4119.230957,4121.922852,4144.615234,4172.051270,4666.922852,4464.102539,4428.589844,4532.820313,6775.000000,4.000000,79.000000,,,,0.000000,4.000000,4.000000,4.000000,4.000000,4.000000,4.000000,4.000000,4.000000,4.000000,4.000000,4.000000,4.000000,4.000000,4.000000,100.000000,,,,,,,,,,,,,,,,,,,,,,,,,,,,
1703161493.463116,1703161493.463717,14.000000,0.000000,4163.077148,4160.769043,4293.333496,4237.436035,4146.666504,4121.794922,4118.589844,4115.769043,4140.256348,4167.948730,4670.897461,4464.615234,4428.077148,4539.358887,5819.000000,4.000000,79.000000,,,,0.000000,4.000000,4.000000,4.000000,4.000000,4.000000,4.000000,4.000000,4.000000,4.000000,4.000000,4.000000,4.000000,4.000000,4.000000,100.000000,,,,,,,,,,,,,,,,,,,,,,,,,,,,
1703161493.470924,1703161493.471425,15.000000,0.000000,4154.102539,4141.922852,4289.743652,4228.974121,4139.487305,4120.256348,4116.794922,4111.025879,4137.692383,4172.179688,4672.692383,4460.512695,4426.538574,4527.307617,6150.000000,4.000000,79.000000,,,,0.000000,4.000000,4.000000,4.000000,4.000000,4.000000,4.000000,4.000000,4.000000,4.000000,4.000000,4.000000,4.000000,4.000000,4.000000,100.000000,,,,,,,,,,,,,,,,,,,,,,,,,,,,
1703161493.478732,1703161493.479233,16.000000,0.000000,4157.436035,4132.692383,4285.897461,4223.846191,4145.384766,4121.666504,4120.128418,4117.820313,4146.025879,4181.153809,4670.769043,4461.282227,4432.436035,4530.641113,0.000000,4.000000,79.000000,,,,0.000000,4.000000,4.000000,4.000000,4.000000,4.000000,4.000000,4.000000,4.000000,4.000000,4.000000,4.000000,4.000000,4.000000,4.000000,100.000000,,,,,,,,,,,,,,,,,4.000000,0.000000,0.729360,0.177429,-0.628723,0.203125,0.970822,0.066903,0.129410,-17.281269,-32.974270,64.912224
1703161493.486540,1703161493.486941,17.000000,0.000000,4164.615234,4142.436035,4286.410156,4228.717773,4145.128418,4124.102539,4133.461426,4131.922852,4155.512695,4182.948730,4671.794922,4468.077148,4429.102539,4542.179688,0.000000,4.000000,79.000000,,,,0.000000,4.000000,4.000000,4.000000,4.000000,4.000000,4.000000,4.000000,4.000000,4.000000,4.000000,4.000000,4.000000,4.000000,4.000000,100.000000,,,,,,,,,,,,,,,,,,,,,,,,,,,,
1703161493.494348,1703161493.494749,18.000000,0.000000,4157.948730,4147.051270,4283.077148,4225.897461,4134.487305,4123.717773,4137.948730,4138.333496,4152.820313,4181.922852,4673.589844,4464.743652,4416.410156,4529.230957,0.000000,4.000000,79.000000,,,,0.000000,4.000000,4.000000,4.000000,4.000000,4.000000,4.000000,4.000000,4.000000,4.000000,4.000000,4.000000,4.000000,4.000000,4.000000,100.000000,,,,,,,,,,,,,,,,,,,,,,,,,,,,
1703161493.502156,1703161493.502457,19.000000,0.000000,4146.922852,4132.820313,4273.333496,4213.077148,4131.282227,4122.563965,4135.384766,4139.871582,4150.512695,4182.563965,4680.384766,4453.589844,4421.666504,4518.461426,0.000000,4.000000,79.000000,,,,0.000000,4.000000,4.000000,4.000000,4.000000,4.000000,4.000000,4.000000,4.000000,4.000000,4.000000,4.000000,4.000000,4.000000,4.000000,100.000000,,,,,,,,,,,,,,,,,,,,,,,,,,,,
1703161493.509964,1703161493.510265,20.000000,0.000000,4142.436035,4122.051270,4267.563965,4210.128418,4138.589844,4123.205078,4135.384766,4142.179688,4157.307617,4182.948730,4692.820313,4448.333496,4431.922852,4525.641113,0.000000,4.000000,79.000000,,,,0.000000,4.000000,4.000000,4.000000,4.000000,4.000000,4.000000,4.000000,4.000000,4.000000,4.000000,4.000000,4.000000,4.000000,4.000000,100.000000,,,,,,,,,,,,,,,,,5.000000,0.000000,0.729565,0.177368,-0.628601,0.202820,0.984495,0.062508,0.141131,-17.186476,-32.960178,64.937668
1703161493.517772,1703161493.517973,21.000000,0.000000,4143.589844,4130.256348,4270.769043,4216.794922,4142.692383,4125.128418,4135.769043,4141.666504,4154.230957,4182.692383,4706.153809,4451.025879,4421.025879,4524.487305,0.000000,4.000000,79.000000,,,,0.000000,4.000000,4.000000,4.000000,4.000000,4.000000,4.000000,4.000000,4.000000,4.000000,4.000000,4.000000,4.000000,4.000000,4.000000,100.000000,,,,,,,,,,,,,,,,,,,,,,,,,,,,
1703161493.525580,1703161493.525882,22.000000,0.000000,4154.358887,4141.025879,4278.589844,4220.897461,4134.615234,4121.538574,4136.153809,4138.717773,4140.128418,4182.948730,4720.769043,4456.025879,4415.769043,4527.307617,0.000000,4.000000,79.000000,,,,0.000000,4.000000,4.000000,4.000000,4.000000,4.000000,4.000000,4.000000,4.000000,4.000000,4.000000,4.000000,4.000000,4.000000,4.000000,100.000000,,,,,,,,,,,,,,,,,,,,,,,,,,,,
1703161493.533389,1703161493.533690,23.000000,0.000000,4165.769043,4141.794922,4285.769043,4223.974121,4129.487305,4112.307617,4137.051270,4134.871582,4133.846191,4181.282227,4737.563965,4458.589844,4426.282227,4538.846191,0.000000,4.000000,79.000000,,,,0.000000,4.000000,4.000000,4.000000,4.000000,4.000000,4.000000,4.000000,4.000000,4.000000,4.000000,4.000000,4.000000,4.000000,4.000000,100.000000,,,,,,,,,,,,,,,,,,,,,,,,,,,,
1703161493.541196,1703161493.541598,24.000000,0.000000,4168.717773,4138.846191,4290.128418,4228.846191,4131.410156,4108.461426,4132.307617,4136.538574,4137.692383,4181.410156,4754.102539,4468.205078,4436.153809,4546.666504,0.000000,4.000000,79.000000,,,,0.000000,4.000000,4.000000,4.000000,4.000000,4.000000,4.000000,4.000000,4.000000,4.000000,4.000000,4.000000,4.000000,4.000000,4.000000,100.000000,,,,,,,,,,,,,,,,,6.000000,0.000000,0.729513,0.177429,-0.628723,0.202576,0.992309,0.069833,0.134294,-17.217827,-33.014160,65.027229
1703161493.549004,1703161493.549406,25.000000,0.000000,4168.077148,4137.820313,4294.230957,4228.717773,4135.256348,4110.641113,4124.743652,4139.230957,4139.102539,4183.205078,4770.128418,4477.820313,4443.461426,4556.282227,0.000000,4.000000,79.000000,,,,0.000000,4.000000,4.000000,4.000000,4.000000,4.000000,4.000000,4.000000,4.000000,4.000000,4.000000,4.000000,4.000000,4.000000,4.000000,100.000000,,,,,,,,,,,,,,,,,,,,,,,,,,,,
1703161493.556813,1703161493.557313,26.000000,0.000000,4159.743652,4131.410156,4291.025879,4220.512695,4138.333496,4107.179688,4122.307617,4123.846191,4127.436035,4183.205078,4768.717773,4465.897461,4438.846191,4552.436035,0.000000,4.000000,79.000000,,,,0.000000,4.000000,4.000000,4.000000,4.000000,4.000000,4.000000,4.000000,4.000000,4.000000,4.000000,4.000000,4.000000,4.000000,4.000000,100.000000,,,,,,,,,,,,,,,,,,,,,,,,,,,,
1703161493.564621,1703161493.565121,27.000000,0.000000,4159.102539,4131.794922,4286.666504,4215.769043,4136.410156,4104.743652,4120.256348,4102.692383,4118.461426,4182.563965,4756.538574,4453.974121,4432.436035,4545.128418,0.000000,4.000000,79.000000,,,,0.000000,4.000000,4.000000,4.000000,4.000000,4.000000,4.000000,4.000000,4.000000,4.000000,4.000000,4.000000,4.000000,4.000000,4.000000,100.000000,,,,,,,,,,,,,,,,,,,,,,,,,,,,
1703161493.572429,1703161493.573029,28.000000,0.000000,4170.512695,4138.205078,4291.410156,4220.384766,4137.179688,4113.717773,4119.615234,4109.743652,4128.077148,4186.410156,4761.153809,4467.948730,4446.282227,4562.051270,0.000000,4.000000,79.000000,,,,0.000000,4.000000,4.000000,4.000000,4.000000,4.000000,4.000000,4.000000,4.000000,4.000000,4.000000,4.000000,4.000000,4.000000,4.000000,100.000000,,,,,,,,,,,,,,,,,7.000000,0.000000,0.729844,0.177429,-0.628418,0.202332,0.970822,0.049811,0.132829,-17.196045,-33.096077,65.107841
1703161493.580237,1703161493.580837,29.000000,0.000000,4172.307617,4140.641113,4294.487305,4220.897461,4142.436035,4121.666504,4122.820313,4129.743652,4140.512695,4196.153809,4769.487305,4477.179688,4458.205078,4575.641113,0.000000,4.000000,79.000000,,,,0.000000,4.000000,4.000000,4.000000,4.000000,4.000000,4.000000,4.000000,4.000000,4.000000,4.000000,4.000000,4.000000,4.000000,4.000000,100.000000,,,,,,,,,,,,,,,,,,,,,,,,,,,,
1703161493.588045,1703161493.588745,30.000000,0.000000,4164.487305,4142.436035,4284.743652,4215.769043,4141.282227,4122.051270,4121.794922,4132.436035,4144.358887,4199.230957,4755.641113,4463.974121,4445.128418,4563.461426,0.000000,4.000000,79.000000,,,,0.000000,4.000000,4.000000,4.000000,4.000000,4.000000,4.000000,4.000000,4.000000,4.000000,4.000000,4.000000,4.000000,4.000000,4.000000,100.000000,,,,,,,,,,,,,,,,,,,,,,,,,,,,
1703161493.595853,1703161493.596553,31.000000,0.000000,4164.358887,4142.948730,4276.153809,4215.897461,4140.384766,4122.820313,4121.153809,4133.846191,4152.563965,4203.077148,4744.358887,4459.230957,4445.256348,4561.153809,0.000000,4.000000,79.000000,,,,0.000000,4.000000,4.000000,4.000000,4.000000,4.000000,4.000000,4.000000,4.000000,4.000000,4.000000,4.000000,4.000000,4.000000,4.000000,100.000000,,,,,,,,,,,,,,,,,,,,,,,,,,,,
1703161493.603661,1703161493.604261,32.000000,0.000000,4168.974121,4145.384766,4279.487305,4219.871582,4152.179688,4125.512695,4125.256348,4143.333496,4160.769043,4212.948730,4744.743652,4464.358887,4460.512695,4571.666504,0.000000,4.000000,79.000000,,,,0.000000,4.000000,4.000000,4.000000,4.000000,4.000000,4.000000,4.000000,4.000000,4.000000,4.000000,4.000000,4.000000,4.000000,4.000000,100.000000,,,,,,,,,,,,,,,,,8.000000,0.000000,0.730094,0.177185,-0.628235,0.202209,0.995239,0.039556,0.146991,-17.259773,-33.086468,65.180389
1703161493.611469,1703161493.612069,33.000000,0.000000,4167.820313,4144.743652,4281.025879,4219.230957,4155.384766,4123.461426,4124.615234,4142.051270,4151.538574,4209.358887,4733.589844,4461.153809,4452.436035,4569.487305,0.000000,4.000000,79.000000,,,,0.000000,4.000000,4.000000,4.000000,4.000000,4.000000,4.000000,4.000000,4.000000,4.000000,4.000000,4.000000,4.000000,4.000000,4.000000,100.000000,,,,,,,,,,,,,,,,,,,,,,,,,,,,
1703161493.619277,1703161493.619777,34.000000,0.000000,4166.666504,4140.769043,4279.102539,4216.538574,4144.230957,4118.333496,4119.487305,4137.051270,4143.589844,4199.102539,4722.179688,4459.102539,4440.256348,4567.436035,0.000000,4.000000,79.000000,,,,0.000000,4.000000,4.000000,4.000000,4.000000,4.000000,4.000000,4.000000,4.000000,4.000000,4.000000,4.000000,4.000000,4.000000,4.000000,100.000000,,,,,,,,,,,,,,,,,,,,,,,,,,,,
1703161493.627085,1703161493.627585,35.000000,0.000000,4167.436035,4144.102539,4279.615234,4220.897461,4143.205078,4113.717773,4118.974121,4138.333496,4141.025879,4196.666504,4720.384766,4459.615234,4443.589844,4571.153809,0.000000,4.000000,79.000000,,,,0.000000,4.000000,4.000000,4.000000,4.000000,4.000000,4.000000,4.000000,4.000000,4.000000,4.000000,4.000000,4.000000,4.000000,4.000000,100.000000,,,,,,,,,,,,,,,,,,,,,,,,,,,,
1703161493.634893,1703161493.635293,36.000000,0.000000,4169.615234,4151.153809,4286.282227,4228.333496,4145.641113,4108.589844,4121.794922,4132.436035,4126.794922,4187.948730,4714.871582,4460.256348,4444.743652,4574.102539,0.000000,4.000000,79.000000,,,,0.000000,4.000000,4.000000,4.000000,4.000000,4.000000,4.000000,4.000000,4.000000,4.000000,4.000000,4.000000,4.000000,4.000000,4.000000,100.000000,,,,,,,,,,,,,,,,,9.000000,0.000000,0.730097,0.176941,-0.628418,0.201843,1.003541,0.064461,0.138689,-17.150463,-32.961155,65.279022
1703161493.642701,1703161493.643101,37.000000,0.000000,4172.436035,4147.179688,4291.922852,4230.641113,4141.153809,4107.436035,4119.102539,4121.282227,4114.230957,4168.589844,4698.846191,4462.179688,4432.563965,4574.871582,0.000000,4.000000,79.000000,,,,0.000000,4.000000,4.000000,4.000000,4.000000,4.000000,4.000000,4.000000,4.000000,4.000000,4.000000,4.000000,4.000000,4.000000,4.000000,100.000000,,,,,,,,,,,,,,,,,,,,,,,,,,,,
1703161493.650509,1703161493.650809,38.000000,0.000000,4173.077148,4145.512695,4287.307617,4228.846191,4137.436035,4104.487305,4108.974121,4117.948730,4115.256348,4162.948730,4687.307617,4459.230957,4423.333496,4570.641113,0.000000,4.000000,79.000000,,,,0.000000,4.000000,4.000000,4.000000,4.000000,4.000000,4.000000,4.000000,4.000000,4.000000,4.000000,4.000000,4.000000,4.000000,4.000000,100.000000,,,,,,,,,,,,,,,,,,,,,,,,,,,,
1703161493.658317,1703161493.658717,39.000000,0.000000,4172.820313,4155.000000,4281.025879,4224.487305,4135.000000,4099.487305,4105.128418,4119.615234,4120.641113,4170.897461,4692.307617,4455.897461,4425.769043,4571.282227,0.000000,4.000000,79.000000,,,,0.000000,4.000000,4.000000,4.000000,4.000000,4.000000,4.000000,4.000000,4.000000,4.000000,4.000000,4.000000,4.000000,4.000000,4.000000,100.000000,,,,,,,,,,,,,,,,,,,,,,,,,,,,
1703161493.666125,1703161493.666526,40.000000,0.000000,4173.717773,4152.692383,4285.256348,4218.077148,4137.563965,4103.077148,4110.256348,4118.205078,4120.000000,4167.692383,4692.563965,4459.487305,4429.358887,4578.846191,0.000000,4.000000,79.000000,,,,0.000000,4.000000,4.000000,4.000000,4.000000,4.000000,4.000000,4.000000,4.000000,4.000000,4.000000,4.000000,4.000000,4.000000,4.000000,100.000000,,,,,,,,,,,,,,,,,10.000000,0.000000,0.730064,0.177002,-0.628479,0.201721,0.971798,0.059578,0.137224,-17.202084,-32.981709,65.301117
1703161493.673933,1703161493.674434,41.000000,0.000000,4172.820313,4140.384766,4290.512695,4215.000000,4143.717773,4107.563965,4109.487305,4115.769043,4117.051270,4156.666504,4678.205078,4460.897461,4426.153809,4577.820313,0.000000,4.000000,79.000000,,,,0.000000,4.000000,4.000000,4.000000,4.000000,4.000000,4.000000,4.000000,4.000000,4.000000,4.000000,4.000000,4.000000,4.000000,4.000000,100.000000,,,,,,,,,,,,,,,,,,,,,,,,,,,,
1703161493.681741,1703161493.682242,42.000000,0.000000,4170.897461,4135.000000,4286.410156,4214.102539,4141.153809,4108.974121,4105.256348,4122.179688,4123.974121,4160.256348,4674.102539,4457.820313,4426.794922,4570.897461,0.000000,4.000000,79.000000,,,,0.000000,4.000000,4.000000,4.000000,4.000000,4.000000,4.000000,4.000000,4.000000,4.000000,4.000000,4.000000,4.000000,4.000000,4.000000,100.000000,,,,,,,,,,,,,,,,,,,,,,,,,,,,
1703161493.689549,1703161493.690050,43.000000,0.000000,4172.436035,4144.743652,4280.000000,4212.948730,4136.410156,4118.077148,4109.615234,4135.641113,4137.051270,4172.692383,4682.307617,4456.666504,4426.282227,4570.256348,0.000000,4.000000,79.000000,,,,0.000000,4.000000,4.000000,4.000000,4.000000,4.000000,4.000000,4.000000,4.000000,4.000000,4.000000,4.000000,4.000000,4.000000,4.000000,100.000000,,,,,,,,,,,,,,,,,,,,,,,,,,,,
1703161493.697358,1703161493.697758,44.000000,0.000000,4171.666504,4157.051270,4275.641113,4214.615234,4141.153809,4128.205078,4114.743652,4141.666504,4140.897461,4172.436035,4674.871582,4455.641113,4414.230957,4568.461426,0.000000,4.000000,79.000000,,,,0.000000,4.000000,4.000000,4.000000,4.000000,4.000000,4.000000,4.000000,4.000000,4.000000,4.000000,4.000000,4.000000,4.000000,4.000000,100.000000,,,,,,,,,,,,,,,,,11.000000,0.000000,0.730122,0.177124,-0.628357,0.201782,0.967892,0.072763,0.139665,-17.331875,-32.916870,65.321007
1703161493.705166,1703161493.705566,45.000000,0.000000,4171.794922,4152.820313,4276.922852,4214.230957,4151.538574,4127.179688,4114.230957,4141.025879,4138.846191,4174.230957,4665.641113,4457.820313,4416.153809,4567.436035,0.000000,4.000000,79.000000,,,,0.000000,4.000000,4.000000,4.000000,4.000000,4.000000,4.000000,4.000000,4.000000,4.000000,4.000000,4.000000,4.000000,4.000000,4.000000,100.000000,,,,,,,,,,,,,,,,,,,,,,,,,,,,
1703161493.712973,1703161493.713274,46.000000,0.000000,4179.487305,4148.589844,4281.538574,4212.051270,4152.051270,4123.077148,4111.538574,4142.051270,4142.307617,4181.922852,4671.025879,4462.692383,4429.743652,4571.410156,0.000000,4.000000,79.000000,,,,0.000000,4.000000,4.000000,4.000000,4.000000,4.000000,4.000000,4.000000,4.000000,4.000000,4.000000,4.000000,4.000000,4.000000,4.000000,100.000000,,,,,,,,,,,,,,,,,,,,,,,,,,,,
1703161493.720782,1703161493.721182,47.000000,0.000000,4184.230957,4153.589844,4282.820313,4214.102539,4134.487305,4119.358887,4109.743652,4142.948730,4140.512695,4178.717773,4679.743652,4463.077148,4428.717773,4572.948730,0.000000,4.000000,79.000000,,,,0.000000,4.000000,4.000000,4.000000,4.000000,4.000000,4.000000,4.000000,4.000000,4.000000,4.000000,4.000000,4.000000,4.000000,4.000000,100.000000,,,,,,,,,,,,,,,,,,,,,,,,,,,,
1703161493.728590,1703161493.728990,48.000000,0.000000,4187.692383,4158.717773,4287.436035,4218.205078,4126.025879,4112.692383,4114.743652,4149.743652,4140.512695,4178.589844,4688.333496,4469.230957,4430.000000,4579.615234,0.000000,4.000000,79.000000,,,,0.000000,4.000000,4.000000,4.000000,4.000000,4.000000,4.000000,4.000000,4.000000,4.000000,4.000000,4.000000,4.000000,4.000000,4.000000,100.000000,,,,,,,,,,,,,,,,,12.000000,0.000000,0.730089,0.177124,-0.628357,0.201904,0.980588,0.047369,0.139665,-17.248688,-32.891850,65.205574
1703161493.736398,1703161493.736898,49.000000,0.000000,4198.333496,4163.077148,4293.846191,4220.256348,4143.205078,4108.461426,4116.794922,4151.538574,4140.641113,4186.794922,4688.077148,4477.692383,4435.769043,4590.641113,0.000000,4.000000,79.000000,,,,0.000000,4.000000,4.000000,4.000000,4.000000,4.000000,4.000000,4.000000,4.000000,4.000000,4.000000,4.000000,4.000000,4.000000,4.000000,100.000000,,,,,,,,,,,,,,,,,,,,,,,,,,,,
1703161493.744206,1703161493.744706,50.000000,0.000000,4201.922852,4165.897461,4294.487305,4221.922852,4146.794922,4103.974121,4108.461426,4135.256348,4125.897461,4183.846191,4681.282227,4472.948730,4433.077148,4589.102539,0.000000,4.000000,79.000000,,,,0.000000,4.000000,4.000000,4.000000,4.000000,4.000000,4.000000,4.000000,4.000000,4.000000,4.000000,4.000000,4.000000,4.000000,4.000000,100.000000,,,,,,,,,,,,,,,,,,,,,,,,,,,,
1703161493.752014,1703161493.752614,51.000000,0.000000,4201.922852,4166.538574,4295.897461,4229.487305,4128.333496,4097.820313,4107.820313,4130.128418,4118.846191,4176.153809,4685.769043,4473.717773,4439.743652,4585.000000,0.000000,4.000000,79.000000,,,,0.000000,4.000000,4.000000,4.000000,4.000000,4.000000,4.000000,4.000000,4.000000,4.000000,4.000000,4.000000,4.000000,4.000000,4.000000,100.000000,,,,,,,,,,,,,,,,,,,,,,,,,,,,
1703161493.759822,1703161493.760422,52.000000,0.000000,4207.692383,4165.000000,4303.077148,4236.666504,4129.230957,4095.256348,4113.077148,4137.692383,4120.769043,4175.641113,4688.205078,4481.922852,4447.051270,4590.000000,0.000000,4.000000,79.000000,,,,0.000000,4.000000,4.000000,4.000000,4.000000,4.000000,4.000000,4.000000,4.000000,4.000000,4.000000,4.000000,4.000000,4.000000,4.000000,100.000000,,,,,,,,,,,,,,,,,13.000000,0.000000,0.730192,0.177124,-0.628296,0.201721,0.966915,0.060066,0.137224,-17.173819,-32.952663,65.185013
1703161493.767630,1703161493.768330,53.000000,0.000000,4197.820313,4154.358887,4298.717773,4228.333496,4131.282227,4095.384521,4109.358887,4126.538574,4106.410156,4166.153809,4668.589844,4469.102539,4425.641113,4582.820313,0.000000,4.000000,79.000000,,,,0.000000,4.000000,4.000000,4.000000,4.000000,4.000000,4.000000,4.000000,4.000000,4.000000,4.000000,4.000000,4.000000,4.000000,4.000000,100.000000,,,,,,,,,,,,,,,,,,,,,,,,,,,,
1703161493.775438,1703161493.776138,54.000000,0.000000,4187.692383,4149.487305,4285.769043,4217.692383,4121.794922,4100.512695,4112.948730,4118.589844,4100.641113,4156.794922,4659.230957,4454.230957,4407.051270,4568.205078,0.000000,4.000000,79.000000,,,,0.000000,4.000000,4.000000,4.000000,4.000000,4.000000,4.000000,4.000000,4.000000,4.000000,4.000000,4.000000,4.000000,4.000000,4.000000,100.000000,,,,,,,,,,,,,,,,,,,,,,,,,,,,
1703161493.783246,1703161493.783846,55.000000,0.000000,4194.102539,4157.179688,4280.641113,4219.615234,4130.384766,4112.948730,4123.974121,4138.205078,4125.897461,4163.846191,4670.128418,4459.102539,4415.256348,4568.205078,0.000000,4.000000,79.000000,,,,0.000000,4.000000,4.000000,4.000000,4.000000,4.000000,4.000000,4.000000,4.000000,4.000000,4.000000,4.000000,4.000000,4.000000,4.000000,100.000000,,,,,,,,,,,,,,,,,,,,,,,,,,,,
1703161493.791054,1703161493.791754,56.000000,0.000000,4191.153809,4151.794922,4277.948730,4221.025879,4138.333496,4120.000000,4121.282227,4154.358887,4146.410156,4172.179688,4664.871582,4456.922852,4418.589844,4566.794922,0.000000,4.000000,79.000000,,,,0.000000,4.000000,4.000000,4.000000,4.000000,4.000000,4.000000,4.000000,4.000000,4.000000,4.000000,4.000000,4.000000,4.000000,4.000000,100.000000,,,,,,,,,,,,,,,,,14.000000,0.000000,0.730371,0.176880,-0.628235,0.201477,0.987914,0.058601,0.126969,-17.239771,-32.874065,65.116516
1703161493.798862,1703161493.799562,57.000000,0.000000,4180.384766,4141.282227,4275.384766,4216.666504,4131.282227,4119.743652,4115.512695,4150.897461,4145.000000,4171.922852,4652.179688,4445.897461,4412.307617,4555.641113,0.000000,4.000000,79.000000,,,,0.000000,4.000000,4.000000,4.000000,4.000000,4.000000,4.000000,4.000000,4.000000,4.000000,4.000000,4.000000,4.000000,4.000000,4.000000,100.000000,1.000000,91.666664,4.000000,4.000000,4.000000,4.000000,4.000000,4.000000,4.000000,4.000000,4.000000,3.000000,4.000000,4.000000,4.000000,4.000000,,,,,,,,,,,,
1703161493.806670,1703161493.807370,58.000000,0.000000,4179.487305,4142.948730,4273.205078,4215.256348,4133.717773,4120.769043,4117.179688,4142.179688,4140.769043,4170.000000,4650.897461,4444.743652,4406.410156,4547.051270,0.000000,4.000000,79.000000,,,,0.000000,4.000000,4.000000,4.000000,4.000000,4.000000,4.000000,4.000000,4.000000,4.000000,4.000000,4.000000,4.000000,4.000000,4.000000,100.000000,,,,,,,,,,,,,,,,,,,,,,,,,,,,
1703161493.814478,1703161493.815078,59.000000,0.000000,4182.436035,4143.077148,4273.846191,4215.769043,4141.282227,4118.205078,4116.410156,4143.461426,4138.589844,4164.871582,4654.615234,4448.461426,4403.205078,4547.307617,0.000000,4.000000,79.000000,,,,0.000000,4.000000,4.000000,4.000000,4.000000,4.000000,4.000000,4.000000,4.000000,4.000000,4.000000,4.000000,4.000000,4.000000,4.000000,100.000000,,,,,,,,,,,,,,,,,,,,,,,,,,,,
1703161493.822286,1703161493.822886,60.000000,0.000000,4184.102539,4138.333496,4279.230957,4215.000000,4130.256348,4111.153809,4111.922852,4153.077148,4140.769043,4160.256348,4660.128418,4455.000000,4410.512695,4552.692383,0.000000,4.000000,79.000000,,,,0.000000,4.000000,4.000000,4.000000,4.000000,4.000000,4.000000,4.000000,4.000000,4.000000,4.000000,4.000000,4.000000,4.000000,4.000000,100.000000,,,,,,,,,,,,,,,,,15.000000,0.000000,0.730612,0.176880,-0.628052,0.201172,0.965450,0.064949,0.126480,-17.132460,-32.886658,65.221527
1703161493.830094,1703161493.830594,61.000000,0.000000,4186.410156,4137.563965,4281.922852,4215.769043,4119.615234,4106.282227,4110.512695,4151.282227,4137.307617,4157.436035,4661.922852,4464.102539,4414.102539,4556.410156,0.000000,4.000000,79.000000,,,,0.000000,4.000000,4.000000,4.000000,4.000000,4.000000,4.000000,4.000000,4.000000,4.000000,4.000000,4.000000,4.000000,4.000000,4.000000,100.000000,,,,,,,,,,,,,,,,,,,,,,,,,,,,
1703161493.837902,1703161493.838402,62.000000,0.000000,4184.358887,4136.666504,4278.717773,4214.743652,4119.102539,4100.256348,4105.641113,4132.307617,4117.948730,4146.794922,4647.820313,4455.000000,4403.846191,4551.025879,0.000000,4.000000,79.000000,,,,0.000000,4.000000,4.000000,4.000000,4.000000,4.000000,4.000000,4.000000,4.000000,4.000000,4.000000,4.000000,4.000000,4.000000,4.000000,100.000000,,,,,,,,,,,,,,,,,,,,,,,,,,,,
1703161493.845710,1703161493.846110,63.000000,0.000000,4184.743652,4138.461426,4279.615234,4217.051270,4124.358887,4094.102539,4099.871582,4121.666504,4109.743652,4144.102539,4639.871582,4446.794922,4403.717773,4549.102539,0.000000,4.000000,79.000000,,,,0.000000,4.000000,4.000000,4.000000,4.000000,4.000000,4.000000,4.000000,4.000000,4.000000,4.000000,4.000000,4.000000,4.000000,4.000000,100.000000,,,,,,,,,,,,,,,,,,,,,,,,,,,,
1703161493.853518,1703161493.853918,64.000000,0.000000,4189.487305,4142.436035,4282.179688,4220.769043,4135.769043,4093.589844,4098.333496,4126.025879,4118.077148,4151.922852,4652.692383,4456.153809,4415.128418,4555.897461,5255.000000,4.000000,79.000000,,,,0.000000,4.000000,4.000000,4.000000,4.000000,4.000000,4.000000,4.000000,4.000000,4.000000,4.000000,4.000000,4.000000,4.000000,4.000000,100.000000,,,,,,,,,,,,,,,,,16.000000,0.000000,0.730908,0.176880,-0.627747,0.201050,0.989379,0.059089,0.142596,-17.219213,-32.831326,65.082710
1703161493.861327,1703161493.861626,65.000000,0.000000,4193.461426,4141.153809,4279.230957,4217.948730,4131.410156,4091.025635,4098.333496,4124.871582,4110.512695,4143.717773,4654.871582,4455.384766,4412.436035,4552.820313,5347.000000,4.000000,79.000000,,,,0.000000,4.000000,4.000000,4.000000,4.000000,4.000000,4.000000,4.000000,4.000000,4.000000,4.000000,4.000000,4.000000,4.000000,4.000000,100.000000,,,,,,,,,,,,,,,,,,,,,,,,,,,,
1703161493.869135,1703161493.869434,66.000000,0.000000,4198.205078,4143.077148,4285.384766,4223.717773,4120.128418,4089.102539,4103.461426,4119.487305,4092.051270,4133.846191,4645.384766,4450.769043,4407.307617,4549.358887,5265.000000,4.000000,79.000000,,,,0.000000,4.000000,4.000000,4.000000,4.000000,4.000000,4.000000,4.000000,4.000000,4.000000,4.000000,4.000000,4.000000,4.000000,4.000000,100.000000,,,,,,,,,,,,,,,,,,,,,,,,,,,,
1703161493.876943,1703161493.877142,67.000000,0.000000,4194.871582,4146.538574,4292.051270,4231.410156,4129.743652,4099.358887,4113.846191,4123.717773,4092.948730,4140.000000,4645.641113,4457.436035,4413.333496,4550.769043,5248.000000,4.000000,79.000000,,,,0.000000,4.000000,4.000000,4.000000,4.000000,4.000000,4.000000,4.000000,4.000000,4.000000,4.000000,4.000000,4.000000,4.000000,4.000000,100.000000,,,,,,,,,,,,,,,,,,,,,,,,,,,,
1703161493.884751,1703161493.884950,68.000000,0.000000,4185.128418,4140.384766,4284.871582,4221.794922,4139.615234,4111.282227,4122.436035,4133.846191,4110.769043,4146.025879,4645.769043,4453.974121,4411.153809,4541.922852,5090.000000,4.000000,79.000000,,,,0.000000,4.000000,4.000000,4.000000,4.000000,4.000000,4.000000,4.000000,4.000000,4.000000,4.000000,4.000000,4.000000,4.000000,4.000000,100.000000,,,,,,,,,,,,,,,,,17.000000,0.000000,0.730994,0.176880,-0.627686,0.200928,0.982542,0.059578,0.145526,-17.213959,-32.864861,65.124435
1703161493.892559,1703161493.892659,69.000000,0.000000,4181.666504,4134.615234,4273.846191,4213.333496,4131.153809,4116.794922,4124.743652,4144.615234,4129.743652,4147.051270,4640.128418,4443.846191,4403.974121,4534.743652,5153.000000,4.000000,79.000000,,,,0.000000,4.000000,4.000000,4.000000,4.000000,4.000000,4.000000,4.000000,4.000000,4.000000,4.000000,4.000000,4.000000,4.000000,4.000000,100.000000,,,,,,,,,,,,,,,,,,,,,,,,,,,,
1703161493.900367,1703161493.900567,70.000000,0.000000,4182.436035,4135.769043,4269.102539,4218.333496,4129.615234,4121.282227,4117.692383,4153.333496,4144.358887,4152.051270,4641.025879,4444.102539,4405.641113,4536.666504,5050.000000,4.000000,79.000000,,,,0.000000,4.000000,4.000000,4.000000,4.000000,4.000000,4.000000,4.000000,4.000000,4.000000,4.000000,4.000000,4.000000,4.000000,4.000000,100.000000,,,,,,,,,,,,,,,,,,,,,,,,,,,,
1703161493.908175,1703161493.908375,71.000000,0.000000,4181.410156,4137.179688,4266.922852,4219.487305,4137.307617,4124.743652,4111.922852,4155.641113,4152.179688,4160.769043,4652.436035,4446.410156,4412.179688,4537.051270,5257.000000,4.000000,79.000000,,,,0.000000,4.000000,4.000000,4.000000,4.000000,4.000000,4.000000,4.000000,4.000000,4.000000,4.000000,4.000000,4.000000,4.000000,4.000000,100.000000,,,,,,,,,,,,,,,,,,,,,,,,,,,,
1703161493.915983,1703161493.916183,72.000000,0.000000,4182.948730,4141.025879,4265.128418,4216.922852,4141.153809,4123.589844,4116.282227,4155.000000,4159.743652,4170.256348,4661.794922,4449.487305,4418.077148,4537.436035,5028.000000,4.000000,79.000000,,,,0.000000,4.000000,4.000000,4.000000,4.000000,4.000000,4.000000,4.000000,4.000000,4.000000,4.000000,4.000000,4.000000,4.000000,4.000000,100.000000,,,,,,,,,,,,,,,,,18.000000,0.000000,0.731143,0.176758,-0.627625,0.200684,0.995239,0.062019,0.142596,-17.209230,-32.778374,65.161995
1703161493.923791,1703161493.923891,73.000000,0.000000,4184.871582,4142.179688,4265.384766,4216.922852,4143.846191,4116.794922,4118.974121,4157.563965,4159.743652,4170.256348,4660.512695,4453.589844,4421.153809,4541.282227,5252.000000,4.000000,79.000000,,,,0.000000,4.000000,4.000000,4.000000,4.000000,4.000000,4.000000,4.000000,4.000000,4.000000,4.000000,4.000000,4.000000,4.000000,4.000000,100.000000,,,,,,,,,,,,,,,,,,,,,,,,,,,,
1703161493.931599,1703161493.931799,74.000000,0.000000,4184.743652,4139.230957,4265.000000,4214.230957,4135.769043,4105.000000,4110.384766,4155.256348,4145.128418,4157.051270,4651.282227,4447.563965,4417.051270,4540.769043,5796.000000,4.000000,79.000000,,,,0.000000,4.000000,4.000000,4.000000,4.000000,4.000000,4.000000,4.000000,4.000000,4.000000,4.000000,4.000000,4.000000,4.000000,4.000000,100.000000,,,,,,,,,,,,,,,,,,,,,,,,,,,,
1703161493.939407,1703161493.939607,75.000000,0.000000,4186.794922,4148.333496,4263.205078,4215.512695,4128.333496,4098.717773,4102.948730,4148.717773,4135.512695,4147.436035,4642.692383,4441.922852,4403.589844,4535.769043,6133.000000,4.000000,79.000000,,,,0.000000,4.000000,4.000000,4.000000,4.000000,4.000000,4.000000,4.000000,4.000000,4.000000,4.000000,4.000000,4.000000,4.000000,4.000000,100.000000,,,,,,,,,,,,,,,,,,,,,,,,,,,,
1703161493.947215,1703161493.947515,76.000000,0.000000,4185.512695,4151.794922,4265.384766,4218.205078,4134.358887,4100.641113,4102.563965,4149.871582,4138.974121,4144.358887,4640.000000,4444.615234,4399.615234,4533.461426,6573.000000,4.000000,79.000000,,,,0.000000,4.000000,4.000000,4.000000,4.000000,4.000000,4.000000,4.000000,4.000000,4.000000,4.000000,4.000000,4.000000,4.000000,4.000000,100.000000,,,,,,,,,,,,,,,,,19.000000,0.000000,0.731200,0.176453,-0.627625,0.200745,0.985960,0.056159,0.153827,-17.354973,-32.800537,65.229126
1703161493.955023,1703161493.955323,77.000000,0.000000,4185.128418,4142.692383,4271.410156,4216.794922,4134.871582,4098.846191,4102.563965,4150.897461,4139.358887,4141.282227,4643.333496,4446.922852,4412.948730,4538.205078,6773.000000,4.000000,79.000000,,,,0.000000,4.000000,4.000000,4.000000,4.000000,4.000000,4.000000,4.000000,4.000000,4.000000,4.000000,4.000000,4.000000,4.000000,4.000000,100.000000,,,,,,,,,,,,,,,,,,,,,,,,,,,,
1703161493.962831,1703161493.963231,78.000000,0.000000,4190.512695,4148.589844,4272.307617,4217.179688,4127.563965,4096.794922,4103.077148,4145.897461,4131.025879,4139.230957,4644.871582,4446.538574,4415.128418,4539.871582,5796.000000,4.000000,79.000000,,,,0.000000,4.000000,4.000000,4.000000,4.000000,4.000000,4.000000,4.000000,4.000000,4.000000,4.000000,4.000000,4.000000,4.000000,4.000000,100.000000,,,,,,,,,,,,,,,,,,,,,,,,,,,,
1703161493.970639,1703161493.971039,79.000000,0.000000,4190.128418,4153.717773,4267.307617,4216.153809,4125.256348,4100.384766,4104.615234,4139.230957,4123.077148,4130.769043,4633.461426,4442.307617,4395.000000,4527.051270,6133.000000,4.000000,79.000000,,,,0.000000,4.000000,4.000000,4.000000,4.000000,4.000000,4.000000,4.000000,4.000000,4.000000,4.000000,4.000000,4.000000,4.000000,4.000000,100.000000,,,,,,,,,,,,,,,,,,,,,,,,,,,,
1703161493.978447,1703161493.978946,80.000000,0.000000,4182.307617,4139.487305,4266.538574,4212.948730,4124.615234,4102.692383,4106.025879,4137.436035,4116.666504,4118.205078,4621.794922,4440.384766,4385.769043,4517.692383,6573.000000,4.000000,79.000000,,,,0.000000,4.000000,4.000000,4.000000,4.000000,4.000000,4.000000,4.000000,4.000000,4.000000,4.000000,4.000000,4.000000,4.000000,4.000000,100.000000,,,,,,,,,,,,,,,,,20.000000,0.000000,0.731257,0.176147,-0.627625,0.200806,0.979123,0.059578,0.144061,-17.319477,-32.787148,65.406212
1703161493.986255,1703161493.986754,81.000000,0.000000,4184.487305,4139.615234,4267.692383,4215.000000,4129.487305,4109.358887,4112.436035,4144.615234,4116.922852,4116.666504,4625.641113,4443.717773,4394.615234,4523.077148,6773.000000,4.000000,79.000000,,,,0.000000,4.000000,4.000000,4.000000,4.000000,4.000000,4.000000,4.000000,4.000000,4.000000,4.000000,4.000000,4.000000,4.000000,4.000000,100.000000,,,,,,,,,,,,,,,,,,,,,,,,,,,,
1703161493.994063,1703161493.994463,82.000000,0.000000,4188.077148,4148.589844,4264.102539,4214.871582,4139.102539,4123.077148,4121.025879,4152.179688,4126.025879,4122.436035,4627.948730,4438.077148,4389.615234,4522.307617,5796.000000,4.000000,79.000000,,,,0.000000,4.000000,4.000000,4.000000,4.000000,4.000000,4.000000,4.000000,4.000000,4.000000,4.000000,4.000000,4.000000,4.000000,4.000000,100.000000,,,,,,,,,,,,,,,,,,,,,,,,,,,,
1703161494.001871,1703161494.002271,83.000000,0.000000,4184.102539,4148.589844,4265.384766,4220.897461,4143.461426,4127.436035,4120.641113,4154.230957,4133.205078,4122.436035,4624.615234,4434.487305,4382.436035,4518.077148,6133.000000,4.000000,79.000000,,,,0.000000,4.000000,4.000000,4.000000,4.000000,4.000000,4.000000,4.000000,4.000000,4.000000,4.000000,4.000000,4.000000,4.000000,4.000000,100.000000,,,,,,,,,,,,,,,,,,,,,,,,,,,,
1703161494.009679,1703161494.009979,84.000000,0.000000,4185.641113,4154.487305,4272.820313,4230.641113,4145.384766,4125.256348,4112.436035,4155.000000,4143.333496,4125.897461,4630.128418,4442.948730,4390.769043,4519.743652,6573.000000,4.000000,79.000000,,,,0.000000,4.000000,4.000000,4.000000,4.000000,4.000000,4.000000,4.000000,4.000000,4.000000,4.000000,4.000000,4.000000,4.000000,4.000000,100.000000,,,,,,,,,,,,,,,,,21.000000,0.000000,0.731303,0.176025,-0.627625,0.200745,0.990844,0.057136,0.143572,-17.354195,-32.925102,65.298927
1703161494.017487,1703161494.017787,85.000000,0.000000,4188.461426,4148.589844,4271.794922,4222.692383,4145.128418,4124.230957,4109.358887,4157.563965,4153.205078,4138.333496,4636.025879,4447.820313,4399.871582,4520.384766,6773.000000,4.000000,79.000000,,,,0.000000,4.000000,4.000000,4.000000,4.000000,4.000000,4.000000,4.000000,4.000000,4.000000,4.000000,4.000000,4.000000,4.000000,4.000000,100.000000,,,,,,,,,,,,,,,,,,,,,,,,,,,,
1703161494.025296,1703161494.025495,86.000000,0.000000,4184.358887,4133.717773,4263.846191,4211.410156,4137.179688,4115.384766,4109.358887,4155.897461,4148.461426,4140.769043,4631.282227,4443.846191,4400.128418,4521.922852,5796.000000,4.000000,79.000000,,,,0.000000,4.000000,4.000000,4.000000,4.000000,4.000000,4.000000,4.000000,4.000000,4.000000,4.000000,4.000000,4.000000,4.000000,4.000000,100.000000,,,,,,,,,,,,,,,,,,,,,,,,,,,,
1703161494.033104,1703161494.033303,87.000000,0.000000,4185.641113,4142.820313,4267.436035,4217.179688,4129.871582,4107.051270,4103.589844,4150.769043,4137.563965,4129.230957,4631.410156,4441.153809,4397.563965,4522.692383,6133.000000,4.000000,79.000000,,,,0.000000,4.000000,4.000000,4.000000,4.000000,4.000000,4.000000,4.000000,4.000000,4.000000,4.000000,4.000000,4.000000,4.000000,4.000000,100.000000,,,,,,,,,,,,,,,,,,,,,,,,,,,,
1703161494.040912,1703161494.041011,88.000000,0.000000,4195.256348,4153.974121,4279.743652,4225.769043,4130.641113,4107.820313,4102.563965,4149.358887,4137.051270,4128.589844,4641.794922,4443.589844,4404.615234,4522.948730,6573.000000,4.000000,79.000000,,,,0.000000,4.000000,4.000000,4.000000,4.000000,4.000000,4.000000,4.000000,4.000000,4.000000,4.000000,4.000000,4.000000,4.000000,4.000000,100.000000,,,,,,,,,,,,,,,,,22.000000,0.000000,0.731274,0.175781,-0.627747,0.200684,0.980588,0.059578,0.132340,-17.402109,-32.732590,65.219032
1703161494.048720,1703161494.048819,89.000000,0.000000,4202.307617,4152.307617,4284.615234,4232.051270,4138.461426,4108.974121,4108.205078,4150.000000,4137.179688,4139.230957,4646.025879,4448.974121,4414.615234,4530.128418,6773.000000,4.000000,79.000000,,,,0.000000,4.000000,4.000000,4.000000,4.000000,4.000000,4.000000,4.000000,4.000000,4.000000,4.000000,4.000000,4.000000,4.000000,4.000000,100.000000,,,,,,,,,,,,,,,,,,,,,,,,,,,,
1703161494.056528,1703161494.056527,90.000000,0.000000,4203.333496,4158.974121,4284.358887,4238.589844,4143.205078,4106.666504,4108.589844,4154.487305,4130.128418,4135.897461,4647.179688,4454.487305,4412.692383,4536.153809,5796.000000,4.000000,79.000000,,,,0.000000,4.000000,4.000000,4.000000,4.000000,4.000000,4.000000,4.000000,4.000000,4.000000,4.000000,4.000000,4.000000,4.000000,4.000000,100.000000,,,,,,,,,,,,,,,,,,,,,,,,,,,,
1703161494.064336,1703161494.064335,91.000000,0.000000,4199.487305,4157.436035,4281.538574,4234.230957,4136.666504,4107.948730,4105.000000,4153.846191,4125.897461,4125.512695,4644.358887,4449.102539,4402.948730,4527.692383,6133.000000,4.000000,79.000000,,,,0.000000,4.000000,4.000000,4.000000,4.000000,4.000000,4.000000,4.000000,4.000000,4.000000,4.000000,4.000000,4.000000,4.000000,4.000000,100.000000,,,,,,,,,,,,,,,,,,,,,,,,,,,,
1703161494.072144,1703161494.072043,92.000000,0.000000,4192.051270,4146.794922,4274.743652,4227.820313,4133.077148,4109.871582,4101.410156,4144.487305,4119.743652,4119.487305,4629.487305,4434.743652,4391.794922,4511.922852,6573.000000,4.000000,79.000000,,,,0.000000,4.000000,4.000000,4.000000,4.000000,4.000000,4.000000,4.000000,4.000000,4.000000,4.000000,4.000000,4.000000,4.000000,4.000000,100.000000,,,,,,,,,,,,,,,,,23.000000,0.000000,0.731282,0.175598,-0.627808,0.200623,0.989379,0.056648,0.138689,-17.428564,-32.692665,65.330467
1703161494.079952,1703161494.079851,93.000000,0.000000,4188.717773,4149.871582,4268.077148,4228.846191,4135.897461,4112.948730,4104.871582,4141.025879,4113.589844,4112.563965,4612.179688,4428.717773,4383.333496,4503.589844,6773.000000,4.000000,79.000000,,,,0.000000,4.000000,4.000000,4.000000,4.000000,4.000000,4.000000,4.000000,4.000000,4.000000,4.000000,4.000000,4.000000,4.000000,4.000000,100.000000,,,,,,,,,,,,,,,,,,,,,,,,,,,,
1703161494.087760,1703161494.087559,94.000000,0.000000,4189.487305,4154.358887,4263.974121,4228.461426,4138.077148,4117.948730,4091.923096,4150.256348,4120.128418,4112.179688,4616.922852,4435.897461,4388.846191,4508.333496,5796.000000,4.000000,79.000000,,,,0.000000,4.000000,4.000000,4.000000,4.000000,4.000000,4.000000,4.000000,4.000000,4.000000,4.000000,4.000000,4.000000,4.000000,4.000000,100.000000,,,,,,,,,,,,,,,,,,,,,,,,,,,,
1703161494.095568,1703161494.095467,95.000000,0.000000,4189.102539,4151.153809,4264.743652,4228.205078,4140.128418,4120.000000,4081.410156,4162.436035,4135.897461,4128.974121,4638.589844,4443.333496,4398.974121,4519.230957,6133.000000,4.000000,79.000000,,,,0.000000,4.000000,4.000000,4.000000,4.000000,4.000000,4.000000,4.000000,4.000000,4.000000,4.000000,4.000000,4.000000,4.000000,4.000000,100.000000,,,,,,,,,,,,,,,,,,,,,,,,,,,,
1703161494.103376,1703161494.103275,96.000000,0.000000,4188.077148,4150.769043,4267.820313,4231.666504,4139.615234,4121.922852,4198.846191,4171.025879,4150.384766,4142.948730,4649.358887,4444.230957,4402.436035,4520.128418,6573.000000,4.000000,79.000000,,,,0.000000,4.000000,4.000000,4.000000,4.000000,4.000000,4.000000,4.000000,4.000000,4.000000,4.000000,4.000000,4.000000,4.000000,4.000000,100.000000,,,,,,,,,,,,,,,,,24.000000,0.000000,0.731349,0.175537,-0.627747,0.200623,0.980100,0.050787,0.137224,-17.652374,-32.806732,65.297417
1703161494.111184,1703161494.111183,97.000000,0.000000,4187.179688,4150.384766,4265.769043,4227.820313,4139.358887,4120.000000,4451.794922,4176.025879,4157.436035,4142.307617,4643.974121,4443.717773,4407.051270,4512.820313,6773.000000,4.000000,79.000000,,,,0.000000,4.000000,4.000000,4.000000,4.000000,4.000000,4.000000,4.000000,4.000000,4.000000,4.000000,4.000000,4.000000,4.000000,4.000000,100.000000,,,,,,,,,,,,,,,,,,,,,,,,,,,,
1703161494.118992,1703161494.118991,98.000000,0.000000,4189.230957,4150.897461,4262.179688,4224.230957,4140.769043,4116.666504,4678.717773,4170.897461,4156.410156,4142.436035,4638.077148,4444.102539,4408.333496,4516.794922,5796.000000,4.000000,79.000000,,,,0.000000,4.000000,4.000000,4.000000,4.000000,4.000000,4.000000,4.000000,4.000000,4.000000,4.000000,4.000000,4.000000,4.000000,4.000000,100.000000,,,,,,,,,,,,,,,,,,,,,,,,,,,,
1703161494.126800,1703161494.126899,99.000000,0.000000,4195.641113,4157.563965,4265.769043,4232.436035,4141.025879,4115.512695,4823.846191,4160.769043,4147.307617,4139.358887,4641.794922,4442.051270,4403.205078,4522.307617,6133.000000,4.000000,79.000000,,,,0.000000,4.000000,4.000000,4.000000,4.000000,4.000000,4.000000,4.000000,4.000000,4.000000,4.000000,4.000000,4.000000,4.000000,4.000000,100.000000,,,,,,,,,,,,,,,,,,,,,,,,,,,,
1703161494.134608,1703161494.134707,100.000000,0.000000,4192.820313,4152.820313,4266.666504,4231.282227,4136.666504,4112.692383,4962.051270,4157.820313,4140.128418,4135.769043,4644.487305,4440.897461,4402.307617,4513.077148,6573.000000,4.000000,79.000000,,,,0.000000,4.000000,4.000000,4.000000,4.000000,4.000000,4.000000,4.000000,4.000000,4.000000,4.000000,4.000000,4.000000,4.000000,4.000000,100.000000,,,,,,,,,,,,,,,,,25.000000,0.000000,0.731299,0.175598,-0.627808,0.200562,0.970822,0.059089,0.140154,-17.520472,-32.759392,65.151009
1703161494.142416,1703161494.142615,101.000000,0.000000,4182.563965,4141.666504,4263.461426,4220.512695,4137.179688,4108.333496,5092.563965,4159.871582,4139.358887,4143.589844,4642.179688,4444.102539,4403.974121,4507.307617,6773.000000,4.000000,79.000000,,,,0.000000,4.000000,4.000000,4.000000,4.000000,4.000000,4.000000,4.000000,4.000000,4.000000,4.000000,4.000000,4.000000,4.000000,4.000000,100.000000,,,,,,,,,,,,,,,,,,,,,,,,,,,,
1703161494.150224,1703161494.150423,102.000000,0.000000,4189.487305,4148.589844,4271.025879,4225.897461,4134.871582,4104.487305,5186.025879,4157.436035,4132.179688,4145.641113,4637.820313,4446.025879,4401.153809,4515.128418,5796.000000,4.000000,79.000000,,,,0.000000,4.000000,4.000000,4.000000,4.000000,4.000000,4.000000,4.000000,4.000000,4.000000,4.000000,4.000000,4.000000,4.000000,4.000000,100.000000,,,,,,,,,,,,,,,,,,,,,,,,,,,,
1703161494.158032,1703161494.158330,103.000000,0.000000,4203.846191,4163.077148,4280.384766,4238.589844,4128.205078,4103.205078,5273.205078,4150.897461,4120.384766,4130.256348,4636.153809,4444.487305,4397.307617,4515.128418,6133.000000,4.000000,79.000000,,,,0.000000,4.000000,4.000000,4.000000,4.000000,4.000000,4.000000,4.000000,4.000000,4.000000,4.000000,4.000000,4.000000,4.000000,4.000000,100.000000,,,,,,,,,,,,,,,,,,,,,,,,,,,,
1703161494.165841,1703161494.166138,104.000000,0.000000,4196.538574,4161.282227,4272.820313,4235.769043,4131.025879,4102.051270,5354.871582,4152.692383,4118.333496,4122.692383,4638.333496,4440.256348,4395.641113,4505.897461,6573.000000,4.000000,79.000000,,,,0.000000,4.000000,4.000000,4.000000,4.000000,4.000000,4.000000,4.000000,4.000000,4.000000,4.000000,4.000000,4.000000,4.000000,4.000000,100.000000,,,,,,,,,,,,,,,,,26.000000,0.000000,0.731345,0.175476,-0.627808,0.200500,0.988890,0.052252,0.138689,-17.635090,-32.666786,65.219238
1703161494.173648,1703161494.174046,105.000000,0.000000,4185.128418,4155.000000,4262.692383,4230.128418,4132.820313,4101.282227,5421.282227,4157.436035,4123.205078,4128.333496,4633.717773,4435.000000,4395.384766,4505.641113,6773.000000,4.000000,79.000000,,,,0.000000,4.000000,4.000000,4.000000,4.000000,4.000000,4.000000,4.000000,4.000000,4.000000,4.000000,4.000000,4.000000,4.000000,4.000000,100.000000,,,,,,,,,,,,,,,,,,,,,,,,,,,,
1703161494.181456,1703161494.181854,106.000000,0.000000,4185.512695,4157.436035,4262.051270,4231.538574,4129.487305,4103.461426,5483.333496,4153.333496,4125.000000,4124.102539,4622.436035,4431.538574,4386.025879,4505.000000,5796.000000,4.000000,79.000000,,,,0.000000,4.000000,4.000000,4.000000,4.000000,4.000000,4.000000,4.000000,4.000000,4.000000,4.000000,4.000000,4.000000,4.000000,4.000000,100.000000,,,,,,,,,,,,,,,,,,,,,,,,,,,,
1703161494.189265,1703161494.189562,107.000000,0.000000,4181.922852,4152.948730,4262.948730,4229.487305,4131.794922,4113.205078,5543.589844,4153.846191,4131.922852,4123.589844,4623.333496,4434.615234,4378.846191,4497.948730,6133.000000,4.000000,79.000000,,,,0.000000,4.000000,4.000000,4.000000,4.000000,4.000000,4.000000,4.000000,4.000000,4.000000,4.000000,4.000000,4.000000,4.000000,4.000000,100.000000,,,,,,,,,,,,,,,,,,,,,,,,,,,,
1703161494.197073,1703161494.197370,108.000000,0.000000,4183.974121,4153.461426,4267.692383,4230.000000,4137.563965,4120.897461,5595.769043,4168.589844,4145.128418,4136.410156,4640.897461,4444.358887,4397.179688,4504.358887,6573.000000,4.000000,79.000000,,,,0.000000,4.000000,4.000000,4.000000,4.000000,4.000000,4.000000,4.000000,4.000000,4.000000,4.000000,4.000000,4.000000,4.000000,4.000000,100.000000,,,,,,,,,,,,,,,,,27.000000,0.000000,0.731523,0.175232,-0.627747,0.200256,0.985472,0.042974,0.135759,-17.704914,-32.666775,65.197319
1703161494.204881,1703161494.205078,109.000000,0.000000,4194.871582,4166.794922,4278.205078,4234.487305,4138.846191,4115.769043,5639.743652,4179.743652,4153.205078,4142.436035,4654.102539,4456.410156,4413.077148,4520.512695,6773.000000,4.000000,79.000000,,,,0.000000,4.000000,4.000000,4.000000,4.000000,4.000000,4.000000,4.000000,4.000000,4.000000,4.000000,4.000000,4.000000,4.000000,4.000000,100.000000,,,,,,,,,,,,,,,,,,,,,,,,,,,,
1703161494.212689,1703161494.212987,110.000000,0.000000,4191.922852,4166.153809,4280.769043,4234.871582,4136.666504,4109.358887,5683.205078,4177.692383,4153.717773,4141.410156,4652.820313,4461.666504,4404.230957,4521.922852,5796.000000,4.000000,79.000000,,,,0.000000,4.000000,4.000000,4.000000,4.000000,4.000000,4.000000,4.000000,4.000000,4.000000,4.000000,4.000000,4.000000,4.000000,4.000000,100.000000,,,,,,,,,,,,,,,,,,,,,,,,,,,,
1703161494.220497,1703161494.220795,111.000000,0.000000,4184.487305,4160.512695,4274.871582,4233.461426,4132.692383,4107.820313,5720.000000,4174.615234,4147.307617,4143.333496,4642.692383,4457.051270,4396.666504,4513.077148,6133.000000,4.000000,79.000000,,,,0.000000,4.000000,4.000000,4.000000,4.000000,4.000000,4.000000,4.000000,4.000000,4.000000,4.000000,4.000000,4.000000,4.000000,4.000000,100.000000,,,,,,,,,,,,,,,,,,,,,,,,,,,,
1703161494.228305,1703161494.228703,112.000000,0.000000,4188.205078,4163.974121,4270.897461,4233.846191,4131.153809,4107.051270,5744.871582,4168.077148,4133.333496,4135.128418,4631.666504,4448.589844,4394.230957,4508.717773,6573.000000,4.000000,79.000000,,,,0.000000,4.000000,4.000000,4.000000,4.000000,4.000000,4.000000,4.000000,4.000000,4.000000,4.000000,4.000000,4.000000,4.000000,4.000000,100.000000,,,,,,,,,,,,,,,,,28.000000,0.000000,0.731636,0.175049,-0.627686,0.200195,0.990844,0.067391,0.142107,-17.651091,-32.633430,65.194252
1703161494.236113,1703161494.236511,113.000000,0.000000,4187.179688,4164.487305,4270.769043,4233.846191,4135.384766,4106.025879,5769.102539,4156.025879,4121.538574,4125.384766,4630.512695,4440.384766,4385.256348,4506.025879,6773.000000,4.000000,79.000000,,,,0.000000,4.000000,4.000000,4.000000,4.000000,4.000000,4.000000,4.000000,4.000000,4.000000,4.000000,4.000000,4.000000,4.000000,4.000000,100.000000,,,,,,,,,,,,,,,,,,,,,,,,,,,,
1703161494.243921,1703161494.244319,114.000000,0.000000,4188.077148,4162.563965,4275.769043,4238.589844,4137.307617,4107.307617,5799.230957,4152.820313,4122.563965,4135.897461,4643.205078,4445.641113,4389.743652,4510.897461,5796.000000,4.000000,79.000000,,,,0.000000,4.000000,4.000000,4.000000,4.000000,4.000000,4.000000,4.000000,4.000000,4.000000,4.000000,4.000000,4.000000,4.000000,4.000000,100.000000,,,,,,,,,,,,,,,,,,,,,,,,,,,,
1703161494.251729,1703161494.252027,115.000000,0.000000,4200.384766,4170.384766,4281.410156,4245.000000,4138.461426,4105.641113,5823.461426,4155.641113,4124.487305,4141.410156,4652.436035,4458.589844,4404.871582,4525.000000,6133.000000,4.000000,79.000000,,,,0.000000,4.000000,4.000000,4.000000,4.000000,4.000000,4.000000,4.000000,4.000000,4.000000,4.000000,4.000000,4.000000,4.000000,4.000000,100.000000,,,,,,,,,,,,,,,,,,,,,,,,,,,,
1703161494.259537,1703161494.259835,116.000000,0.000000,4198.846191,4173.974121,4282.179688,4240.769043,4134.102539,4102.692383,5841.025879,4155.128418,4117.179688,4129.871582,4642.179688,4455.000000,4398.846191,4523.077148,6573.000000,4.000000,79.000000,,,,0.000000,4.000000,4.000000,4.000000,4.000000,4.000000,4.000000,4.000000,4.000000,4.000000,4.000000,4.000000,4.000000,4.000000,4.000000,100.000000,,,,,,,,,,,,,,,,,29.000000,0.000000,0.731753,0.174988,-0.627625,0.200012,0.979612,0.052741,0.143084,-17.602648,-32.653419,65.191490
1703161494.267345,1703161494.267543,117.000000,0.000000,4184.230957,4163.333496,4276.410156,4231.794922,4122.307617,4103.717773,5862.051270,4153.205078,4109.358887,4124.487305,4630.641113,4442.820313,4386.922852,4508.205078,6773.000000,4.000000,79.000000,,,,0.000000,4.000000,4.000000,4.000000,4.000000,4.000000,4.000000,4.000000,4.000000,4.000000,4.000000,4.000000,4.000000,4.000000,4.000000,100.000000,,,,,,,,,,,,,,,,,,,,,,,,,,,,
1703161494.275153,1703161494.275351,118.000000,0.000000,4182.179688,4157.820313,4266.922852,4232.948730,4124.615234,4105.256348,5878.974121,4154.615234,4112.179688,4126.282227,4630.641113,4441.025879,4389.487305,4505.512695,5796.000000,4.000000,79.000000,,,,0.000000,4.000000,4.000000,4.000000,4.000000,4.000000,4.000000,4.000000,4.000000,4.000000,4.000000,4.000000,4.000000,4.000000,4.000000,100.000000,,,,,,,,,,,,,,,,,,,,,,,,,,,,
1703161494.282961,1703161494.283059,119.000000,0.000000,4185.000000,4159.743652,4263.846191,4234.871582,4137.051270,4110.512695,5888.461426,4154.102539,4119.743652,4128.077148,4631.538574,4441.666504,4390.000000,4508.589844,6133.000000,4.000000,79.000000,,,,0.000000,4.000000,4.000000,4.000000,4.000000,4.000000,4.000000,4.000000,4.000000,4.000000,4.000000,4.000000,4.000000,4.000000,4.000000,100.000000,,,,,,,,,,,,,,,,,,,,,,,,,,,,
1703161494.290769,1703161494.290967,120.000000,0.000000,4182.436035,4162.692383,4269.871582,4232.179688,4141.410156,4119.358887,5901.666504,4152.820313,4125.000000,4133.717773,4632.436035,4441.153809,4390.000000,4507.436035,6573.000000,4.000000,79.000000,,,,0.000000,4.000000,4.000000,4.000000,4.000000,4.000000,4.000000,4.000000,4.000000,4.000000,4.000000,4.000000,4.000000,4.000000,4.000000,100.000000,,,,,,,,,,,,,,,,,30.000000,0.000000,0.731820,0.174927,-0.627563,0.200012,0.977170,0.055183,0.146014,-17.392384,-32.621410,65.222343
1703161494.298577,1703161494.298775,121.000000,0.000000,4181.282227,4164.487305,4274.102539,4232.307617,4140.897461,4121.282227,5916.794922,4159.615234,4132.563965,4135.641113,4632.820313,4443.974121,4392.307617,4506.153809,6773.000000,4.000000,79.000000,,,,0.000000,4.000000,4.000000,4.000000,4.000000,4.000000,4.000000,4.000000,4.000000,4.000000,4.000000,4.000000,4.000000,4.000000,4.000000,100.000000,1.000000,66.666664,4.000000,4.000000,4.000000,4.000000,4.000000,4.000000,0.000000,4.000000,4.000000,4.000000,4.000000,4.000000,4.000000,4.000000,,,,,,,,,,,,
1703161494.306385,1703161494.306683,122.000000,0.000000,4181.282227,4159.615234,4274.615234,4231.538574,4137.692383,4119.102539,5926.025879,4170.128418,4140.769043,4138.077148,4633.333496,4450.769043,4395.897461,4511.025879,5796.000000,4.000000,79.000000,,,,0.000000,4.000000,4.000000,4.000000,4.000000,4.000000,4.000000,4.000000,4.000000,4.000000,4.000000,4.000000,4.000000,4.000000,4.000000,100.000000,,,,,,,,,,,,,,,,,,,,,,,,,,,,
1703161494.314193,1703161494.314491,123.000000,0.000000,4187.051270,4163.589844,4278.589844,4234.102539,4136.282227,4120.256348,5930.769043,4174.871582,4144.230957,4151.666504,4647.051270,4460.512695,4410.641113,4523.589844,6133.000000,4.000000,79.000000,,,,0.000000,4.000000,4.000000,4.000000,4.000000,4.000000,4.000000,4.000000,4.000000,4.000000,4.000000,4.000000,4.000000,4.000000,4.000000,100.000000,,,,,,,,,,,,,,,,,,,,,,,,,,,,
1703161494.322002,1703161494.322399,124.000000,0.000000,4192.179688,4172.820313,4279.102539,4239.487305,4139.102539,4116.794922,5928.974121,4170.641113,4143.205078,4159.487305,4657.179688,4458.974121,4418.589844,4529.487305,6573.000000,4.000000,79.000000,,,,0.000000,4.000000,4.000000,4.000000,4.000000,4.000000,4.000000,4.000000,4.000000,4.000000,4.000000,4.000000,4.000000,4.000000,4.000000,100.000000,,,,,,,,,,,,,,,,,31.000000,0.000000,0.731767,0.174927,-0.627625,0.200012,0.975217,0.052252,0.148456,-17.286478,-32.642605,65.216774
1703161494.329810,1703161494.330207,125.000000,0.000000,4184.487305,4164.743652,4277.307617,4235.512695,4133.974121,4113.205078,5929.743652,4168.974121,4136.538574,4150.897461,4644.102539,4448.205078,4403.717773,4523.717773,6773.000000,4.000000,79.000000,,,,0.000000,4.000000,4.000000,4.000000,4.000000,4.000000,4.000000,4.000000,4.000000,4.000000,4.000000,4.000000,4.000000,4.000000,4.000000,100.000000,,,,,,,,,,,,,,,,,,,,,,,,,,,,
1703161494.337618,1703161494.338115,126.000000,0.000000,4183.461426,4156.025879,4276.794922,4227.948730,4131.025879,4121.922852,5940.256348,4171.538574,4129.102539,4145.256348,4638.717773,4447.563965,4402.307617,4523.589844,5796.000000,4.000000,79.000000,,,,0.000000,4.000000,4.000000,4.000000,4.000000,4.000000,4.000000,4.000000,4.000000,4.000000,4.000000,4.000000,4.000000,4.000000,4.000000,100.000000,,,,,,,,,,,,,,,,,,,,,,,,,,,,
1703161494.345426,1703161494.346023,127.000000,0.000000,4187.948730,4161.666504,4271.538574,4230.384766,4140.256348,4122.692383,5942.051270,4166.153809,4124.615234,4141.153809,4645.128418,4447.948730,4411.922852,4527.179688,79.000000,4.000000,79.000000,,,,0.000000,4.000000,4.000000,4.000000,4.000000,4.000000,4.000000,4.000000,4.000000,4.000000,4.000000,4.000000,4.000000,4.000000,4.000000,100.000000,,,,,,,,,,,,,,,,,,,,,,,,,,,,
1703161494.353234,1703161494.353831,0.000000,0.000000,4174.871582,4156.538574,4267.179688,4231.410156,4136.153809,4109.871582,5934.487305,4159.102539,4113.974121,4126.666504,4632.948730,4441.410156,4394.743652,4516.410156,5255.000000,4.000000,79.000000,,,,0.000000,4.000000,4.000000,4.000000,4.000000,4.000000,4.000000,4.000000,4.000000,4.000000,4.000000,4.000000,4.000000,4.000000,4.000000,100.000000,,,,,,,,,,,,,,,,,0.000000,0.000000,0.731836,0.174927,-0.627563,0.199951,0.982542,0.055183,0.143084,-17.257830,-32.678345,65.228432
1703161494.361042,1703161494.361639,1.000000,0.000000,4169.743652,4144.102539,4272.820313,4227.307617,4123.589844,4106.282227,5933.846191,4163.589844,4107.436035,4123.974121,4627.692383,4443.974121,4388.717773,4516.410156,5338.000000,4.000000,79.000000,,,,0.000000,4.000000,4.000000,4.000000,4.000000,4.000000,4.000000,4.000000,4.000000,4.000000,4.000000,4.000000,4.000000,4.000000,4.000000,100.000000,,,,,,,,,,,,,,,,,,,,,,,,,,,,
1703161494.368850,1703161494.369547,2.000000,0.000000,4182.051270,4153.205078,4275.512695,4228.589844,4125.641113,4109.615234,5938.333496,4174.230957,4119.743652,4134.615234,4642.563965,4450.128418,4408.333496,4532.692383,5265.000000,4.000000,79.000000,,,,0.000000,4.000000,4.000000,4.000000,4.000000,4.000000,4.000000,4.000000,4.000000,4.000000,4.000000,4.000000,4.000000,4.000000,4.000000,100.000000,,,,,,,,,,,,,,,,,,,,,,,,,,,,
1703161494.376658,1703161494.377355,3.000000,0.000000,4177.563965,4159.102539,4267.563965,4227.179688,4117.948730,4108.589844,5935.128418,4173.589844,4126.282227,4133.846191,4643.333496,4446.922852,4405.641113,4530.256348,5248.000000,4.000000,79.000000,,,,0.000000,4.000000,4.000000,4.000000,4.000000,4.000000,4.000000,4.000000,4.000000,4.000000,4.000000,4.000000,4.000000,4.000000,4.000000,100.000000,,,,,,,,,,,,,,,,,,,,,,,,,,,,
1703161494.384466,1703161494.385063,4.000000,0.000000,4165.512695,4151.153809,4263.846191,4219.487305,4112.051270,4113.974121,5927.820313,4168.589844,4120.769043,4125.256348,4633.461426,4443.974121,4391.666504,4518.333496,5091.000000,4.000000,79.000000,,,,0.000000,4.000000,4.000000,4.000000,4.000000,4.000000,4.000000,4.000000,4.000000,4.000000,4.000000,4.000000,4.000000,4.000000,4.000000,100.000000,,,,,,,,,,,,,,,,,1.000000,0.000000,0.731909,0.174683,-0.627625,0.199707,0.983518,0.055183,0.140642,-17.248714,-32.727177,65.305588
1703161494.392274,1703161494.392871,5.000000,0.000000,4166.666504,4149.615234,4264.102539,4216.922852,4131.282227,4121.025879,5921.922852,4169.615234,4127.179688,4125.256348,4629.743652,4445.256348,4395.512695,4519.615234,5153.000000,4.000000,79.000000,,,,0.000000,4.000000,4.000000,4.000000,4.000000,4.000000,4.000000,4.000000,4.000000,4.000000,4.000000,4.000000,4.000000,4.000000,4.000000,100.000000,,,,,,,,,,,,,,,,,,,,,,,,,,,,
1703161494.400082,1703161494.400579,6.000000,0.000000,4172.307617,4154.615234,4263.846191,4222.948730,4138.589844,4118.077148,5911.666504,4172.051270,4140.641113,4132.820313,4635.384766,4447.948730,4406.794922,4526.538574,4856.000000,4.000000,79.000000,,,,0.000000,4.000000,4.000000,4.000000,4.000000,4.000000,4.000000,4.000000,4.000000,4.000000,4.000000,4.000000,4.000000,4.000000,4.000000,100.000000,,,,,,,,,,,,,,,,,,,,,,,,,,,,
1703161494.407890,1703161494.408387,7.000000,0.000000,4175.769043,4159.743652,4267.692383,4231.153809,4131.282227,4115.769043,5899.615234,4173.589844,4142.948730,4141.153809,4644.615234,4448.717773,4412.692383,4529.615234,5248.000000,4.000000,79.000000,,,,0.000000,4.000000,4.000000,4.000000,4.000000,4.000000,4.000000,4.000000,4.000000,4.000000,4.000000,4.000000,4.000000,4.000000,4.000000,100.000000,,,,,,,,,,,,,,,,,,,,,,,,,,,,
1703161494.415698,1703161494.416095,8.000000,0.000000,4176.794922,4160.769043,4270.384766,4234.230957,4139.230957,4115.769043,5887.948730,4166.666504,4135.000000,4138.205078,4642.436035,4446.282227,4407.692383,4528.461426,5023.000000,4.000000,79.000000,,,,0.000000,4.000000,4.000000,4.000000,4.000000,4.000000,4.000000,4.000000,4.000000,4.000000,4.000000,4.000000,4.000000,4.000000,4.000000,100.000000,,,,,,,,,,,,,,,,,2.000000,0.000000,0.732028,0.174683,-0.627563,0.199463,0.986449,0.059578,0.127945,-17.007175,-32.754459,65.225029
1703161494.423506,1703161494.423903,9.000000,0.000000,4179.615234,4165.000000,4274.743652,4234.487305,4145.769043,4110.512695,5877.563965,4155.384766,4125.384766,4122.948730,4629.230957,4445.000000,4395.384766,4524.615234,5247.000000,4.000000,79.000000,,,,0.000000,4.000000,4.000000,4.000000,4.000000,4.000000,4.000000,4.000000,4.000000,4.000000,4.000000,4.000000,4.000000,4.000000,4.000000,100.000000,,,,,,,,,,,,,,,,,,,,,,,,,,,,
1703161494.431314,1703161494.431611,10.000000,0.000000,4180.897461,4168.333496,4277.307617,4233.717773,4139.487305,4109.358887,5867.820313,4151.794922,4121.282227,4120.256348,4621.282227,4443.717773,4388.205078,4519.615234,5819.000000,4.000000,79.000000,,,,0.000000,4.000000,4.000000,4.000000,4.000000,4.000000,4.000000,4.000000,4.000000,4.000000,4.000000,4.000000,4.000000,4.000000,4.000000,100.000000,,,,,,,,,,,,,,,,,,,,,,,,,,,,
1703161494.439122,1703161494.439419,11.000000,0.000000,4173.333496,4161.922852,4270.256348,4232.948730,4139.358887,4113.077148,5860.512695,4159.102539,4119.871582,4125.256348,4620.256348,4442.436035,4384.871582,4518.077148,6140.000000,4.000000,79.000000,,,,0.000000,4.000000,4.000000,4.000000,4.000000,4.000000,4.000000,4.000000,4.000000,4.000000,4.000000,4.000000,4.000000,4.000000,4.000000,100.000000,,,,,,,,,,,,,,,,,,,,,,,,,,,,
1703161494.446930,1703161494.447127,12.000000,0.000000,4167.692383,4157.051270,4266.666504,4230.769043,4137.436035,4111.025879,5855.384766,4167.179688,4118.974121,4121.666504,4619.615234,4443.461426,4382.563965,4518.589844,6581.000000,4.000000,79.000000,,,,0.000000,4.000000,4.000000,4.000000,4.000000,4.000000,4.000000,4.000000,4.000000,4.000000,4.000000,4.000000,4.000000,4.000000,4.000000,100.000000,,,,,,,,,,,,,,,,,3.000000,0.000000,0.732149,0.174683,-0.627441,0.199402,0.980100,0.060066,0.138200,-17.106459,-32.629013,65.169197
1703161494.454738,1703161494.454935,13.000000,0.000000,4171.410156,4157.692383,4270.897461,4230.128418,4126.410156,4107.436035,5845.384766,4171.666504,4120.000000,4120.128418,4626.153809,4444.743652,4388.846191,4521.153809,6773.000000,4.000000,79.000000,,,,0.000000,4.000000,4.000000,4.000000,4.000000,4.000000,4.000000,4.000000,4.000000,4.000000,4.000000,4.000000,4.000000,4.000000,4.000000,100.000000,,,,,,,,,,,,,,,,,,,,,,,,,,,,
1703161494.462546,1703161494.462643,14.000000,0.000000,4172.563965,4154.230957,4269.743652,4231.410156,4119.871582,4107.436035,5833.589844,4173.205078,4113.846191,4122.820313,4633.717773,4442.436035,4394.358887,4522.820313,5819.000000,4.000000,79.000000,,,,0.000000,4.000000,4.000000,4.000000,4.000000,4.000000,4.000000,4.000000,4.000000,4.000000,4.000000,4.000000,4.000000,4.000000,4.000000,100.000000,,,,,,,,,,,,,,,,,,,,,,,,,,,,
1703161494.470354,1703161494.470552,15.000000,0.000000,4170.256348,4150.897461,4271.410156,4227.051270,4122.051270,4106.153809,5824.487305,4170.128418,4102.948730,4119.871582,4633.589844,4442.307617,4395.641113,4523.205078,6140.000000,4.000000,79.000000,,,,0.000000,4.000000,4.000000,4.000000,4.000000,4.000000,4.000000,4.000000,4.000000,4.000000,4.000000,4.000000,4.000000,4.000000,4.000000,100.000000,,,,,,,,,,,,,,,,,,,,,,,,,,,,
1703161494.478162,1703161494.478360,16.000000,0.000000,4169.487305,4154.230957,4275.256348,4222.948730,4126.153809,4109.102539,5814.487305,4172.307617,4111.153809,4118.974121,4631.794922,4446.153809,4398.461426,4524.230957,0.000000,4.000000,79.000000,,,,0.000000,4.000000,4.000000,4.000000,4.000000,4.000000,4.000000,4.000000,4.000000,4.000000,4.000000,4.000000,4.000000,4.000000,4.000000,100.000000,,,,,,,,,,,,,,,,,4.000000,0.000000,0.732272,0.174744,-0.627319,0.199280,0.980588,0.037114,0.151874,-17.145813,-32.716110,65.152275
1703161494.485971,1703161494.486268,17.000000,0.000000,4166.666504,4153.077148,4269.230957,4225.641113,4124.743652,4117.436035,5800.256348,4181.794922,4133.846191,4129.102539,4630.769043,4448.846191,4396.410156,4521.922852,0.000000,4.000000,79.000000,,,,0.000000,4.000000,4.000000,4.000000,4.000000,4.000000,4.000000,4.000000,4.000000,4.000000,4.000000,4.000000,4.000000,4.000000,4.000000,100.000000,,,,,,,,,,,,,,,,,,,,,,,,,,,,
1703161494.493779,1703161494.494076,18.000000,0.000000,4166.282227,4151.794922,4267.307617,4224.615234,4127.820313,4121.538574,5787.179688,4187.820313,4150.256348,4134.615234,4632.563965,4450.256348,4390.384766,4517.948730,0.000000,4.000000,79.000000,,,,0.000000,4.000000,4.000000,4.000000,4.000000,4.000000,4.000000,4.000000,4.000000,4.000000,4.000000,4.000000,4.000000,4.000000,4.000000,100.000000,,,,,,,,,,,,,,,,,,,,,,,,,,,,
1703161494.501587,1703161494.501983,19.000000,0.000000,4166.153809,4152.436035,4271.794922,4218.846191,4139.230957,4118.846191,5776.025879,4187.563965,4155.512695,4131.153809,4636.922852,4450.641113,4391.025879,4516.794922,0.000000,4.000000,79.000000,,,,0.000000,4.000000,4.000000,4.000000,4.000000,4.000000,4.000000,4.000000,4.000000,4.000000,4.000000,4.000000,4.000000,4.000000,4.000000,100.000000,,,,,,,,,,,,,,,,,,,,,,,,,,,,
1703161494.509395,1703161494.509791,20.000000,0.000000,4166.025879,4151.794922,4267.692383,4217.051270,4137.563965,4115.128418,5761.153809,4188.461426,4153.589844,4135.641113,4641.410156,4451.410156,4397.307617,4522.051270,0.000000,4.000000,79.000000,,,,0.000000,4.000000,4.000000,4.000000,4.000000,4.000000,4.000000,4.000000,4.000000,4.000000,4.000000,4.000000,4.000000,4.000000,4.000000,100.000000,,,,,,,,,,,,,,,,,5.000000,0.000000,0.732111,0.174683,-0.627563,0.199158,0.983518,0.063973,0.131852,-17.114565,-32.594501,65.153717
1703161494.517203,1703161494.517699,21.000000,0.000000,4168.077148,4151.794922,4263.589844,4218.461426,4129.358887,4117.051270,5745.512695,4186.282227,4145.512695,4138.461426,4637.820313,4449.358887,4397.948730,4524.743652,0.000000,4.000000,79.000000,,,,0.000000,4.000000,4.000000,4.000000,4.000000,4.000000,4.000000,4.000000,4.000000,4.000000,4.000000,4.000000,4.000000,4.000000,4.000000,100.000000,,,,,,,,,,,,,,,,,,,,,,,,,,,,
1703161494.525011,1703161494.525507,22.000000,0.000000,4167.307617,4152.436035,4265.641113,4220.897461,4133.077148,4119.615234,5732.051270,4167.563965,4125.512695,4118.846191,4620.128418,4439.871582,4386.410156,4514.487305,0.000000,4.000000,79.000000,,,,0.000000,4.000000,4.000000,4.000000,4.000000,4.000000,4.000000,4.000000,4.000000,4.000000,4.000000,4.000000,4.000000,4.000000,4.000000,100.000000,,,,,,,,,,,,,,,,,,,,,,,,,,,,
1703161494.532819,1703161494.533415,23.000000,0.000000,4166.794922,4157.179688,4269.871582,4231.666504,4137.307617,4118.717773,5723.974121,4150.128418,4108.461426,4102.307617,4605.769043,4435.384766,4370.769043,4503.205078,0.000000,4.000000,79.000000,,,,0.000000,4.000000,4.000000,4.000000,4.000000,4.000000,4.000000,4.000000,4.000000,4.000000,4.000000,4.000000,4.000000,4.000000,4.000000,100.000000,,,,,,,,,,,,,,,,,,,,,,,,,,,,
1703161494.540627,1703161494.541223,24.000000,0.000000,4170.641113,4158.717773,4278.589844,4235.897461,4137.051270,4119.102539,5715.128418,4158.077148,4111.922852,4115.512695,4619.102539,4443.077148,4376.153809,4511.922852,0.000000,4.000000,79.000000,,,,0.000000,4.000000,4.000000,4.000000,4.000000,4.000000,4.000000,4.000000,4.000000,4.000000,4.000000,4.000000,4.000000,4.000000,4.000000,100.000000,,,,,,,,,,,,,,,,,6.000000,0.000000,0.732075,0.174683,-0.627625,0.199097,0.964962,0.061531,0.141619,-17.086441,-32.701717,65.071678
1703161494.548435,1703161494.549131,25.000000,0.000000,4171.025879,4148.846191,4279.102539,4223.589844,4134.102539,4118.333496,5693.717773,4169.871582,4119.358887,4130.256348,4635.384766,4448.974121,4397.051270,4524.230957,0.000000,4.000000,79.000000,,,,0.000000,4.000000,4.000000,4.000000,4.000000,4.000000,4.000000,4.000000,4.000000,4.000000,4.000000,4.000000,4.000000,4.000000,4.000000,100.000000,,,,,,,,,,,,,,,,,,,,,,,,,,,,
1703161494.556243,1703161494.556939,26.000000,0.000000,4162.436035,4138.077148,4268.461426,4214.871582,4125.384766,4109.358887,5671.666504,4166.282227,4116.025879,4123.205078,4628.589844,4443.205078,4397.307617,4516.025879,0.000000,4.000000,79.000000,,,,0.000000,4.000000,4.000000,4.000000,4.000000,4.000000,4.000000,4.000000,4.000000,4.000000,4.000000,4.000000,4.000000,4.000000,4.000000,100.000000,,,,,,,,,,,,,,,,,,,,,,,,,,,,
1703161494.564051,1703161494.564647,27.000000,0.000000,4153.589844,4137.179688,4262.051270,4216.538574,4122.436035,4106.410156,5659.743652,4171.153809,4117.179688,4114.871582,4617.307617,4439.615234,4381.922852,4502.563965,0.000000,4.000000,79.000000,,,,0.000000,4.000000,4.000000,4.000000,4.000000,4.000000,4.000000,4.000000,4.000000,4.000000,4.000000,4.000000,4.000000,4.000000,4.000000,100.000000,,,,,,,,,,,,,,,,,,,,,,,,,,,,
1703161494.571859,1703161494.572455,28.000000,0.000000,4153.589844,4140.384766,4263.461426,4218.846191,4129.743652,4117.179688,5646.922852,4184.871582,4125.769043,4119.871582,4616.538574,4444.487305,4379.487305,4502.563965,0.000000,4.000000,79.000000,,,,0.000000,4.000000,4.000000,4.000000,4.000000,4.000000,4.000000,4.000000,4.000000,4.000000,4.000000,4.000000,4.000000,4.000000,4.000000,100.000000,,,,,,,,,,,,,,,,,7.000000,0.000000,0.732234,0.174744,-0.627441,0.199036,0.991332,0.048346,0.152851,-17.094463,-32.881546,65.164505
1703161494.579667,1703161494.580163,29.000000,0.000000,4153.205078,4137.692383,4262.436035,4215.000000,4135.000000,4121.282227,5626.025879,4178.717773,4126.410156,4123.717773,4618.589844,4439.487305,4380.897461,4501.666504,0.000000,4.000000,79.000000,,,,0.000000,4.000000,4.000000,4.000000,4.000000,4.000000,4.000000,4.000000,4.000000,4.000000,4.000000,4.000000,4.000000,4.000000,4.000000,100.000000,,,,,,,,,,,,,,,,,,,,,,,,,,,,
1703161494.587475,1703161494.587971,30.000000,0.000000,4148.589844,4133.589844,4258.077148,4210.128418,4129.743652,4117.692383,5606.025879,4169.615234,4126.922852,4122.051270,4624.358887,4432.692383,4384.871582,4499.743652,0.000000,4.000000,79.000000,,,,0.000000,4.000000,4.000000,4.000000,4.000000,4.000000,4.000000,4.000000,4.000000,4.000000,4.000000,4.000000,4.000000,4.000000,4.000000,100.000000,,,,,,,,,,,,,,,,,,,,,,,,,,,,
1703161494.595283,1703161494.595679,31.000000,0.000000,4154.615234,4139.358887,4262.436035,4214.487305,4126.025879,4120.256348,5592.692383,4180.769043,4134.871582,4122.051270,4629.743652,4445.000000,4395.769043,4511.794922,0.000000,4.000000,79.000000,,,,0.000000,4.000000,4.000000,4.000000,4.000000,4.000000,4.000000,4.000000,4.000000,4.000000,4.000000,4.000000,4.000000,4.000000,4.000000,100.000000,,,,,,,,,,,,,,,,,,,,,,,,,,,,
1703161494.603091,1703161494.603487,32.000000,0.000000,4169.102539,4152.179688,4275.256348,4227.307617,4132.307617,4123.974121,5582.692383,4190.769043,4140.641113,4125.000000,4633.333496,4462.179688,4398.974121,4523.333496,0.000000,4.000000,79.000000,,,,0.000000,4.000000,4.000000,4.000000,4.000000,4.000000,4.000000,4.000000,4.000000,4.000000,4.000000,4.000000,4.000000,4.000000,4.000000,100.000000,,,,,,,,,,,,,,,,,8.000000,0.000000,0.732359,0.174438,-0.627380,0.199036,1.000610,0.054694,0.146014,-17.035017,-32.810059,65.381393
1703161494.610899,1703161494.611195,33.000000,0.000000,4171.025879,4152.179688,4282.563965,4230.256348,4142.948730,4122.436035,5571.538574,4188.461426,4141.922852,4124.871582,4642.307617,4464.358887,4400.512695,4523.461426,0.000000,4.000000,79.000000,,,,0.000000,4.000000,4.000000,4.000000,4.000000,4.000000,4.000000,4.000000,4.000000,4.000000,4.000000,4.000000,4.000000,4.000000,4.000000,100.000000,,,,,,,,,,,,,,,,,,,,,,,,,,,,
1703161494.618707,1703161494.619003,34.000000,0.000000,4162.307617,4140.641113,4276.025879,4220.769043,4140.769043,4121.922852,5555.512695,4186.538574,4138.589844,4119.102539,4639.871582,4458.589844,4400.256348,4518.717773,0.000000,4.000000,79.000000,,,,0.000000,4.000000,4.000000,4.000000,4.000000,4.000000,4.000000,4.000000,4.000000,4.000000,4.000000,4.000000,4.000000,4.000000,4.000000,100.000000,,,,,,,,,,,,,,,,,,,,,,,,,,,,
1703161494.626516,1703161494.626711,35.000000,0.000000,4158.205078,4137.563965,4270.769043,4216.666504,4135.128418,4119.871582,5540.641113,4182.436035,4130.641113,4109.487305,4627.436035,4452.563965,4387.307617,4511.410156,0.000000,4.000000,79.000000,,,,0.000000,4.000000,4.000000,4.000000,4.000000,4.000000,4.000000,4.000000,4.000000,4.000000,4.000000,4.000000,4.000000,4.000000,4.000000,100.000000,,,,,,,,,,,,,,,,,,,,,,,,,,,,
1703161494.634323,1703161494.634519,36.000000,0.000000,4156.410156,4138.974121,4270.897461,4218.205078,4139.102539,4112.692383,5527.307617,4173.461426,4121.282227,4098.333496,4625.256348,4443.974121,4376.153809,4505.512695,0.000000,4.000000,79.000000,,,,0.000000,4.000000,4.000000,4.000000,4.000000,4.000000,4.000000,4.000000,4.000000,4.000000,4.000000,4.000000,4.000000,4.000000,4.000000,100.000000,,,,,,,,,,,,,,,,,9.000000,0.000000,0.732289,0.174133,-0.627625,0.198792,0.978635,0.061043,0.137712,-17.048182,-32.729050,65.476585
1703161494.642131,1703161494.642227,37.000000,0.000000,4157.436035,4141.538574,4268.333496,4223.205078,4136.922852,4113.846191,5509.743652,4169.230957,4119.358887,4097.692383,4627.692383,4441.794922,4381.794922,4509.102539,0.000000,4.000000,79.000000,,,,0.000000,4.000000,4.000000,4.000000,4.000000,4.000000,4.000000,4.000000,4.000000,4.000000,4.000000,4.000000,4.000000,4.000000,4.000000,100.000000,,,,,,,,,,,,,,,,,,,,,,,,,,,,
1703161494.649940,1703161494.650135,38.000000,0.000000,4167.051270,4148.077148,4272.563965,4231.410156,4136.410156,4117.692383,5488.589844,4171.922852,4123.974121,4103.974121,4630.897461,4445.641113,4391.666504,4520.000000,0.000000,4.000000,79.000000,,,,0.000000,4.000000,4.000000,4.000000,4.000000,4.000000,4.000000,4.000000,4.000000,4.000000,4.000000,4.000000,4.000000,4.000000,4.000000,100.000000,,,,,,,,,,,,,,,,,,,,,,,,,,,,
1703161494.657748,1703161494.657944,39.000000,0.000000,4168.077148,4148.077148,4277.051270,4230.128418,4143.717773,4113.717773,5469.358887,4171.794922,4117.820313,4100.128418,4633.846191,4444.230957,4393.077148,4520.384766,0.000000,4.000000,79.000000,,,,0.000000,4.000000,4.000000,4.000000,4.000000,4.000000,4.000000,4.000000,4.000000,4.000000,4.000000,4.000000,4.000000,4.000000,4.000000,100.000000,,,,,,,,,,,,,,,,,,,,,,,,,,,,
1703161494.665556,1703161494.665851,40.000000,0.000000,4158.077148,4142.179688,4270.512695,4220.641113,4138.846191,4115.128418,5451.025879,4169.743652,4110.641113,4090.256348,4628.846191,4440.769043,4384.615234,4510.128418,0.000000,4.000000,79.000000,,,,0.000000,4.000000,4.000000,4.000000,4.000000,4.000000,4.000000,4.000000,4.000000,4.000000,4.000000,4.000000,4.000000,4.000000,4.000000,100.000000,,,,,,,,,,,,,,,,,10.000000,0.000000,0.732245,0.173889,-0.627686,0.198975,0.987425,0.054694,0.139665,-17.043364,-32.806145,65.462257
1703161494.673364,1703161494.673659,41.000000,0.000000,4153.846191,4142.820313,4262.563965,4214.871582,4130.641113,4125.000000,5429.358887,4174.871582,4115.000000,4094.230713,4623.461426,4439.871582,4369.487305,4500.769043,0.000000,4.000000,79.000000,,,,0.000000,4.000000,4.000000,4.000000,4.000000,4.000000,4.000000,4.000000,4.000000,4.000000,4.000000,4.000000,4.000000,4.000000,4.000000,100.000000,,,,,,,,,,,,,,,,,,,,,,,,,,,,
1703161494.681172,1703161494.681567,42.000000,0.000000,4150.384766,4137.051270,4262.563965,4208.333496,4135.384766,4126.282227,5409.102539,4183.077148,4123.333496,4103.461426,4625.512695,4440.769043,4364.358887,4496.922852,0.000000,4.000000,79.000000,,,,0.000000,4.000000,4.000000,4.000000,4.000000,4.000000,4.000000,4.000000,4.000000,4.000000,4.000000,4.000000,4.000000,4.000000,4.000000,100.000000,,,,,,,,,,,,,,,,,,,,,,,,,,,,
1703161494.688980,1703161494.689376,43.000000,0.000000,4145.512695,4124.871582,4261.153809,4199.871582,4134.230957,4120.897461,5388.077148,4186.794922,4131.922852,4107.563965,4628.717773,4441.410156,4374.615234,4501.025879,0.000000,4.000000,79.000000,,,,0.000000,4.000000,4.000000,4.000000,4.000000,4.000000,4.000000,4.000000,4.000000,4.000000,4.000000,4.000000,4.000000,4.000000,4.000000,100.000000,,,,,,,,,,,,,,,,,,,,,,,,,,,,
1703161494.696788,1703161494.697284,44.000000,0.000000,4151.794922,4131.666504,4258.589844,4202.436035,4121.282227,4119.743652,5363.846191,4187.179688,4141.025879,4117.436035,4633.717773,4443.077148,4389.615234,4515.256348,0.000000,4.000000,79.000000,,,,0.000000,4.000000,4.000000,4.000000,4.000000,4.000000,4.000000,4.000000,4.000000,4.000000,4.000000,4.000000,4.000000,4.000000,4.000000,100.000000,,,,,,,,,,,,,,,,,11.000000,0.000000,0.732231,0.173889,-0.627625,0.199219,0.976193,0.057136,0.140154,-17.139029,-32.842197,65.432701
1703161494.704596,1703161494.705092,45.000000,0.000000,4160.641113,4146.153809,4262.692383,4211.922852,4126.538574,4114.871582,5344.487305,4188.077148,4144.743652,4126.666504,4638.333496,4444.743652,4392.051270,4521.410156,0.000000,4.000000,79.000000,,,,0.000000,4.000000,4.000000,4.000000,4.000000,4.000000,4.000000,4.000000,4.000000,4.000000,4.000000,4.000000,4.000000,4.000000,4.000000,100.000000,,,,,,,,,,,,,,,,,,,,,,,,,,,,
1703161494.712404,1703161494.712999,46.000000,0.000000,4155.256348,4140.769043,4263.589844,4210.897461,4137.692383,4107.948730,5331.794922,4187.179688,4137.051270,4118.717773,4634.102539,4444.487305,4379.102539,4510.128418,0.000000,4.000000,79.000000,,,,0.000000,4.000000,4.000000,4.000000,4.000000,4.000000,4.000000,4.000000,4.000000,4.000000,4.000000,4.000000,4.000000,4.000000,4.000000,100.000000,,,,,,,,,,,,,,,,,,,,,,,,,,,,
1703161494.720212,1703161494.720807,47.000000,0.000000,4149.743652,4132.692383,4262.820313,4206.282227,4129.230957,4110.128418,5315.641113,4181.794922,4126.922852,4108.974121,4627.692383,4443.077148,4368.333496,4502.563965,0.000000,4.000000,79.000000,,,,0.000000,4.000000,4.000000,4.000000,4.000000,4.000000,4.000000,4.000000,4.000000,4.000000,4.000000,4.000000,4.000000,4.000000,4.000000,100.000000,,,,,,,,,,,,,,,,,,,,,,,,,,,,
1703161494.728020,1703161494.728715,48.000000,0.000000,4154.230957,4138.846191,4264.871582,4211.153809,4124.871582,4116.922852,5300.512695,4176.153809,4123.846191,4113.333496,4629.230957,4443.974121,4369.230957,4506.410156,0.000000,4.000000,79.000000,,,,0.000000,4.000000,4.000000,4.000000,4.000000,4.000000,4.000000,4.000000,4.000000,4.000000,4.000000,4.000000,4.000000,4.000000,4.000000,100.000000,,,,,,,,,,,,,,,,,12.000000,0.000000,0.732221,0.174011,-0.627563,0.199341,0.981565,0.043951,0.149921,-17.008459,-32.791313,65.189430
1703161494.735828,1703161494.736523,49.000000,0.000000,4155.512695,4144.487305,4265.384766,4219.102539,4130.384766,4115.384766,5291.410156,4172.692383,4124.743652,4116.282227,4630.128418,4444.871582,4371.282227,4508.461426,0.000000,4.000000,79.000000,,,,0.000000,4.000000,4.000000,4.000000,4.000000,4.000000,4.000000,4.000000,4.000000,4.000000,4.000000,4.000000,4.000000,4.000000,4.000000,100.000000,,,,,,,,,,,,,,,,,,,,,,,,,,,,
1703161494.743636,1703161494.744431,50.000000,0.000000,4151.153809,4140.384766,4263.461426,4215.256348,4126.282227,4109.487305,5276.666504,4170.769043,4119.102539,4109.615234,4621.666504,4441.282227,4365.769043,4503.589844,0.000000,4.000000,79.000000,,,,0.000000,4.000000,4.000000,4.000000,4.000000,4.000000,4.000000,4.000000,4.000000,4.000000,4.000000,4.000000,4.000000,4.000000,4.000000,100.000000,,,,,,,,,,,,,,,,,,,,,,,,,,,,
1703161494.751444,1703161494.752239,51.000000,0.000000,4148.846191,4129.615234,4261.538574,4205.000000,4121.794922,4107.563965,5255.000000,4162.179688,4103.846191,4104.743652,4613.846191,4433.077148,4363.846191,4503.077148,0.000000,4.000000,79.000000,,,,0.000000,4.000000,4.000000,4.000000,4.000000,4.000000,4.000000,4.000000,4.000000,4.000000,4.000000,4.000000,4.000000,4.000000,4.000000,100.000000,,,,,,,,,,,,,,,,,,,,,,,,,,,,
1703161494.759252,1703161494.759947,52.000000,0.000000,4150.897461,4125.000000,4260.641113,4204.487305,4126.922852,4106.410156,5235.384766,4152.563965,4101.410156,4107.051270,4620.256348,4427.948730,4372.051270,4505.897461,0.000000,4.000000,79.000000,,,,0.000000,4.000000,4.000000,4.000000,4.000000,4.000000,4.000000,4.000000,4.000000,4.000000,4.000000,4.000000,4.000000,4.000000,4.000000,100.000000,,,,,,,,,,,,,,,,,13.000000,0.000000,0.732408,0.174011,-0.627441,0.199036,0.990355,0.049322,0.138200,-17.157612,-32.712181,65.270485
1703161494.767060,1703161494.767755,53.000000,0.000000,4153.846191,4136.538574,4261.282227,4213.846191,4126.666504,4106.666504,5221.666504,4159.230957,4112.436035,4108.974121,4628.205078,4433.333496,4376.922852,4505.897461,0.000000,4.000000,79.000000,,,,0.000000,4.000000,4.000000,4.000000,4.000000,4.000000,4.000000,4.000000,4.000000,4.000000,4.000000,4.000000,4.000000,4.000000,4.000000,100.000000,,,,,,,,,,,,,,,,,,,,,,,,,,,,
1703161494.774868,1703161494.775463,54.000000,0.000000,4155.000000,4144.102539,4263.974121,4219.358887,4120.000000,4110.000000,5211.538574,4175.641113,4121.666504,4107.436035,4625.000000,4441.794922,4371.538574,4506.794922,0.000000,4.000000,79.000000,,,,0.000000,4.000000,4.000000,4.000000,4.000000,4.000000,4.000000,4.000000,4.000000,4.000000,4.000000,4.000000,4.000000,4.000000,4.000000,100.000000,,,,,,,,,,,,,,,,,,,,,,,,,,,,
1703161494.782676,1703161494.783371,55.000000,0.000000,4154.743652,4138.205078,4265.256348,4214.743652,4128.077148,4110.512695,5198.333496,4187.692383,4131.794922,4114.358887,4631.410156,4445.897461,4371.794922,4511.025879,0.000000,4.000000,79.000000,,,,0.000000,4.000000,4.000000,4.000000,4.000000,4.000000,4.000000,4.000000,4.000000,4.000000,4.000000,4.000000,4.000000,4.000000,4.000000,100.000000,,,,,,,,,,,,,,,,,,,,,,,,,,,,
1703161494.790485,1703161494.791179,56.000000,0.000000,4155.641113,4137.563965,4264.487305,4214.358887,4134.230957,4109.230957,5178.717773,4195.128418,4141.794922,4124.230957,4638.333496,4446.025879,4373.589844,4509.358887,0.000000,4.000000,79.000000,,,,0.000000,4.000000,4.000000,4.000000,4.000000,4.000000,4.000000,4.000000,4.000000,4.000000,4.000000,4.000000,4.000000,4.000000,4.000000,100.000000,,,,,,,,,,,,,,,,,14.000000,0.000000,0.732460,0.174072,-0.627441,0.198792,0.968868,0.062019,0.139665,-17.141851,-32.790962,65.110107
1703161494.798293,1703161494.799088,57.000000,0.000000,4152.179688,4135.128418,4263.205078,4217.436035,4124.871582,4110.641113,5158.333496,4202.948730,4143.974121,4125.897461,4633.589844,4448.846191,4368.205078,4502.692383,0.000000,4.000000,79.000000,,,,0.000000,4.000000,4.000000,4.000000,4.000000,4.000000,4.000000,4.000000,4.000000,4.000000,4.000000,4.000000,4.000000,4.000000,4.000000,100.000000,1.000000,58.333332,4.000000,4.000000,4.000000,4.000000,4.000000,3.000000,0.000000,4.000000,4.000000,4.000000,4.000000,4.000000,4.000000,4.000000,,,,,,,,,,,,
1703161494.806100,1703161494.806896,58.000000,0.000000,4156.282227,4131.410156,4267.051270,4217.948730,4125.641113,4111.282227,5140.641113,4203.589844,4144.102539,4126.153809,4639.615234,4457.948730,4378.974121,4513.461426,0.000000,4.000000,79.000000,,,,0.000000,4.000000,4.000000,4.000000,4.000000,4.000000,4.000000,4.000000,4.000000,4.000000,4.000000,4.000000,4.000000,4.000000,4.000000,100.000000,,,,,,,,,,,,,,,,,,,,,,,,,,,,
1703161494.813909,1703161494.814704,59.000000,0.000000,4172.820313,4139.102539,4272.307617,4220.128418,4135.512695,4110.256348,5121.794922,4190.641113,4137.563965,4125.641113,4648.461426,4459.615234,4390.128418,4526.666504,0.000000,4.000000,79.000000,,,,0.000000,4.000000,4.000000,4.000000,4.000000,4.000000,4.000000,4.000000,4.000000,4.000000,4.000000,4.000000,4.000000,4.000000,4.000000,100.000000,,,,,,,,,,,,,,,,,,,,,,,,,,,,
1703161494.821717,1703161494.822412,60.000000,0.000000,4170.512695,4140.256348,4268.717773,4219.871582,4132.948730,4109.615234,5103.205078,4174.871582,4122.307617,4113.974121,4634.871582,4446.922852,4372.179688,4513.974121,0.000000,4.000000,79.000000,,,,0.000000,4.000000,4.000000,4.000000,4.000000,4.000000,4.000000,4.000000,4.000000,4.000000,4.000000,4.000000,4.000000,4.000000,4.000000,100.000000,,,,,,,,,,,,,,,,,15.000000,0.000000,0.732839,0.174133,-0.627136,0.198303,0.963497,0.058601,0.143084,-17.227667,-32.828533,65.115761
1703161494.829525,1703161494.830220,61.000000,0.000000,4154.743652,4133.461426,4262.179688,4217.436035,4129.487305,4110.897461,5087.948730,4169.615234,4118.333496,4106.025879,4618.461426,4439.102539,4360.384766,4499.871582,0.000000,4.000000,79.000000,,,,0.000000,4.000000,4.000000,4.000000,4.000000,4.000000,4.000000,4.000000,4.000000,4.000000,4.000000,4.000000,4.000000,4.000000,4.000000,100.000000,,,,,,,,,,,,,,,,,,,,,,,,,,,,
1703161494.837333,1703161494.837928,62.000000,0.000000,4161.153809,4132.692383,4263.461426,4218.333496,4140.384766,4113.205078,5072.820313,4172.436035,4120.641113,4110.384766,4625.128418,4445.897461,4378.974121,4508.974121,0.000000,4.000000,79.000000,,,,0.000000,4.000000,4.000000,4.000000,4.000000,4.000000,4.000000,4.000000,4.000000,4.000000,4.000000,4.000000,4.000000,4.000000,4.000000,100.000000,,,,,,,,,,,,,,,,,,,,,,,,,,,,
1703161494.845141,1703161494.845836,63.000000,0.000000,4172.307617,4127.692383,4268.333496,4218.589844,4138.717773,4112.051270,5054.615234,4167.948730,4110.000000,4108.846191,4633.077148,4444.743652,4388.077148,4516.538574,0.000000,4.000000,79.000000,,,,0.000000,4.000000,4.000000,4.000000,4.000000,4.000000,4.000000,4.000000,4.000000,4.000000,4.000000,4.000000,4.000000,4.000000,4.000000,100.000000,,,,,,,,,,,,,,,,,,,,,,,,,,,,
1703161494.852949,1703161494.853644,64.000000,0.000000,4160.897461,4118.717773,4262.307617,4213.333496,4123.461426,4107.179688,5035.512695,4156.282227,4102.692383,4104.871582,4623.717773,4430.641113,4372.307617,4501.666504,5255.000000,4.000000,79.000000,,,,0.000000,4.000000,4.000000,4.000000,4.000000,4.000000,4.000000,4.000000,4.000000,4.000000,4.000000,4.000000,4.000000,4.000000,4.000000,100.000000,,,,,,,,,,,,,,,,,16.000000,0.000000,0.733190,0.174255,-0.626770,0.198059,0.991332,0.062019,0.141619,-17.221565,-32.862347,65.120850
1703161494.860757,1703161494.861552,65.000000,0.000000,4150.769043,4120.256348,4251.410156,4213.846191,4121.794922,4105.384766,5017.051270,4150.512695,4104.871582,4105.256348,4608.333496,4423.717773,4359.358887,4490.000000,5338.000000,4.000000,79.000000,,,,0.000000,4.000000,4.000000,4.000000,4.000000,4.000000,4.000000,4.000000,4.000000,4.000000,4.000000,4.000000,4.000000,4.000000,4.000000,100.000000,,,,,,,,,,,,,,,,,,,,,,,,,,,,
1703161494.868565,1703161494.869360,66.000000,0.000000,4153.461426,4119.102539,4253.717773,4215.384766,4127.563965,4107.948730,5004.743652,4157.179688,4105.256348,4102.948730,4612.179688,4430.897461,4363.461426,4494.230957,5265.000000,4.000000,79.000000,,,,0.000000,4.000000,4.000000,4.000000,4.000000,4.000000,4.000000,4.000000,4.000000,4.000000,4.000000,4.000000,4.000000,4.000000,4.000000,100.000000,,,,,,,,,,,,,,,,,,,,,,,,,,,,
1703161494.876373,1703161494.877268,67.000000,0.000000,4153.333496,4108.846191,4263.077148,4207.563965,4124.487305,4109.358887,4997.820313,4173.077148,4114.230957,4104.871582,4627.563965,4442.436035,4373.333496,4498.846191,5247.000000,4.000000,79.000000,,,,0.000000,4.000000,4.000000,4.000000,4.000000,4.000000,4.000000,4.000000,4.000000,4.000000,4.000000,4.000000,4.000000,4.000000,4.000000,100.000000,,,,,,,,,,,,,,,,,,,,,,,,,,,,
1703161494.884181,1703161494.885076,68.000000,0.000000,4151.025879,4105.128418,4261.538574,4203.461426,4117.307617,4112.051270,4983.461426,4182.692383,4132.051270,4109.871582,4621.410156,4442.948730,4366.153809,4492.436035,5090.000000,4.000000,79.000000,,,,0.000000,4.000000,4.000000,4.000000,4.000000,4.000000,4.000000,4.000000,4.000000,4.000000,4.000000,4.000000,4.000000,4.000000,4.000000,100.000000,,,,,,,,,,,,,,,,,17.000000,0.000000,0.733331,0.174377,-0.626648,0.197815,0.983030,0.061043,0.141131,-17.182743,-33.026112,65.125435
1703161494.891989,1703161494.892984,69.000000,0.000000,4151.922852,4112.692383,4257.307617,4210.384766,4121.153809,4117.692383,4963.974121,4186.794922,4138.205078,4105.000000,4615.641113,4438.717773,4355.769043,4486.025879,5153.000000,4.000000,79.000000,,,,0.000000,4.000000,4.000000,4.000000,4.000000,4.000000,4.000000,4.000000,4.000000,4.000000,4.000000,4.000000,4.000000,4.000000,4.000000,100.000000,,,,,,,,,,,,,,,,,,,,,,,,,,,,
1703161494.899797,1703161494.900792,70.000000,0.000000,4154.871582,4122.307617,4264.102539,4217.948730,4126.666504,4120.000000,4953.333496,4193.205078,4137.179688,4100.897461,4634.871582,4444.743652,4371.922852,4498.205078,4934.000000,4.000000,79.000000,,,,0.000000,4.000000,4.000000,4.000000,4.000000,4.000000,4.000000,4.000000,4.000000,4.000000,4.000000,4.000000,4.000000,4.000000,4.000000,100.000000,,,,,,,,,,,,,,,,,,,,,,,,,,,,
1703161494.907605,1703161494.908700,71.000000,0.000000,4157.692383,4120.256348,4267.179688,4214.615234,4123.589844,4116.282227,4942.307617,4194.615234,4135.641113,4107.436035,4645.384766,4450.897461,4386.282227,4510.256348,5242.000000,4.000000,79.000000,,,,0.000000,4.000000,4.000000,4.000000,4.000000,4.000000,4.000000,4.000000,4.000000,4.000000,4.000000,4.000000,4.000000,4.000000,4.000000,100.000000,,,,,,,,,,,,,,,,,,,,,,,,,,,,
1703161494.915413,1703161494.916508,72.000000,0.000000,4157.051270,4110.512695,4261.282227,4204.358887,4122.307617,4111.410156,4917.563965,4183.461426,4124.615234,4106.794922,4629.615234,4444.871582,4375.769043,4501.025879,5015.000000,4.000000,79.000000,,,,0.000000,4.000000,4.000000,4.000000,4.000000,4.000000,4.000000,4.000000,4.000000,4.000000,4.000000,4.000000,4.000000,4.000000,4.000000,100.000000,,,,,,,,,,,,,,,,,18.000000,0.000000,0.733485,0.174377,-0.626526,0.197632,0.989379,0.070809,0.147479,-17.097801,-33.040169,65.162888
1703161494.923221,1703161494.924216,73.000000,0.000000,4154.358887,4107.563965,4260.256348,4203.333496,4122.820313,4108.205078,4897.179688,4171.410156,4109.358887,4095.128174,4621.794922,4438.205078,4369.871582,4490.641113,5230.000000,4.000000,79.000000,,,,0.000000,4.000000,4.000000,4.000000,4.000000,4.000000,4.000000,4.000000,4.000000,4.000000,4.000000,4.000000,4.000000,4.000000,4.000000,100.000000,,,,,,,,,,,,,,,,,,,,,,,,,,,,
1703161494.931029,1703161494.932024,74.000000,0.000000,4152.692383,4110.769043,4264.487305,4213.461426,4124.358887,4106.538574,4887.692383,4166.538574,4097.307617,4085.384521,4624.871582,4439.615234,4372.179688,4491.538574,5806.000000,4.000000,79.000000,,,,0.000000,4.000000,4.000000,4.000000,4.000000,4.000000,4.000000,4.000000,4.000000,4.000000,4.000000,4.000000,4.000000,4.000000,4.000000,100.000000,,,,,,,,,,,,,,,,,,,,,,,,,,,,
1703161494.938837,1703161494.939732,75.000000,0.000000,4153.846191,4113.589844,4263.846191,4217.307617,4125.769043,4104.871582,4872.563965,4163.589844,4090.128174,4085.641113,4620.769043,4443.717773,4368.461426,4492.436035,6135.000000,4.000000,79.000000,,,,0.000000,4.000000,4.000000,4.000000,4.000000,4.000000,4.000000,4.000000,4.000000,4.000000,4.000000,4.000000,4.000000,4.000000,4.000000,100.000000,,,,,,,,,,,,,,,,,,,,,,,,,,,,
1703161494.946645,1703161494.947540,76.000000,0.000000,4161.282227,4117.307617,4266.538574,4212.948730,4122.692383,4103.717773,4854.358887,4164.615234,4095.384521,4097.948730,4627.820313,4446.153809,4372.820313,4496.538574,6563.000000,4.000000,79.000000,,,,0.000000,4.000000,4.000000,4.000000,4.000000,4.000000,4.000000,4.000000,4.000000,4.000000,4.000000,4.000000,4.000000,4.000000,4.000000,100.000000,,,,,,,,,,,,,,,,,19.000000,0.000000,0.733695,0.174438,-0.626282,0.197571,0.991332,0.059578,0.144061,-17.138021,-33.036152,65.063271
1703161494.954454,1703161494.955248,77.000000,0.000000,4171.025879,4121.282227,4276.410156,4217.948730,4119.871582,4105.128418,4841.794922,4169.102539,4107.307617,4108.846191,4641.282227,4447.307617,4385.256348,4509.871582,6761.000000,4.000000,79.000000,,,,0.000000,4.000000,4.000000,4.000000,4.000000,4.000000,4.000000,4.000000,4.000000,4.000000,4.000000,4.000000,4.000000,4.000000,4.000000,100.000000,,,,,,,,,,,,,,,,,,,,,,,,,,,,
1703161494.962262,1703161494.963056,78.000000,0.000000,4172.948730,4125.256348,4274.102539,4224.487305,4123.077148,4109.615234,4829.871582,4167.307617,4107.051270,4107.436035,4639.102539,4447.563965,4384.102539,4510.512695,5806.000000,4.000000,79.000000,,,,0.000000,4.000000,4.000000,4.000000,4.000000,4.000000,4.000000,4.000000,4.000000,4.000000,4.000000,4.000000,4.000000,4.000000,4.000000,100.000000,,,,,,,,,,,,,,,,,,,,,,,,,,,,
1703161494.970070,1703161494.970764,79.000000,0.000000,4170.128418,4127.051270,4262.307617,4221.922852,4124.487305,4116.025879,4814.743652,4166.410156,4106.410156,4103.333496,4634.358887,4446.794922,4379.615234,4503.205078,6135.000000,4.000000,79.000000,,,,0.000000,4.000000,4.000000,4.000000,4.000000,4.000000,4.000000,4.000000,4.000000,4.000000,4.000000,4.000000,4.000000,4.000000,4.000000,100.000000,,,,,,,,,,,,,,,,,,,,,,,,,,,,
1703161494.977878,1703161494.978572,80.000000,0.000000,4171.666504,4127.179688,4261.794922,4218.461426,4121.794922,4119.615234,4797.948730,4176.282227,4120.000000,4108.205078,4642.179688,4447.307617,4387.563965,4508.077148,6563.000000,4.000000,79.000000,,,,0.000000,4.000000,4.000000,4.000000,4.000000,4.000000,4.000000,4.000000,4.000000,4.000000,4.000000,4.000000,4.000000,4.000000,4.000000,100.000000,,,,,,,,,,,,,,,,,20.000000,0.000000,0.733866,0.174377,-0.626099,0.197571,0.980588,0.063973,0.136735,-17.074219,-32.865868,65.056938
1703161494.985686,1703161494.986280,81.000000,0.000000,4170.256348,4123.974121,4265.897461,4216.794922,4123.077148,4119.102539,4781.282227,4188.717773,4134.230957,4112.948730,4642.563965,4449.743652,4385.384766,4505.256348,6761.000000,4.000000,79.000000,,,,0.000000,4.000000,4.000000,4.000000,4.000000,4.000000,4.000000,4.000000,4.000000,4.000000,4.000000,4.000000,4.000000,4.000000,4.000000,100.000000,,,,,,,,,,,,,,,,,,,,,,,,,,,,
1703161494.993494,1703161494.994088,82.000000,0.000000,4164.102539,4117.563965,4261.153809,4214.743652,4124.102539,4119.743652,4764.743652,4190.769043,4141.410156,4111.282227,4634.230957,4447.563965,4373.717773,4493.333496,5806.000000,4.000000,79.000000,,,,0.000000,4.000000,4.000000,4.000000,4.000000,4.000000,4.000000,4.000000,4.000000,4.000000,4.000000,4.000000,4.000000,4.000000,4.000000,100.000000,,,,,,,,,,,,,,,,,,,,,,,,,,,,
1703161495.001302,1703161495.001796,83.000000,0.000000,4166.794922,4123.461426,4258.205078,4216.538574,4129.230957,4121.153809,4747.307617,4190.641113,4143.589844,4113.974121,4633.717773,4445.256348,4376.410156,4500.769043,6135.000000,4.000000,79.000000,,,,0.000000,4.000000,4.000000,4.000000,4.000000,4.000000,4.000000,4.000000,4.000000,4.000000,4.000000,4.000000,4.000000,4.000000,4.000000,100.000000,,,,,,,,,,,,,,,,,,,,,,,,,,,,
1703161495.009110,1703161495.009604,84.000000,0.000000,4172.692383,4135.000000,4261.922852,4220.128418,4138.589844,4120.384766,4733.717773,4189.102539,4133.717773,4118.461426,4635.256348,4448.333496,4383.333496,4510.256348,6563.000000,4.000000,79.000000,,,,0.000000,4.000000,4.000000,4.000000,4.000000,4.000000,4.000000,4.000000,4.000000,4.000000,4.000000,4.000000,4.000000,4.000000,4.000000,100.000000,,,,,,,,,,,,,,,,,21.000000,0.000000,0.734131,0.174194,-0.625916,0.197327,0.989867,0.060066,0.141619,-17.283464,-32.795948,65.084579
1703161495.016918,1703161495.017312,85.000000,0.000000,4170.256348,4131.666504,4262.179688,4218.077148,4141.153809,4120.256348,4725.256348,4177.563965,4117.051270,4109.230957,4630.641113,4442.692383,4377.307617,4499.358887,6761.000000,4.000000,79.000000,,,,0.000000,4.000000,4.000000,4.000000,4.000000,4.000000,4.000000,4.000000,4.000000,4.000000,4.000000,4.000000,4.000000,4.000000,4.000000,100.000000,,,,,,,,,,,,,,,,,,,,,,,,,,,,
1703161495.024726,1703161495.025220,86.000000,0.000000,4166.410156,4121.538574,4260.769043,4214.615234,4138.333496,4119.743652,4716.282227,4168.205078,4105.512695,4091.794922,4624.743652,4431.153809,4370.641113,4490.897461,5806.000000,4.000000,79.000000,,,,0.000000,4.000000,4.000000,4.000000,4.000000,4.000000,4.000000,4.000000,4.000000,4.000000,4.000000,4.000000,4.000000,4.000000,4.000000,100.000000,,,,,,,,,,,,,,,,,,,,,,,,,,,,
1703161495.032534,1703161495.033028,87.000000,0.000000,4168.077148,4121.794922,4263.461426,4215.384766,4131.153809,4113.717773,4702.692383,4165.897461,4098.077148,4091.025635,4622.436035,4429.487305,4373.333496,4495.128418,6135.000000,4.000000,79.000000,,,,0.000000,4.000000,4.000000,4.000000,4.000000,4.000000,4.000000,4.000000,4.000000,4.000000,4.000000,4.000000,4.000000,4.000000,4.000000,100.000000,,,,,,,,,,,,,,,,,,,,,,,,,,,,
1703161495.040342,1703161495.040937,88.000000,0.000000,4170.000000,4123.846191,4266.153809,4216.666504,4122.179688,4107.692383,4687.179688,4159.871582,4091.538574,4093.076904,4618.846191,4433.333496,4376.025879,4494.230957,6563.000000,4.000000,79.000000,,,,0.000000,4.000000,4.000000,4.000000,4.000000,4.000000,4.000000,4.000000,4.000000,4.000000,4.000000,4.000000,4.000000,4.000000,4.000000,100.000000,,,,,,,,,,,,,,,,,22.000000,0.000000,0.734282,0.174133,-0.625793,0.197205,0.987914,0.061043,0.149921,-17.255117,-32.733021,65.026123
1703161495.048150,1703161495.048745,89.000000,0.000000,4169.743652,4120.256348,4265.256348,4216.025879,4119.230957,4105.641113,4670.000000,4152.692383,4083.589844,4081.025635,4613.077148,4433.846191,4376.794922,4491.794922,6761.000000,4.000000,79.000000,,,,0.000000,4.000000,4.000000,4.000000,4.000000,4.000000,4.000000,4.000000,4.000000,4.000000,4.000000,4.000000,4.000000,4.000000,4.000000,100.000000,,,,,,,,,,,,,,,,,,,,,,,,,,,,
1703161495.055958,1703161495.056653,90.000000,0.000000,4170.897461,4119.871582,4267.692383,4215.769043,4121.410156,4104.615234,4651.282227,4148.461426,4078.076904,4080.384521,4615.384766,4435.000000,4380.000000,4493.461426,5806.000000,4.000000,79.000000,,,,0.000000,4.000000,4.000000,4.000000,4.000000,4.000000,4.000000,4.000000,4.000000,4.000000,4.000000,4.000000,4.000000,4.000000,4.000000,100.000000,,,,,,,,,,,,,,,,,,,,,,,,,,,,
1703161495.063766,1703161495.064461,91.000000,0.000000,4171.666504,4123.333496,4269.871582,4218.205078,4119.358887,4105.000000,4634.743652,4146.025879,4081.410156,4090.512939,4621.410156,4434.102539,4382.436035,4493.205078,6135.000000,4.000000,79.000000,,,,0.000000,4.000000,4.000000,4.000000,4.000000,4.000000,4.000000,4.000000,4.000000,4.000000,4.000000,4.000000,4.000000,4.000000,4.000000,100.000000,,,,,,,,,,,,,,,,,,,,,,,,,,,,
1703161495.071574,1703161495.072368,92.000000,0.000000,4168.205078,4123.589844,4264.615234,4217.563965,4117.179688,4106.538574,4621.282227,4152.820313,4094.615479,4089.743652,4618.077148,4430.512695,4376.794922,4489.358887,6563.000000,4.000000,79.000000,,,,0.000000,4.000000,4.000000,4.000000,4.000000,4.000000,4.000000,4.000000,4.000000,4.000000,4.000000,4.000000,4.000000,4.000000,4.000000,100.000000,,,,,,,,,,,,,,,,,23.000000,0.000000,0.734443,0.173950,-0.625732,0.196960,0.989379,0.074716,0.151386,-17.162939,-32.743053,65.073509
1703161495.079382,1703161495.080176,93.000000,0.000000,4167.436035,4120.769043,4261.922852,4215.128418,4122.436035,4110.384766,4610.128418,4167.051270,4112.436035,4094.102539,4616.153809,4434.615234,4373.974121,4488.461426,6761.000000,4.000000,79.000000,,,,0.000000,4.000000,4.000000,4.000000,4.000000,4.000000,4.000000,4.000000,4.000000,4.000000,4.000000,4.000000,4.000000,4.000000,4.000000,100.000000,,,,,,,,,,,,,,,,,,,,,,,,,,,,
1703161495.087191,1703161495.088084,94.000000,0.000000,4171.153809,4120.384766,4265.769043,4218.974121,4125.512695,4117.948730,4597.692383,4179.743652,4130.256348,4107.692383,4629.102539,4442.307617,4386.153809,4496.538574,5806.000000,4.000000,79.000000,,,,0.000000,4.000000,4.000000,4.000000,4.000000,4.000000,4.000000,4.000000,4.000000,4.000000,4.000000,4.000000,4.000000,4.000000,4.000000,100.000000,,,,,,,,,,,,,,,,,,,,,,,,,,,,
1703161495.094998,1703161495.095892,95.000000,0.000000,4172.179688,4120.256348,4265.000000,4217.307617,4123.589844,4121.794922,4586.410156,4195.384766,4141.922852,4112.563965,4643.077148,4447.179688,4397.948730,4505.897461,6135.000000,4.000000,79.000000,,,,0.000000,4.000000,4.000000,4.000000,4.000000,4.000000,4.000000,4.000000,4.000000,4.000000,4.000000,4.000000,4.000000,4.000000,4.000000,100.000000,,,,,,,,,,,,,,,,,,,,,,,,,,,,
1703161495.102806,1703161495.103800,96.000000,0.000000,4177.692383,4126.410156,4264.358887,4216.794922,4129.102539,4124.102539,4576.410156,4202.436035,4144.615234,4115.641113,4647.179688,4450.897461,4400.512695,4508.846191,6563.000000,4.000000,79.000000,,,,0.000000,4.000000,4.000000,4.000000,4.000000,4.000000,4.000000,4.000000,4.000000,4.000000,4.000000,4.000000,4.000000,4.000000,4.000000,100.000000,,,,,,,,,,,,,,,,,24.000000,0.000000,0.734481,0.174011,-0.625671,0.196960,0.979612,0.060066,0.151874,-17.129978,-32.752079,65.082825
1703161495.110615,1703161495.111608,97.000000,0.000000,4187.563965,4141.410156,4274.487305,4227.436035,4139.358887,4125.897461,4563.077148,4195.512695,4143.589844,4119.615234,4642.820313,4450.769043,4396.282227,4509.487305,6761.000000,4.000000,79.000000,,,,0.000000,4.000000,4.000000,4.000000,4.000000,4.000000,4.000000,4.000000,4.000000,4.000000,4.000000,4.000000,4.000000,4.000000,4.000000,100.000000,,,,,,,,,,,,,,,,,,,,,,,,,,,,
1703161495.118423,1703161495.119416,98.000000,0.000000,4186.410156,4140.512695,4276.922852,4228.333496,4137.307617,4120.000000,4549.487305,4186.922852,4134.871582,4110.128418,4632.820313,4446.153809,4387.692383,4505.897461,5806.000000,4.000000,79.000000,,,,0.000000,4.000000,4.000000,4.000000,4.000000,4.000000,4.000000,4.000000,4.000000,4.000000,4.000000,4.000000,4.000000,4.000000,4.000000,100.000000,,,,,,,,,,,,,,,,,,,,,,,,,,,,
1703161495.126231,1703161495.127224,99.000000,0.000000,4179.743652,4126.153809,4268.333496,4217.948730,4131.153809,4111.794922,4537.692383,4178.717773,4123.205078,4103.974121,4631.410156,4443.333496,4391.922852,4503.589844,6135.000000,4.000000,79.000000,,,,0.000000,4.000000,4.000000,4.000000,4.000000,4.000000,4.000000,4.000000,4.000000,4.000000,4.000000,4.000000,4.000000,4.000000,4.000000,100.000000,,,,,,,,,,,,,,,,,,,,,,,,,,,,
1703161495.134039,1703161495.134932,100.000000,0.000000,4179.743652,4122.563965,4263.077148,4214.358887,4131.538574,4110.128418,4524.230957,4171.794922,4116.153809,4110.769043,4636.538574,4439.615234,4404.871582,4506.025879,6563.000000,4.000000,79.000000,,,,0.000000,4.000000,4.000000,4.000000,4.000000,4.000000,4.000000,4.000000,4.000000,4.000000,4.000000,4.000000,4.000000,4.000000,4.000000,100.000000,,,,,,,,,,,,,,,,,25.000000,0.000000,0.734514,0.173950,-0.625610,0.197083,0.988402,0.054694,0.153827,-17.183647,-32.760204,65.041206
1703161495.141847,1703161495.142740,101.000000,0.000000,4172.307617,4121.282227,4256.025879,4212.179688,4126.153809,4107.436035,4506.153809,4164.487305,4104.230957,4102.692383,4625.128418,4425.512695,4391.410156,4495.000000,6761.000000,4.000000,79.000000,,,,0.000000,4.000000,4.000000,4.000000,4.000000,4.000000,4.000000,4.000000,4.000000,4.000000,4.000000,4.000000,4.000000,4.000000,4.000000,100.000000,,,,,,,,,,,,,,,,,,,,,,,,,,,,
1703161495.149655,1703161495.150448,102.000000,0.000000,4162.051270,4110.000000,4251.410156,4204.615234,4112.051270,4099.871582,4490.384766,4154.487305,4088.846191,4083.333252,4611.538574,4420.641113,4375.128418,4482.179688,5806.000000,4.000000,79.000000,,,,0.000000,4.000000,4.000000,4.000000,4.000000,4.000000,4.000000,4.000000,4.000000,4.000000,4.000000,4.000000,4.000000,4.000000,4.000000,100.000000,,,,,,,,,,,,,,,,,,,,,,,,,,,,
1703161495.157463,1703161495.158256,103.000000,0.000000,4173.717773,4114.230957,4265.512695,4211.922852,4110.769043,4098.461426,4480.769043,4152.692383,4087.820557,4089.102539,4620.897461,4436.153809,4390.256348,4495.512695,6135.000000,4.000000,79.000000,,,,0.000000,4.000000,4.000000,4.000000,4.000000,4.000000,4.000000,4.000000,4.000000,4.000000,4.000000,4.000000,4.000000,4.000000,4.000000,100.000000,,,,,,,,,,,,,,,,,,,,,,,,,,,,
1703161495.165271,1703161495.165964,104.000000,0.000000,4189.358887,4133.846191,4277.179688,4226.538574,4122.179688,4103.589844,4470.256348,4160.769043,4097.307617,4107.820313,4632.820313,4444.230957,4404.230957,4510.641113,6563.000000,4.000000,79.000000,,,,0.000000,4.000000,4.000000,4.000000,4.000000,4.000000,4.000000,4.000000,4.000000,4.000000,4.000000,4.000000,4.000000,4.000000,4.000000,100.000000,,,,,,,,,,,,,,,,,26.000000,0.000000,0.734529,0.173889,-0.625610,0.197083,0.975217,0.053717,0.149921,-17.165283,-32.867519,64.987091
1703161495.173079,1703161495.173772,105.000000,0.000000,4185.512695,4136.922852,4267.436035,4227.179688,4126.794922,4107.436035,4456.922852,4170.256348,4107.563965,4109.102539,4632.436035,4438.589844,4399.102539,4507.820313,6761.000000,4.000000,79.000000,,,,0.000000,4.000000,4.000000,4.000000,4.000000,4.000000,4.000000,4.000000,4.000000,4.000000,4.000000,4.000000,4.000000,4.000000,4.000000,100.000000,,,,,,,,,,,,,,,,,,,,,,,,,,,,
1703161495.180887,1703161495.181480,106.000000,0.000000,4179.743652,4131.794922,4261.794922,4220.256348,4124.358887,4111.410156,4448.205078,4182.948730,4128.461426,4107.948730,4636.282227,4440.000000,4394.487305,4502.436035,5806.000000,4.000000,79.000000,,,,0.000000,4.000000,4.000000,4.000000,4.000000,4.000000,4.000000,4.000000,4.000000,4.000000,4.000000,4.000000,4.000000,4.000000,4.000000,100.000000,,,,,,,,,,,,,,,,,,,,,,,,,,,,
1703161495.188695,1703161495.189288,107.000000,0.000000,4180.769043,4132.692383,4270.512695,4216.922852,4128.205078,4113.333496,4440.256348,4192.563965,4144.358887,4118.077148,4639.871582,4448.846191,4398.846191,4503.333496,6135.000000,4.000000,79.000000,,,,0.000000,4.000000,4.000000,4.000000,4.000000,4.000000,4.000000,4.000000,4.000000,4.000000,4.000000,4.000000,4.000000,4.000000,4.000000,100.000000,,,,,,,,,,,,,,,,,,,,,,,,,,,,
1703161495.196503,1703161495.196996,108.000000,0.000000,4185.384766,4136.538574,4277.820313,4224.230957,4135.897461,4113.205078,4424.358887,4189.230957,4138.717773,4125.384766,4639.615234,4453.077148,4411.410156,4514.487305,6563.000000,4.000000,79.000000,,,,0.000000,4.000000,4.000000,4.000000,4.000000,4.000000,4.000000,4.000000,4.000000,4.000000,4.000000,4.000000,4.000000,4.000000,4.000000,100.000000,,,,,,,,,,,,,,,,,27.000000,0.000000,0.734643,0.173767,-0.625549,0.196960,0.992309,0.052252,0.158711,-17.215422,-32.897434,65.038383
1703161495.204311,1703161495.204804,109.000000,0.000000,4196.410156,4147.179688,4280.897461,4234.487305,4138.205078,4117.179688,4408.205078,4187.692383,4133.333496,4124.487305,4648.205078,4453.077148,4421.410156,4528.717773,6761.000000,4.000000,79.000000,,,,0.000000,4.000000,4.000000,4.000000,4.000000,4.000000,4.000000,4.000000,4.000000,4.000000,4.000000,4.000000,4.000000,4.000000,4.000000,100.000000,,,,,,,,,,,,,,,,,,,,,,,,,,,,
1703161495.212119,1703161495.212512,110.000000,0.000000,4196.025879,4153.205078,4279.487305,4235.897461,4137.307617,4118.333496,4399.102539,4187.563965,4133.717773,4115.384766,4647.948730,4450.641113,4414.615234,4522.179688,5806.000000,4.000000,79.000000,,,,0.000000,4.000000,4.000000,4.000000,4.000000,4.000000,4.000000,4.000000,4.000000,4.000000,4.000000,4.000000,4.000000,4.000000,4.000000,100.000000,,,,,,,,,,,,,,,,,,,,,,,,,,,,
1703161495.219927,1703161495.220420,111.000000,0.000000,4184.871582,4143.717773,4276.153809,4231.666504,4135.384766,4115.256348,4391.410156,4178.205078,4128.461426,4111.922852,4636.666504,4445.512695,4409.102539,4508.717773,6135.000000,4.000000,79.000000,,,,0.000000,4.000000,4.000000,4.000000,4.000000,4.000000,4.000000,4.000000,4.000000,4.000000,4.000000,4.000000,4.000000,4.000000,4.000000,100.000000,,,,,,,,,,,,,,,,,,,,,,,,,,,,
1703161495.227735,1703161495.228229,112.000000,0.000000,4189.743652,4138.846191,4281.153809,4232.948730,4128.846191,4117.179688,4384.743652,4170.000000,4119.487305,4120.641113,4634.487305,4445.128418,4414.615234,4515.384766,6563.000000,4.000000,79.000000,,,,0.000000,4.000000,4.000000,4.000000,4.000000,4.000000,4.000000,4.000000,4.000000,4.000000,4.000000,4.000000,4.000000,4.000000,4.000000,100.000000,,,,,,,,,,,,,,,,,28.000000,0.000000,0.734895,0.173706,-0.625366,0.196655,0.984984,0.060554,0.148456,-17.210546,-32.891022,65.167877
1703161495.235543,1703161495.236136,113.000000,0.000000,4196.666504,4143.717773,4286.922852,4233.717773,4125.000000,4120.512695,4379.871582,4168.333496,4111.025879,4118.205078,4639.487305,4451.025879,4414.358887,4523.846191,6761.000000,4.000000,79.000000,,,,0.000000,4.000000,4.000000,4.000000,4.000000,4.000000,4.000000,4.000000,4.000000,4.000000,4.000000,4.000000,4.000000,4.000000,4.000000,100.000000,,,,,,,,,,,,,,,,,,,,,,,,,,,,
1703161495.243351,1703161495.243944,114.000000,0.000000,4188.461426,4139.743652,4283.717773,4230.128418,4130.641113,4117.692383,4372.692383,4166.153809,4105.512695,4106.794922,4646.025879,4458.461426,4418.205078,4522.692383,5806.000000,4.000000,79.000000,,,,0.000000,4.000000,4.000000,4.000000,4.000000,4.000000,4.000000,4.000000,4.000000,4.000000,4.000000,4.000000,4.000000,4.000000,4.000000,100.000000,,,,,,,,,,,,,,,,,,,,,,,,,,,,
1703161495.251160,1703161495.251852,115.000000,0.000000,4186.282227,4135.384766,4284.358887,4229.871582,4133.589844,4113.589844,4362.563965,4169.487305,4106.922852,4109.615234,4655.641113,4461.922852,4426.025879,4526.282227,6135.000000,4.000000,79.000000,,,,0.000000,4.000000,4.000000,4.000000,4.000000,4.000000,4.000000,4.000000,4.000000,4.000000,4.000000,4.000000,4.000000,4.000000,4.000000,100.000000,,,,,,,,,,,,,,,,,,,,,,,,,,,,
1703161495.258968,1703161495.259660,116.000000,0.000000,4190.641113,4134.358887,4286.025879,4226.538574,4125.769043,4110.897461,4348.589844,4177.307617,4108.974121,4114.358887,4653.205078,4458.461426,4419.615234,4525.641113,6563.000000,4.000000,79.000000,,,,0.000000,4.000000,4.000000,4.000000,4.000000,4.000000,4.000000,4.000000,4.000000,4.000000,4.000000,4.000000,4.000000,4.000000,4.000000,100.000000,,,,,,,,,,,,,,,,,29.000000,0.000000,0.734963,0.173706,-0.625305,0.196594,0.980588,0.055671,0.137712,-17.172825,-32.835255,65.251091
1703161495.266775,1703161495.267568,117.000000,0.000000,4180.897461,4124.871582,4272.692383,4217.436035,4120.384766,4108.205078,4332.820313,4174.743652,4104.743652,4105.897461,4634.615234,4446.922852,4399.743652,4511.538574,6761.000000,4.000000,79.000000,,,,0.000000,4.000000,4.000000,4.000000,4.000000,4.000000,4.000000,4.000000,4.000000,4.000000,4.000000,4.000000,4.000000,4.000000,4.000000,100.000000,,,,,,,,,,,,,,,,,,,,,,,,,,,,
1703161495.274584,1703161495.275376,118.000000,0.000000,4166.153809,4120.128418,4260.769043,4210.769043,4120.897461,4113.333496,4320.897461,4169.615234,4103.974121,4100.000000,4625.000000,4434.487305,4392.051270,4498.333496,5806.000000,4.000000,79.000000,,,,0.000000,4.000000,4.000000,4.000000,4.000000,4.000000,4.000000,4.000000,4.000000,4.000000,4.000000,4.000000,4.000000,4.000000,4.000000,100.000000,,,,,,,,,,,,,,,,,,,,,,,,,,,,
1703161495.282392,1703161495.283284,119.000000,0.000000,4158.333496,4123.717773,4261.922852,4211.410156,4123.205078,4119.871582,4310.128418,4179.487305,4112.436035,4101.538574,4623.974121,4431.025879,4394.230957,4494.358887,6135.000000,4.000000,79.000000,,,,0.000000,4.000000,4.000000,4.000000,4.000000,4.000000,4.000000,4.000000,4.000000,4.000000,4.000000,4.000000,4.000000,4.000000,4.000000,100.000000,,,,,,,,,,,,,,,,,,,,,,,,,,,,
1703161495.290200,1703161495.291092,120.000000,0.000000,4151.410156,4117.307617,4258.589844,4208.846191,4127.692383,4121.282227,4297.051270,4188.974121,4123.461426,4103.461426,4621.794922,4432.563965,4388.589844,4489.743652,6563.000000,4.000000,79.000000,,,,0.000000,4.000000,4.000000,4.000000,4.000000,4.000000,4.000000,4.000000,4.000000,4.000000,4.000000,4.000000,4.000000,4.000000,4.000000,100.000000,,,,,,,,,,,,,,,,,30.000000,0.000000,0.735204,0.173828,-0.625122,0.196167,0.983518,0.074228,0.146502,-17.172209,-32.785061,65.275978
1703161495.298008,1703161495.299000,121.000000,0.000000,4150.769043,4113.333496,4255.128418,4205.769043,4126.282227,4121.538574,4285.512695,4185.128418,4128.461426,4106.922852,4627.436035,4436.282227,4390.384766,4491.153809,6761.000000,4.000000,79.000000,,,,0.000000,4.000000,4.000000,4.000000,4.000000,4.000000,4.000000,4.000000,4.000000,4.000000,4.000000,4.000000,4.000000,4.000000,4.000000,100.000000,1.000000,66.666664,4.000000,4.000000,4.000000,4.000000,4.000000,4.000000,0.000000,4.000000,4.000000,4.000000,4.000000,4.000000,4.000000,4.000000,,,,,,,,,,,,
1703161495.305816,1703161495.306808,122.000000,0.000000,4161.922852,4129.358887,4262.179688,4212.948730,4123.461426,4120.769043,4274.358887,4183.717773,4125.641113,4109.743652,4632.692383,4441.538574,4400.128418,4497.820313,5806.000000,4.000000,79.000000,,,,0.000000,4.000000,4.000000,4.000000,4.000000,4.000000,4.000000,4.000000,4.000000,4.000000,4.000000,4.000000,4.000000,4.000000,4.000000,100.000000,,,,,,,,,,,,,,,,,,,,,,,,,,,,
1703161495.313624,1703161495.314516,123.000000,0.000000,4166.025879,4137.436035,4266.794922,4221.922852,4135.000000,4120.769043,4264.230957,4186.410156,4125.384766,4110.897461,4628.077148,4441.666504,4400.769043,4498.717773,6135.000000,4.000000,79.000000,,,,0.000000,4.000000,4.000000,4.000000,4.000000,4.000000,4.000000,4.000000,4.000000,4.000000,4.000000,4.000000,4.000000,4.000000,4.000000,100.000000,,,,,,,,,,,,,,,,,,,,,,,,,,,,
1703161495.321432,1703161495.322324,124.000000,0.000000,4160.128418,4125.000000,4265.128418,4219.743652,4140.897461,4118.461426,4258.461426,4179.487305,4122.436035,4108.717773,4627.563965,4437.692383,4402.179688,4502.563965,6563.000000,4.000000,79.000000,,,,0.000000,4.000000,4.000000,4.000000,4.000000,4.000000,4.000000,4.000000,4.000000,4.000000,4.000000,4.000000,4.000000,4.000000,4.000000,100.000000,,,,,,,,,,,,,,,,,31.000000,0.000000,0.735400,0.174194,-0.625000,0.195496,0.986937,0.072274,0.153827,-17.071655,-32.773224,65.115051
1703161495.329240,1703161495.330032,125.000000,0.000000,4158.589844,4119.102539,4263.717773,4213.461426,4127.948730,4112.948730,4248.974121,4169.358887,4112.692383,4105.384766,4634.358887,4432.820313,4409.615234,4506.153809,6761.000000,4.000000,79.000000,,,,0.000000,4.000000,4.000000,4.000000,4.000000,4.000000,4.000000,4.000000,4.000000,4.000000,4.000000,4.000000,4.000000,4.000000,4.000000,100.000000,,,,,,,,,,,,,,,,,,,,,,,,,,,,
1703161495.337048,1703161495.337840,126.000000,0.000000,4157.436035,4122.307617,4261.282227,4213.974121,4119.230957,4108.974121,4237.436035,4167.051270,4103.205078,4104.615234,4632.179688,4430.641113,4405.641113,4501.153809,5806.000000,4.000000,79.000000,,,,0.000000,4.000000,4.000000,4.000000,4.000000,4.000000,4.000000,4.000000,4.000000,4.000000,4.000000,4.000000,4.000000,4.000000,4.000000,100.000000,,,,,,,,,,,,,,,,,,,,,,,,,,,,
1703161495.344856,1703161495.345548,127.000000,0.000000,4158.461426,4119.102539,4263.461426,4214.615234,4122.307617,4108.077148,4231.922852,4170.256348,4096.922852,4104.743652,4632.307617,4438.077148,4400.384766,4503.589844,79.000000,4.000000,79.000000,,,,0.000000,4.000000,4.000000,4.000000,4.000000,4.000000,4.000000,4.000000,4.000000,4.000000,4.000000,4.000000,4.000000,4.000000,4.000000,100.000000,,,,,,,,,,,,,,,,,,,,,,,,,,,,
1703161495.352664,1703161495.353456,0.000000,0.000000,4164.358887,4119.615234,4270.384766,4214.871582,4121.794922,4106.922852,4223.205078,4166.666504,4091.025635,4102.692383,4634.871582,4444.615234,4405.128418,4507.692383,5255.000000,4.000000,79.000000,,,,0.000000,4.000000,4.000000,4.000000,4.000000,4.000000,4.000000,4.000000,4.000000,4.000000,4.000000,4.000000,4.000000,4.000000,4.000000,100.000000,,,,,,,,,,,,,,,,,0.000000,0.000000,0.735517,0.174316,-0.625000,0.194946,0.988402,0.069344,0.146991,-17.131155,-32.862568,65.153542
1703161495.360472,1703161495.361264,1.000000,0.000000,4161.666504,4123.846191,4269.102539,4214.615234,4124.230957,4106.282227,4208.077148,4156.922852,4087.051270,4099.871582,4624.358887,4436.666504,4398.846191,4498.205078,5342.000000,4.000000,79.000000,,,,0.000000,4.000000,4.000000,4.000000,4.000000,4.000000,4.000000,4.000000,4.000000,4.000000,4.000000,4.000000,4.000000,4.000000,4.000000,100.000000,,,,,,,,,,,,,,,,,,,,,,,,,,,,
1703161495.368280,1703161495.369172,2.000000,0.000000,4154.615234,4125.384766,4263.589844,4214.743652,4130.128418,4112.307617,4197.692383,4154.615234,4093.205078,4102.948730,4622.692383,4428.974121,4398.589844,4495.000000,5268.000000,4.000000,79.000000,,,,0.000000,4.000000,4.000000,4.000000,4.000000,4.000000,4.000000,4.000000,4.000000,4.000000,4.000000,4.000000,4.000000,4.000000,4.000000,100.000000,,,,,,,,,,,,,,,,,,,,,,,,,,,,
1703161495.376088,1703161495.376981,3.000000,0.000000,4157.051270,4129.487305,4261.025879,4217.179688,4128.333496,4120.641113,4190.256348,4163.846191,4103.589844,4108.205078,4633.077148,4430.769043,4411.410156,4501.282227,5250.000000,4.000000,79.000000,,,,0.000000,4.000000,4.000000,4.000000,4.000000,4.000000,4.000000,4.000000,4.000000,4.000000,4.000000,4.000000,4.000000,4.000000,4.000000,100.000000,,,,,,,,,,,,,,,,,,,,,,,,,,,,
1703161495.383896,1703161495.384789,4.000000,0.000000,4159.230957,4130.128418,4258.846191,4216.922852,4129.358887,4126.538574,4179.615234,4170.897461,4111.666504,4109.615234,4635.128418,4431.025879,4415.000000,4501.153809,5091.000000,4.000000,79.000000,,,,0.000000,4.000000,4.000000,4.000000,4.000000,4.000000,4.000000,4.000000,4.000000,4.000000,4.000000,4.000000,4.000000,4.000000,4.000000,100.000000,,,,,,,,,,,,,,,,,1.000000,0.000000,0.735675,0.174072,-0.624939,0.194763,0.985960,0.071298,0.150409,-17.218040,-32.809643,65.271523
1703161495.391704,1703161495.392497,5.000000,0.000000,4155.769043,4125.256348,4258.589844,4213.846191,4136.538574,4126.025879,4168.461426,4171.794922,4118.974121,4109.230957,4631.794922,4429.743652,4411.666504,4501.153809,5153.000000,4.000000,79.000000,,,,0.000000,4.000000,4.000000,4.000000,4.000000,4.000000,4.000000,4.000000,4.000000,4.000000,4.000000,4.000000,4.000000,4.000000,4.000000,100.000000,,,,,,,,,,,,,,,,,,,,,,,,,,,,
1703161495.399512,1703161495.400305,6.000000,0.000000,4149.487305,4122.307617,4258.333496,4213.461426,4138.333496,4118.461426,4155.384766,4173.974121,4123.974121,4107.563965,4627.820313,4429.743652,4403.077148,4496.282227,5033.000000,4.000000,79.000000,,,,0.000000,4.000000,4.000000,4.000000,4.000000,4.000000,4.000000,4.000000,4.000000,4.000000,4.000000,4.000000,4.000000,4.000000,4.000000,100.000000,,,,,,,,,,,,,,,,,,,,,,,,,,,,
1703161495.407320,1703161495.408013,7.000000,0.000000,4144.487305,4121.153809,4255.384766,4215.128418,4136.922852,4115.384766,4140.384766,4174.487305,4123.333496,4107.179688,4619.358887,4427.179688,4392.563965,4485.384766,5242.000000,4.000000,79.000000,,,,0.000000,4.000000,4.000000,4.000000,4.000000,4.000000,4.000000,4.000000,4.000000,4.000000,4.000000,4.000000,4.000000,4.000000,4.000000,100.000000,,,,,,,,,,,,,,,,,,,,,,,,,,,,
1703161495.415129,1703161495.415921,8.000000,0.000000,4149.358887,4122.436035,4257.820313,4216.282227,4139.102539,4120.897461,4136.794922,4171.025879,4122.179688,4108.717773,4617.820313,4426.153809,4394.743652,4487.563965,5016.000000,4.000000,79.000000,,,,0.000000,4.000000,4.000000,4.000000,4.000000,4.000000,4.000000,4.000000,4.000000,4.000000,4.000000,4.000000,4.000000,4.000000,4.000000,100.000000,,,,,,,,,,,,,,,,,2.000000,0.000000,0.735528,0.173828,-0.625122,0.194946,0.985472,0.062019,0.158222,-17.462902,-32.628677,65.361038
1703161495.422937,1703161495.423729,9.000000,0.000000,4155.897461,4123.846191,4264.358887,4215.641113,4139.102539,4123.589844,4139.358887,4168.589844,4121.025879,4107.820313,4619.743652,4427.307617,4396.538574,4493.846191,5237.000000,4.000000,79.000000,,,,0.000000,4.000000,4.000000,4.000000,4.000000,4.000000,4.000000,4.000000,4.000000,4.000000,4.000000,4.000000,4.000000,4.000000,4.000000,100.000000,,,,,,,,,,,,,,,,,,,,,,,,,,,,
1703161495.430745,1703161495.431637,10.000000,0.000000,4154.358887,4122.436035,4263.461426,4215.000000,4130.641113,4117.563965,4132.436035,4167.948730,4115.000000,4107.307617,4613.205078,4428.205078,4386.538574,4490.256348,5808.000000,4.000000,79.000000,,,,0.000000,4.000000,4.000000,4.000000,4.000000,4.000000,4.000000,4.000000,4.000000,4.000000,4.000000,4.000000,4.000000,4.000000,4.000000,100.000000,,,,,,,,,,,,,,,,,,,,,,,,,,,,
1703161495.438553,1703161495.439445,11.000000,0.000000,4151.025879,4120.897461,4258.077148,4217.692383,4124.487305,4112.307617,4124.487305,4169.871582,4109.358887,4108.333496,4617.948730,4429.358887,4386.666504,4490.384766,6135.000000,4.000000,79.000000,,,,0.000000,4.000000,4.000000,4.000000,4.000000,4.000000,4.000000,4.000000,4.000000,4.000000,4.000000,4.000000,4.000000,4.000000,4.000000,100.000000,,,,,,,,,,,,,,,,,,,,,,,,,,,,
