title:رشيد اسفل, start timestamp:1703406527.528377, stop timestamp:1703406538.264446, headset type:EPOCX, headset serial:E50206EF, headset firmware:720, channels:67, sampling rate:eeg_128;mot_32, samples:1376      , version:2.2, 
Timestamp,OriginalTimestamp,EEG.Counter,EEG.Interpolated,EEG.AF3,EEG.F7,EEG.F3,EEG.FC5,EEG.T7,EEG.P7,EEG.O1,EEG.O2,EEG.P8,EEG.T8,EEG.FC6,EEG.F4,EEG.F8,EEG.AF4,EEG.RawCq,EEG.Battery,EEG.BatteryPercent,MarkerIndex,MarkerType,MarkerValueInt,EEG.MarkerHardware,CQ.AF3,CQ.F7,CQ.F3,CQ.FC5,CQ.T7,CQ.P7,CQ.O1,CQ.O2,CQ.P8,CQ.T8,CQ.FC6,CQ.F4,CQ.F8,CQ.AF4,CQ.Overall,EQ.SampleRateQuality,EQ.OVERALL,EQ.AF3,EQ.F7,EQ.F3,EQ.FC5,EQ.T7,EQ.P7,EQ.O1,EQ.O2,EQ.P8,EQ.T8,EQ.FC6,EQ.F4,EQ.F8,EQ.AF4,MOT.CounterMems,MOT.InterpolatedMems,MOT.Q0,MOT.Q1,MOT.Q2,MOT.Q3,MOT.AccX,MOT.AccY,MOT.AccZ,MOT.MagX,MOT.MagY,MOT.MagZ
1703406527.528377,1703406527.528444,45.000000,0.000000,4169.102539,4142.820313,4272.820313,4236.025879,4155.769043,4170.769043,4198.333496,4162.563965,4147.307617,4156.282227,4596.410156,4437.436035,4366.666504,4479.487305,0.000000,4.000000,78.000000,,,,0.000000,4.000000,4.000000,4.000000,4.000000,4.000000,4.000000,4.000000,4.000000,4.000000,4.000000,4.000000,4.000000,4.000000,4.000000,100.000000,,,,,,,,,,,,,,,,,,,,,,,,,,,,
1703406527.536185,1703406527.536152,46.000000,0.000000,4159.230957,4134.487305,4261.153809,4232.692383,4156.025879,4169.487305,4196.153809,4167.820313,4151.282227,4153.717773,4590.641113,4434.102539,4357.948730,4476.410156,0.000000,4.000000,78.000000,,,,0.000000,4.000000,4.000000,4.000000,4.000000,4.000000,4.000000,4.000000,4.000000,4.000000,4.000000,4.000000,4.000000,4.000000,4.000000,100.000000,,,,,,,,,,,,,,,,,,,,,,,,,,,,
1703406527.543993,1703406527.543960,47.000000,0.000000,4152.948730,4132.307617,4255.256348,4228.205078,4155.000000,4169.743652,4204.230957,4169.102539,4151.666504,4150.384766,4587.307617,4427.692383,4355.256348,4473.205078,0.000000,4.000000,78.000000,,,,0.000000,4.000000,4.000000,4.000000,4.000000,4.000000,4.000000,4.000000,4.000000,4.000000,4.000000,4.000000,4.000000,4.000000,4.000000,100.000000,,,,,,,,,,,,,,,,,,,,,,,,,,,,
1703406527.551801,1703406527.551668,48.000000,0.000000,4159.102539,4136.666504,4261.410156,4231.410156,4156.410156,4173.077148,4211.794922,4170.641113,4151.922852,4146.538574,4590.769043,4430.128418,4360.000000,4478.333496,0.000000,4.000000,78.000000,,,,0.000000,4.000000,4.000000,4.000000,4.000000,4.000000,4.000000,4.000000,4.000000,4.000000,4.000000,4.000000,4.000000,4.000000,4.000000,100.000000,,,,,,,,,,,,,,,,,12.000000,0.000000,0.594855,0.281067,-0.644897,0.388916,0.985472,-0.165059,0.010255,-12.367829,-44.423084,63.510796
1703406527.559609,1703406527.559576,49.000000,0.000000,4157.563965,4128.461426,4258.205078,4227.948730,4155.512695,4173.846191,4207.820313,4164.358887,4146.666504,4137.051270,4582.436035,4424.230957,4346.922852,4471.666504,0.000000,4.000000,78.000000,,,,0.000000,4.000000,4.000000,4.000000,4.000000,4.000000,4.000000,4.000000,4.000000,4.000000,4.000000,4.000000,4.000000,4.000000,4.000000,100.000000,,,,,,,,,,,,,,,,,,,,,,,,,,,,
1703406527.567417,1703406527.567384,50.000000,0.000000,4146.410156,4117.307617,4249.743652,4217.692383,4151.666504,4169.102539,4205.512695,4156.538574,4138.589844,4126.922852,4568.717773,4411.538574,4333.077148,4456.794922,0.000000,4.000000,78.000000,,,,0.000000,4.000000,4.000000,4.000000,4.000000,4.000000,4.000000,4.000000,4.000000,4.000000,4.000000,4.000000,4.000000,4.000000,4.000000,100.000000,,,,,,,,,,,,,,,,,,,,,,,,,,,,
1703406527.575225,1703406527.575292,51.000000,0.000000,4151.282227,4126.922852,4251.538574,4223.461426,4154.358887,4168.333496,4206.282227,4155.897461,4138.717773,4128.077148,4572.051270,4412.179688,4341.282227,4462.820313,0.000000,4.000000,78.000000,,,,0.000000,4.000000,4.000000,4.000000,4.000000,4.000000,4.000000,4.000000,4.000000,4.000000,4.000000,4.000000,4.000000,4.000000,4.000000,100.000000,,,,,,,,,,,,,,,,,,,,,,,,,,,,
1703406527.583033,1703406527.583100,52.000000,0.000000,4165.641113,4140.897461,4256.794922,4236.538574,4157.563965,4169.358887,4200.256348,4150.512695,4140.769043,4136.025879,4581.922852,4417.692383,4351.666504,4476.282227,0.000000,4.000000,78.000000,,,,0.000000,4.000000,4.000000,4.000000,4.000000,4.000000,4.000000,4.000000,4.000000,4.000000,4.000000,4.000000,4.000000,4.000000,4.000000,100.000000,,,,,,,,,,,,,,,,,13.000000,0.000000,0.594957,0.281189,-0.644897,0.388672,0.967403,-0.170431,0.019045,-12.547713,-44.430775,63.509716
1703406527.590841,1703406527.591008,53.000000,0.000000,4169.102539,4141.538574,4258.589844,4233.717773,4154.102539,4163.589844,4195.897461,4137.692383,4139.230957,4142.563965,4584.743652,4418.461426,4355.128418,4477.179688,0.000000,4.000000,78.000000,,,,0.000000,4.000000,4.000000,4.000000,4.000000,4.000000,4.000000,4.000000,4.000000,4.000000,4.000000,4.000000,4.000000,4.000000,4.000000,100.000000,,,,,,,,,,,,,,,,,,,,,,,,,,,,
1703406527.598649,1703406527.598816,54.000000,0.000000,4173.717773,4148.333496,4267.307617,4235.897461,4154.487305,4161.794922,4200.897461,4139.487305,4142.820313,4149.487305,4593.205078,4430.512695,4364.230957,4485.897461,0.000000,4.000000,78.000000,,,,0.000000,4.000000,4.000000,4.000000,4.000000,4.000000,4.000000,4.000000,4.000000,4.000000,4.000000,4.000000,4.000000,4.000000,4.000000,100.000000,,,,,,,,,,,,,,,,,,,,,,,,,,,,
1703406527.606457,1703406527.606724,55.000000,0.000000,4185.897461,4161.666504,4276.153809,4249.743652,4159.487305,4165.256348,4200.256348,4149.615234,4145.000000,4154.230957,4604.487305,4443.077148,4374.230957,4500.512695,0.000000,4.000000,78.000000,,,,0.000000,4.000000,4.000000,4.000000,4.000000,4.000000,4.000000,4.000000,4.000000,4.000000,4.000000,4.000000,4.000000,4.000000,4.000000,100.000000,,,,,,,,,,,,,,,,,,,,,,,,,,,,
1703406527.614265,1703406527.614532,56.000000,0.000000,4188.846191,4161.153809,4272.820313,4245.641113,4158.461426,4160.128418,4190.897461,4147.179688,4138.205078,4153.589844,4601.922852,4438.205078,4377.307617,4498.077148,0.000000,4.000000,78.000000,,,,0.000000,4.000000,4.000000,4.000000,4.000000,4.000000,4.000000,4.000000,4.000000,4.000000,4.000000,4.000000,4.000000,4.000000,4.000000,100.000000,,,,,,,,,,,,,,,,,14.000000,0.000000,0.595134,0.281433,-0.644775,0.388428,0.978635,-0.147967,0.007813,-12.659609,-44.604362,63.375412
1703406527.622073,1703406527.622440,57.000000,0.000000,4185.128418,4149.871582,4266.922852,4230.897461,4153.589844,4153.974121,4190.769043,4148.589844,4140.128418,4148.846191,4599.358887,4432.692383,4374.487305,4491.794922,0.000000,4.000000,78.000000,,,,0.000000,4.000000,4.000000,4.000000,4.000000,4.000000,4.000000,4.000000,4.000000,4.000000,4.000000,4.000000,4.000000,4.000000,4.000000,100.000000,,,,,,,,,,,,,,,,,,,,,,,,,,,,
1703406527.629881,1703406527.630248,58.000000,0.000000,4183.077148,4143.589844,4266.025879,4232.692383,4154.743652,4156.025879,4200.256348,4162.436035,4151.538574,4142.051270,4601.282227,4435.000000,4367.179688,4495.128418,0.000000,4.000000,78.000000,,,,0.000000,4.000000,4.000000,4.000000,4.000000,4.000000,4.000000,4.000000,4.000000,4.000000,4.000000,4.000000,4.000000,4.000000,4.000000,100.000000,,,,,,,,,,,,,,,,,,,,,,,,,,,,
1703406527.637689,1703406527.638156,59.000000,0.000000,4175.128418,4138.589844,4262.179688,4233.333496,4155.128418,4159.102539,4205.000000,4170.384766,4151.410156,4137.820313,4592.051270,4431.794922,4356.282227,4489.743652,0.000000,4.000000,78.000000,,,,0.000000,4.000000,4.000000,4.000000,4.000000,4.000000,4.000000,4.000000,4.000000,4.000000,4.000000,4.000000,4.000000,4.000000,4.000000,100.000000,,,,,,,,,,,,,,,,,,,,,,,,,,,,
1703406527.645497,1703406527.645963,60.000000,0.000000,4166.282227,4132.307617,4254.230957,4219.615234,4148.333496,4160.256348,4208.717773,4171.410156,4143.333496,4136.025879,4583.077148,4423.589844,4346.794922,4478.846191,0.000000,4.000000,78.000000,,,,0.000000,4.000000,4.000000,4.000000,4.000000,4.000000,4.000000,4.000000,4.000000,4.000000,4.000000,4.000000,4.000000,4.000000,4.000000,100.000000,,,,,,,,,,,,,,,,,15.000000,0.000000,0.595087,0.281616,-0.644775,0.388367,0.968868,-0.160664,0.017092,-12.610314,-44.627262,63.321205
1703406527.653305,1703406527.653672,61.000000,0.000000,4167.179688,4130.897461,4250.384766,4211.410156,4144.487305,4159.358887,4214.102539,4168.717773,4140.641113,4125.256348,4583.974121,4418.333496,4345.641113,4477.692383,0.000000,4.000000,78.000000,,,,0.000000,4.000000,4.000000,4.000000,4.000000,4.000000,4.000000,4.000000,4.000000,4.000000,4.000000,4.000000,4.000000,4.000000,4.000000,100.000000,,,,,,,,,,,,,,,,,,,,,,,,,,,,
1703406527.661114,1703406527.661480,62.000000,0.000000,4165.000000,4133.333496,4248.974121,4216.922852,4149.102539,4155.256348,4210.000000,4158.461426,4138.589844,4115.000000,4580.128418,4413.205078,4345.512695,4476.538574,0.000000,4.000000,78.000000,,,,0.000000,4.000000,4.000000,4.000000,4.000000,4.000000,4.000000,4.000000,4.000000,4.000000,4.000000,4.000000,4.000000,4.000000,4.000000,100.000000,,,,,,,,,,,,,,,,,,,,,,,,,,,,
1703406527.668922,1703406527.669188,63.000000,0.000000,4165.769043,4136.538574,4249.615234,4219.487305,4153.205078,4153.205078,4200.512695,4151.666504,4137.820313,4123.974121,4576.153809,4413.589844,4343.589844,4477.436035,0.000000,4.000000,78.000000,,,,0.000000,4.000000,4.000000,4.000000,4.000000,4.000000,4.000000,4.000000,4.000000,4.000000,4.000000,4.000000,4.000000,4.000000,4.000000,100.000000,,,,,,,,,,,,,,,,,,,,,,,,,,,,
1703406527.676730,1703406527.676996,64.000000,0.000000,4175.897461,4137.307617,4253.974121,4217.820313,4151.922852,4153.077148,4199.615234,4152.563965,4139.871582,4137.948730,4581.410156,4420.512695,4346.922852,4485.000000,4622.000000,4.000000,78.000000,,,,0.000000,4.000000,4.000000,4.000000,4.000000,4.000000,4.000000,4.000000,4.000000,4.000000,4.000000,4.000000,4.000000,4.000000,4.000000,100.000000,,,,,,,,,,,,,,,,,16.000000,0.000000,0.595423,0.281494,-0.644592,0.388245,0.985472,-0.160664,0.015139,-12.615950,-44.647869,63.439083
1703406527.684538,1703406527.684704,65.000000,0.000000,4184.358887,4141.025879,4261.538574,4222.436035,4150.897461,4153.077148,4200.128418,4148.333496,4138.333496,4138.717773,4589.487305,4426.025879,4358.205078,4492.051270,5218.000000,4.000000,78.000000,,,,0.000000,4.000000,4.000000,4.000000,4.000000,4.000000,4.000000,4.000000,4.000000,4.000000,4.000000,4.000000,4.000000,4.000000,4.000000,100.000000,,,,,,,,,,,,,,,,,,,,,,,,,,,,
1703406527.692346,1703406527.692512,66.000000,0.000000,4194.487305,4153.974121,4268.974121,4235.384766,4155.000000,4149.487305,4193.333496,4140.897461,4137.692383,4140.384766,4600.000000,4435.897461,4373.846191,4503.077148,5280.000000,4.000000,78.000000,,,,0.000000,4.000000,4.000000,4.000000,4.000000,4.000000,4.000000,4.000000,4.000000,4.000000,4.000000,4.000000,4.000000,4.000000,4.000000,100.000000,,,,,,,,,,,,,,,,,,,,,,,,,,,,
1703406527.700154,1703406527.700220,67.000000,0.000000,4201.025879,4163.846191,4271.922852,4244.487305,4158.974121,4144.230957,4192.563965,4139.102539,4140.256348,4148.461426,4604.487305,4443.846191,4378.589844,4510.512695,5282.000000,4.000000,78.000000,,,,0.000000,4.000000,4.000000,4.000000,4.000000,4.000000,4.000000,4.000000,4.000000,4.000000,4.000000,4.000000,4.000000,4.000000,4.000000,100.000000,,,,,,,,,,,,,,,,,,,,,,,,,,,,
1703406527.707962,1703406527.708028,68.000000,0.000000,4193.077148,4160.384766,4268.974121,4240.128418,4157.948730,4146.666504,4196.025879,4142.563965,4139.615234,4147.692383,4594.615234,4436.538574,4370.641113,4498.589844,5003.000000,4.000000,78.000000,,,,0.000000,4.000000,4.000000,4.000000,4.000000,4.000000,4.000000,4.000000,4.000000,4.000000,4.000000,4.000000,4.000000,4.000000,4.000000,100.000000,,,,,,,,,,,,,,,,,17.000000,0.000000,0.595253,0.281433,-0.644775,0.388245,0.977658,-0.182151,0.001953,-12.504354,-44.516415,63.478508
1703406527.715770,1703406527.715736,69.000000,0.000000,4180.641113,4149.358887,4264.358887,4235.128418,4154.487305,4154.487305,4192.948730,4150.000000,4137.563965,4140.512695,4589.487305,4427.692383,4365.769043,4489.871582,2827.000000,4.000000,78.000000,,,,0.000000,4.000000,4.000000,4.000000,4.000000,4.000000,4.000000,4.000000,4.000000,4.000000,4.000000,4.000000,4.000000,4.000000,4.000000,100.000000,,,,,,,,,,,,,,,,,,,,,,,,,,,,
1703406527.723578,1703406527.723644,70.000000,0.000000,4173.846191,4140.769043,4258.333496,4231.666504,4153.461426,4155.256348,4192.563965,4158.077148,4137.563965,4136.282227,4589.487305,4429.871582,4364.871582,4493.333496,3034.000000,4.000000,78.000000,,,,0.000000,4.000000,4.000000,4.000000,4.000000,4.000000,4.000000,4.000000,4.000000,4.000000,4.000000,4.000000,4.000000,4.000000,4.000000,100.000000,,,,,,,,,,,,,,,,,,,,,,,,,,,,
1703406527.731386,1703406527.731452,71.000000,0.000000,4165.384766,4135.000000,4249.871582,4221.794922,4151.794922,4152.436035,4200.384766,4161.025879,4136.666504,4127.820313,4577.563965,4424.615234,4357.307617,4482.820313,5387.000000,4.000000,78.000000,,,,0.000000,4.000000,4.000000,4.000000,4.000000,4.000000,4.000000,4.000000,4.000000,4.000000,4.000000,4.000000,4.000000,4.000000,4.000000,100.000000,,,,,,,,,,,,,,,,,,,,,,,,,,,,
1703406527.739194,1703406527.739359,72.000000,0.000000,4160.512695,4134.743652,4249.358887,4220.256348,4150.512695,4158.461426,4202.692383,4160.256348,4135.769043,4121.666504,4572.692383,4414.358887,4355.000000,4472.436035,4762.000000,4.000000,78.000000,,,,0.000000,4.000000,4.000000,4.000000,4.000000,4.000000,4.000000,4.000000,4.000000,4.000000,4.000000,4.000000,4.000000,4.000000,4.000000,100.000000,,,,,,,,,,,,,,,,,18.000000,0.000000,0.594935,0.281433,-0.644958,0.388428,0.965938,-0.176291,0.005860,-12.453919,-44.514774,63.513992
1703406527.747002,1703406527.747167,73.000000,0.000000,4165.000000,4136.666504,4255.256348,4225.256348,4152.820313,4163.846191,4200.256348,4159.230957,4136.410156,4127.948730,4582.051270,4415.128418,4359.871582,4482.692383,5227.000000,4.000000,78.000000,,,,0.000000,4.000000,4.000000,4.000000,4.000000,4.000000,4.000000,4.000000,4.000000,4.000000,4.000000,4.000000,4.000000,4.000000,4.000000,100.000000,,,,,,,,,,,,,,,,,,,,,,,,,,,,
1703406527.754810,1703406527.755075,74.000000,0.000000,4167.692383,4134.871582,4254.743652,4221.922852,4151.025879,4158.717773,4199.230957,4158.461426,4136.922852,4136.282227,4584.487305,4420.128418,4361.794922,4490.384766,5855.000000,4.000000,78.000000,,,,0.000000,4.000000,4.000000,4.000000,4.000000,4.000000,4.000000,4.000000,4.000000,4.000000,4.000000,4.000000,4.000000,4.000000,4.000000,100.000000,,,,,,,,,,,,,,,,,,,,,,,,,,,,
1703406527.762618,1703406527.762883,75.000000,0.000000,4169.487305,4137.563965,4254.358887,4222.307617,4146.153809,4156.410156,4197.948730,4158.077148,4138.333496,4139.615234,4584.871582,4425.384766,4367.820313,4489.871582,6135.000000,4.000000,78.000000,,,,0.000000,4.000000,4.000000,4.000000,4.000000,4.000000,4.000000,4.000000,4.000000,4.000000,4.000000,4.000000,4.000000,4.000000,4.000000,100.000000,,,,,,,,,,,,,,,,,,,,,,,,,,,,
1703406527.770426,1703406527.770791,76.000000,0.000000,4172.436035,4146.666504,4260.512695,4233.846191,4149.615234,4161.794922,4195.128418,4156.025879,4138.461426,4140.769043,4590.512695,4429.487305,4373.205078,4491.666504,6539.000000,4.000000,78.000000,,,,0.000000,4.000000,4.000000,4.000000,4.000000,4.000000,4.000000,4.000000,4.000000,4.000000,4.000000,4.000000,4.000000,4.000000,4.000000,100.000000,,,,,,,,,,,,,,,,,19.000000,0.000000,0.595008,0.281250,-0.644897,0.388550,0.974728,-0.181174,0.001953,-12.358527,-44.563297,63.429260
1703406527.778234,1703406527.778599,77.000000,0.000000,4179.102539,4153.077148,4264.871582,4236.025879,4153.589844,4161.410156,4193.205078,4152.948730,4138.974121,4141.153809,4588.589844,4429.615234,4373.717773,4497.179688,7025.000000,4.000000,78.000000,,,,0.000000,4.000000,4.000000,4.000000,4.000000,4.000000,4.000000,4.000000,4.000000,4.000000,4.000000,4.000000,4.000000,4.000000,4.000000,100.000000,,,,,,,,,,,,,,,,,,,,,,,,,,,,
1703406527.786042,1703406527.786507,78.000000,0.000000,4185.256348,4155.512695,4265.897461,4234.871582,4150.128418,4155.000000,4190.897461,4149.230957,4136.282227,4143.717773,4586.538574,4429.230957,4377.436035,4504.230957,5855.000000,4.000000,78.000000,,,,0.000000,4.000000,4.000000,4.000000,4.000000,4.000000,4.000000,4.000000,4.000000,4.000000,4.000000,4.000000,4.000000,4.000000,4.000000,100.000000,1.000000,75.000000,4.000000,4.000000,4.000000,4.000000,4.000000,1.000000,4.000000,4.000000,4.000000,4.000000,4.000000,4.000000,4.000000,4.000000,,,,,,,,,,,,
1703406527.793851,1703406527.794315,79.000000,0.000000,4186.922852,4156.922852,4270.384766,4237.692383,4149.358887,4156.794922,4189.102539,4145.897461,4130.769043,4146.025879,4595.769043,4435.128418,4383.077148,4507.051270,6135.000000,4.000000,78.000000,,,,0.000000,4.000000,4.000000,4.000000,4.000000,4.000000,4.000000,4.000000,4.000000,4.000000,4.000000,4.000000,4.000000,4.000000,4.000000,100.000000,,,,,,,,,,,,,,,,,,,,,,,,,,,,
1703406527.801659,1703406527.802223,80.000000,0.000000,4188.333496,4155.641113,4272.307617,4235.000000,4151.153809,4157.692383,4190.256348,4149.743652,4131.794922,4142.179688,4600.000000,4442.948730,4381.025879,4507.436035,6539.000000,4.000000,78.000000,,,,0.000000,4.000000,4.000000,4.000000,4.000000,4.000000,4.000000,4.000000,4.000000,4.000000,4.000000,4.000000,4.000000,4.000000,4.000000,100.000000,,,,,,,,,,,,,,,,,20.000000,0.000000,0.595084,0.281006,-0.644897,0.388611,0.981077,-0.176291,0.012697,-12.272675,-44.523632,63.353001
1703406527.809466,1703406527.810031,81.000000,0.000000,4184.358887,4152.563965,4264.615234,4233.717773,4145.897461,4153.461426,4196.538574,4160.512695,4136.153809,4136.282227,4592.307617,4441.282227,4370.641113,4504.230957,7025.000000,4.000000,78.000000,,,,0.000000,4.000000,4.000000,4.000000,4.000000,4.000000,4.000000,4.000000,4.000000,4.000000,4.000000,4.000000,4.000000,4.000000,4.000000,100.000000,,,,,,,,,,,,,,,,,,,,,,,,,,,,
1703406527.817275,1703406527.817939,82.000000,0.000000,4172.948730,4151.666504,4256.666504,4227.948730,4137.692383,4154.358887,4201.282227,4168.589844,4137.179688,4136.794922,4585.512695,4432.948730,4362.692383,4494.871582,5855.000000,4.000000,78.000000,,,,0.000000,4.000000,4.000000,4.000000,4.000000,4.000000,4.000000,4.000000,4.000000,4.000000,4.000000,4.000000,4.000000,4.000000,4.000000,100.000000,,,,,,,,,,,,,,,,,,,,,,,,,,,,
1703406527.825083,1703406527.825747,83.000000,0.000000,4167.563965,4149.230957,4257.436035,4217.948730,4138.974121,4154.615234,4200.512695,4170.512695,4140.769043,4141.282227,4585.000000,4430.000000,4363.974121,4490.256348,6135.000000,4.000000,78.000000,,,,0.000000,4.000000,4.000000,4.000000,4.000000,4.000000,4.000000,4.000000,4.000000,4.000000,4.000000,4.000000,4.000000,4.000000,4.000000,100.000000,,,,,,,,,,,,,,,,,,,,,,,,,,,,
1703406527.832891,1703406527.833654,84.000000,0.000000,4171.794922,4147.179688,4257.051270,4221.794922,4147.307617,4153.717773,4199.743652,4171.794922,4147.563965,4144.230957,4586.666504,4430.384766,4369.871582,4493.717773,6539.000000,4.000000,78.000000,,,,0.000000,4.000000,4.000000,4.000000,4.000000,4.000000,4.000000,4.000000,4.000000,4.000000,4.000000,4.000000,4.000000,4.000000,4.000000,100.000000,,,,,,,,,,,,,,,,,21.000000,0.000000,0.595208,0.280518,-0.644958,0.388672,0.983518,-0.179221,-0.001465,-12.195407,-44.404602,63.451035
1703406527.840699,1703406527.841462,85.000000,0.000000,4170.256348,4149.743652,4250.384766,4229.487305,4148.461426,4159.743652,4202.948730,4174.358887,4146.282227,4142.179688,4583.717773,4426.282227,4368.461426,4491.666504,7025.000000,4.000000,78.000000,,,,0.000000,4.000000,4.000000,4.000000,4.000000,4.000000,4.000000,4.000000,4.000000,4.000000,4.000000,4.000000,4.000000,4.000000,4.000000,100.000000,,,,,,,,,,,,,,,,,,,,,,,,,,,,
1703406527.848507,1703406527.849370,86.000000,0.000000,4169.230957,4152.179688,4250.512695,4227.948730,4144.615234,4165.641113,4205.512695,4168.589844,4140.000000,4137.436035,4576.282227,4423.461426,4360.256348,4486.538574,5855.000000,4.000000,78.000000,,,,0.000000,4.000000,4.000000,4.000000,4.000000,4.000000,4.000000,4.000000,4.000000,4.000000,4.000000,4.000000,4.000000,4.000000,4.000000,100.000000,,,,,,,,,,,,,,,,,,,,,,,,,,,,
1703406527.856315,1703406527.857278,87.000000,0.000000,4179.871582,4153.717773,4258.077148,4229.743652,4149.487305,4161.922852,4205.256348,4158.974121,4139.358887,4137.563965,4581.282227,4427.563965,4361.922852,4493.717773,6135.000000,4.000000,78.000000,,,,0.000000,4.000000,4.000000,4.000000,4.000000,4.000000,4.000000,4.000000,4.000000,4.000000,4.000000,4.000000,4.000000,4.000000,4.000000,100.000000,,,,,,,,,,,,,,,,,,,,,,,,,,,,
1703406527.864123,1703406527.865087,88.000000,0.000000,4188.589844,4157.307617,4261.666504,4236.153809,4155.641113,4154.743652,4202.051270,4159.230957,4140.769043,4142.436035,4591.922852,4433.333496,4373.205078,4505.897461,6539.000000,4.000000,78.000000,,,,0.000000,4.000000,4.000000,4.000000,4.000000,4.000000,4.000000,4.000000,4.000000,4.000000,4.000000,4.000000,4.000000,4.000000,4.000000,100.000000,,,,,,,,,,,,,,,,,22.000000,0.000000,0.595316,0.280457,-0.644958,0.388550,0.981077,-0.166036,0.007813,-12.242533,-44.397476,63.555931
1703406527.871931,1703406527.872895,89.000000,0.000000,4188.205078,4158.461426,4264.487305,4236.153809,4152.307617,4153.077148,4200.128418,4160.000000,4140.256348,4144.358887,4590.641113,4434.615234,4376.153809,4508.974121,7025.000000,4.000000,78.000000,,,,0.000000,4.000000,4.000000,4.000000,4.000000,4.000000,4.000000,4.000000,4.000000,4.000000,4.000000,4.000000,4.000000,4.000000,4.000000,100.000000,,,,,,,,,,,,,,,,,,,,,,,,,,,,
1703406527.879739,1703406527.880603,90.000000,0.000000,4186.282227,4155.256348,4268.717773,4235.384766,4151.025879,4154.230957,4199.487305,4153.333496,4137.307617,4143.461426,4589.358887,4435.641113,4369.358887,4505.256348,5855.000000,4.000000,78.000000,,,,0.000000,4.000000,4.000000,4.000000,4.000000,4.000000,4.000000,4.000000,4.000000,4.000000,4.000000,4.000000,4.000000,4.000000,4.000000,100.000000,,,,,,,,,,,,,,,,,,,,,,,,,,,,
1703406527.887547,1703406527.888411,91.000000,0.000000,4186.153809,4153.717773,4268.846191,4236.025879,4151.922852,4156.538574,4200.256348,4152.307617,4135.897461,4142.179688,4594.102539,4440.512695,4367.948730,4504.102539,6135.000000,4.000000,78.000000,,,,0.000000,4.000000,4.000000,4.000000,4.000000,4.000000,4.000000,4.000000,4.000000,4.000000,4.000000,4.000000,4.000000,4.000000,4.000000,100.000000,,,,,,,,,,,,,,,,,,,,,,,,,,,,
1703406527.895355,1703406527.896119,92.000000,0.000000,4186.794922,4152.692383,4267.307617,4233.333496,4145.256348,4158.333496,4198.461426,4155.000000,4135.897461,4138.846191,4591.922852,4439.743652,4366.922852,4502.948730,6539.000000,4.000000,78.000000,,,,0.000000,4.000000,4.000000,4.000000,4.000000,4.000000,4.000000,4.000000,4.000000,4.000000,4.000000,4.000000,4.000000,4.000000,4.000000,100.000000,,,,,,,,,,,,,,,,,23.000000,0.000000,0.595672,0.280518,-0.644897,0.388062,0.973752,-0.160176,-0.000977,-12.234946,-44.441063,63.567005
1703406527.903163,1703406527.903927,93.000000,0.000000,4184.871582,4148.333496,4264.871582,4231.538574,4141.282227,4156.025879,4195.256348,4145.384766,4136.025879,4136.410156,4582.563965,4431.153809,4359.487305,4495.000000,7025.000000,4.000000,78.000000,,,,0.000000,4.000000,4.000000,4.000000,4.000000,4.000000,4.000000,4.000000,4.000000,4.000000,4.000000,4.000000,4.000000,4.000000,4.000000,100.000000,,,,,,,,,,,,,,,,,,,,,,,,,,,,
1703406527.910971,1703406527.911635,94.000000,0.000000,4180.769043,4146.282227,4260.384766,4231.794922,4143.333496,4154.102539,4191.922852,4137.820313,4135.512695,4136.153809,4577.307617,4425.384766,4353.717773,4487.948730,5855.000000,4.000000,78.000000,,,,0.000000,4.000000,4.000000,4.000000,4.000000,4.000000,4.000000,4.000000,4.000000,4.000000,4.000000,4.000000,4.000000,4.000000,4.000000,100.000000,,,,,,,,,,,,,,,,,,,,,,,,,,,,
1703406527.918779,1703406527.919443,95.000000,0.000000,4181.282227,4149.230957,4258.589844,4230.000000,4144.487305,4156.538574,4190.641113,4147.179688,4136.025879,4137.948730,4580.512695,4427.820313,4354.743652,4489.871582,6135.000000,4.000000,78.000000,,,,0.000000,4.000000,4.000000,4.000000,4.000000,4.000000,4.000000,4.000000,4.000000,4.000000,4.000000,4.000000,4.000000,4.000000,4.000000,100.000000,,,,,,,,,,,,,,,,,,,,,,,,,,,,
1703406527.926587,1703406527.927151,96.000000,0.000000,4184.102539,4150.897461,4260.256348,4226.666504,4144.743652,4158.846191,4192.436035,4156.666504,4138.974121,4138.717773,4586.666504,4429.615234,4360.128418,4493.333496,6539.000000,4.000000,78.000000,,,,0.000000,4.000000,4.000000,4.000000,4.000000,4.000000,4.000000,4.000000,4.000000,4.000000,4.000000,4.000000,4.000000,4.000000,4.000000,100.000000,,,,,,,,,,,,,,,,,24.000000,0.000000,0.596048,0.281067,-0.644714,0.387390,0.977658,-0.152362,0.004883,-12.211452,-44.363621,63.476971
1703406527.934395,1703406527.934959,97.000000,0.000000,4176.666504,4150.897461,4258.846191,4227.436035,4141.922852,4155.512695,4196.282227,4154.487305,4141.282227,4136.282227,4586.153809,4426.922852,4358.846191,4490.384766,7025.000000,4.000000,78.000000,,,,0.000000,4.000000,4.000000,4.000000,4.000000,4.000000,4.000000,4.000000,4.000000,4.000000,4.000000,4.000000,4.000000,4.000000,4.000000,100.000000,,,,,,,,,,,,,,,,,,,,,,,,,,,,
1703406527.942203,1703406527.942667,98.000000,0.000000,4169.230957,4148.333496,4256.410156,4225.897461,4138.333496,4155.512695,4198.589844,4152.051270,4140.384766,4135.512695,4581.282227,4426.538574,4354.615234,4489.230957,5855.000000,4.000000,78.000000,,,,0.000000,4.000000,4.000000,4.000000,4.000000,4.000000,4.000000,4.000000,4.000000,4.000000,4.000000,4.000000,4.000000,4.000000,4.000000,100.000000,,,,,,,,,,,,,,,,,,,,,,,,,,,,
1703406527.950011,1703406527.950475,99.000000,0.000000,4170.384766,4144.743652,4255.128418,4219.871582,4139.487305,4161.794922,4195.512695,4153.974121,4137.692383,4133.717773,4575.128418,4423.717773,4352.051270,4492.179688,6135.000000,4.000000,78.000000,,,,0.000000,4.000000,4.000000,4.000000,4.000000,4.000000,4.000000,4.000000,4.000000,4.000000,4.000000,4.000000,4.000000,4.000000,4.000000,100.000000,,,,,,,,,,,,,,,,,,,,,,,,,,,,
1703406527.957820,1703406527.958183,100.000000,0.000000,4168.717773,4145.384766,4253.461426,4215.897461,4140.641113,4163.461426,4194.358887,4153.589844,4136.025879,4129.743652,4567.051270,4416.794922,4346.538574,4489.102539,6539.000000,4.000000,78.000000,,,,0.000000,4.000000,4.000000,4.000000,4.000000,4.000000,4.000000,4.000000,4.000000,4.000000,4.000000,4.000000,4.000000,4.000000,4.000000,100.000000,,,,,,,,,,,,,,,,,25.000000,0.000000,0.596383,0.281616,-0.644348,0.387085,0.966427,-0.159199,0.010255,-12.290306,-44.360592,63.379272
1703406527.965628,1703406527.966091,101.000000,0.000000,4171.794922,4150.512695,4256.794922,4217.179688,4139.487305,4158.333496,4197.307617,4156.025879,4138.333496,4131.025879,4575.641113,4426.666504,4351.025879,4491.410156,7025.000000,4.000000,78.000000,,,,0.000000,4.000000,4.000000,4.000000,4.000000,4.000000,4.000000,4.000000,4.000000,4.000000,4.000000,4.000000,4.000000,4.000000,4.000000,100.000000,,,,,,,,,,,,,,,,,,,,,,,,,,,,
1703406527.973436,1703406527.973899,102.000000,0.000000,4182.307617,4154.615234,4264.871582,4222.436035,4141.922852,4156.282227,4195.384766,4160.128418,4141.794922,4140.897461,4593.077148,4446.153809,4367.436035,4504.230957,5855.000000,4.000000,78.000000,,,,0.000000,4.000000,4.000000,4.000000,4.000000,4.000000,4.000000,4.000000,4.000000,4.000000,4.000000,4.000000,4.000000,4.000000,4.000000,100.000000,,,,,,,,,,,,,,,,,,,,,,,,,,,,
1703406527.981244,1703406527.981807,103.000000,0.000000,4187.051270,4155.769043,4269.358887,4229.358887,4145.384766,4157.692383,4192.307617,4152.820313,4141.666504,4151.794922,4593.205078,4448.077148,4373.717773,4511.538574,6135.000000,4.000000,78.000000,,,,0.000000,4.000000,4.000000,4.000000,4.000000,4.000000,4.000000,4.000000,4.000000,4.000000,4.000000,4.000000,4.000000,4.000000,4.000000,100.000000,,,,,,,,,,,,,,,,,,,,,,,,,,,,
1703406527.989052,1703406527.989615,104.000000,0.000000,4184.615234,4155.128418,4266.666504,4232.051270,4142.692383,4155.256348,4190.512695,4139.230957,4138.205078,4149.230957,4588.589844,4440.769043,4370.512695,4506.538574,6539.000000,4.000000,78.000000,,,,0.000000,4.000000,4.000000,4.000000,4.000000,4.000000,4.000000,4.000000,4.000000,4.000000,4.000000,4.000000,4.000000,4.000000,4.000000,100.000000,,,,,,,,,,,,,,,,,26.000000,0.000000,0.596542,0.281921,-0.644104,0.387024,0.967403,-0.155781,0.007813,-12.361276,-44.441200,63.324680
1703406527.996860,1703406527.997523,105.000000,0.000000,4186.666504,4160.000000,4266.666504,4231.666504,4142.436035,4153.205078,4189.230957,4135.512695,4136.282227,4142.307617,4597.948730,4444.230957,4376.025879,4506.794922,7025.000000,4.000000,78.000000,,,,0.000000,4.000000,4.000000,4.000000,4.000000,4.000000,4.000000,4.000000,4.000000,4.000000,4.000000,4.000000,4.000000,4.000000,4.000000,100.000000,,,,,,,,,,,,,,,,,,,,,,,,,,,,
1703406528.004668,1703406528.005331,106.000000,0.000000,4196.282227,4170.641113,4275.512695,4236.538574,4144.615234,4154.743652,4188.717773,4142.307617,4141.794922,4148.846191,4607.051270,4453.974121,4385.641113,4519.743652,5855.000000,4.000000,78.000000,,,,0.000000,4.000000,4.000000,4.000000,4.000000,4.000000,4.000000,4.000000,4.000000,4.000000,4.000000,4.000000,4.000000,4.000000,4.000000,100.000000,,,,,,,,,,,,,,,,,,,,,,,,,,,,
1703406528.012476,1703406528.013238,107.000000,0.000000,4198.717773,4169.102539,4281.538574,4236.922852,4141.538574,4153.589844,4188.205078,4153.717773,4150.512695,4159.358887,4606.282227,4456.410156,4386.282227,4523.205078,6135.000000,4.000000,78.000000,,,,0.000000,4.000000,4.000000,4.000000,4.000000,4.000000,4.000000,4.000000,4.000000,4.000000,4.000000,4.000000,4.000000,4.000000,4.000000,100.000000,,,,,,,,,,,,,,,,,,,,,,,,,,,,
1703406528.020284,1703406528.021046,108.000000,0.000000,4185.000000,4156.666504,4272.436035,4225.128418,4137.307617,4151.282227,4188.589844,4165.769043,4152.820313,4156.922852,4602.820313,4451.538574,4379.358887,4513.717773,6539.000000,4.000000,78.000000,,,,0.000000,4.000000,4.000000,4.000000,4.000000,4.000000,4.000000,4.000000,4.000000,4.000000,4.000000,4.000000,4.000000,4.000000,4.000000,100.000000,,,,,,,,,,,,,,,,,27.000000,0.000000,0.596700,0.281921,-0.643921,0.387085,0.969845,-0.159199,0.007813,-12.325149,-44.247082,63.342213
1703406528.028092,1703406528.028954,109.000000,0.000000,4172.307617,4146.794922,4259.230957,4211.922852,4138.717773,4154.743652,4191.922852,4171.538574,4151.922852,4147.563965,4596.922852,4444.358887,4369.487305,4503.717773,7025.000000,4.000000,78.000000,,,,0.000000,4.000000,4.000000,4.000000,4.000000,4.000000,4.000000,4.000000,4.000000,4.000000,4.000000,4.000000,4.000000,4.000000,4.000000,100.000000,,,,,,,,,,,,,,,,,,,,,,,,,,,,
1703406528.035900,1703406528.036762,110.000000,0.000000,4170.769043,4141.410156,4254.358887,4208.717773,4138.846191,4158.717773,4195.384766,4172.563965,4150.769043,4141.025879,4588.717773,4439.358887,4363.077148,4498.846191,5855.000000,4.000000,78.000000,,,,0.000000,4.000000,4.000000,4.000000,4.000000,4.000000,4.000000,4.000000,4.000000,4.000000,4.000000,4.000000,4.000000,4.000000,4.000000,100.000000,,,,,,,,,,,,,,,,,,,,,,,,,,,,
1703406528.043708,1703406528.044470,111.000000,0.000000,4169.871582,4143.589844,4253.974121,4210.897461,4136.282227,4155.128418,4195.641113,4167.307617,4145.769043,4137.051270,4583.717773,4438.846191,4362.051270,4499.358887,6135.000000,4.000000,78.000000,,,,0.000000,4.000000,4.000000,4.000000,4.000000,4.000000,4.000000,4.000000,4.000000,4.000000,4.000000,4.000000,4.000000,4.000000,4.000000,100.000000,,,,,,,,,,,,,,,,,,,,,,,,,,,,
1703406528.051516,1703406528.052278,112.000000,0.000000,4172.307617,4152.436035,4257.179688,4213.205078,4144.743652,4152.820313,4194.102539,4157.563965,4140.256348,4142.051270,4584.487305,4441.282227,4363.717773,4504.358887,6539.000000,4.000000,78.000000,,,,0.000000,4.000000,4.000000,4.000000,4.000000,4.000000,4.000000,4.000000,4.000000,4.000000,4.000000,4.000000,4.000000,4.000000,4.000000,100.000000,,,,,,,,,,,,,,,,,28.000000,0.000000,0.596672,0.281982,-0.643921,0.387085,0.983518,-0.158711,0.007325,-12.392633,-44.139038,63.374657
1703406528.059324,1703406528.059986,113.000000,0.000000,4182.179688,4155.256348,4263.717773,4221.153809,4150.897461,4155.256348,4192.179688,4148.974121,4139.615234,4147.820313,4591.922852,4443.077148,4368.205078,4506.922852,7025.000000,4.000000,78.000000,,,,0.000000,4.000000,4.000000,4.000000,4.000000,4.000000,4.000000,4.000000,4.000000,4.000000,4.000000,4.000000,4.000000,4.000000,4.000000,100.000000,,,,,,,,,,,,,,,,,,,,,,,,,,,,
1703406528.067132,1703406528.067794,114.000000,0.000000,4183.974121,4153.333496,4266.794922,4228.205078,4142.307617,4155.769043,4192.820313,4141.922852,4138.589844,4142.820313,4599.487305,4442.051270,4374.487305,4504.871582,5855.000000,4.000000,78.000000,,,,0.000000,4.000000,4.000000,4.000000,4.000000,4.000000,4.000000,4.000000,4.000000,4.000000,4.000000,4.000000,4.000000,4.000000,4.000000,100.000000,,,,,,,,,,,,,,,,,,,,,,,,,,,,
1703406528.074940,1703406528.075502,115.000000,0.000000,4184.487305,4160.512695,4267.820313,4234.102539,4142.692383,4155.000000,4193.205078,4143.333496,4138.589844,4141.922852,4602.563965,4444.487305,4380.769043,4513.333496,6135.000000,4.000000,78.000000,,,,0.000000,4.000000,4.000000,4.000000,4.000000,4.000000,4.000000,4.000000,4.000000,4.000000,4.000000,4.000000,4.000000,4.000000,4.000000,100.000000,,,,,,,,,,,,,,,,,,,,,,,,,,,,
1703406528.082748,1703406528.083310,116.000000,0.000000,4195.769043,4169.615234,4272.051270,4243.461426,4155.384766,4154.615234,4187.179688,4148.589844,4143.974121,4153.717773,4604.487305,4448.077148,4384.230957,4523.589844,6539.000000,4.000000,78.000000,,,,0.000000,4.000000,4.000000,4.000000,4.000000,4.000000,4.000000,4.000000,4.000000,4.000000,4.000000,4.000000,4.000000,4.000000,4.000000,100.000000,,,,,,,,,,,,,,,,,29.000000,0.000000,0.596799,0.282104,-0.643860,0.386902,0.982542,-0.176291,0.003907,-12.286703,-44.041801,63.287189
1703406528.090556,1703406528.091018,117.000000,0.000000,4200.128418,4169.358887,4274.615234,4245.128418,4155.384766,4153.461426,4184.871582,4144.615234,4141.538574,4155.384766,4603.205078,4446.922852,4380.384766,4520.641113,7025.000000,4.000000,78.000000,,,,0.000000,4.000000,4.000000,4.000000,4.000000,4.000000,4.000000,4.000000,4.000000,4.000000,4.000000,4.000000,4.000000,4.000000,4.000000,100.000000,,,,,,,,,,,,,,,,,,,,,,,,,,,,
1703406528.098364,1703406528.098826,118.000000,0.000000,4189.487305,4162.563965,4271.538574,4236.538574,4148.333496,4153.974121,4187.179688,4134.358887,4129.615234,4139.743652,4597.051270,4442.436035,4369.743652,4510.769043,5855.000000,4.000000,78.000000,,,,0.000000,4.000000,4.000000,4.000000,4.000000,4.000000,4.000000,4.000000,4.000000,4.000000,4.000000,4.000000,4.000000,4.000000,4.000000,100.000000,,,,,,,,,,,,,,,,,,,,,,,,,,,,
1703406528.106172,1703406528.106535,119.000000,0.000000,4183.205078,4156.153809,4268.846191,4232.692383,4151.794922,4154.230957,4182.948730,4136.153809,4128.717773,4135.641113,4596.666504,4443.717773,4363.974121,4506.666504,6135.000000,4.000000,78.000000,,,,0.000000,4.000000,4.000000,4.000000,4.000000,4.000000,4.000000,4.000000,4.000000,4.000000,4.000000,4.000000,4.000000,4.000000,4.000000,100.000000,,,,,,,,,,,,,,,,,,,,,,,,,,,,
1703406528.113980,1703406528.114342,120.000000,0.000000,4188.077148,4155.128418,4270.000000,4236.153809,4154.358887,4153.974121,4182.692383,4146.410156,4138.077148,4142.692383,4599.358887,4445.641113,4367.563965,4511.410156,6539.000000,4.000000,78.000000,,,,0.000000,4.000000,4.000000,4.000000,4.000000,4.000000,4.000000,4.000000,4.000000,4.000000,4.000000,4.000000,4.000000,4.000000,4.000000,100.000000,,,,,,,,,,,,,,,,,30.000000,0.000000,0.596936,0.282288,-0.643799,0.386658,0.983518,-0.165548,0.004395,-12.124700,-44.170956,63.391804
1703406528.121789,1703406528.122051,121.000000,0.000000,4184.230957,4154.871582,4265.769043,4228.077148,4148.205078,4156.153809,4192.948730,4152.307617,4138.974121,4139.230957,4592.948730,4436.153809,4363.589844,4505.769043,7025.000000,4.000000,78.000000,,,,0.000000,4.000000,4.000000,4.000000,4.000000,4.000000,4.000000,4.000000,4.000000,4.000000,4.000000,4.000000,4.000000,4.000000,4.000000,100.000000,,,,,,,,,,,,,,,,,,,,,,,,,,,,
1703406528.129597,1703406528.129859,122.000000,0.000000,4170.897461,4149.358887,4255.128418,4216.282227,4142.179688,4156.282227,4196.410156,4153.974121,4134.743652,4133.846191,4582.820313,4427.179688,4353.205078,4493.077148,5855.000000,4.000000,78.000000,,,,0.000000,4.000000,4.000000,4.000000,4.000000,4.000000,4.000000,4.000000,4.000000,4.000000,4.000000,4.000000,4.000000,4.000000,4.000000,100.000000,,,,,,,,,,,,,,,,,,,,,,,,,,,,
1703406528.137405,1703406528.137567,123.000000,0.000000,4171.666504,4146.538574,4251.410156,4214.743652,4141.666504,4155.000000,4189.871582,4153.974121,4138.846191,4137.563965,4583.717773,4431.538574,4355.769043,4496.282227,6135.000000,4.000000,78.000000,,,,0.000000,4.000000,4.000000,4.000000,4.000000,4.000000,4.000000,4.000000,4.000000,4.000000,4.000000,4.000000,4.000000,4.000000,4.000000,100.000000,,,,,,,,,,,,,,,,,,,,,,,,,,,,
1703406528.145213,1703406528.145375,124.000000,0.000000,4182.820313,4151.153809,4254.487305,4216.153809,4142.948730,4161.282227,4193.077148,4159.487305,4145.128418,4140.256348,4593.333496,4438.846191,4366.025879,4506.538574,6539.000000,4.000000,78.000000,,,,0.000000,4.000000,4.000000,4.000000,4.000000,4.000000,4.000000,4.000000,4.000000,4.000000,4.000000,4.000000,4.000000,4.000000,4.000000,100.000000,,,,,,,,,,,,,,,,,31.000000,0.000000,0.597313,0.282715,-0.643555,0.386169,0.991332,-0.157246,0.009278,-12.128897,-44.070526,63.419292
1703406528.153021,1703406528.153083,125.000000,0.000000,4182.948730,4152.051270,4257.820313,4214.358887,4141.282227,4165.897461,4200.384766,4160.128418,4142.948730,4138.077148,4600.769043,4441.410156,4370.128418,4507.436035,7025.000000,4.000000,78.000000,,,,0.000000,4.000000,4.000000,4.000000,4.000000,4.000000,4.000000,4.000000,4.000000,4.000000,4.000000,4.000000,4.000000,4.000000,4.000000,100.000000,,,,,,,,,,,,,,,,,,,,,,,,,,,,
1703406528.160829,1703406528.160991,126.000000,0.000000,4183.846191,4153.974121,4262.563965,4214.358887,4140.897461,4160.000000,4191.922852,4155.897461,4140.769043,4144.743652,4608.717773,4446.153809,4375.000000,4514.487305,5855.000000,4.000000,78.000000,,,,0.000000,4.000000,4.000000,4.000000,4.000000,4.000000,4.000000,4.000000,4.000000,4.000000,4.000000,4.000000,4.000000,4.000000,4.000000,100.000000,,,,,,,,,,,,,,,,,,,,,,,,,,,,
1703406528.168637,1703406528.168798,127.000000,0.000000,4196.025879,4161.538574,4269.358887,4219.102539,4142.820313,4155.384766,4182.820313,4155.384766,4141.794922,4156.025879,4616.153809,4451.794922,4383.333496,4528.589844,78.000000,4.000000,78.000000,,,,0.000000,4.000000,4.000000,4.000000,4.000000,4.000000,4.000000,4.000000,4.000000,4.000000,4.000000,4.000000,4.000000,4.000000,4.000000,100.000000,,,,,,,,,,,,,,,,,,,,,,,,,,,,
1703406528.176445,1703406528.176706,0.000000,0.000000,4197.820313,4162.179688,4270.384766,4220.256348,4144.743652,4155.128418,4184.743652,4149.743652,4137.563965,4148.717773,4610.641113,4449.871582,4382.436035,4522.948730,4620.000000,4.000000,78.000000,,,,0.000000,4.000000,4.000000,4.000000,4.000000,4.000000,4.000000,4.000000,4.000000,4.000000,4.000000,4.000000,4.000000,4.000000,4.000000,100.000000,,,,,,,,,,,,,,,,,0.000000,0.000000,0.597699,0.283203,-0.643311,0.385620,0.971798,-0.178733,0.017580,-12.082673,-44.180141,63.444027
1703406528.184253,1703406528.184514,1.000000,0.000000,4189.743652,4156.153809,4265.256348,4219.487305,4145.384766,4153.205078,4185.512695,4138.205078,4131.538574,4134.358887,4599.358887,4441.153809,4373.589844,4510.000000,5218.000000,4.000000,78.000000,,,,0.000000,4.000000,4.000000,4.000000,4.000000,4.000000,4.000000,4.000000,4.000000,4.000000,4.000000,4.000000,4.000000,4.000000,4.000000,100.000000,,,,,,,,,,,,,,,,,,,,,,,,,,,,
1703406528.192061,1703406528.192422,2.000000,0.000000,4186.025879,4154.743652,4261.282227,4217.307617,4145.384766,4152.436035,4183.846191,4135.000000,4132.820313,4138.077148,4596.794922,4435.641113,4366.025879,4508.589844,5268.000000,4.000000,78.000000,,,,0.000000,4.000000,4.000000,4.000000,4.000000,4.000000,4.000000,4.000000,4.000000,4.000000,4.000000,4.000000,4.000000,4.000000,4.000000,100.000000,,,,,,,,,,,,,,,,,,,,,,,,,,,,
1703406528.199869,1703406528.200230,3.000000,0.000000,4184.743652,4155.641113,4258.846191,4214.615234,4148.333496,4157.692383,4186.410156,4144.102539,4138.077148,4143.205078,4599.615234,4437.051270,4363.717773,4507.307617,5282.000000,4.000000,78.000000,,,,0.000000,4.000000,4.000000,4.000000,4.000000,4.000000,4.000000,4.000000,4.000000,4.000000,4.000000,4.000000,4.000000,4.000000,4.000000,100.000000,,,,,,,,,,,,,,,,,,,,,,,,,,,,
1703406528.207677,1703406528.208138,4.000000,0.000000,4190.384766,4158.333496,4260.769043,4223.717773,4154.102539,4160.769043,4189.102539,4159.230957,4145.641113,4144.102539,4607.307617,4443.077148,4371.025879,4511.025879,5003.000000,4.000000,78.000000,,,,0.000000,4.000000,4.000000,4.000000,4.000000,4.000000,4.000000,4.000000,4.000000,4.000000,4.000000,4.000000,4.000000,4.000000,4.000000,100.000000,,,,,,,,,,,,,,,,,1.000000,0.000000,0.598105,0.283813,-0.643066,0.384949,0.985960,-0.159687,0.007813,-12.157740,-44.262127,63.482960
1703406528.215485,1703406528.215946,5.000000,0.000000,4200.128418,4159.743652,4262.436035,4230.256348,4154.102539,4160.128418,4191.410156,4170.256348,4153.846191,4151.794922,4615.000000,4448.717773,4380.897461,4520.897461,2827.000000,4.000000,78.000000,,,,0.000000,4.000000,4.000000,4.000000,4.000000,4.000000,4.000000,4.000000,4.000000,4.000000,4.000000,4.000000,4.000000,4.000000,4.000000,100.000000,,,,,,,,,,,,,,,,,,,,,,,,,,,,
1703406528.223293,1703406528.223854,6.000000,0.000000,4198.205078,4156.538574,4259.358887,4222.563965,4149.871582,4165.128418,4195.256348,4163.077148,4154.615234,4149.102539,4611.794922,4445.128418,4380.512695,4523.589844,3029.000000,4.000000,78.000000,,,,0.000000,4.000000,4.000000,4.000000,4.000000,4.000000,4.000000,4.000000,4.000000,4.000000,4.000000,4.000000,4.000000,4.000000,4.000000,100.000000,,,,,,,,,,,,,,,,,,,,,,,,,,,,
1703406528.231101,1703406528.231662,7.000000,0.000000,4192.307617,4160.769043,4259.615234,4220.256348,4151.282227,4168.589844,4198.205078,4153.846191,4150.384766,4142.051270,4609.871582,4444.615234,4376.538574,4520.512695,5375.000000,4.000000,78.000000,,,,0.000000,4.000000,4.000000,4.000000,4.000000,4.000000,4.000000,4.000000,4.000000,4.000000,4.000000,4.000000,4.000000,4.000000,4.000000,100.000000,,,,,,,,,,,,,,,,,,,,,,,,,,,,
1703406528.238909,1703406528.239370,8.000000,0.000000,4199.102539,4168.333496,4269.102539,4227.563965,4154.358887,4161.794922,4200.641113,4160.897461,4148.205078,4151.922852,4616.410156,4457.436035,4381.538574,4523.846191,4762.000000,4.000000,78.000000,,,,0.000000,4.000000,4.000000,4.000000,4.000000,4.000000,4.000000,4.000000,4.000000,4.000000,4.000000,4.000000,4.000000,4.000000,4.000000,100.000000,,,,,,,,,,,,,,,,,2.000000,0.000000,0.598779,0.284546,-0.642517,0.384277,0.975705,-0.159199,0.021487,-12.358632,-44.285915,63.517998
1703406528.246717,1703406528.247178,9.000000,0.000000,4204.615234,4162.692383,4276.666504,4229.358887,4153.333496,4153.846191,4200.512695,4163.205078,4150.256348,4155.641113,4623.205078,4466.922852,4389.102539,4531.666504,5220.000000,4.000000,78.000000,,,,0.000000,4.000000,4.000000,4.000000,4.000000,4.000000,4.000000,4.000000,4.000000,4.000000,4.000000,4.000000,4.000000,4.000000,4.000000,100.000000,,,,,,,,,,,,,,,,,,,,,,,,,,,,
1703406528.254525,1703406528.254886,10.000000,0.000000,4201.153809,4155.000000,4273.461426,4229.871582,4150.512695,4153.974121,4194.230957,4155.384766,4152.051270,4145.000000,4627.051270,4462.692383,4388.077148,4535.256348,5850.000000,4.000000,78.000000,,,,0.000000,4.000000,4.000000,4.000000,4.000000,4.000000,4.000000,4.000000,4.000000,4.000000,4.000000,4.000000,4.000000,4.000000,4.000000,100.000000,,,,,,,,,,,,,,,,,,,,,,,,,,,,
1703406528.262334,1703406528.262694,11.000000,0.000000,4200.769043,4161.794922,4272.436035,4233.717773,4150.769043,4159.615234,4193.461426,4152.692383,4147.563965,4148.333496,4625.384766,4459.487305,4382.436035,4535.256348,6128.000000,4.000000,78.000000,,,,0.000000,4.000000,4.000000,4.000000,4.000000,4.000000,4.000000,4.000000,4.000000,4.000000,4.000000,4.000000,4.000000,4.000000,4.000000,100.000000,,,,,,,,,,,,,,,,,,,,,,,,,,,,
1703406528.270141,1703406528.270402,12.000000,0.000000,4205.897461,4171.538574,4275.384766,4232.692383,4156.666504,4162.563965,4195.512695,4149.871582,4142.436035,4159.102539,4619.102539,4462.820313,4383.333496,4531.794922,6539.000000,4.000000,78.000000,,,,0.000000,4.000000,4.000000,4.000000,4.000000,4.000000,4.000000,4.000000,4.000000,4.000000,4.000000,4.000000,4.000000,4.000000,4.000000,100.000000,,,,,,,,,,,,,,,,,3.000000,0.000000,0.599483,0.285400,-0.641846,0.383667,0.978147,-0.156269,0.001953,-12.456102,-44.307323,63.516197
1703406528.277949,1703406528.278210,13.000000,0.000000,4203.589844,4166.922852,4275.000000,4231.410156,4159.358887,4163.717773,4192.436035,4144.358887,4143.717773,4154.743652,4613.846191,4458.333496,4382.820313,4526.922852,7019.000000,4.000000,78.000000,,,,0.000000,4.000000,4.000000,4.000000,4.000000,4.000000,4.000000,4.000000,4.000000,4.000000,4.000000,4.000000,4.000000,4.000000,4.000000,100.000000,,,,,,,,,,,,,,,,,,,,,,,,,,,,
1703406528.285758,1703406528.285918,14.000000,0.000000,4189.102539,4153.589844,4270.128418,4226.922852,4148.717773,4165.384766,4191.282227,4148.974121,4143.077148,4140.769043,4603.974121,4447.436035,4370.000000,4518.461426,5850.000000,4.000000,78.000000,,,,0.000000,4.000000,4.000000,4.000000,4.000000,4.000000,4.000000,4.000000,4.000000,4.000000,4.000000,4.000000,4.000000,4.000000,4.000000,100.000000,1.000000,75.000000,4.000000,4.000000,4.000000,4.000000,4.000000,1.000000,4.000000,4.000000,4.000000,4.000000,4.000000,4.000000,4.000000,4.000000,,,,,,,,,,,,
1703406528.293566,1703406528.293826,15.000000,0.000000,4181.153809,4153.461426,4266.794922,4222.307617,4143.333496,4167.436035,4193.974121,4156.025879,4140.000000,4134.230957,4595.384766,4440.256348,4363.333496,4514.871582,6128.000000,4.000000,78.000000,,,,0.000000,4.000000,4.000000,4.000000,4.000000,4.000000,4.000000,4.000000,4.000000,4.000000,4.000000,4.000000,4.000000,4.000000,4.000000,100.000000,,,,,,,,,,,,,,,,,,,,,,,,,,,,
1703406528.301374,1703406528.301634,16.000000,0.000000,4191.794922,4167.563965,4268.589844,4231.538574,4152.820313,4168.846191,4193.589844,4154.743652,4144.871582,4144.743652,4605.641113,4448.717773,4377.820313,4521.410156,0.000000,4.000000,78.000000,,,,0.000000,4.000000,4.000000,4.000000,4.000000,4.000000,4.000000,4.000000,4.000000,4.000000,4.000000,4.000000,4.000000,4.000000,4.000000,100.000000,,,,,,,,,,,,,,,,,4.000000,0.000000,0.600113,0.286377,-0.641113,0.383179,0.972775,-0.162129,0.000488,-12.377159,-44.359924,63.414577
1703406528.309182,1703406528.309542,17.000000,0.000000,4198.589844,4172.179688,4269.102539,4237.692383,4153.205078,4171.666504,4196.153809,4154.230957,4152.436035,4153.205078,4616.922852,4458.333496,4390.897461,4525.512695,0.000000,4.000000,78.000000,,,,0.000000,4.000000,4.000000,4.000000,4.000000,4.000000,4.000000,4.000000,4.000000,4.000000,4.000000,4.000000,4.000000,4.000000,4.000000,100.000000,,,,,,,,,,,,,,,,,,,,,,,,,,,,
1703406528.316990,1703406528.317350,18.000000,0.000000,4194.102539,4167.563965,4266.666504,4229.871582,4146.410156,4174.102539,4202.179688,4157.436035,4153.333496,4145.256348,4608.846191,4453.333496,4387.051270,4523.461426,0.000000,4.000000,78.000000,,,,0.000000,4.000000,4.000000,4.000000,4.000000,4.000000,4.000000,4.000000,4.000000,4.000000,4.000000,4.000000,4.000000,4.000000,4.000000,100.000000,,,,,,,,,,,,,,,,,,,,,,,,,,,,
1703406528.324798,1703406528.325258,19.000000,0.000000,4196.410156,4169.487305,4265.641113,4225.256348,4151.538574,4172.179688,4201.410156,4158.333496,4150.897461,4143.205078,4602.051270,4450.000000,4382.948730,4523.846191,0.000000,4.000000,78.000000,,,,0.000000,4.000000,4.000000,4.000000,4.000000,4.000000,4.000000,4.000000,4.000000,4.000000,4.000000,4.000000,4.000000,4.000000,4.000000,100.000000,,,,,,,,,,,,,,,,,,,,,,,,,,,,
1703406528.332606,1703406528.333067,20.000000,0.000000,4202.051270,4170.000000,4267.563965,4227.948730,4155.384766,4170.128418,4202.307617,4160.897461,4152.563965,4155.000000,4609.487305,4455.512695,4388.461426,4526.282227,0.000000,4.000000,78.000000,,,,0.000000,4.000000,4.000000,4.000000,4.000000,4.000000,4.000000,4.000000,4.000000,4.000000,4.000000,4.000000,4.000000,4.000000,4.000000,100.000000,,,,,,,,,,,,,,,,,5.000000,0.000000,0.600567,0.286926,-0.640625,0.382874,0.967892,-0.146014,0.000977,-12.422776,-44.373932,63.423119
1703406528.340414,1703406528.340974,21.000000,0.000000,4199.358887,4164.615234,4269.487305,4229.102539,4151.410156,4175.256348,4205.641113,4163.461426,4155.000000,4154.487305,4610.641113,4453.717773,4390.256348,4524.871582,0.000000,4.000000,78.000000,,,,0.000000,4.000000,4.000000,4.000000,4.000000,4.000000,4.000000,4.000000,4.000000,4.000000,4.000000,4.000000,4.000000,4.000000,4.000000,100.000000,,,,,,,,,,,,,,,,,,,,,,,,,,,,
1703406528.348222,1703406528.348782,22.000000,0.000000,4198.333496,4165.769043,4270.256348,4231.794922,4150.128418,4182.692383,4203.077148,4159.487305,4148.717773,4143.333496,4603.333496,4445.256348,4386.025879,4524.615234,0.000000,4.000000,78.000000,,,,0.000000,4.000000,4.000000,4.000000,4.000000,4.000000,4.000000,4.000000,4.000000,4.000000,4.000000,4.000000,4.000000,4.000000,4.000000,100.000000,,,,,,,,,,,,,,,,,,,,,,,,,,,,
1703406528.356030,1703406528.356690,23.000000,0.000000,4202.307617,4168.589844,4272.179688,4235.384766,4144.871582,4181.282227,4201.538574,4154.615234,4139.358887,4140.897461,4602.948730,4447.692383,4382.948730,4527.179688,0.000000,4.000000,78.000000,,,,0.000000,4.000000,4.000000,4.000000,4.000000,4.000000,4.000000,4.000000,4.000000,4.000000,4.000000,4.000000,4.000000,4.000000,4.000000,100.000000,,,,,,,,,,,,,,,,,,,,,,,,,,,,
1703406528.363838,1703406528.364498,24.000000,0.000000,4203.717773,4169.615234,4274.358887,4235.384766,4143.205078,4179.230957,4199.743652,4148.589844,4137.051270,4142.692383,4604.871582,4451.282227,4383.974121,4530.000000,0.000000,4.000000,78.000000,,,,0.000000,4.000000,4.000000,4.000000,4.000000,4.000000,4.000000,4.000000,4.000000,4.000000,4.000000,4.000000,4.000000,4.000000,4.000000,100.000000,,,,,,,,,,,,,,,,,6.000000,0.000000,0.601842,0.288086,-0.639526,0.381836,0.972775,-0.151386,0.025394,-12.480498,-44.253204,63.447475
1703406528.371646,1703406528.372406,25.000000,0.000000,4201.922852,4173.589844,4274.230957,4236.282227,4152.307617,4182.051270,4197.436035,4143.846191,4138.333496,4140.256348,4603.717773,4447.179688,4383.589844,4533.974121,0.000000,4.000000,78.000000,,,,0.000000,4.000000,4.000000,4.000000,4.000000,4.000000,4.000000,4.000000,4.000000,4.000000,4.000000,4.000000,4.000000,4.000000,4.000000,100.000000,,,,,,,,,,,,,,,,,,,,,,,,,,,,
1703406528.379454,1703406528.380214,26.000000,0.000000,4202.307617,4173.205078,4272.307617,4239.871582,4152.307617,4181.538574,4199.230957,4147.563965,4136.410156,4135.128418,4607.179688,4448.589844,4385.897461,4537.051270,0.000000,4.000000,78.000000,,,,0.000000,4.000000,4.000000,4.000000,4.000000,4.000000,4.000000,4.000000,4.000000,4.000000,4.000000,4.000000,4.000000,4.000000,4.000000,100.000000,,,,,,,,,,,,,,,,,,,,,,,,,,,,
1703406528.387262,1703406528.388122,27.000000,0.000000,4208.205078,4170.897461,4271.410156,4242.436035,4148.077148,4178.717773,4200.897461,4155.384766,4139.358887,4138.205078,4613.461426,4457.820313,4392.179688,4539.230957,0.000000,4.000000,78.000000,,,,0.000000,4.000000,4.000000,4.000000,4.000000,4.000000,4.000000,4.000000,4.000000,4.000000,4.000000,4.000000,4.000000,4.000000,4.000000,100.000000,,,,,,,,,,,,,,,,,,,,,,,,,,,,
1703406528.395070,1703406528.395930,28.000000,0.000000,4217.436035,4179.743652,4274.487305,4246.025879,4152.820313,4183.333496,4200.769043,4155.128418,4146.922852,4152.307617,4617.307617,4465.000000,4397.179688,4542.051270,0.000000,4.000000,78.000000,,,,0.000000,4.000000,4.000000,4.000000,4.000000,4.000000,4.000000,4.000000,4.000000,4.000000,4.000000,4.000000,4.000000,4.000000,4.000000,100.000000,,,,,,,,,,,,,,,,,7.000000,0.000000,0.603235,0.289063,-0.638428,0.380737,0.984984,-0.143084,0.000977,-12.565782,-44.277885,63.452728
1703406528.402878,1703406528.403838,29.000000,0.000000,4216.410156,4182.051270,4276.666504,4246.025879,4150.769043,4187.820313,4209.743652,4154.358887,4145.897461,4153.717773,4618.205078,4462.692383,4396.153809,4541.794922,0.000000,4.000000,78.000000,,,,0.000000,4.000000,4.000000,4.000000,4.000000,4.000000,4.000000,4.000000,4.000000,4.000000,4.000000,4.000000,4.000000,4.000000,4.000000,100.000000,,,,,,,,,,,,,,,,,,,,,,,,,,,,
1703406528.410686,1703406528.411646,30.000000,0.000000,4203.974121,4170.897461,4271.666504,4236.410156,4143.974121,4185.256348,4216.153809,4157.948730,4140.256348,4139.358887,4612.820313,4456.153809,4387.179688,4536.410156,0.000000,4.000000,78.000000,,,,0.000000,4.000000,4.000000,4.000000,4.000000,4.000000,4.000000,4.000000,4.000000,4.000000,4.000000,4.000000,4.000000,4.000000,4.000000,100.000000,,,,,,,,,,,,,,,,,,,,,,,,,,,,
1703406528.418494,1703406528.419354,31.000000,0.000000,4201.153809,4174.358887,4269.487305,4230.384766,4149.487305,4188.846191,4207.051270,4150.256348,4138.333496,4139.615234,4609.102539,4449.487305,4383.333496,4533.717773,0.000000,4.000000,78.000000,,,,0.000000,4.000000,4.000000,4.000000,4.000000,4.000000,4.000000,4.000000,4.000000,4.000000,4.000000,4.000000,4.000000,4.000000,4.000000,100.000000,,,,,,,,,,,,,,,,,,,,,,,,,,,,
1703406528.426303,1703406528.427162,32.000000,0.000000,4211.922852,4188.205078,4277.563965,4239.358887,4153.846191,4194.102539,4205.641113,4137.307617,4136.538574,4154.102539,4612.179688,4446.666504,4391.922852,4535.769043,0.000000,4.000000,78.000000,,,,0.000000,4.000000,4.000000,4.000000,4.000000,4.000000,4.000000,4.000000,4.000000,4.000000,4.000000,4.000000,4.000000,4.000000,4.000000,100.000000,,,,,,,,,,,,,,,,,8.000000,0.000000,0.604487,0.289856,-0.637573,0.379578,0.987914,-0.138689,0.022464,-12.709204,-44.200096,63.390789
1703406528.434111,1703406528.434870,33.000000,0.000000,4216.153809,4187.820313,4283.589844,4244.487305,4151.666504,4191.410156,4217.307617,4140.256348,4143.717773,4156.282227,4616.282227,4453.589844,4397.563965,4539.230957,0.000000,4.000000,78.000000,,,,0.000000,4.000000,4.000000,4.000000,4.000000,4.000000,4.000000,4.000000,4.000000,4.000000,4.000000,4.000000,4.000000,4.000000,4.000000,100.000000,,,,,,,,,,,,,,,,,,,,,,,,,,,,
1703406528.441918,1703406528.442778,34.000000,0.000000,4207.051270,4177.948730,4276.282227,4236.153809,4154.871582,4191.410156,4218.205078,4150.769043,4150.512695,4151.794922,4616.153809,4456.153809,4394.102539,4540.128418,0.000000,4.000000,78.000000,,,,0.000000,4.000000,4.000000,4.000000,4.000000,4.000000,4.000000,4.000000,4.000000,4.000000,4.000000,4.000000,4.000000,4.000000,4.000000,100.000000,,,,,,,,,,,,,,,,,,,,,,,,,,,,
1703406528.449727,1703406528.450586,35.000000,0.000000,4201.153809,4175.512695,4271.025879,4232.307617,4155.897461,4197.692383,4211.153809,4153.333496,4144.102539,4152.948730,4613.077148,4451.666504,4392.307617,4538.333496,0.000000,4.000000,78.000000,,,,0.000000,4.000000,4.000000,4.000000,4.000000,4.000000,4.000000,4.000000,4.000000,4.000000,4.000000,4.000000,4.000000,4.000000,4.000000,100.000000,,,,,,,,,,,,,,,,,,,,,,,,,,,,
1703406528.457535,1703406528.458394,36.000000,0.000000,4207.820313,4179.615234,4279.102539,4236.794922,4154.358887,4199.230957,4213.717773,4152.692383,4144.358887,4156.282227,4615.897461,4454.871582,4397.179688,4539.487305,0.000000,4.000000,78.000000,,,,0.000000,4.000000,4.000000,4.000000,4.000000,4.000000,4.000000,4.000000,4.000000,4.000000,4.000000,4.000000,4.000000,4.000000,4.000000,100.000000,,,,,,,,,,,,,,,,,9.000000,0.000000,0.606086,0.290710,-0.636536,0.378113,0.986937,-0.122085,0.012697,-12.704950,-44.180088,63.551708
1703406528.465343,1703406528.466102,37.000000,0.000000,4216.282227,4177.948730,4284.871582,4237.051270,4158.717773,4193.205078,4216.282227,4151.538574,4150.641113,4156.025879,4619.102539,4462.307617,4397.563965,4542.179688,0.000000,4.000000,78.000000,,,,0.000000,4.000000,4.000000,4.000000,4.000000,4.000000,4.000000,4.000000,4.000000,4.000000,4.000000,4.000000,4.000000,4.000000,4.000000,100.000000,,,,,,,,,,,,,,,,,,,,,,,,,,,,
1703406528.473151,1703406528.473910,38.000000,0.000000,4212.948730,4170.384766,4282.820313,4232.436035,4158.717773,4189.230957,4211.410156,4150.000000,4147.692383,4151.410156,4613.974121,4461.410156,4390.641113,4541.538574,0.000000,4.000000,78.000000,,,,0.000000,4.000000,4.000000,4.000000,4.000000,4.000000,4.000000,4.000000,4.000000,4.000000,4.000000,4.000000,4.000000,4.000000,4.000000,100.000000,,,,,,,,,,,,,,,,,,,,,,,,,,,,
1703406528.480959,1703406528.481618,39.000000,0.000000,4207.051270,4174.487305,4280.897461,4233.205078,4152.820313,4190.000000,4210.128418,4148.846191,4147.179688,4150.256348,4609.487305,4456.666504,4387.051270,4539.487305,0.000000,4.000000,78.000000,,,,0.000000,4.000000,4.000000,4.000000,4.000000,4.000000,4.000000,4.000000,4.000000,4.000000,4.000000,4.000000,4.000000,4.000000,4.000000,100.000000,,,,,,,,,,,,,,,,,,,,,,,,,,,,
1703406528.488767,1703406528.489426,40.000000,0.000000,4207.948730,4182.692383,4277.820313,4236.153809,4154.102539,4197.051270,4212.948730,4142.563965,4150.769043,4152.692383,4608.846191,4452.307617,4388.333496,4537.179688,0.000000,4.000000,78.000000,,,,0.000000,4.000000,4.000000,4.000000,4.000000,4.000000,4.000000,4.000000,4.000000,4.000000,4.000000,4.000000,4.000000,4.000000,4.000000,100.000000,,,,,,,,,,,,,,,,,10.000000,0.000000,0.607969,0.291931,-0.635193,0.376404,0.979123,-0.114272,0.010743,-12.667789,-44.128746,63.629871
1703406528.496575,1703406528.497134,41.000000,0.000000,4206.282227,4174.871582,4271.282227,4232.563965,4158.077148,4204.615234,4214.487305,4137.179688,4145.512695,4149.358887,4603.589844,4446.282227,4387.179688,4538.077148,0.000000,4.000000,78.000000,,,,0.000000,4.000000,4.000000,4.000000,4.000000,4.000000,4.000000,4.000000,4.000000,4.000000,4.000000,4.000000,4.000000,4.000000,4.000000,100.000000,,,,,,,,,,,,,,,,,,,,,,,,,,,,
1703406528.504383,1703406528.504942,42.000000,0.000000,4199.615234,4166.282227,4268.717773,4227.179688,4155.512695,4202.436035,4215.769043,4139.358887,4141.410156,4142.436035,4597.307617,4442.051270,4381.794922,4535.512695,0.000000,4.000000,78.000000,,,,0.000000,4.000000,4.000000,4.000000,4.000000,4.000000,4.000000,4.000000,4.000000,4.000000,4.000000,4.000000,4.000000,4.000000,4.000000,100.000000,,,,,,,,,,,,,,,,,,,,,,,,,,,,
1703406528.512191,1703406528.512651,43.000000,0.000000,4198.717773,4168.846191,4269.102539,4227.307617,4151.666504,4200.128418,4215.769043,4138.717773,4141.282227,4135.512695,4596.153809,4436.794922,4376.025879,4525.897461,0.000000,4.000000,78.000000,,,,0.000000,4.000000,4.000000,4.000000,4.000000,4.000000,4.000000,4.000000,4.000000,4.000000,4.000000,4.000000,4.000000,4.000000,4.000000,100.000000,,,,,,,,,,,,,,,,,,,,,,,,,,,,
1703406528.519999,1703406528.520459,44.000000,0.000000,4197.948730,4168.333496,4265.256348,4230.256348,4151.282227,4201.666504,4213.461426,4134.871582,4138.717773,4132.436035,4593.461426,4431.922852,4375.000000,4523.461426,0.000000,4.000000,78.000000,,,,0.000000,4.000000,4.000000,4.000000,4.000000,4.000000,4.000000,4.000000,4.000000,4.000000,4.000000,4.000000,4.000000,4.000000,4.000000,100.000000,,,,,,,,,,,,,,,,,11.000000,0.000000,0.610136,0.293762,-0.633423,0.374451,0.991820,-0.109877,0.017092,-12.701010,-44.032536,63.683552
1703406528.527807,1703406528.528167,45.000000,0.000000,4199.871582,4171.538574,4269.358887,4232.051270,4153.077148,4201.666504,4213.077148,4136.922852,4141.410156,4142.948730,4595.897461,4438.461426,4380.512695,4535.512695,0.000000,4.000000,78.000000,,,,0.000000,4.000000,4.000000,4.000000,4.000000,4.000000,4.000000,4.000000,4.000000,4.000000,4.000000,4.000000,4.000000,4.000000,4.000000,100.000000,,,,,,,,,,,,,,,,,,,,,,,,,,,,
1703406528.535615,1703406528.536074,46.000000,0.000000,4209.358887,4181.922852,4280.512695,4232.948730,4153.974121,4200.256348,4215.641113,4140.384766,4145.897461,4153.589844,4607.051270,4453.077148,4388.077148,4547.692383,0.000000,4.000000,78.000000,,,,0.000000,4.000000,4.000000,4.000000,4.000000,4.000000,4.000000,4.000000,4.000000,4.000000,4.000000,4.000000,4.000000,4.000000,4.000000,100.000000,,,,,,,,,,,,,,,,,,,,,,,,,,,,
1703406528.543423,1703406528.543882,47.000000,0.000000,4211.282227,4181.410156,4282.051270,4232.307617,4152.692383,4202.948730,4216.153809,4143.846191,4147.179688,4146.282227,4610.512695,4459.615234,4386.922852,4547.820313,0.000000,4.000000,78.000000,,,,0.000000,4.000000,4.000000,4.000000,4.000000,4.000000,4.000000,4.000000,4.000000,4.000000,4.000000,4.000000,4.000000,4.000000,4.000000,100.000000,,,,,,,,,,,,,,,,,,,,,,,,,,,,
1703406528.551231,1703406528.551790,48.000000,0.000000,4206.922852,4179.102539,4279.358887,4231.538574,4153.333496,4206.282227,4212.436035,4145.897461,4145.384766,4144.102539,4609.871582,4458.461426,4387.820313,4550.769043,0.000000,4.000000,78.000000,,,,0.000000,4.000000,4.000000,4.000000,4.000000,4.000000,4.000000,4.000000,4.000000,4.000000,4.000000,4.000000,4.000000,4.000000,4.000000,100.000000,,,,,,,,,,,,,,,,,12.000000,0.000000,0.611401,0.294556,-0.632446,0.373413,0.973752,-0.101087,0.015139,-13.014242,-43.962616,63.698528
1703406528.559039,1703406528.559598,49.000000,0.000000,4207.436035,4181.666504,4281.282227,4233.846191,4154.743652,4205.128418,4210.384766,4140.641113,4139.230957,4152.179688,4612.307617,4459.487305,4393.461426,4553.846191,0.000000,4.000000,78.000000,,,,0.000000,4.000000,4.000000,4.000000,4.000000,4.000000,4.000000,4.000000,4.000000,4.000000,4.000000,4.000000,4.000000,4.000000,4.000000,100.000000,,,,,,,,,,,,,,,,,,,,,,,,,,,,
1703406528.566847,1703406528.567506,50.000000,0.000000,4204.102539,4176.666504,4282.436035,4233.589844,4156.282227,4208.589844,4212.692383,4137.563965,4138.205078,4145.897461,4608.205078,4458.333496,4388.333496,4544.102539,0.000000,4.000000,78.000000,,,,0.000000,4.000000,4.000000,4.000000,4.000000,4.000000,4.000000,4.000000,4.000000,4.000000,4.000000,4.000000,4.000000,4.000000,4.000000,100.000000,,,,,,,,,,,,,,,,,,,,,,,,,,,,
1703406528.574655,1703406528.575314,51.000000,0.000000,4199.102539,4173.333496,4281.410156,4230.897461,4158.846191,4213.205078,4213.461426,4146.794922,4147.692383,4140.769043,4602.948730,4458.717773,4382.436035,4540.897461,0.000000,4.000000,78.000000,,,,0.000000,4.000000,4.000000,4.000000,4.000000,4.000000,4.000000,4.000000,4.000000,4.000000,4.000000,4.000000,4.000000,4.000000,4.000000,100.000000,,,,,,,,,,,,,,,,,,,,,,,,,,,,
1703406528.582463,1703406528.583222,52.000000,0.000000,4201.666504,4177.436035,4281.025879,4231.794922,4158.077148,4214.871582,4212.563965,4155.256348,4152.948730,4145.256348,4605.512695,4462.051270,4386.794922,4549.102539,0.000000,4.000000,78.000000,,,,0.000000,4.000000,4.000000,4.000000,4.000000,4.000000,4.000000,4.000000,4.000000,4.000000,4.000000,4.000000,4.000000,4.000000,4.000000,100.000000,,,,,,,,,,,,,,,,,13.000000,0.000000,0.613763,0.296326,-0.630371,0.371643,0.983518,-0.098157,0.025394,-12.946151,-43.766354,63.845345
1703406528.590272,1703406528.591030,53.000000,0.000000,4199.487305,4173.589844,4277.307617,4229.230957,4151.666504,4213.846191,4214.487305,4155.256348,4151.410156,4139.487305,4604.487305,4455.000000,4383.461426,4544.358887,0.000000,4.000000,78.000000,,,,0.000000,4.000000,4.000000,4.000000,4.000000,4.000000,4.000000,4.000000,4.000000,4.000000,4.000000,4.000000,4.000000,4.000000,4.000000,100.000000,,,,,,,,,,,,,,,,,,,,,,,,,,,,
1703406528.598080,1703406528.598938,54.000000,0.000000,4185.256348,4164.487305,4270.256348,4222.563965,4147.692383,4215.512695,4218.717773,4154.230957,4152.563965,4137.307617,4596.282227,4445.512695,4372.051270,4530.512695,0.000000,4.000000,78.000000,,,,0.000000,4.000000,4.000000,4.000000,4.000000,4.000000,4.000000,4.000000,4.000000,4.000000,4.000000,4.000000,4.000000,4.000000,4.000000,100.000000,,,,,,,,,,,,,,,,,,,,,,,,,,,,
1703406528.605888,1703406528.606746,55.000000,0.000000,4183.461426,4168.589844,4273.974121,4225.769043,4152.179688,4223.974121,4220.000000,4152.692383,4154.487305,4151.282227,4600.641113,4453.205078,4378.205078,4535.256348,0.000000,4.000000,78.000000,,,,0.000000,4.000000,4.000000,4.000000,4.000000,4.000000,4.000000,4.000000,4.000000,4.000000,4.000000,4.000000,4.000000,4.000000,4.000000,100.000000,,,,,,,,,,,,,,,,,,,,,,,,,,,,
1703406528.613696,1703406528.614454,56.000000,0.000000,4193.974121,4171.666504,4280.897461,4232.563965,4157.436035,4228.717773,4219.871582,4154.487305,4154.615234,4155.384766,4610.000000,4462.436035,4388.205078,4543.717773,0.000000,4.000000,78.000000,,,,0.000000,4.000000,4.000000,4.000000,4.000000,4.000000,4.000000,4.000000,4.000000,4.000000,4.000000,4.000000,4.000000,4.000000,4.000000,100.000000,,,,,,,,,,,,,,,,,14.000000,0.000000,0.616398,0.298218,-0.628052,0.369690,0.982053,-0.091808,0.024417,-13.018203,-43.556385,63.844143
1703406528.621504,1703406528.622262,57.000000,0.000000,4197.948730,4170.641113,4279.871582,4229.871582,4157.436035,4226.794922,4224.230957,4156.410156,4154.102539,4148.205078,4604.871582,4458.589844,4381.538574,4538.461426,0.000000,4.000000,78.000000,,,,0.000000,4.000000,4.000000,4.000000,4.000000,4.000000,4.000000,4.000000,4.000000,4.000000,4.000000,4.000000,4.000000,4.000000,4.000000,100.000000,,,,,,,,,,,,,,,,,,,,,,,,,,,,
1703406528.629312,1703406528.629970,58.000000,0.000000,4197.692383,4178.333496,4280.897461,4230.769043,4155.769043,4228.589844,4226.794922,4149.230957,4152.436035,4151.410156,4600.384766,4458.333496,4383.461426,4538.846191,0.000000,4.000000,78.000000,,,,0.000000,4.000000,4.000000,4.000000,4.000000,4.000000,4.000000,4.000000,4.000000,4.000000,4.000000,4.000000,4.000000,4.000000,4.000000,100.000000,,,,,,,,,,,,,,,,,,,,,,,,,,,,
1703406528.637120,1703406528.637778,59.000000,0.000000,4201.538574,4186.538574,4284.615234,4235.769043,4155.128418,4234.615234,4222.179688,4140.384766,4150.512695,4155.512695,4606.794922,4462.692383,4392.692383,4548.717773,0.000000,4.000000,78.000000,,,,0.000000,4.000000,4.000000,4.000000,4.000000,4.000000,4.000000,4.000000,4.000000,4.000000,4.000000,4.000000,4.000000,4.000000,4.000000,100.000000,,,,,,,,,,,,,,,,,,,,,,,,,,,,
1703406528.644928,1703406528.645486,60.000000,0.000000,4204.871582,4184.102539,4282.563965,4231.538574,4155.641113,4232.179688,4217.179688,4140.384766,4150.897461,4152.820313,4612.179688,4460.384766,4391.794922,4554.230957,0.000000,4.000000,78.000000,,,,0.000000,4.000000,4.000000,4.000000,4.000000,4.000000,4.000000,4.000000,4.000000,4.000000,4.000000,4.000000,4.000000,4.000000,4.000000,100.000000,,,,,,,,,,,,,,,,,15.000000,0.000000,0.618993,0.300232,-0.625610,0.367859,1.000122,-0.088878,0.022952,-13.199716,-43.350746,63.826393
1703406528.652736,1703406528.653294,61.000000,0.000000,4204.358887,4175.769043,4279.230957,4227.692383,4156.153809,4229.102539,4215.641113,4145.641113,4151.282227,4152.820313,4613.589844,4460.256348,4390.897461,4553.077148,0.000000,4.000000,78.000000,,,,0.000000,4.000000,4.000000,4.000000,4.000000,4.000000,4.000000,4.000000,4.000000,4.000000,4.000000,4.000000,4.000000,4.000000,4.000000,100.000000,,,,,,,,,,,,,,,,,,,,,,,,,,,,
1703406528.660544,1703406528.661002,62.000000,0.000000,4203.205078,4172.563965,4282.820313,4225.512695,4154.615234,4231.410156,4213.589844,4149.743652,4151.025879,4154.615234,4615.384766,4464.615234,4394.102539,4552.948730,0.000000,4.000000,78.000000,,,,0.000000,4.000000,4.000000,4.000000,4.000000,4.000000,4.000000,4.000000,4.000000,4.000000,4.000000,4.000000,4.000000,4.000000,4.000000,100.000000,,,,,,,,,,,,,,,,,,,,,,,,,,,,
1703406528.668352,1703406528.668810,63.000000,0.000000,4203.333496,4176.666504,4285.000000,4225.128418,4152.692383,4228.846191,4212.563965,4152.436035,4153.077148,4155.897461,4615.769043,4463.974121,4393.205078,4554.358887,0.000000,4.000000,78.000000,,,,0.000000,4.000000,4.000000,4.000000,4.000000,4.000000,4.000000,4.000000,4.000000,4.000000,4.000000,4.000000,4.000000,4.000000,4.000000,100.000000,,,,,,,,,,,,,,,,,,,,,,,,,,,,
1703406528.676160,1703406528.676518,64.000000,0.000000,4203.974121,4183.077148,4282.820313,4230.512695,4155.000000,4229.871582,4215.384766,4154.358887,4156.153809,4158.846191,4615.897461,4465.512695,4395.897461,4555.384766,4615.000000,4.000000,78.000000,,,,0.000000,4.000000,4.000000,4.000000,4.000000,4.000000,4.000000,4.000000,4.000000,4.000000,4.000000,4.000000,4.000000,4.000000,4.000000,100.000000,,,,,,,,,,,,,,,,,16.000000,0.000000,0.621404,0.302063,-0.623230,0.366333,0.986449,-0.084971,0.039556,-13.446411,-43.199005,63.860420
1703406528.683968,1703406528.684326,65.000000,0.000000,4204.102539,4181.794922,4285.384766,4229.230957,4157.307617,4239.230957,4221.282227,4157.436035,4158.077148,4159.230957,4618.589844,4473.333496,4401.153809,4555.641113,5218.000000,4.000000,78.000000,,,,0.000000,4.000000,4.000000,4.000000,4.000000,4.000000,4.000000,4.000000,4.000000,4.000000,4.000000,4.000000,4.000000,4.000000,4.000000,100.000000,,,,,,,,,,,,,,,,,,,,,,,,,,,,
1703406528.691776,1703406528.692034,66.000000,0.000000,4203.974121,4178.589844,4289.615234,4219.358887,4156.025879,4241.538574,4226.794922,4159.615234,4156.922852,4156.025879,4618.077148,4475.769043,4395.641113,4556.282227,5272.000000,4.000000,78.000000,,,,0.000000,4.000000,4.000000,4.000000,4.000000,4.000000,4.000000,4.000000,4.000000,4.000000,4.000000,4.000000,4.000000,4.000000,4.000000,100.000000,,,,,,,,,,,,,,,,,,,,,,,,,,,,
1703406528.699584,1703406528.699842,67.000000,0.000000,4201.666504,4177.948730,4286.282227,4216.410156,4153.589844,4235.641113,4222.948730,4155.641113,4154.230957,4153.205078,4611.410156,4467.820313,4385.641113,4553.974121,5282.000000,4.000000,78.000000,,,,0.000000,4.000000,4.000000,4.000000,4.000000,4.000000,4.000000,4.000000,4.000000,4.000000,4.000000,4.000000,4.000000,4.000000,4.000000,100.000000,,,,,,,,,,,,,,,,,,,,,,,,,,,,
1703406528.707392,1703406528.707550,68.000000,0.000000,4197.692383,4173.589844,4280.897461,4217.820313,4151.282227,4236.410156,4217.051270,4148.333496,4152.820313,4151.410156,4605.000000,4461.794922,4385.128418,4548.974121,5003.000000,4.000000,78.000000,,,,0.000000,4.000000,4.000000,4.000000,4.000000,4.000000,4.000000,4.000000,4.000000,4.000000,4.000000,4.000000,4.000000,4.000000,4.000000,100.000000,,,,,,,,,,,,,,,,,17.000000,0.000000,0.623741,0.303467,-0.621033,0.364929,0.973752,-0.083995,0.042974,-13.451770,-43.145771,63.924381
1703406528.715200,1703406528.715358,69.000000,0.000000,4198.974121,4172.307617,4282.692383,4216.025879,4151.538574,4236.538574,4218.205078,4145.512695,4152.307617,4146.025879,4602.820313,4462.820313,4390.769043,4550.897461,2827.000000,4.000000,78.000000,,,,0.000000,4.000000,4.000000,4.000000,4.000000,4.000000,4.000000,4.000000,4.000000,4.000000,4.000000,4.000000,4.000000,4.000000,4.000000,100.000000,,,,,,,,,,,,,,,,,,,,,,,,,,,,
1703406528.723009,1703406528.723066,70.000000,0.000000,4197.948730,4175.512695,4284.615234,4217.179688,4152.179688,4233.589844,4218.589844,4150.256348,4151.922852,4138.333496,4603.974121,4462.820313,4394.358887,4554.871582,3032.000000,4.000000,78.000000,,,,0.000000,4.000000,4.000000,4.000000,4.000000,4.000000,4.000000,4.000000,4.000000,4.000000,4.000000,4.000000,4.000000,4.000000,4.000000,100.000000,,,,,,,,,,,,,,,,,,,,,,,,,,,,
1703406528.730816,1703406528.730974,71.000000,0.000000,4188.717773,4173.461426,4281.538574,4217.563965,4152.948730,4237.563965,4217.179688,4154.230957,4151.666504,4137.692383,4601.282227,4460.512695,4395.769043,4547.436035,5375.000000,4.000000,78.000000,,,,0.000000,4.000000,4.000000,4.000000,4.000000,4.000000,4.000000,4.000000,4.000000,4.000000,4.000000,4.000000,4.000000,4.000000,4.000000,100.000000,,,,,,,,,,,,,,,,,,,,,,,,,,,,
1703406528.738624,1703406528.738782,72.000000,0.000000,4184.487305,4169.358887,4283.333496,4213.589844,4152.436035,4246.410156,4219.102539,4151.025879,4151.666504,4142.179688,4599.615234,4460.512695,4395.128418,4538.077148,4762.000000,4.000000,78.000000,,,,0.000000,4.000000,4.000000,4.000000,4.000000,4.000000,4.000000,4.000000,4.000000,4.000000,4.000000,4.000000,4.000000,4.000000,4.000000,100.000000,,,,,,,,,,,,,,,,,18.000000,0.000000,0.625723,0.304321,-0.619263,0.363831,0.982053,-0.071298,0.035161,-13.556593,-42.914528,63.831940
1703406528.746433,1703406528.746690,73.000000,0.000000,4187.820313,4170.641113,4284.871582,4212.307617,4152.051270,4247.948730,4219.358887,4145.641113,4153.205078,4142.948730,4600.256348,4458.461426,4392.563965,4539.102539,5220.000000,4.000000,78.000000,,,,0.000000,4.000000,4.000000,4.000000,4.000000,4.000000,4.000000,4.000000,4.000000,4.000000,4.000000,4.000000,4.000000,4.000000,4.000000,100.000000,,,,,,,,,,,,,,,,,,,,,,,,,,,,
1703406528.754241,1703406528.754498,74.000000,0.000000,4187.820313,4170.641113,4279.743652,4213.333496,4153.077148,4238.461426,4213.461426,4140.128418,4149.615234,4139.615234,4594.102539,4451.410156,4391.410156,4541.922852,5850.000000,4.000000,78.000000,,,,0.000000,4.000000,4.000000,4.000000,4.000000,4.000000,4.000000,4.000000,4.000000,4.000000,4.000000,4.000000,4.000000,4.000000,4.000000,100.000000,,,,,,,,,,,,,,,,,,,,,,,,,,,,
1703406528.762049,1703406528.762406,75.000000,0.000000,4186.153809,4168.461426,4277.307617,4211.153809,4148.589844,4232.179688,4209.615234,4137.307617,4141.538574,4132.307617,4584.487305,4446.282227,4384.358887,4538.461426,6128.000000,4.000000,78.000000,,,,0.000000,4.000000,4.000000,4.000000,4.000000,4.000000,4.000000,4.000000,4.000000,4.000000,4.000000,4.000000,4.000000,4.000000,4.000000,100.000000,,,,,,,,,,,,,,,,,,,,,,,,,,,,
1703406528.769857,1703406528.770214,76.000000,0.000000,4181.153809,4169.102539,4275.256348,4203.717773,4144.871582,4242.307617,4209.743652,4139.615234,4139.871582,4124.102539,4578.205078,4444.230957,4368.717773,4531.922852,6538.000000,4.000000,78.000000,,,,0.000000,4.000000,4.000000,4.000000,4.000000,4.000000,4.000000,4.000000,4.000000,4.000000,4.000000,4.000000,4.000000,4.000000,4.000000,100.000000,,,,,,,,,,,,,,,,,19.000000,0.000000,0.626486,0.304504,-0.618652,0.363403,0.980100,-0.059578,0.051764,-13.817600,-42.806408,63.865414
1703406528.777665,1703406528.778122,77.000000,0.000000,4176.922852,4170.128418,4269.743652,4200.641113,4149.743652,4251.025879,4211.282227,4142.563965,4143.205078,4125.769043,4579.743652,4442.307617,4365.128418,4531.410156,7019.000000,4.000000,78.000000,,,,0.000000,4.000000,4.000000,4.000000,4.000000,4.000000,4.000000,4.000000,4.000000,4.000000,4.000000,4.000000,4.000000,4.000000,4.000000,100.000000,,,,,,,,,,,,,,,,,,,,,,,,,,,,
1703406528.785473,1703406528.785929,78.000000,0.000000,4182.307617,4173.205078,4271.153809,4209.230957,4153.846191,4246.410156,4213.333496,4142.436035,4143.077148,4136.025879,4586.282227,4445.769043,4374.487305,4539.743652,5850.000000,4.000000,78.000000,,,,0.000000,4.000000,4.000000,4.000000,4.000000,4.000000,4.000000,4.000000,4.000000,4.000000,4.000000,4.000000,4.000000,4.000000,4.000000,100.000000,1.000000,66.666664,4.000000,4.000000,3.000000,4.000000,1.000000,4.000000,4.000000,4.000000,4.000000,4.000000,4.000000,4.000000,4.000000,4.000000,,,,,,,,,,,,
1703406528.793281,1703406528.793837,79.000000,0.000000,4187.051270,4179.358887,4275.769043,4215.769043,4150.641113,4243.846191,4212.820313,4139.487305,4142.436035,4136.666504,4585.641113,4448.205078,4371.282227,4542.563965,6128.000000,4.000000,78.000000,,,,0.000000,4.000000,4.000000,4.000000,4.000000,4.000000,4.000000,4.000000,4.000000,4.000000,4.000000,4.000000,4.000000,4.000000,4.000000,100.000000,,,,,,,,,,,,,,,,,,,,,,,,,,,,
1703406528.801089,1703406528.801645,80.000000,0.000000,4183.974121,4185.000000,4275.384766,4214.743652,4150.512695,4246.922852,4213.077148,4137.307617,4145.256348,4135.128418,4579.230957,4444.871582,4362.051270,4537.179688,6538.000000,4.000000,78.000000,,,,0.000000,4.000000,4.000000,4.000000,4.000000,4.000000,4.000000,4.000000,4.000000,4.000000,4.000000,4.000000,4.000000,4.000000,4.000000,100.000000,,,,,,,,,,,,,,,,,20.000000,0.000000,0.627722,0.304443,-0.617859,0.362671,0.996215,-0.051276,0.051276,-13.919173,-42.759102,63.895538
1703406528.808897,1703406528.809353,81.000000,0.000000,4185.000000,4186.794922,4278.589844,4216.282227,4156.282227,4247.692383,4213.077148,4136.282227,4145.128418,4138.205078,4580.256348,4445.000000,4364.358887,4540.384766,7019.000000,4.000000,78.000000,,,,0.000000,4.000000,4.000000,4.000000,4.000000,4.000000,4.000000,4.000000,4.000000,4.000000,4.000000,4.000000,4.000000,4.000000,4.000000,100.000000,,,,,,,,,,,,,,,,,,,,,,,,,,,,
1703406528.816705,1703406528.817161,82.000000,0.000000,4188.589844,4186.410156,4281.410156,4217.563965,4154.743652,4246.153809,4210.128418,4134.615234,4140.256348,4132.692383,4586.410156,4447.179688,4369.358887,4546.794922,5850.000000,4.000000,78.000000,,,,0.000000,4.000000,4.000000,4.000000,4.000000,4.000000,4.000000,4.000000,4.000000,4.000000,4.000000,4.000000,4.000000,4.000000,4.000000,100.000000,,,,,,,,,,,,,,,,,,,,,,,,,,,,
1703406528.824513,1703406528.824869,83.000000,0.000000,4186.410156,4186.282227,4276.410156,4213.974121,4146.538574,4240.897461,4207.692383,4134.358887,4138.205078,4129.615234,4586.282227,4445.641113,4368.333496,4543.077148,6128.000000,4.000000,78.000000,,,,0.000000,4.000000,4.000000,4.000000,4.000000,4.000000,4.000000,4.000000,4.000000,4.000000,4.000000,4.000000,4.000000,4.000000,4.000000,100.000000,,,,,,,,,,,,,,,,,,,,,,,,,,,,
1703406528.832321,1703406528.832677,84.000000,0.000000,4185.384766,4184.871582,4279.230957,4212.436035,4142.179688,4236.794922,4207.692383,4135.897461,4141.922852,4136.922852,4584.358887,4445.000000,4364.102539,4538.461426,6538.000000,4.000000,78.000000,,,,0.000000,4.000000,4.000000,4.000000,4.000000,4.000000,4.000000,4.000000,4.000000,4.000000,4.000000,4.000000,4.000000,4.000000,4.000000,100.000000,,,,,,,,,,,,,,,,,21.000000,0.000000,0.628407,0.303589,-0.617798,0.362305,0.988890,-0.049322,0.057136,-13.960589,-42.499859,63.922653
1703406528.840129,1703406528.840385,85.000000,0.000000,4187.820313,4182.179688,4286.794922,4214.743652,4141.282227,4236.538574,4203.461426,4138.461426,4144.615234,4139.871582,4585.000000,4447.820313,4359.487305,4540.512695,7019.000000,4.000000,78.000000,,,,0.000000,4.000000,4.000000,4.000000,4.000000,4.000000,4.000000,4.000000,4.000000,4.000000,4.000000,4.000000,4.000000,4.000000,4.000000,100.000000,,,,,,,,,,,,,,,,,,,,,,,,,,,,
1703406528.847937,1703406528.848193,86.000000,0.000000,4186.410156,4181.410156,4284.102539,4214.358887,4139.487305,4233.205078,4197.436035,4134.871582,4141.282227,4134.743652,4583.461426,4447.051270,4357.051270,4542.563965,5850.000000,4.000000,78.000000,,,,0.000000,4.000000,4.000000,4.000000,4.000000,4.000000,4.000000,4.000000,4.000000,4.000000,4.000000,4.000000,4.000000,4.000000,4.000000,100.000000,,,,,,,,,,,,,,,,,,,,,,,,,,,,
1703406528.855745,1703406528.855902,87.000000,0.000000,4184.871582,4183.589844,4278.205078,4213.717773,4143.846191,4232.563965,4198.974121,4127.307617,4139.102539,4134.743652,4582.948730,4444.230957,4358.589844,4542.051270,6128.000000,4.000000,78.000000,,,,0.000000,4.000000,4.000000,4.000000,4.000000,4.000000,4.000000,4.000000,4.000000,4.000000,4.000000,4.000000,4.000000,4.000000,4.000000,100.000000,,,,,,,,,,,,,,,,,,,,,,,,,,,,
1703406528.863553,1703406528.863709,88.000000,0.000000,4185.769043,4181.153809,4275.897461,4213.846191,4149.871582,4235.641113,4201.025879,4126.282227,4141.025879,4136.025879,4584.358887,4444.743652,4358.333496,4541.282227,6538.000000,4.000000,78.000000,,,,0.000000,4.000000,4.000000,4.000000,4.000000,4.000000,4.000000,4.000000,4.000000,4.000000,4.000000,4.000000,4.000000,4.000000,4.000000,100.000000,,,,,,,,,,,,,,,,,22.000000,0.000000,0.628675,0.302307,-0.618225,0.362183,1.004517,-0.037602,0.058601,-14.064530,-42.249870,64.080383
1703406528.871361,1703406528.871418,89.000000,0.000000,4186.282227,4179.230957,4272.563965,4213.205078,4144.743652,4233.333496,4197.563965,4127.563965,4142.436035,4129.487305,4579.358887,4440.769043,4355.128418,4540.769043,7019.000000,4.000000,78.000000,,,,0.000000,4.000000,4.000000,4.000000,4.000000,4.000000,4.000000,4.000000,4.000000,4.000000,4.000000,4.000000,4.000000,4.000000,4.000000,100.000000,,,,,,,,,,,,,,,,,,,,,,,,,,,,
1703406528.879169,1703406528.879325,90.000000,0.000000,4181.025879,4180.641113,4269.871582,4211.410156,4138.974121,4231.153809,4197.436035,4123.333496,4137.307617,4123.205078,4568.205078,4432.436035,4350.128418,4538.846191,5850.000000,4.000000,78.000000,,,,0.000000,4.000000,4.000000,4.000000,4.000000,4.000000,4.000000,4.000000,4.000000,4.000000,4.000000,4.000000,4.000000,4.000000,4.000000,100.000000,,,,,,,,,,,,,,,,,,,,,,,,,,,,
1703406528.886978,1703406528.887133,91.000000,0.000000,4171.538574,4174.871582,4272.436035,4211.794922,4141.282227,4234.743652,4200.128418,4118.461426,4128.333496,4120.769043,4562.307617,4429.230957,4344.743652,4530.128418,6128.000000,4.000000,78.000000,,,,0.000000,4.000000,4.000000,4.000000,4.000000,4.000000,4.000000,4.000000,4.000000,4.000000,4.000000,4.000000,4.000000,4.000000,4.000000,100.000000,,,,,,,,,,,,,,,,,,,,,,,,,,,,
1703406528.894786,1703406528.895041,92.000000,0.000000,4167.692383,4167.307617,4277.307617,4213.846191,4142.948730,4235.000000,4194.615234,4119.358887,4128.717773,4120.512695,4566.282227,4430.641113,4341.922852,4525.897461,6538.000000,4.000000,78.000000,,,,0.000000,4.000000,4.000000,4.000000,4.000000,4.000000,4.000000,4.000000,4.000000,4.000000,4.000000,4.000000,4.000000,4.000000,4.000000,100.000000,,,,,,,,,,,,,,,,,23.000000,0.000000,0.628434,0.300720,-0.618958,0.362671,0.999145,-0.056159,0.056648,-14.024744,-42.141552,64.105682
1703406528.902593,1703406528.902849,93.000000,0.000000,4170.128418,4168.589844,4278.974121,4208.717773,4141.794922,4231.025879,4191.922852,4123.205078,4135.384766,4119.743652,4567.563965,4432.563965,4340.256348,4530.128418,7019.000000,4.000000,78.000000,,,,0.000000,4.000000,4.000000,4.000000,4.000000,4.000000,4.000000,4.000000,4.000000,4.000000,4.000000,4.000000,4.000000,4.000000,4.000000,100.000000,,,,,,,,,,,,,,,,,,,,,,,,,,,,
1703406528.910402,1703406528.910657,94.000000,0.000000,4168.333496,4168.077148,4278.077148,4201.282227,4141.153809,4231.922852,4197.436035,4124.487305,4134.615234,4119.102539,4562.436035,4432.307617,4335.256348,4526.538574,5850.000000,4.000000,78.000000,,,,0.000000,4.000000,4.000000,4.000000,4.000000,4.000000,4.000000,4.000000,4.000000,4.000000,4.000000,4.000000,4.000000,4.000000,4.000000,100.000000,,,,,,,,,,,,,,,,,,,,,,,,,,,,
1703406528.918210,1703406528.918365,95.000000,0.000000,4165.769043,4165.000000,4279.230957,4205.384766,4141.282227,4234.615234,4195.128418,4121.922852,4131.666504,4120.641113,4563.974121,4435.128418,4336.666504,4524.358887,6128.000000,4.000000,78.000000,,,,0.000000,4.000000,4.000000,4.000000,4.000000,4.000000,4.000000,4.000000,4.000000,4.000000,4.000000,4.000000,4.000000,4.000000,4.000000,100.000000,,,,,,,,,,,,,,,,,,,,,,,,,,,,
1703406528.926018,1703406528.926173,96.000000,0.000000,4169.743652,4169.743652,4280.897461,4212.307617,4141.025879,4237.179688,4190.512695,4124.615234,4135.769043,4123.589844,4570.000000,4442.692383,4344.230957,4536.025879,6538.000000,4.000000,78.000000,,,,0.000000,4.000000,4.000000,4.000000,4.000000,4.000000,4.000000,4.000000,4.000000,4.000000,4.000000,4.000000,4.000000,4.000000,4.000000,100.000000,,,,,,,,,,,,,,,,,24.000000,0.000000,0.627940,0.299377,-0.619751,0.363281,0.996704,-0.061043,0.057624,-14.072269,-42.010731,64.045113
1703406528.933826,1703406528.933881,97.000000,0.000000,4170.641113,4174.230957,4280.897461,4210.897461,4138.974121,4237.179688,4191.922852,4135.000000,4140.000000,4130.000000,4570.512695,4446.410156,4344.102539,4540.000000,7019.000000,4.000000,78.000000,,,,0.000000,4.000000,4.000000,4.000000,4.000000,4.000000,4.000000,4.000000,4.000000,4.000000,4.000000,4.000000,4.000000,4.000000,4.000000,100.000000,,,,,,,,,,,,,,,,,,,,,,,,,,,,
1703406528.941634,1703406528.941789,98.000000,0.000000,4173.846191,4177.436035,4282.692383,4212.436035,4139.487305,4233.974121,4188.846191,4141.025879,4141.025879,4137.436035,4574.102539,4446.794922,4345.000000,4538.974121,5850.000000,4.000000,78.000000,,,,0.000000,4.000000,4.000000,4.000000,4.000000,4.000000,4.000000,4.000000,4.000000,4.000000,4.000000,4.000000,4.000000,4.000000,4.000000,100.000000,,,,,,,,,,,,,,,,,,,,,,,,,,,,
1703406528.949442,1703406528.949597,99.000000,0.000000,4185.897461,4185.128418,4286.666504,4219.230957,4142.179688,4233.974121,4183.974121,4139.615234,4140.384766,4141.025879,4584.487305,4450.000000,4352.436035,4547.948730,6128.000000,4.000000,78.000000,,,,0.000000,4.000000,4.000000,4.000000,4.000000,4.000000,4.000000,4.000000,4.000000,4.000000,4.000000,4.000000,4.000000,4.000000,4.000000,100.000000,,,,,,,,,,,,,,,,,,,,,,,,,,,,
1703406528.957250,1703406528.957505,100.000000,0.000000,4184.871582,4181.922852,4284.743652,4217.179688,4140.256348,4235.000000,4185.512695,4137.563965,4138.974121,4137.948730,4583.205078,4449.871582,4350.384766,4546.794922,6538.000000,4.000000,78.000000,,,,0.000000,4.000000,4.000000,4.000000,4.000000,4.000000,4.000000,4.000000,4.000000,4.000000,4.000000,4.000000,4.000000,4.000000,4.000000,100.000000,,,,,,,,,,,,,,,,,25.000000,0.000000,0.627313,0.298401,-0.620605,0.363708,0.994750,-0.061043,0.042486,-14.298376,-41.976322,64.073936
1703406528.965058,1703406528.965313,101.000000,0.000000,4171.794922,4169.487305,4278.077148,4212.307617,4137.307617,4234.102539,4191.153809,4138.461426,4139.102539,4131.922852,4573.589844,4445.769043,4341.282227,4534.871582,7019.000000,4.000000,78.000000,,,,0.000000,4.000000,4.000000,4.000000,4.000000,4.000000,4.000000,4.000000,4.000000,4.000000,4.000000,4.000000,4.000000,4.000000,4.000000,100.000000,,,,,,,,,,,,,,,,,,,,,,,,,,,,
1703406528.972866,1703406528.973221,102.000000,0.000000,4170.128418,4167.436035,4273.589844,4211.410156,4138.461426,4232.436035,4195.512695,4137.436035,4137.692383,4125.769043,4570.512695,4443.589844,4335.769043,4535.256348,5850.000000,4.000000,78.000000,,,,0.000000,4.000000,4.000000,4.000000,4.000000,4.000000,4.000000,4.000000,4.000000,4.000000,4.000000,4.000000,4.000000,4.000000,4.000000,100.000000,,,,,,,,,,,,,,,,,,,,,,,,,,,,
1703406528.980674,1703406528.981029,103.000000,0.000000,4173.461426,4170.512695,4270.384766,4205.000000,4138.333496,4231.410156,4193.077148,4137.820313,4135.128418,4122.307617,4570.256348,4441.666504,4332.820313,4537.692383,6128.000000,4.000000,78.000000,,,,0.000000,4.000000,4.000000,4.000000,4.000000,4.000000,4.000000,4.000000,4.000000,4.000000,4.000000,4.000000,4.000000,4.000000,4.000000,100.000000,,,,,,,,,,,,,,,,,,,,,,,,,,,,
1703406528.988482,1703406528.988737,104.000000,0.000000,4169.230957,4169.102539,4269.358887,4199.487305,4137.179688,4229.487305,4188.333496,4138.589844,4136.410156,4124.487305,4569.615234,4441.410156,4331.922852,4532.436035,6538.000000,4.000000,78.000000,,,,0.000000,4.000000,4.000000,4.000000,4.000000,4.000000,4.000000,4.000000,4.000000,4.000000,4.000000,4.000000,4.000000,4.000000,4.000000,100.000000,,,,,,,,,,,,,,,,,26.000000,0.000000,0.626435,0.297668,-0.621521,0.364258,0.993285,-0.068856,0.050299,-14.318539,-42.062023,64.183205
1703406528.996290,1703406528.996545,105.000000,0.000000,4168.333496,4169.487305,4271.922852,4207.948730,4138.589844,4227.179688,4188.333496,4130.641113,4136.666504,4123.974121,4570.641113,4443.333496,4332.307617,4532.179688,7019.000000,4.000000,78.000000,,,,0.000000,4.000000,4.000000,4.000000,4.000000,4.000000,4.000000,4.000000,4.000000,4.000000,4.000000,4.000000,4.000000,4.000000,4.000000,100.000000,,,,,,,,,,,,,,,,,,,,,,,,,,,,
1703406529.004098,1703406529.004253,106.000000,0.000000,4173.461426,4172.436035,4273.205078,4217.307617,4140.256348,4226.153809,4185.128418,4123.461426,4132.051270,4121.410156,4569.871582,4442.307617,4331.410156,4537.307617,5850.000000,4.000000,78.000000,,,,0.000000,4.000000,4.000000,4.000000,4.000000,4.000000,4.000000,4.000000,4.000000,4.000000,4.000000,4.000000,4.000000,4.000000,4.000000,100.000000,,,,,,,,,,,,,,,,,,,,,,,,,,,,
1703406529.011906,1703406529.012161,107.000000,0.000000,4178.333496,4177.436035,4274.615234,4215.641113,4138.461426,4228.974121,4182.307617,4127.436035,4131.538574,4123.974121,4569.358887,4443.974121,4333.333496,4538.461426,6128.000000,4.000000,78.000000,,,,0.000000,4.000000,4.000000,4.000000,4.000000,4.000000,4.000000,4.000000,4.000000,4.000000,4.000000,4.000000,4.000000,4.000000,4.000000,100.000000,,,,,,,,,,,,,,,,,,,,,,,,,,,,
1703406529.019714,1703406529.019969,108.000000,0.000000,4184.102539,4183.205078,4279.487305,4216.794922,4137.436035,4232.563965,4187.307617,4129.102539,4135.512695,4125.769043,4570.897461,4448.589844,4336.538574,4540.000000,6538.000000,4.000000,78.000000,,,,0.000000,4.000000,4.000000,4.000000,4.000000,4.000000,4.000000,4.000000,4.000000,4.000000,4.000000,4.000000,4.000000,4.000000,4.000000,100.000000,,,,,,,,,,,,,,,,,27.000000,0.000000,0.626012,0.297241,-0.622009,0.364502,0.989379,-0.075693,0.033696,-14.336684,-42.055820,64.231552
1703406529.027522,1703406529.027777,109.000000,0.000000,4185.897461,4182.692383,4281.153809,4223.589844,4142.307617,4231.153809,4189.487305,4126.922852,4135.256348,4127.563965,4571.153809,4448.077148,4335.384766,4541.025879,7019.000000,4.000000,78.000000,,,,0.000000,4.000000,4.000000,4.000000,4.000000,4.000000,4.000000,4.000000,4.000000,4.000000,4.000000,4.000000,4.000000,4.000000,4.000000,100.000000,,,,,,,,,,,,,,,,,,,,,,,,,,,,
1703406529.035330,1703406529.035486,110.000000,0.000000,4186.025879,4183.589844,4280.128418,4224.230957,4146.153809,4232.051270,4186.794922,4132.820313,4134.230957,4134.615234,4574.871582,4450.128418,4335.897461,4540.384766,5850.000000,4.000000,78.000000,,,,0.000000,4.000000,4.000000,4.000000,4.000000,4.000000,4.000000,4.000000,4.000000,4.000000,4.000000,4.000000,4.000000,4.000000,4.000000,100.000000,,,,,,,,,,,,,,,,,,,,,,,,,,,,
1703406529.043138,1703406529.043294,111.000000,0.000000,4187.563965,4184.743652,4280.256348,4218.846191,4141.410156,4235.512695,4185.256348,4139.615234,4137.948730,4138.589844,4580.256348,4455.769043,4336.410156,4540.256348,6128.000000,4.000000,78.000000,,,,0.000000,4.000000,4.000000,4.000000,4.000000,4.000000,4.000000,4.000000,4.000000,4.000000,4.000000,4.000000,4.000000,4.000000,4.000000,100.000000,,,,,,,,,,,,,,,,,,,,,,,,,,,,
1703406529.050947,1703406529.051002,112.000000,0.000000,4184.230957,4175.512695,4274.487305,4212.307617,4136.153809,4226.025879,4184.871582,4139.358887,4139.487305,4130.769043,4576.538574,4452.436035,4328.589844,4539.358887,6538.000000,4.000000,78.000000,,,,0.000000,4.000000,4.000000,4.000000,4.000000,4.000000,4.000000,4.000000,4.000000,4.000000,4.000000,4.000000,4.000000,4.000000,4.000000,100.000000,,,,,,,,,,,,,,,,,28.000000,0.000000,0.625164,0.296326,-0.623047,0.364929,0.995239,-0.087901,0.039556,-14.269683,-42.016907,64.275063
1703406529.058755,1703406529.058810,113.000000,0.000000,4182.563965,4168.846191,4269.487305,4213.333496,4139.358887,4219.358887,4184.615234,4137.051270,4135.897461,4122.179688,4570.000000,4445.897461,4325.000000,4533.589844,7019.000000,4.000000,78.000000,,,,0.000000,4.000000,4.000000,4.000000,4.000000,4.000000,4.000000,4.000000,4.000000,4.000000,4.000000,4.000000,4.000000,4.000000,4.000000,100.000000,,,,,,,,,,,,,,,,,,,,,,,,,,,,
1703406529.066563,1703406529.066518,114.000000,0.000000,4180.512695,4172.179688,4269.230957,4213.974121,4141.794922,4227.436035,4184.615234,4138.205078,4135.897461,4125.000000,4571.538574,4444.615234,4325.897461,4527.563965,5850.000000,4.000000,78.000000,,,,0.000000,4.000000,4.000000,4.000000,4.000000,4.000000,4.000000,4.000000,4.000000,4.000000,4.000000,4.000000,4.000000,4.000000,4.000000,100.000000,,,,,,,,,,,,,,,,,,,,,,,,,,,,
1703406529.074371,1703406529.074426,115.000000,0.000000,4172.436035,4170.512695,4265.512695,4204.102539,4135.512695,4226.666504,4185.512695,4140.128418,4137.948730,4128.077148,4572.436035,4438.461426,4320.000000,4523.461426,6128.000000,4.000000,78.000000,,,,0.000000,4.000000,4.000000,4.000000,4.000000,4.000000,4.000000,4.000000,4.000000,4.000000,4.000000,4.000000,4.000000,4.000000,4.000000,100.000000,,,,,,,,,,,,,,,,,,,,,,,,,,,,
1703406529.082179,1703406529.082233,116.000000,0.000000,4173.077148,4166.153809,4262.179688,4202.179688,4134.358887,4219.358887,4188.461426,4132.948730,4136.794922,4122.563965,4566.282227,4429.615234,4313.461426,4520.000000,6538.000000,4.000000,78.000000,,,,0.000000,4.000000,4.000000,4.000000,4.000000,4.000000,4.000000,4.000000,4.000000,4.000000,4.000000,4.000000,4.000000,4.000000,4.000000,100.000000,,,,,,,,,,,,,,,,,29.000000,0.000000,0.624411,0.294922,-0.624146,0.365479,0.979612,-0.096691,0.031742,-14.292714,-41.931881,64.197556
1703406529.089987,1703406529.090041,117.000000,0.000000,4181.666504,4170.641113,4267.179688,4213.974121,4144.358887,4221.922852,4191.538574,4125.000000,4134.102539,4121.794922,4564.102539,4433.846191,4318.077148,4524.871582,7019.000000,4.000000,78.000000,,,,0.000000,4.000000,4.000000,4.000000,4.000000,4.000000,4.000000,4.000000,4.000000,4.000000,4.000000,4.000000,4.000000,4.000000,4.000000,100.000000,,,,,,,,,,,,,,,,,,,,,,,,,,,,
1703406529.097795,1703406529.097750,118.000000,0.000000,4188.846191,4178.717773,4273.077148,4219.615234,4152.051270,4226.153809,4191.025879,4132.051270,4136.794922,4133.589844,4576.153809,4445.256348,4332.436035,4536.922852,5850.000000,4.000000,78.000000,,,,0.000000,4.000000,4.000000,4.000000,4.000000,4.000000,4.000000,4.000000,4.000000,4.000000,4.000000,4.000000,4.000000,4.000000,4.000000,100.000000,,,,,,,,,,,,,,,,,,,,,,,,,,,,
1703406529.105603,1703406529.105657,119.000000,0.000000,4197.820313,4185.897461,4276.282227,4218.461426,4152.051270,4223.205078,4187.307617,4138.333496,4140.641113,4140.128418,4588.077148,4450.384766,4343.205078,4544.230957,6128.000000,4.000000,78.000000,,,,0.000000,4.000000,4.000000,4.000000,4.000000,4.000000,4.000000,4.000000,4.000000,4.000000,4.000000,4.000000,4.000000,4.000000,4.000000,100.000000,,,,,,,,,,,,,,,,,,,,,,,,,,,,
1703406529.113411,1703406529.113465,120.000000,0.000000,4195.512695,4182.307617,4275.128418,4217.436035,4148.077148,4220.512695,4184.615234,4124.102539,4133.461426,4130.000000,4578.589844,4444.230957,4335.128418,4535.384766,6538.000000,4.000000,78.000000,,,,0.000000,4.000000,4.000000,4.000000,4.000000,4.000000,4.000000,4.000000,4.000000,4.000000,4.000000,4.000000,4.000000,4.000000,4.000000,100.000000,,,,,,,,,,,,,,,,,30.000000,0.000000,0.623683,0.293579,-0.625183,0.366028,0.967892,-0.098645,0.043951,-14.413444,-41.905361,64.161133
1703406529.121219,1703406529.121373,121.000000,0.000000,4184.615234,4172.179688,4271.794922,4214.871582,4142.307617,4220.000000,4185.384766,4109.230957,4122.307617,4120.384766,4564.615234,4438.333496,4321.794922,4524.487305,7019.000000,4.000000,78.000000,,,,0.000000,4.000000,4.000000,4.000000,4.000000,4.000000,4.000000,4.000000,4.000000,4.000000,4.000000,4.000000,4.000000,4.000000,4.000000,100.000000,,,,,,,,,,,,,,,,,,,,,,,,,,,,
1703406529.129027,1703406529.129181,122.000000,0.000000,4192.948730,4177.307617,4277.820313,4222.948730,4138.974121,4217.820313,4182.563965,4112.051270,4126.025879,4127.820313,4574.871582,4446.153809,4330.384766,4532.820313,5850.000000,4.000000,78.000000,,,,0.000000,4.000000,4.000000,4.000000,4.000000,4.000000,4.000000,4.000000,4.000000,4.000000,4.000000,4.000000,4.000000,4.000000,4.000000,100.000000,,,,,,,,,,,,,,,,,,,,,,,,,,,,
1703406529.136835,1703406529.137089,123.000000,0.000000,4206.282227,4186.282227,4286.153809,4230.128418,4144.230957,4219.230957,4174.743652,4120.512695,4136.282227,4138.589844,4588.461426,4453.333496,4342.307617,4542.179688,6128.000000,4.000000,78.000000,,,,0.000000,4.000000,4.000000,4.000000,4.000000,4.000000,4.000000,4.000000,4.000000,4.000000,4.000000,4.000000,4.000000,4.000000,4.000000,100.000000,,,,,,,,,,,,,,,,,,,,,,,,,,,,
1703406529.144643,1703406529.144897,124.000000,0.000000,4200.256348,4183.717773,4280.641113,4220.769043,4151.410156,4223.461426,4175.256348,4127.051270,4136.922852,4138.333496,4584.615234,4452.179688,4336.410156,4537.051270,6538.000000,4.000000,78.000000,,,,0.000000,4.000000,4.000000,4.000000,4.000000,4.000000,4.000000,4.000000,4.000000,4.000000,4.000000,4.000000,4.000000,4.000000,4.000000,100.000000,,,,,,,,,,,,,,,,,31.000000,0.000000,0.622706,0.292297,-0.626221,0.366943,0.974728,-0.096691,0.048834,-14.538766,-41.948158,64.161690
1703406529.152451,1703406529.152805,125.000000,0.000000,4196.666504,4182.563965,4276.025879,4220.384766,4148.589844,4223.717773,4183.461426,4135.769043,4136.922852,4135.641113,4583.589844,4457.563965,4337.179688,4534.487305,7019.000000,4.000000,78.000000,,,,0.000000,4.000000,4.000000,4.000000,4.000000,4.000000,4.000000,4.000000,4.000000,4.000000,4.000000,4.000000,4.000000,4.000000,4.000000,100.000000,,,,,,,,,,,,,,,,,,,,,,,,,,,,
1703406529.160259,1703406529.160613,126.000000,0.000000,4198.717773,4183.205078,4279.358887,4227.820313,4142.051270,4223.846191,4185.256348,4141.282227,4139.487305,4133.333496,4585.512695,4460.384766,4341.153809,4536.410156,5850.000000,4.000000,78.000000,,,,0.000000,4.000000,4.000000,4.000000,4.000000,4.000000,4.000000,4.000000,4.000000,4.000000,4.000000,4.000000,4.000000,4.000000,4.000000,100.000000,,,,,,,,,,,,,,,,,,,,,,,,,,,,
1703406529.168067,1703406529.168521,127.000000,0.000000,4192.179688,4174.743652,4276.025879,4221.794922,4141.025879,4229.487305,4183.461426,4134.358887,4132.563965,4125.256348,4574.358887,4447.051270,4330.000000,4528.333496,78.000000,4.000000,78.000000,,,,0.000000,4.000000,4.000000,4.000000,4.000000,4.000000,4.000000,4.000000,4.000000,4.000000,4.000000,4.000000,4.000000,4.000000,4.000000,100.000000,,,,,,,,,,,,,,,,,,,,,,,,,,,,
1703406529.175875,1703406529.176329,0.000000,0.000000,4184.871582,4167.307617,4269.615234,4212.563965,4140.384766,4230.000000,4187.307617,4123.974121,4123.589844,4118.717773,4566.794922,4438.717773,4322.307617,4518.205078,4617.000000,4.000000,78.000000,,,,0.000000,4.000000,4.000000,4.000000,4.000000,4.000000,4.000000,4.000000,4.000000,4.000000,4.000000,4.000000,4.000000,4.000000,4.000000,100.000000,,,,,,,,,,,,,,,,,0.000000,0.000000,0.621689,0.291138,-0.627197,0.367920,0.986937,-0.091320,0.046392,-14.501555,-41.786674,64.045517
1703406529.183683,1703406529.184037,1.000000,0.000000,4186.025879,4168.205078,4270.769043,4215.384766,4139.102539,4222.948730,4188.205078,4122.436035,4128.205078,4124.743652,4576.666504,4443.461426,4330.384766,4518.077148,5227.000000,4.000000,78.000000,,,,0.000000,4.000000,4.000000,4.000000,4.000000,4.000000,4.000000,4.000000,4.000000,4.000000,4.000000,4.000000,4.000000,4.000000,4.000000,100.000000,,,,,,,,,,,,,,,,,,,,,,,,,,,,
1703406529.191491,1703406529.191845,2.000000,0.000000,4193.846191,4172.948730,4276.025879,4224.102539,4146.282227,4227.563965,4183.461426,4129.358887,4137.948730,4134.743652,4586.153809,4447.563965,4338.974121,4527.948730,5283.000000,4.000000,78.000000,,,,0.000000,4.000000,4.000000,4.000000,4.000000,4.000000,4.000000,4.000000,4.000000,4.000000,4.000000,4.000000,4.000000,4.000000,4.000000,100.000000,,,,,,,,,,,,,,,,,,,,,,,,,,,,
1703406529.199299,1703406529.199553,3.000000,0.000000,4202.436035,4181.282227,4279.358887,4231.666504,4153.077148,4234.487305,4181.666504,4137.307617,4139.230957,4137.820313,4588.205078,4450.256348,4341.410156,4538.846191,5282.000000,4.000000,78.000000,,,,0.000000,4.000000,4.000000,4.000000,4.000000,4.000000,4.000000,4.000000,4.000000,4.000000,4.000000,4.000000,4.000000,4.000000,4.000000,100.000000,,,,,,,,,,,,,,,,,,,,,,,,,,,,
1703406529.207107,1703406529.207361,4.000000,0.000000,4202.307617,4184.102539,4279.230957,4232.307617,4151.922852,4229.615234,4183.717773,4132.692383,4136.153809,4135.641113,4589.102539,4451.794922,4344.230957,4540.128418,5003.000000,4.000000,78.000000,,,,0.000000,4.000000,4.000000,4.000000,4.000000,4.000000,4.000000,4.000000,4.000000,4.000000,4.000000,4.000000,4.000000,4.000000,4.000000,100.000000,,,,,,,,,,,,,,,,,1.000000,0.000000,0.620443,0.290222,-0.628174,0.369080,1.000610,-0.112318,0.033696,-14.334733,-41.858009,63.990967
1703406529.214916,1703406529.215069,5.000000,0.000000,4199.487305,4181.282227,4279.230957,4232.179688,4151.794922,4226.666504,4185.128418,4119.871582,4135.384766,4136.538574,4589.358887,4453.717773,4347.436035,4535.897461,2827.000000,4.000000,78.000000,,,,0.000000,4.000000,4.000000,4.000000,4.000000,4.000000,4.000000,4.000000,4.000000,4.000000,4.000000,4.000000,4.000000,4.000000,4.000000,100.000000,,,,,,,,,,,,,,,,,,,,,,,,,,,,
1703406529.222724,1703406529.222877,6.000000,0.000000,4206.410156,4189.871582,4285.512695,4240.000000,4156.025879,4231.153809,4182.436035,4114.230957,4135.000000,4140.000000,4592.820313,4460.128418,4350.128418,4540.769043,3036.000000,4.000000,78.000000,,,,0.000000,4.000000,4.000000,4.000000,4.000000,4.000000,4.000000,4.000000,4.000000,4.000000,4.000000,4.000000,4.000000,4.000000,4.000000,100.000000,,,,,,,,,,,,,,,,,,,,,,,,,,,,
1703406529.230532,1703406529.230585,7.000000,0.000000,4216.025879,4200.384766,4289.871582,4246.153809,4156.794922,4227.051270,4181.025879,4120.641113,4135.897461,4139.487305,4597.948730,4465.897461,4353.717773,4548.205078,5387.000000,4.000000,78.000000,,,,0.000000,4.000000,4.000000,4.000000,4.000000,4.000000,4.000000,4.000000,4.000000,4.000000,4.000000,4.000000,4.000000,4.000000,4.000000,100.000000,,,,,,,,,,,,,,,,,,,,,,,,,,,,
1703406529.238340,1703406529.238393,8.000000,0.000000,4216.922852,4195.000000,4288.077148,4247.179688,4155.128418,4220.769043,4185.000000,4133.077148,4140.000000,4139.358887,4600.641113,4470.769043,4356.282227,4545.384766,4762.000000,4.000000,78.000000,,,,0.000000,4.000000,4.000000,4.000000,4.000000,4.000000,4.000000,4.000000,4.000000,4.000000,4.000000,4.000000,4.000000,4.000000,4.000000,100.000000,,,,,,,,,,,,,,,,,2.000000,0.000000,0.619605,0.289734,-0.628723,0.369934,0.992309,-0.118667,0.034184,-14.384593,-41.855541,64.125206
1703406529.246148,1703406529.246101,9.000000,0.000000,4211.153809,4185.769043,4286.794922,4242.948730,4157.179688,4222.051270,4187.051270,4141.153809,4140.897461,4141.666504,4599.743652,4473.461426,4354.871582,4540.512695,5222.000000,4.000000,78.000000,,,,0.000000,4.000000,4.000000,4.000000,4.000000,4.000000,4.000000,4.000000,4.000000,4.000000,4.000000,4.000000,4.000000,4.000000,4.000000,100.000000,,,,,,,,,,,,,,,,,,,,,,,,,,,,
1703406529.253956,1703406529.253909,10.000000,0.000000,4205.384766,4186.282227,4285.512695,4236.282227,4160.256348,4221.282227,4185.897461,4141.282227,4137.692383,4141.153809,4594.871582,4467.692383,4349.230957,4538.333496,5853.000000,4.000000,78.000000,,,,0.000000,4.000000,4.000000,4.000000,4.000000,4.000000,4.000000,4.000000,4.000000,4.000000,4.000000,4.000000,4.000000,4.000000,4.000000,100.000000,,,,,,,,,,,,,,,,,,,,,,,,,,,,
1703406529.261764,1703406529.261617,11.000000,0.000000,4203.205078,4186.922852,4280.769043,4236.025879,4158.333496,4222.436035,4190.000000,4138.205078,4135.769043,4137.692383,4589.230957,4456.538574,4345.000000,4532.820313,6128.000000,4.000000,78.000000,,,,0.000000,4.000000,4.000000,4.000000,4.000000,4.000000,4.000000,4.000000,4.000000,4.000000,4.000000,4.000000,4.000000,4.000000,4.000000,100.000000,,,,,,,,,,,,,,,,,,,,,,,,,,,,
1703406529.269572,1703406529.269525,12.000000,0.000000,4200.512695,4179.358887,4273.974121,4235.384766,4155.000000,4227.692383,4192.051270,4136.794922,4136.025879,4133.846191,4583.205078,4448.333496,4340.000000,4523.846191,6546.000000,4.000000,78.000000,,,,0.000000,4.000000,4.000000,4.000000,4.000000,4.000000,4.000000,4.000000,4.000000,4.000000,4.000000,4.000000,4.000000,4.000000,4.000000,100.000000,,,,,,,,,,,,,,,,,3.000000,0.000000,0.617888,0.288879,-0.629761,0.371704,0.994750,-0.115737,0.033207,-14.429467,-41.853321,64.129349
1703406529.277380,1703406529.277333,13.000000,0.000000,4198.461426,4178.846191,4272.563965,4230.128418,4156.538574,4224.102539,4188.974121,4136.410156,4138.077148,4136.282227,4583.077148,4449.102539,4336.794922,4521.025879,7024.000000,4.000000,78.000000,,,,0.000000,4.000000,4.000000,4.000000,4.000000,4.000000,4.000000,4.000000,4.000000,4.000000,4.000000,4.000000,4.000000,4.000000,4.000000,100.000000,,,,,,,,,,,,,,,,,,,,,,,,,,,,
1703406529.285188,1703406529.285241,14.000000,0.000000,4199.743652,4181.025879,4274.358887,4232.563965,4157.051270,4214.871582,4189.871582,4136.922852,4139.871582,4143.333496,4591.282227,4452.948730,4343.333496,4524.487305,5853.000000,4.000000,78.000000,,,,0.000000,4.000000,4.000000,4.000000,4.000000,4.000000,4.000000,4.000000,4.000000,4.000000,4.000000,4.000000,4.000000,4.000000,4.000000,100.000000,1.000000,91.666664,4.000000,4.000000,4.000000,4.000000,4.000000,3.000000,4.000000,4.000000,4.000000,4.000000,4.000000,4.000000,4.000000,4.000000,,,,,,,,,,,,
1703406529.292996,1703406529.293049,15.000000,0.000000,4200.897461,4173.589844,4270.384766,4232.563965,4155.512695,4216.025879,4188.846191,4137.948730,4139.230957,4143.717773,4594.358887,4450.769043,4343.205078,4525.000000,6128.000000,4.000000,78.000000,,,,0.000000,4.000000,4.000000,4.000000,4.000000,4.000000,4.000000,4.000000,4.000000,4.000000,4.000000,4.000000,4.000000,4.000000,4.000000,100.000000,,,,,,,,,,,,,,,,,,,,,,,,,,,,
1703406529.300804,1703406529.300957,16.000000,0.000000,4191.666504,4165.256348,4264.487305,4221.025879,4154.615234,4217.948730,4188.077148,4136.410156,4137.820313,4137.179688,4585.512695,4443.717773,4329.487305,4518.205078,0.000000,4.000000,78.000000,,,,0.000000,4.000000,4.000000,4.000000,4.000000,4.000000,4.000000,4.000000,4.000000,4.000000,4.000000,4.000000,4.000000,4.000000,4.000000,100.000000,,,,,,,,,,,,,,,,,4.000000,0.000000,0.616619,0.288208,-0.630554,0.372986,0.988890,-0.125504,0.036137,-14.419854,-41.934654,64.049751
1703406529.308612,1703406529.308765,17.000000,0.000000,4182.307617,4165.384766,4265.128418,4220.769043,4153.205078,4213.333496,4193.461426,4134.743652,4138.077148,4133.974121,4580.897461,4443.589844,4323.333496,4508.205078,0.000000,4.000000,78.000000,,,,0.000000,4.000000,4.000000,4.000000,4.000000,4.000000,4.000000,4.000000,4.000000,4.000000,4.000000,4.000000,4.000000,4.000000,4.000000,100.000000,,,,,,,,,,,,,,,,,,,,,,,,,,,,
1703406529.316420,1703406529.316672,18.000000,0.000000,4189.743652,4166.794922,4268.461426,4231.666504,4154.358887,4216.666504,4193.205078,4134.871582,4137.692383,4136.025879,4586.538574,4447.051270,4328.974121,4508.974121,0.000000,4.000000,78.000000,,,,0.000000,4.000000,4.000000,4.000000,4.000000,4.000000,4.000000,4.000000,4.000000,4.000000,4.000000,4.000000,4.000000,4.000000,4.000000,100.000000,,,,,,,,,,,,,,,,,,,,,,,,,,,,
1703406529.324228,1703406529.324480,19.000000,0.000000,4202.307617,4165.512695,4269.743652,4233.717773,4156.410156,4215.897461,4185.384766,4134.871582,4136.922852,4137.179688,4591.153809,4446.153809,4330.897461,4519.102539,0.000000,4.000000,78.000000,,,,0.000000,4.000000,4.000000,4.000000,4.000000,4.000000,4.000000,4.000000,4.000000,4.000000,4.000000,4.000000,4.000000,4.000000,4.000000,100.000000,,,,,,,,,,,,,,,,,,,,,,,,,,,,
1703406529.332036,1703406529.332388,20.000000,0.000000,4204.487305,4168.205078,4272.436035,4231.153809,4153.846191,4205.256348,4182.051270,4135.512695,4136.922852,4135.000000,4595.128418,4450.384766,4335.128418,4523.333496,0.000000,4.000000,78.000000,,,,0.000000,4.000000,4.000000,4.000000,4.000000,4.000000,4.000000,4.000000,4.000000,4.000000,4.000000,4.000000,4.000000,4.000000,4.000000,100.000000,,,,,,,,,,,,,,,,,5.000000,0.000000,0.615799,0.287598,-0.631165,0.373779,0.989867,-0.132340,0.034184,-14.377869,-41.974522,64.011444
1703406529.339844,1703406529.340196,21.000000,0.000000,4202.692383,4170.897461,4276.794922,4232.051270,4150.641113,4199.743652,4187.307617,4142.051270,4137.692383,4135.769043,4599.871582,4458.205078,4342.820313,4522.692383,0.000000,4.000000,78.000000,,,,0.000000,4.000000,4.000000,4.000000,4.000000,4.000000,4.000000,4.000000,4.000000,4.000000,4.000000,4.000000,4.000000,4.000000,4.000000,100.000000,,,,,,,,,,,,,,,,,,,,,,,,,,,,
1703406529.347652,1703406529.348104,22.000000,0.000000,4210.256348,4170.897461,4278.717773,4232.307617,4153.974121,4201.922852,4191.794922,4150.897461,4144.743652,4142.179688,4603.589844,4462.948730,4344.487305,4529.743652,0.000000,4.000000,78.000000,,,,0.000000,4.000000,4.000000,4.000000,4.000000,4.000000,4.000000,4.000000,4.000000,4.000000,4.000000,4.000000,4.000000,4.000000,4.000000,100.000000,,,,,,,,,,,,,,,,,,,,,,,,,,,,
1703406529.355461,1703406529.355912,23.000000,0.000000,4218.846191,4171.666504,4276.153809,4232.948730,4157.820313,4202.051270,4192.436035,4155.128418,4151.282227,4147.820313,4606.153809,4463.974121,4347.307617,4536.025879,0.000000,4.000000,78.000000,,,,0.000000,4.000000,4.000000,4.000000,4.000000,4.000000,4.000000,4.000000,4.000000,4.000000,4.000000,4.000000,4.000000,4.000000,4.000000,100.000000,,,,,,,,,,,,,,,,,,,,,,,,,,,,
1703406529.363269,1703406529.363820,24.000000,0.000000,4212.307617,4171.025879,4270.769043,4233.846191,4155.384766,4201.153809,4194.358887,4152.563965,4147.948730,4146.153809,4602.692383,4460.000000,4349.230957,4528.589844,0.000000,4.000000,78.000000,,,,0.000000,4.000000,4.000000,4.000000,4.000000,4.000000,4.000000,4.000000,4.000000,4.000000,4.000000,4.000000,4.000000,4.000000,4.000000,100.000000,,,,,,,,,,,,,,,,,6.000000,0.000000,0.615355,0.287292,-0.631592,0.374023,0.991820,-0.120620,0.030765,-14.373415,-42.093739,64.226967
1703406529.371076,1703406529.371628,25.000000,0.000000,4202.307617,4168.846191,4267.563965,4231.410156,4151.922852,4198.333496,4193.974121,4145.128418,4142.948730,4140.256348,4598.077148,4451.538574,4343.974121,4520.512695,0.000000,4.000000,78.000000,,,,0.000000,4.000000,4.000000,4.000000,4.000000,4.000000,4.000000,4.000000,4.000000,4.000000,4.000000,4.000000,4.000000,4.000000,4.000000,100.000000,,,,,,,,,,,,,,,,,,,,,,,,,,,,
1703406529.378885,1703406529.379336,26.000000,0.000000,4202.820313,4166.282227,4267.179688,4229.743652,4151.410156,4190.128418,4190.256348,4139.230957,4142.051270,4138.589844,4597.051270,4446.153809,4340.000000,4521.794922,0.000000,4.000000,78.000000,,,,0.000000,4.000000,4.000000,4.000000,4.000000,4.000000,4.000000,4.000000,4.000000,4.000000,4.000000,4.000000,4.000000,4.000000,4.000000,100.000000,,,,,,,,,,,,,,,,,,,,,,,,,,,,
1703406529.386693,1703406529.387144,27.000000,0.000000,4206.410156,4166.282227,4267.948730,4229.615234,4152.692383,4185.384766,4190.512695,4140.641113,4138.333496,4140.000000,4594.358887,4447.307617,4340.897461,4523.333496,0.000000,4.000000,78.000000,,,,0.000000,4.000000,4.000000,4.000000,4.000000,4.000000,4.000000,4.000000,4.000000,4.000000,4.000000,4.000000,4.000000,4.000000,4.000000,100.000000,,,,,,,,,,,,,,,,,,,,,,,,,,,,
1703406529.394501,1703406529.394852,28.000000,0.000000,4202.948730,4167.820313,4265.384766,4230.512695,4151.153809,4184.230957,4191.538574,4139.487305,4134.102539,4133.461426,4588.974121,4446.538574,4342.307617,4516.282227,0.000000,4.000000,78.000000,,,,0.000000,4.000000,4.000000,4.000000,4.000000,4.000000,4.000000,4.000000,4.000000,4.000000,4.000000,4.000000,4.000000,4.000000,4.000000,100.000000,,,,,,,,,,,,,,,,,7.000000,0.000000,0.615013,0.287109,-0.632080,0.373901,0.973263,-0.116225,0.031254,-14.369407,-42.067696,64.170937
1703406529.402309,1703406529.402660,29.000000,0.000000,4199.358887,4167.179688,4261.794922,4229.358887,4150.128418,4181.794922,4185.000000,4129.358887,4134.615234,4126.025879,4583.589844,4442.051270,4337.820313,4505.384766,0.000000,4.000000,78.000000,,,,0.000000,4.000000,4.000000,4.000000,4.000000,4.000000,4.000000,4.000000,4.000000,4.000000,4.000000,4.000000,4.000000,4.000000,4.000000,100.000000,,,,,,,,,,,,,,,,,,,,,,,,,,,,
1703406529.410117,1703406529.410368,30.000000,0.000000,4204.487305,4167.179688,4266.794922,4227.436035,4151.794922,4177.563965,4181.922852,4128.974121,4136.025879,4133.077148,4584.102539,4443.333496,4336.282227,4508.589844,0.000000,4.000000,78.000000,,,,0.000000,4.000000,4.000000,4.000000,4.000000,4.000000,4.000000,4.000000,4.000000,4.000000,4.000000,4.000000,4.000000,4.000000,4.000000,100.000000,,,,,,,,,,,,,,,,,,,,,,,,,,,,
1703406529.417925,1703406529.418176,31.000000,0.000000,4214.743652,4172.179688,4275.512695,4229.615234,4151.922852,4175.512695,4185.512695,4139.358887,4138.461426,4144.743652,4596.282227,4455.769043,4347.051270,4524.102539,0.000000,4.000000,78.000000,,,,0.000000,4.000000,4.000000,4.000000,4.000000,4.000000,4.000000,4.000000,4.000000,4.000000,4.000000,4.000000,4.000000,4.000000,4.000000,100.000000,,,,,,,,,,,,,,,,,,,,,,,,,,,,
1703406529.425733,1703406529.425884,32.000000,0.000000,4218.846191,4173.077148,4276.538574,4232.051270,4153.717773,4175.256348,4185.641113,4140.769043,4140.897461,4143.974121,4605.769043,4464.358887,4356.538574,4529.230957,0.000000,4.000000,78.000000,,,,0.000000,4.000000,4.000000,4.000000,4.000000,4.000000,4.000000,4.000000,4.000000,4.000000,4.000000,4.000000,4.000000,4.000000,4.000000,100.000000,,,,,,,,,,,,,,,,,8.000000,0.000000,0.615010,0.286682,-0.632385,0.373718,0.985472,-0.123550,0.027347,-14.299133,-42.110928,64.053841
1703406529.433541,1703406529.433792,33.000000,0.000000,4215.897461,4169.487305,4271.410156,4231.153809,4155.512695,4173.077148,4186.282227,4137.563965,4140.256348,4140.769043,4601.666504,4456.538574,4353.717773,4524.615234,0.000000,4.000000,78.000000,,,,0.000000,4.000000,4.000000,4.000000,4.000000,4.000000,4.000000,4.000000,4.000000,4.000000,4.000000,4.000000,4.000000,4.000000,4.000000,100.000000,,,,,,,,,,,,,,,,,,,,,,,,,,,,
1703406529.441349,1703406529.441600,34.000000,0.000000,4213.974121,4171.794922,4268.846191,4230.769043,4154.102539,4176.282227,4186.153809,4136.025879,4137.436035,4141.922852,4598.077148,4447.692383,4351.794922,4524.743652,0.000000,4.000000,78.000000,,,,0.000000,4.000000,4.000000,4.000000,4.000000,4.000000,4.000000,4.000000,4.000000,4.000000,4.000000,4.000000,4.000000,4.000000,4.000000,100.000000,,,,,,,,,,,,,,,,,,,,,,,,,,,,
1703406529.449157,1703406529.449508,35.000000,0.000000,4214.487305,4176.538574,4270.256348,4231.666504,4153.846191,4181.282227,4184.230957,4130.641113,4135.128418,4142.051270,4601.666504,4448.589844,4357.051270,4525.641113,0.000000,4.000000,78.000000,,,,0.000000,4.000000,4.000000,4.000000,4.000000,4.000000,4.000000,4.000000,4.000000,4.000000,4.000000,4.000000,4.000000,4.000000,4.000000,100.000000,,,,,,,,,,,,,,,,,,,,,,,,,,,,
1703406529.456965,1703406529.457316,36.000000,0.000000,4214.487305,4174.615234,4272.563965,4230.641113,4155.384766,4178.461426,4186.025879,4130.000000,4137.051270,4142.563965,4601.794922,4450.384766,4358.589844,4523.205078,0.000000,4.000000,78.000000,,,,0.000000,4.000000,4.000000,4.000000,4.000000,4.000000,4.000000,4.000000,4.000000,4.000000,4.000000,4.000000,4.000000,4.000000,4.000000,100.000000,,,,,,,,,,,,,,,,,9.000000,0.000000,0.614855,0.286316,-0.632629,0.373840,0.984495,-0.119644,0.038579,-14.169220,-42.166500,64.015121
1703406529.464773,1703406529.465224,37.000000,0.000000,4212.563965,4170.512695,4273.717773,4227.692383,4153.333496,4171.538574,4188.077148,4137.948730,4140.000000,4140.384766,4599.102539,4449.358887,4357.307617,4522.307617,0.000000,4.000000,78.000000,,,,0.000000,4.000000,4.000000,4.000000,4.000000,4.000000,4.000000,4.000000,4.000000,4.000000,4.000000,4.000000,4.000000,4.000000,4.000000,100.000000,,,,,,,,,,,,,,,,,,,,,,,,,,,,
1703406529.472581,1703406529.473032,38.000000,0.000000,4208.846191,4171.282227,4271.538574,4227.563965,4151.282227,4171.538574,4185.641113,4139.102539,4138.461426,4138.077148,4600.384766,4448.589844,4362.051270,4522.692383,0.000000,4.000000,78.000000,,,,0.000000,4.000000,4.000000,4.000000,4.000000,4.000000,4.000000,4.000000,4.000000,4.000000,4.000000,4.000000,4.000000,4.000000,4.000000,100.000000,,,,,,,,,,,,,,,,,,,,,,,,,,,,
1703406529.480389,1703406529.480939,39.000000,0.000000,4206.538574,4171.794922,4271.666504,4230.769043,4152.948730,4177.563965,4184.102539,4135.512695,4136.538574,4139.743652,4602.820313,4447.179688,4369.487305,4523.205078,0.000000,4.000000,78.000000,,,,0.000000,4.000000,4.000000,4.000000,4.000000,4.000000,4.000000,4.000000,4.000000,4.000000,4.000000,4.000000,4.000000,4.000000,4.000000,100.000000,,,,,,,,,,,,,,,,,,,,,,,,,,,,
1703406529.488197,1703406529.488747,40.000000,0.000000,4204.743652,4172.563965,4272.307617,4231.666504,4152.820313,4178.589844,4186.025879,4136.666504,4139.230957,4142.307617,4604.358887,4448.205078,4371.538574,4522.563965,0.000000,4.000000,78.000000,,,,0.000000,4.000000,4.000000,4.000000,4.000000,4.000000,4.000000,4.000000,4.000000,4.000000,4.000000,4.000000,4.000000,4.000000,4.000000,100.000000,,,,,,,,,,,,,,,,,10.000000,0.000000,0.614336,0.285522,-0.633240,0.374268,0.972287,-0.122085,0.037602,-14.168964,-42.316517,63.880276
1703406529.496005,1703406529.496655,41.000000,0.000000,4202.692383,4176.538574,4270.641113,4231.153809,4153.717773,4173.974121,4184.487305,4137.820313,4139.487305,4140.769043,4601.410156,4451.794922,4364.871582,4520.000000,0.000000,4.000000,78.000000,,,,0.000000,4.000000,4.000000,4.000000,4.000000,4.000000,4.000000,4.000000,4.000000,4.000000,4.000000,4.000000,4.000000,4.000000,4.000000,100.000000,,,,,,,,,,,,,,,,,,,,,,,,,,,,
1703406529.503813,1703406529.504463,42.000000,0.000000,4203.077148,4175.000000,4271.666504,4232.436035,4154.358887,4168.589844,4181.794922,4137.692383,4134.743652,4137.436035,4595.256348,4449.358887,4360.384766,4519.230957,0.000000,4.000000,78.000000,,,,0.000000,4.000000,4.000000,4.000000,4.000000,4.000000,4.000000,4.000000,4.000000,4.000000,4.000000,4.000000,4.000000,4.000000,4.000000,100.000000,,,,,,,,,,,,,,,,,,,,,,,,,,,,
1703406529.511622,1703406529.512371,43.000000,0.000000,4204.487305,4174.615234,4273.333496,4234.358887,4153.077148,4169.871582,4182.820313,4135.128418,4136.922852,4140.512695,4594.615234,4446.025879,4362.820313,4519.615234,0.000000,4.000000,78.000000,,,,0.000000,4.000000,4.000000,4.000000,4.000000,4.000000,4.000000,4.000000,4.000000,4.000000,4.000000,4.000000,4.000000,4.000000,4.000000,100.000000,,,,,,,,,,,,,,,,,,,,,,,,,,,,
1703406529.519430,1703406529.520179,44.000000,0.000000,4204.230957,4178.461426,4271.666504,4234.487305,4154.230957,4170.641113,4183.205078,4126.025879,4137.307617,4137.948730,4596.410156,4448.717773,4363.717773,4518.846191,0.000000,4.000000,78.000000,,,,0.000000,4.000000,4.000000,4.000000,4.000000,4.000000,4.000000,4.000000,4.000000,4.000000,4.000000,4.000000,4.000000,4.000000,4.000000,100.000000,,,,,,,,,,,,,,,,,11.000000,0.000000,0.613848,0.284790,-0.633789,0.374695,0.975217,-0.133317,0.028812,-14.118734,-42.501534,64.008919
1703406529.527238,1703406529.528087,45.000000,0.000000,4205.128418,4175.128418,4272.820313,4235.897461,4155.769043,4168.461426,4182.820313,4121.538574,4127.948730,4126.794922,4594.743652,4450.000000,4363.205078,4519.230957,0.000000,4.000000,78.000000,,,,0.000000,4.000000,4.000000,4.000000,4.000000,4.000000,4.000000,4.000000,4.000000,4.000000,4.000000,4.000000,4.000000,4.000000,4.000000,100.000000,,,,,,,,,,,,,,,,,,,,,,,,,,,,
1703406529.535046,1703406529.535895,46.000000,0.000000,4205.897461,4169.615234,4275.769043,4240.128418,4154.487305,4169.615234,4184.871582,4125.000000,4126.666504,4129.358887,4595.641113,4448.333496,4366.153809,4521.922852,0.000000,4.000000,78.000000,,,,0.000000,4.000000,4.000000,4.000000,4.000000,4.000000,4.000000,4.000000,4.000000,4.000000,4.000000,4.000000,4.000000,4.000000,4.000000,100.000000,,,,,,,,,,,,,,,,,,,,,,,,,,,,
1703406529.542854,1703406529.543803,47.000000,0.000000,4208.974121,4177.436035,4274.487305,4243.717773,4154.102539,4171.282227,4184.871582,4127.179688,4135.769043,4141.025879,4597.820313,4451.410156,4368.846191,4521.922852,0.000000,4.000000,78.000000,,,,0.000000,4.000000,4.000000,4.000000,4.000000,4.000000,4.000000,4.000000,4.000000,4.000000,4.000000,4.000000,4.000000,4.000000,4.000000,100.000000,,,,,,,,,,,,,,,,,,,,,,,,,,,,
1703406529.550662,1703406529.551611,48.000000,0.000000,4215.128418,4187.948730,4274.358887,4244.487305,4155.000000,4170.256348,4183.333496,4130.384766,4137.307617,4141.666504,4600.256348,4456.922852,4371.282227,4523.846191,0.000000,4.000000,78.000000,,,,0.000000,4.000000,4.000000,4.000000,4.000000,4.000000,4.000000,4.000000,4.000000,4.000000,4.000000,4.000000,4.000000,4.000000,4.000000,100.000000,,,,,,,,,,,,,,,,,12.000000,0.000000,0.613499,0.284302,-0.634094,0.375122,0.979612,-0.131364,0.014650,-14.223528,-42.568047,63.974693
