title:الما اسفل, start timestamp:1703404825.596012, stop timestamp:1703404836.441394, headset type:EPOCX, headset serial:E50206EF, headset firmware:720, channels:67, sampling rate:eeg_128;mot_32, samples:1390      , version:2.2, 
Timestamp,OriginalTimestamp,EEG.Counter,EEG.Interpolated,EEG.AF3,EEG.F7,EEG.F3,EEG.FC5,EEG.T7,EEG.P7,EEG.O1,EEG.O2,EEG.P8,EEG.T8,EEG.FC6,EEG.F4,EEG.F8,EEG.AF4,EEG.RawCq,EEG.Battery,EEG.BatteryPercent,MarkerIndex,MarkerType,MarkerValueInt,EEG.MarkerHardware,CQ.AF3,CQ.F7,CQ.F3,CQ.FC5,CQ.T7,CQ.P7,CQ.O1,CQ.O2,CQ.P8,CQ.T8,CQ.FC6,CQ.F4,CQ.F8,CQ.AF4,CQ.Overall,EQ.SampleRateQuality,EQ.OVERALL,EQ.AF3,EQ.F7,EQ.F3,EQ.FC5,EQ.T7,EQ.P7,EQ.O1,EQ.O2,EQ.P8,EQ.T8,EQ.FC6,EQ.F4,EQ.F8,EQ.AF4,MOT.CounterMems,MOT.InterpolatedMems,MOT.Q0,MOT.Q1,MOT.Q2,MOT.Q3,MOT.AccX,MOT.AccY,MOT.AccZ,MOT.MagX,MOT.MagY,MOT.MagZ
1703404825.596012,1703404825.596657,87.000000,0.000000,4224.487305,4177.692383,4291.153809,4248.333496,4166.153809,4155.769043,4216.025879,4151.410156,4144.743652,4164.230957,4639.102539,4466.025879,4416.282227,4558.333496,6179.000000,4.000000,84.000000,,,,0.000000,4.000000,4.000000,4.000000,4.000000,4.000000,4.000000,4.000000,4.000000,4.000000,4.000000,4.000000,4.000000,4.000000,4.000000,100.000000,,,,,,,,,,,,,,,,,,,,,,,,,,,,
1703404825.603820,1703404825.604365,88.000000,0.000000,4221.410156,4168.077148,4293.461426,4243.333496,4160.000000,4157.307617,4218.461426,4154.871582,4136.153809,4175.641113,4634.358887,4463.077148,4412.692383,4549.871582,6609.000000,4.000000,84.000000,,,,0.000000,4.000000,4.000000,4.000000,4.000000,4.000000,4.000000,4.000000,4.000000,4.000000,4.000000,4.000000,4.000000,4.000000,4.000000,100.000000,,,,,,,,,,,,,,,,,22.000000,0.000000,0.658613,0.212219,-0.680664,0.240601,0.990844,-0.067879,-0.017580,-14.676390,-38.436920,63.078529
1703404825.611628,1703404825.612173,89.000000,0.000000,4217.563965,4167.948730,4287.307617,4248.974121,4156.538574,4155.769043,4219.743652,4162.307617,4129.743652,4182.179688,4628.333496,4460.128418,4410.256348,4539.358887,6536.000000,4.000000,84.000000,,,,0.000000,4.000000,4.000000,4.000000,4.000000,4.000000,4.000000,4.000000,4.000000,4.000000,4.000000,4.000000,4.000000,4.000000,4.000000,100.000000,,,,,,,,,,,,,,,,,,,,,,,,,,,,
1703404825.619436,1703404825.619881,90.000000,0.000000,4216.410156,4177.948730,4290.000000,4257.820313,4158.333496,4152.820313,4214.615234,4162.563965,4137.307617,4177.307617,4632.436035,4466.025879,4400.384766,4543.077148,5935.000000,4.000000,84.000000,,,,0.000000,4.000000,4.000000,4.000000,4.000000,4.000000,4.000000,4.000000,4.000000,4.000000,4.000000,4.000000,4.000000,4.000000,4.000000,100.000000,,,,,,,,,,,,,,,,,,,,,,,,,,,,
1703404825.627244,1703404825.627689,91.000000,0.000000,4226.025879,4178.077148,4300.384766,4254.487305,4156.153809,4152.051270,4215.128418,4157.436035,4147.436035,4179.230957,4642.692383,4478.717773,4398.205078,4553.974121,6179.000000,4.000000,84.000000,,,,0.000000,4.000000,4.000000,4.000000,4.000000,4.000000,4.000000,4.000000,4.000000,4.000000,4.000000,4.000000,4.000000,4.000000,4.000000,100.000000,,,,,,,,,,,,,,,,,,,,,,,,,,,,
1703404825.635052,1703404825.635397,92.000000,0.000000,4234.230957,4175.641113,4299.871582,4249.230957,4153.461426,4151.922852,4222.820313,4159.487305,4152.820313,4189.615234,4643.333496,4482.179688,4412.179688,4557.307617,6609.000000,4.000000,84.000000,,,,0.000000,4.000000,4.000000,4.000000,4.000000,4.000000,4.000000,4.000000,4.000000,4.000000,4.000000,4.000000,4.000000,4.000000,4.000000,100.000000,,,,,,,,,,,,,,,,,23.000000,0.000000,0.658555,0.212341,-0.680725,0.240479,0.984007,-0.048346,-0.008790,-14.708751,-38.293228,62.870674
1703404825.642860,1703404825.643205,93.000000,0.000000,4223.717773,4174.230957,4293.205078,4249.358887,4152.307617,4149.615234,4221.410156,4160.256348,4145.000000,4176.153809,4630.000000,4471.538574,4413.846191,4548.333496,6536.000000,4.000000,84.000000,,,,0.000000,4.000000,4.000000,4.000000,4.000000,4.000000,4.000000,4.000000,4.000000,4.000000,4.000000,4.000000,4.000000,4.000000,4.000000,100.000000,,,,,,,,,,,,,,,,,,,,,,,,,,,,
1703404825.650668,1703404825.650913,94.000000,0.000000,4212.820313,4170.641113,4293.974121,4254.615234,4153.589844,4151.153809,4222.051270,4154.102539,4125.384766,4149.358887,4622.436035,4467.563965,4400.000000,4540.384766,5935.000000,4.000000,84.000000,,,,0.000000,4.000000,4.000000,4.000000,4.000000,4.000000,4.000000,4.000000,4.000000,4.000000,4.000000,4.000000,4.000000,4.000000,4.000000,100.000000,,,,,,,,,,,,,,,,,,,,,,,,,,,,
1703404825.658476,1703404825.658721,95.000000,0.000000,4218.333496,4173.333496,4298.589844,4257.948730,4160.641113,4158.077148,4227.948730,4152.051270,4126.410156,4162.436035,4626.282227,4471.025879,4390.000000,4537.307617,6179.000000,4.000000,84.000000,,,,0.000000,4.000000,4.000000,4.000000,4.000000,4.000000,4.000000,4.000000,4.000000,4.000000,4.000000,4.000000,4.000000,4.000000,4.000000,100.000000,,,,,,,,,,,,,,,,,,,,,,,,,,,,
1703404825.666284,1703404825.666429,96.000000,0.000000,4224.358887,4176.666504,4299.871582,4253.589844,4161.794922,4159.615234,4222.948730,4153.589844,4141.538574,4186.538574,4631.538574,4467.179688,4391.282227,4540.769043,6609.000000,4.000000,84.000000,,,,0.000000,4.000000,4.000000,4.000000,4.000000,4.000000,4.000000,4.000000,4.000000,4.000000,4.000000,4.000000,4.000000,4.000000,4.000000,100.000000,,,,,,,,,,,,,,,,,24.000000,0.000000,0.658773,0.212402,-0.680603,0.240173,0.990844,-0.051764,-0.016115,-14.671208,-38.313908,62.866940
1703404825.674092,1703404825.674237,97.000000,0.000000,4218.974121,4170.769043,4297.820313,4248.077148,4153.589844,4154.230957,4219.743652,4151.282227,4141.666504,4185.769043,4633.077148,4466.538574,4402.948730,4547.051270,6536.000000,4.000000,84.000000,,,,0.000000,4.000000,4.000000,4.000000,4.000000,4.000000,4.000000,4.000000,4.000000,4.000000,4.000000,4.000000,4.000000,4.000000,4.000000,100.000000,,,,,,,,,,,,,,,,,,,,,,,,,,,,
1703404825.681900,1703404825.681945,98.000000,0.000000,4214.230957,4166.153809,4292.563965,4247.051270,4152.307617,4153.077148,4227.563965,4154.358887,4141.153809,4181.538574,4628.333496,4471.153809,4409.230957,4544.743652,5935.000000,4.000000,84.000000,,,,0.000000,4.000000,4.000000,4.000000,4.000000,4.000000,4.000000,4.000000,4.000000,4.000000,4.000000,4.000000,4.000000,4.000000,4.000000,100.000000,,,,,,,,,,,,,,,,,,,,,,,,,,,,
1703404825.689708,1703404825.689753,99.000000,0.000000,4215.384766,4169.487305,4287.563965,4247.436035,4158.205078,4156.794922,4230.897461,4162.948730,4143.974121,4168.461426,4625.641113,4467.820313,4400.897461,4537.948730,6179.000000,4.000000,84.000000,,,,0.000000,4.000000,4.000000,4.000000,4.000000,4.000000,4.000000,4.000000,4.000000,4.000000,4.000000,4.000000,4.000000,4.000000,4.000000,100.000000,,,,,,,,,,,,,,,,,,,,,,,,,,,,
1703404825.697517,1703404825.697461,100.000000,0.000000,4210.641113,4171.794922,4285.769043,4247.820313,4157.948730,4157.436035,4229.102539,4172.307617,4145.000000,4151.538574,4632.307617,4464.102539,4396.025879,4535.384766,6609.000000,4.000000,84.000000,,,,0.000000,4.000000,4.000000,4.000000,4.000000,4.000000,4.000000,4.000000,4.000000,4.000000,4.000000,4.000000,4.000000,4.000000,4.000000,100.000000,,,,,,,,,,,,,,,,,25.000000,0.000000,0.658822,0.212524,-0.680603,0.239929,0.989379,-0.057136,-0.021487,-14.687421,-38.165848,62.863579
1703404825.705325,1703404825.705369,101.000000,0.000000,4203.077148,4171.153809,4286.025879,4248.717773,4154.615234,4155.769043,4233.589844,4173.846191,4146.282227,4168.589844,4633.333496,4466.794922,4398.717773,4536.922852,6536.000000,4.000000,84.000000,,,,0.000000,4.000000,4.000000,4.000000,4.000000,4.000000,4.000000,4.000000,4.000000,4.000000,4.000000,4.000000,4.000000,4.000000,4.000000,100.000000,,,,,,,,,,,,,,,,,,,,,,,,,,,,
1703404825.713133,1703404825.713177,102.000000,0.000000,4210.897461,4168.333496,4291.922852,4245.769043,4152.179688,4152.948730,4234.615234,4162.948730,4156.153809,4193.974121,4621.794922,4470.128418,4391.025879,4536.666504,5935.000000,4.000000,84.000000,,,,0.000000,4.000000,4.000000,4.000000,4.000000,4.000000,4.000000,4.000000,4.000000,4.000000,4.000000,4.000000,4.000000,4.000000,4.000000,100.000000,,,,,,,,,,,,,,,,,,,,,,,,,,,,
1703404825.720941,1703404825.721085,103.000000,0.000000,4217.179688,4164.358887,4294.102539,4243.974121,4150.769043,4153.077148,4231.666504,4158.205078,4150.641113,4167.436035,4621.410156,4470.641113,4380.769043,4536.922852,6179.000000,4.000000,84.000000,,,,0.000000,4.000000,4.000000,4.000000,4.000000,4.000000,4.000000,4.000000,4.000000,4.000000,4.000000,4.000000,4.000000,4.000000,4.000000,100.000000,,,,,,,,,,,,,,,,,,,,,,,,,,,,
1703404825.728749,1703404825.728893,104.000000,0.000000,4206.025879,4163.974121,4286.922852,4244.871582,4151.794922,4157.307617,4235.769043,4160.897461,4125.256348,4138.077148,4627.051270,4467.692383,4388.077148,4536.922852,6609.000000,4.000000,84.000000,,,,0.000000,4.000000,4.000000,4.000000,4.000000,4.000000,4.000000,4.000000,4.000000,4.000000,4.000000,4.000000,4.000000,4.000000,4.000000,100.000000,,,,,,,,,,,,,,,,,26.000000,0.000000,0.658827,0.212646,-0.680603,0.239807,0.988890,-0.056159,-0.017092,-14.652013,-38.232597,62.993889
1703404825.736557,1703404825.736800,105.000000,0.000000,4202.307617,4165.256348,4284.743652,4244.615234,4147.692383,4157.563965,4239.871582,4157.563965,4124.871582,4152.436035,4620.641113,4462.307617,4395.512695,4533.333496,6536.000000,4.000000,84.000000,,,,0.000000,4.000000,4.000000,4.000000,4.000000,4.000000,4.000000,4.000000,4.000000,4.000000,4.000000,4.000000,4.000000,4.000000,4.000000,100.000000,,,,,,,,,,,,,,,,,,,,,,,,,,,,
1703404825.744365,1703404825.744608,106.000000,0.000000,4215.769043,4168.974121,4290.128418,4247.948730,4145.000000,4153.205078,4237.436035,4153.461426,4154.358887,4176.025879,4620.769043,4463.846191,4389.230957,4536.153809,5935.000000,4.000000,84.000000,,,,0.000000,4.000000,4.000000,4.000000,4.000000,4.000000,4.000000,4.000000,4.000000,4.000000,4.000000,4.000000,4.000000,4.000000,4.000000,100.000000,,,,,,,,,,,,,,,,,,,,,,,,,,,,
1703404825.752173,1703404825.752516,107.000000,0.000000,4214.871582,4172.307617,4291.025879,4252.179688,4153.333496,4152.307617,4233.205078,4157.436035,4162.563965,4181.025879,4630.769043,4464.615234,4383.846191,4536.282227,6179.000000,4.000000,84.000000,,,,0.000000,4.000000,4.000000,4.000000,4.000000,4.000000,4.000000,4.000000,4.000000,4.000000,4.000000,4.000000,4.000000,4.000000,4.000000,100.000000,,,,,,,,,,,,,,,,,,,,,,,,,,,,
1703404825.759981,1703404825.760324,108.000000,0.000000,4199.615234,4166.666504,4285.769043,4249.102539,4160.256348,4155.769043,4232.563965,4160.384766,4139.615234,4161.538574,4627.563965,4459.871582,4390.256348,4526.025879,6609.000000,4.000000,84.000000,,,,0.000000,4.000000,4.000000,4.000000,4.000000,4.000000,4.000000,4.000000,4.000000,4.000000,4.000000,4.000000,4.000000,4.000000,4.000000,100.000000,,,,,,,,,,,,,,,,,27.000000,0.000000,0.658836,0.212952,-0.680542,0.239685,0.992797,-0.047857,-0.010255,-14.670145,-38.209339,62.944500
1703404825.767789,1703404825.768232,109.000000,0.000000,4205.897461,4161.410156,4286.922852,4244.358887,4156.666504,4159.102539,4236.025879,4155.512695,4135.256348,4150.000000,4620.384766,4463.589844,4396.153809,4525.000000,6536.000000,4.000000,84.000000,,,,0.000000,4.000000,4.000000,4.000000,4.000000,4.000000,4.000000,4.000000,4.000000,4.000000,4.000000,4.000000,4.000000,4.000000,4.000000,100.000000,,,,,,,,,,,,,,,,,,,,,,,,,,,,
1703404825.775597,1703404825.776040,110.000000,0.000000,4222.692383,4169.102539,4293.205078,4251.025879,4155.128418,4160.384766,4242.179688,4156.025879,4143.589844,4166.282227,4630.641113,4473.077148,4397.948730,4540.256348,5935.000000,4.000000,84.000000,,,,0.000000,4.000000,4.000000,4.000000,4.000000,4.000000,4.000000,4.000000,4.000000,4.000000,4.000000,4.000000,4.000000,4.000000,4.000000,100.000000,,,,,,,,,,,,,,,,,,,,,,,,,,,,
1703404825.783405,1703404825.783748,111.000000,0.000000,4219.615234,4178.589844,4298.205078,4261.666504,4158.461426,4157.692383,4244.102539,4162.692383,4136.538574,4174.358887,4637.307617,4476.666504,4400.000000,4545.256348,6179.000000,4.000000,84.000000,,,,0.000000,4.000000,4.000000,4.000000,4.000000,4.000000,4.000000,4.000000,4.000000,4.000000,4.000000,4.000000,4.000000,4.000000,4.000000,100.000000,,,,,,,,,,,,,,,,,,,,,,,,,,,,
1703404825.791213,1703404825.791556,112.000000,0.000000,4211.282227,4174.102539,4298.717773,4257.051270,4154.230957,4152.563965,4242.307617,4169.615234,4129.358887,4168.461426,4633.974121,4474.615234,4398.461426,4537.436035,6609.000000,4.000000,84.000000,,,,0.000000,4.000000,4.000000,4.000000,4.000000,4.000000,4.000000,4.000000,4.000000,4.000000,4.000000,4.000000,4.000000,4.000000,4.000000,100.000000,,,,,,,,,,,,,,,,,28.000000,0.000000,0.658875,0.212891,-0.680481,0.239807,0.995727,-0.062508,-0.005372,-14.636463,-38.238403,62.900051
1703404825.799021,1703404825.799264,113.000000,0.000000,4218.333496,4171.666504,4294.358887,4251.025879,4145.512695,4151.666504,4245.384766,4174.358887,4140.512695,4165.512695,4630.000000,4469.615234,4398.589844,4538.077148,6536.000000,4.000000,84.000000,,,,0.000000,4.000000,4.000000,4.000000,4.000000,4.000000,4.000000,4.000000,4.000000,4.000000,4.000000,4.000000,4.000000,4.000000,4.000000,100.000000,,,,,,,,,,,,,,,,,,,,,,,,,,,,
1703404825.806829,1703404825.807072,114.000000,0.000000,4218.589844,4178.589844,4287.307617,4254.743652,4149.487305,4156.282227,4250.384766,4167.948730,4162.820313,4157.692383,4620.128418,4460.256348,4395.769043,4536.794922,5935.000000,4.000000,84.000000,,,,0.000000,4.000000,4.000000,4.000000,4.000000,4.000000,4.000000,4.000000,4.000000,4.000000,4.000000,4.000000,4.000000,4.000000,4.000000,100.000000,,,,,,,,,,,,,,,,,,,,,,,,,,,,
1703404825.814637,1703404825.814780,115.000000,0.000000,4203.846191,4176.922852,4278.077148,4252.692383,4162.051270,4159.358887,4251.410156,4155.000000,4156.666504,4151.282227,4615.256348,4448.333496,4384.743652,4525.641113,6179.000000,4.000000,84.000000,,,,0.000000,4.000000,4.000000,4.000000,4.000000,4.000000,4.000000,4.000000,4.000000,4.000000,4.000000,4.000000,4.000000,4.000000,4.000000,100.000000,,,,,,,,,,,,,,,,,,,,,,,,,,,,
1703404825.822445,1703404825.822588,116.000000,0.000000,4196.922852,4170.128418,4271.153809,4245.384766,4161.538574,4159.487305,4250.128418,4150.128418,4132.692383,4150.769043,4615.000000,4441.410156,4377.051270,4516.410156,6609.000000,4.000000,84.000000,,,,0.000000,4.000000,4.000000,4.000000,4.000000,4.000000,4.000000,4.000000,4.000000,4.000000,4.000000,4.000000,4.000000,4.000000,4.000000,100.000000,,,,,,,,,,,,,,,,,29.000000,0.000000,0.658720,0.212646,-0.680664,0.239929,0.989867,-0.041997,-0.011720,-14.572817,-38.264565,62.860046
1703404825.830253,1703404825.830296,117.000000,0.000000,4201.410156,4167.820313,4273.333496,4247.051270,4153.461426,4161.410156,4251.922852,4151.538574,4132.948730,4139.487305,4608.333496,4445.256348,4380.512695,4517.051270,6536.000000,4.000000,84.000000,,,,0.000000,4.000000,4.000000,4.000000,4.000000,4.000000,4.000000,4.000000,4.000000,4.000000,4.000000,4.000000,4.000000,4.000000,4.000000,100.000000,,,,,,,,,,,,,,,,,,,,,,,,,,,,
1703404825.838061,1703404825.838104,118.000000,0.000000,4209.871582,4172.820313,4283.461426,4252.436035,4156.282227,4160.256348,4253.333496,4155.897461,4143.589844,4137.563965,4615.384766,4461.794922,4390.512695,4529.358887,5935.000000,4.000000,84.000000,,,,0.000000,4.000000,4.000000,4.000000,4.000000,4.000000,4.000000,4.000000,4.000000,4.000000,4.000000,4.000000,4.000000,4.000000,4.000000,100.000000,,,,,,,,,,,,,,,,,,,,,,,,,,,,
1703404825.845869,1703404825.845812,119.000000,0.000000,4210.384766,4178.205078,4289.487305,4251.410156,4159.871582,4154.743652,4254.487305,4166.410156,4138.205078,4156.666504,4636.666504,4477.563965,4400.512695,4539.615234,6179.000000,4.000000,84.000000,,,,0.000000,4.000000,4.000000,4.000000,4.000000,4.000000,4.000000,4.000000,4.000000,4.000000,4.000000,4.000000,4.000000,4.000000,4.000000,100.000000,,,,,,,,,,,,,,,,,,,,,,,,,,,,
1703404825.853677,1703404825.853620,120.000000,0.000000,4209.487305,4176.666504,4289.871582,4250.128418,4157.051270,4151.538574,4255.769043,4168.077148,4137.436035,4165.769043,4640.641113,4478.846191,4405.384766,4540.384766,6609.000000,4.000000,84.000000,,,,0.000000,4.000000,4.000000,4.000000,4.000000,4.000000,4.000000,4.000000,4.000000,4.000000,4.000000,4.000000,4.000000,4.000000,4.000000,100.000000,,,,,,,,,,,,,,,,,30.000000,0.000000,0.658590,0.212463,-0.680847,0.239929,0.981565,-0.050787,-0.023929,-14.482203,-38.304775,62.707375
1703404825.861486,1703404825.861328,121.000000,0.000000,4217.051270,4172.051270,4290.384766,4250.641113,4156.282227,4152.820313,4253.589844,4153.974121,4152.948730,4171.794922,4631.025879,4469.743652,4400.769043,4539.615234,6536.000000,4.000000,84.000000,,,,0.000000,4.000000,4.000000,4.000000,4.000000,4.000000,4.000000,4.000000,4.000000,4.000000,4.000000,4.000000,4.000000,4.000000,4.000000,100.000000,,,,,,,,,,,,,,,,,,,,,,,,,,,,
1703404825.869294,1703404825.869237,122.000000,0.000000,4215.256348,4172.436035,4286.666504,4250.256348,4155.384766,4154.743652,4253.846191,4151.538574,4159.743652,4178.077148,4631.666504,4465.512695,4396.922852,4539.230957,5935.000000,4.000000,84.000000,,,,0.000000,4.000000,4.000000,4.000000,4.000000,4.000000,4.000000,4.000000,4.000000,4.000000,4.000000,4.000000,4.000000,4.000000,4.000000,100.000000,,,,,,,,,,,,,,,,,,,,,,,,,,,,
1703404825.877102,1703404825.877045,123.000000,0.000000,4202.948730,4175.641113,4282.179688,4249.102539,4152.692383,4156.025879,4263.077148,4166.025879,4152.820313,4161.410156,4635.512695,4470.897461,4398.205078,4540.512695,6179.000000,4.000000,84.000000,,,,0.000000,4.000000,4.000000,4.000000,4.000000,4.000000,4.000000,4.000000,4.000000,4.000000,4.000000,4.000000,4.000000,4.000000,4.000000,100.000000,,,,,,,,,,,,,,,,,,,,,,,,,,,,
1703404825.884910,1703404825.884953,124.000000,0.000000,4202.692383,4171.794922,4282.820313,4247.051270,4152.436035,4156.410156,4265.769043,4172.307617,4147.948730,4157.820313,4635.128418,4470.000000,4396.153809,4536.922852,6609.000000,4.000000,84.000000,,,,0.000000,4.000000,4.000000,4.000000,4.000000,4.000000,4.000000,4.000000,4.000000,4.000000,4.000000,4.000000,4.000000,4.000000,4.000000,100.000000,,,,,,,,,,,,,,,,,31.000000,0.000000,0.658486,0.212463,-0.680969,0.239868,0.995239,-0.053229,-0.020510,-14.200648,-38.274296,62.769970
1703404825.892718,1703404825.892761,125.000000,0.000000,4207.563965,4167.563965,4282.436035,4247.179688,4154.615234,4155.512695,4257.948730,4167.692383,4148.717773,4171.153809,4631.922852,4463.461426,4393.589844,4526.282227,6536.000000,4.000000,84.000000,,,,0.000000,4.000000,4.000000,4.000000,4.000000,4.000000,4.000000,4.000000,4.000000,4.000000,4.000000,4.000000,4.000000,4.000000,4.000000,100.000000,,,,,,,,,,,,,,,,,,,,,,,,,,,,
1703404825.900526,1703404825.900669,126.000000,0.000000,4198.846191,4168.333496,4280.769043,4248.589844,4153.717773,4154.871582,4257.051270,4170.000000,4158.589844,4160.897461,4626.282227,4468.333496,4396.538574,4524.871582,5935.000000,4.000000,84.000000,,,,0.000000,4.000000,4.000000,4.000000,4.000000,4.000000,4.000000,4.000000,4.000000,4.000000,4.000000,4.000000,4.000000,4.000000,4.000000,100.000000,,,,,,,,,,,,,,,,,,,,,,,,,,,,
1703404825.908334,1703404825.908477,127.000000,0.000000,4199.487305,4172.436035,4284.487305,4249.102539,4150.897461,4154.102539,4260.641113,4171.153809,4159.358887,4154.358887,4627.820313,4472.307617,4396.153809,4534.743652,84.000000,4.000000,84.000000,,,,0.000000,4.000000,4.000000,4.000000,4.000000,4.000000,4.000000,4.000000,4.000000,4.000000,4.000000,4.000000,4.000000,4.000000,4.000000,100.000000,,,,,,,,,,,,,,,,,,,,,,,,,,,,
1703404825.916142,1703404825.916385,0.000000,0.000000,4211.538574,4174.871582,4286.666504,4249.230957,4153.077148,4153.846191,4259.487305,4157.436035,4136.025879,4167.307617,4627.820313,4459.615234,4385.256348,4530.641113,4684.000000,4.000000,84.000000,,,,0.000000,4.000000,4.000000,4.000000,4.000000,4.000000,4.000000,4.000000,4.000000,4.000000,4.000000,4.000000,4.000000,4.000000,4.000000,100.000000,,,,,,,,,,,,,,,,,0.000000,0.000000,0.658424,0.212585,-0.680969,0.239929,0.989867,-0.061043,-0.014650,-14.297251,-38.213535,62.609638
1703404825.923950,1703404825.924193,1.000000,0.000000,4208.974121,4173.846191,4283.589844,4249.487305,4160.256348,4157.051270,4262.307617,4151.153809,4134.743652,4173.205078,4620.256348,4452.563965,4379.102539,4519.487305,5370.000000,4.000000,84.000000,,,,0.000000,4.000000,4.000000,4.000000,4.000000,4.000000,4.000000,4.000000,4.000000,4.000000,4.000000,4.000000,4.000000,4.000000,4.000000,100.000000,,,,,,,,,,,,,,,,,,,,,,,,,,,,
1703404825.931758,1703404825.932101,2.000000,0.000000,4203.205078,4173.205078,4284.487305,4248.846191,4161.922852,4159.615234,4264.230957,4164.358887,4158.974121,4168.846191,4623.717773,4465.256348,4387.692383,4526.282227,5170.000000,4.000000,84.000000,,,,0.000000,4.000000,4.000000,4.000000,4.000000,4.000000,4.000000,4.000000,4.000000,4.000000,4.000000,4.000000,4.000000,4.000000,4.000000,100.000000,,,,,,,,,,,,,,,,,,,,,,,,,,,,
1703404825.939566,1703404825.939909,3.000000,0.000000,4211.794922,4172.436035,4289.871582,4248.974121,4160.128418,4159.102539,4264.230957,4173.846191,4152.179688,4159.743652,4636.538574,4477.692383,4398.461426,4542.051270,5325.000000,4.000000,84.000000,,,,0.000000,4.000000,4.000000,4.000000,4.000000,4.000000,4.000000,4.000000,4.000000,4.000000,4.000000,4.000000,4.000000,4.000000,4.000000,100.000000,,,,,,,,,,,,,,,,,,,,,,,,,,,,
1703404825.947374,1703404825.947817,4.000000,0.000000,4215.256348,4176.410156,4290.512695,4251.025879,4163.717773,4156.666504,4265.384766,4165.384766,4131.410156,4137.436035,4631.922852,4473.974121,4396.153809,4539.615234,5070.000000,4.000000,84.000000,,,,0.000000,4.000000,4.000000,4.000000,4.000000,4.000000,4.000000,4.000000,4.000000,4.000000,4.000000,4.000000,4.000000,4.000000,4.000000,100.000000,,,,,,,,,,,,,,,,,1.000000,0.000000,0.658449,0.212646,-0.680969,0.239807,0.989867,-0.054694,-0.018557,-14.434192,-38.242180,62.548676
1703404825.955182,1703404825.955625,5.000000,0.000000,4204.230957,4180.512695,4285.897461,4247.436035,4162.948730,4149.230957,4263.333496,4152.563965,4136.538574,4131.538574,4617.179688,4461.410156,4386.922852,4524.743652,4510.000000,4.000000,84.000000,,,,0.000000,4.000000,4.000000,4.000000,4.000000,4.000000,4.000000,4.000000,4.000000,4.000000,4.000000,4.000000,4.000000,4.000000,4.000000,100.000000,,,,,,,,,,,,,,,,,,,,,,,,,,,,
1703404825.962990,1703404825.963533,6.000000,0.000000,4201.025879,4175.897461,4285.897461,4246.153809,4155.641113,4145.128418,4263.717773,4155.256348,4141.922852,4164.358887,4626.794922,4460.000000,4390.000000,4527.948730,1805.000000,4.000000,84.000000,,,,0.000000,4.000000,4.000000,4.000000,4.000000,4.000000,4.000000,4.000000,4.000000,4.000000,4.000000,4.000000,4.000000,4.000000,4.000000,100.000000,,,,,,,,,,,,,,,,,,,,,,,,,,,,
1703404825.970798,1703404825.971341,7.000000,0.000000,4205.128418,4169.487305,4283.717773,4250.000000,4154.487305,4152.563965,4266.794922,4171.282227,4142.563965,4189.230957,4643.333496,4468.333496,4400.128418,4541.025879,5153.000000,4.000000,84.000000,,,,0.000000,4.000000,4.000000,4.000000,4.000000,4.000000,4.000000,4.000000,4.000000,4.000000,4.000000,4.000000,4.000000,4.000000,4.000000,100.000000,,,,,,,,,,,,,,,,,,,,,,,,,,,,
1703404825.978606,1703404825.979249,8.000000,0.000000,4200.897461,4170.512695,4277.179688,4250.384766,4157.563965,4156.922852,4265.384766,4172.051270,4154.871582,4178.205078,4637.179688,4466.666504,4400.000000,4531.410156,5028.000000,4.000000,84.000000,,,,0.000000,4.000000,4.000000,4.000000,4.000000,4.000000,4.000000,4.000000,4.000000,4.000000,4.000000,4.000000,4.000000,4.000000,4.000000,100.000000,,,,,,,,,,,,,,,,,2.000000,0.000000,0.658579,0.212646,-0.680908,0.239624,0.982542,-0.043951,-0.000977,-14.407439,-38.334629,62.560474
1703404825.986414,1703404825.987157,9.000000,0.000000,4199.743652,4170.641113,4276.922852,4246.794922,4155.512695,4151.153809,4263.205078,4154.358887,4145.512695,4155.128418,4625.384766,4457.179688,4390.769043,4519.871582,5115.000000,4.000000,84.000000,,,,0.000000,4.000000,4.000000,4.000000,4.000000,4.000000,4.000000,4.000000,4.000000,4.000000,4.000000,4.000000,4.000000,4.000000,4.000000,100.000000,1.000000,83.333336,4.000000,4.000000,4.000000,4.000000,4.000000,4.000000,4.000000,4.000000,3.000000,3.000000,4.000000,4.000000,4.000000,4.000000,,,,,,,,,,,,
1703404825.994223,1703404825.994965,10.000000,0.000000,4203.333496,4165.641113,4280.897461,4240.256348,4153.461426,4148.846191,4262.692383,4148.974121,4124.358887,4152.820313,4622.051270,4460.897461,4382.436035,4528.589844,5938.000000,4.000000,84.000000,,,,0.000000,4.000000,4.000000,4.000000,4.000000,4.000000,4.000000,4.000000,4.000000,4.000000,4.000000,4.000000,4.000000,4.000000,4.000000,100.000000,,,,,,,,,,,,,,,,,,,,,,,,,,,,
1703404826.002030,1703404826.002873,11.000000,0.000000,4201.153809,4166.538574,4281.153809,4238.846191,4154.358887,4151.153809,4261.410156,4157.307617,4136.922852,4162.179688,4620.128418,4468.717773,4380.000000,4530.256348,6177.000000,4.000000,84.000000,,,,0.000000,4.000000,4.000000,4.000000,4.000000,4.000000,4.000000,4.000000,4.000000,4.000000,4.000000,4.000000,4.000000,4.000000,4.000000,100.000000,,,,,,,,,,,,,,,,,,,,,,,,,,,,
1703404826.009838,1703404826.010681,12.000000,0.000000,4197.948730,4172.692383,4281.538574,4248.333496,4153.077148,4150.384766,4261.025879,4157.563965,4155.128418,4150.512695,4618.077148,4464.230957,4378.333496,4520.256348,6631.000000,4.000000,84.000000,,,,0.000000,4.000000,4.000000,4.000000,4.000000,4.000000,4.000000,4.000000,4.000000,4.000000,4.000000,4.000000,4.000000,4.000000,4.000000,100.000000,,,,,,,,,,,,,,,,,3.000000,0.000000,0.658662,0.212524,-0.680908,0.239502,0.994750,-0.076181,-0.008302,-14.466696,-38.417831,62.521095
1703404826.017647,1703404826.018589,13.000000,0.000000,4202.307617,4174.871582,4289.615234,4251.410156,4155.769043,4152.051270,4262.563965,4153.589844,4146.794922,4147.307617,4627.307617,4463.077148,4381.282227,4525.512695,6538.000000,4.000000,84.000000,,,,0.000000,4.000000,4.000000,4.000000,4.000000,4.000000,4.000000,4.000000,4.000000,4.000000,4.000000,4.000000,4.000000,4.000000,4.000000,100.000000,,,,,,,,,,,,,,,,,,,,,,,,,,,,
1703404826.025455,1703404826.026398,14.000000,0.000000,4207.179688,4172.692383,4294.230957,4245.128418,4156.794922,4149.487305,4262.820313,4157.436035,4136.153809,4166.153809,4635.769043,4468.589844,4388.974121,4535.000000,5938.000000,4.000000,84.000000,,,,0.000000,4.000000,4.000000,4.000000,4.000000,4.000000,4.000000,4.000000,4.000000,4.000000,4.000000,4.000000,4.000000,4.000000,4.000000,100.000000,,,,,,,,,,,,,,,,,,,,,,,,,,,,
1703404826.033263,1703404826.034206,15.000000,0.000000,4202.436035,4169.230957,4283.846191,4243.846191,4150.897461,4140.897461,4262.307617,4160.128418,4139.358887,4157.948730,4626.922852,4463.846191,4386.282227,4527.820313,6177.000000,4.000000,84.000000,,,,0.000000,4.000000,4.000000,4.000000,4.000000,4.000000,4.000000,4.000000,4.000000,4.000000,4.000000,4.000000,4.000000,4.000000,4.000000,100.000000,,,,,,,,,,,,,,,,,,,,,,,,,,,,
1703404826.041071,1703404826.041914,16.000000,0.000000,4193.846191,4164.230957,4273.589844,4243.717773,4153.077148,4144.230957,4262.948730,4156.922852,4145.000000,4133.205078,4613.205078,4453.846191,4371.282227,4513.846191,0.000000,4.000000,84.000000,,,,0.000000,4.000000,4.000000,4.000000,4.000000,4.000000,4.000000,4.000000,4.000000,4.000000,4.000000,4.000000,4.000000,4.000000,4.000000,100.000000,,,,,,,,,,,,,,,,,4.000000,0.000000,0.658936,0.212341,-0.680786,0.239258,0.984007,-0.046392,-0.010255,-14.436692,-38.442715,62.568985
1703404826.048879,1703404826.049822,17.000000,0.000000,4198.846191,4160.897461,4276.410156,4236.282227,4154.358887,4152.179688,4263.077148,4154.230957,4139.230957,4148.205078,4616.282227,4453.589844,4365.256348,4514.487305,0.000000,4.000000,84.000000,,,,0.000000,4.000000,4.000000,4.000000,4.000000,4.000000,4.000000,4.000000,4.000000,4.000000,4.000000,4.000000,4.000000,4.000000,4.000000,100.000000,,,,,,,,,,,,,,,,,,,,,,,,,,,,
1703404826.056687,1703404826.057630,18.000000,0.000000,4204.358887,4161.794922,4282.692383,4233.077148,4142.307617,4144.358887,4263.205078,4153.461426,4120.641113,4163.205078,4627.820313,4456.794922,4376.025879,4522.436035,0.000000,4.000000,84.000000,,,,0.000000,4.000000,4.000000,4.000000,4.000000,4.000000,4.000000,4.000000,4.000000,4.000000,4.000000,4.000000,4.000000,4.000000,4.000000,100.000000,,,,,,,,,,,,,,,,,,,,,,,,,,,,
1703404826.064495,1703404826.065438,19.000000,0.000000,4191.153809,4163.077148,4281.538574,4241.794922,4142.179688,4136.666504,4263.077148,4153.333496,4119.102539,4124.743652,4617.179688,4458.205078,4377.563965,4519.743652,0.000000,4.000000,84.000000,,,,0.000000,4.000000,4.000000,4.000000,4.000000,4.000000,4.000000,4.000000,4.000000,4.000000,4.000000,4.000000,4.000000,4.000000,4.000000,100.000000,,,,,,,,,,,,,,,,,,,,,,,,,,,,
1703404826.072303,1703404826.073146,20.000000,0.000000,4184.102539,4163.974121,4280.128418,4244.358887,4157.692383,4142.692383,4262.436035,4154.487305,4142.179688,4116.025879,4606.153809,4463.461426,4368.974121,4516.025879,0.000000,4.000000,84.000000,,,,0.000000,4.000000,4.000000,4.000000,4.000000,4.000000,4.000000,4.000000,4.000000,4.000000,4.000000,4.000000,4.000000,4.000000,4.000000,100.000000,,,,,,,,,,,,,,,,,5.000000,0.000000,0.659161,0.212036,-0.680664,0.239258,0.995727,-0.039067,-0.013674,-14.509690,-38.481777,62.645420
1703404826.080111,1703404826.080954,21.000000,0.000000,4201.666504,4168.717773,4285.512695,4234.871582,4159.358887,4145.641113,4263.333496,4157.051270,4147.820313,4171.410156,4631.282227,4474.358887,4379.102539,4531.666504,0.000000,4.000000,84.000000,,,,0.000000,4.000000,4.000000,4.000000,4.000000,4.000000,4.000000,4.000000,4.000000,4.000000,4.000000,4.000000,4.000000,4.000000,4.000000,100.000000,,,,,,,,,,,,,,,,,,,,,,,,,,,,
1703404826.087919,1703404826.088662,22.000000,0.000000,4211.538574,4170.128418,4287.179688,4236.922852,4154.487305,4143.077148,4264.358887,4160.256348,4136.025879,4179.615234,4652.820313,4481.025879,4392.820313,4542.179688,0.000000,4.000000,84.000000,,,,0.000000,4.000000,4.000000,4.000000,4.000000,4.000000,4.000000,4.000000,4.000000,4.000000,4.000000,4.000000,4.000000,4.000000,4.000000,100.000000,,,,,,,,,,,,,,,,,,,,,,,,,,,,
1703404826.095727,1703404826.096570,23.000000,0.000000,4198.461426,4167.179688,4280.256348,4249.358887,4158.077148,4142.307617,4263.333496,4161.282227,4138.717773,4141.922852,4638.077148,4472.820313,4386.282227,4524.871582,0.000000,4.000000,84.000000,,,,0.000000,4.000000,4.000000,4.000000,4.000000,4.000000,4.000000,4.000000,4.000000,4.000000,4.000000,4.000000,4.000000,4.000000,4.000000,100.000000,,,,,,,,,,,,,,,,,,,,,,,,,,,,
1703404826.103535,1703404826.104378,24.000000,0.000000,4199.871582,4170.128418,4278.333496,4250.256348,4156.794922,4138.974121,4260.000000,4157.179688,4140.769043,4152.820313,4626.538574,4465.128418,4388.461426,4523.333496,0.000000,4.000000,84.000000,,,,0.000000,4.000000,4.000000,4.000000,4.000000,4.000000,4.000000,4.000000,4.000000,4.000000,4.000000,4.000000,4.000000,4.000000,4.000000,100.000000,,,,,,,,,,,,,,,,,6.000000,0.000000,0.659178,0.211914,-0.680664,0.239319,0.991332,-0.047857,-0.028324,-14.258721,-38.416935,62.647545
1703404826.111343,1703404826.112286,25.000000,0.000000,4211.410156,4171.666504,4283.077148,4244.487305,4153.461426,4138.333496,4262.820313,4154.230957,4139.230957,4175.897461,4634.615234,4471.025879,4400.641113,4542.051270,0.000000,4.000000,84.000000,,,,0.000000,4.000000,4.000000,4.000000,4.000000,4.000000,4.000000,4.000000,4.000000,4.000000,4.000000,4.000000,4.000000,4.000000,4.000000,100.000000,,,,,,,,,,,,,,,,,,,,,,,,,,,,
1703404826.119151,1703404826.120094,26.000000,0.000000,4202.307617,4168.717773,4288.589844,4245.897461,4155.769043,4142.948730,4262.948730,4155.384766,4147.948730,4159.743652,4634.487305,4475.512695,4385.384766,4539.487305,0.000000,4.000000,84.000000,,,,0.000000,4.000000,4.000000,4.000000,4.000000,4.000000,4.000000,4.000000,4.000000,4.000000,4.000000,4.000000,4.000000,4.000000,4.000000,100.000000,,,,,,,,,,,,,,,,,,,,,,,,,,,,
1703404826.126959,1703404826.128002,27.000000,0.000000,4192.563965,4169.487305,4295.384766,4248.333496,4155.256348,4141.922852,4255.256348,4154.487305,4131.282227,4151.282227,4635.128418,4473.717773,4377.563965,4530.256348,0.000000,4.000000,84.000000,,,,0.000000,4.000000,4.000000,4.000000,4.000000,4.000000,4.000000,4.000000,4.000000,4.000000,4.000000,4.000000,4.000000,4.000000,4.000000,100.000000,,,,,,,,,,,,,,,,,,,,,,,,,,,,
1703404826.134767,1703404826.135810,28.000000,0.000000,4201.922852,4172.563965,4299.487305,4250.128418,4152.307617,4137.436035,4253.974121,4150.769043,4107.948730,4151.538574,4646.282227,4479.743652,4404.358887,4540.000000,0.000000,4.000000,84.000000,,,,0.000000,4.000000,4.000000,4.000000,4.000000,4.000000,4.000000,4.000000,4.000000,4.000000,4.000000,4.000000,4.000000,4.000000,4.000000,100.000000,,,,,,,,,,,,,,,,,7.000000,0.000000,0.659408,0.211914,-0.680420,0.239380,0.992797,-0.047369,-0.012697,-14.349516,-38.375240,62.549458
1703404826.142575,1703404826.143718,29.000000,0.000000,4206.410156,4167.948730,4296.666504,4247.307617,4155.769043,4138.717773,4255.128418,4152.692383,4139.615234,4149.358887,4650.000000,4489.358887,4418.205078,4545.256348,0.000000,4.000000,84.000000,,,,0.000000,4.000000,4.000000,4.000000,4.000000,4.000000,4.000000,4.000000,4.000000,4.000000,4.000000,4.000000,4.000000,4.000000,4.000000,100.000000,,,,,,,,,,,,,,,,,,,,,,,,,,,,
1703404826.150383,1703404826.151526,30.000000,0.000000,4201.794922,4164.102539,4295.000000,4242.307617,4161.410156,4140.000000,4250.512695,4151.666504,4163.974121,4161.538574,4648.717773,4484.102539,4412.692383,4540.256348,0.000000,4.000000,84.000000,,,,0.000000,4.000000,4.000000,4.000000,4.000000,4.000000,4.000000,4.000000,4.000000,4.000000,4.000000,4.000000,4.000000,4.000000,4.000000,100.000000,,,,,,,,,,,,,,,,,,,,,,,,,,,,
1703404826.158192,1703404826.159334,31.000000,0.000000,4208.846191,4168.589844,4292.307617,4247.692383,4159.615234,4136.666504,4245.384766,4140.384766,4129.358887,4157.179688,4644.487305,4470.256348,4408.974121,4540.000000,0.000000,4.000000,84.000000,,,,0.000000,4.000000,4.000000,4.000000,4.000000,4.000000,4.000000,4.000000,4.000000,4.000000,4.000000,4.000000,4.000000,4.000000,4.000000,100.000000,,,,,,,,,,,,,,,,,,,,,,,,,,,,
1703404826.166000,1703404826.167142,32.000000,0.000000,4211.922852,4171.025879,4286.922852,4251.025879,4158.589844,4136.025879,4247.820313,4138.589844,4115.769043,4140.641113,4638.974121,4470.000000,4404.743652,4538.974121,0.000000,4.000000,84.000000,,,,0.000000,4.000000,4.000000,4.000000,4.000000,4.000000,4.000000,4.000000,4.000000,4.000000,4.000000,4.000000,4.000000,4.000000,4.000000,100.000000,,,,,,,,,,,,,,,,,8.000000,0.000000,0.659454,0.211975,-0.680420,0.239197,0.998169,-0.044439,-0.010255,-14.414564,-38.237717,62.511177
1703404826.173808,1703404826.174850,33.000000,0.000000,4202.307617,4168.333496,4288.974121,4246.025879,4165.897461,4141.666504,4255.512695,4151.538574,4143.333496,4155.769043,4645.000000,4478.461426,4410.128418,4539.487305,0.000000,4.000000,84.000000,,,,0.000000,4.000000,4.000000,4.000000,4.000000,4.000000,4.000000,4.000000,4.000000,4.000000,4.000000,4.000000,4.000000,4.000000,4.000000,100.000000,,,,,,,,,,,,,,,,,,,,,,,,,,,,
1703404826.181616,1703404826.182658,34.000000,0.000000,4200.897461,4166.666504,4289.615234,4243.589844,4169.487305,4143.846191,4256.666504,4152.820313,4141.794922,4172.179688,4647.436035,4474.358887,4420.128418,4542.948730,0.000000,4.000000,84.000000,,,,0.000000,4.000000,4.000000,4.000000,4.000000,4.000000,4.000000,4.000000,4.000000,4.000000,4.000000,4.000000,4.000000,4.000000,4.000000,100.000000,,,,,,,,,,,,,,,,,,,,,,,,,,,,
1703404826.189424,1703404826.190366,35.000000,0.000000,4207.307617,4169.230957,4287.307617,4247.051270,4164.871582,4140.769043,4249.743652,4140.256348,4125.897461,4162.820313,4634.358887,4467.948730,4409.102539,4535.897461,0.000000,4.000000,84.000000,,,,0.000000,4.000000,4.000000,4.000000,4.000000,4.000000,4.000000,4.000000,4.000000,4.000000,4.000000,4.000000,4.000000,4.000000,4.000000,100.000000,,,,,,,,,,,,,,,,,,,,,,,,,,,,
1703404826.197232,1703404826.198174,36.000000,0.000000,4214.487305,4173.333496,4293.205078,4251.666504,4165.128418,4139.487305,4245.128418,4135.769043,4136.538574,4150.128418,4631.538574,4475.512695,4397.307617,4534.871582,0.000000,4.000000,84.000000,,,,0.000000,4.000000,4.000000,4.000000,4.000000,4.000000,4.000000,4.000000,4.000000,4.000000,4.000000,4.000000,4.000000,4.000000,4.000000,100.000000,,,,,,,,,,,,,,,,,9.000000,0.000000,0.659391,0.211975,-0.680481,0.239197,0.989379,-0.067879,-0.010743,-14.456441,-38.213943,62.543392
1703404826.205040,1703404826.205882,37.000000,0.000000,4214.102539,4172.820313,4298.205078,4248.846191,4167.051270,4139.743652,4246.538574,4142.307617,4144.615234,4150.512695,4644.871582,4482.436035,4406.922852,4548.077148,0.000000,4.000000,84.000000,,,,0.000000,4.000000,4.000000,4.000000,4.000000,4.000000,4.000000,4.000000,4.000000,4.000000,4.000000,4.000000,4.000000,4.000000,4.000000,100.000000,,,,,,,,,,,,,,,,,,,,,,,,,,,,
1703404826.212848,1703404826.213690,38.000000,0.000000,4203.589844,4170.769043,4294.487305,4244.230957,4165.512695,4138.461426,4245.000000,4150.000000,4141.538574,4160.641113,4651.025879,4479.743652,4416.153809,4547.692383,0.000000,4.000000,84.000000,,,,0.000000,4.000000,4.000000,4.000000,4.000000,4.000000,4.000000,4.000000,4.000000,4.000000,4.000000,4.000000,4.000000,4.000000,4.000000,100.000000,,,,,,,,,,,,,,,,,,,,,,,,,,,,
1703404826.220656,1703404826.221398,39.000000,0.000000,4202.436035,4173.589844,4292.436035,4251.922852,4169.487305,4136.922852,4245.384766,4154.487305,4139.743652,4166.666504,4650.512695,4482.436035,4413.461426,4540.000000,0.000000,4.000000,84.000000,,,,0.000000,4.000000,4.000000,4.000000,4.000000,4.000000,4.000000,4.000000,4.000000,4.000000,4.000000,4.000000,4.000000,4.000000,4.000000,100.000000,,,,,,,,,,,,,,,,,,,,,,,,,,,,
1703404826.228464,1703404826.229206,40.000000,0.000000,4218.205078,4180.512695,4299.743652,4261.922852,4165.641113,4136.538574,4248.461426,4157.692383,4132.692383,4170.512695,4652.563965,4494.102539,4412.692383,4551.410156,0.000000,4.000000,84.000000,,,,0.000000,4.000000,4.000000,4.000000,4.000000,4.000000,4.000000,4.000000,4.000000,4.000000,4.000000,4.000000,4.000000,4.000000,4.000000,100.000000,,,,,,,,,,,,,,,,,10.000000,0.000000,0.659414,0.211975,-0.680481,0.239136,0.983518,-0.056648,-0.001465,-14.344131,-38.259216,62.722385
1703404826.236272,1703404826.236914,41.000000,0.000000,4219.615234,4186.538574,4305.897461,4258.077148,4159.230957,4136.538574,4246.922852,4157.307617,4124.230957,4168.717773,4650.128418,4496.282227,4416.794922,4558.333496,0.000000,4.000000,84.000000,,,,0.000000,4.000000,4.000000,4.000000,4.000000,4.000000,4.000000,4.000000,4.000000,4.000000,4.000000,4.000000,4.000000,4.000000,4.000000,100.000000,,,,,,,,,,,,,,,,,,,,,,,,,,,,
1703404826.244080,1703404826.244722,42.000000,0.000000,4202.307617,4181.666504,4296.153809,4248.077148,4166.025879,4139.487305,4245.641113,4145.384766,4124.615234,4147.948730,4639.743652,4481.282227,4410.897461,4540.641113,0.000000,4.000000,84.000000,,,,0.000000,4.000000,4.000000,4.000000,4.000000,4.000000,4.000000,4.000000,4.000000,4.000000,4.000000,4.000000,4.000000,4.000000,4.000000,100.000000,,,,,,,,,,,,,,,,,,,,,,,,,,,,
1703404826.251888,1703404826.252430,43.000000,0.000000,4194.871582,4169.230957,4282.820313,4243.846191,4167.307617,4144.615234,4246.282227,4133.846191,4134.487305,4139.230957,4632.692383,4468.717773,4401.025879,4529.230957,0.000000,4.000000,84.000000,,,,0.000000,4.000000,4.000000,4.000000,4.000000,4.000000,4.000000,4.000000,4.000000,4.000000,4.000000,4.000000,4.000000,4.000000,4.000000,100.000000,,,,,,,,,,,,,,,,,,,,,,,,,,,,
1703404826.259696,1703404826.260238,44.000000,0.000000,4200.769043,4168.589844,4285.256348,4245.641113,4161.794922,4146.666504,4245.641113,4142.307617,4144.102539,4155.128418,4642.179688,4471.538574,4405.512695,4535.256348,0.000000,4.000000,84.000000,,,,0.000000,4.000000,4.000000,4.000000,4.000000,4.000000,4.000000,4.000000,4.000000,4.000000,4.000000,4.000000,4.000000,4.000000,4.000000,100.000000,,,,,,,,,,,,,,,,,11.000000,0.000000,0.659289,0.212097,-0.680542,0.239197,0.983030,-0.054694,-0.011720,-14.176384,-38.283295,62.650146
1703404826.267504,1703404826.267946,45.000000,0.000000,4202.692383,4174.358887,4288.589844,4250.769043,4167.307617,4145.769043,4247.307617,4153.846191,4142.436035,4162.692383,4651.025879,4477.692383,4418.589844,4540.256348,0.000000,4.000000,84.000000,,,,0.000000,4.000000,4.000000,4.000000,4.000000,4.000000,4.000000,4.000000,4.000000,4.000000,4.000000,4.000000,4.000000,4.000000,4.000000,100.000000,,,,,,,,,,,,,,,,,,,,,,,,,,,,
1703404826.275312,1703404826.275754,46.000000,0.000000,4201.538574,4169.871582,4284.230957,4245.000000,4170.000000,4143.717773,4246.282227,4146.282227,4135.769043,4161.794922,4638.205078,4476.410156,4412.179688,4539.871582,0.000000,4.000000,84.000000,,,,0.000000,4.000000,4.000000,4.000000,4.000000,4.000000,4.000000,4.000000,4.000000,4.000000,4.000000,4.000000,4.000000,4.000000,4.000000,100.000000,,,,,,,,,,,,,,,,,,,,,,,,,,,,
1703404826.283120,1703404826.283462,47.000000,0.000000,4198.974121,4167.820313,4286.025879,4236.410156,4163.461426,4142.307617,4236.794922,4136.794922,4132.307617,4164.230957,4629.487305,4470.384766,4395.512695,4535.897461,0.000000,4.000000,84.000000,,,,0.000000,4.000000,4.000000,4.000000,4.000000,4.000000,4.000000,4.000000,4.000000,4.000000,4.000000,4.000000,4.000000,4.000000,4.000000,100.000000,,,,,,,,,,,,,,,,,,,,,,,,,,,,
1703404826.290928,1703404826.291370,48.000000,0.000000,4199.487305,4171.538574,4291.538574,4242.563965,4166.538574,4146.153809,4235.512695,4140.512695,4137.179688,4155.641113,4640.384766,4470.897461,4399.743652,4534.615234,0.000000,4.000000,84.000000,,,,0.000000,4.000000,4.000000,4.000000,4.000000,4.000000,4.000000,4.000000,4.000000,4.000000,4.000000,4.000000,4.000000,4.000000,4.000000,100.000000,,,,,,,,,,,,,,,,,12.000000,0.000000,0.659184,0.212219,-0.680542,0.239380,0.987425,-0.047857,-0.012209,-14.208745,-38.204964,62.768467
1703404826.298736,1703404826.299178,49.000000,0.000000,4208.077148,4172.563965,4292.051270,4251.666504,4170.641113,4151.025879,4243.333496,4144.615234,4139.102539,4150.769043,4651.922852,4479.615234,4412.692383,4539.743652,0.000000,4.000000,84.000000,,,,0.000000,4.000000,4.000000,4.000000,4.000000,4.000000,4.000000,4.000000,4.000000,4.000000,4.000000,4.000000,4.000000,4.000000,4.000000,100.000000,,,,,,,,,,,,,,,,,,,,,,,,,,,,
1703404826.306544,1703404826.307086,50.000000,0.000000,4209.615234,4179.871582,4296.410156,4255.641113,4169.230957,4152.307617,4239.615234,4143.077148,4131.666504,4166.025879,4656.025879,4484.743652,4421.538574,4541.666504,0.000000,4.000000,84.000000,,,,0.000000,4.000000,4.000000,4.000000,4.000000,4.000000,4.000000,4.000000,4.000000,4.000000,4.000000,4.000000,4.000000,4.000000,4.000000,100.000000,,,,,,,,,,,,,,,,,,,,,,,,,,,,
1703404826.314352,1703404826.314894,51.000000,0.000000,4208.846191,4183.846191,4304.871582,4258.717773,4172.948730,4151.922852,4229.871582,4143.333496,4129.743652,4174.102539,4655.000000,4486.410156,4428.717773,4538.846191,0.000000,4.000000,84.000000,,,,0.000000,4.000000,4.000000,4.000000,4.000000,4.000000,4.000000,4.000000,4.000000,4.000000,4.000000,4.000000,4.000000,4.000000,4.000000,100.000000,,,,,,,,,,,,,,,,,,,,,,,,,,,,
1703404826.322161,1703404826.322802,52.000000,0.000000,4217.563965,4175.000000,4301.410156,4257.436035,4174.230957,4147.948730,4231.794922,4144.230957,4140.000000,4164.358887,4651.666504,4489.102539,4427.051270,4544.487305,0.000000,4.000000,84.000000,,,,0.000000,4.000000,4.000000,4.000000,4.000000,4.000000,4.000000,4.000000,4.000000,4.000000,4.000000,4.000000,4.000000,4.000000,4.000000,100.000000,,,,,,,,,,,,,,,,,13.000000,0.000000,0.659142,0.212280,-0.680542,0.239441,0.996704,-0.048346,-0.012697,-14.271204,-38.067802,62.608288
1703404826.329969,1703404826.330610,53.000000,0.000000,4209.615234,4167.179688,4290.641113,4247.820313,4166.538574,4144.615234,4235.000000,4139.102539,4144.871582,4157.051270,4645.512695,4479.487305,4411.410156,4542.179688,0.000000,4.000000,84.000000,,,,0.000000,4.000000,4.000000,4.000000,4.000000,4.000000,4.000000,4.000000,4.000000,4.000000,4.000000,4.000000,4.000000,4.000000,4.000000,100.000000,,,,,,,,,,,,,,,,,,,,,,,,,,,,
1703404826.337777,1703404826.338517,54.000000,0.000000,4185.000000,4162.179688,4284.871582,4238.974121,4157.820313,4149.358887,4232.948730,4136.538574,4140.128418,4149.487305,4637.563965,4467.948730,4401.153809,4524.743652,0.000000,4.000000,84.000000,,,,0.000000,4.000000,4.000000,4.000000,4.000000,4.000000,4.000000,4.000000,4.000000,4.000000,4.000000,4.000000,4.000000,4.000000,4.000000,100.000000,,,,,,,,,,,,,,,,,,,,,,,,,,,,
1703404826.345585,1703404826.346325,55.000000,0.000000,4184.871582,4153.461426,4284.871582,4230.384766,4155.128418,4151.153809,4233.077148,4147.692383,4139.871582,4141.025879,4637.820313,4473.333496,4407.179688,4522.307617,0.000000,4.000000,84.000000,,,,0.000000,4.000000,4.000000,4.000000,4.000000,4.000000,4.000000,4.000000,4.000000,4.000000,4.000000,4.000000,4.000000,4.000000,4.000000,100.000000,,,,,,,,,,,,,,,,,,,,,,,,,,,,
1703404826.353393,1703404826.354233,56.000000,0.000000,4201.794922,4152.563965,4284.615234,4226.922852,4151.666504,4141.922852,4232.563965,4161.282227,4142.179688,4151.538574,4648.717773,4478.333496,4412.179688,4535.769043,0.000000,4.000000,84.000000,,,,0.000000,4.000000,4.000000,4.000000,4.000000,4.000000,4.000000,4.000000,4.000000,4.000000,4.000000,4.000000,4.000000,4.000000,4.000000,100.000000,,,,,,,,,,,,,,,,,14.000000,0.000000,0.659147,0.212402,-0.680542,0.239319,0.983518,-0.051764,-0.016115,-14.277417,-38.194355,62.680790
1703404826.361201,1703404826.362041,57.000000,0.000000,4202.051270,4163.974121,4285.769043,4240.384766,4152.179688,4138.205078,4232.692383,4158.846191,4150.000000,4174.230957,4651.922852,4474.743652,4411.538574,4538.589844,0.000000,4.000000,84.000000,,,,0.000000,4.000000,4.000000,4.000000,4.000000,4.000000,4.000000,4.000000,4.000000,4.000000,4.000000,4.000000,4.000000,4.000000,4.000000,100.000000,,,,,,,,,,,,,,,,,,,,,,,,,,,,
1703404826.369009,1703404826.369749,58.000000,0.000000,4201.282227,4170.000000,4291.282227,4251.410156,4159.615234,4147.179688,4233.717773,4150.641113,4151.153809,4173.333496,4643.077148,4477.692383,4412.692383,4537.820313,0.000000,4.000000,84.000000,,,,0.000000,4.000000,4.000000,4.000000,4.000000,4.000000,4.000000,4.000000,4.000000,4.000000,4.000000,4.000000,4.000000,4.000000,4.000000,100.000000,,,,,,,,,,,,,,,,,,,,,,,,,,,,
1703404826.376817,1703404826.377557,59.000000,0.000000,4208.974121,4170.512695,4294.358887,4247.820313,4158.974121,4151.153809,4231.282227,4150.897461,4140.384766,4161.794922,4642.820313,4485.512695,4419.615234,4545.641113,0.000000,4.000000,84.000000,,,,0.000000,4.000000,4.000000,4.000000,4.000000,4.000000,4.000000,4.000000,4.000000,4.000000,4.000000,4.000000,4.000000,4.000000,4.000000,100.000000,,,,,,,,,,,,,,,,,,,,,,,,,,,,
1703404826.384625,1703404826.385265,60.000000,0.000000,4214.230957,4179.358887,4298.333496,4249.230957,4158.589844,4144.102539,4228.974121,4155.128418,4142.692383,4173.077148,4651.538574,4491.794922,4421.410156,4552.820313,0.000000,4.000000,84.000000,,,,0.000000,4.000000,4.000000,4.000000,4.000000,4.000000,4.000000,4.000000,4.000000,4.000000,4.000000,4.000000,4.000000,4.000000,4.000000,100.000000,,,,,,,,,,,,,,,,,15.000000,0.000000,0.659276,0.212402,-0.680481,0.239136,0.987425,-0.038091,-0.009278,-14.199676,-38.174919,62.696045
1703404826.392433,1703404826.393073,61.000000,0.000000,4216.794922,4187.563965,4301.666504,4259.230957,4170.512695,4138.205078,4233.077148,4154.871582,4151.282227,4175.000000,4655.128418,4495.512695,4413.974121,4554.743652,0.000000,4.000000,84.000000,,,,0.000000,4.000000,4.000000,4.000000,4.000000,4.000000,4.000000,4.000000,4.000000,4.000000,4.000000,4.000000,4.000000,4.000000,4.000000,100.000000,,,,,,,,,,,,,,,,,,,,,,,,,,,,
1703404826.400241,1703404826.400781,62.000000,0.000000,4206.666504,4176.538574,4292.692383,4253.077148,4169.615234,4141.025879,4229.743652,4148.205078,4146.025879,4152.820313,4645.641113,4487.307617,4410.000000,4543.333496,0.000000,4.000000,84.000000,,,,0.000000,4.000000,4.000000,4.000000,4.000000,4.000000,4.000000,4.000000,4.000000,4.000000,4.000000,4.000000,4.000000,4.000000,4.000000,100.000000,,,,,,,,,,,,,,,,,,,,,,,,,,,,
1703404826.408049,1703404826.408690,63.000000,0.000000,4194.358887,4165.769043,4281.153809,4241.666504,4154.487305,4141.153809,4222.692383,4141.538574,4137.179688,4156.922852,4633.589844,4472.179688,4409.743652,4527.820313,0.000000,4.000000,84.000000,,,,0.000000,4.000000,4.000000,4.000000,4.000000,4.000000,4.000000,4.000000,4.000000,4.000000,4.000000,4.000000,4.000000,4.000000,4.000000,100.000000,,,,,,,,,,,,,,,,,,,,,,,,,,,,
1703404826.415857,1703404826.416498,64.000000,0.000000,4206.794922,4171.282227,4288.461426,4246.922852,4152.179688,4140.897461,4223.333496,4149.487305,4140.384766,4179.487305,4645.256348,4476.666504,4411.794922,4538.589844,4684.000000,4.000000,84.000000,,,,0.000000,4.000000,4.000000,4.000000,4.000000,4.000000,4.000000,4.000000,4.000000,4.000000,4.000000,4.000000,4.000000,4.000000,4.000000,100.000000,,,,,,,,,,,,,,,,,16.000000,0.000000,0.659414,0.212708,-0.680359,0.238831,0.994262,-0.049322,-0.010743,-14.263041,-38.124096,62.676441
1703404826.423665,1703404826.424306,65.000000,0.000000,4218.974121,4171.794922,4298.589844,4248.205078,4156.922852,4148.717773,4222.820313,4162.948730,4146.922852,4161.538574,4661.794922,4492.051270,4415.128418,4556.282227,5355.000000,4.000000,84.000000,,,,0.000000,4.000000,4.000000,4.000000,4.000000,4.000000,4.000000,4.000000,4.000000,4.000000,4.000000,4.000000,4.000000,4.000000,4.000000,100.000000,,,,,,,,,,,,,,,,,,,,,,,,,,,,
1703404826.431473,1703404826.432014,66.000000,0.000000,4211.153809,4170.897461,4295.512695,4247.436035,4161.282227,4156.153809,4224.102539,4162.948730,4156.794922,4147.692383,4654.487305,4492.436035,4414.358887,4553.077148,5160.000000,4.000000,84.000000,,,,0.000000,4.000000,4.000000,4.000000,4.000000,4.000000,4.000000,4.000000,4.000000,4.000000,4.000000,4.000000,4.000000,4.000000,4.000000,100.000000,,,,,,,,,,,,,,,,,,,,,,,,,,,,
1703404826.439281,1703404826.439922,67.000000,0.000000,4210.128418,4181.153809,4296.922852,4259.102539,4172.307617,4155.769043,4228.461426,4156.025879,4164.615234,4181.282227,4646.153809,4486.794922,4417.820313,4547.820313,5327.000000,4.000000,84.000000,,,,0.000000,4.000000,4.000000,4.000000,4.000000,4.000000,4.000000,4.000000,4.000000,4.000000,4.000000,4.000000,4.000000,4.000000,4.000000,100.000000,,,,,,,,,,,,,,,,,,,,,,,,,,,,
1703404826.447089,1703404826.447730,68.000000,0.000000,4221.794922,4185.256348,4303.589844,4262.563965,4175.256348,4147.179688,4223.589844,4155.897461,4161.922852,4190.897461,4657.307617,4490.512695,4428.205078,4556.794922,5068.000000,4.000000,84.000000,,,,0.000000,4.000000,4.000000,4.000000,4.000000,4.000000,4.000000,4.000000,4.000000,4.000000,4.000000,4.000000,4.000000,4.000000,4.000000,100.000000,,,,,,,,,,,,,,,,,17.000000,0.000000,0.659416,0.212830,-0.680298,0.238892,0.996215,-0.047857,-0.017092,-14.286737,-38.228352,62.708797
1703404826.454898,1703404826.455638,69.000000,0.000000,4223.589844,4177.051270,4303.077148,4250.897461,4161.666504,4144.358887,4214.487305,4157.692383,4159.358887,4155.000000,4660.128418,4493.974121,4427.692383,4561.538574,4510.000000,4.000000,84.000000,,,,0.000000,4.000000,4.000000,4.000000,4.000000,4.000000,4.000000,4.000000,4.000000,4.000000,4.000000,4.000000,4.000000,4.000000,4.000000,100.000000,,,,,,,,,,,,,,,,,,,,,,,,,,,,
1703404826.462705,1703404826.463447,70.000000,0.000000,4216.153809,4172.692383,4299.358887,4247.051270,4156.153809,4150.641113,4215.769043,4156.666504,4156.794922,4142.179688,4648.717773,4490.256348,4415.897461,4554.358887,1800.000000,4.000000,84.000000,,,,0.000000,4.000000,4.000000,4.000000,4.000000,4.000000,4.000000,4.000000,4.000000,4.000000,4.000000,4.000000,4.000000,4.000000,4.000000,100.000000,,,,,,,,,,,,,,,,,,,,,,,,,,,,
1703404826.470513,1703404826.471355,71.000000,0.000000,4217.179688,4173.077148,4301.922852,4251.538574,4167.948730,4149.358887,4219.230957,4155.128418,4150.384766,4163.717773,4650.512695,4489.230957,4414.743652,4552.948730,5158.000000,4.000000,84.000000,,,,0.000000,4.000000,4.000000,4.000000,4.000000,4.000000,4.000000,4.000000,4.000000,4.000000,4.000000,4.000000,4.000000,4.000000,4.000000,100.000000,,,,,,,,,,,,,,,,,,,,,,,,,,,,
1703404826.478322,1703404826.479163,72.000000,0.000000,4221.153809,4173.205078,4305.897461,4250.000000,4172.179688,4141.153809,4213.333496,4155.512695,4152.051270,4175.769043,4648.846191,4489.743652,4418.717773,4554.358887,4991.000000,4.000000,84.000000,,,,0.000000,4.000000,4.000000,4.000000,4.000000,4.000000,4.000000,4.000000,4.000000,4.000000,4.000000,4.000000,4.000000,4.000000,4.000000,100.000000,,,,,,,,,,,,,,,,,18.000000,0.000000,0.659413,0.212769,-0.680298,0.238953,0.979612,-0.043951,-0.017092,-14.508063,-38.255516,62.721252
1703404826.486130,1703404826.487070,73.000000,0.000000,4213.077148,4172.948730,4300.897461,4248.333496,4162.692383,4142.051270,4208.461426,4158.589844,4154.615234,4164.230957,4632.179688,4483.974121,4407.436035,4540.384766,5105.000000,4.000000,84.000000,,,,0.000000,4.000000,4.000000,4.000000,4.000000,4.000000,4.000000,4.000000,4.000000,4.000000,4.000000,4.000000,4.000000,4.000000,4.000000,100.000000,1.000000,83.333336,4.000000,4.000000,4.000000,4.000000,4.000000,4.000000,4.000000,4.000000,3.000000,3.000000,4.000000,4.000000,4.000000,4.000000,,,,,,,,,,,,
1703404826.493938,1703404826.494878,74.000000,0.000000,4198.717773,4161.666504,4286.922852,4244.871582,4154.615234,4142.820313,4208.846191,4155.000000,4132.051270,4148.974121,4619.230957,4473.589844,4391.025879,4520.769043,5940.000000,4.000000,84.000000,,,,0.000000,4.000000,4.000000,4.000000,4.000000,4.000000,4.000000,4.000000,4.000000,4.000000,4.000000,4.000000,4.000000,4.000000,4.000000,100.000000,,,,,,,,,,,,,,,,,,,,,,,,,,,,
1703404826.501746,1703404826.502786,75.000000,0.000000,4193.589844,4146.794922,4277.820313,4233.846191,4152.179688,4139.358887,4212.820313,4141.794922,4117.179688,4154.871582,4620.384766,4465.897461,4387.948730,4517.436035,6177.000000,4.000000,84.000000,,,,0.000000,4.000000,4.000000,4.000000,4.000000,4.000000,4.000000,4.000000,4.000000,4.000000,4.000000,4.000000,4.000000,4.000000,4.000000,100.000000,,,,,,,,,,,,,,,,,,,,,,,,,,,,
1703404826.509554,1703404826.510594,76.000000,0.000000,4195.256348,4146.282227,4282.051270,4227.948730,4151.153809,4145.128418,4214.358887,4142.692383,4142.051270,4145.000000,4628.717773,4467.307617,4396.922852,4526.025879,6628.000000,4.000000,84.000000,,,,0.000000,4.000000,4.000000,4.000000,4.000000,4.000000,4.000000,4.000000,4.000000,4.000000,4.000000,4.000000,4.000000,4.000000,4.000000,100.000000,,,,,,,,,,,,,,,,,19.000000,0.000000,0.659375,0.212830,-0.680359,0.238831,0.985472,-0.048834,-0.007813,-14.490590,-38.313297,62.815792
1703404826.517362,1703404826.518502,77.000000,0.000000,4194.487305,4153.974121,4287.692383,4234.102539,4154.615234,4154.358887,4214.230957,4155.000000,4152.051270,4112.436035,4623.333496,4472.179688,4396.666504,4530.641113,6538.000000,4.000000,84.000000,,,,0.000000,4.000000,4.000000,4.000000,4.000000,4.000000,4.000000,4.000000,4.000000,4.000000,4.000000,4.000000,4.000000,4.000000,4.000000,100.000000,,,,,,,,,,,,,,,,,,,,,,,,,,,,
1703404826.525170,1703404826.526310,78.000000,0.000000,4198.846191,4156.153809,4289.102539,4236.025879,4157.436035,4154.102539,4216.282227,4152.563965,4134.358887,4130.000000,4616.410156,4473.717773,4386.025879,4534.487305,5940.000000,4.000000,84.000000,,,,0.000000,4.000000,4.000000,4.000000,4.000000,4.000000,4.000000,4.000000,4.000000,4.000000,4.000000,4.000000,4.000000,4.000000,4.000000,100.000000,,,,,,,,,,,,,,,,,,,,,,,,,,,,
1703404826.532978,1703404826.534118,79.000000,0.000000,4206.282227,4155.256348,4291.282227,4229.358887,4155.128418,4149.102539,4215.641113,4150.256348,4141.922852,4175.000000,4631.410156,4481.153809,4393.077148,4540.384766,6177.000000,4.000000,84.000000,,,,0.000000,4.000000,4.000000,4.000000,4.000000,4.000000,4.000000,4.000000,4.000000,4.000000,4.000000,4.000000,4.000000,4.000000,4.000000,100.000000,,,,,,,,,,,,,,,,,,,,,,,,,,,,
1703404826.540786,1703404826.541926,80.000000,0.000000,4205.897461,4154.615234,4292.563965,4238.077148,4153.974121,4146.153809,4213.717773,4161.153809,4155.641113,4176.794922,4645.769043,4487.692383,4408.077148,4542.948730,6628.000000,4.000000,84.000000,,,,0.000000,4.000000,4.000000,4.000000,4.000000,4.000000,4.000000,4.000000,4.000000,4.000000,4.000000,4.000000,4.000000,4.000000,4.000000,100.000000,,,,,,,,,,,,,,,,,20.000000,0.000000,0.659527,0.213013,-0.680176,0.238770,1.000610,-0.049811,-0.013674,-14.408198,-38.231968,62.884212
1703404826.548594,1703404826.549634,81.000000,0.000000,4198.205078,4151.922852,4287.692383,4247.820313,4155.256348,4144.615234,4216.025879,4160.897461,4142.436035,4160.512695,4634.871582,4480.512695,4401.794922,4537.563965,6538.000000,4.000000,84.000000,,,,0.000000,4.000000,4.000000,4.000000,4.000000,4.000000,4.000000,4.000000,4.000000,4.000000,4.000000,4.000000,4.000000,4.000000,4.000000,100.000000,,,,,,,,,,,,,,,,,,,,,,,,,,,,
1703404826.556402,1703404826.557442,82.000000,0.000000,4195.128418,4149.871582,4288.461426,4234.871582,4155.897461,4146.153809,4214.615234,4150.897461,4136.666504,4159.230957,4626.282227,4476.794922,4393.974121,4535.769043,5940.000000,4.000000,84.000000,,,,0.000000,4.000000,4.000000,4.000000,4.000000,4.000000,4.000000,4.000000,4.000000,4.000000,4.000000,4.000000,4.000000,4.000000,4.000000,100.000000,,,,,,,,,,,,,,,,,,,,,,,,,,,,
1703404826.564210,1703404826.565150,83.000000,0.000000,4202.179688,4154.358887,4298.846191,4232.051270,4159.358887,4152.563965,4207.179688,4153.717773,4148.589844,4151.282227,4639.743652,4491.666504,4406.922852,4551.410156,6177.000000,4.000000,84.000000,,,,0.000000,4.000000,4.000000,4.000000,4.000000,4.000000,4.000000,4.000000,4.000000,4.000000,4.000000,4.000000,4.000000,4.000000,4.000000,100.000000,,,,,,,,,,,,,,,,,,,,,,,,,,,,
1703404826.572018,1703404826.573058,84.000000,0.000000,4204.230957,4161.410156,4298.974121,4248.846191,4163.461426,4153.846191,4202.051270,4156.410156,4157.436035,4152.179688,4647.820313,4498.333496,4418.589844,4558.333496,6628.000000,4.000000,84.000000,,,,0.000000,4.000000,4.000000,4.000000,4.000000,4.000000,4.000000,4.000000,4.000000,4.000000,4.000000,4.000000,4.000000,4.000000,4.000000,100.000000,,,,,,,,,,,,,,,,,21.000000,0.000000,0.659675,0.213013,-0.680054,0.238708,0.995239,-0.050787,-0.015627,-14.534045,-38.258770,62.879124
1703404826.579826,1703404826.580866,85.000000,0.000000,4200.512695,4161.666504,4288.846191,4249.102539,4159.743652,4147.692383,4202.051270,4152.692383,4156.025879,4180.128418,4640.897461,4483.717773,4414.102539,4544.358887,6538.000000,4.000000,84.000000,,,,0.000000,4.000000,4.000000,4.000000,4.000000,4.000000,4.000000,4.000000,4.000000,4.000000,4.000000,4.000000,4.000000,4.000000,4.000000,100.000000,,,,,,,,,,,,,,,,,,,,,,,,,,,,
1703404826.587634,1703404826.588675,86.000000,0.000000,4199.487305,4153.717773,4287.692383,4236.025879,4152.692383,4144.230957,4203.974121,4155.897461,4149.487305,4167.563965,4641.666504,4474.743652,4409.102539,4535.897461,5940.000000,4.000000,84.000000,,,,0.000000,4.000000,4.000000,4.000000,4.000000,4.000000,4.000000,4.000000,4.000000,4.000000,4.000000,4.000000,4.000000,4.000000,4.000000,100.000000,,,,,,,,,,,,,,,,,,,,,,,,,,,,
1703404826.595442,1703404826.596383,87.000000,0.000000,4198.974121,4145.897461,4292.307617,4235.384766,4151.794922,4146.153809,4205.769043,4161.153809,4148.461426,4131.025879,4647.179688,4482.436035,4411.410156,4540.769043,6177.000000,4.000000,84.000000,,,,0.000000,4.000000,4.000000,4.000000,4.000000,4.000000,4.000000,4.000000,4.000000,4.000000,4.000000,4.000000,4.000000,4.000000,4.000000,100.000000,,,,,,,,,,,,,,,,,,,,,,,,,,,,
1703404826.603250,1703404826.604191,88.000000,0.000000,4198.589844,4145.897461,4291.410156,4237.692383,4153.205078,4141.153809,4206.282227,4156.922852,4150.000000,4151.666504,4645.000000,4490.384766,4412.820313,4543.461426,6628.000000,4.000000,84.000000,,,,0.000000,4.000000,4.000000,4.000000,4.000000,4.000000,4.000000,4.000000,4.000000,4.000000,4.000000,4.000000,4.000000,4.000000,4.000000,100.000000,,,,,,,,,,,,,,,,,22.000000,0.000000,0.659864,0.212952,-0.679932,0.238586,0.989867,-0.035161,-0.016115,-14.697307,-38.282894,62.757877
1703404826.611058,1703404826.611899,89.000000,0.000000,4198.461426,4151.666504,4291.538574,4233.461426,4151.410156,4139.358887,4204.487305,4153.589844,4145.512695,4180.000000,4644.230957,4485.897461,4407.692383,4541.153809,6538.000000,4.000000,84.000000,,,,0.000000,4.000000,4.000000,4.000000,4.000000,4.000000,4.000000,4.000000,4.000000,4.000000,4.000000,4.000000,4.000000,4.000000,4.000000,100.000000,,,,,,,,,,,,,,,,,,,,,,,,,,,,
1703404826.618867,1703404826.619707,90.000000,0.000000,4196.922852,4155.128418,4289.358887,4235.256348,4153.333496,4145.128418,4199.358887,4154.871582,4147.307617,4161.794922,4642.692383,4475.512695,4402.436035,4537.436035,5940.000000,4.000000,84.000000,,,,0.000000,4.000000,4.000000,4.000000,4.000000,4.000000,4.000000,4.000000,4.000000,4.000000,4.000000,4.000000,4.000000,4.000000,4.000000,100.000000,,,,,,,,,,,,,,,,,,,,,,,,,,,,
1703404826.626675,1703404826.627415,91.000000,0.000000,4197.563965,4154.358887,4285.641113,4240.128418,4158.717773,4147.307617,4200.769043,4152.307617,4153.333496,4157.436035,4637.436035,4473.974121,4407.436035,4535.128418,6177.000000,4.000000,84.000000,,,,0.000000,4.000000,4.000000,4.000000,4.000000,4.000000,4.000000,4.000000,4.000000,4.000000,4.000000,4.000000,4.000000,4.000000,4.000000,100.000000,,,,,,,,,,,,,,,,,,,,,,,,,,,,
1703404826.634483,1703404826.635223,92.000000,0.000000,4201.410156,4154.102539,4288.589844,4238.333496,4158.205078,4147.563965,4208.461426,4149.230957,4154.102539,4171.153809,4635.769043,4477.436035,4410.769043,4540.897461,6628.000000,4.000000,84.000000,,,,0.000000,4.000000,4.000000,4.000000,4.000000,4.000000,4.000000,4.000000,4.000000,4.000000,4.000000,4.000000,4.000000,4.000000,4.000000,100.000000,,,,,,,,,,,,,,,,,23.000000,0.000000,0.660063,0.213135,-0.679810,0.238220,0.969357,-0.048346,-0.012697,-14.644243,-38.287937,62.748756
1703404826.642291,1703404826.642931,93.000000,0.000000,4201.025879,4155.897461,4290.128418,4232.948730,4153.333496,4152.051270,4207.051270,4156.410156,4155.641113,4155.000000,4635.384766,4475.897461,4404.487305,4541.794922,6538.000000,4.000000,84.000000,,,,0.000000,4.000000,4.000000,4.000000,4.000000,4.000000,4.000000,4.000000,4.000000,4.000000,4.000000,4.000000,4.000000,4.000000,4.000000,100.000000,,,,,,,,,,,,,,,,,,,,,,,,,,,,
1703404826.650099,1703404826.650739,94.000000,0.000000,4198.077148,4156.025879,4285.128418,4233.974121,4153.974121,4154.871582,4204.743652,4167.563965,4149.871582,4149.487305,4637.436035,4473.205078,4407.820313,4533.717773,5940.000000,4.000000,84.000000,,,,0.000000,4.000000,4.000000,4.000000,4.000000,4.000000,4.000000,4.000000,4.000000,4.000000,4.000000,4.000000,4.000000,4.000000,4.000000,100.000000,,,,,,,,,,,,,,,,,,,,,,,,,,,,
1703404826.657907,1703404826.658447,95.000000,0.000000,4198.205078,4157.307617,4285.769043,4239.871582,4158.077148,4149.743652,4210.000000,4171.282227,4143.333496,4172.948730,4646.538574,4480.897461,4419.230957,4539.230957,6177.000000,4.000000,84.000000,,,,0.000000,4.000000,4.000000,4.000000,4.000000,4.000000,4.000000,4.000000,4.000000,4.000000,4.000000,4.000000,4.000000,4.000000,4.000000,100.000000,,,,,,,,,,,,,,,,,,,,,,,,,,,,
1703404826.665715,1703404826.666355,96.000000,0.000000,4205.897461,4158.077148,4293.461426,4238.717773,4153.589844,4140.897461,4208.589844,4167.692383,4156.282227,4173.205078,4649.743652,4490.512695,4416.153809,4555.384766,6628.000000,4.000000,84.000000,,,,0.000000,4.000000,4.000000,4.000000,4.000000,4.000000,4.000000,4.000000,4.000000,4.000000,4.000000,4.000000,4.000000,4.000000,4.000000,100.000000,,,,,,,,,,,,,,,,,24.000000,0.000000,0.660234,0.213318,-0.679565,0.238281,0.998657,-0.050299,-0.014162,-14.813152,-38.209145,62.690548
1703404826.673523,1703404826.674163,97.000000,0.000000,4212.563965,4158.461426,4297.692383,4231.922852,4149.230957,4139.358887,4203.205078,4165.769043,4163.205078,4154.487305,4644.743652,4491.794922,4411.153809,4555.256348,6538.000000,4.000000,84.000000,,,,0.000000,4.000000,4.000000,4.000000,4.000000,4.000000,4.000000,4.000000,4.000000,4.000000,4.000000,4.000000,4.000000,4.000000,4.000000,100.000000,,,,,,,,,,,,,,,,,,,,,,,,,,,,
1703404826.681331,1703404826.682071,98.000000,0.000000,4206.922852,4158.205078,4297.692383,4233.974121,4152.563965,4142.948730,4203.333496,4168.205078,4153.589844,4148.333496,4640.897461,4487.820313,4416.922852,4541.794922,5940.000000,4.000000,84.000000,,,,0.000000,4.000000,4.000000,4.000000,4.000000,4.000000,4.000000,4.000000,4.000000,4.000000,4.000000,4.000000,4.000000,4.000000,4.000000,100.000000,,,,,,,,,,,,,,,,,,,,,,,,,,,,
1703404826.689139,1703404826.689879,99.000000,0.000000,4197.948730,4153.974121,4293.461426,4240.000000,4153.077148,4142.948730,4203.205078,4164.871582,4155.000000,4159.487305,4632.692383,4481.282227,4409.102539,4533.974121,6177.000000,4.000000,84.000000,,,,0.000000,4.000000,4.000000,4.000000,4.000000,4.000000,4.000000,4.000000,4.000000,4.000000,4.000000,4.000000,4.000000,4.000000,4.000000,100.000000,,,,,,,,,,,,,,,,,,,,,,,,,,,,
1703404826.696947,1703404826.697786,100.000000,0.000000,4200.000000,4155.256348,4289.743652,4240.769043,4153.974121,4141.410156,4205.897461,4157.051270,4159.230957,4152.179688,4631.666504,4479.102539,4397.563965,4537.307617,6628.000000,4.000000,84.000000,,,,0.000000,4.000000,4.000000,4.000000,4.000000,4.000000,4.000000,4.000000,4.000000,4.000000,4.000000,4.000000,4.000000,4.000000,4.000000,100.000000,,,,,,,,,,,,,,,,,25.000000,0.000000,0.660379,0.213257,-0.679443,0.238281,0.991820,-0.054694,-0.009767,-14.748504,-38.304897,62.721493
1703404826.704755,1703404826.705594,101.000000,0.000000,4206.025879,4161.794922,4288.589844,4235.256348,4157.179688,4145.512695,4209.615234,4154.615234,4152.948730,4128.333496,4637.563965,4481.666504,4404.871582,4544.487305,6538.000000,4.000000,84.000000,,,,0.000000,4.000000,4.000000,4.000000,4.000000,4.000000,4.000000,4.000000,4.000000,4.000000,4.000000,4.000000,4.000000,4.000000,4.000000,100.000000,,,,,,,,,,,,,,,,,,,,,,,,,,,,
1703404826.712563,1703404826.713502,102.000000,0.000000,4202.563965,4154.102539,4285.384766,4224.615234,4147.820313,4143.205078,4203.077148,4153.974121,4148.846191,4135.384766,4627.436035,4476.153809,4398.205078,4536.922852,5940.000000,4.000000,84.000000,,,,0.000000,4.000000,4.000000,4.000000,4.000000,4.000000,4.000000,4.000000,4.000000,4.000000,4.000000,4.000000,4.000000,4.000000,4.000000,100.000000,,,,,,,,,,,,,,,,,,,,,,,,,,,,
1703404826.720371,1703404826.721310,103.000000,0.000000,4197.051270,4144.230957,4285.384766,4224.871582,4138.205078,4134.871582,4200.000000,4154.358887,4137.692383,4161.922852,4623.846191,4471.153809,4384.743652,4526.410156,6177.000000,4.000000,84.000000,,,,0.000000,4.000000,4.000000,4.000000,4.000000,4.000000,4.000000,4.000000,4.000000,4.000000,4.000000,4.000000,4.000000,4.000000,4.000000,100.000000,,,,,,,,,,,,,,,,,,,,,,,,,,,,
1703404826.728179,1703404826.729018,104.000000,0.000000,4199.230957,4149.743652,4289.358887,4228.205078,4141.025879,4134.871582,4203.846191,4157.692383,4127.820313,4158.077148,4629.615234,4478.077148,4397.307617,4530.256348,6628.000000,4.000000,84.000000,,,,0.000000,4.000000,4.000000,4.000000,4.000000,4.000000,4.000000,4.000000,4.000000,4.000000,4.000000,4.000000,4.000000,4.000000,4.000000,100.000000,,,,,,,,,,,,,,,,,26.000000,0.000000,0.660394,0.213074,-0.679443,0.238403,1.000610,-0.050787,-0.010255,-14.773653,-38.307739,62.749344
1703404826.735987,1703404826.736826,105.000000,0.000000,4200.000000,4151.666504,4287.563965,4218.974121,4142.692383,4138.717773,4203.333496,4152.179688,4135.641113,4136.538574,4613.717773,4475.641113,4401.410156,4530.641113,6538.000000,4.000000,84.000000,,,,0.000000,4.000000,4.000000,4.000000,4.000000,4.000000,4.000000,4.000000,4.000000,4.000000,4.000000,4.000000,4.000000,4.000000,4.000000,100.000000,,,,,,,,,,,,,,,,,,,,,,,,,,,,
1703404826.743795,1703404826.744534,106.000000,0.000000,4194.230957,4145.256348,4281.538574,4220.769043,4142.820313,4138.333496,4201.538574,4139.358887,4141.794922,4135.128418,4600.897461,4457.436035,4381.922852,4523.717773,5940.000000,4.000000,84.000000,,,,0.000000,4.000000,4.000000,4.000000,4.000000,4.000000,4.000000,4.000000,4.000000,4.000000,4.000000,4.000000,4.000000,4.000000,4.000000,100.000000,,,,,,,,,,,,,,,,,,,,,,,,,,,,
1703404826.751603,1703404826.752342,107.000000,0.000000,4191.922852,4145.641113,4281.153809,4231.538574,4147.436035,4142.948730,4199.743652,4135.769043,4136.666504,4142.563965,4613.461426,4449.487305,4377.179688,4517.307617,6177.000000,4.000000,84.000000,,,,0.000000,4.000000,4.000000,4.000000,4.000000,4.000000,4.000000,4.000000,4.000000,4.000000,4.000000,4.000000,4.000000,4.000000,4.000000,100.000000,,,,,,,,,,,,,,,,,,,,,,,,,,,,
1703404826.759411,1703404826.760050,108.000000,0.000000,4194.743652,4150.897461,4280.000000,4225.512695,4149.871582,4147.307617,4201.153809,4146.922852,4136.666504,4145.769043,4618.589844,4458.846191,4385.897461,4515.641113,6628.000000,4.000000,84.000000,,,,0.000000,4.000000,4.000000,4.000000,4.000000,4.000000,4.000000,4.000000,4.000000,4.000000,4.000000,4.000000,4.000000,4.000000,4.000000,100.000000,,,,,,,,,,,,,,,,,27.000000,0.000000,0.660476,0.213013,-0.679382,0.238403,0.996215,-0.049322,-0.008790,-14.796288,-38.143635,62.774410
1703404826.767219,1703404826.767858,109.000000,0.000000,4188.846191,4150.384766,4273.974121,4221.666504,4148.461426,4143.846191,4204.615234,4158.974121,4139.487305,4146.666504,4611.666504,4465.256348,4382.820313,4517.179688,6538.000000,4.000000,84.000000,,,,0.000000,4.000000,4.000000,4.000000,4.000000,4.000000,4.000000,4.000000,4.000000,4.000000,4.000000,4.000000,4.000000,4.000000,4.000000,100.000000,,,,,,,,,,,,,,,,,,,,,,,,,,,,
1703404826.775027,1703404826.775566,110.000000,0.000000,4181.025879,4149.871582,4272.563965,4229.615234,4149.487305,4146.153809,4203.205078,4153.717773,4135.769043,4139.743652,4613.333496,4458.974121,4374.487305,4512.179688,5940.000000,4.000000,84.000000,,,,0.000000,4.000000,4.000000,4.000000,4.000000,4.000000,4.000000,4.000000,4.000000,4.000000,4.000000,4.000000,4.000000,4.000000,4.000000,100.000000,,,,,,,,,,,,,,,,,,,,,,,,,,,,
1703404826.782836,1703404826.783374,111.000000,0.000000,4185.512695,4151.410156,4277.051270,4222.436035,4151.666504,4152.563965,4202.051270,4143.461426,4135.897461,4131.282227,4612.820313,4454.102539,4372.307617,4506.153809,6177.000000,4.000000,84.000000,,,,0.000000,4.000000,4.000000,4.000000,4.000000,4.000000,4.000000,4.000000,4.000000,4.000000,4.000000,4.000000,4.000000,4.000000,4.000000,100.000000,,,,,,,,,,,,,,,,,,,,,,,,,,,,
1703404826.790644,1703404826.791082,112.000000,0.000000,4190.000000,4152.307617,4278.589844,4219.102539,4152.692383,4144.615234,4203.333496,4149.871582,4139.743652,4137.820313,4613.846191,4461.153809,4377.436035,4510.897461,6628.000000,4.000000,84.000000,,,,0.000000,4.000000,4.000000,4.000000,4.000000,4.000000,4.000000,4.000000,4.000000,4.000000,4.000000,4.000000,4.000000,4.000000,4.000000,100.000000,,,,,,,,,,,,,,,,,28.000000,0.000000,0.660517,0.213013,-0.679321,0.238464,1.001099,-0.038579,-0.002442,-14.749992,-38.179268,62.830303
1703404826.798452,1703404826.798890,113.000000,0.000000,4184.102539,4151.153809,4276.794922,4232.563965,4146.666504,4133.333496,4202.948730,4154.487305,4134.230957,4135.000000,4617.051270,4465.256348,4383.461426,4512.948730,6538.000000,4.000000,84.000000,,,,0.000000,4.000000,4.000000,4.000000,4.000000,4.000000,4.000000,4.000000,4.000000,4.000000,4.000000,4.000000,4.000000,4.000000,4.000000,100.000000,,,,,,,,,,,,,,,,,,,,,,,,,,,,
1703404826.806260,1703404826.806598,114.000000,0.000000,4181.794922,4150.512695,4278.205078,4233.077148,4141.922852,4139.743652,4203.077148,4143.974121,4123.333496,4106.153809,4605.128418,4455.128418,4382.051270,4509.230957,5940.000000,4.000000,84.000000,,,,0.000000,4.000000,4.000000,4.000000,4.000000,4.000000,4.000000,4.000000,4.000000,4.000000,4.000000,4.000000,4.000000,4.000000,4.000000,100.000000,,,,,,,,,,,,,,,,,,,,,,,,,,,,
1703404826.814068,1703404826.814406,115.000000,0.000000,4188.589844,4155.641113,4280.897461,4228.846191,4149.615234,4146.666504,4203.077148,4133.974121,4119.487305,4105.897461,4597.948730,4450.641113,4378.077148,4516.410156,6177.000000,4.000000,84.000000,,,,0.000000,4.000000,4.000000,4.000000,4.000000,4.000000,4.000000,4.000000,4.000000,4.000000,4.000000,4.000000,4.000000,4.000000,4.000000,100.000000,,,,,,,,,,,,,,,,,,,,,,,,,,,,
1703404826.821876,1703404826.822115,116.000000,0.000000,4197.307617,4160.384766,4284.871582,4234.487305,4154.743652,4141.153809,4199.743652,4125.769043,4121.153809,4136.153809,4606.538574,4456.538574,4379.615234,4523.461426,6628.000000,4.000000,84.000000,,,,0.000000,4.000000,4.000000,4.000000,4.000000,4.000000,4.000000,4.000000,4.000000,4.000000,4.000000,4.000000,4.000000,4.000000,4.000000,100.000000,,,,,,,,,,,,,,,,,29.000000,0.000000,0.660541,0.213135,-0.679260,0.238464,0.987914,-0.040044,-0.002442,-14.641660,-38.228008,62.813938
1703404826.829684,1703404826.829922,117.000000,0.000000,4201.538574,4160.128418,4286.666504,4230.256348,4151.794922,4141.922852,4203.461426,4120.000000,4119.615234,4144.230957,4613.205078,4458.589844,4385.256348,4523.077148,6538.000000,4.000000,84.000000,,,,0.000000,4.000000,4.000000,4.000000,4.000000,4.000000,4.000000,4.000000,4.000000,4.000000,4.000000,4.000000,4.000000,4.000000,4.000000,100.000000,,,,,,,,,,,,,,,,,,,,,,,,,,,,
1703404826.837492,1703404826.837631,118.000000,0.000000,4192.563965,4155.512695,4274.487305,4216.282227,4152.692383,4150.128418,4208.589844,4129.871582,4123.846191,4135.000000,4612.692383,4453.717773,4380.256348,4519.487305,5940.000000,4.000000,84.000000,,,,0.000000,4.000000,4.000000,4.000000,4.000000,4.000000,4.000000,4.000000,4.000000,4.000000,4.000000,4.000000,4.000000,4.000000,4.000000,100.000000,,,,,,,,,,,,,,,,,,,,,,,,,,,,
1703404826.845300,1703404826.845538,119.000000,0.000000,4182.948730,4150.512695,4263.717773,4214.743652,4154.615234,4155.000000,4203.974121,4151.538574,4141.410156,4139.871582,4616.025879,4453.846191,4373.846191,4515.128418,6177.000000,4.000000,84.000000,,,,0.000000,4.000000,4.000000,4.000000,4.000000,4.000000,4.000000,4.000000,4.000000,4.000000,4.000000,4.000000,4.000000,4.000000,4.000000,100.000000,,,,,,,,,,,,,,,,,,,,,,,,,,,,
1703404826.853108,1703404826.853346,120.000000,0.000000,4189.615234,4151.410156,4271.538574,4219.358887,4149.871582,4154.615234,4206.025879,4164.615234,4153.589844,4149.743652,4626.153809,4465.000000,4387.307617,4521.025879,6628.000000,4.000000,84.000000,,,,0.000000,4.000000,4.000000,4.000000,4.000000,4.000000,4.000000,4.000000,4.000000,4.000000,4.000000,4.000000,4.000000,4.000000,4.000000,100.000000,,,,,,,,,,,,,,,,,30.000000,0.000000,0.660459,0.213318,-0.679260,0.238525,0.979612,-0.052741,-0.016604,-14.527493,-38.255207,62.782543
1703404826.860916,1703404826.861254,121.000000,0.000000,4192.179688,4152.563965,4280.641113,4220.897461,4149.615234,4153.717773,4212.307617,4163.717773,4152.563965,4153.717773,4635.641113,4471.282227,4403.589844,4528.589844,6538.000000,4.000000,84.000000,,,,0.000000,4.000000,4.000000,4.000000,4.000000,4.000000,4.000000,4.000000,4.000000,4.000000,4.000000,4.000000,4.000000,4.000000,4.000000,100.000000,,,,,,,,,,,,,,,,,,,,,,,,,,,,
1703404826.868724,1703404826.869062,122.000000,0.000000,4187.948730,4152.436035,4282.436035,4226.282227,4153.846191,4151.666504,4206.410156,4155.512695,4137.948730,4156.410156,4635.384766,4470.384766,4401.025879,4524.487305,5940.000000,4.000000,84.000000,,,,0.000000,4.000000,4.000000,4.000000,4.000000,4.000000,4.000000,4.000000,4.000000,4.000000,4.000000,4.000000,4.000000,4.000000,4.000000,100.000000,,,,,,,,,,,,,,,,,,,,,,,,,,,,
1703404826.876532,1703404826.876970,123.000000,0.000000,4196.025879,4160.512695,4288.333496,4233.589844,4156.538574,4150.897461,4198.974121,4147.948730,4122.563965,4151.538574,4626.922852,4471.282227,4391.538574,4523.077148,6177.000000,4.000000,84.000000,,,,0.000000,4.000000,4.000000,4.000000,4.000000,4.000000,4.000000,4.000000,4.000000,4.000000,4.000000,4.000000,4.000000,4.000000,4.000000,100.000000,,,,,,,,,,,,,,,,,,,,,,,,,,,,
1703404826.884340,1703404826.884778,124.000000,0.000000,4205.256348,4168.717773,4287.692383,4235.897461,4156.282227,4150.512695,4200.769043,4143.974121,4127.051270,4145.128418,4621.922852,4464.230957,4388.846191,4524.871582,6628.000000,4.000000,84.000000,,,,0.000000,4.000000,4.000000,4.000000,4.000000,4.000000,4.000000,4.000000,4.000000,4.000000,4.000000,4.000000,4.000000,4.000000,4.000000,100.000000,,,,,,,,,,,,,,,,,31.000000,0.000000,0.660403,0.213562,-0.679260,0.238464,0.989867,-0.060554,-0.003907,-14.691411,-38.279686,62.920956
1703404826.892148,1703404826.892686,125.000000,0.000000,4199.230957,4162.051270,4280.128418,4231.153809,4147.307617,4149.871582,4209.358887,4141.666504,4140.128418,4136.922852,4612.436035,4452.692383,4377.948730,4515.897461,6538.000000,4.000000,84.000000,,,,0.000000,4.000000,4.000000,4.000000,4.000000,4.000000,4.000000,4.000000,4.000000,4.000000,4.000000,4.000000,4.000000,4.000000,4.000000,100.000000,,,,,,,,,,,,,,,,,,,,,,,,,,,,
1703404826.899956,1703404826.900494,126.000000,0.000000,4185.769043,4146.922852,4278.333496,4220.256348,4140.000000,4151.410156,4211.538574,4144.743652,4142.563965,4127.692383,4599.743652,4452.307617,4360.641113,4505.641113,5940.000000,4.000000,84.000000,,,,0.000000,4.000000,4.000000,4.000000,4.000000,4.000000,4.000000,4.000000,4.000000,4.000000,4.000000,4.000000,4.000000,4.000000,4.000000,100.000000,,,,,,,,,,,,,,,,,,,,,,,,,,,,
1703404826.907764,1703404826.908402,127.000000,0.000000,4181.922852,4146.153809,4274.871582,4219.487305,4147.563965,4146.922852,4208.589844,4140.384766,4136.282227,4129.487305,4603.974121,4452.692383,4371.922852,4508.077148,84.000000,4.000000,84.000000,,,,0.000000,4.000000,4.000000,4.000000,4.000000,4.000000,4.000000,4.000000,4.000000,4.000000,4.000000,4.000000,4.000000,4.000000,4.000000,100.000000,,,,,,,,,,,,,,,,,,,,,,,,,,,,
1703404826.915573,1703404826.916210,0.000000,0.000000,4188.846191,4157.051270,4270.641113,4232.436035,4158.205078,4144.230957,4207.307617,4131.025879,4132.563965,4140.512695,4627.436035,4448.846191,4414.743652,4523.077148,4679.000000,4.000000,84.000000,,,,0.000000,4.000000,4.000000,4.000000,4.000000,4.000000,4.000000,4.000000,4.000000,4.000000,4.000000,4.000000,4.000000,4.000000,4.000000,100.000000,,,,,,,,,,,,,,,,,0.000000,0.000000,0.660385,0.213684,-0.679260,0.238403,0.996215,-0.053229,-0.013185,-14.705604,-38.335052,62.912193
1703404826.923380,1703404826.923918,1.000000,0.000000,4188.077148,4153.717773,4276.538574,4235.769043,4156.666504,4151.794922,4209.358887,4141.282227,4142.436035,4152.692383,4652.948730,4458.077148,4439.230957,4533.846191,5365.000000,4.000000,84.000000,,,,0.000000,4.000000,4.000000,4.000000,4.000000,4.000000,4.000000,4.000000,4.000000,4.000000,4.000000,4.000000,4.000000,4.000000,4.000000,100.000000,,,,,,,,,,,,,,,,,,,,,,,,,,,,
1703404826.931188,1703404826.931726,2.000000,0.000000,4176.153809,4137.436035,4281.410156,4224.615234,4153.846191,4156.538574,4211.538574,4160.641113,4157.563965,4163.589844,4660.256348,4469.743652,4432.179688,4528.589844,5158.000000,4.000000,84.000000,,,,0.000000,4.000000,4.000000,4.000000,4.000000,4.000000,4.000000,4.000000,4.000000,4.000000,4.000000,4.000000,4.000000,4.000000,4.000000,100.000000,,,,,,,,,,,,,,,,,,,,,,,,,,,,
1703404826.938997,1703404826.939434,3.000000,0.000000,4178.077148,4133.205078,4276.025879,4219.358887,4157.179688,4156.282227,4215.256348,4161.410156,4156.153809,4175.128418,4653.974121,4467.051270,4434.615234,4523.717773,5322.000000,4.000000,84.000000,,,,0.000000,4.000000,4.000000,4.000000,4.000000,4.000000,4.000000,4.000000,4.000000,4.000000,4.000000,4.000000,4.000000,4.000000,4.000000,100.000000,,,,,,,,,,,,,,,,,,,,,,,,,,,,
1703404826.946805,1703404826.947242,4.000000,0.000000,4187.436035,4141.282227,4271.153809,4223.205078,4156.153809,4158.461426,4218.589844,4153.333496,4147.692383,4171.410156,4650.128418,4462.179688,4438.589844,4526.666504,5065.000000,4.000000,84.000000,,,,0.000000,4.000000,4.000000,4.000000,4.000000,4.000000,4.000000,4.000000,4.000000,4.000000,4.000000,4.000000,4.000000,4.000000,4.000000,100.000000,,,,,,,,,,,,,,,,,1.000000,0.000000,0.660384,0.213745,-0.679199,0.238525,0.990355,-0.038579,-0.013185,-14.585043,-38.384880,62.787643
1703404826.954613,1703404826.954950,5.000000,0.000000,4174.743652,4134.358887,4269.743652,4214.615234,4151.153809,4158.333496,4216.538574,4157.948730,4156.794922,4154.358887,4646.025879,4460.769043,4416.666504,4518.461426,4502.000000,4.000000,84.000000,,,,0.000000,4.000000,4.000000,4.000000,4.000000,4.000000,4.000000,4.000000,4.000000,4.000000,4.000000,4.000000,4.000000,4.000000,4.000000,100.000000,,,,,,,,,,,,,,,,,,,,,,,,,,,,
1703404826.962421,1703404826.962758,6.000000,0.000000,4157.692383,4118.589844,4266.538574,4200.769043,4150.897461,4154.230957,4217.179688,4161.666504,4153.589844,4153.077148,4628.974121,4455.769043,4395.512695,4505.384766,1800.000000,4.000000,84.000000,,,,0.000000,4.000000,4.000000,4.000000,4.000000,4.000000,4.000000,4.000000,4.000000,4.000000,4.000000,4.000000,4.000000,4.000000,4.000000,100.000000,,,,,,,,,,,,,,,,,,,,,,,,,,,,
1703404826.970229,1703404826.970666,7.000000,0.000000,4160.000000,4115.512695,4265.897461,4206.153809,4150.128418,4153.974121,4217.051270,4155.384766,4133.974121,4152.051270,4613.846191,4448.974121,4393.717773,4503.589844,5150.000000,4.000000,84.000000,,,,0.000000,4.000000,4.000000,4.000000,4.000000,4.000000,4.000000,4.000000,4.000000,4.000000,4.000000,4.000000,4.000000,4.000000,4.000000,100.000000,,,,,,,,,,,,,,,,,,,,,,,,,,,,
1703404826.978037,1703404826.978474,8.000000,0.000000,4168.717773,4121.922852,4270.000000,4218.589844,4143.846191,4156.025879,4214.102539,4152.692383,4133.974121,4138.077148,4620.897461,4450.384766,4401.025879,4507.948730,4974.000000,4.000000,84.000000,,,,0.000000,4.000000,4.000000,4.000000,4.000000,4.000000,4.000000,4.000000,4.000000,4.000000,4.000000,4.000000,4.000000,4.000000,4.000000,100.000000,,,,,,,,,,,,,,,,,2.000000,0.000000,0.660238,0.213867,-0.679260,0.238647,0.999634,-0.047369,-0.012697,-14.626538,-38.329727,62.692211
1703404826.985845,1703404826.986182,9.000000,0.000000,4175.128418,4127.179688,4273.461426,4216.922852,4143.974121,4152.179688,4216.410156,4156.794922,4146.666504,4138.333496,4633.205078,4458.333496,4411.153809,4514.487305,5068.000000,4.000000,84.000000,,,,0.000000,4.000000,4.000000,4.000000,4.000000,4.000000,4.000000,4.000000,4.000000,4.000000,4.000000,4.000000,4.000000,4.000000,4.000000,100.000000,1.000000,83.333336,4.000000,4.000000,4.000000,4.000000,4.000000,4.000000,4.000000,4.000000,3.000000,3.000000,4.000000,4.000000,4.000000,4.000000,,,,,,,,,,,,
1703404826.993653,1703404826.993990,10.000000,0.000000,4182.820313,4126.538574,4277.692383,4217.436035,4151.922852,4142.692383,4216.410156,4151.025879,4144.358887,4155.512695,4634.230957,4465.000000,4417.436035,4522.563965,5933.000000,4.000000,84.000000,,,,0.000000,4.000000,4.000000,4.000000,4.000000,4.000000,4.000000,4.000000,4.000000,4.000000,4.000000,4.000000,4.000000,4.000000,4.000000,100.000000,,,,,,,,,,,,,,,,,,,,,,,,,,,,
1703404827.001461,1703404827.001698,11.000000,0.000000,4188.717773,4129.230957,4286.922852,4220.641113,4154.615234,4142.563965,4216.025879,4141.025879,4135.641113,4158.974121,4633.717773,4468.461426,4415.641113,4527.820313,6177.000000,4.000000,84.000000,,,,0.000000,4.000000,4.000000,4.000000,4.000000,4.000000,4.000000,4.000000,4.000000,4.000000,4.000000,4.000000,4.000000,4.000000,4.000000,100.000000,,,,,,,,,,,,,,,,,,,,,,,,,,,,
1703404827.009269,1703404827.009606,12.000000,0.000000,4189.230957,4137.436035,4289.487305,4217.563965,4155.641113,4152.307617,4217.563965,4148.589844,4140.897461,4145.769043,4632.692383,4464.487305,4410.128418,4525.769043,6628.000000,4.000000,84.000000,,,,0.000000,4.000000,4.000000,4.000000,4.000000,4.000000,4.000000,4.000000,4.000000,4.000000,4.000000,4.000000,4.000000,4.000000,4.000000,100.000000,,,,,,,,,,,,,,,,,3.000000,0.000000,0.660070,0.213928,-0.679382,0.238708,0.984984,-0.036626,-0.019045,-14.613885,-38.363419,62.689655
1703404827.017077,1703404827.017414,13.000000,0.000000,4184.487305,4136.153809,4276.025879,4220.641113,4159.487305,4154.358887,4218.077148,4153.077148,4144.230957,4137.948730,4621.666504,4449.487305,4399.102539,4513.589844,6538.000000,4.000000,84.000000,,,,0.000000,4.000000,4.000000,4.000000,4.000000,4.000000,4.000000,4.000000,4.000000,4.000000,4.000000,4.000000,4.000000,4.000000,4.000000,100.000000,,,,,,,,,,,,,,,,,,,,,,,,,,,,
1703404827.024885,1703404827.025322,14.000000,0.000000,4174.487305,4126.666504,4260.769043,4221.538574,4159.743652,4152.307617,4215.769043,4141.282227,4136.794922,4136.538574,4612.051270,4435.897461,4385.641113,4500.897461,5933.000000,4.000000,84.000000,,,,0.000000,4.000000,4.000000,4.000000,4.000000,4.000000,4.000000,4.000000,4.000000,4.000000,4.000000,4.000000,4.000000,4.000000,4.000000,100.000000,,,,,,,,,,,,,,,,,,,,,,,,,,,,
1703404827.032693,1703404827.033130,15.000000,0.000000,4166.410156,4124.102539,4257.820313,4214.358887,4157.179688,4153.205078,4213.974121,4135.769043,4134.743652,4137.179688,4613.974121,4435.897461,4379.743652,4501.282227,6177.000000,4.000000,84.000000,,,,0.000000,4.000000,4.000000,4.000000,4.000000,4.000000,4.000000,4.000000,4.000000,4.000000,4.000000,4.000000,4.000000,4.000000,4.000000,100.000000,,,,,,,,,,,,,,,,,,,,,,,,,,,,
1703404827.040501,1703404827.041038,16.000000,0.000000,4167.307617,4126.922852,4268.974121,4212.307617,4155.256348,4147.307617,4215.000000,4140.897461,4139.358887,4134.487305,4616.410156,4441.666504,4378.846191,4505.512695,0.000000,4.000000,84.000000,,,,0.000000,4.000000,4.000000,4.000000,4.000000,4.000000,4.000000,4.000000,4.000000,4.000000,4.000000,4.000000,4.000000,4.000000,4.000000,100.000000,,,,,,,,,,,,,,,,,4.000000,0.000000,0.659949,0.214233,-0.679382,0.238770,0.994262,-0.056648,-0.005372,-14.602496,-38.443745,62.637356
1703404827.048309,1703404827.048846,17.000000,0.000000,4175.769043,4129.871582,4280.256348,4219.230957,4153.846191,4139.615234,4215.769043,4147.436035,4138.589844,4136.282227,4621.410156,4451.153809,4385.384766,4505.897461,0.000000,4.000000,84.000000,,,,0.000000,4.000000,4.000000,4.000000,4.000000,4.000000,4.000000,4.000000,4.000000,4.000000,4.000000,4.000000,4.000000,4.000000,4.000000,100.000000,,,,,,,,,,,,,,,,,,,,,,,,,,,,
1703404827.056117,1703404827.056754,18.000000,0.000000,4184.743652,4135.641113,4279.230957,4226.794922,4155.641113,4142.820313,4215.769043,4150.897461,4134.102539,4148.846191,4634.358887,4457.179688,4399.487305,4507.820313,0.000000,4.000000,84.000000,,,,0.000000,4.000000,4.000000,4.000000,4.000000,4.000000,4.000000,4.000000,4.000000,4.000000,4.000000,4.000000,4.000000,4.000000,4.000000,100.000000,,,,,,,,,,,,,,,,,,,,,,,,,,,,
1703404827.063925,1703404827.064562,19.000000,0.000000,4183.461426,4138.205078,4272.436035,4221.794922,4156.922852,4149.487305,4216.282227,4145.000000,4136.666504,4154.871582,4637.179688,4451.153809,4404.487305,4509.871582,0.000000,4.000000,84.000000,,,,0.000000,4.000000,4.000000,4.000000,4.000000,4.000000,4.000000,4.000000,4.000000,4.000000,4.000000,4.000000,4.000000,4.000000,4.000000,100.000000,,,,,,,,,,,,,,,,,,,,,,,,,,,,
1703404827.071733,1703404827.072470,20.000000,0.000000,4175.769043,4132.692383,4271.410156,4213.974121,4158.077148,4153.077148,4217.948730,4139.358887,4141.282227,4153.077148,4621.025879,4443.205078,4397.051270,4507.820313,0.000000,4.000000,84.000000,,,,0.000000,4.000000,4.000000,4.000000,4.000000,4.000000,4.000000,4.000000,4.000000,4.000000,4.000000,4.000000,4.000000,4.000000,4.000000,100.000000,,,,,,,,,,,,,,,,,5.000000,0.000000,0.659879,0.214050,-0.679443,0.238953,0.993774,-0.040044,-0.011232,-14.775580,-38.466038,62.640289
1703404827.079542,1703404827.080278,21.000000,0.000000,4168.717773,4128.589844,4270.512695,4221.025879,4159.102539,4149.102539,4214.358887,4141.794922,4136.025879,4140.641113,4602.692383,4435.000000,4385.128418,4495.641113,0.000000,4.000000,84.000000,,,,0.000000,4.000000,4.000000,4.000000,4.000000,4.000000,4.000000,4.000000,4.000000,4.000000,4.000000,4.000000,4.000000,4.000000,4.000000,100.000000,,,,,,,,,,,,,,,,,,,,,,,,,,,,
1703404827.087350,1703404827.088186,22.000000,0.000000,4168.846191,4133.077148,4266.922852,4232.820313,4154.230957,4145.000000,4209.487305,4135.128418,4122.820313,4119.487305,4594.230957,4428.974121,4375.256348,4485.384766,0.000000,4.000000,84.000000,,,,0.000000,4.000000,4.000000,4.000000,4.000000,4.000000,4.000000,4.000000,4.000000,4.000000,4.000000,4.000000,4.000000,4.000000,4.000000,100.000000,,,,,,,,,,,,,,,,,,,,,,,,,,,,
1703404827.095158,1703404827.095994,23.000000,0.000000,4177.563965,4140.384766,4271.410156,4231.666504,4150.256348,4150.384766,4212.948730,4126.794922,4122.179688,4118.846191,4602.948730,4439.871582,4377.179688,4497.051270,0.000000,4.000000,84.000000,,,,0.000000,4.000000,4.000000,4.000000,4.000000,4.000000,4.000000,4.000000,4.000000,4.000000,4.000000,4.000000,4.000000,4.000000,4.000000,100.000000,,,,,,,,,,,,,,,,,,,,,,,,,,,,
1703404827.102966,1703404827.103802,24.000000,0.000000,4187.948730,4141.025879,4280.000000,4228.846191,4157.307617,4154.743652,4215.256348,4140.128418,4137.051270,4144.358887,4627.948730,4461.282227,4396.153809,4521.922852,0.000000,4.000000,84.000000,,,,0.000000,4.000000,4.000000,4.000000,4.000000,4.000000,4.000000,4.000000,4.000000,4.000000,4.000000,4.000000,4.000000,4.000000,4.000000,100.000000,,,,,,,,,,,,,,,,,6.000000,0.000000,0.659694,0.214233,-0.679565,0.238953,0.985472,-0.062996,-0.017092,-14.781355,-38.336102,62.576260
1703404827.110774,1703404827.111610,25.000000,0.000000,4194.871582,4138.846191,4282.820313,4234.615234,4163.077148,4150.769043,4215.384766,4156.025879,4142.820313,4159.615234,4647.179688,4471.666504,4416.410156,4538.205078,0.000000,4.000000,84.000000,,,,0.000000,4.000000,4.000000,4.000000,4.000000,4.000000,4.000000,4.000000,4.000000,4.000000,4.000000,4.000000,4.000000,4.000000,4.000000,100.000000,,,,,,,,,,,,,,,,,,,,,,,,,,,,
1703404827.118582,1703404827.119318,26.000000,0.000000,4192.179688,4137.820313,4281.666504,4232.179688,4156.922852,4150.897461,4214.871582,4152.948730,4137.436035,4155.769043,4644.871582,4466.666504,4416.794922,4535.128418,0.000000,4.000000,84.000000,,,,0.000000,4.000000,4.000000,4.000000,4.000000,4.000000,4.000000,4.000000,4.000000,4.000000,4.000000,4.000000,4.000000,4.000000,4.000000,100.000000,,,,,,,,,,,,,,,,,,,,,,,,,,,,
1703404827.126390,1703404827.127126,27.000000,0.000000,4179.102539,4130.000000,4278.974121,4221.666504,4150.128418,4153.846191,4211.025879,4140.641113,4134.487305,4157.948730,4634.743652,4455.128418,4406.153809,4522.179688,0.000000,4.000000,84.000000,,,,0.000000,4.000000,4.000000,4.000000,4.000000,4.000000,4.000000,4.000000,4.000000,4.000000,4.000000,4.000000,4.000000,4.000000,4.000000,100.000000,,,,,,,,,,,,,,,,,,,,,,,,,,,,
1703404827.134198,1703404827.134834,28.000000,0.000000,4173.077148,4122.692383,4274.615234,4217.307617,4151.153809,4145.769043,4209.487305,4130.000000,4134.230957,4161.025879,4632.563965,4448.077148,4401.538574,4519.358887,0.000000,4.000000,84.000000,,,,0.000000,4.000000,4.000000,4.000000,4.000000,4.000000,4.000000,4.000000,4.000000,4.000000,4.000000,4.000000,4.000000,4.000000,4.000000,100.000000,,,,,,,,,,,,,,,,,7.000000,0.000000,0.659677,0.214355,-0.679565,0.238892,0.986449,-0.049322,-0.010743,-14.803220,-38.252491,62.535301
1703404827.142006,1703404827.142742,29.000000,0.000000,4177.563965,4124.743652,4272.051270,4219.102539,4153.461426,4139.615234,4209.871582,4126.282227,4135.000000,4157.307617,4633.077148,4451.794922,4404.358887,4523.205078,0.000000,4.000000,84.000000,,,,0.000000,4.000000,4.000000,4.000000,4.000000,4.000000,4.000000,4.000000,4.000000,4.000000,4.000000,4.000000,4.000000,4.000000,4.000000,100.000000,,,,,,,,,,,,,,,,,,,,,,,,,,,,
1703404827.149814,1703404827.150550,30.000000,0.000000,4174.743652,4125.897461,4274.102539,4222.307617,4153.589844,4148.589844,4209.871582,4132.179688,4136.922852,4157.692383,4626.922852,4451.794922,4403.589844,4513.974121,0.000000,4.000000,84.000000,,,,0.000000,4.000000,4.000000,4.000000,4.000000,4.000000,4.000000,4.000000,4.000000,4.000000,4.000000,4.000000,4.000000,4.000000,4.000000,100.000000,,,,,,,,,,,,,,,,,,,,,,,,,,,,
1703404827.157622,1703404827.158358,31.000000,0.000000,4169.743652,4127.436035,4275.641113,4224.871582,4153.333496,4151.025879,4206.282227,4138.974121,4136.538574,4156.538574,4615.897461,4442.436035,4390.769043,4501.538574,0.000000,4.000000,84.000000,,,,0.000000,4.000000,4.000000,4.000000,4.000000,4.000000,4.000000,4.000000,4.000000,4.000000,4.000000,4.000000,4.000000,4.000000,4.000000,100.000000,,,,,,,,,,,,,,,,,,,,,,,,,,,,
1703404827.165430,1703404827.166066,32.000000,0.000000,4179.102539,4134.871582,4277.563965,4230.897461,4153.333496,4141.922852,4203.461426,4140.256348,4136.282227,4140.384766,4613.333496,4443.846191,4381.794922,4509.230957,0.000000,4.000000,84.000000,,,,0.000000,4.000000,4.000000,4.000000,4.000000,4.000000,4.000000,4.000000,4.000000,4.000000,4.000000,4.000000,4.000000,4.000000,4.000000,100.000000,,,,,,,,,,,,,,,,,8.000000,0.000000,0.659660,0.214600,-0.679504,0.238892,0.995239,-0.061531,-0.025394,-14.772898,-38.043907,62.415104
1703404827.173238,1703404827.173874,33.000000,0.000000,4186.153809,4136.410156,4283.461426,4232.179688,4149.487305,4139.871582,4208.205078,4141.666504,4133.846191,4128.717773,4618.333496,4456.538574,4389.871582,4522.179688,0.000000,4.000000,84.000000,,,,0.000000,4.000000,4.000000,4.000000,4.000000,4.000000,4.000000,4.000000,4.000000,4.000000,4.000000,4.000000,4.000000,4.000000,4.000000,100.000000,,,,,,,,,,,,,,,,,,,,,,,,,,,,
1703404827.181046,1703404827.181582,34.000000,0.000000,4185.256348,4129.358887,4287.948730,4221.410156,4141.538574,4140.641113,4209.615234,4142.692383,4125.256348,4142.563965,4621.794922,4464.358887,4398.589844,4524.230957,0.000000,4.000000,84.000000,,,,0.000000,4.000000,4.000000,4.000000,4.000000,4.000000,4.000000,4.000000,4.000000,4.000000,4.000000,4.000000,4.000000,4.000000,4.000000,100.000000,,,,,,,,,,,,,,,,,,,,,,,,,,,,
1703404827.188854,1703404827.189390,35.000000,0.000000,4183.077148,4123.717773,4285.512695,4217.051270,4138.589844,4136.666504,4208.461426,4138.974121,4122.179688,4157.051270,4623.846191,4461.410156,4400.897461,4522.948730,0.000000,4.000000,84.000000,,,,0.000000,4.000000,4.000000,4.000000,4.000000,4.000000,4.000000,4.000000,4.000000,4.000000,4.000000,4.000000,4.000000,4.000000,4.000000,100.000000,,,,,,,,,,,,,,,,,,,,,,,,,,,,
1703404827.196662,1703404827.197099,36.000000,0.000000,4176.538574,4121.794922,4281.153809,4224.871582,4141.410156,4141.794922,4210.897461,4133.974121,4124.615234,4154.871582,4628.461426,4452.692383,4408.974121,4523.717773,0.000000,4.000000,84.000000,,,,0.000000,4.000000,4.000000,4.000000,4.000000,4.000000,4.000000,4.000000,4.000000,4.000000,4.000000,4.000000,4.000000,4.000000,4.000000,100.000000,,,,,,,,,,,,,,,,,9.000000,0.000000,0.659516,0.214783,-0.679565,0.238953,0.999634,-0.058113,-0.011720,-14.812275,-38.039516,62.590260
1703404827.204470,1703404827.204907,37.000000,0.000000,4172.563965,4119.615234,4277.948730,4226.025879,4140.897461,4147.307617,4212.436035,4132.692383,4128.077148,4153.717773,4632.051270,4448.333496,4417.436035,4523.077148,0.000000,4.000000,84.000000,,,,0.000000,4.000000,4.000000,4.000000,4.000000,4.000000,4.000000,4.000000,4.000000,4.000000,4.000000,4.000000,4.000000,4.000000,4.000000,100.000000,,,,,,,,,,,,,,,,,,,,,,,,,,,,
1703404827.212278,1703404827.212615,38.000000,0.000000,4172.051270,4118.589844,4273.589844,4216.538574,4140.897461,4145.512695,4210.256348,4130.641113,4134.230957,4157.307617,4630.128418,4446.794922,4413.205078,4518.333496,0.000000,4.000000,84.000000,,,,0.000000,4.000000,4.000000,4.000000,4.000000,4.000000,4.000000,4.000000,4.000000,4.000000,4.000000,4.000000,4.000000,4.000000,4.000000,100.000000,,,,,,,,,,,,,,,,,,,,,,,,,,,,
1703404827.220086,1703404827.220522,39.000000,0.000000,4171.282227,4120.512695,4271.153809,4215.769043,4146.922852,4149.871582,4211.538574,4128.333496,4135.769043,4155.512695,4627.692383,4444.102539,4408.846191,4515.256348,0.000000,4.000000,84.000000,,,,0.000000,4.000000,4.000000,4.000000,4.000000,4.000000,4.000000,4.000000,4.000000,4.000000,4.000000,4.000000,4.000000,4.000000,4.000000,100.000000,,,,,,,,,,,,,,,,,,,,,,,,,,,,
1703404827.227894,1703404827.228330,40.000000,0.000000,4174.615234,4122.051270,4271.922852,4226.025879,4147.307617,4155.000000,4214.487305,4131.794922,4131.538574,4153.333496,4629.487305,4446.282227,4409.487305,4517.563965,0.000000,4.000000,84.000000,,,,0.000000,4.000000,4.000000,4.000000,4.000000,4.000000,4.000000,4.000000,4.000000,4.000000,4.000000,4.000000,4.000000,4.000000,4.000000,100.000000,,,,,,,,,,,,,,,,,10.000000,0.000000,0.659643,0.214722,-0.679504,0.238831,0.992309,-0.039067,-0.000488,-14.764380,-38.118896,62.614567
1703404827.235702,1703404827.236238,41.000000,0.000000,4187.179688,4125.897461,4278.846191,4230.000000,4141.538574,4153.333496,4212.563965,4139.487305,4132.051270,4156.153809,4634.487305,4453.846191,4410.641113,4525.641113,0.000000,4.000000,84.000000,,,,0.000000,4.000000,4.000000,4.000000,4.000000,4.000000,4.000000,4.000000,4.000000,4.000000,4.000000,4.000000,4.000000,4.000000,4.000000,100.000000,,,,,,,,,,,,,,,,,,,,,,,,,,,,
1703404827.243511,1703404827.244046,42.000000,0.000000,4187.563965,4125.897461,4281.025879,4223.077148,4140.512695,4153.205078,4210.512695,4142.692383,4138.077148,4158.333496,4632.820313,4452.436035,4407.051270,4523.461426,0.000000,4.000000,84.000000,,,,0.000000,4.000000,4.000000,4.000000,4.000000,4.000000,4.000000,4.000000,4.000000,4.000000,4.000000,4.000000,4.000000,4.000000,4.000000,100.000000,,,,,,,,,,,,,,,,,,,,,,,,,,,,
1703404827.251319,1703404827.251954,43.000000,0.000000,4167.436035,4114.871582,4272.179688,4215.641113,4140.384766,4155.256348,4210.641113,4136.410156,4133.717773,4152.820313,4620.000000,4442.692383,4393.333496,4506.282227,0.000000,4.000000,84.000000,,,,0.000000,4.000000,4.000000,4.000000,4.000000,4.000000,4.000000,4.000000,4.000000,4.000000,4.000000,4.000000,4.000000,4.000000,4.000000,100.000000,,,,,,,,,,,,,,,,,,,,,,,,,,,,
1703404827.259127,1703404827.259762,44.000000,0.000000,4157.436035,4108.461426,4266.153809,4216.153809,4140.128418,4155.769043,4213.077148,4126.666504,4123.333496,4138.717773,4615.769043,4441.538574,4393.077148,4501.666504,0.000000,4.000000,84.000000,,,,0.000000,4.000000,4.000000,4.000000,4.000000,4.000000,4.000000,4.000000,4.000000,4.000000,4.000000,4.000000,4.000000,4.000000,4.000000,100.000000,,,,,,,,,,,,,,,,,11.000000,0.000000,0.659648,0.214966,-0.679443,0.238770,0.986449,-0.040532,-0.006348,-14.654610,-38.057007,62.486443
1703404827.266935,1703404827.267670,45.000000,0.000000,4159.615234,4109.230957,4269.230957,4216.794922,4143.589844,4157.051270,4215.897461,4121.025879,4122.436035,4133.205078,4622.179688,4444.230957,4405.000000,4509.615234,0.000000,4.000000,84.000000,,,,0.000000,4.000000,4.000000,4.000000,4.000000,4.000000,4.000000,4.000000,4.000000,4.000000,4.000000,4.000000,4.000000,4.000000,4.000000,100.000000,,,,,,,,,,,,,,,,,,,,,,,,,,,,
1703404827.274743,1703404827.275478,46.000000,0.000000,4155.769043,4100.641113,4269.871582,4213.589844,4142.948730,4154.358887,4214.358887,4120.384766,4122.051270,4137.436035,4617.179688,4440.512695,4398.589844,4506.025879,0.000000,4.000000,84.000000,,,,0.000000,4.000000,4.000000,4.000000,4.000000,4.000000,4.000000,4.000000,4.000000,4.000000,4.000000,4.000000,4.000000,4.000000,4.000000,100.000000,,,,,,,,,,,,,,,,,,,,,,,,,,,,
1703404827.282551,1703404827.283386,47.000000,0.000000,4147.948730,4092.435791,4265.128418,4216.025879,4139.615234,4151.666504,4210.769043,4121.666504,4119.230957,4138.589844,4610.128418,4434.871582,4390.512695,4498.333496,0.000000,4.000000,84.000000,,,,0.000000,4.000000,4.000000,4.000000,4.000000,4.000000,4.000000,4.000000,4.000000,4.000000,4.000000,4.000000,4.000000,4.000000,4.000000,100.000000,,,,,,,,,,,,,,,,,,,,,,,,,,,,
1703404827.290359,1703404827.291194,48.000000,0.000000,4144.102539,4097.179688,4263.974121,4214.743652,4141.282227,4153.974121,4207.563965,4130.897461,4129.615234,4144.743652,4623.846191,4439.358887,4405.128418,4503.974121,0.000000,4.000000,84.000000,,,,0.000000,4.000000,4.000000,4.000000,4.000000,4.000000,4.000000,4.000000,4.000000,4.000000,4.000000,4.000000,4.000000,4.000000,4.000000,100.000000,,,,,,,,,,,,,,,,,12.000000,0.000000,0.659735,0.215210,-0.679260,0.238831,0.975705,-0.054206,-0.020022,-14.755815,-38.101307,62.487801
1703404827.298167,1703404827.298902,49.000000,0.000000,4140.641113,4096.666504,4265.512695,4209.615234,4141.025879,4154.487305,4212.692383,4144.487305,4146.538574,4156.282227,4638.589844,4448.974121,4417.563965,4507.307617,0.000000,4.000000,84.000000,,,,0.000000,4.000000,4.000000,4.000000,4.000000,4.000000,4.000000,4.000000,4.000000,4.000000,4.000000,4.000000,4.000000,4.000000,4.000000,100.000000,,,,,,,,,,,,,,,,,,,,,,,,,,,,
1703404827.305975,1703404827.306710,50.000000,0.000000,4137.948730,4096.794922,4267.051270,4213.846191,4140.256348,4153.333496,4218.333496,4142.948730,4142.307617,4156.666504,4635.769043,4449.487305,4418.205078,4503.077148,0.000000,4.000000,84.000000,,,,0.000000,4.000000,4.000000,4.000000,4.000000,4.000000,4.000000,4.000000,4.000000,4.000000,4.000000,4.000000,4.000000,4.000000,4.000000,100.000000,,,,,,,,,,,,,,,,,,,,,,,,,,,,
1703404827.313783,1703404827.314418,51.000000,0.000000,4140.128418,4108.461426,4270.000000,4220.384766,4142.051270,4153.717773,4214.358887,4133.974121,4131.282227,4150.000000,4633.077148,4449.615234,4425.128418,4507.307617,0.000000,4.000000,84.000000,,,,0.000000,4.000000,4.000000,4.000000,4.000000,4.000000,4.000000,4.000000,4.000000,4.000000,4.000000,4.000000,4.000000,4.000000,4.000000,100.000000,,,,,,,,,,,,,,,,,,,,,,,,,,,,
1703404827.321591,1703404827.322226,52.000000,0.000000,4139.102539,4109.871582,4273.333496,4219.102539,4140.000000,4153.974121,4214.358887,4138.461426,4136.538574,4153.974121,4637.307617,4454.871582,4428.077148,4509.487305,0.000000,4.000000,84.000000,,,,0.000000,4.000000,4.000000,4.000000,4.000000,4.000000,4.000000,4.000000,4.000000,4.000000,4.000000,4.000000,4.000000,4.000000,4.000000,100.000000,,,,,,,,,,,,,,,,,13.000000,0.000000,0.659901,0.215210,-0.679077,0.238892,0.980588,-0.049811,-0.007325,-14.763567,-38.141178,62.655685
1703404827.329399,1703404827.329934,53.000000,0.000000,4132.179688,4098.205078,4270.384766,4215.256348,4140.512695,4153.717773,4216.794922,4139.743652,4137.307617,4155.897461,4634.358887,4450.512695,4420.256348,4496.794922,0.000000,4.000000,84.000000,,,,0.000000,4.000000,4.000000,4.000000,4.000000,4.000000,4.000000,4.000000,4.000000,4.000000,4.000000,4.000000,4.000000,4.000000,4.000000,100.000000,,,,,,,,,,,,,,,,,,,,,,,,,,,,
1703404827.337207,1703404827.337742,54.000000,0.000000,4124.358887,4092.692383,4260.897461,4215.641113,4145.769043,4154.743652,4214.743652,4126.153809,4123.205078,4143.974121,4620.128418,4435.769043,4409.102539,4480.769043,0.000000,4.000000,84.000000,,,,0.000000,4.000000,4.000000,4.000000,4.000000,4.000000,4.000000,4.000000,4.000000,4.000000,4.000000,4.000000,4.000000,4.000000,4.000000,100.000000,,,,,,,,,,,,,,,,,,,,,,,,,,,,
1703404827.345015,1703404827.345450,55.000000,0.000000,4119.743652,4094.615479,4257.307617,4212.436035,4144.230957,4154.743652,4214.743652,4125.256348,4118.589844,4136.538574,4610.000000,4430.384766,4399.487305,4479.102539,0.000000,4.000000,84.000000,,,,0.000000,4.000000,4.000000,4.000000,4.000000,4.000000,4.000000,4.000000,4.000000,4.000000,4.000000,4.000000,4.000000,4.000000,4.000000,100.000000,,,,,,,,,,,,,,,,,,,,,,,,,,,,
1703404827.352823,1703404827.353258,56.000000,0.000000,4124.615234,4095.512939,4262.179688,4208.077148,4139.615234,4153.077148,4216.025879,4134.102539,4127.563965,4140.000000,4614.102539,4438.846191,4398.974121,4487.820313,0.000000,4.000000,84.000000,,,,0.000000,4.000000,4.000000,4.000000,4.000000,4.000000,4.000000,4.000000,4.000000,4.000000,4.000000,4.000000,4.000000,4.000000,4.000000,100.000000,,,,,,,,,,,,,,,,,14.000000,0.000000,0.659980,0.215149,-0.678955,0.239075,0.986937,-0.035161,-0.010255,-14.787210,-38.077061,62.656784
1703404827.360631,1703404827.360966,57.000000,0.000000,4131.666504,4092.435791,4263.589844,4210.769043,4139.615234,4153.077148,4217.436035,4128.589844,4126.153809,4144.102539,4619.487305,4443.077148,4401.410156,4493.205078,0.000000,4.000000,84.000000,,,,0.000000,4.000000,4.000000,4.000000,4.000000,4.000000,4.000000,4.000000,4.000000,4.000000,4.000000,4.000000,4.000000,4.000000,4.000000,100.000000,,,,,,,,,,,,,,,,,,,,,,,,,,,,
1703404827.368439,1703404827.368774,58.000000,0.000000,4128.846191,4088.589844,4259.102539,4214.487305,4137.948730,4155.769043,4217.820313,4121.922852,4118.589844,4140.769043,4614.743652,4436.794922,4399.615234,4490.769043,0.000000,4.000000,84.000000,,,,0.000000,4.000000,4.000000,4.000000,4.000000,4.000000,4.000000,4.000000,4.000000,4.000000,4.000000,4.000000,4.000000,4.000000,4.000000,100.000000,,,,,,,,,,,,,,,,,,,,,,,,,,,,
1703404827.376248,1703404827.376482,59.000000,0.000000,4123.077148,4092.179443,4257.051270,4214.358887,4136.153809,4155.000000,4216.410156,4130.384766,4128.461426,4134.871582,4616.025879,4433.077148,4401.794922,4488.333496,0.000000,4.000000,84.000000,,,,0.000000,4.000000,4.000000,4.000000,4.000000,4.000000,4.000000,4.000000,4.000000,4.000000,4.000000,4.000000,4.000000,4.000000,4.000000,100.000000,,,,,,,,,,,,,,,,,,,,,,,,,,,,
1703404827.384056,1703404827.384290,60.000000,0.000000,4124.230957,4097.179688,4259.358887,4212.820313,4139.358887,4151.922852,4216.794922,4138.205078,4142.563965,4142.179688,4626.153809,4438.974121,4405.769043,4491.666504,0.000000,4.000000,84.000000,,,,0.000000,4.000000,4.000000,4.000000,4.000000,4.000000,4.000000,4.000000,4.000000,4.000000,4.000000,4.000000,4.000000,4.000000,4.000000,100.000000,,,,,,,,,,,,,,,,,15.000000,0.000000,0.659999,0.215149,-0.678894,0.239197,0.980588,-0.053717,-0.006348,-14.741822,-38.236019,62.641106
1703404827.391863,1703404827.391998,61.000000,0.000000,4128.333496,4094.358887,4260.384766,4213.974121,4139.615234,4152.563965,4218.589844,4142.436035,4141.922852,4156.794922,4630.641113,4443.205078,4407.820313,4493.205078,0.000000,4.000000,84.000000,,,,0.000000,4.000000,4.000000,4.000000,4.000000,4.000000,4.000000,4.000000,4.000000,4.000000,4.000000,4.000000,4.000000,4.000000,4.000000,100.000000,,,,,,,,,,,,,,,,,,,,,,,,,,,,
1703404827.399672,1703404827.399806,62.000000,0.000000,4132.563965,4090.641113,4258.589844,4215.769043,4139.487305,4153.589844,4217.436035,4146.025879,4136.025879,4159.743652,4629.743652,4440.641113,4412.051270,4490.384766,0.000000,4.000000,84.000000,,,,0.000000,4.000000,4.000000,4.000000,4.000000,4.000000,4.000000,4.000000,4.000000,4.000000,4.000000,4.000000,4.000000,4.000000,4.000000,100.000000,,,,,,,,,,,,,,,,,,,,,,,,,,,,
1703404827.407480,1703404827.407514,63.000000,0.000000,4138.333496,4094.615479,4260.000000,4213.461426,4145.897461,4153.717773,4215.128418,4143.205078,4138.333496,4153.846191,4632.948730,4440.512695,4413.589844,4491.025879,0.000000,4.000000,84.000000,,,,0.000000,4.000000,4.000000,4.000000,4.000000,4.000000,4.000000,4.000000,4.000000,4.000000,4.000000,4.000000,4.000000,4.000000,4.000000,100.000000,,,,,,,,,,,,,,,,,,,,,,,,,,,,
1703404827.415288,1703404827.415322,64.000000,0.000000,4139.358887,4102.692383,4263.077148,4213.974121,4149.615234,4155.128418,4217.051270,4139.615234,4140.384766,4149.487305,4631.922852,4443.205078,4409.230957,4494.358887,4686.000000,4.000000,84.000000,,,,0.000000,4.000000,4.000000,4.000000,4.000000,4.000000,4.000000,4.000000,4.000000,4.000000,4.000000,4.000000,4.000000,4.000000,4.000000,100.000000,,,,,,,,,,,,,,,,,16.000000,0.000000,0.659998,0.215210,-0.678833,0.239319,0.988402,-0.032230,-0.015139,-14.817640,-38.195751,62.593662
1703404827.423096,1703404827.423030,65.000000,0.000000,4138.461426,4109.102539,4265.641113,4222.563965,4150.384766,4153.461426,4220.256348,4135.256348,4129.743652,4143.077148,4621.794922,4443.974121,4401.794922,4493.974121,5380.000000,4.000000,84.000000,,,,0.000000,4.000000,4.000000,4.000000,4.000000,4.000000,4.000000,4.000000,4.000000,4.000000,4.000000,4.000000,4.000000,4.000000,4.000000,100.000000,,,,,,,,,,,,,,,,,,,,,,,,,,,,
1703404827.430904,1703404827.430938,66.000000,0.000000,4140.512695,4110.000000,4267.307617,4223.333496,4150.641113,4145.769043,4219.871582,4131.410156,4126.666504,4136.794922,4618.077148,4447.436035,4396.410156,4492.820313,5173.000000,4.000000,84.000000,,,,0.000000,4.000000,4.000000,4.000000,4.000000,4.000000,4.000000,4.000000,4.000000,4.000000,4.000000,4.000000,4.000000,4.000000,4.000000,100.000000,,,,,,,,,,,,,,,,,,,,,,,,,,,,
1703404827.438712,1703404827.438746,67.000000,0.000000,4139.615234,4101.025879,4268.974121,4209.743652,4142.692383,4138.974121,4215.384766,4135.000000,4134.615234,4137.563965,4622.948730,4452.692383,4398.461426,4495.000000,5338.000000,4.000000,84.000000,,,,0.000000,4.000000,4.000000,4.000000,4.000000,4.000000,4.000000,4.000000,4.000000,4.000000,4.000000,4.000000,4.000000,4.000000,4.000000,100.000000,,,,,,,,,,,,,,,,,,,,,,,,,,,,
1703404827.446520,1703404827.446654,68.000000,0.000000,4139.615234,4096.410156,4269.743652,4208.077148,4136.153809,4138.205078,4213.461426,4141.282227,4129.358887,4136.282227,4626.282227,4452.307617,4401.666504,4500.384766,5066.000000,4.000000,84.000000,,,,0.000000,4.000000,4.000000,4.000000,4.000000,4.000000,4.000000,4.000000,4.000000,4.000000,4.000000,4.000000,4.000000,4.000000,4.000000,100.000000,,,,,,,,,,,,,,,,,17.000000,0.000000,0.659910,0.215332,-0.678772,0.239624,1.003052,-0.039556,-0.014162,-14.685876,-38.259510,62.700962
1703404827.454328,1703404827.454462,69.000000,0.000000,4140.384766,4102.051270,4269.102539,4213.333496,4142.051270,4142.948730,4216.410156,4138.461426,4117.436035,4132.820313,4622.820313,4449.102539,4399.230957,4504.230957,4500.000000,4.000000,84.000000,,,,0.000000,4.000000,4.000000,4.000000,4.000000,4.000000,4.000000,4.000000,4.000000,4.000000,4.000000,4.000000,4.000000,4.000000,4.000000,100.000000,,,,,,,,,,,,,,,,,,,,,,,,,,,,
1703404827.462136,1703404827.462370,70.000000,0.000000,4140.641113,4103.846191,4271.794922,4209.102539,4142.436035,4145.512695,4216.538574,4129.487305,4116.794922,4133.717773,4617.563965,4450.641113,4394.743652,4504.487305,1798.000000,4.000000,84.000000,,,,0.000000,4.000000,4.000000,4.000000,4.000000,4.000000,4.000000,4.000000,4.000000,4.000000,4.000000,4.000000,4.000000,4.000000,4.000000,100.000000,,,,,,,,,,,,,,,,,,,,,,,,,,,,
1703404827.469944,1703404827.470178,71.000000,0.000000,4146.410156,4105.128418,4276.922852,4217.436035,4135.000000,4140.512695,4218.717773,4129.615234,4121.666504,4137.051270,4621.922852,4458.461426,4396.538574,4507.436035,5158.000000,4.000000,84.000000,,,,0.000000,4.000000,4.000000,4.000000,4.000000,4.000000,4.000000,4.000000,4.000000,4.000000,4.000000,4.000000,4.000000,4.000000,4.000000,100.000000,,,,,,,,,,,,,,,,,,,,,,,,,,,,
1703404827.477752,1703404827.478086,72.000000,0.000000,4154.102539,4115.769043,4276.666504,4234.615234,4141.282227,4141.538574,4222.051270,4137.820313,4130.897461,4140.000000,4628.333496,4458.846191,4400.641113,4509.487305,4981.000000,4.000000,84.000000,,,,0.000000,4.000000,4.000000,4.000000,4.000000,4.000000,4.000000,4.000000,4.000000,4.000000,4.000000,4.000000,4.000000,4.000000,4.000000,100.000000,,,,,,,,,,,,,,,,,18.000000,0.000000,0.659846,0.215393,-0.678772,0.239746,0.986937,-0.047857,-0.011232,-14.483955,-38.233559,62.764198
1703404827.485560,1703404827.485894,73.000000,0.000000,4154.487305,4121.794922,4268.974121,4228.974121,4149.487305,4150.000000,4220.641113,4139.358887,4141.922852,4143.205078,4624.743652,4445.000000,4397.563965,4505.384766,5088.000000,4.000000,84.000000,,,,0.000000,4.000000,4.000000,4.000000,4.000000,4.000000,4.000000,4.000000,4.000000,4.000000,4.000000,4.000000,4.000000,4.000000,4.000000,100.000000,1.000000,100.000000,4.000000,4.000000,4.000000,4.000000,4.000000,4.000000,4.000000,4.000000,4.000000,4.000000,4.000000,4.000000,4.000000,4.000000,,,,,,,,,,,,
1703404827.493368,1703404827.493602,74.000000,0.000000,4153.589844,4120.897461,4266.538574,4221.282227,4144.743652,4153.461426,4221.794922,4135.897461,4137.436035,4144.487305,4620.000000,4442.179688,4395.256348,4502.307617,5936.000000,4.000000,84.000000,,,,0.000000,4.000000,4.000000,4.000000,4.000000,4.000000,4.000000,4.000000,4.000000,4.000000,4.000000,4.000000,4.000000,4.000000,4.000000,100.000000,,,,,,,,,,,,,,,,,,,,,,,,,,,,
1703404827.501176,1703404827.501410,75.000000,0.000000,4155.256348,4120.384766,4268.461426,4229.230957,4139.743652,4149.615234,4221.410156,4145.256348,4131.153809,4137.948730,4619.615234,4451.282227,4396.794922,4499.487305,6180.000000,4.000000,84.000000,,,,0.000000,4.000000,4.000000,4.000000,4.000000,4.000000,4.000000,4.000000,4.000000,4.000000,4.000000,4.000000,4.000000,4.000000,4.000000,100.000000,,,,,,,,,,,,,,,,,,,,,,,,,,,,
1703404827.508984,1703404827.509118,76.000000,0.000000,4151.922852,4116.025879,4264.871582,4223.846191,4139.615234,4143.846191,4219.743652,4154.615234,4140.897461,4135.256348,4616.922852,4447.692383,4395.512695,4492.436035,6639.000000,4.000000,84.000000,,,,0.000000,4.000000,4.000000,4.000000,4.000000,4.000000,4.000000,4.000000,4.000000,4.000000,4.000000,4.000000,4.000000,4.000000,4.000000,100.000000,,,,,,,,,,,,,,,,,19.000000,0.000000,0.659882,0.215393,-0.678650,0.239990,0.985960,-0.049322,-0.008302,-14.402226,-38.276871,62.754448
1703404827.516792,1703404827.516926,77.000000,0.000000,4151.410156,4116.794922,4265.384766,4213.974121,4139.487305,4138.333496,4221.794922,4144.743652,4138.589844,4142.820313,4616.025879,4436.666504,4393.846191,4490.897461,6546.000000,4.000000,84.000000,,,,0.000000,4.000000,4.000000,4.000000,4.000000,4.000000,4.000000,4.000000,4.000000,4.000000,4.000000,4.000000,4.000000,4.000000,4.000000,100.000000,,,,,,,,,,,,,,,,,,,,,,,,,,,,
1703404827.524600,1703404827.524634,78.000000,0.000000,4157.563965,4125.256348,4269.743652,4225.897461,4145.384766,4138.589844,4222.436035,4132.692383,4121.922852,4142.436035,4616.410156,4435.641113,4391.153809,4493.333496,5936.000000,4.000000,84.000000,,,,0.000000,4.000000,4.000000,4.000000,4.000000,4.000000,4.000000,4.000000,4.000000,4.000000,4.000000,4.000000,4.000000,4.000000,4.000000,100.000000,,,,,,,,,,,,,,,,,,,,,,,,,,,,
1703404827.532408,1703404827.532542,79.000000,0.000000,4158.846191,4125.000000,4267.179688,4233.461426,4151.922852,4143.717773,4224.358887,4135.384766,4124.615234,4136.025879,4613.205078,4438.717773,4383.461426,4494.358887,6180.000000,4.000000,84.000000,,,,0.000000,4.000000,4.000000,4.000000,4.000000,4.000000,4.000000,4.000000,4.000000,4.000000,4.000000,4.000000,4.000000,4.000000,4.000000,100.000000,,,,,,,,,,,,,,,,,,,,,,,,,,,,
1703404827.540217,1703404827.540350,80.000000,0.000000,4154.615234,4118.846191,4265.897461,4222.179688,4151.538574,4143.333496,4227.051270,4140.384766,4139.487305,4144.102539,4615.128418,4440.000000,4383.205078,4495.128418,6639.000000,4.000000,84.000000,,,,0.000000,4.000000,4.000000,4.000000,4.000000,4.000000,4.000000,4.000000,4.000000,4.000000,4.000000,4.000000,4.000000,4.000000,4.000000,100.000000,,,,,,,,,,,,,,,,,20.000000,0.000000,0.659986,0.215393,-0.678528,0.240051,0.987425,-0.050787,-0.015627,-14.378671,-38.282516,62.745667
1703404827.548025,1703404827.548158,81.000000,0.000000,4154.743652,4120.897461,4269.615234,4215.128418,4153.205078,4141.282227,4227.563965,4137.563965,4139.102539,4153.205078,4618.846191,4440.256348,4393.974121,4496.153809,6546.000000,4.000000,84.000000,,,,0.000000,4.000000,4.000000,4.000000,4.000000,4.000000,4.000000,4.000000,4.000000,4.000000,4.000000,4.000000,4.000000,4.000000,4.000000,100.000000,,,,,,,,,,,,,,,,,,,,,,,,,,,,
1703404827.555833,1703404827.555866,82.000000,0.000000,4162.692383,4123.461426,4268.589844,4223.461426,4157.563965,4142.307617,4227.948730,4136.538574,4131.538574,4145.512695,4616.666504,4438.461426,4398.077148,4499.871582,5936.000000,4.000000,84.000000,,,,0.000000,4.000000,4.000000,4.000000,4.000000,4.000000,4.000000,4.000000,4.000000,4.000000,4.000000,4.000000,4.000000,4.000000,4.000000,100.000000,,,,,,,,,,,,,,,,,,,,,,,,,,,,
1703404827.563641,1703404827.563774,83.000000,0.000000,4168.974121,4122.948730,4267.563965,4232.948730,4156.153809,4142.948730,4228.205078,4143.333496,4137.948730,4143.846191,4617.948730,4442.563965,4397.563965,4505.897461,6180.000000,4.000000,84.000000,,,,0.000000,4.000000,4.000000,4.000000,4.000000,4.000000,4.000000,4.000000,4.000000,4.000000,4.000000,4.000000,4.000000,4.000000,4.000000,100.000000,,,,,,,,,,,,,,,,,,,,,,,,,,,,
1703404827.571449,1703404827.571583,84.000000,0.000000,4169.102539,4126.666504,4272.307617,4233.205078,4152.948730,4143.717773,4227.692383,4153.205078,4147.948730,4156.025879,4626.794922,4449.358887,4401.410156,4509.743652,6639.000000,4.000000,84.000000,,,,0.000000,4.000000,4.000000,4.000000,4.000000,4.000000,4.000000,4.000000,4.000000,4.000000,4.000000,4.000000,4.000000,4.000000,4.000000,100.000000,,,,,,,,,,,,,,,,,21.000000,0.000000,0.660127,0.215210,-0.678406,0.240173,1.008424,-0.043951,-0.012209,-14.290803,-38.254265,62.754436
1703404827.579257,1703404827.579491,85.000000,0.000000,4168.846191,4129.102539,4273.077148,4228.077148,4152.436035,4142.051270,4227.307617,4155.897461,4147.820313,4158.974121,4633.461426,4450.641113,4403.333496,4510.769043,6546.000000,4.000000,84.000000,,,,0.000000,4.000000,4.000000,4.000000,4.000000,4.000000,4.000000,4.000000,4.000000,4.000000,4.000000,4.000000,4.000000,4.000000,4.000000,100.000000,,,,,,,,,,,,,,,,,,,,,,,,,,,,
1703404827.587065,1703404827.587299,86.000000,0.000000,4168.589844,4123.974121,4268.717773,4230.128418,4151.666504,4142.051270,4227.307617,4150.769043,4141.410156,4150.512695,4629.871582,4450.769043,4396.538574,4508.589844,5936.000000,4.000000,84.000000,,,,0.000000,4.000000,4.000000,4.000000,4.000000,4.000000,4.000000,4.000000,4.000000,4.000000,4.000000,4.000000,4.000000,4.000000,4.000000,100.000000,,,,,,,,,,,,,,,,,,,,,,,,,,,,
1703404827.594873,1703404827.595207,87.000000,0.000000,4168.205078,4122.179688,4267.179688,4233.077148,4153.333496,4149.102539,4226.410156,4145.384766,4136.410156,4150.897461,4622.563965,4448.717773,4389.871582,4507.307617,6180.000000,4.000000,84.000000,,,,0.000000,4.000000,4.000000,4.000000,4.000000,4.000000,4.000000,4.000000,4.000000,4.000000,4.000000,4.000000,4.000000,4.000000,4.000000,100.000000,,,,,,,,,,,,,,,,,,,,,,,,,,,,
1703404827.602681,1703404827.603015,88.000000,0.000000,4167.563965,4124.487305,4267.820313,4222.307617,4154.487305,4150.000000,4227.179688,4143.205078,4139.230957,4155.384766,4619.487305,4445.512695,4387.563965,4504.871582,6639.000000,4.000000,84.000000,,,,0.000000,4.000000,4.000000,4.000000,4.000000,4.000000,4.000000,4.000000,4.000000,4.000000,4.000000,4.000000,4.000000,4.000000,4.000000,100.000000,,,,,,,,,,,,,,,,,22.000000,0.000000,0.660146,0.215149,-0.678406,0.240173,0.984984,-0.042974,-0.011232,-14.445056,-38.095505,62.662323
1703404827.610489,1703404827.610923,89.000000,0.000000,4158.077148,4113.461426,4267.820313,4211.922852,4150.000000,4139.743652,4226.794922,4141.153809,4142.179688,4147.179688,4612.820313,4441.922852,4375.897461,4492.051270,6546.000000,4.000000,84.000000,,,,0.000000,4.000000,4.000000,4.000000,4.000000,4.000000,4.000000,4.000000,4.000000,4.000000,4.000000,4.000000,4.000000,4.000000,4.000000,100.000000,,,,,,,,,,,,,,,,,,,,,,,,,,,,
1703404827.618297,1703404827.618731,90.000000,0.000000,4148.589844,4108.077148,4268.974121,4221.538574,4149.230957,4136.282227,4229.615234,4138.974121,4133.717773,4136.666504,4608.589844,4440.769043,4373.333496,4488.717773,5936.000000,4.000000,84.000000,,,,0.000000,4.000000,4.000000,4.000000,4.000000,4.000000,4.000000,4.000000,4.000000,4.000000,4.000000,4.000000,4.000000,4.000000,4.000000,100.000000,,,,,,,,,,,,,,,,,,,,,,,,,,,,
