title:حازم  حمام, start timestamp:1703494558.063544, stop timestamp:1703494568.799616, headset type:EPOCX, headset serial:E50206EF, headset firmware:720, channels:67, sampling rate:eeg_128;mot_32, samples:1376      , version:2.2, 
Timestamp,OriginalTimestamp,EEG.Counter,EEG.Interpolated,EEG.AF3,EEG.F7,EEG.F3,EEG.FC5,EEG.T7,EEG.P7,EEG.O1,EEG.O2,EEG.P8,EEG.T8,EEG.FC6,EEG.F4,EEG.F8,EEG.AF4,EEG.RawCq,EEG.Battery,EEG.BatteryPercent,MarkerIndex,MarkerType,MarkerValueInt,EEG.MarkerHardware,CQ.AF3,CQ.F7,CQ.F3,CQ.FC5,CQ.T7,CQ.P7,CQ.O1,CQ.O2,CQ.P8,CQ.T8,CQ.FC6,CQ.F4,CQ.F8,CQ.AF4,CQ.Overall,EQ.SampleRateQuality,EQ.OVERALL,EQ.AF3,EQ.F7,EQ.F3,EQ.FC5,EQ.T7,EQ.P7,EQ.O1,EQ.O2,EQ.P8,EQ.T8,EQ.FC6,EQ.F4,EQ.F8,EQ.AF4,MOT.CounterMems,MOT.InterpolatedMems,MOT.Q0,MOT.Q1,MOT.Q2,MOT.Q3,MOT.AccX,MOT.AccY,MOT.AccZ,MOT.MagX,MOT.MagY,MOT.MagZ
1703494558.063544,1703494558.064142,45.000000,0.000000,4248.077148,4222.948730,4288.589844,4281.282227,4255.256348,4241.666504,4196.282227,4218.461426,4229.743652,4157.948730,4493.077148,4435.897461,4126.025879,4376.794922,0.000000,4.000000,79.000000,,,,0.000000,4.000000,4.000000,4.000000,4.000000,4.000000,4.000000,4.000000,4.000000,4.000000,4.000000,4.000000,4.000000,4.000000,4.000000,100.000000,,,,,,,,,,,,,,,,,,,,,,,,,,,,
1703494558.071352,1703494558.071850,46.000000,0.000000,4250.128418,4238.461426,4288.461426,4283.846191,4245.769043,4234.358887,4192.563965,4213.974121,4222.179688,4153.589844,4489.615234,4434.358887,4124.358887,4376.666504,0.000000,4.000000,79.000000,,,,0.000000,4.000000,4.000000,4.000000,4.000000,4.000000,4.000000,4.000000,4.000000,4.000000,4.000000,4.000000,4.000000,4.000000,4.000000,100.000000,,,,,,,,,,,,,,,,,,,,,,,,,,,,
1703494558.079160,1703494558.079658,47.000000,0.000000,4248.589844,4229.487305,4279.615234,4281.025879,4256.410156,4239.871582,4195.769043,4205.256348,4212.179688,4147.436035,4479.358887,4428.461426,4123.077148,4370.128418,0.000000,4.000000,79.000000,,,,0.000000,4.000000,4.000000,4.000000,4.000000,4.000000,4.000000,4.000000,4.000000,4.000000,4.000000,4.000000,4.000000,4.000000,4.000000,100.000000,,,,,,,,,,,,,,,,,,,,,,,,,,,,
1703494558.086968,1703494558.087366,48.000000,0.000000,4245.512695,4214.871582,4275.256348,4277.948730,4262.948730,4242.307617,4196.666504,4213.589844,4228.846191,4151.922852,4482.307617,4426.282227,4123.461426,4369.487305,0.000000,4.000000,79.000000,,,,0.000000,4.000000,4.000000,4.000000,4.000000,4.000000,4.000000,4.000000,4.000000,4.000000,4.000000,4.000000,4.000000,4.000000,4.000000,100.000000,,,,,,,,,,,,,,,,,12.000000,0.000000,0.719527,0.053345,-0.672546,0.164673,0.977658,-0.143084,0.089366,-14.940932,-42.835487,64.702660
1703494558.094776,1703494558.095174,49.000000,0.000000,4246.922852,4218.205078,4278.461426,4279.102539,4250.128418,4238.077148,4194.487305,4230.641113,4253.077148,4163.333496,4491.153809,4434.102539,4129.871582,4375.000000,0.000000,4.000000,79.000000,,,,0.000000,4.000000,4.000000,4.000000,4.000000,4.000000,4.000000,4.000000,4.000000,4.000000,4.000000,4.000000,4.000000,4.000000,4.000000,100.000000,,,,,,,,,,,,,,,,,,,,,,,,,,,,
1703494558.102584,1703494558.102882,50.000000,0.000000,4248.589844,4221.282227,4280.641113,4280.769043,4246.410156,4246.282227,4199.102539,4230.256348,4249.743652,4161.025879,4492.692383,4442.563965,4137.436035,4380.128418,0.000000,4.000000,79.000000,,,,0.000000,4.000000,4.000000,4.000000,4.000000,4.000000,4.000000,4.000000,4.000000,4.000000,4.000000,4.000000,4.000000,4.000000,4.000000,100.000000,,,,,,,,,,,,,,,,,,,,,,,,,,,,
1703494558.110392,1703494558.110791,51.000000,0.000000,4249.871582,4217.307617,4276.666504,4280.000000,4256.282227,4253.974121,4200.897461,4220.000000,4235.769043,4158.077148,4490.384766,4439.615234,4145.000000,4383.205078,0.000000,4.000000,79.000000,,,,0.000000,4.000000,4.000000,4.000000,4.000000,4.000000,4.000000,4.000000,4.000000,4.000000,4.000000,4.000000,4.000000,4.000000,4.000000,100.000000,,,,,,,,,,,,,,,,,,,,,,,,,,,,
1703494558.118200,1703494558.118599,52.000000,0.000000,4247.179688,4212.948730,4269.358887,4274.743652,4258.846191,4241.025879,4191.025879,4218.589844,4234.230957,4167.436035,4494.102539,4435.128418,4155.384766,4382.563965,0.000000,4.000000,79.000000,,,,0.000000,4.000000,4.000000,4.000000,4.000000,4.000000,4.000000,4.000000,4.000000,4.000000,4.000000,4.000000,4.000000,4.000000,4.000000,100.000000,,,,,,,,,,,,,,,,,13.000000,0.000000,0.719351,0.053223,-0.672729,0.164734,0.982542,-0.133317,0.094250,-14.946839,-42.885273,64.665726
1703494558.126008,1703494558.126507,53.000000,0.000000,4237.692383,4214.102539,4265.769043,4268.077148,4259.230957,4231.794922,4185.384766,4212.307617,4226.666504,4158.461426,4488.333496,4434.230957,4150.897461,4374.102539,0.000000,4.000000,79.000000,,,,0.000000,4.000000,4.000000,4.000000,4.000000,4.000000,4.000000,4.000000,4.000000,4.000000,4.000000,4.000000,4.000000,4.000000,4.000000,100.000000,,,,,,,,,,,,,,,,,,,,,,,,,,,,
1703494558.133816,1703494558.134315,54.000000,0.000000,4235.000000,4215.512695,4266.794922,4265.128418,4257.307617,4238.205078,4189.487305,4197.692383,4208.846191,4136.666504,4475.641113,4432.436035,4140.769043,4367.051270,0.000000,4.000000,79.000000,,,,0.000000,4.000000,4.000000,4.000000,4.000000,4.000000,4.000000,4.000000,4.000000,4.000000,4.000000,4.000000,4.000000,4.000000,4.000000,100.000000,,,,,,,,,,,,,,,,,,,,,,,,,,,,
1703494558.141624,1703494558.142222,55.000000,0.000000,4245.769043,4210.769043,4272.692383,4268.974121,4249.102539,4238.589844,4191.922852,4196.922852,4211.666504,4147.563965,4488.846191,4441.025879,4160.512695,4379.358887,0.000000,4.000000,79.000000,,,,0.000000,4.000000,4.000000,4.000000,4.000000,4.000000,4.000000,4.000000,4.000000,4.000000,4.000000,4.000000,4.000000,4.000000,4.000000,100.000000,,,,,,,,,,,,,,,,,,,,,,,,,,,,
1703494558.149432,1703494558.150030,56.000000,0.000000,4252.563965,4219.871582,4281.794922,4276.666504,4249.358887,4231.666504,4190.000000,4209.358887,4227.051270,4165.128418,4508.717773,4455.769043,4186.538574,4393.846191,0.000000,4.000000,79.000000,,,,0.000000,4.000000,4.000000,4.000000,4.000000,4.000000,4.000000,4.000000,4.000000,4.000000,4.000000,4.000000,4.000000,4.000000,4.000000,100.000000,,,,,,,,,,,,,,,,,14.000000,0.000000,0.719279,0.053223,-0.672791,0.164795,0.986449,-0.148944,0.094250,-14.935489,-42.830078,64.699158
1703494558.157240,1703494558.157938,57.000000,0.000000,4250.769043,4233.205078,4284.871582,4281.922852,4247.436035,4230.000000,4186.666504,4215.128418,4226.794922,4157.563965,4502.820313,4459.743652,4184.230957,4391.538574,0.000000,4.000000,79.000000,,,,0.000000,4.000000,4.000000,4.000000,4.000000,4.000000,4.000000,4.000000,4.000000,4.000000,4.000000,4.000000,4.000000,4.000000,4.000000,100.000000,,,,,,,,,,,,,,,,,,,,,,,,,,,,
1703494558.165048,1703494558.165746,58.000000,0.000000,4251.922852,4224.871582,4276.538574,4278.717773,4233.333496,4233.077148,4184.358887,4216.922852,4233.846191,4160.384766,4493.077148,4454.871582,4180.769043,4387.692383,0.000000,4.000000,79.000000,,,,0.000000,4.000000,4.000000,4.000000,4.000000,4.000000,4.000000,4.000000,4.000000,4.000000,4.000000,4.000000,4.000000,4.000000,4.000000,100.000000,,,,,,,,,,,,,,,,,,,,,,,,,,,,
1703494558.172856,1703494558.173654,59.000000,0.000000,4247.563965,4212.692383,4268.589844,4272.948730,4231.025879,4237.563965,4191.025879,4221.153809,4248.589844,4173.077148,4495.256348,4449.487305,4186.282227,4386.538574,0.000000,4.000000,79.000000,,,,0.000000,4.000000,4.000000,4.000000,4.000000,4.000000,4.000000,4.000000,4.000000,4.000000,4.000000,4.000000,4.000000,4.000000,4.000000,100.000000,,,,,,,,,,,,,,,,,,,,,,,,,,,,
1703494558.180665,1703494558.181462,60.000000,0.000000,4241.282227,4217.436035,4271.794922,4272.436035,4245.769043,4246.025879,4202.179688,4220.128418,4240.384766,4168.589844,4493.717773,4444.230957,4184.102539,4378.333496,0.000000,4.000000,79.000000,,,,0.000000,4.000000,4.000000,4.000000,4.000000,4.000000,4.000000,4.000000,4.000000,4.000000,4.000000,4.000000,4.000000,4.000000,4.000000,100.000000,,,,,,,,,,,,,,,,,15.000000,0.000000,0.719148,0.053284,-0.672852,0.165100,0.985960,-0.143572,0.095226,-15.025273,-42.830402,64.495903
1703494558.188473,1703494558.189370,61.000000,0.000000,4245.384766,4218.846191,4274.487305,4274.871582,4251.410156,4252.179688,4203.589844,4217.051270,4227.436035,4160.512695,4490.512695,4443.717773,4183.333496,4372.948730,0.000000,4.000000,79.000000,,,,0.000000,4.000000,4.000000,4.000000,4.000000,4.000000,4.000000,4.000000,4.000000,4.000000,4.000000,4.000000,4.000000,4.000000,4.000000,100.000000,,,,,,,,,,,,,,,,,,,,,,,,,,,,
1703494558.196281,1703494558.197178,62.000000,0.000000,4241.410156,4212.179688,4270.128418,4275.897461,4243.846191,4248.974121,4199.102539,4214.487305,4232.948730,4159.358887,4492.051270,4442.948730,4185.256348,4373.333496,0.000000,4.000000,79.000000,,,,0.000000,4.000000,4.000000,4.000000,4.000000,4.000000,4.000000,4.000000,4.000000,4.000000,4.000000,4.000000,4.000000,4.000000,4.000000,100.000000,,,,,,,,,,,,,,,,,,,,,,,,,,,,
1703494558.204089,1703494558.205086,63.000000,0.000000,4231.282227,4213.974121,4266.153809,4274.358887,4242.436035,4243.205078,4198.461426,4208.333496,4230.384766,4158.846191,4490.256348,4441.922852,4185.769043,4371.666504,0.000000,4.000000,79.000000,,,,0.000000,4.000000,4.000000,4.000000,4.000000,4.000000,4.000000,4.000000,4.000000,4.000000,4.000000,4.000000,4.000000,4.000000,4.000000,100.000000,,,,,,,,,,,,,,,,,,,,,,,,,,,,
1703494558.211897,1703494558.212894,64.000000,0.000000,4237.948730,4218.333496,4268.589844,4276.025879,4249.102539,4245.512695,4200.256348,4202.563965,4216.410156,4159.871582,4492.436035,4444.871582,4193.589844,4376.794922,4834.000000,4.000000,79.000000,,,,0.000000,4.000000,4.000000,4.000000,4.000000,4.000000,4.000000,4.000000,4.000000,4.000000,4.000000,4.000000,4.000000,4.000000,4.000000,100.000000,,,,,,,,,,,,,,,,,16.000000,0.000000,0.718768,0.053223,-0.673157,0.165527,0.983518,-0.158222,0.085460,-15.072745,-42.714031,64.729652
1703494558.219705,1703494558.220702,65.000000,0.000000,4249.743652,4219.102539,4273.333496,4277.820313,4246.410156,4250.897461,4200.128418,4199.871582,4210.128418,4157.051270,4498.717773,4446.153809,4201.538574,4384.487305,5415.000000,4.000000,79.000000,,,,0.000000,4.000000,4.000000,4.000000,4.000000,4.000000,4.000000,4.000000,4.000000,4.000000,4.000000,4.000000,4.000000,4.000000,4.000000,100.000000,,,,,,,,,,,,,,,,,,,,,,,,,,,,
1703494558.227513,1703494558.228510,66.000000,0.000000,4245.641113,4219.230957,4273.974121,4276.794922,4238.205078,4245.256348,4197.179688,4197.948730,4205.641113,4150.512695,4497.436035,4444.358887,4198.717773,4384.871582,5405.000000,4.000000,79.000000,,,,0.000000,4.000000,4.000000,4.000000,4.000000,4.000000,4.000000,4.000000,4.000000,4.000000,4.000000,4.000000,4.000000,4.000000,4.000000,100.000000,,,,,,,,,,,,,,,,,,,,,,,,,,,,
1703494558.235321,1703494558.236218,67.000000,0.000000,4237.563965,4216.538574,4270.000000,4276.153809,4245.769043,4231.410156,4194.358887,4201.794922,4203.717773,4152.692383,4487.307617,4439.871582,4192.692383,4381.666504,5412.000000,4.000000,79.000000,,,,0.000000,4.000000,4.000000,4.000000,4.000000,4.000000,4.000000,4.000000,4.000000,4.000000,4.000000,4.000000,4.000000,4.000000,4.000000,100.000000,,,,,,,,,,,,,,,,,,,,,,,,,,,,
1703494558.243129,1703494558.244026,68.000000,0.000000,4233.846191,4216.794922,4264.358887,4272.307617,4248.461426,4230.641113,4196.666504,4203.205078,4202.179688,4149.230957,4475.512695,4431.153809,4185.769043,4371.282227,5260.000000,4.000000,79.000000,,,,0.000000,4.000000,4.000000,4.000000,4.000000,4.000000,4.000000,4.000000,4.000000,4.000000,4.000000,4.000000,4.000000,4.000000,4.000000,100.000000,,,,,,,,,,,,,,,,,17.000000,0.000000,0.718432,0.053345,-0.673401,0.165955,0.967892,-0.155781,0.086436,-14.932137,-42.692627,64.773354
1703494558.250937,1703494558.251734,69.000000,0.000000,4231.282227,4224.102539,4261.538574,4267.436035,4233.717773,4241.794922,4200.256348,4199.743652,4208.205078,4140.641113,4470.641113,4426.282227,4182.563965,4360.897461,5021.000000,4.000000,79.000000,,,,0.000000,4.000000,4.000000,4.000000,4.000000,4.000000,4.000000,4.000000,4.000000,4.000000,4.000000,4.000000,4.000000,4.000000,4.000000,100.000000,,,,,,,,,,,,,,,,,,,,,,,,,,,,
1703494558.258745,1703494558.259542,70.000000,0.000000,4230.000000,4224.230957,4260.897461,4264.358887,4238.333496,4247.820313,4203.205078,4207.179688,4224.615234,4148.461426,4474.358887,4429.230957,4189.615234,4362.948730,4246.000000,4.000000,79.000000,,,,0.000000,4.000000,4.000000,4.000000,4.000000,4.000000,4.000000,4.000000,4.000000,4.000000,4.000000,4.000000,4.000000,4.000000,4.000000,100.000000,,,,,,,,,,,,,,,,,,,,,,,,,,,,
1703494558.266553,1703494558.267250,71.000000,0.000000,4231.282227,4215.897461,4263.333496,4263.333496,4255.769043,4248.077148,4207.179688,4218.077148,4229.487305,4156.922852,4481.794922,4435.769043,4200.641113,4371.666504,4938.000000,4.000000,79.000000,,,,0.000000,4.000000,4.000000,4.000000,4.000000,4.000000,4.000000,4.000000,4.000000,4.000000,4.000000,4.000000,4.000000,4.000000,4.000000,100.000000,,,,,,,,,,,,,,,,,,,,,,,,,,,,
1703494558.274361,1703494558.275058,72.000000,0.000000,4239.358887,4220.384766,4268.717773,4270.384766,4253.205078,4244.615234,4206.410156,4215.897461,4224.871582,4153.846191,4487.051270,4443.205078,4206.922852,4375.897461,5213.000000,4.000000,79.000000,,,,0.000000,4.000000,4.000000,4.000000,4.000000,4.000000,4.000000,4.000000,4.000000,4.000000,4.000000,4.000000,4.000000,4.000000,4.000000,100.000000,,,,,,,,,,,,,,,,,18.000000,0.000000,0.718342,0.053223,-0.673462,0.166138,0.983518,-0.157246,0.090343,-15.022257,-42.873363,64.679352
1703494558.282169,1703494558.282766,73.000000,0.000000,4248.717773,4234.230957,4274.102539,4281.153809,4244.230957,4236.922852,4201.922852,4213.333496,4231.153809,4161.282227,4495.000000,4453.333496,4213.846191,4384.230957,5460.000000,4.000000,79.000000,,,,0.000000,4.000000,4.000000,4.000000,4.000000,4.000000,4.000000,4.000000,4.000000,4.000000,4.000000,4.000000,4.000000,4.000000,4.000000,100.000000,,,,,,,,,,,,,,,,,,,,,,,,,,,,
1703494558.289977,1703494558.290574,74.000000,0.000000,4256.282227,4240.641113,4281.922852,4282.692383,4246.282227,4232.948730,4198.461426,4211.538574,4233.205078,4174.487305,4508.333496,4463.589844,4228.974121,4399.615234,5956.000000,4.000000,79.000000,,,,0.000000,4.000000,4.000000,4.000000,4.000000,4.000000,4.000000,4.000000,4.000000,4.000000,4.000000,4.000000,4.000000,4.000000,4.000000,100.000000,,,,,,,,,,,,,,,,,,,,,,,,,,,,
1703494558.297785,1703494558.298282,75.000000,0.000000,4262.563965,4244.102539,4285.000000,4279.871582,4250.256348,4235.256348,4195.897461,4201.666504,4217.820313,4172.436035,4510.897461,4466.538574,4237.436035,4405.641113,6227.000000,4.000000,79.000000,,,,0.000000,4.000000,4.000000,4.000000,4.000000,4.000000,4.000000,4.000000,4.000000,4.000000,4.000000,4.000000,4.000000,4.000000,4.000000,100.000000,,,,,,,,,,,,,,,,,,,,,,,,,,,,
1703494558.305593,1703494558.306090,76.000000,0.000000,4259.615234,4243.333496,4277.563965,4280.769043,4251.153809,4235.000000,4194.871582,4198.333496,4213.846191,4168.205078,4504.102539,4458.077148,4230.128418,4398.846191,6690.000000,4.000000,79.000000,,,,0.000000,4.000000,4.000000,4.000000,4.000000,4.000000,4.000000,4.000000,4.000000,4.000000,4.000000,4.000000,4.000000,4.000000,4.000000,100.000000,,,,,,,,,,,,,,,,,19.000000,0.000000,0.718250,0.053101,-0.673584,0.166077,0.968868,-0.161152,0.090343,-14.953365,-42.902695,64.744751
1703494558.313401,1703494558.313798,77.000000,0.000000,4252.436035,4233.461426,4271.922852,4279.358887,4249.615234,4232.307617,4197.436035,4205.769043,4222.820313,4167.307617,4504.358887,4450.897461,4228.589844,4397.820313,7035.000000,4.000000,79.000000,,,,0.000000,4.000000,4.000000,4.000000,4.000000,4.000000,4.000000,4.000000,4.000000,4.000000,4.000000,4.000000,4.000000,4.000000,4.000000,100.000000,,,,,,,,,,,,,,,,,,,,,,,,,,,,
1703494558.321210,1703494558.321606,78.000000,0.000000,4247.179688,4230.769043,4271.666504,4275.897461,4249.102539,4234.358887,4199.743652,4207.051270,4217.820313,4159.743652,4502.307617,4450.256348,4232.436035,4397.692383,5956.000000,4.000000,79.000000,,,,0.000000,4.000000,4.000000,4.000000,4.000000,4.000000,4.000000,4.000000,4.000000,4.000000,4.000000,4.000000,4.000000,4.000000,4.000000,100.000000,,,,,,,,,,,,,,,,,,,,,,,,,,,,
1703494558.329018,1703494558.329314,79.000000,0.000000,4237.307617,4230.641113,4268.333496,4271.025879,4251.794922,4236.153809,4199.230957,4200.512695,4202.820313,4150.256348,4483.461426,4438.589844,4219.871582,4378.589844,6227.000000,4.000000,79.000000,,,,0.000000,4.000000,4.000000,4.000000,4.000000,4.000000,4.000000,4.000000,4.000000,4.000000,4.000000,4.000000,4.000000,4.000000,4.000000,100.000000,,,,,,,,,,,,,,,,,,,,,,,,,,,,
1703494558.336825,1703494558.337122,80.000000,0.000000,4227.436035,4219.615234,4263.461426,4266.666504,4249.358887,4235.384766,4200.769043,4202.179688,4200.769043,4148.846191,4472.820313,4427.436035,4206.794922,4362.051270,6690.000000,4.000000,79.000000,,,,0.000000,4.000000,4.000000,4.000000,4.000000,4.000000,4.000000,4.000000,4.000000,4.000000,4.000000,4.000000,4.000000,4.000000,4.000000,100.000000,,,,,,,,,,,,,,,,,20.000000,0.000000,0.718225,0.052673,-0.673645,0.166077,0.981077,-0.146014,0.084971,-14.808028,-42.929092,64.520271
1703494558.344634,1703494558.344830,81.000000,0.000000,4228.333496,4213.077148,4263.333496,4270.256348,4245.641113,4237.692383,4202.563965,4212.692383,4215.256348,4157.307617,4489.230957,4436.025879,4223.205078,4372.692383,7035.000000,4.000000,79.000000,,,,0.000000,4.000000,4.000000,4.000000,4.000000,4.000000,4.000000,4.000000,4.000000,4.000000,4.000000,4.000000,4.000000,4.000000,4.000000,100.000000,,,,,,,,,,,,,,,,,,,,,,,,,,,,
1703494558.352442,1703494558.352738,82.000000,0.000000,4232.563965,4222.948730,4267.051270,4275.897461,4248.717773,4243.717773,4202.692383,4219.358887,4228.205078,4167.948730,4506.794922,4446.153809,4243.077148,4382.692383,5956.000000,4.000000,79.000000,,,,0.000000,4.000000,4.000000,4.000000,4.000000,4.000000,4.000000,4.000000,4.000000,4.000000,4.000000,4.000000,4.000000,4.000000,4.000000,100.000000,,,,,,,,,,,,,,,,,,,,,,,,,,,,
1703494558.360250,1703494558.360646,83.000000,0.000000,4236.153809,4231.538574,4271.538574,4274.615234,4251.794922,4247.692383,4202.563965,4225.897461,4232.820313,4177.307617,4506.538574,4448.333496,4244.487305,4382.948730,6227.000000,4.000000,79.000000,,,,0.000000,4.000000,4.000000,4.000000,4.000000,4.000000,4.000000,4.000000,4.000000,4.000000,4.000000,4.000000,4.000000,4.000000,4.000000,100.000000,,,,,,,,,,,,,,,,,,,,,,,,,,,,
1703494558.368058,1703494558.368454,84.000000,0.000000,4245.897461,4232.051270,4276.282227,4276.794922,4249.358887,4242.436035,4205.512695,4231.282227,4233.974121,4185.000000,4510.384766,4458.077148,4248.333496,4397.692383,6690.000000,4.000000,79.000000,,,,0.000000,4.000000,4.000000,4.000000,4.000000,4.000000,4.000000,4.000000,4.000000,4.000000,4.000000,4.000000,4.000000,4.000000,4.000000,100.000000,,,,,,,,,,,,,,,,,21.000000,0.000000,0.718314,0.052429,-0.673584,0.166016,0.974728,-0.147967,0.086925,-14.843892,-42.986183,64.651581
1703494558.375866,1703494558.376262,85.000000,0.000000,4259.615234,4239.230957,4284.358887,4287.051270,4244.487305,4233.717773,4201.666504,4225.128418,4232.563965,4189.358887,4525.256348,4466.282227,4263.846191,4415.256348,7035.000000,4.000000,79.000000,,,,0.000000,4.000000,4.000000,4.000000,4.000000,4.000000,4.000000,4.000000,4.000000,4.000000,4.000000,4.000000,4.000000,4.000000,4.000000,100.000000,,,,,,,,,,,,,,,,,,,,,,,,,,,,
1703494558.383674,1703494558.384170,86.000000,0.000000,4267.692383,4250.256348,4288.717773,4288.461426,4247.307617,4232.563965,4191.410156,4217.051270,4231.282227,4190.256348,4527.948730,4462.307617,4275.256348,4417.179688,5956.000000,4.000000,79.000000,,,,0.000000,4.000000,4.000000,4.000000,4.000000,4.000000,4.000000,4.000000,4.000000,4.000000,4.000000,4.000000,4.000000,4.000000,4.000000,100.000000,,,,,,,,,,,,,,,,,,,,,,,,,,,,
1703494558.391482,1703494558.391978,87.000000,0.000000,4266.666504,4249.487305,4283.974121,4279.871582,4251.794922,4233.461426,4190.384766,4218.077148,4231.666504,4194.358887,4524.743652,4466.666504,4277.307617,4419.358887,6227.000000,4.000000,79.000000,,,,0.000000,4.000000,4.000000,4.000000,4.000000,4.000000,4.000000,4.000000,4.000000,4.000000,4.000000,4.000000,4.000000,4.000000,4.000000,100.000000,,,,,,,,,,,,,,,,,,,,,,,,,,,,
1703494558.399290,1703494558.399886,88.000000,0.000000,4265.641113,4244.358887,4283.461426,4276.410156,4236.153809,4235.384766,4197.436035,4221.666504,4231.922852,4197.563965,4532.051270,4477.820313,4281.794922,4427.948730,6690.000000,4.000000,79.000000,,,,0.000000,4.000000,4.000000,4.000000,4.000000,4.000000,4.000000,4.000000,4.000000,4.000000,4.000000,4.000000,4.000000,4.000000,4.000000,100.000000,,,,,,,,,,,,,,,,,22.000000,0.000000,0.718340,0.051880,-0.673584,0.166077,0.982542,-0.138689,0.089366,-14.909503,-42.854233,64.653084
1703494558.407098,1703494558.407694,89.000000,0.000000,4264.487305,4246.794922,4285.897461,4279.871582,4217.820313,4238.846191,4202.820313,4223.333496,4230.769043,4191.410156,4534.871582,4472.179688,4287.948730,4425.128418,7035.000000,4.000000,79.000000,,,,0.000000,4.000000,4.000000,4.000000,4.000000,4.000000,4.000000,4.000000,4.000000,4.000000,4.000000,4.000000,4.000000,4.000000,4.000000,100.000000,,,,,,,,,,,,,,,,,,,,,,,,,,,,
1703494558.414906,1703494558.415602,90.000000,0.000000,4254.487305,4245.128418,4277.820313,4276.794922,4224.102539,4238.077148,4203.077148,4222.436035,4229.358887,4183.974121,4521.025879,4458.333496,4277.563965,4409.102539,5956.000000,4.000000,79.000000,,,,0.000000,4.000000,4.000000,4.000000,4.000000,4.000000,4.000000,4.000000,4.000000,4.000000,4.000000,4.000000,4.000000,4.000000,4.000000,100.000000,,,,,,,,,,,,,,,,,,,,,,,,,,,,
1703494558.422714,1703494558.423410,91.000000,0.000000,4241.153809,4233.461426,4266.922852,4267.563965,4234.871582,4236.410156,4203.077148,4217.948730,4229.871582,4180.256348,4510.769043,4450.769043,4266.794922,4399.615234,6227.000000,4.000000,79.000000,,,,0.000000,4.000000,4.000000,4.000000,4.000000,4.000000,4.000000,4.000000,4.000000,4.000000,4.000000,4.000000,4.000000,4.000000,4.000000,100.000000,,,,,,,,,,,,,,,,,,,,,,,,,,,,
1703494558.430522,1703494558.431318,92.000000,0.000000,4235.256348,4231.025879,4264.230957,4262.179688,4230.384766,4241.153809,4204.102539,4218.461426,4231.025879,4180.128418,4509.230957,4447.948730,4268.333496,4396.282227,6690.000000,4.000000,79.000000,,,,0.000000,4.000000,4.000000,4.000000,4.000000,4.000000,4.000000,4.000000,4.000000,4.000000,4.000000,4.000000,4.000000,4.000000,4.000000,100.000000,,,,,,,,,,,,,,,,,23.000000,0.000000,0.718266,0.051514,-0.673645,0.166260,0.976682,-0.159687,0.085948,-14.868553,-42.768806,64.371109
1703494558.438330,1703494558.439126,93.000000,0.000000,4231.794922,4241.666504,4270.256348,4263.974121,4229.743652,4248.461426,4204.230957,4224.487305,4232.179688,4182.948730,4508.333496,4452.051270,4269.358887,4393.461426,7035.000000,4.000000,79.000000,,,,0.000000,4.000000,4.000000,4.000000,4.000000,4.000000,4.000000,4.000000,4.000000,4.000000,4.000000,4.000000,4.000000,4.000000,4.000000,100.000000,,,,,,,,,,,,,,,,,,,,,,,,,,,,
1703494558.446138,1703494558.446834,94.000000,0.000000,4231.922852,4242.692383,4273.974121,4265.641113,4235.256348,4247.563965,4204.102539,4221.922852,4233.333496,4184.230957,4511.410156,4458.846191,4269.871582,4394.358887,5956.000000,4.000000,79.000000,,,,0.000000,4.000000,4.000000,4.000000,4.000000,4.000000,4.000000,4.000000,4.000000,4.000000,4.000000,4.000000,4.000000,4.000000,4.000000,100.000000,1.000000,66.666664,4.000000,4.000000,4.000000,4.000000,4.000000,4.000000,4.000000,4.000000,4.000000,3.000000,4.000000,4.000000,1.000000,4.000000,,,,,,,,,,,,
1703494558.453946,1703494558.454642,95.000000,0.000000,4239.358887,4234.487305,4272.436035,4266.153809,4233.205078,4238.461426,4201.282227,4215.000000,4232.436035,4182.563965,4518.205078,4459.615234,4276.794922,4398.974121,6227.000000,4.000000,79.000000,,,,0.000000,4.000000,4.000000,4.000000,4.000000,4.000000,4.000000,4.000000,4.000000,4.000000,4.000000,4.000000,4.000000,4.000000,4.000000,100.000000,,,,,,,,,,,,,,,,,,,,,,,,,,,,
1703494558.461754,1703494558.462350,96.000000,0.000000,4250.000000,4235.641113,4273.333496,4271.153809,4231.922852,4232.563965,4197.820313,4215.000000,4225.897461,4182.692383,4524.743652,4462.563965,4282.948730,4404.102539,6690.000000,4.000000,79.000000,,,,0.000000,4.000000,4.000000,4.000000,4.000000,4.000000,4.000000,4.000000,4.000000,4.000000,4.000000,4.000000,4.000000,4.000000,4.000000,100.000000,,,,,,,,,,,,,,,,,24.000000,0.000000,0.718193,0.051147,-0.673645,0.166687,0.982053,-0.159687,0.090343,-14.831697,-42.741928,64.317337
1703494558.469562,1703494558.470158,97.000000,0.000000,4250.256348,4244.230957,4274.615234,4271.153809,4234.615234,4233.717773,4196.025879,4214.102539,4218.333496,4186.025879,4524.871582,4464.615234,4285.000000,4401.922852,7035.000000,4.000000,79.000000,,,,0.000000,4.000000,4.000000,4.000000,4.000000,4.000000,4.000000,4.000000,4.000000,4.000000,4.000000,4.000000,4.000000,4.000000,4.000000,100.000000,,,,,,,,,,,,,,,,,,,,,,,,,,,,
1703494558.477371,1703494558.477866,98.000000,0.000000,4240.384766,4245.512695,4271.794922,4266.282227,4234.102539,4233.974121,4198.461426,4209.358887,4217.820313,4182.307617,4517.820313,4454.230957,4283.077148,4396.025879,5956.000000,4.000000,79.000000,,,,0.000000,4.000000,4.000000,4.000000,4.000000,4.000000,4.000000,4.000000,4.000000,4.000000,4.000000,4.000000,4.000000,4.000000,4.000000,100.000000,,,,,,,,,,,,,,,,,,,,,,,,,,,,
1703494558.485179,1703494558.485674,99.000000,0.000000,4234.743652,4236.922852,4269.871582,4266.410156,4233.077148,4227.436035,4197.820313,4206.666504,4213.846191,4172.307617,4510.384766,4444.230957,4270.769043,4390.000000,6227.000000,4.000000,79.000000,,,,0.000000,4.000000,4.000000,4.000000,4.000000,4.000000,4.000000,4.000000,4.000000,4.000000,4.000000,4.000000,4.000000,4.000000,4.000000,100.000000,,,,,,,,,,,,,,,,,,,,,,,,,,,,
1703494558.492987,1703494558.493382,100.000000,0.000000,4229.487305,4231.025879,4267.820313,4266.410156,4233.077148,4229.102539,4199.358887,4209.358887,4203.846191,4166.794922,4508.333496,4441.666504,4260.769043,4380.128418,6690.000000,4.000000,79.000000,,,,0.000000,4.000000,4.000000,4.000000,4.000000,4.000000,4.000000,4.000000,4.000000,4.000000,4.000000,4.000000,4.000000,4.000000,4.000000,100.000000,,,,,,,,,,,,,,,,,25.000000,0.000000,0.718068,0.050903,-0.673706,0.167053,0.976193,-0.150897,0.084483,-14.848528,-42.667736,64.435600
1703494558.500795,1703494558.501190,101.000000,0.000000,4218.333496,4231.538574,4260.897461,4261.282227,4231.282227,4240.769043,4208.333496,4214.358887,4206.666504,4170.128418,4507.563965,4434.615234,4264.230957,4371.922852,7035.000000,4.000000,79.000000,,,,0.000000,4.000000,4.000000,4.000000,4.000000,4.000000,4.000000,4.000000,4.000000,4.000000,4.000000,4.000000,4.000000,4.000000,4.000000,100.000000,,,,,,,,,,,,,,,,,,,,,,,,,,,,
1703494558.508603,1703494558.508898,102.000000,0.000000,4213.717773,4230.897461,4255.897461,4258.846191,4234.743652,4248.205078,4210.256348,4216.794922,4218.077148,4170.128418,4504.230957,4427.179688,4261.282227,4369.871582,5956.000000,4.000000,79.000000,,,,0.000000,4.000000,4.000000,4.000000,4.000000,4.000000,4.000000,4.000000,4.000000,4.000000,4.000000,4.000000,4.000000,4.000000,4.000000,100.000000,,,,,,,,,,,,,,,,,,,,,,,,,,,,
1703494558.516411,1703494558.516706,103.000000,0.000000,4216.794922,4228.077148,4254.871582,4260.384766,4243.974121,4249.743652,4210.256348,4215.512695,4216.025879,4167.051270,4501.794922,4426.410156,4251.922852,4366.666504,6227.000000,4.000000,79.000000,,,,0.000000,4.000000,4.000000,4.000000,4.000000,4.000000,4.000000,4.000000,4.000000,4.000000,4.000000,4.000000,4.000000,4.000000,4.000000,100.000000,,,,,,,,,,,,,,,,,,,,,,,,,,,,
1703494558.524219,1703494558.524414,104.000000,0.000000,4213.077148,4229.102539,4249.871582,4259.487305,4246.794922,4250.128418,4213.589844,4213.846191,4213.846191,4172.436035,4501.794922,4425.512695,4251.666504,4362.307617,6690.000000,4.000000,79.000000,,,,0.000000,4.000000,4.000000,4.000000,4.000000,4.000000,4.000000,4.000000,4.000000,4.000000,4.000000,4.000000,4.000000,4.000000,4.000000,100.000000,,,,,,,,,,,,,,,,,26.000000,0.000000,0.717963,0.050781,-0.673706,0.167542,0.976682,-0.148944,0.095715,-14.930342,-42.750961,64.575371
1703494558.532027,1703494558.532222,105.000000,0.000000,4213.589844,4236.794922,4253.077148,4260.256348,4246.410156,4250.384766,4211.794922,4218.461426,4226.153809,4183.461426,4513.717773,4429.230957,4265.641113,4370.384766,7035.000000,4.000000,79.000000,,,,0.000000,4.000000,4.000000,4.000000,4.000000,4.000000,4.000000,4.000000,4.000000,4.000000,4.000000,4.000000,4.000000,4.000000,4.000000,100.000000,,,,,,,,,,,,,,,,,,,,,,,,,,,,
1703494558.539835,1703494558.539930,106.000000,0.000000,4229.871582,4248.461426,4267.307617,4270.256348,4251.410156,4251.025879,4207.436035,4227.179688,4236.794922,4196.025879,4535.512695,4447.307617,4283.846191,4389.102539,5956.000000,4.000000,79.000000,,,,0.000000,4.000000,4.000000,4.000000,4.000000,4.000000,4.000000,4.000000,4.000000,4.000000,4.000000,4.000000,4.000000,4.000000,4.000000,100.000000,,,,,,,,,,,,,,,,,,,,,,,,,,,,
1703494558.547643,1703494558.547838,107.000000,0.000000,4237.563965,4251.922852,4271.025879,4276.922852,4252.563965,4246.282227,4204.743652,4227.948730,4235.769043,4205.256348,4545.000000,4458.333496,4293.589844,4399.487305,6227.000000,4.000000,79.000000,,,,0.000000,4.000000,4.000000,4.000000,4.000000,4.000000,4.000000,4.000000,4.000000,4.000000,4.000000,4.000000,4.000000,4.000000,4.000000,100.000000,,,,,,,,,,,,,,,,,,,,,,,,,,,,
1703494558.555451,1703494558.555646,108.000000,0.000000,4232.820313,4245.769043,4267.948730,4270.128418,4246.282227,4236.282227,4200.512695,4219.230957,4226.794922,4205.000000,4544.487305,4454.358887,4294.615234,4399.743652,6690.000000,4.000000,79.000000,,,,0.000000,4.000000,4.000000,4.000000,4.000000,4.000000,4.000000,4.000000,4.000000,4.000000,4.000000,4.000000,4.000000,4.000000,4.000000,100.000000,,,,,,,,,,,,,,,,,27.000000,0.000000,0.717835,0.050781,-0.673706,0.168091,0.989379,-0.150409,0.091320,-15.153975,-42.842533,64.551170
1703494558.563259,1703494558.563554,109.000000,0.000000,4233.974121,4245.384766,4270.897461,4265.641113,4244.487305,4235.384766,4198.589844,4218.461426,4225.256348,4202.820313,4551.538574,4455.128418,4296.922852,4401.538574,7035.000000,4.000000,79.000000,,,,0.000000,4.000000,4.000000,4.000000,4.000000,4.000000,4.000000,4.000000,4.000000,4.000000,4.000000,4.000000,4.000000,4.000000,4.000000,100.000000,,,,,,,,,,,,,,,,,,,,,,,,,,,,
1703494558.571067,1703494558.571362,110.000000,0.000000,4232.051270,4243.589844,4266.025879,4266.282227,4241.666504,4243.846191,4202.692383,4230.000000,4232.307617,4207.948730,4555.512695,4457.563965,4294.871582,4401.153809,5956.000000,4.000000,79.000000,,,,0.000000,4.000000,4.000000,4.000000,4.000000,4.000000,4.000000,4.000000,4.000000,4.000000,4.000000,4.000000,4.000000,4.000000,4.000000,100.000000,,,,,,,,,,,,,,,,,,,,,,,,,,,,
1703494558.578875,1703494558.579270,111.000000,0.000000,4217.179688,4226.922852,4255.769043,4260.128418,4234.102539,4243.461426,4202.051270,4233.077148,4228.077148,4204.871582,4543.846191,4449.615234,4282.436035,4392.179688,6227.000000,4.000000,79.000000,,,,0.000000,4.000000,4.000000,4.000000,4.000000,4.000000,4.000000,4.000000,4.000000,4.000000,4.000000,4.000000,4.000000,4.000000,4.000000,100.000000,,,,,,,,,,,,,,,,,,,,,,,,,,,,
1703494558.586683,1703494558.587078,112.000000,0.000000,4210.769043,4213.461426,4255.769043,4258.205078,4229.871582,4240.769043,4202.563965,4228.333496,4215.256348,4187.179688,4534.358887,4445.128418,4275.769043,4384.615234,6690.000000,4.000000,79.000000,,,,0.000000,4.000000,4.000000,4.000000,4.000000,4.000000,4.000000,4.000000,4.000000,4.000000,4.000000,4.000000,4.000000,4.000000,4.000000,100.000000,,,,,,,,,,,,,,,,,28.000000,0.000000,0.717540,0.050903,-0.673828,0.168823,0.984007,-0.158711,0.095226,-15.188577,-42.758278,64.479385
1703494558.594491,1703494558.594986,113.000000,0.000000,4214.871582,4217.179688,4258.205078,4264.743652,4232.820313,4246.794922,4211.025879,4230.641113,4216.025879,4181.538574,4537.820313,4449.615234,4275.897461,4381.025879,7035.000000,4.000000,79.000000,,,,0.000000,4.000000,4.000000,4.000000,4.000000,4.000000,4.000000,4.000000,4.000000,4.000000,4.000000,4.000000,4.000000,4.000000,4.000000,100.000000,,,,,,,,,,,,,,,,,,,,,,,,,,,,
1703494558.602299,1703494558.602794,114.000000,0.000000,4210.256348,4224.487305,4252.948730,4262.692383,4240.512695,4250.128418,4213.846191,4234.487305,4224.358887,4186.153809,4538.589844,4448.205078,4266.538574,4376.538574,5956.000000,4.000000,79.000000,,,,0.000000,4.000000,4.000000,4.000000,4.000000,4.000000,4.000000,4.000000,4.000000,4.000000,4.000000,4.000000,4.000000,4.000000,4.000000,100.000000,,,,,,,,,,,,,,,,,,,,,,,,,,,,
1703494558.610108,1703494558.610701,115.000000,0.000000,4206.025879,4226.153809,4254.230957,4257.948730,4246.410156,4246.922852,4207.307617,4231.538574,4220.256348,4185.000000,4536.153809,4442.692383,4261.538574,4375.769043,6227.000000,4.000000,79.000000,,,,0.000000,4.000000,4.000000,4.000000,4.000000,4.000000,4.000000,4.000000,4.000000,4.000000,4.000000,4.000000,4.000000,4.000000,4.000000,100.000000,,,,,,,,,,,,,,,,,,,,,,,,,,,,
1703494558.617916,1703494558.618509,116.000000,0.000000,4214.230957,4229.358887,4266.153809,4267.179688,4248.589844,4244.487305,4201.025879,4227.307617,4218.077148,4188.589844,4544.487305,4450.769043,4273.717773,4383.077148,6690.000000,4.000000,79.000000,,,,0.000000,4.000000,4.000000,4.000000,4.000000,4.000000,4.000000,4.000000,4.000000,4.000000,4.000000,4.000000,4.000000,4.000000,4.000000,100.000000,,,,,,,,,,,,,,,,,29.000000,0.000000,0.717492,0.050964,-0.673828,0.169006,0.968380,-0.171896,0.076670,-15.069719,-42.665783,64.448112
1703494558.625723,1703494558.626417,117.000000,0.000000,4227.307617,4236.282227,4277.307617,4280.641113,4250.512695,4248.333496,4203.974121,4231.794922,4226.410156,4204.102539,4558.077148,4470.641113,4284.230957,4395.769043,7035.000000,4.000000,79.000000,,,,0.000000,4.000000,4.000000,4.000000,4.000000,4.000000,4.000000,4.000000,4.000000,4.000000,4.000000,4.000000,4.000000,4.000000,4.000000,100.000000,,,,,,,,,,,,,,,,,,,,,,,,,,,,
1703494558.633532,1703494558.634225,118.000000,0.000000,4231.538574,4238.205078,4277.563965,4280.641113,4250.000000,4247.436035,4203.717773,4228.846191,4221.025879,4206.282227,4558.717773,4475.769043,4281.153809,4402.436035,5956.000000,4.000000,79.000000,,,,0.000000,4.000000,4.000000,4.000000,4.000000,4.000000,4.000000,4.000000,4.000000,4.000000,4.000000,4.000000,4.000000,4.000000,4.000000,100.000000,,,,,,,,,,,,,,,,,,,,,,,,,,,,
1703494558.641340,1703494558.641933,119.000000,0.000000,4228.077148,4232.436035,4269.743652,4269.230957,4246.025879,4236.282227,4198.077148,4216.153809,4210.897461,4196.538574,4551.025879,4461.282227,4275.000000,4397.436035,6227.000000,4.000000,79.000000,,,,0.000000,4.000000,4.000000,4.000000,4.000000,4.000000,4.000000,4.000000,4.000000,4.000000,4.000000,4.000000,4.000000,4.000000,4.000000,100.000000,,,,,,,,,,,,,,,,,,,,,,,,,,,,
1703494558.649148,1703494558.649741,120.000000,0.000000,4228.205078,4228.077148,4267.563965,4262.051270,4245.256348,4236.666504,4196.922852,4220.512695,4224.102539,4204.615234,4553.205078,4456.922852,4276.922852,4395.384766,6690.000000,4.000000,79.000000,,,,0.000000,4.000000,4.000000,4.000000,4.000000,4.000000,4.000000,4.000000,4.000000,4.000000,4.000000,4.000000,4.000000,4.000000,4.000000,100.000000,,,,,,,,,,,,,,,,,30.000000,0.000000,0.717321,0.051147,-0.673889,0.169434,0.975705,-0.166524,0.078135,-14.929414,-42.765873,64.436638
1703494558.656956,1703494558.657449,121.000000,0.000000,4233.077148,4227.948730,4268.461426,4261.538574,4248.077148,4247.692383,4202.307617,4236.282227,4236.153809,4214.615234,4554.615234,4464.871582,4277.948730,4400.384766,7035.000000,4.000000,79.000000,,,,0.000000,4.000000,4.000000,4.000000,4.000000,4.000000,4.000000,4.000000,4.000000,4.000000,4.000000,4.000000,4.000000,4.000000,4.000000,100.000000,,,,,,,,,,,,,,,,,,,,,,,,,,,,
1703494558.664764,1703494558.665257,122.000000,0.000000,4231.666504,4228.589844,4263.717773,4262.307617,4247.179688,4247.820313,4210.256348,4238.205078,4222.563965,4205.641113,4544.102539,4462.436035,4269.615234,4401.153809,5956.000000,4.000000,79.000000,,,,0.000000,4.000000,4.000000,4.000000,4.000000,4.000000,4.000000,4.000000,4.000000,4.000000,4.000000,4.000000,4.000000,4.000000,4.000000,100.000000,,,,,,,,,,,,,,,,,,,,,,,,,,,,
1703494558.672572,1703494558.672965,123.000000,0.000000,4225.384766,4229.102539,4257.948730,4261.666504,4243.717773,4242.051270,4212.051270,4232.436035,4213.077148,4196.153809,4536.666504,4453.077148,4261.282227,4397.820313,6227.000000,4.000000,79.000000,,,,0.000000,4.000000,4.000000,4.000000,4.000000,4.000000,4.000000,4.000000,4.000000,4.000000,4.000000,4.000000,4.000000,4.000000,4.000000,100.000000,,,,,,,,,,,,,,,,,,,,,,,,,,,,
1703494558.680380,1703494558.680773,124.000000,0.000000,4227.436035,4230.256348,4256.922852,4260.000000,4244.230957,4245.384766,4206.922852,4233.333496,4216.794922,4198.589844,4537.051270,4453.461426,4262.307617,4396.666504,6690.000000,4.000000,79.000000,,,,0.000000,4.000000,4.000000,4.000000,4.000000,4.000000,4.000000,4.000000,4.000000,4.000000,4.000000,4.000000,4.000000,4.000000,4.000000,100.000000,,,,,,,,,,,,,,,,,31.000000,0.000000,0.717220,0.051147,-0.673950,0.169617,0.973752,-0.171896,0.098645,-14.869805,-42.755951,64.359642
1703494558.688188,1703494558.688481,125.000000,0.000000,4231.538574,4231.922852,4260.512695,4264.358887,4247.820313,4247.563965,4201.410156,4232.307617,4217.436035,4201.666504,4537.307617,4458.077148,4268.333496,4402.051270,7035.000000,4.000000,79.000000,,,,0.000000,4.000000,4.000000,4.000000,4.000000,4.000000,4.000000,4.000000,4.000000,4.000000,4.000000,4.000000,4.000000,4.000000,4.000000,100.000000,,,,,,,,,,,,,,,,,,,,,,,,,,,,
1703494558.695996,1703494558.696389,126.000000,0.000000,4232.563965,4235.512695,4266.794922,4275.256348,4246.538574,4244.487305,4201.922852,4230.641113,4221.410156,4200.897461,4540.769043,4462.692383,4274.358887,4410.000000,5956.000000,4.000000,79.000000,,,,0.000000,4.000000,4.000000,4.000000,4.000000,4.000000,4.000000,4.000000,4.000000,4.000000,4.000000,4.000000,4.000000,4.000000,4.000000,100.000000,,,,,,,,,,,,,,,,,,,,,,,,,,,,
1703494558.703804,1703494558.704197,127.000000,0.000000,4234.743652,4241.153809,4273.205078,4281.666504,4245.769043,4246.410156,4205.000000,4236.538574,4232.051270,4208.205078,4550.641113,4472.948730,4279.230957,4413.974121,79.000000,4.000000,79.000000,,,,0.000000,4.000000,4.000000,4.000000,4.000000,4.000000,4.000000,4.000000,4.000000,4.000000,4.000000,4.000000,4.000000,4.000000,4.000000,100.000000,,,,,,,,,,,,,,,,,,,,,,,,,,,,
1703494558.711612,1703494558.712105,0.000000,0.000000,4234.102539,4244.230957,4274.230957,4280.512695,4249.615234,4248.205078,4206.025879,4243.974121,4233.461426,4217.563965,4554.102539,4481.282227,4278.974121,4410.256348,4849.000000,4.000000,79.000000,,,,0.000000,4.000000,4.000000,4.000000,4.000000,4.000000,4.000000,4.000000,4.000000,4.000000,4.000000,4.000000,4.000000,4.000000,4.000000,100.000000,,,,,,,,,,,,,,,,,0.000000,0.000000,0.717240,0.051270,-0.673889,0.169739,0.971798,-0.167013,0.086925,-14.966159,-42.813690,64.440346
1703494558.719420,1703494558.719914,1.000000,0.000000,4229.615234,4244.743652,4273.589844,4279.615234,4247.692383,4248.461426,4205.641113,4247.563965,4234.230957,4220.384766,4550.512695,4478.333496,4276.153809,4402.692383,5420.000000,4.000000,79.000000,,,,0.000000,4.000000,4.000000,4.000000,4.000000,4.000000,4.000000,4.000000,4.000000,4.000000,4.000000,4.000000,4.000000,4.000000,4.000000,100.000000,,,,,,,,,,,,,,,,,,,,,,,,,,,,
1703494558.727228,1703494558.727722,2.000000,0.000000,4230.000000,4241.794922,4276.025879,4280.897461,4247.436035,4248.974121,4203.717773,4246.410156,4244.615234,4221.666504,4548.461426,4475.641113,4276.922852,4400.384766,5414.000000,4.000000,79.000000,,,,0.000000,4.000000,4.000000,4.000000,4.000000,4.000000,4.000000,4.000000,4.000000,4.000000,4.000000,4.000000,4.000000,4.000000,4.000000,100.000000,,,,,,,,,,,,,,,,,,,,,,,,,,,,
1703494558.735036,1703494558.735430,3.000000,0.000000,4231.538574,4236.153809,4270.897461,4279.615234,4249.615234,4247.948730,4202.820313,4245.384766,4243.461426,4219.358887,4544.230957,4476.794922,4277.307617,4400.000000,5419.000000,4.000000,79.000000,,,,0.000000,4.000000,4.000000,4.000000,4.000000,4.000000,4.000000,4.000000,4.000000,4.000000,4.000000,4.000000,4.000000,4.000000,4.000000,100.000000,,,,,,,,,,,,,,,,,,,,,,,,,,,,
1703494558.742844,1703494558.743338,4.000000,0.000000,4227.563965,4233.589844,4261.282227,4273.333496,4235.000000,4245.128418,4202.692383,4248.205078,4239.487305,4217.563965,4538.846191,4474.358887,4275.512695,4397.436035,5273.000000,4.000000,79.000000,,,,0.000000,4.000000,4.000000,4.000000,4.000000,4.000000,4.000000,4.000000,4.000000,4.000000,4.000000,4.000000,4.000000,4.000000,4.000000,100.000000,,,,,,,,,,,,,,,,,1.000000,0.000000,0.717321,0.051147,-0.673828,0.169678,0.974240,-0.170919,0.089366,-14.952876,-42.932320,64.612976
1703494558.750652,1703494558.751146,5.000000,0.000000,4227.179688,4232.307617,4261.794922,4265.769043,4221.794922,4245.897461,4203.461426,4252.563965,4249.358887,4226.538574,4541.025879,4475.128418,4278.589844,4398.077148,5021.000000,4.000000,79.000000,,,,0.000000,4.000000,4.000000,4.000000,4.000000,4.000000,4.000000,4.000000,4.000000,4.000000,4.000000,4.000000,4.000000,4.000000,4.000000,100.000000,,,,,,,,,,,,,,,,,,,,,,,,,,,,
1703494558.758460,1703494558.759054,6.000000,0.000000,4230.256348,4231.666504,4264.743652,4264.871582,4230.256348,4247.307617,4203.846191,4249.102539,4244.615234,4224.230957,4540.512695,4474.487305,4280.256348,4402.307617,4246.000000,4.000000,79.000000,,,,0.000000,4.000000,4.000000,4.000000,4.000000,4.000000,4.000000,4.000000,4.000000,4.000000,4.000000,4.000000,4.000000,4.000000,4.000000,100.000000,,,,,,,,,,,,,,,,,,,,,,,,,,,,
1703494558.766268,1703494558.766861,7.000000,0.000000,4233.077148,4238.461426,4264.615234,4270.128418,4236.282227,4245.769043,4203.589844,4239.743652,4223.205078,4203.205078,4533.333496,4468.846191,4278.717773,4406.666504,4938.000000,4.000000,79.000000,,,,0.000000,4.000000,4.000000,4.000000,4.000000,4.000000,4.000000,4.000000,4.000000,4.000000,4.000000,4.000000,4.000000,4.000000,4.000000,100.000000,,,,,,,,,,,,,,,,,,,,,,,,,,,,
1703494558.774077,1703494558.774769,8.000000,0.000000,4243.333496,4248.974121,4273.974121,4277.179688,4232.051270,4247.436035,4204.102539,4242.563965,4222.820313,4203.461426,4540.641113,4476.410156,4288.333496,4419.615234,5215.000000,4.000000,79.000000,,,,0.000000,4.000000,4.000000,4.000000,4.000000,4.000000,4.000000,4.000000,4.000000,4.000000,4.000000,4.000000,4.000000,4.000000,4.000000,100.000000,,,,,,,,,,,,,,,,,2.000000,0.000000,0.717295,0.050903,-0.673889,0.169617,0.979612,-0.159199,0.080576,-14.740922,-43.005756,64.451675
1703494558.781885,1703494558.782577,9.000000,0.000000,4252.307617,4250.641113,4282.307617,4279.487305,4231.025879,4248.205078,4202.692383,4246.794922,4233.461426,4218.589844,4552.563965,4491.794922,4299.358887,4432.179688,5462.000000,4.000000,79.000000,,,,0.000000,4.000000,4.000000,4.000000,4.000000,4.000000,4.000000,4.000000,4.000000,4.000000,4.000000,4.000000,4.000000,4.000000,4.000000,100.000000,,,,,,,,,,,,,,,,,,,,,,,,,,,,
1703494558.789693,1703494558.790485,10.000000,0.000000,4250.897461,4247.307617,4278.846191,4277.820313,4232.051270,4245.000000,4201.025879,4237.307617,4228.205078,4213.846191,4545.128418,4490.128418,4296.025879,4431.153809,5953.000000,4.000000,79.000000,,,,0.000000,4.000000,4.000000,4.000000,4.000000,4.000000,4.000000,4.000000,4.000000,4.000000,4.000000,4.000000,4.000000,4.000000,4.000000,100.000000,,,,,,,,,,,,,,,,,,,,,,,,,,,,
1703494558.797501,1703494558.798293,11.000000,0.000000,4248.846191,4248.461426,4279.487305,4278.974121,4231.666504,4244.743652,4199.102539,4234.615234,4225.897461,4209.102539,4535.897461,4483.717773,4293.589844,4428.205078,6230.000000,4.000000,79.000000,,,,0.000000,4.000000,4.000000,4.000000,4.000000,4.000000,4.000000,4.000000,4.000000,4.000000,4.000000,4.000000,4.000000,4.000000,4.000000,100.000000,,,,,,,,,,,,,,,,,,,,,,,,,,,,
1703494558.805309,1703494558.806201,12.000000,0.000000,4249.358887,4249.358887,4281.666504,4277.820313,4229.743652,4244.487305,4198.846191,4246.666504,4232.948730,4218.974121,4540.641113,4486.025879,4299.615234,4428.974121,6690.000000,4.000000,79.000000,,,,0.000000,4.000000,4.000000,4.000000,4.000000,4.000000,4.000000,4.000000,4.000000,4.000000,4.000000,4.000000,4.000000,4.000000,4.000000,100.000000,,,,,,,,,,,,,,,,,3.000000,0.000000,0.717284,0.050659,-0.674011,0.169250,0.963985,-0.157246,0.084483,-14.850163,-42.905178,64.356506
1703494558.813117,1703494558.814009,13.000000,0.000000,4246.922852,4247.051270,4275.512695,4271.025879,4229.102539,4243.077148,4200.641113,4251.282227,4232.051270,4218.717773,4541.410156,4485.641113,4303.974121,4427.051270,7035.000000,4.000000,79.000000,,,,0.000000,4.000000,4.000000,4.000000,4.000000,4.000000,4.000000,4.000000,4.000000,4.000000,4.000000,4.000000,4.000000,4.000000,4.000000,100.000000,,,,,,,,,,,,,,,,,,,,,,,,,,,,
1703494558.820925,1703494558.821717,14.000000,0.000000,4246.538574,4246.538574,4272.563965,4269.871582,4230.512695,4246.153809,4200.512695,4247.820313,4232.563965,4217.051270,4542.692383,4482.179688,4314.230957,4429.743652,5953.000000,4.000000,79.000000,,,,0.000000,4.000000,4.000000,4.000000,4.000000,4.000000,4.000000,4.000000,4.000000,4.000000,4.000000,4.000000,4.000000,4.000000,4.000000,100.000000,,,,,,,,,,,,,,,,,,,,,,,,,,,,
1703494558.828733,1703494558.829625,15.000000,0.000000,4250.256348,4249.230957,4275.897461,4277.179688,4230.128418,4249.487305,4199.615234,4249.487305,4243.717773,4225.256348,4549.487305,4483.846191,4323.846191,4436.282227,6230.000000,4.000000,79.000000,,,,0.000000,4.000000,4.000000,4.000000,4.000000,4.000000,4.000000,4.000000,4.000000,4.000000,4.000000,4.000000,4.000000,4.000000,4.000000,100.000000,,,,,,,,,,,,,,,,,,,,,,,,,,,,
1703494558.836541,1703494558.837533,16.000000,0.000000,4250.897461,4249.230957,4279.743652,4278.333496,4231.282227,4250.000000,4202.307617,4252.948730,4247.179688,4225.769043,4546.922852,4488.077148,4325.512695,4435.256348,0.000000,4.000000,79.000000,,,,0.000000,4.000000,4.000000,4.000000,4.000000,4.000000,4.000000,4.000000,4.000000,4.000000,4.000000,4.000000,4.000000,4.000000,4.000000,100.000000,,,,,,,,,,,,,,,,,4.000000,0.000000,0.717393,0.050537,-0.673950,0.169067,0.964473,-0.148944,0.088390,-14.515146,-42.814663,64.437523
1703494558.844349,1703494558.845341,17.000000,0.000000,4249.743652,4246.922852,4279.230957,4274.871582,4237.051270,4243.974121,4203.333496,4250.512695,4231.153809,4215.000000,4540.641113,4487.692383,4325.641113,4432.179688,0.000000,4.000000,79.000000,,,,0.000000,4.000000,4.000000,4.000000,4.000000,4.000000,4.000000,4.000000,4.000000,4.000000,4.000000,4.000000,4.000000,4.000000,4.000000,100.000000,,,,,,,,,,,,,,,,,,,,,,,,,,,,
1703494558.852157,1703494558.853150,18.000000,0.000000,4247.563965,4249.743652,4274.743652,4273.461426,4232.179688,4237.692383,4198.461426,4240.128418,4213.461426,4202.179688,4531.922852,4479.743652,4318.333496,4428.589844,0.000000,4.000000,79.000000,,,,0.000000,4.000000,4.000000,4.000000,4.000000,4.000000,4.000000,4.000000,4.000000,4.000000,4.000000,4.000000,4.000000,4.000000,4.000000,100.000000,,,,,,,,,,,,,,,,,,,,,,,,,,,,
1703494558.859965,1703494558.860958,19.000000,0.000000,4246.794922,4251.282227,4275.256348,4269.615234,4217.820313,4236.794922,4196.025879,4231.538574,4211.666504,4197.436035,4521.282227,4471.922852,4308.333496,4422.692383,0.000000,4.000000,79.000000,,,,0.000000,4.000000,4.000000,4.000000,4.000000,4.000000,4.000000,4.000000,4.000000,4.000000,4.000000,4.000000,4.000000,4.000000,4.000000,100.000000,,,,,,,,,,,,,,,,,,,,,,,,,,,,
1703494558.867773,1703494558.868666,20.000000,0.000000,4254.487305,4247.692383,4282.692383,4269.487305,4221.666504,4235.897461,4198.205078,4239.871582,4223.461426,4209.487305,4527.179688,4480.000000,4318.205078,4427.820313,0.000000,4.000000,79.000000,,,,0.000000,4.000000,4.000000,4.000000,4.000000,4.000000,4.000000,4.000000,4.000000,4.000000,4.000000,4.000000,4.000000,4.000000,4.000000,100.000000,,,,,,,,,,,,,,,,,5.000000,0.000000,0.717660,0.050415,-0.673706,0.168945,0.983030,-0.159687,0.084971,-14.363632,-42.799862,64.443771
1703494558.875581,1703494558.876574,21.000000,0.000000,4264.615234,4250.769043,4287.948730,4278.589844,4241.025879,4238.077148,4199.230957,4249.871582,4233.205078,4222.051270,4544.358887,4493.846191,4343.461426,4442.948730,0.000000,4.000000,79.000000,,,,0.000000,4.000000,4.000000,4.000000,4.000000,4.000000,4.000000,4.000000,4.000000,4.000000,4.000000,4.000000,4.000000,4.000000,4.000000,100.000000,,,,,,,,,,,,,,,,,,,,,,,,,,,,
1703494558.883389,1703494558.884382,22.000000,0.000000,4267.307617,4261.922852,4286.282227,4285.000000,4247.948730,4242.436035,4197.948730,4246.153809,4232.563965,4218.846191,4542.436035,4489.487305,4346.282227,4446.410156,0.000000,4.000000,79.000000,,,,0.000000,4.000000,4.000000,4.000000,4.000000,4.000000,4.000000,4.000000,4.000000,4.000000,4.000000,4.000000,4.000000,4.000000,4.000000,100.000000,,,,,,,,,,,,,,,,,,,,,,,,,,,,
1703494558.891197,1703494558.892191,23.000000,0.000000,4262.179688,4265.256348,4283.333496,4280.512695,4242.820313,4239.615234,4197.692383,4242.692383,4228.589844,4219.871582,4533.077148,4477.563965,4330.512695,4433.717773,0.000000,4.000000,79.000000,,,,0.000000,4.000000,4.000000,4.000000,4.000000,4.000000,4.000000,4.000000,4.000000,4.000000,4.000000,4.000000,4.000000,4.000000,4.000000,100.000000,,,,,,,,,,,,,,,,,,,,,,,,,,,,
1703494558.899005,1703494558.899899,24.000000,0.000000,4259.743652,4260.512695,4282.051270,4276.410156,4242.179688,4237.436035,4200.128418,4247.051270,4234.230957,4233.589844,4544.743652,4479.743652,4336.410156,4431.410156,0.000000,4.000000,79.000000,,,,0.000000,4.000000,4.000000,4.000000,4.000000,4.000000,4.000000,4.000000,4.000000,4.000000,4.000000,4.000000,4.000000,4.000000,4.000000,100.000000,,,,,,,,,,,,,,,,,6.000000,0.000000,0.717813,0.050476,-0.673523,0.169006,0.969845,-0.172873,0.085460,-14.343935,-42.936543,64.632729
1703494558.906814,1703494558.907806,25.000000,0.000000,4262.307617,4259.487305,4283.846191,4279.871582,4245.512695,4246.794922,4203.974121,4252.179688,4246.282227,4238.205078,4556.922852,4489.230957,4353.077148,4442.179688,0.000000,4.000000,79.000000,,,,0.000000,4.000000,4.000000,4.000000,4.000000,4.000000,4.000000,4.000000,4.000000,4.000000,4.000000,4.000000,4.000000,4.000000,4.000000,100.000000,,,,,,,,,,,,,,,,,,,,,,,,,,,,
1703494558.914621,1703494558.915614,26.000000,0.000000,4264.871582,4261.410156,4286.410156,4281.794922,4249.102539,4249.743652,4205.384766,4258.205078,4252.179688,4231.666504,4552.051270,4490.256348,4349.615234,4445.641113,0.000000,4.000000,79.000000,,,,0.000000,4.000000,4.000000,4.000000,4.000000,4.000000,4.000000,4.000000,4.000000,4.000000,4.000000,4.000000,4.000000,4.000000,4.000000,100.000000,,,,,,,,,,,,,,,,,,,,,,,,,,,,
1703494558.922429,1703494558.923522,27.000000,0.000000,4272.051270,4259.615234,4290.000000,4280.256348,4249.871582,4241.538574,4203.974121,4261.666504,4250.641113,4234.615234,4551.666504,4492.436035,4348.717773,4448.077148,0.000000,4.000000,79.000000,,,,0.000000,4.000000,4.000000,4.000000,4.000000,4.000000,4.000000,4.000000,4.000000,4.000000,4.000000,4.000000,4.000000,4.000000,4.000000,100.000000,,,,,,,,,,,,,,,,,,,,,,,,,,,,
1703494558.930238,1703494558.931430,28.000000,0.000000,4278.589844,4253.077148,4290.897461,4279.358887,4242.179688,4239.871582,4202.820313,4257.820313,4248.333496,4245.641113,4561.922852,4497.820313,4372.179688,4462.820313,0.000000,4.000000,79.000000,,,,0.000000,4.000000,4.000000,4.000000,4.000000,4.000000,4.000000,4.000000,4.000000,4.000000,4.000000,4.000000,4.000000,4.000000,4.000000,100.000000,,,,,,,,,,,,,,,,,7.000000,0.000000,0.718044,0.050659,-0.673279,0.168945,0.961543,-0.167501,0.085460,-14.193587,-43.186932,64.822510
1703494558.938046,1703494558.939239,29.000000,0.000000,4270.512695,4247.436035,4286.538574,4273.974121,4239.358887,4237.436035,4200.769043,4244.102539,4240.512695,4234.102539,4550.128418,4487.820313,4368.461426,4461.025879,0.000000,4.000000,79.000000,,,,0.000000,4.000000,4.000000,4.000000,4.000000,4.000000,4.000000,4.000000,4.000000,4.000000,4.000000,4.000000,4.000000,4.000000,4.000000,100.000000,,,,,,,,,,,,,,,,,,,,,,,,,,,,
1703494558.945854,1703494558.947147,30.000000,0.000000,4262.563965,4248.846191,4285.769043,4267.307617,4244.615234,4233.461426,4198.589844,4233.077148,4228.205078,4212.692383,4528.589844,4476.282227,4344.871582,4439.871582,0.000000,4.000000,79.000000,,,,0.000000,4.000000,4.000000,4.000000,4.000000,4.000000,4.000000,4.000000,4.000000,4.000000,4.000000,4.000000,4.000000,4.000000,4.000000,100.000000,1.000000,75.000000,4.000000,4.000000,4.000000,4.000000,4.000000,4.000000,4.000000,4.000000,4.000000,4.000000,4.000000,4.000000,1.000000,4.000000,,,,,,,,,,,,
1703494558.953662,1703494558.954955,31.000000,0.000000,4273.974121,4252.563965,4291.153809,4269.358887,4242.820313,4237.179688,4199.487305,4238.974121,4227.820313,4219.743652,4540.000000,4485.256348,4362.051270,4445.384766,0.000000,4.000000,79.000000,,,,0.000000,4.000000,4.000000,4.000000,4.000000,4.000000,4.000000,4.000000,4.000000,4.000000,4.000000,4.000000,4.000000,4.000000,4.000000,100.000000,,,,,,,,,,,,,,,,,,,,,,,,,,,,
1703494558.961470,1703494558.962763,32.000000,0.000000,4283.717773,4252.563965,4294.743652,4271.666504,4244.230957,4245.128418,4201.794922,4249.615234,4237.051270,4236.922852,4558.077148,4496.922852,4388.589844,4466.538574,0.000000,4.000000,79.000000,,,,0.000000,4.000000,4.000000,4.000000,4.000000,4.000000,4.000000,4.000000,4.000000,4.000000,4.000000,4.000000,4.000000,4.000000,4.000000,100.000000,,,,,,,,,,,,,,,,,8.000000,0.000000,0.718139,0.050720,-0.673157,0.169006,0.973263,-0.162618,0.094250,-14.124228,-43.268238,64.873596
1703494558.969278,1703494558.970671,33.000000,0.000000,4271.410156,4246.153809,4289.358887,4266.410156,4252.179688,4246.666504,4202.563965,4248.717773,4235.512695,4227.692383,4547.179688,4489.230957,4378.205078,4458.333496,0.000000,4.000000,79.000000,,,,0.000000,4.000000,4.000000,4.000000,4.000000,4.000000,4.000000,4.000000,4.000000,4.000000,4.000000,4.000000,4.000000,4.000000,4.000000,100.000000,,,,,,,,,,,,,,,,,,,,,,,,,,,,
1703494558.977086,1703494558.978479,34.000000,0.000000,4252.820313,4236.538574,4280.512695,4259.743652,4249.358887,4243.974121,4201.538574,4243.717773,4230.897461,4212.820313,4527.307617,4473.974121,4359.230957,4433.333496,0.000000,4.000000,79.000000,,,,0.000000,4.000000,4.000000,4.000000,4.000000,4.000000,4.000000,4.000000,4.000000,4.000000,4.000000,4.000000,4.000000,4.000000,4.000000,100.000000,,,,,,,,,,,,,,,,,,,,,,,,,,,,
1703494558.984894,1703494558.986187,35.000000,0.000000,4249.871582,4231.410156,4281.538574,4257.563965,4244.487305,4245.384766,4201.025879,4246.410156,4240.000000,4218.717773,4528.846191,4472.179688,4367.179688,4431.666504,0.000000,4.000000,79.000000,,,,0.000000,4.000000,4.000000,4.000000,4.000000,4.000000,4.000000,4.000000,4.000000,4.000000,4.000000,4.000000,4.000000,4.000000,4.000000,100.000000,,,,,,,,,,,,,,,,,,,,,,,,,,,,
1703494558.992702,1703494558.993995,36.000000,0.000000,4253.589844,4233.461426,4287.692383,4258.717773,4250.384766,4249.358887,4202.179688,4248.974121,4252.051270,4227.563965,4538.717773,4477.051270,4378.717773,4442.948730,0.000000,4.000000,79.000000,,,,0.000000,4.000000,4.000000,4.000000,4.000000,4.000000,4.000000,4.000000,4.000000,4.000000,4.000000,4.000000,4.000000,4.000000,4.000000,100.000000,,,,,,,,,,,,,,,,,9.000000,0.000000,0.718116,0.050842,-0.673157,0.169067,0.990844,-0.146991,0.094250,-14.228473,-43.208084,64.886230
1703494559.000510,1703494559.001703,37.000000,0.000000,4249.487305,4232.692383,4286.922852,4259.230957,4253.077148,4247.563965,4203.333496,4251.410156,4251.794922,4227.820313,4537.436035,4476.282227,4373.717773,4438.717773,0.000000,4.000000,79.000000,,,,0.000000,4.000000,4.000000,4.000000,4.000000,4.000000,4.000000,4.000000,4.000000,4.000000,4.000000,4.000000,4.000000,4.000000,4.000000,100.000000,,,,,,,,,,,,,,,,,,,,,,,,,,,,
1703494559.008318,1703494559.009511,38.000000,0.000000,4249.871582,4227.436035,4283.846191,4258.333496,4239.615234,4239.487305,4203.205078,4255.897461,4246.538574,4226.282227,4536.794922,4480.641113,4376.410156,4434.487305,0.000000,4.000000,79.000000,,,,0.000000,4.000000,4.000000,4.000000,4.000000,4.000000,4.000000,4.000000,4.000000,4.000000,4.000000,4.000000,4.000000,4.000000,4.000000,100.000000,,,,,,,,,,,,,,,,,,,,,,,,,,,,
1703494559.016126,1703494559.017219,39.000000,0.000000,4264.102539,4231.538574,4290.384766,4261.410156,4229.102539,4233.205078,4202.051270,4256.282227,4245.128418,4230.256348,4547.820313,4491.153809,4395.256348,4449.871582,0.000000,4.000000,79.000000,,,,0.000000,4.000000,4.000000,4.000000,4.000000,4.000000,4.000000,4.000000,4.000000,4.000000,4.000000,4.000000,4.000000,4.000000,4.000000,100.000000,,,,,,,,,,,,,,,,,,,,,,,,,,,,
1703494559.023934,1703494559.025127,40.000000,0.000000,4273.717773,4242.051270,4300.512695,4264.871582,4238.461426,4232.051270,4201.153809,4250.128418,4239.871582,4234.358887,4555.128418,4494.102539,4399.230957,4463.846191,0.000000,4.000000,79.000000,,,,0.000000,4.000000,4.000000,4.000000,4.000000,4.000000,4.000000,4.000000,4.000000,4.000000,4.000000,4.000000,4.000000,4.000000,4.000000,100.000000,,,,,,,,,,,,,,,,,10.000000,0.000000,0.718075,0.051025,-0.673157,0.169189,0.975705,-0.148456,0.085460,-14.172292,-43.337273,64.947609
1703494559.031742,1703494559.032935,41.000000,0.000000,4277.179688,4246.538574,4301.410156,4261.282227,4250.897461,4233.333496,4200.897461,4237.307617,4229.615234,4227.820313,4545.769043,4490.897461,4388.077148,4460.384766,0.000000,4.000000,79.000000,,,,0.000000,4.000000,4.000000,4.000000,4.000000,4.000000,4.000000,4.000000,4.000000,4.000000,4.000000,4.000000,4.000000,4.000000,4.000000,100.000000,,,,,,,,,,,,,,,,,,,,,,,,,,,,
1703494559.039550,1703494559.040744,42.000000,0.000000,4283.589844,4245.897461,4298.461426,4261.410156,4245.769043,4235.000000,4200.384766,4230.256348,4225.897461,4220.000000,4540.769043,4489.358887,4396.922852,4460.384766,0.000000,4.000000,79.000000,,,,0.000000,4.000000,4.000000,4.000000,4.000000,4.000000,4.000000,4.000000,4.000000,4.000000,4.000000,4.000000,4.000000,4.000000,4.000000,100.000000,,,,,,,,,,,,,,,,,,,,,,,,,,,,
1703494559.047358,1703494559.048452,43.000000,0.000000,4275.897461,4242.179688,4294.615234,4262.692383,4236.153809,4233.333496,4198.717773,4235.897461,4228.589844,4217.436035,4539.358887,4482.692383,4399.230957,4458.589844,0.000000,4.000000,79.000000,,,,0.000000,4.000000,4.000000,4.000000,4.000000,4.000000,4.000000,4.000000,4.000000,4.000000,4.000000,4.000000,4.000000,4.000000,4.000000,100.000000,,,,,,,,,,,,,,,,,,,,,,,,,,,,
1703494559.055166,1703494559.056260,44.000000,0.000000,4257.307617,4229.743652,4286.666504,4252.436035,4234.102539,4232.436035,4199.102539,4242.820313,4228.974121,4217.563965,4528.717773,4470.384766,4380.897461,4445.641113,0.000000,4.000000,79.000000,,,,0.000000,4.000000,4.000000,4.000000,4.000000,4.000000,4.000000,4.000000,4.000000,4.000000,4.000000,4.000000,4.000000,4.000000,4.000000,100.000000,,,,,,,,,,,,,,,,,11.000000,0.000000,0.717956,0.051086,-0.673279,0.169189,0.977658,-0.162618,0.091808,-14.121730,-43.336880,64.836182
1703494559.062975,1703494559.063968,45.000000,0.000000,4254.102539,4216.538574,4280.512695,4244.871582,4236.153809,4239.487305,4202.179688,4244.102539,4231.025879,4216.410156,4525.769043,4463.846191,4384.487305,4440.512695,0.000000,4.000000,79.000000,,,,0.000000,4.000000,4.000000,4.000000,4.000000,4.000000,4.000000,4.000000,4.000000,4.000000,4.000000,4.000000,4.000000,4.000000,4.000000,100.000000,,,,,,,,,,,,,,,,,,,,,,,,,,,,
1703494559.070783,1703494559.071776,46.000000,0.000000,4261.922852,4222.820313,4284.102539,4255.000000,4241.410156,4245.000000,4202.051270,4245.512695,4240.000000,4216.025879,4532.307617,4463.589844,4401.922852,4446.794922,0.000000,4.000000,79.000000,,,,0.000000,4.000000,4.000000,4.000000,4.000000,4.000000,4.000000,4.000000,4.000000,4.000000,4.000000,4.000000,4.000000,4.000000,4.000000,100.000000,,,,,,,,,,,,,,,,,,,,,,,,,,,,
1703494559.078591,1703494559.079484,47.000000,0.000000,4262.948730,4240.000000,4289.487305,4265.128418,4245.769043,4242.948730,4200.769043,4248.205078,4245.512695,4217.563965,4535.128418,4464.743652,4398.461426,4446.153809,0.000000,4.000000,79.000000,,,,0.000000,4.000000,4.000000,4.000000,4.000000,4.000000,4.000000,4.000000,4.000000,4.000000,4.000000,4.000000,4.000000,4.000000,4.000000,100.000000,,,,,,,,,,,,,,,,,,,,,,,,,,,,
1703494559.086399,1703494559.087292,48.000000,0.000000,4259.358887,4242.436035,4288.717773,4262.948730,4246.794922,4241.666504,4202.563965,4250.256348,4243.205078,4218.205078,4536.538574,4465.000000,4393.846191,4441.025879,0.000000,4.000000,79.000000,,,,0.000000,4.000000,4.000000,4.000000,4.000000,4.000000,4.000000,4.000000,4.000000,4.000000,4.000000,4.000000,4.000000,4.000000,4.000000,100.000000,,,,,,,,,,,,,,,,,12.000000,0.000000,0.717800,0.051270,-0.673401,0.169312,0.973752,-0.159687,0.091808,-14.159556,-43.369858,64.869232
1703494559.094207,1703494559.095000,49.000000,0.000000,4259.743652,4236.282227,4285.512695,4262.436035,4249.230957,4239.102539,4202.563965,4249.102539,4239.102539,4217.179688,4541.410156,4464.871582,4403.717773,4444.615234,0.000000,4.000000,79.000000,,,,0.000000,4.000000,4.000000,4.000000,4.000000,4.000000,4.000000,4.000000,4.000000,4.000000,4.000000,4.000000,4.000000,4.000000,4.000000,100.000000,,,,,,,,,,,,,,,,,,,,,,,,,,,,
1703494559.102015,1703494559.102808,50.000000,0.000000,4258.077148,4233.846191,4282.179688,4262.948730,4247.820313,4231.025879,4197.563965,4238.461426,4226.922852,4211.666504,4537.307617,4460.256348,4398.974121,4440.641113,0.000000,4.000000,79.000000,,,,0.000000,4.000000,4.000000,4.000000,4.000000,4.000000,4.000000,4.000000,4.000000,4.000000,4.000000,4.000000,4.000000,4.000000,4.000000,100.000000,,,,,,,,,,,,,,,,,,,,,,,,,,,,
1703494559.109823,1703494559.110516,51.000000,0.000000,4257.692383,4234.358887,4286.666504,4262.692383,4242.307617,4225.897461,4195.000000,4227.948730,4213.205078,4210.897461,4537.436035,4457.563965,4395.897461,4433.974121,0.000000,4.000000,79.000000,,,,0.000000,4.000000,4.000000,4.000000,4.000000,4.000000,4.000000,4.000000,4.000000,4.000000,4.000000,4.000000,4.000000,4.000000,4.000000,100.000000,,,,,,,,,,,,,,,,,,,,,,,,,,,,
1703494559.117631,1703494559.118324,52.000000,0.000000,4265.128418,4242.307617,4301.282227,4274.102539,4246.153809,4230.384766,4200.128418,4230.384766,4221.282227,4218.846191,4549.487305,4467.563965,4413.205078,4444.102539,0.000000,4.000000,79.000000,,,,0.000000,4.000000,4.000000,4.000000,4.000000,4.000000,4.000000,4.000000,4.000000,4.000000,4.000000,4.000000,4.000000,4.000000,4.000000,100.000000,,,,,,,,,,,,,,,,,13.000000,0.000000,0.717639,0.051514,-0.673584,0.169189,0.976193,-0.168966,0.091808,-14.193601,-43.399540,64.815643
1703494559.125439,1703494559.126032,53.000000,0.000000,4267.820313,4251.666504,4303.077148,4281.794922,4254.230957,4234.871582,4203.717773,4233.589844,4231.922852,4217.179688,4545.128418,4470.641113,4416.025879,4451.794922,0.000000,4.000000,79.000000,,,,0.000000,4.000000,4.000000,4.000000,4.000000,4.000000,4.000000,4.000000,4.000000,4.000000,4.000000,4.000000,4.000000,4.000000,4.000000,100.000000,,,,,,,,,,,,,,,,,,,,,,,,,,,,
1703494559.133247,1703494559.133940,54.000000,0.000000,4263.205078,4246.666504,4290.512695,4271.153809,4246.794922,4233.205078,4200.769043,4232.436035,4230.512695,4214.743652,4534.743652,4462.436035,4405.128418,4445.512695,0.000000,4.000000,79.000000,,,,0.000000,4.000000,4.000000,4.000000,4.000000,4.000000,4.000000,4.000000,4.000000,4.000000,4.000000,4.000000,4.000000,4.000000,4.000000,100.000000,,,,,,,,,,,,,,,,,,,,,,,,,,,,
1703494559.141055,1703494559.141748,55.000000,0.000000,4261.410156,4240.769043,4284.102539,4263.205078,4236.153809,4233.846191,4200.384766,4239.615234,4239.358887,4223.461426,4539.615234,4459.487305,4409.871582,4442.179688,0.000000,4.000000,79.000000,,,,0.000000,4.000000,4.000000,4.000000,4.000000,4.000000,4.000000,4.000000,4.000000,4.000000,4.000000,4.000000,4.000000,4.000000,4.000000,100.000000,,,,,,,,,,,,,,,,,,,,,,,,,,,,
1703494559.148863,1703494559.149656,56.000000,0.000000,4255.128418,4244.615234,4281.538574,4262.179688,4240.897461,4240.256348,4204.358887,4247.179688,4248.333496,4225.897461,4538.589844,4454.102539,4415.256348,4445.641113,0.000000,4.000000,79.000000,,,,0.000000,4.000000,4.000000,4.000000,4.000000,4.000000,4.000000,4.000000,4.000000,4.000000,4.000000,4.000000,4.000000,4.000000,4.000000,100.000000,,,,,,,,,,,,,,,,,14.000000,0.000000,0.717649,0.051575,-0.673584,0.169128,0.987425,-0.156757,0.078135,-14.340907,-43.542919,64.750740
1703494559.156671,1703494559.157464,57.000000,0.000000,4247.948730,4238.717773,4275.256348,4257.051270,4251.153809,4241.153809,4205.641113,4247.307617,4243.974121,4215.000000,4525.641113,4446.538574,4403.333496,4443.461426,0.000000,4.000000,79.000000,,,,0.000000,4.000000,4.000000,4.000000,4.000000,4.000000,4.000000,4.000000,4.000000,4.000000,4.000000,4.000000,4.000000,4.000000,4.000000,100.000000,,,,,,,,,,,,,,,,,,,,,,,,,,,,
1703494559.164479,1703494559.165371,58.000000,0.000000,4253.717773,4227.692383,4278.461426,4255.512695,4249.743652,4235.000000,4203.461426,4247.948730,4247.179688,4216.153809,4528.205078,4451.538574,4395.256348,4440.641113,0.000000,4.000000,79.000000,,,,0.000000,4.000000,4.000000,4.000000,4.000000,4.000000,4.000000,4.000000,4.000000,4.000000,4.000000,4.000000,4.000000,4.000000,4.000000,100.000000,,,,,,,,,,,,,,,,,,,,,,,,,,,,
1703494559.172287,1703494559.173179,59.000000,0.000000,4262.436035,4236.538574,4285.384766,4260.512695,4244.615234,4232.820313,4201.922852,4250.897461,4251.794922,4225.384766,4539.871582,4460.128418,4402.563965,4446.282227,0.000000,4.000000,79.000000,,,,0.000000,4.000000,4.000000,4.000000,4.000000,4.000000,4.000000,4.000000,4.000000,4.000000,4.000000,4.000000,4.000000,4.000000,4.000000,100.000000,,,,,,,,,,,,,,,,,,,,,,,,,,,,
1703494559.180095,1703494559.180888,60.000000,0.000000,4265.897461,4255.769043,4285.128418,4265.897461,4244.871582,4234.615234,4202.436035,4249.615234,4241.025879,4222.563965,4538.974121,4461.410156,4411.282227,4455.384766,0.000000,4.000000,79.000000,,,,0.000000,4.000000,4.000000,4.000000,4.000000,4.000000,4.000000,4.000000,4.000000,4.000000,4.000000,4.000000,4.000000,4.000000,4.000000,100.000000,,,,,,,,,,,,,,,,,15.000000,0.000000,0.717621,0.051575,-0.673645,0.169006,0.972287,-0.149432,0.085948,-14.323483,-43.638626,64.709000
1703494559.187903,1703494559.188695,61.000000,0.000000,4269.871582,4260.000000,4289.871582,4268.846191,4243.717773,4234.615234,4203.205078,4241.666504,4228.974121,4217.692383,4542.948730,4465.897461,4414.615234,4459.487305,0.000000,4.000000,79.000000,,,,0.000000,4.000000,4.000000,4.000000,4.000000,4.000000,4.000000,4.000000,4.000000,4.000000,4.000000,4.000000,4.000000,4.000000,4.000000,100.000000,,,,,,,,,,,,,,,,,,,,,,,,,,,,
1703494559.195711,1703494559.196404,62.000000,0.000000,4276.922852,4256.410156,4298.589844,4262.179688,4239.615234,4232.436035,4200.897461,4232.692383,4218.717773,4216.538574,4552.179688,4468.717773,4416.025879,4459.358887,0.000000,4.000000,79.000000,,,,0.000000,4.000000,4.000000,4.000000,4.000000,4.000000,4.000000,4.000000,4.000000,4.000000,4.000000,4.000000,4.000000,4.000000,4.000000,100.000000,,,,,,,,,,,,,,,,,,,,,,,,,,,,
1703494559.203519,1703494559.204212,63.000000,0.000000,4280.769043,4265.128418,4298.461426,4253.077148,4234.230957,4230.000000,4197.692383,4226.025879,4218.461426,4217.948730,4546.538574,4463.205078,4416.025879,4457.563965,0.000000,4.000000,79.000000,,,,0.000000,4.000000,4.000000,4.000000,4.000000,4.000000,4.000000,4.000000,4.000000,4.000000,4.000000,4.000000,4.000000,4.000000,4.000000,100.000000,,,,,,,,,,,,,,,,,,,,,,,,,,,,
1703494559.211327,1703494559.211920,64.000000,0.000000,4271.538574,4268.461426,4291.153809,4246.025879,4233.205078,4230.256348,4199.871582,4222.436035,4228.974121,4218.077148,4532.820313,4456.666504,4408.205078,4447.563965,4849.000000,4.000000,79.000000,,,,0.000000,4.000000,4.000000,4.000000,4.000000,4.000000,4.000000,4.000000,4.000000,4.000000,4.000000,4.000000,4.000000,4.000000,4.000000,100.000000,,,,,,,,,,,,,,,,,16.000000,0.000000,0.717591,0.051392,-0.673706,0.168945,0.973752,-0.146502,0.091808,-14.341135,-43.558098,64.788101
1703494559.219136,1703494559.219728,65.000000,0.000000,4251.282227,4244.615234,4280.000000,4233.717773,4236.025879,4234.102539,4202.436035,4214.230957,4220.769043,4203.846191,4518.077148,4442.692383,4392.820313,4430.000000,5425.000000,4.000000,79.000000,,,,0.000000,4.000000,4.000000,4.000000,4.000000,4.000000,4.000000,4.000000,4.000000,4.000000,4.000000,4.000000,4.000000,4.000000,4.000000,100.000000,,,,,,,,,,,,,,,,,,,,,,,,,,,,
1703494559.226944,1703494559.227436,66.000000,0.000000,4241.794922,4230.641113,4270.769043,4228.205078,4233.333496,4233.589844,4200.384766,4212.948730,4210.897461,4191.538574,4503.717773,4426.666504,4382.307617,4419.487305,5414.000000,4.000000,79.000000,,,,0.000000,4.000000,4.000000,4.000000,4.000000,4.000000,4.000000,4.000000,4.000000,4.000000,4.000000,4.000000,4.000000,4.000000,4.000000,100.000000,,,,,,,,,,,,,,,,,,,,,,,,,,,,
1703494559.234752,1703494559.235244,67.000000,0.000000,4249.102539,4240.384766,4272.692383,4232.820313,4229.871582,4230.512695,4204.743652,4236.282227,4237.692383,4204.487305,4511.538574,4433.717773,4389.102539,4427.179688,5414.000000,4.000000,79.000000,,,,0.000000,4.000000,4.000000,4.000000,4.000000,4.000000,4.000000,4.000000,4.000000,4.000000,4.000000,4.000000,4.000000,4.000000,4.000000,100.000000,,,,,,,,,,,,,,,,,,,,,,,,,,,,
1703494559.242560,1703494559.242952,68.000000,0.000000,4251.410156,4239.487305,4281.410156,4233.077148,4231.666504,4237.051270,4214.358887,4258.205078,4267.179688,4221.922852,4534.871582,4451.025879,4406.538574,4441.153809,5262.000000,4.000000,79.000000,,,,0.000000,4.000000,4.000000,4.000000,4.000000,4.000000,4.000000,4.000000,4.000000,4.000000,4.000000,4.000000,4.000000,4.000000,4.000000,100.000000,,,,,,,,,,,,,,,,,17.000000,0.000000,0.717698,0.051086,-0.673584,0.169067,0.978635,-0.162618,0.087901,-14.407022,-43.452290,64.659294
1703494559.250368,1703494559.250860,69.000000,0.000000,4248.333496,4236.794922,4282.948730,4236.538574,4237.436035,4248.333496,4217.563965,4255.769043,4263.974121,4221.025879,4540.128418,4454.358887,4410.256348,4444.487305,5021.000000,4.000000,79.000000,,,,0.000000,4.000000,4.000000,4.000000,4.000000,4.000000,4.000000,4.000000,4.000000,4.000000,4.000000,4.000000,4.000000,4.000000,4.000000,100.000000,,,,,,,,,,,,,,,,,,,,,,,,,,,,
1703494559.258176,1703494559.258668,70.000000,0.000000,4255.128418,4247.948730,4282.948730,4250.256348,4243.717773,4247.051270,4213.589844,4246.794922,4253.846191,4220.000000,4535.256348,4455.128418,4405.256348,4444.615234,4253.000000,4.000000,79.000000,,,,0.000000,4.000000,4.000000,4.000000,4.000000,4.000000,4.000000,4.000000,4.000000,4.000000,4.000000,4.000000,4.000000,4.000000,4.000000,100.000000,,,,,,,,,,,,,,,,,,,,,,,,,,,,
1703494559.265984,1703494559.266576,71.000000,0.000000,4266.794922,4250.512695,4291.025879,4253.846191,4244.871582,4235.256348,4208.717773,4243.461426,4248.077148,4223.717773,4540.256348,4462.436035,4412.051270,4452.179688,4938.000000,4.000000,79.000000,,,,0.000000,4.000000,4.000000,4.000000,4.000000,4.000000,4.000000,4.000000,4.000000,4.000000,4.000000,4.000000,4.000000,4.000000,4.000000,100.000000,,,,,,,,,,,,,,,,,,,,,,,,,,,,
1703494559.273792,1703494559.274384,72.000000,0.000000,4267.179688,4244.871582,4298.333496,4248.846191,4236.794922,4229.871582,4205.256348,4233.846191,4232.948730,4219.102539,4543.846191,4465.000000,4417.948730,4457.307617,5215.000000,4.000000,79.000000,,,,0.000000,4.000000,4.000000,4.000000,4.000000,4.000000,4.000000,4.000000,4.000000,4.000000,4.000000,4.000000,4.000000,4.000000,4.000000,100.000000,,,,,,,,,,,,,,,,,18.000000,0.000000,0.717783,0.050903,-0.673462,0.169250,0.960566,-0.156269,0.091808,-14.466319,-43.473724,64.876694
1703494559.281600,1703494559.282292,73.000000,0.000000,4265.128418,4247.948730,4301.538574,4255.769043,4233.333496,4233.205078,4202.307617,4215.641113,4208.461426,4204.743652,4540.897461,4464.230957,4412.820313,4453.205078,5460.000000,4.000000,79.000000,,,,0.000000,4.000000,4.000000,4.000000,4.000000,4.000000,4.000000,4.000000,4.000000,4.000000,4.000000,4.000000,4.000000,4.000000,4.000000,100.000000,,,,,,,,,,,,,,,,,,,,,,,,,,,,
1703494559.289408,1703494559.290100,74.000000,0.000000,4272.820313,4248.846191,4303.461426,4265.641113,4242.051270,4230.512695,4200.256348,4203.589844,4195.384766,4197.179688,4541.153809,4464.871582,4411.538574,4453.974121,5938.000000,4.000000,79.000000,,,,0.000000,4.000000,4.000000,4.000000,4.000000,4.000000,4.000000,4.000000,4.000000,4.000000,4.000000,4.000000,4.000000,4.000000,4.000000,100.000000,,,,,,,,,,,,,,,,,,,,,,,,,,,,
1703494559.297216,1703494559.298008,75.000000,0.000000,4277.436035,4246.794922,4301.025879,4263.077148,4242.179688,4220.769043,4200.000000,4205.641113,4204.871582,4207.692383,4545.384766,4462.179688,4417.179688,4458.333496,6224.000000,4.000000,79.000000,,,,0.000000,4.000000,4.000000,4.000000,4.000000,4.000000,4.000000,4.000000,4.000000,4.000000,4.000000,4.000000,4.000000,4.000000,4.000000,100.000000,,,,,,,,,,,,,,,,,,,,,,,,,,,,
1703494559.305024,1703494559.305816,76.000000,0.000000,4275.641113,4251.794922,4300.769043,4260.384766,4233.846191,4220.128418,4200.897461,4215.000000,4217.179688,4218.717773,4552.820313,4461.538574,4418.974121,4458.461426,6685.000000,4.000000,79.000000,,,,0.000000,4.000000,4.000000,4.000000,4.000000,4.000000,4.000000,4.000000,4.000000,4.000000,4.000000,4.000000,4.000000,4.000000,4.000000,100.000000,,,,,,,,,,,,,,,,,19.000000,0.000000,0.717808,0.050537,-0.673401,0.169495,0.979123,-0.151386,0.083018,-14.519688,-43.543018,65.072357
1703494559.312832,1703494559.313723,77.000000,0.000000,4271.025879,4245.512695,4299.487305,4261.025879,4232.563965,4230.384766,4201.025879,4223.205078,4226.794922,4217.820313,4553.205078,4464.743652,4417.179688,4456.282227,7035.000000,4.000000,79.000000,,,,0.000000,4.000000,4.000000,4.000000,4.000000,4.000000,4.000000,4.000000,4.000000,4.000000,4.000000,4.000000,4.000000,4.000000,4.000000,100.000000,,,,,,,,,,,,,,,,,,,,,,,,,,,,
1703494559.320640,1703494559.321531,78.000000,0.000000,4262.948730,4234.871582,4287.051270,4253.589844,4232.179688,4236.282227,4206.153809,4232.051270,4242.948730,4216.282227,4542.820313,4461.922852,4408.846191,4450.641113,5938.000000,4.000000,79.000000,,,,0.000000,4.000000,4.000000,4.000000,4.000000,4.000000,4.000000,4.000000,4.000000,4.000000,4.000000,4.000000,4.000000,4.000000,4.000000,100.000000,,,,,,,,,,,,,,,,,,,,,,,,,,,,
1703494559.328448,1703494559.329439,79.000000,0.000000,4259.615234,4236.794922,4277.948730,4245.256348,4228.077148,4234.615234,4216.410156,4238.077148,4251.922852,4217.179688,4535.897461,4452.563965,4401.538574,4444.615234,6224.000000,4.000000,79.000000,,,,0.000000,4.000000,4.000000,4.000000,4.000000,4.000000,4.000000,4.000000,4.000000,4.000000,4.000000,4.000000,4.000000,4.000000,4.000000,100.000000,,,,,,,,,,,,,,,,,,,,,,,,,,,,
1703494559.336256,1703494559.337247,80.000000,0.000000,4262.307617,4237.051270,4283.717773,4247.820313,4228.461426,4231.153809,4215.641113,4237.051270,4244.358887,4214.487305,4539.487305,4448.461426,4407.948730,4442.948730,6685.000000,4.000000,79.000000,,,,0.000000,4.000000,4.000000,4.000000,4.000000,4.000000,4.000000,4.000000,4.000000,4.000000,4.000000,4.000000,4.000000,4.000000,4.000000,100.000000,,,,,,,,,,,,,,,,,20.000000,0.000000,0.717792,0.050354,-0.673401,0.169617,0.985472,-0.176291,0.090831,-14.567719,-43.555386,65.115128
1703494559.344064,1703494559.345155,81.000000,0.000000,4263.205078,4235.512695,4289.102539,4254.358887,4232.692383,4229.615234,4204.871582,4237.820313,4238.974121,4217.051270,4545.897461,4448.461426,4415.000000,4447.563965,7035.000000,4.000000,79.000000,,,,0.000000,4.000000,4.000000,4.000000,4.000000,4.000000,4.000000,4.000000,4.000000,4.000000,4.000000,4.000000,4.000000,4.000000,4.000000,100.000000,,,,,,,,,,,,,,,,,,,,,,,,,,,,
1703494559.351872,1703494559.352963,82.000000,0.000000,4264.743652,4249.102539,4284.487305,4260.641113,4233.846191,4232.436035,4199.487305,4235.128418,4235.000000,4216.922852,4539.358887,4441.025879,4402.948730,4444.871582,5938.000000,4.000000,79.000000,,,,0.000000,4.000000,4.000000,4.000000,4.000000,4.000000,4.000000,4.000000,4.000000,4.000000,4.000000,4.000000,4.000000,4.000000,4.000000,100.000000,,,,,,,,,,,,,,,,,,,,,,,,,,,,
1703494559.359681,1703494559.360871,83.000000,0.000000,4274.358887,4268.717773,4288.333496,4271.410156,4234.615234,4234.102539,4201.538574,4223.846191,4222.179688,4203.846191,4529.230957,4437.051270,4389.871582,4439.102539,6224.000000,4.000000,79.000000,,,,0.000000,4.000000,4.000000,4.000000,4.000000,4.000000,4.000000,4.000000,4.000000,4.000000,4.000000,4.000000,4.000000,4.000000,4.000000,100.000000,,,,,,,,,,,,,,,,,,,,,,,,,,,,
1703494559.367489,1703494559.368679,84.000000,0.000000,4284.743652,4278.717773,4303.717773,4281.410156,4234.358887,4227.051270,4202.307617,4217.692383,4211.410156,4198.589844,4535.384766,4448.461426,4400.769043,4452.692383,6685.000000,4.000000,79.000000,,,,0.000000,4.000000,4.000000,4.000000,4.000000,4.000000,4.000000,4.000000,4.000000,4.000000,4.000000,4.000000,4.000000,4.000000,4.000000,100.000000,,,,,,,,,,,,,,,,,21.000000,0.000000,0.717758,0.050232,-0.673401,0.169800,0.979612,-0.168966,0.084971,-14.544280,-43.516514,65.020279
1703494559.375296,1703494559.376387,85.000000,0.000000,4283.589844,4277.692383,4308.205078,4282.563965,4232.051270,4217.948730,4198.461426,4215.641113,4202.179688,4198.846191,4542.436035,4453.846191,4406.410156,4463.461426,7035.000000,4.000000,79.000000,,,,0.000000,4.000000,4.000000,4.000000,4.000000,4.000000,4.000000,4.000000,4.000000,4.000000,4.000000,4.000000,4.000000,4.000000,4.000000,100.000000,,,,,,,,,,,,,,,,,,,,,,,,,,,,
1703494559.383105,1703494559.384195,86.000000,0.000000,4277.563965,4270.512695,4300.641113,4277.820313,4231.282227,4218.461426,4195.128418,4211.025879,4196.794922,4197.820313,4537.051270,4446.410156,4396.666504,4453.717773,5938.000000,4.000000,79.000000,,,,0.000000,4.000000,4.000000,4.000000,4.000000,4.000000,4.000000,4.000000,4.000000,4.000000,4.000000,4.000000,4.000000,4.000000,4.000000,100.000000,,,,,,,,,,,,,,,,,,,,,,,,,,,,
1703494559.390913,1703494559.391903,87.000000,0.000000,4276.922852,4266.922852,4299.102539,4276.666504,4232.692383,4228.205078,4197.948730,4210.256348,4207.307617,4210.512695,4535.128418,4446.666504,4400.000000,4449.358887,6224.000000,4.000000,79.000000,,,,0.000000,4.000000,4.000000,4.000000,4.000000,4.000000,4.000000,4.000000,4.000000,4.000000,4.000000,4.000000,4.000000,4.000000,4.000000,100.000000,,,,,,,,,,,,,,,,,,,,,,,,,,,,
1703494559.398721,1703494559.399811,88.000000,0.000000,4274.230957,4264.743652,4299.230957,4279.102539,4233.461426,4234.615234,4201.282227,4213.717773,4217.692383,4216.922852,4538.205078,4451.153809,4403.205078,4453.333496,6685.000000,4.000000,79.000000,,,,0.000000,4.000000,4.000000,4.000000,4.000000,4.000000,4.000000,4.000000,4.000000,4.000000,4.000000,4.000000,4.000000,4.000000,4.000000,100.000000,,,,,,,,,,,,,,,,,22.000000,0.000000,0.717506,0.050354,-0.673645,0.169861,0.975705,-0.159687,0.088390,-14.573186,-43.564861,64.968254
1703494559.406529,1703494559.407619,89.000000,0.000000,4260.641113,4251.153809,4290.256348,4273.333496,4230.897461,4231.410156,4203.205078,4220.256348,4223.205078,4205.384766,4533.461426,4446.410156,4391.025879,4440.641113,7035.000000,4.000000,79.000000,,,,0.000000,4.000000,4.000000,4.000000,4.000000,4.000000,4.000000,4.000000,4.000000,4.000000,4.000000,4.000000,4.000000,4.000000,4.000000,100.000000,,,,,,,,,,,,,,,,,,,,,,,,,,,,
1703494559.414337,1703494559.415427,90.000000,0.000000,4248.077148,4240.769043,4283.461426,4265.000000,4230.897461,4232.948730,4209.487305,4236.153809,4240.769043,4208.077148,4534.358887,4443.717773,4393.205078,4429.358887,5938.000000,4.000000,79.000000,,,,0.000000,4.000000,4.000000,4.000000,4.000000,4.000000,4.000000,4.000000,4.000000,4.000000,4.000000,4.000000,4.000000,4.000000,4.000000,100.000000,,,,,,,,,,,,,,,,,,,,,,,,,,,,
1703494559.422145,1703494559.423136,91.000000,0.000000,4246.282227,4245.897461,4284.487305,4261.666504,4234.102539,4240.769043,4217.051270,4251.666504,4257.820313,4223.077148,4540.384766,4444.615234,4406.538574,4434.743652,6224.000000,4.000000,79.000000,,,,0.000000,4.000000,4.000000,4.000000,4.000000,4.000000,4.000000,4.000000,4.000000,4.000000,4.000000,4.000000,4.000000,4.000000,4.000000,100.000000,,,,,,,,,,,,,,,,,,,,,,,,,,,,
1703494559.429953,1703494559.430944,92.000000,0.000000,4248.461426,4247.051270,4285.256348,4261.025879,4231.153809,4240.256348,4217.948730,4251.922852,4256.282227,4220.384766,4533.333496,4440.128418,4399.230957,4432.051270,6685.000000,4.000000,79.000000,,,,0.000000,4.000000,4.000000,4.000000,4.000000,4.000000,4.000000,4.000000,4.000000,4.000000,4.000000,4.000000,4.000000,4.000000,4.000000,100.000000,,,,,,,,,,,,,,,,,23.000000,0.000000,0.717336,0.050720,-0.673767,0.169983,0.973752,-0.150409,0.087901,-14.665867,-43.491707,64.988091
1703494559.437761,1703494559.438652,93.000000,0.000000,4253.974121,4244.230957,4287.051270,4265.769043,4230.512695,4233.589844,4214.871582,4245.256348,4245.769043,4212.307617,4526.666504,4437.179688,4394.487305,4429.743652,7035.000000,4.000000,79.000000,,,,0.000000,4.000000,4.000000,4.000000,4.000000,4.000000,4.000000,4.000000,4.000000,4.000000,4.000000,4.000000,4.000000,4.000000,4.000000,100.000000,,,,,,,,,,,,,,,,,,,,,,,,,,,,
1703494559.445569,1703494559.446560,94.000000,0.000000,4266.025879,4253.077148,4297.563965,4274.615234,4236.282227,4230.641113,4214.871582,4247.051270,4238.717773,4216.282227,4536.666504,4447.179688,4409.615234,4445.897461,5938.000000,4.000000,79.000000,,,,0.000000,4.000000,4.000000,4.000000,4.000000,4.000000,4.000000,4.000000,4.000000,4.000000,4.000000,4.000000,4.000000,4.000000,4.000000,100.000000,1.000000,75.000000,4.000000,4.000000,4.000000,4.000000,4.000000,4.000000,4.000000,4.000000,4.000000,4.000000,4.000000,4.000000,1.000000,4.000000,,,,,,,,,,,,
1703494559.453377,1703494559.454368,95.000000,0.000000,4279.743652,4264.102539,4313.077148,4279.487305,4230.256348,4231.282227,4217.692383,4250.641113,4240.000000,4229.487305,4552.692383,4466.153809,4422.436035,4465.256348,6224.000000,4.000000,79.000000,,,,0.000000,4.000000,4.000000,4.000000,4.000000,4.000000,4.000000,4.000000,4.000000,4.000000,4.000000,4.000000,4.000000,4.000000,4.000000,100.000000,,,,,,,,,,,,,,,,,,,,,,,,,,,,
1703494559.461185,1703494559.462176,96.000000,0.000000,4287.563965,4266.666504,4319.743652,4283.205078,4229.358887,4230.769043,4215.128418,4242.051270,4234.615234,4233.717773,4556.410156,4476.282227,4423.461426,4469.871582,6685.000000,4.000000,79.000000,,,,0.000000,4.000000,4.000000,4.000000,4.000000,4.000000,4.000000,4.000000,4.000000,4.000000,4.000000,4.000000,4.000000,4.000000,4.000000,100.000000,,,,,,,,,,,,,,,,,24.000000,0.000000,0.717209,0.050903,-0.673889,0.169983,0.972287,-0.162129,0.083018,-14.849280,-43.375870,64.822617
1703494559.468993,1703494559.469884,97.000000,0.000000,4290.000000,4270.897461,4316.922852,4293.205078,4245.769043,4227.179688,4205.512695,4225.512695,4211.410156,4214.615234,4549.102539,4469.230957,4417.307617,4465.000000,7035.000000,4.000000,79.000000,,,,0.000000,4.000000,4.000000,4.000000,4.000000,4.000000,4.000000,4.000000,4.000000,4.000000,4.000000,4.000000,4.000000,4.000000,4.000000,100.000000,,,,,,,,,,,,,,,,,,,,,,,,,,,,
1703494559.476801,1703494559.477792,98.000000,0.000000,4296.025879,4280.897461,4316.025879,4302.692383,4249.615234,4226.410156,4198.846191,4207.820313,4187.820313,4196.666504,4539.871582,4459.358887,4412.179688,4469.743652,5938.000000,4.000000,79.000000,,,,0.000000,4.000000,4.000000,4.000000,4.000000,4.000000,4.000000,4.000000,4.000000,4.000000,4.000000,4.000000,4.000000,4.000000,4.000000,100.000000,,,,,,,,,,,,,,,,,,,,,,,,,,,,
1703494559.484609,1703494559.485600,99.000000,0.000000,4297.179688,4280.128418,4313.974121,4301.410156,4242.179688,4229.743652,4200.128418,4194.615234,4179.102539,4202.820313,4537.436035,4456.666504,4411.410156,4473.205078,6224.000000,4.000000,79.000000,,,,0.000000,4.000000,4.000000,4.000000,4.000000,4.000000,4.000000,4.000000,4.000000,4.000000,4.000000,4.000000,4.000000,4.000000,4.000000,100.000000,,,,,,,,,,,,,,,,,,,,,,,,,,,,
1703494559.492417,1703494559.493508,100.000000,0.000000,4288.461426,4269.615234,4308.717773,4297.948730,4245.641113,4234.615234,4207.307617,4205.128418,4190.769043,4212.436035,4547.179688,4457.948730,4412.948730,4467.307617,6685.000000,4.000000,79.000000,,,,0.000000,4.000000,4.000000,4.000000,4.000000,4.000000,4.000000,4.000000,4.000000,4.000000,4.000000,4.000000,4.000000,4.000000,4.000000,100.000000,,,,,,,,,,,,,,,,,25.000000,0.000000,0.717106,0.051331,-0.673950,0.170044,0.964962,-0.144549,0.074228,-15.047686,-43.288284,64.807022
1703494559.500225,1703494559.501316,101.000000,0.000000,4274.871582,4264.230957,4303.846191,4292.820313,4242.692383,4241.538574,4217.436035,4239.230957,4225.641113,4215.512695,4551.153809,4460.256348,4409.487305,4457.820313,7035.000000,4.000000,79.000000,,,,0.000000,4.000000,4.000000,4.000000,4.000000,4.000000,4.000000,4.000000,4.000000,4.000000,4.000000,4.000000,4.000000,4.000000,4.000000,100.000000,,,,,,,,,,,,,,,,,,,,,,,,,,,,
1703494559.508033,1703494559.509124,102.000000,0.000000,4263.461426,4262.051270,4295.769043,4283.077148,4228.077148,4246.282227,4222.436035,4262.436035,4257.563965,4223.461426,4541.538574,4457.307617,4402.563965,4449.102539,5938.000000,4.000000,79.000000,,,,0.000000,4.000000,4.000000,4.000000,4.000000,4.000000,4.000000,4.000000,4.000000,4.000000,4.000000,4.000000,4.000000,4.000000,4.000000,100.000000,,,,,,,,,,,,,,,,,,,,,,,,,,,,
1703494559.515842,1703494559.516832,103.000000,0.000000,4257.820313,4260.512695,4290.769043,4281.153809,4235.512695,4247.307617,4220.128418,4264.358887,4267.820313,4230.641113,4536.153809,4452.179688,4397.820313,4441.410156,6224.000000,4.000000,79.000000,,,,0.000000,4.000000,4.000000,4.000000,4.000000,4.000000,4.000000,4.000000,4.000000,4.000000,4.000000,4.000000,4.000000,4.000000,4.000000,100.000000,,,,,,,,,,,,,,,,,,,,,,,,,,,,
1703494559.523650,1703494559.524740,104.000000,0.000000,4255.384766,4261.666504,4294.487305,4283.717773,4248.717773,4247.563965,4218.589844,4266.666504,4272.051270,4234.615234,4540.512695,4452.948730,4399.102539,4440.769043,6685.000000,4.000000,79.000000,,,,0.000000,4.000000,4.000000,4.000000,4.000000,4.000000,4.000000,4.000000,4.000000,4.000000,4.000000,4.000000,4.000000,4.000000,4.000000,100.000000,,,,,,,,,,,,,,,,,26.000000,0.000000,0.717198,0.051453,-0.673828,0.170105,0.968868,-0.157246,0.090343,-14.876250,-43.326122,64.959656
1703494559.531458,1703494559.532548,105.000000,0.000000,4259.871582,4262.436035,4299.743652,4283.974121,4239.871582,4242.563965,4219.230957,4264.871582,4267.179688,4233.461426,4539.615234,4456.025879,4403.589844,4449.102539,7035.000000,4.000000,79.000000,,,,0.000000,4.000000,4.000000,4.000000,4.000000,4.000000,4.000000,4.000000,4.000000,4.000000,4.000000,4.000000,4.000000,4.000000,4.000000,100.000000,,,,,,,,,,,,,,,,,,,,,,,,,,,,
1703494559.539266,1703494559.540456,106.000000,0.000000,4271.922852,4263.717773,4306.794922,4286.538574,4237.307617,4233.461426,4215.769043,4254.230957,4248.974121,4225.256348,4536.922852,4462.051270,4402.820313,4457.948730,5938.000000,4.000000,79.000000,,,,0.000000,4.000000,4.000000,4.000000,4.000000,4.000000,4.000000,4.000000,4.000000,4.000000,4.000000,4.000000,4.000000,4.000000,4.000000,100.000000,,,,,,,,,,,,,,,,,,,,,,,,,,,,
1703494559.547074,1703494559.548264,107.000000,0.000000,4285.256348,4272.820313,4316.666504,4295.256348,4245.256348,4231.410156,4214.358887,4245.384766,4238.846191,4219.615234,4540.641113,4472.692383,4403.333496,4468.974121,6224.000000,4.000000,79.000000,,,,0.000000,4.000000,4.000000,4.000000,4.000000,4.000000,4.000000,4.000000,4.000000,4.000000,4.000000,4.000000,4.000000,4.000000,4.000000,100.000000,,,,,,,,,,,,,,,,,,,,,,,,,,,,
1703494559.554882,1703494559.556171,108.000000,0.000000,4293.846191,4283.077148,4324.487305,4305.384766,4246.794922,4236.922852,4214.230957,4238.846191,4231.153809,4221.666504,4542.948730,4478.717773,4410.256348,4477.692383,6685.000000,4.000000,79.000000,,,,0.000000,4.000000,4.000000,4.000000,4.000000,4.000000,4.000000,4.000000,4.000000,4.000000,4.000000,4.000000,4.000000,4.000000,4.000000,100.000000,,,,,,,,,,,,,,,,,27.000000,0.000000,0.717251,0.051697,-0.673706,0.170288,0.974728,-0.162129,0.086925,-14.788626,-43.343510,65.047020
1703494559.562690,1703494559.563979,109.000000,0.000000,4297.307617,4283.461426,4324.230957,4313.077148,4249.102539,4230.000000,4205.897461,4225.128418,4210.512695,4215.512695,4540.000000,4472.436035,4409.871582,4477.307617,7035.000000,4.000000,79.000000,,,,0.000000,4.000000,4.000000,4.000000,4.000000,4.000000,4.000000,4.000000,4.000000,4.000000,4.000000,4.000000,4.000000,4.000000,4.000000,100.000000,,,,,,,,,,,,,,,,,,,,,,,,,,,,
1703494559.570498,1703494559.571688,110.000000,0.000000,4299.487305,4281.025879,4322.948730,4310.256348,4246.153809,4217.563965,4198.077148,4212.948730,4196.538574,4201.794922,4536.922852,4465.769043,4404.615234,4476.794922,5938.000000,4.000000,79.000000,,,,0.000000,4.000000,4.000000,4.000000,4.000000,4.000000,4.000000,4.000000,4.000000,4.000000,4.000000,4.000000,4.000000,4.000000,4.000000,100.000000,,,,,,,,,,,,,,,,,,,,,,,,,,,,
1703494559.578306,1703494559.579495,111.000000,0.000000,4298.205078,4275.769043,4322.692383,4298.846191,4234.615234,4221.666504,4198.846191,4213.077148,4199.615234,4202.692383,4534.615234,4463.333496,4404.358887,4475.512695,6224.000000,4.000000,79.000000,,,,0.000000,4.000000,4.000000,4.000000,4.000000,4.000000,4.000000,4.000000,4.000000,4.000000,4.000000,4.000000,4.000000,4.000000,4.000000,100.000000,,,,,,,,,,,,,,,,,,,,,,,,,,,,
1703494559.586114,1703494559.587204,112.000000,0.000000,4286.153809,4266.538574,4318.077148,4296.666504,4237.820313,4233.077148,4203.461426,4214.487305,4199.487305,4205.641113,4528.974121,4453.333496,4402.436035,4464.487305,6685.000000,4.000000,79.000000,,,,0.000000,4.000000,4.000000,4.000000,4.000000,4.000000,4.000000,4.000000,4.000000,4.000000,4.000000,4.000000,4.000000,4.000000,4.000000,100.000000,,,,,,,,,,,,,,,,,28.000000,0.000000,0.717356,0.051636,-0.673584,0.170349,0.964962,-0.158222,0.090831,-14.726429,-43.175827,64.925652
1703494559.593922,1703494559.595012,113.000000,0.000000,4270.897461,4262.436035,4305.512695,4297.307617,4246.538574,4231.410156,4210.000000,4216.538574,4199.102539,4198.846191,4522.179688,4435.769043,4393.589844,4450.384766,7035.000000,4.000000,79.000000,,,,0.000000,4.000000,4.000000,4.000000,4.000000,4.000000,4.000000,4.000000,4.000000,4.000000,4.000000,4.000000,4.000000,4.000000,4.000000,100.000000,,,,,,,,,,,,,,,,,,,,,,,,,,,,
1703494559.601730,1703494559.602720,114.000000,0.000000,4257.436035,4256.538574,4290.641113,4289.358887,4236.922852,4231.025879,4217.820313,4225.384766,4211.410156,4197.948730,4512.820313,4423.333496,4378.846191,4434.871582,5938.000000,4.000000,79.000000,,,,0.000000,4.000000,4.000000,4.000000,4.000000,4.000000,4.000000,4.000000,4.000000,4.000000,4.000000,4.000000,4.000000,4.000000,4.000000,100.000000,,,,,,,,,,,,,,,,,,,,,,,,,,,,
1703494559.609538,1703494559.610528,115.000000,0.000000,4248.077148,4240.256348,4287.307617,4279.615234,4233.333496,4241.538574,4221.794922,4238.461426,4233.589844,4213.589844,4517.179688,4430.128418,4381.794922,4427.179688,6224.000000,4.000000,79.000000,,,,0.000000,4.000000,4.000000,4.000000,4.000000,4.000000,4.000000,4.000000,4.000000,4.000000,4.000000,4.000000,4.000000,4.000000,4.000000,100.000000,,,,,,,,,,,,,,,,,,,,,,,,,,,,
1703494559.617346,1703494559.618236,116.000000,0.000000,4251.922852,4234.743652,4292.436035,4277.563965,4238.205078,4240.128418,4220.384766,4256.282227,4259.743652,4240.769043,4543.717773,4446.282227,4416.410156,4446.282227,6685.000000,4.000000,79.000000,,,,0.000000,4.000000,4.000000,4.000000,4.000000,4.000000,4.000000,4.000000,4.000000,4.000000,4.000000,4.000000,4.000000,4.000000,4.000000,100.000000,,,,,,,,,,,,,,,,,29.000000,0.000000,0.717481,0.051697,-0.673462,0.170288,0.979123,-0.164083,0.093761,-14.737120,-43.208244,65.016418
1703494559.625154,1703494559.626044,117.000000,0.000000,4256.153809,4245.512695,4292.179688,4280.512695,4235.641113,4231.922852,4217.563965,4265.769043,4271.922852,4252.692383,4555.256348,4449.615234,4432.820313,4457.563965,7035.000000,4.000000,79.000000,,,,0.000000,4.000000,4.000000,4.000000,4.000000,4.000000,4.000000,4.000000,4.000000,4.000000,4.000000,4.000000,4.000000,4.000000,4.000000,100.000000,,,,,,,,,,,,,,,,,,,,,,,,,,,,
1703494559.632962,1703494559.633752,118.000000,0.000000,4248.717773,4247.307617,4289.358887,4282.179688,4239.615234,4235.128418,4214.615234,4254.487305,4258.461426,4238.974121,4540.128418,4443.333496,4414.743652,4443.205078,5938.000000,4.000000,79.000000,,,,0.000000,4.000000,4.000000,4.000000,4.000000,4.000000,4.000000,4.000000,4.000000,4.000000,4.000000,4.000000,4.000000,4.000000,4.000000,100.000000,,,,,,,,,,,,,,,,,,,,,,,,,,,,
1703494559.640770,1703494559.641560,119.000000,0.000000,4250.000000,4243.717773,4295.769043,4285.256348,4248.846191,4238.333496,4214.487305,4242.692383,4244.743652,4228.333496,4533.461426,4446.666504,4415.769043,4442.436035,6224.000000,4.000000,79.000000,,,,0.000000,4.000000,4.000000,4.000000,4.000000,4.000000,4.000000,4.000000,4.000000,4.000000,4.000000,4.000000,4.000000,4.000000,4.000000,100.000000,,,,,,,,,,,,,,,,,,,,,,,,,,,,
1703494559.648579,1703494559.649268,120.000000,0.000000,4269.743652,4256.794922,4312.692383,4299.743652,4247.820313,4232.692383,4214.487305,4246.025879,4242.692383,4234.102539,4545.384766,4461.153809,4434.230957,4463.717773,6685.000000,4.000000,79.000000,,,,0.000000,4.000000,4.000000,4.000000,4.000000,4.000000,4.000000,4.000000,4.000000,4.000000,4.000000,4.000000,4.000000,4.000000,4.000000,100.000000,,,,,,,,,,,,,,,,,30.000000,0.000000,0.717610,0.051697,-0.673401,0.169983,0.980588,-0.161641,0.084971,-14.830074,-43.154087,65.098114
1703494559.656387,1703494559.657076,121.000000,0.000000,4289.743652,4275.256348,4327.948730,4317.307617,4244.743652,4231.025879,4211.666504,4243.589844,4238.205078,4236.922852,4555.256348,4473.974121,4432.692383,4481.922852,7035.000000,4.000000,79.000000,,,,0.000000,4.000000,4.000000,4.000000,4.000000,4.000000,4.000000,4.000000,4.000000,4.000000,4.000000,4.000000,4.000000,4.000000,4.000000,100.000000,,,,,,,,,,,,,,,,,,,,,,,,,,,,
1703494559.664194,1703494559.664784,122.000000,0.000000,4302.563965,4284.871582,4333.461426,4321.538574,4255.897461,4241.922852,4212.692383,4230.897461,4231.922852,4232.820313,4554.871582,4476.666504,4430.641113,4490.641113,5938.000000,4.000000,79.000000,,,,0.000000,4.000000,4.000000,4.000000,4.000000,4.000000,4.000000,4.000000,4.000000,4.000000,4.000000,4.000000,4.000000,4.000000,4.000000,100.000000,,,,,,,,,,,,,,,,,,,,,,,,,,,,
1703494559.672003,1703494559.672692,123.000000,0.000000,4305.384766,4284.743652,4325.512695,4313.846191,4265.769043,4243.589844,4215.641113,4226.153809,4222.563965,4223.717773,4543.846191,4465.769043,4432.051270,4485.128418,6224.000000,4.000000,79.000000,,,,0.000000,4.000000,4.000000,4.000000,4.000000,4.000000,4.000000,4.000000,4.000000,4.000000,4.000000,4.000000,4.000000,4.000000,4.000000,100.000000,,,,,,,,,,,,,,,,,,,,,,,,,,,,
1703494559.679811,1703494559.680500,124.000000,0.000000,4293.461426,4272.307617,4312.563965,4300.897461,4256.538574,4233.461426,4215.769043,4228.974121,4214.871582,4213.846191,4534.358887,4455.256348,4421.922852,4474.743652,6685.000000,4.000000,79.000000,,,,0.000000,4.000000,4.000000,4.000000,4.000000,4.000000,4.000000,4.000000,4.000000,4.000000,4.000000,4.000000,4.000000,4.000000,4.000000,100.000000,,,,,,,,,,,,,,,,,31.000000,0.000000,0.717744,0.051636,-0.673340,0.169678,0.985472,-0.156269,0.092785,-14.830400,-43.238678,65.004967
1703494559.687619,1703494559.688407,125.000000,0.000000,4282.436035,4261.538574,4308.846191,4295.128418,4243.205078,4235.256348,4216.025879,4232.307617,4222.563965,4212.436035,4535.256348,4451.410156,4412.436035,4472.948730,7035.000000,4.000000,79.000000,,,,0.000000,4.000000,4.000000,4.000000,4.000000,4.000000,4.000000,4.000000,4.000000,4.000000,4.000000,4.000000,4.000000,4.000000,4.000000,100.000000,,,,,,,,,,,,,,,,,,,,,,,,,,,,
1703494559.695427,1703494559.696215,126.000000,0.000000,4279.615234,4264.743652,4307.948730,4299.871582,4246.538574,4248.974121,4223.846191,4239.615234,4238.205078,4215.384766,4533.205078,4447.307617,4409.358887,4467.179688,5938.000000,4.000000,79.000000,,,,0.000000,4.000000,4.000000,4.000000,4.000000,4.000000,4.000000,4.000000,4.000000,4.000000,4.000000,4.000000,4.000000,4.000000,4.000000,100.000000,,,,,,,,,,,,,,,,,,,,,,,,,,,,
1703494559.703235,1703494559.704123,127.000000,0.000000,4280.000000,4267.051270,4303.205078,4302.179688,4261.282227,4252.179688,4231.922852,4252.307617,4249.487305,4223.589844,4535.128418,4449.358887,4417.563965,4465.512695,79.000000,4.000000,79.000000,,,,0.000000,4.000000,4.000000,4.000000,4.000000,4.000000,4.000000,4.000000,4.000000,4.000000,4.000000,4.000000,4.000000,4.000000,4.000000,100.000000,,,,,,,,,,,,,,,,,,,,,,,,,,,,
1703494559.711043,1703494559.711931,0.000000,0.000000,4279.230957,4262.692383,4306.794922,4301.025879,4261.538574,4244.487305,4229.358887,4264.871582,4262.307617,4240.256348,4546.666504,4458.333496,4429.615234,4472.307617,4849.000000,4.000000,79.000000,,,,0.000000,4.000000,4.000000,4.000000,4.000000,4.000000,4.000000,4.000000,4.000000,4.000000,4.000000,4.000000,4.000000,4.000000,4.000000,100.000000,,,,,,,,,,,,,,,,,0.000000,0.000000,0.717551,0.051941,-0.673584,0.169434,0.986937,-0.143084,0.089855,-14.964027,-43.264809,64.921135
1703494559.718851,1703494559.719839,1.000000,0.000000,4281.922852,4268.205078,4317.948730,4305.897461,4250.128418,4241.794922,4224.487305,4265.256348,4267.948730,4245.000000,4553.205078,4462.179688,4430.128418,4471.538574,5425.000000,4.000000,79.000000,,,,0.000000,4.000000,4.000000,4.000000,4.000000,4.000000,4.000000,4.000000,4.000000,4.000000,4.000000,4.000000,4.000000,4.000000,4.000000,100.000000,,,,,,,,,,,,,,,,,,,,,,,,,,,,
1703494559.726659,1703494559.727647,2.000000,0.000000,4291.666504,4283.589844,4320.641113,4313.333496,4253.589844,4247.436035,4226.922852,4255.384766,4256.153809,4234.871582,4552.179688,4463.846191,4428.461426,4470.641113,5414.000000,4.000000,79.000000,,,,0.000000,4.000000,4.000000,4.000000,4.000000,4.000000,4.000000,4.000000,4.000000,4.000000,4.000000,4.000000,4.000000,4.000000,4.000000,100.000000,,,,,,,,,,,,,,,,,,,,,,,,,,,,
1703494559.734467,1703494559.735555,3.000000,0.000000,4298.461426,4287.179688,4319.615234,4316.922852,4266.153809,4250.512695,4228.205078,4249.102539,4246.153809,4231.922852,4554.358887,4467.692383,4436.410156,4477.436035,5414.000000,4.000000,79.000000,,,,0.000000,4.000000,4.000000,4.000000,4.000000,4.000000,4.000000,4.000000,4.000000,4.000000,4.000000,4.000000,4.000000,4.000000,4.000000,100.000000,,,,,,,,,,,,,,,,,,,,,,,,,,,,
1703494559.742275,1703494559.743363,4.000000,0.000000,4295.384766,4282.436035,4325.256348,4320.897461,4257.051270,4239.230957,4221.153809,4246.538574,4245.384766,4233.717773,4551.410156,4466.410156,4437.307617,4474.743652,5238.000000,4.000000,79.000000,,,,0.000000,4.000000,4.000000,4.000000,4.000000,4.000000,4.000000,4.000000,4.000000,4.000000,4.000000,4.000000,4.000000,4.000000,4.000000,100.000000,,,,,,,,,,,,,,,,,1.000000,0.000000,0.717414,0.052246,-0.673706,0.169434,0.978147,-0.153827,0.089366,-15.017624,-43.354996,64.895691
1703494559.750083,1703494559.751271,5.000000,0.000000,4292.820313,4287.563965,4329.487305,4321.025879,4245.512695,4229.487305,4212.051270,4243.205078,4243.717773,4231.922852,4541.153809,4463.205078,4427.948730,4468.717773,5020.000000,4.000000,79.000000,,,,0.000000,4.000000,4.000000,4.000000,4.000000,4.000000,4.000000,4.000000,4.000000,4.000000,4.000000,4.000000,4.000000,4.000000,4.000000,100.000000,,,,,,,,,,,,,,,,,,,,,,,,,,,,
1703494559.757891,1703494559.759079,6.000000,0.000000,4293.717773,4293.461426,4328.461426,4320.000000,4257.051270,4237.692383,4210.897461,4240.897461,4243.205078,4232.179688,4537.307617,4463.974121,4429.615234,4474.487305,4256.000000,4.000000,79.000000,,,,0.000000,4.000000,4.000000,4.000000,4.000000,4.000000,4.000000,4.000000,4.000000,4.000000,4.000000,4.000000,4.000000,4.000000,4.000000,100.000000,,,,,,,,,,,,,,,,,,,,,,,,,,,,
1703494559.765699,1703494559.766787,7.000000,0.000000,4290.384766,4281.538574,4326.538574,4320.512695,4263.717773,4247.948730,4220.769043,4240.641113,4247.307617,4234.487305,4541.922852,4464.230957,4436.025879,4475.128418,4941.000000,4.000000,79.000000,,,,0.000000,4.000000,4.000000,4.000000,4.000000,4.000000,4.000000,4.000000,4.000000,4.000000,4.000000,4.000000,4.000000,4.000000,4.000000,100.000000,,,,,,,,,,,,,,,,,,,,,,,,,,,,
1703494559.773507,1703494559.774595,8.000000,0.000000,4278.846191,4264.615234,4320.384766,4313.589844,4259.871582,4248.205078,4230.384766,4242.307617,4249.230957,4233.974121,4543.333496,4458.205078,4434.743652,4464.615234,5222.000000,4.000000,79.000000,,,,0.000000,4.000000,4.000000,4.000000,4.000000,4.000000,4.000000,4.000000,4.000000,4.000000,4.000000,4.000000,4.000000,4.000000,4.000000,100.000000,,,,,,,,,,,,,,,,,2.000000,0.000000,0.717297,0.052673,-0.673767,0.169556,0.966915,-0.155781,0.093273,-15.032529,-43.286163,64.939453
1703494559.781315,1703494559.782303,9.000000,0.000000,4265.769043,4253.846191,4306.153809,4301.922852,4263.717773,4246.538574,4230.897461,4248.077148,4250.769043,4232.051270,4539.743652,4448.589844,4427.179688,4455.897461,5460.000000,4.000000,79.000000,,,,0.000000,4.000000,4.000000,4.000000,4.000000,4.000000,4.000000,4.000000,4.000000,4.000000,4.000000,4.000000,4.000000,4.000000,4.000000,100.000000,,,,,,,,,,,,,,,,,,,,,,,,,,,,
1703494559.789123,1703494559.790111,10.000000,0.000000,4257.692383,4246.410156,4296.025879,4295.769043,4265.769043,4246.282227,4227.436035,4248.333496,4255.641113,4229.615234,4533.333496,4441.282227,4419.487305,4449.615234,5933.000000,4.000000,79.000000,,,,0.000000,4.000000,4.000000,4.000000,4.000000,4.000000,4.000000,4.000000,4.000000,4.000000,4.000000,4.000000,4.000000,4.000000,4.000000,100.000000,,,,,,,,,,,,,,,,,,,,,,,,,,,,
1703494559.796931,1703494559.797819,11.000000,0.000000,4259.102539,4246.666504,4299.615234,4293.205078,4259.487305,4243.974121,4227.307617,4246.794922,4260.128418,4230.512695,4533.717773,4445.897461,4420.512695,4448.589844,6222.000000,4.000000,79.000000,,,,0.000000,4.000000,4.000000,4.000000,4.000000,4.000000,4.000000,4.000000,4.000000,4.000000,4.000000,4.000000,4.000000,4.000000,4.000000,100.000000,,,,,,,,,,,,,,,,,,,,,,,,,,,,
1703494559.804739,1703494559.805627,12.000000,0.000000,4268.077148,4247.563965,4304.487305,4293.717773,4259.487305,4244.358887,4225.897461,4256.538574,4263.589844,4234.487305,4548.461426,4458.205078,4428.846191,4459.230957,6685.000000,4.000000,79.000000,,,,0.000000,4.000000,4.000000,4.000000,4.000000,4.000000,4.000000,4.000000,4.000000,4.000000,4.000000,4.000000,4.000000,4.000000,4.000000,100.000000,,,,,,,,,,,,,,,,,3.000000,0.000000,0.717140,0.053040,-0.673828,0.169861,0.962031,-0.167989,0.088878,-14.945942,-43.157547,64.962173
1703494559.812548,1703494559.813335,13.000000,0.000000,4275.897461,4243.974121,4305.384766,4300.384766,4263.077148,4243.974121,4222.307617,4259.358887,4258.461426,4233.846191,4555.641113,4461.794922,4428.974121,4468.974121,7035.000000,4.000000,79.000000,,,,0.000000,4.000000,4.000000,4.000000,4.000000,4.000000,4.000000,4.000000,4.000000,4.000000,4.000000,4.000000,4.000000,4.000000,4.000000,100.000000,,,,,,,,,,,,,,,,,,,,,,,,,,,,
1703494559.820356,1703494559.821243,14.000000,0.000000,4287.692383,4251.410156,4313.333496,4308.077148,4261.153809,4237.563965,4222.179688,4248.974121,4249.615234,4236.794922,4552.051270,4465.256348,4430.641113,4478.333496,5933.000000,4.000000,79.000000,,,,0.000000,4.000000,4.000000,4.000000,4.000000,4.000000,4.000000,4.000000,4.000000,4.000000,4.000000,4.000000,4.000000,4.000000,4.000000,100.000000,,,,,,,,,,,,,,,,,,,,,,,,,,,,
1703494559.828164,1703494559.829051,15.000000,0.000000,4303.717773,4264.615234,4327.692383,4318.077148,4262.948730,4236.153809,4221.410156,4247.436035,4251.794922,4247.563965,4560.897461,4478.205078,4444.230957,4493.846191,6222.000000,4.000000,79.000000,,,,0.000000,4.000000,4.000000,4.000000,4.000000,4.000000,4.000000,4.000000,4.000000,4.000000,4.000000,4.000000,4.000000,4.000000,4.000000,100.000000,,,,,,,,,,,,,,,,,,,,,,,,,,,,
1703494559.835972,1703494559.836959,16.000000,0.000000,4305.769043,4262.051270,4332.436035,4326.922852,4268.717773,4236.666504,4219.615234,4251.922852,4258.461426,4251.410156,4574.358887,4484.230957,4448.846191,4497.948730,0.000000,4.000000,79.000000,,,,0.000000,4.000000,4.000000,4.000000,4.000000,4.000000,4.000000,4.000000,4.000000,4.000000,4.000000,4.000000,4.000000,4.000000,4.000000,100.000000,,,,,,,,,,,,,,,,,4.000000,0.000000,0.717073,0.053162,-0.673828,0.170105,0.971310,-0.157734,0.083018,-14.868014,-43.291790,65.015961
1703494559.843780,1703494559.844767,17.000000,0.000000,4300.769043,4252.820313,4328.974121,4321.282227,4265.769043,4235.641113,4219.358887,4250.256348,4259.743652,4251.666504,4573.333496,4479.615234,4444.871582,4491.153809,0.000000,4.000000,79.000000,,,,0.000000,4.000000,4.000000,4.000000,4.000000,4.000000,4.000000,4.000000,4.000000,4.000000,4.000000,4.000000,4.000000,4.000000,4.000000,100.000000,,,,,,,,,,,,,,,,,,,,,,,,,,,,
1703494559.851588,1703494559.852675,18.000000,0.000000,4294.102539,4251.282227,4321.794922,4309.230957,4259.743652,4238.974121,4218.333496,4249.230957,4261.794922,4249.102539,4559.102539,4472.820313,4439.230957,4483.205078,0.000000,4.000000,79.000000,,,,0.000000,4.000000,4.000000,4.000000,4.000000,4.000000,4.000000,4.000000,4.000000,4.000000,4.000000,4.000000,4.000000,4.000000,4.000000,100.000000,,,,,,,,,,,,,,,,,,,,,,,,,,,,
1703494559.859396,1703494559.860483,19.000000,0.000000,4278.461426,4250.384766,4309.487305,4309.487305,4261.794922,4240.897461,4217.692383,4250.641113,4264.615234,4237.948730,4547.307617,4462.820313,4426.153809,4471.538574,0.000000,4.000000,79.000000,,,,0.000000,4.000000,4.000000,4.000000,4.000000,4.000000,4.000000,4.000000,4.000000,4.000000,4.000000,4.000000,4.000000,4.000000,4.000000,100.000000,,,,,,,,,,,,,,,,,,,,,,,,,,,,
1703494559.867204,1703494559.868391,20.000000,0.000000,4268.717773,4247.179688,4303.974121,4314.487305,4265.384766,4238.974121,4221.922852,4248.589844,4262.820313,4235.512695,4545.000000,4456.922852,4413.461426,4463.461426,0.000000,4.000000,79.000000,,,,0.000000,4.000000,4.000000,4.000000,4.000000,4.000000,4.000000,4.000000,4.000000,4.000000,4.000000,4.000000,4.000000,4.000000,4.000000,100.000000,,,,,,,,,,,,,,,,,5.000000,0.000000,0.717134,0.052917,-0.673767,0.170166,0.982053,-0.162618,0.090343,-14.747880,-43.329277,65.064362
1703494559.875012,1703494559.876199,21.000000,0.000000,4271.282227,4248.974121,4310.897461,4314.358887,4266.153809,4241.922852,4228.589844,4250.897461,4263.333496,4246.410156,4547.179688,4461.922852,4407.820313,4460.897461,0.000000,4.000000,79.000000,,,,0.000000,4.000000,4.000000,4.000000,4.000000,4.000000,4.000000,4.000000,4.000000,4.000000,4.000000,4.000000,4.000000,4.000000,4.000000,100.000000,,,,,,,,,,,,,,,,,,,,,,,,,,,,
1703494559.882820,1703494559.884107,22.000000,0.000000,4270.000000,4251.282227,4311.410156,4312.948730,4261.153809,4243.589844,4230.769043,4256.410156,4268.589844,4250.512695,4545.897461,4461.025879,4398.333496,4458.717773,0.000000,4.000000,79.000000,,,,0.000000,4.000000,4.000000,4.000000,4.000000,4.000000,4.000000,4.000000,4.000000,4.000000,4.000000,4.000000,4.000000,4.000000,4.000000,100.000000,,,,,,,,,,,,,,,,,,,,,,,,,,,,
1703494559.890628,1703494559.891915,23.000000,0.000000,4263.717773,4244.230957,4301.794922,4307.179688,4252.307617,4241.410156,4228.717773,4254.743652,4265.384766,4243.589844,4539.871582,4449.102539,4388.589844,4456.666504,0.000000,4.000000,79.000000,,,,0.000000,4.000000,4.000000,4.000000,4.000000,4.000000,4.000000,4.000000,4.000000,4.000000,4.000000,4.000000,4.000000,4.000000,4.000000,100.000000,,,,,,,,,,,,,,,,,,,,,,,,,,,,
1703494559.898436,1703494559.899823,24.000000,0.000000,4264.487305,4239.487305,4301.666504,4302.179688,4253.974121,4246.025879,4224.615234,4248.589844,4253.077148,4240.384766,4535.512695,4443.974121,4389.615234,4455.000000,0.000000,4.000000,79.000000,,,,0.000000,4.000000,4.000000,4.000000,4.000000,4.000000,4.000000,4.000000,4.000000,4.000000,4.000000,4.000000,4.000000,4.000000,4.000000,100.000000,,,,,,,,,,,,,,,,,6.000000,0.000000,0.717104,0.052551,-0.673828,0.170166,0.972775,-0.157246,0.077158,-14.956426,-43.196350,65.074593
1703494559.906244,1703494559.907630,25.000000,0.000000,4273.589844,4246.922852,4311.538574,4308.974121,4264.102539,4246.025879,4222.820313,4247.692383,4251.794922,4243.717773,4541.025879,4451.282227,4393.077148,4460.384766,0.000000,4.000000,79.000000,,,,0.000000,4.000000,4.000000,4.000000,4.000000,4.000000,4.000000,4.000000,4.000000,4.000000,4.000000,4.000000,4.000000,4.000000,4.000000,100.000000,,,,,,,,,,,,,,,,,,,,,,,,,,,,
1703494559.914052,1703494559.915538,26.000000,0.000000,4282.692383,4255.641113,4317.692383,4316.538574,4262.307617,4239.230957,4226.538574,4250.897461,4264.871582,4249.743652,4554.487305,4462.436035,4402.051270,4473.846191,0.000000,4.000000,79.000000,,,,0.000000,4.000000,4.000000,4.000000,4.000000,4.000000,4.000000,4.000000,4.000000,4.000000,4.000000,4.000000,4.000000,4.000000,4.000000,100.000000,,,,,,,,,,,,,,,,,,,,,,,,,,,,
1703494559.921860,1703494559.923346,27.000000,0.000000,4283.974121,4260.384766,4316.538574,4313.717773,4256.922852,4241.153809,4226.794922,4249.615234,4265.641113,4252.692383,4558.077148,4467.563965,4412.820313,4480.256348,0.000000,4.000000,79.000000,,,,0.000000,4.000000,4.000000,4.000000,4.000000,4.000000,4.000000,4.000000,4.000000,4.000000,4.000000,4.000000,4.000000,4.000000,4.000000,100.000000,,,,,,,,,,,,,,,,,,,,,,,,,,,,
1703494559.929668,1703494559.931154,28.000000,0.000000,4282.563965,4262.820313,4314.102539,4309.743652,4268.589844,4244.487305,4220.512695,4245.000000,4250.641113,4246.153809,4551.282227,4465.769043,4409.615234,4475.512695,0.000000,4.000000,79.000000,,,,0.000000,4.000000,4.000000,4.000000,4.000000,4.000000,4.000000,4.000000,4.000000,4.000000,4.000000,4.000000,4.000000,4.000000,4.000000,100.000000,,,,,,,,,,,,,,,,,7.000000,0.000000,0.717308,0.052307,-0.673645,0.170105,0.978635,-0.168966,0.090831,-15.160783,-43.060051,65.067131
1703494559.937476,1703494559.938962,29.000000,0.000000,4291.153809,4262.563965,4315.000000,4311.410156,4270.512695,4244.358887,4219.358887,4243.205078,4246.922852,4240.128418,4551.922852,4461.922852,4406.282227,4478.077148,0.000000,4.000000,79.000000,,,,0.000000,4.000000,4.000000,4.000000,4.000000,4.000000,4.000000,4.000000,4.000000,4.000000,4.000000,4.000000,4.000000,4.000000,4.000000,100.000000,,,,,,,,,,,,,,,,,,,,,,,,,,,,
1703494559.945284,1703494559.946670,30.000000,0.000000,4295.769043,4262.692383,4316.282227,4310.769043,4255.641113,4246.282227,4225.641113,4245.897461,4257.692383,4246.025879,4558.589844,4461.794922,4414.743652,4485.384766,0.000000,4.000000,79.000000,,,,0.000000,4.000000,4.000000,4.000000,4.000000,4.000000,4.000000,4.000000,4.000000,4.000000,4.000000,4.000000,4.000000,4.000000,4.000000,100.000000,1.000000,100.000000,4.000000,4.000000,4.000000,4.000000,4.000000,4.000000,4.000000,4.000000,4.000000,4.000000,4.000000,4.000000,4.000000,4.000000,,,,,,,,,,,,
1703494559.953092,1703494559.954578,31.000000,0.000000,4286.794922,4263.205078,4310.897461,4305.769043,4253.846191,4247.948730,4230.384766,4250.769043,4265.128418,4251.538574,4553.974121,4462.179688,4415.128418,4481.538574,0.000000,4.000000,79.000000,,,,0.000000,4.000000,4.000000,4.000000,4.000000,4.000000,4.000000,4.000000,4.000000,4.000000,4.000000,4.000000,4.000000,4.000000,4.000000,100.000000,,,,,,,,,,,,,,,,,,,,,,,,,,,,
1703494559.960900,1703494559.962387,32.000000,0.000000,4280.128418,4259.230957,4303.589844,4304.230957,4265.897461,4246.794922,4230.256348,4249.358887,4264.230957,4239.487305,4539.487305,4454.487305,4400.000000,4473.974121,0.000000,4.000000,79.000000,,,,0.000000,4.000000,4.000000,4.000000,4.000000,4.000000,4.000000,4.000000,4.000000,4.000000,4.000000,4.000000,4.000000,4.000000,4.000000,100.000000,,,,,,,,,,,,,,,,,8.000000,0.000000,0.717440,0.052063,-0.673523,0.170105,0.980100,-0.148944,0.078135,-15.094705,-43.170712,65.160423
1703494559.968709,1703494559.970295,33.000000,0.000000,4283.077148,4259.487305,4307.436035,4308.717773,4272.436035,4247.179688,4230.769043,4246.282227,4258.333496,4230.512695,4535.897461,4447.307617,4395.769043,4475.384766,0.000000,4.000000,79.000000,,,,0.000000,4.000000,4.000000,4.000000,4.000000,4.000000,4.000000,4.000000,4.000000,4.000000,4.000000,4.000000,4.000000,4.000000,4.000000,100.000000,,,,,,,,,,,,,,,,,,,,,,,,,,,,
1703494559.976517,1703494559.978103,34.000000,0.000000,4284.871582,4264.230957,4312.820313,4310.769043,4268.333496,4243.333496,4230.897461,4243.461426,4252.948730,4230.641113,4537.563965,4445.897461,4398.846191,4474.487305,0.000000,4.000000,79.000000,,,,0.000000,4.000000,4.000000,4.000000,4.000000,4.000000,4.000000,4.000000,4.000000,4.000000,4.000000,4.000000,4.000000,4.000000,4.000000,100.000000,,,,,,,,,,,,,,,,,,,,,,,,,,,,
1703494559.984325,1703494559.985911,35.000000,0.000000,4277.820313,4260.256348,4307.563965,4307.179688,4260.128418,4238.589844,4229.743652,4236.922852,4250.641113,4223.077148,4524.487305,4443.461426,4392.051270,4460.897461,0.000000,4.000000,79.000000,,,,0.000000,4.000000,4.000000,4.000000,4.000000,4.000000,4.000000,4.000000,4.000000,4.000000,4.000000,4.000000,4.000000,4.000000,4.000000,100.000000,,,,,,,,,,,,,,,,,,,,,,,,,,,,
1703494559.992133,1703494559.993619,36.000000,0.000000,4273.846191,4254.615234,4302.948730,4305.000000,4258.846191,4243.077148,4230.512695,4237.179688,4250.641113,4218.846191,4517.563965,4441.025879,4390.000000,4456.410156,0.000000,4.000000,79.000000,,,,0.000000,4.000000,4.000000,4.000000,4.000000,4.000000,4.000000,4.000000,4.000000,4.000000,4.000000,4.000000,4.000000,4.000000,4.000000,100.000000,,,,,,,,,,,,,,,,,9.000000,0.000000,0.717464,0.051941,-0.673523,0.170044,0.978147,-0.159199,0.082530,-15.068567,-43.120308,65.061043
1703494559.999941,1703494560.001427,37.000000,0.000000,4281.025879,4260.769043,4309.487305,4308.461426,4264.615234,4247.436035,4230.512695,4242.948730,4250.641113,4228.589844,4531.666504,4443.205078,4400.641113,4469.743652,0.000000,4.000000,79.000000,,,,0.000000,4.000000,4.000000,4.000000,4.000000,4.000000,4.000000,4.000000,4.000000,4.000000,4.000000,4.000000,4.000000,4.000000,4.000000,100.000000,,,,,,,,,,,,,,,,,,,,,,,,,,,,
1703494560.007749,1703494560.009135,38.000000,0.000000,4281.922852,4267.436035,4311.666504,4311.794922,4263.974121,4245.897461,4230.256348,4240.000000,4250.256348,4233.589844,4535.641113,4446.410156,4401.794922,4472.307617,0.000000,4.000000,79.000000,,,,0.000000,4.000000,4.000000,4.000000,4.000000,4.000000,4.000000,4.000000,4.000000,4.000000,4.000000,4.000000,4.000000,4.000000,4.000000,100.000000,,,,,,,,,,,,,,,,,,,,,,,,,,,,
1703494560.015557,1703494560.016943,39.000000,0.000000,4269.871582,4265.128418,4304.102539,4311.410156,4258.589844,4246.794922,4230.769043,4234.230957,4249.102539,4225.128418,4520.641113,4445.000000,4391.153809,4456.282227,0.000000,4.000000,79.000000,,,,0.000000,4.000000,4.000000,4.000000,4.000000,4.000000,4.000000,4.000000,4.000000,4.000000,4.000000,4.000000,4.000000,4.000000,4.000000,100.000000,,,,,,,,,,,,,,,,,,,,,,,,,,,,
1703494560.023365,1703494560.024651,40.000000,0.000000,4262.051270,4261.922852,4300.256348,4303.589844,4262.563965,4250.256348,4231.282227,4235.256348,4246.666504,4216.153809,4511.153809,4443.205078,4386.794922,4446.025879,0.000000,4.000000,79.000000,,,,0.000000,4.000000,4.000000,4.000000,4.000000,4.000000,4.000000,4.000000,4.000000,4.000000,4.000000,4.000000,4.000000,4.000000,4.000000,100.000000,,,,,,,,,,,,,,,,,10.000000,0.000000,0.717598,0.052063,-0.673401,0.169922,0.979123,-0.149921,0.095715,-15.011711,-43.174942,65.154938
1703494560.031173,1703494560.032459,41.000000,0.000000,4264.358887,4259.871582,4300.384766,4296.410156,4262.307617,4249.615234,4233.589844,4237.692383,4249.358887,4216.794922,4510.641113,4439.230957,4387.051270,4449.102539,0.000000,4.000000,79.000000,,,,0.000000,4.000000,4.000000,4.000000,4.000000,4.000000,4.000000,4.000000,4.000000,4.000000,4.000000,4.000000,4.000000,4.000000,4.000000,100.000000,,,,,,,,,,,,,,,,,,,,,,,,,,,,
1703494560.038981,1703494560.040167,42.000000,0.000000,4264.230957,4253.846191,4298.461426,4299.487305,4251.922852,4250.769043,4238.077148,4238.846191,4252.692383,4218.589844,4509.871582,4436.410156,4385.128418,4453.333496,0.000000,4.000000,79.000000,,,,0.000000,4.000000,4.000000,4.000000,4.000000,4.000000,4.000000,4.000000,4.000000,4.000000,4.000000,4.000000,4.000000,4.000000,4.000000,100.000000,,,,,,,,,,,,,,,,,,,,,,,,,,,,
1703494560.046789,1703494560.048075,43.000000,0.000000,4259.487305,4248.077148,4296.025879,4301.282227,4245.256348,4247.436035,4236.794922,4235.769043,4241.153809,4204.487305,4507.563965,4432.179688,4381.922852,4451.025879,0.000000,4.000000,79.000000,,,,0.000000,4.000000,4.000000,4.000000,4.000000,4.000000,4.000000,4.000000,4.000000,4.000000,4.000000,4.000000,4.000000,4.000000,4.000000,100.000000,,,,,,,,,,,,,,,,,,,,,,,,,,,,
1703494560.054597,1703494560.055883,44.000000,0.000000,4257.307617,4246.153809,4295.769043,4293.333496,4243.846191,4237.051270,4230.256348,4229.871582,4235.000000,4198.974121,4505.512695,4429.230957,4379.358887,4446.666504,0.000000,4.000000,79.000000,,,,0.000000,4.000000,4.000000,4.000000,4.000000,4.000000,4.000000,4.000000,4.000000,4.000000,4.000000,4.000000,4.000000,4.000000,4.000000,100.000000,,,,,,,,,,,,,,,,,11.000000,0.000000,0.717671,0.052246,-0.673340,0.169800,0.985472,-0.164571,0.084483,-15.010540,-43.274117,65.156113
1703494560.062405,1703494560.063691,45.000000,0.000000,4258.205078,4242.820313,4296.282227,4291.922852,4240.128418,4232.820313,4228.077148,4234.102539,4246.794922,4218.717773,4506.410156,4435.256348,4383.717773,4450.897461,0.000000,4.000000,79.000000,,,,0.000000,4.000000,4.000000,4.000000,4.000000,4.000000,4.000000,4.000000,4.000000,4.000000,4.000000,4.000000,4.000000,4.000000,4.000000,100.000000,,,,,,,,,,,,,,,,,,,,,,,,,,,,
1703494560.070213,1703494560.071399,46.000000,0.000000,4260.384766,4243.846191,4300.128418,4297.179688,4237.051270,4234.358887,4228.846191,4232.436035,4246.282227,4219.871582,4511.025879,4438.205078,4388.077148,4459.871582,0.000000,4.000000,79.000000,,,,0.000000,4.000000,4.000000,4.000000,4.000000,4.000000,4.000000,4.000000,4.000000,4.000000,4.000000,4.000000,4.000000,4.000000,4.000000,100.000000,,,,,,,,,,,,,,,,,,,,,,,,,,,,
1703494560.078021,1703494560.079307,47.000000,0.000000,4265.128418,4256.794922,4305.512695,4298.461426,4241.922852,4233.077148,4227.820313,4217.692383,4228.077148,4200.769043,4508.974121,4435.769043,4381.922852,4460.897461,0.000000,4.000000,79.000000,,,,0.000000,4.000000,4.000000,4.000000,4.000000,4.000000,4.000000,4.000000,4.000000,4.000000,4.000000,4.000000,4.000000,4.000000,4.000000,100.000000,,,,,,,,,,,,,,,,,,,,,,,,,,,,
1703494560.085829,1703494560.087115,48.000000,0.000000,4272.948730,4269.487305,4310.384766,4305.000000,4255.128418,4232.563965,4225.641113,4216.794922,4225.000000,4202.948730,4503.589844,4438.846191,4380.897461,4459.102539,0.000000,4.000000,79.000000,,,,0.000000,4.000000,4.000000,4.000000,4.000000,4.000000,4.000000,4.000000,4.000000,4.000000,4.000000,4.000000,4.000000,4.000000,4.000000,100.000000,,,,,,,,,,,,,,,,,12.000000,0.000000,0.717543,0.052429,-0.673462,0.169800,0.969845,-0.149921,0.091320,-15.059485,-43.230038,65.107170
