title:ملاح حمام, start timestamp:1703495939.176273, stop timestamp:1703495952.731044, headset type:EPOCX, headset serial:E50206EF, headset firmware:720, channels:67, sampling rate:eeg_128;mot_32, samples:1737      , version:2.2, 
Timestamp,OriginalTimestamp,EEG.Counter,EEG.Interpolated,EEG.AF3,EEG.F7,EEG.F3,EEG.FC5,EEG.T7,EEG.P7,EEG.O1,EEG.O2,EEG.P8,EEG.T8,EEG.FC6,EEG.F4,EEG.F8,EEG.AF4,EEG.RawCq,EEG.Battery,EEG.BatteryPercent,MarkerIndex,MarkerType,MarkerValueInt,EEG.MarkerHardware,CQ.AF3,CQ.F7,CQ.F3,CQ.FC5,CQ.T7,CQ.P7,CQ.O1,CQ.O2,CQ.P8,CQ.T8,CQ.FC6,CQ.F4,CQ.F8,CQ.AF4,CQ.Overall,EQ.SampleRateQuality,EQ.OVERALL,EQ.AF3,EQ.F7,EQ.F3,EQ.FC5,EQ.T7,EQ.P7,EQ.O1,EQ.O2,EQ.P8,EQ.T8,EQ.FC6,EQ.F4,EQ.F8,EQ.AF4,MOT.CounterMems,MOT.InterpolatedMems,MOT.Q0,MOT.Q1,MOT.Q2,MOT.Q3,MOT.AccX,MOT.AccY,MOT.AccZ,MOT.MagX,MOT.MagY,MOT.MagZ
1703495939.176273,1703495939.176422,92.000000,0.000000,4224.743652,4217.563965,4285.256348,4285.256348,4214.871582,4201.282227,4234.358887,4188.333496,4216.410156,4220.897461,4516.282227,4466.666504,4349.743652,4446.025879,6651.000000,4.000000,75.000000,,,,0.000000,4.000000,4.000000,4.000000,4.000000,4.000000,4.000000,4.000000,4.000000,4.000000,4.000000,4.000000,4.000000,4.000000,4.000000,100.000000,,,,,,,,,,,,,,,,,23.000000,0.000000,0.675806,0.250000,-0.662781,0.203735,0.992797,0.078135,-0.009767,-17.281595,-38.326466,65.072266
1703495939.184081,1703495939.184130,93.000000,0.000000,4227.307617,4217.307617,4282.948730,4283.077148,4213.846191,4201.153809,4235.128418,4171.666504,4213.589844,4204.102539,4506.666504,4459.230957,4345.769043,4431.538574,6264.000000,4.000000,75.000000,,,,0.000000,4.000000,4.000000,4.000000,4.000000,4.000000,4.000000,4.000000,4.000000,4.000000,4.000000,4.000000,4.000000,4.000000,4.000000,100.000000,,,,,,,,,,,,,,,,,,,,,,,,,,,,
1703495939.191889,1703495939.192038,94.000000,0.000000,4234.871582,4217.820313,4284.871582,4288.846191,4213.846191,4201.538574,4239.230957,4163.589844,4215.000000,4193.333496,4507.563965,4451.282227,4347.307617,4431.666504,5941.000000,4.000000,75.000000,,,,0.000000,4.000000,4.000000,4.000000,4.000000,4.000000,4.000000,4.000000,4.000000,4.000000,4.000000,4.000000,4.000000,4.000000,4.000000,100.000000,,,,,,,,,,,,,,,,,,,,,,,,,,,,
1703495939.199697,1703495939.199846,95.000000,0.000000,4226.153809,4215.512695,4284.871582,4282.820313,4214.487305,4206.282227,4240.384766,4169.230957,4215.512695,4198.846191,4509.230957,4452.692383,4344.743652,4428.974121,6195.000000,4.000000,75.000000,,,,0.000000,4.000000,4.000000,4.000000,4.000000,4.000000,4.000000,4.000000,4.000000,4.000000,4.000000,4.000000,4.000000,4.000000,4.000000,100.000000,,,,,,,,,,,,,,,,,,,,,,,,,,,,
1703495939.207505,1703495939.207754,96.000000,0.000000,4226.153809,4214.487305,4282.179688,4276.025879,4214.102539,4222.692383,4240.769043,4178.333496,4224.102539,4200.512695,4512.948730,4459.358887,4349.230957,4425.128418,6651.000000,4.000000,75.000000,,,,0.000000,4.000000,4.000000,4.000000,4.000000,4.000000,4.000000,4.000000,4.000000,4.000000,4.000000,4.000000,4.000000,4.000000,4.000000,100.000000,,,,,,,,,,,,,,,,,24.000000,0.000000,0.675824,0.250000,-0.662781,0.203674,0.985960,0.058113,-0.001953,-17.320103,-38.277153,64.998375
1703495939.215313,1703495939.215562,97.000000,0.000000,4231.538574,4214.871582,4285.384766,4283.717773,4215.000000,4234.615234,4244.743652,4187.436035,4233.589844,4208.717773,4523.974121,4466.538574,4361.922852,4445.512695,6264.000000,4.000000,75.000000,,,,0.000000,4.000000,4.000000,4.000000,4.000000,4.000000,4.000000,4.000000,4.000000,4.000000,4.000000,4.000000,4.000000,4.000000,4.000000,100.000000,,,,,,,,,,,,,,,,,,,,,,,,,,,,
1703495939.223121,1703495939.223470,98.000000,0.000000,4228.205078,4217.179688,4293.974121,4291.410156,4218.589844,4236.410156,4248.333496,4198.205078,4236.410156,4220.384766,4527.307617,4469.102539,4361.922852,4464.487305,5941.000000,4.000000,75.000000,,,,0.000000,4.000000,4.000000,4.000000,4.000000,4.000000,4.000000,4.000000,4.000000,4.000000,4.000000,4.000000,4.000000,4.000000,4.000000,100.000000,,,,,,,,,,,,,,,,,,,,,,,,,,,,
1703495939.230929,1703495939.231278,99.000000,0.000000,4236.282227,4225.512695,4297.820313,4293.846191,4219.487305,4232.948730,4248.589844,4200.384766,4231.922852,4205.256348,4518.974121,4468.974121,4355.512695,4451.025879,6195.000000,4.000000,75.000000,,,,0.000000,4.000000,4.000000,4.000000,4.000000,4.000000,4.000000,4.000000,4.000000,4.000000,4.000000,4.000000,4.000000,4.000000,4.000000,100.000000,,,,,,,,,,,,,,,,,,,,,,,,,,,,
1703495939.238737,1703495939.239186,100.000000,0.000000,4249.358887,4230.384766,4296.153809,4297.307617,4218.205078,4224.102539,4248.589844,4200.641113,4224.102539,4190.128418,4516.538574,4475.128418,4358.461426,4437.692383,6651.000000,4.000000,75.000000,,,,0.000000,4.000000,4.000000,4.000000,4.000000,4.000000,4.000000,4.000000,4.000000,4.000000,4.000000,4.000000,4.000000,4.000000,4.000000,100.000000,,,,,,,,,,,,,,,,,25.000000,0.000000,0.675907,0.249939,-0.662720,0.203674,0.991820,0.069344,-0.001465,-17.371426,-38.166103,65.115204
1703495939.246545,1703495939.246994,101.000000,0.000000,4250.897461,4227.307617,4291.666504,4297.051270,4216.922852,4216.410156,4247.692383,4204.743652,4217.563965,4198.461426,4523.333496,4478.077148,4360.256348,4450.256348,6264.000000,4.000000,75.000000,,,,0.000000,4.000000,4.000000,4.000000,4.000000,4.000000,4.000000,4.000000,4.000000,4.000000,4.000000,4.000000,4.000000,4.000000,4.000000,100.000000,,,,,,,,,,,,,,,,,,,,,,,,,,,,
1703495939.254353,1703495939.254902,102.000000,0.000000,4248.846191,4227.307617,4292.820313,4295.384766,4217.563965,4215.000000,4245.512695,4201.538574,4215.641113,4200.000000,4523.974121,4469.615234,4356.538574,4457.820313,5941.000000,4.000000,75.000000,,,,0.000000,4.000000,4.000000,4.000000,4.000000,4.000000,4.000000,4.000000,4.000000,4.000000,4.000000,4.000000,4.000000,4.000000,4.000000,100.000000,,,,,,,,,,,,,,,,,,,,,,,,,,,,
1703495939.262161,1703495939.262710,103.000000,0.000000,4248.717773,4229.358887,4294.102539,4297.820313,4217.692383,4214.358887,4244.102539,4199.615234,4213.333496,4191.410156,4514.871582,4460.512695,4353.717773,4446.794922,6195.000000,4.000000,75.000000,,,,0.000000,4.000000,4.000000,4.000000,4.000000,4.000000,4.000000,4.000000,4.000000,4.000000,4.000000,4.000000,4.000000,4.000000,4.000000,100.000000,,,,,,,,,,,,,,,,,,,,,,,,,,,,
1703495939.269969,1703495939.270618,104.000000,0.000000,4236.922852,4227.948730,4289.487305,4298.589844,4216.538574,4210.128418,4245.384766,4199.871582,4210.128418,4188.974121,4506.282227,4456.538574,4350.897461,4436.794922,6651.000000,4.000000,75.000000,,,,0.000000,4.000000,4.000000,4.000000,4.000000,4.000000,4.000000,4.000000,4.000000,4.000000,4.000000,4.000000,4.000000,4.000000,4.000000,100.000000,,,,,,,,,,,,,,,,,26.000000,0.000000,0.675884,0.250000,-0.662720,0.203674,0.989867,0.065438,0.000000,-17.434282,-38.266159,65.037018
1703495939.277777,1703495939.278426,105.000000,0.000000,4232.179688,4228.974121,4291.153809,4295.000000,4223.846191,4207.307617,4246.794922,4189.743652,4208.974121,4185.256348,4505.256348,4455.128418,4346.153809,4435.256348,6264.000000,4.000000,75.000000,,,,0.000000,4.000000,4.000000,4.000000,4.000000,4.000000,4.000000,4.000000,4.000000,4.000000,4.000000,4.000000,4.000000,4.000000,4.000000,100.000000,,,,,,,,,,,,,,,,,,,,,,,,,,,,
1703495939.285585,1703495939.286333,106.000000,0.000000,4243.461426,4229.871582,4292.692383,4296.922852,4230.128418,4203.846191,4242.179688,4180.512695,4204.358887,4184.358887,4505.128418,4451.794922,4343.589844,4435.512695,5941.000000,4.000000,75.000000,,,,0.000000,4.000000,4.000000,4.000000,4.000000,4.000000,4.000000,4.000000,4.000000,4.000000,4.000000,4.000000,4.000000,4.000000,4.000000,100.000000,1.000000,91.666664,4.000000,4.000000,4.000000,4.000000,4.000000,4.000000,4.000000,4.000000,4.000000,4.000000,4.000000,4.000000,4.000000,3.000000,,,,,,,,,,,,
1703495939.293393,1703495939.294141,107.000000,0.000000,4234.102539,4222.948730,4287.051270,4295.641113,4221.153809,4200.769043,4240.384766,4184.743652,4198.333496,4179.615234,4494.358887,4443.589844,4334.743652,4428.205078,6195.000000,4.000000,75.000000,,,,0.000000,4.000000,4.000000,4.000000,4.000000,4.000000,4.000000,4.000000,4.000000,4.000000,4.000000,4.000000,4.000000,4.000000,4.000000,100.000000,,,,,,,,,,,,,,,,,,,,,,,,,,,,
1703495939.301201,1703495939.301849,108.000000,0.000000,4213.846191,4208.974121,4278.717773,4282.563965,4212.563965,4210.000000,4246.666504,4184.743652,4199.102539,4163.077148,4477.179688,4434.230957,4320.897461,4414.102539,6651.000000,4.000000,75.000000,,,,0.000000,4.000000,4.000000,4.000000,4.000000,4.000000,4.000000,4.000000,4.000000,4.000000,4.000000,4.000000,4.000000,4.000000,4.000000,100.000000,,,,,,,,,,,,,,,,,27.000000,0.000000,0.675958,0.250061,-0.662659,0.203552,0.996704,0.053717,0.010255,-17.324188,-38.356213,65.049980
1703495939.309009,1703495939.309657,109.000000,0.000000,4213.589844,4198.974121,4273.974121,4274.358887,4217.051270,4223.461426,4248.461426,4171.922852,4205.769043,4157.948730,4470.512695,4427.563965,4316.922852,4402.563965,6264.000000,4.000000,75.000000,,,,0.000000,4.000000,4.000000,4.000000,4.000000,4.000000,4.000000,4.000000,4.000000,4.000000,4.000000,4.000000,4.000000,4.000000,4.000000,100.000000,,,,,,,,,,,,,,,,,,,,,,,,,,,,
1703495939.316817,1703495939.317365,110.000000,0.000000,4213.717773,4205.256348,4278.333496,4276.666504,4220.128418,4223.333496,4245.256348,4165.512695,4213.333496,4172.692383,4472.179688,4429.615234,4320.769043,4395.256348,5941.000000,4.000000,75.000000,,,,0.000000,4.000000,4.000000,4.000000,4.000000,4.000000,4.000000,4.000000,4.000000,4.000000,4.000000,4.000000,4.000000,4.000000,4.000000,100.000000,,,,,,,,,,,,,,,,,,,,,,,,,,,,
1703495939.324625,1703495939.325173,111.000000,0.000000,4209.230957,4214.487305,4285.128418,4279.102539,4215.128418,4216.282227,4245.512695,4176.794922,4221.922852,4183.077148,4477.436035,4440.000000,4326.794922,4393.846191,6195.000000,4.000000,75.000000,,,,0.000000,4.000000,4.000000,4.000000,4.000000,4.000000,4.000000,4.000000,4.000000,4.000000,4.000000,4.000000,4.000000,4.000000,4.000000,100.000000,,,,,,,,,,,,,,,,,,,,,,,,,,,,
1703495939.332434,1703495939.332881,112.000000,0.000000,4232.563965,4216.666504,4290.769043,4284.743652,4211.282227,4221.666504,4245.512695,4192.051270,4230.641113,4196.538574,4499.615234,4454.743652,4345.512695,4416.666504,6651.000000,4.000000,75.000000,,,,0.000000,4.000000,4.000000,4.000000,4.000000,4.000000,4.000000,4.000000,4.000000,4.000000,4.000000,4.000000,4.000000,4.000000,4.000000,100.000000,,,,,,,,,,,,,,,,,28.000000,0.000000,0.675995,0.250122,-0.662598,0.203552,0.995727,0.065438,-0.006837,-17.441769,-38.470589,65.094986
1703495939.340242,1703495939.340790,113.000000,0.000000,4262.820313,4229.102539,4301.666504,4297.307617,4218.717773,4232.051270,4247.436035,4200.769043,4234.230957,4222.948730,4529.487305,4472.692383,4370.256348,4451.794922,6264.000000,4.000000,75.000000,,,,0.000000,4.000000,4.000000,4.000000,4.000000,4.000000,4.000000,4.000000,4.000000,4.000000,4.000000,4.000000,4.000000,4.000000,4.000000,100.000000,,,,,,,,,,,,,,,,,,,,,,,,,,,,
1703495939.348050,1703495939.348598,114.000000,0.000000,4268.589844,4249.615234,4311.538574,4305.769043,4233.333496,4230.000000,4250.897461,4211.794922,4234.102539,4231.025879,4541.025879,4486.922852,4381.153809,4468.589844,5941.000000,4.000000,75.000000,,,,0.000000,4.000000,4.000000,4.000000,4.000000,4.000000,4.000000,4.000000,4.000000,4.000000,4.000000,4.000000,4.000000,4.000000,4.000000,100.000000,,,,,,,,,,,,,,,,,,,,,,,,,,,,
1703495939.355858,1703495939.356506,115.000000,0.000000,4272.563965,4252.820313,4315.897461,4309.358887,4233.717773,4220.384766,4249.615234,4221.538574,4228.077148,4219.358887,4537.563965,4493.717773,4382.563965,4478.846191,6195.000000,4.000000,75.000000,,,,0.000000,4.000000,4.000000,4.000000,4.000000,4.000000,4.000000,4.000000,4.000000,4.000000,4.000000,4.000000,4.000000,4.000000,4.000000,100.000000,,,,,,,,,,,,,,,,,,,,,,,,,,,,
1703495939.363666,1703495939.364314,116.000000,0.000000,4286.922852,4248.589844,4320.384766,4313.333496,4227.692383,4216.282227,4247.051270,4214.487305,4220.512695,4219.358887,4537.307617,4493.333496,4389.615234,4492.307617,6651.000000,4.000000,75.000000,,,,0.000000,4.000000,4.000000,4.000000,4.000000,4.000000,4.000000,4.000000,4.000000,4.000000,4.000000,4.000000,4.000000,4.000000,4.000000,100.000000,,,,,,,,,,,,,,,,,29.000000,0.000000,0.675931,0.250183,-0.662659,0.203491,0.989379,0.057624,0.001953,-17.447592,-38.556866,65.118820
1703495939.371474,1703495939.372122,117.000000,0.000000,4283.974121,4254.230957,4321.410156,4315.641113,4230.384766,4214.230957,4249.230957,4202.307617,4213.589844,4220.128418,4543.846191,4493.717773,4393.846191,4489.615234,6264.000000,4.000000,75.000000,,,,0.000000,4.000000,4.000000,4.000000,4.000000,4.000000,4.000000,4.000000,4.000000,4.000000,4.000000,4.000000,4.000000,4.000000,4.000000,100.000000,,,,,,,,,,,,,,,,,,,,,,,,,,,,
1703495939.379282,1703495939.379830,118.000000,0.000000,4259.743652,4252.692383,4318.717773,4315.256348,4228.077148,4204.743652,4247.051270,4202.692383,4204.230957,4201.538574,4540.897461,4489.358887,4379.230957,4473.717773,5941.000000,4.000000,75.000000,,,,0.000000,4.000000,4.000000,4.000000,4.000000,4.000000,4.000000,4.000000,4.000000,4.000000,4.000000,4.000000,4.000000,4.000000,4.000000,100.000000,,,,,,,,,,,,,,,,,,,,,,,,,,,,
1703495939.387090,1703495939.387638,119.000000,0.000000,4252.563965,4242.307617,4308.589844,4310.384766,4220.384766,4196.922852,4239.871582,4203.717773,4196.410156,4181.794922,4520.256348,4471.538574,4356.794922,4458.717773,6195.000000,4.000000,75.000000,,,,0.000000,4.000000,4.000000,4.000000,4.000000,4.000000,4.000000,4.000000,4.000000,4.000000,4.000000,4.000000,4.000000,4.000000,4.000000,100.000000,,,,,,,,,,,,,,,,,,,,,,,,,,,,
1703495939.394898,1703495939.395346,120.000000,0.000000,4258.205078,4224.615234,4294.230957,4298.205078,4212.692383,4195.897461,4236.410156,4200.512695,4199.487305,4181.410156,4504.487305,4454.230957,4349.487305,4442.692383,6651.000000,4.000000,75.000000,,,,0.000000,4.000000,4.000000,4.000000,4.000000,4.000000,4.000000,4.000000,4.000000,4.000000,4.000000,4.000000,4.000000,4.000000,4.000000,100.000000,,,,,,,,,,,,,,,,,30.000000,0.000000,0.676046,0.250183,-0.662598,0.203308,0.995727,0.070809,0.004883,-17.452833,-38.501179,65.023605
1703495939.402706,1703495939.403154,121.000000,0.000000,4240.128418,4205.128418,4286.794922,4282.051270,4206.922852,4199.743652,4234.743652,4204.615234,4209.871582,4189.487305,4505.512695,4446.025879,4352.820313,4431.922852,6264.000000,4.000000,75.000000,,,,0.000000,4.000000,4.000000,4.000000,4.000000,4.000000,4.000000,4.000000,4.000000,4.000000,4.000000,4.000000,4.000000,4.000000,4.000000,100.000000,,,,,,,,,,,,,,,,,,,,,,,,,,,,
1703495939.410514,1703495939.410862,122.000000,0.000000,4214.230957,4196.282227,4281.666504,4274.871582,4211.025879,4211.794922,4239.743652,4215.384766,4218.461426,4192.692383,4505.256348,4440.128418,4347.307617,4422.820313,5941.000000,4.000000,75.000000,,,,0.000000,4.000000,4.000000,4.000000,4.000000,4.000000,4.000000,4.000000,4.000000,4.000000,4.000000,4.000000,4.000000,4.000000,4.000000,100.000000,,,,,,,,,,,,,,,,,,,,,,,,,,,,
1703495939.418322,1703495939.418770,123.000000,0.000000,4205.128418,4198.846191,4272.436035,4274.358887,4217.436035,4224.871582,4245.769043,4213.333496,4222.051270,4182.563965,4493.461426,4434.358887,4331.922852,4403.205078,6195.000000,4.000000,75.000000,,,,0.000000,4.000000,4.000000,4.000000,4.000000,4.000000,4.000000,4.000000,4.000000,4.000000,4.000000,4.000000,4.000000,4.000000,4.000000,100.000000,,,,,,,,,,,,,,,,,,,,,,,,,,,,
1703495939.426130,1703495939.426578,124.000000,0.000000,4197.307617,4205.256348,4265.000000,4272.436035,4216.410156,4227.820313,4243.846191,4202.179688,4220.769043,4172.436035,4482.563965,4427.179688,4326.025879,4391.538574,6651.000000,4.000000,75.000000,,,,0.000000,4.000000,4.000000,4.000000,4.000000,4.000000,4.000000,4.000000,4.000000,4.000000,4.000000,4.000000,4.000000,4.000000,4.000000,100.000000,,,,,,,,,,,,,,,,,31.000000,0.000000,0.676093,0.250366,-0.662537,0.203125,0.989379,0.074228,0.006837,-17.424215,-38.517727,64.904579
1703495939.433938,1703495939.434485,125.000000,0.000000,4194.615234,4206.538574,4268.461426,4270.256348,4216.666504,4223.333496,4242.948730,4208.461426,4218.205078,4176.794922,4478.077148,4426.922852,4329.871582,4391.794922,6264.000000,4.000000,75.000000,,,,0.000000,4.000000,4.000000,4.000000,4.000000,4.000000,4.000000,4.000000,4.000000,4.000000,4.000000,4.000000,4.000000,4.000000,4.000000,100.000000,,,,,,,,,,,,,,,,,,,,,,,,,,,,
1703495939.441746,1703495939.442293,126.000000,0.000000,4213.077148,4207.948730,4281.025879,4272.692383,4218.974121,4218.461426,4243.205078,4215.897461,4217.820313,4181.153809,4480.384766,4439.615234,4330.512695,4387.307617,5941.000000,4.000000,75.000000,,,,0.000000,4.000000,4.000000,4.000000,4.000000,4.000000,4.000000,4.000000,4.000000,4.000000,4.000000,4.000000,4.000000,4.000000,4.000000,100.000000,,,,,,,,,,,,,,,,,,,,,,,,,,,,
1703495939.449554,1703495939.450201,127.000000,0.000000,4218.461426,4220.512695,4288.974121,4282.948730,4217.436035,4216.153809,4241.410156,4205.769043,4218.717773,4189.102539,4496.794922,4452.692383,4342.179688,4402.436035,75.000000,4.000000,75.000000,,,,0.000000,4.000000,4.000000,4.000000,4.000000,4.000000,4.000000,4.000000,4.000000,4.000000,4.000000,4.000000,4.000000,4.000000,4.000000,100.000000,,,,,,,,,,,,,,,,,,,,,,,,,,,,
1703495939.457362,1703495939.458009,0.000000,0.000000,4221.922852,4241.025879,4302.436035,4301.282227,4222.436035,4216.922852,4243.974121,4199.102539,4218.974121,4208.846191,4519.102539,4465.769043,4372.179688,4448.333496,4662.000000,4.000000,75.000000,,,,0.000000,4.000000,4.000000,4.000000,4.000000,4.000000,4.000000,4.000000,4.000000,4.000000,4.000000,4.000000,4.000000,4.000000,4.000000,100.000000,,,,,,,,,,,,,,,,,0.000000,0.000000,0.676093,0.250366,-0.662537,0.203125,0.997192,0.075204,-0.012209,-17.365128,-38.449287,64.847450
1703495939.465170,1703495939.465917,1.000000,0.000000,4266.153809,4252.692383,4324.615234,4317.307617,4234.743652,4213.333496,4250.769043,4202.179688,4217.820313,4218.974121,4538.717773,4482.820313,4395.256348,4486.666504,5651.000000,4.000000,75.000000,,,,0.000000,4.000000,4.000000,4.000000,4.000000,4.000000,4.000000,4.000000,4.000000,4.000000,4.000000,4.000000,4.000000,4.000000,4.000000,100.000000,,,,,,,,,,,,,,,,,,,,,,,,,,,,
1703495939.472978,1703495939.473825,2.000000,0.000000,4307.179688,4255.000000,4335.512695,4319.743652,4232.307617,4203.974121,4249.743652,4207.307617,4213.974121,4211.025879,4549.615234,4492.692383,4399.487305,4496.666504,5444.000000,4.000000,75.000000,,,,0.000000,4.000000,4.000000,4.000000,4.000000,4.000000,4.000000,4.000000,4.000000,4.000000,4.000000,4.000000,4.000000,4.000000,4.000000,100.000000,,,,,,,,,,,,,,,,,,,,,,,,,,,,
1703495939.480786,1703495939.481633,3.000000,0.000000,4292.948730,4251.153809,4329.487305,4314.230957,4218.205078,4199.102539,4240.769043,4212.179688,4203.846191,4198.461426,4546.922852,4491.538574,4395.769043,4493.205078,5455.000000,4.000000,75.000000,,,,0.000000,4.000000,4.000000,4.000000,4.000000,4.000000,4.000000,4.000000,4.000000,4.000000,4.000000,4.000000,4.000000,4.000000,4.000000,100.000000,,,,,,,,,,,,,,,,,,,,,,,,,,,,
1703495939.488594,1703495939.489442,4.000000,0.000000,4259.871582,4236.794922,4316.922852,4303.589844,4212.436035,4207.051270,4235.384766,4214.743652,4197.179688,4196.922852,4534.871582,4481.025879,4386.282227,4478.077148,5312.000000,4.000000,75.000000,,,,0.000000,4.000000,4.000000,4.000000,4.000000,4.000000,4.000000,4.000000,4.000000,4.000000,4.000000,4.000000,4.000000,4.000000,4.000000,100.000000,,,,,,,,,,,,,,,,,1.000000,0.000000,0.675931,0.250122,-0.662720,0.203369,0.990844,0.070809,0.001953,-17.461948,-38.537693,64.696037
1703495939.496403,1703495939.497150,5.000000,0.000000,4250.769043,4225.000000,4307.692383,4294.871582,4216.922852,4216.538574,4238.589844,4220.256348,4207.179688,4199.615234,4522.948730,4472.692383,4372.692383,4455.512695,4991.000000,4.000000,75.000000,,,,0.000000,4.000000,4.000000,4.000000,4.000000,4.000000,4.000000,4.000000,4.000000,4.000000,4.000000,4.000000,4.000000,4.000000,4.000000,100.000000,,,,,,,,,,,,,,,,,,,,,,,,,,,,
1703495939.504211,1703495939.504958,6.000000,0.000000,4240.384766,4219.615234,4298.333496,4291.282227,4214.615234,4218.333496,4239.230957,4232.307617,4218.717773,4196.666504,4518.846191,4471.922852,4366.794922,4443.717773,3146.000000,4.000000,75.000000,,,,0.000000,4.000000,4.000000,4.000000,4.000000,4.000000,4.000000,4.000000,4.000000,4.000000,4.000000,4.000000,4.000000,4.000000,4.000000,100.000000,,,,,,,,,,,,,,,,,,,,,,,,,,,,
1703495939.512019,1703495939.512666,7.000000,0.000000,4221.410156,4215.256348,4287.563965,4283.205078,4210.512695,4222.948730,4236.538574,4237.820313,4217.179688,4196.410156,4520.256348,4465.897461,4369.230957,4435.512695,3874.000000,4.000000,75.000000,,,,0.000000,4.000000,4.000000,4.000000,4.000000,4.000000,4.000000,4.000000,4.000000,4.000000,4.000000,4.000000,4.000000,4.000000,4.000000,100.000000,,,,,,,,,,,,,,,,,,,,,,,,,,,,
1703495939.519827,1703495939.520474,8.000000,0.000000,4215.512695,4212.051270,4285.384766,4278.333496,4219.871582,4231.666504,4244.102539,4232.307617,4212.948730,4201.922852,4512.051270,4454.615234,4363.333496,4429.615234,3712.000000,4.000000,75.000000,,,,0.000000,4.000000,4.000000,4.000000,4.000000,4.000000,4.000000,4.000000,4.000000,4.000000,4.000000,4.000000,4.000000,4.000000,4.000000,100.000000,,,,,,,,,,,,,,,,,2.000000,0.000000,0.675769,0.249939,-0.662842,0.203735,0.986937,0.075693,0.006348,-17.215754,-38.600590,64.776436
1703495939.527635,1703495939.528182,9.000000,0.000000,4220.769043,4214.615234,4288.205078,4287.820313,4233.333496,4235.897461,4250.769043,4224.871582,4216.153809,4202.692383,4502.436035,4450.512695,4352.692383,4439.102539,5657.000000,4.000000,75.000000,,,,0.000000,4.000000,4.000000,4.000000,4.000000,4.000000,4.000000,4.000000,4.000000,4.000000,4.000000,4.000000,4.000000,4.000000,4.000000,100.000000,,,,,,,,,,,,,,,,,,,,,,,,,,,,
1703495939.535443,1703495939.535990,10.000000,0.000000,4237.436035,4224.615234,4293.333496,4299.615234,4233.589844,4231.538574,4247.948730,4220.769043,4221.922852,4201.794922,4511.922852,4460.641113,4360.512695,4455.769043,5941.000000,4.000000,75.000000,,,,0.000000,4.000000,4.000000,4.000000,4.000000,4.000000,4.000000,4.000000,4.000000,4.000000,4.000000,4.000000,4.000000,4.000000,4.000000,100.000000,,,,,,,,,,,,,,,,,,,,,,,,,,,,
1703495939.543251,1703495939.543698,11.000000,0.000000,4250.512695,4232.436035,4298.077148,4297.692383,4226.794922,4222.692383,4244.871582,4218.205078,4219.102539,4213.461426,4527.563965,4468.461426,4380.256348,4458.333496,6204.000000,4.000000,75.000000,,,,0.000000,4.000000,4.000000,4.000000,4.000000,4.000000,4.000000,4.000000,4.000000,4.000000,4.000000,4.000000,4.000000,4.000000,4.000000,100.000000,,,,,,,,,,,,,,,,,,,,,,,,,,,,
1703495939.551059,1703495939.551506,12.000000,0.000000,4247.692383,4232.307617,4299.102539,4294.230957,4225.000000,4216.410156,4244.102539,4212.436035,4215.256348,4225.512695,4528.589844,4468.461426,4384.487305,4459.102539,6654.000000,4.000000,75.000000,,,,0.000000,4.000000,4.000000,4.000000,4.000000,4.000000,4.000000,4.000000,4.000000,4.000000,4.000000,4.000000,4.000000,4.000000,4.000000,100.000000,,,,,,,,,,,,,,,,,3.000000,0.000000,0.675691,0.250000,-0.662842,0.203918,0.997680,0.053229,-0.001465,-17.260845,-38.607197,64.815460
1703495939.558867,1703495939.559214,13.000000,0.000000,4253.333496,4233.717773,4305.384766,4300.641113,4227.948730,4211.410156,4245.512695,4213.077148,4217.179688,4221.410156,4529.102539,4477.563965,4379.102539,4464.871582,6265.000000,4.000000,75.000000,,,,0.000000,4.000000,4.000000,4.000000,4.000000,4.000000,4.000000,4.000000,4.000000,4.000000,4.000000,4.000000,4.000000,4.000000,4.000000,100.000000,,,,,,,,,,,,,,,,,,,,,,,,,,,,
1703495939.566675,1703495939.567022,14.000000,0.000000,4261.922852,4235.897461,4312.820313,4307.051270,4228.205078,4205.000000,4246.153809,4217.436035,4212.051270,4204.230957,4533.589844,4485.897461,4379.358887,4459.230957,5941.000000,4.000000,75.000000,,,,0.000000,4.000000,4.000000,4.000000,4.000000,4.000000,4.000000,4.000000,4.000000,4.000000,4.000000,4.000000,4.000000,4.000000,4.000000,100.000000,,,,,,,,,,,,,,,,,,,,,,,,,,,,
1703495939.574483,1703495939.574730,15.000000,0.000000,4248.461426,4229.743652,4313.077148,4305.384766,4223.333496,4199.487305,4243.205078,4207.948730,4198.333496,4189.102539,4527.179688,4477.436035,4375.256348,4455.256348,6204.000000,4.000000,75.000000,,,,0.000000,4.000000,4.000000,4.000000,4.000000,4.000000,4.000000,4.000000,4.000000,4.000000,4.000000,4.000000,4.000000,4.000000,4.000000,100.000000,,,,,,,,,,,,,,,,,,,,,,,,,,,,
1703495939.582291,1703495939.582638,16.000000,0.000000,4243.205078,4229.230957,4310.897461,4303.461426,4215.769043,4199.743652,4240.897461,4198.846191,4197.948730,4191.922852,4526.922852,4469.743652,4371.794922,4462.436035,0.000000,4.000000,75.000000,,,,0.000000,4.000000,4.000000,4.000000,4.000000,4.000000,4.000000,4.000000,4.000000,4.000000,4.000000,4.000000,4.000000,4.000000,4.000000,100.000000,,,,,,,,,,,,,,,,,4.000000,0.000000,0.675792,0.250000,-0.662720,0.203979,1.000122,0.068856,0.002930,-17.284760,-38.546478,64.867249
1703495939.590099,1703495939.590446,17.000000,0.000000,4260.641113,4234.230957,4307.179688,4301.025879,4214.102539,4205.128418,4241.410156,4211.025879,4211.025879,4202.692383,4537.692383,4471.538574,4380.000000,4460.512695,0.000000,4.000000,75.000000,,,,0.000000,4.000000,4.000000,4.000000,4.000000,4.000000,4.000000,4.000000,4.000000,4.000000,4.000000,4.000000,4.000000,4.000000,4.000000,100.000000,,,,,,,,,,,,,,,,,,,,,,,,,,,,
1703495939.597907,1703495939.598354,18.000000,0.000000,4250.256348,4225.897461,4305.641113,4287.563965,4218.333496,4217.179688,4244.743652,4228.333496,4220.128418,4200.512695,4531.538574,4472.692383,4379.230957,4444.871582,0.000000,4.000000,75.000000,,,,0.000000,4.000000,4.000000,4.000000,4.000000,4.000000,4.000000,4.000000,4.000000,4.000000,4.000000,4.000000,4.000000,4.000000,4.000000,100.000000,,,,,,,,,,,,,,,,,,,,,,,,,,,,
1703495939.605715,1703495939.606162,19.000000,0.000000,4229.487305,4214.743652,4303.846191,4272.692383,4220.000000,4230.256348,4248.077148,4233.974121,4225.769043,4199.102539,4521.794922,4468.589844,4367.051270,4442.436035,0.000000,4.000000,75.000000,,,,0.000000,4.000000,4.000000,4.000000,4.000000,4.000000,4.000000,4.000000,4.000000,4.000000,4.000000,4.000000,4.000000,4.000000,4.000000,100.000000,,,,,,,,,,,,,,,,,,,,,,,,,,,,
1703495939.613523,1703495939.614070,20.000000,0.000000,4244.615234,4221.282227,4299.615234,4277.051270,4215.769043,4233.589844,4248.974121,4234.230957,4228.974121,4206.410156,4530.256348,4469.358887,4368.846191,4465.641113,0.000000,4.000000,75.000000,,,,0.000000,4.000000,4.000000,4.000000,4.000000,4.000000,4.000000,4.000000,4.000000,4.000000,4.000000,4.000000,4.000000,4.000000,4.000000,100.000000,,,,,,,,,,,,,,,,,5.000000,0.000000,0.675777,0.249878,-0.662781,0.203979,0.997192,0.064949,-0.010255,-17.322950,-38.725163,64.680519
1703495939.621331,1703495939.621877,21.000000,0.000000,4264.230957,4234.230957,4307.051270,4292.820313,4217.051270,4234.871582,4248.846191,4235.384766,4224.743652,4214.743652,4541.538574,4481.666504,4385.000000,4486.410156,0.000000,4.000000,75.000000,,,,0.000000,4.000000,4.000000,4.000000,4.000000,4.000000,4.000000,4.000000,4.000000,4.000000,4.000000,4.000000,4.000000,4.000000,4.000000,100.000000,,,,,,,,,,,,,,,,,,,,,,,,,,,,
1703495939.629139,1703495939.629785,22.000000,0.000000,4265.256348,4239.230957,4316.282227,4300.384766,4227.307617,4241.153809,4252.051270,4237.179688,4217.692383,4223.205078,4544.871582,4486.025879,4394.487305,4488.077148,0.000000,4.000000,75.000000,,,,0.000000,4.000000,4.000000,4.000000,4.000000,4.000000,4.000000,4.000000,4.000000,4.000000,4.000000,4.000000,4.000000,4.000000,4.000000,100.000000,,,,,,,,,,,,,,,,,,,,,,,,,,,,
1703495939.636947,1703495939.637593,23.000000,0.000000,4262.563965,4243.461426,4315.128418,4302.820313,4232.563965,4243.974121,4254.487305,4231.666504,4219.615234,4221.794922,4549.230957,4480.256348,4394.743652,4487.563965,0.000000,4.000000,75.000000,,,,0.000000,4.000000,4.000000,4.000000,4.000000,4.000000,4.000000,4.000000,4.000000,4.000000,4.000000,4.000000,4.000000,4.000000,4.000000,100.000000,,,,,,,,,,,,,,,,,,,,,,,,,,,,
1703495939.644755,1703495939.645501,24.000000,0.000000,4261.153809,4247.051270,4315.256348,4310.000000,4233.717773,4243.717773,4254.487305,4220.256348,4227.307617,4223.589844,4556.282227,4485.256348,4401.666504,4492.692383,0.000000,4.000000,75.000000,,,,0.000000,4.000000,4.000000,4.000000,4.000000,4.000000,4.000000,4.000000,4.000000,4.000000,4.000000,4.000000,4.000000,4.000000,4.000000,100.000000,,,,,,,,,,,,,,,,,6.000000,0.000000,0.675762,0.249695,-0.662903,0.203857,0.996704,0.064461,0.005860,-17.340656,-38.619312,64.829140
1703495939.652563,1703495939.653309,25.000000,0.000000,4268.846191,4250.000000,4322.948730,4318.077148,4241.282227,4248.077148,4259.871582,4221.794922,4223.974121,4245.769043,4566.794922,4496.922852,4412.948730,4495.897461,0.000000,4.000000,75.000000,,,,0.000000,4.000000,4.000000,4.000000,4.000000,4.000000,4.000000,4.000000,4.000000,4.000000,4.000000,4.000000,4.000000,4.000000,4.000000,100.000000,,,,,,,,,,,,,,,,,,,,,,,,,,,,
1703495939.660371,1703495939.661217,26.000000,0.000000,4284.230957,4257.051270,4333.205078,4322.436035,4244.743652,4249.743652,4265.256348,4230.641113,4213.974121,4254.743652,4577.051270,4505.128418,4417.179688,4501.666504,0.000000,4.000000,75.000000,,,,0.000000,4.000000,4.000000,4.000000,4.000000,4.000000,4.000000,4.000000,4.000000,4.000000,4.000000,4.000000,4.000000,4.000000,4.000000,100.000000,,,,,,,,,,,,,,,,,,,,,,,,,,,,
1703495939.668180,1703495939.669025,27.000000,0.000000,4286.538574,4258.717773,4337.436035,4328.717773,4241.410156,4239.487305,4259.102539,4232.948730,4215.256348,4244.102539,4583.717773,4510.384766,4420.512695,4512.820313,0.000000,4.000000,75.000000,,,,0.000000,4.000000,4.000000,4.000000,4.000000,4.000000,4.000000,4.000000,4.000000,4.000000,4.000000,4.000000,4.000000,4.000000,4.000000,100.000000,,,,,,,,,,,,,,,,,,,,,,,,,,,,
1703495939.675988,1703495939.676733,28.000000,0.000000,4279.487305,4251.025879,4331.922852,4328.333496,4239.615234,4233.589844,4257.436035,4238.333496,4220.641113,4243.333496,4585.000000,4506.922852,4422.436035,4512.563965,0.000000,4.000000,75.000000,,,,0.000000,4.000000,4.000000,4.000000,4.000000,4.000000,4.000000,4.000000,4.000000,4.000000,4.000000,4.000000,4.000000,4.000000,4.000000,100.000000,,,,,,,,,,,,,,,,,7.000000,0.000000,0.675795,0.249756,-0.662903,0.203674,0.997192,0.073251,0.004395,-17.289925,-38.674049,64.862892
1703495939.683796,1703495939.684541,29.000000,0.000000,4267.820313,4243.077148,4324.743652,4317.692383,4237.436035,4236.025879,4260.384766,4244.487305,4215.769043,4242.179688,4572.563965,4493.077148,4409.102539,4494.358887,0.000000,4.000000,75.000000,,,,0.000000,4.000000,4.000000,4.000000,4.000000,4.000000,4.000000,4.000000,4.000000,4.000000,4.000000,4.000000,4.000000,4.000000,4.000000,100.000000,,,,,,,,,,,,,,,,,,,,,,,,,,,,
1703495939.691604,1703495939.692249,30.000000,0.000000,4242.948730,4236.666504,4317.051270,4307.692383,4233.717773,4234.871582,4253.974121,4235.000000,4211.153809,4223.589844,4557.563965,4479.615234,4388.974121,4471.282227,0.000000,4.000000,75.000000,,,,0.000000,4.000000,4.000000,4.000000,4.000000,4.000000,4.000000,4.000000,4.000000,4.000000,4.000000,4.000000,4.000000,4.000000,4.000000,100.000000,,,,,,,,,,,,,,,,,,,,,,,,,,,,
1703495939.699412,1703495939.700057,31.000000,0.000000,4225.000000,4228.205078,4311.153809,4299.615234,4232.436035,4232.820313,4251.666504,4225.000000,4213.974121,4215.641113,4548.717773,4473.717773,4381.153809,4458.077148,0.000000,4.000000,75.000000,,,,0.000000,4.000000,4.000000,4.000000,4.000000,4.000000,4.000000,4.000000,4.000000,4.000000,4.000000,4.000000,4.000000,4.000000,4.000000,100.000000,,,,,,,,,,,,,,,,,,,,,,,,,,,,
1703495939.707220,1703495939.707765,32.000000,0.000000,4224.102539,4221.153809,4307.692383,4292.051270,4228.974121,4240.769043,4259.615234,4227.051270,4223.205078,4220.641113,4542.307617,4467.307617,4381.538574,4457.692383,0.000000,4.000000,75.000000,,,,0.000000,4.000000,4.000000,4.000000,4.000000,4.000000,4.000000,4.000000,4.000000,4.000000,4.000000,4.000000,4.000000,4.000000,4.000000,100.000000,,,,,,,,,,,,,,,,,8.000000,0.000000,0.675820,0.250061,-0.662781,0.203613,0.976193,0.074716,0.004395,-17.244265,-38.639977,64.759933
1703495939.715028,1703495939.715573,33.000000,0.000000,4233.717773,4227.307617,4308.717773,4295.128418,4230.384766,4256.538574,4264.102539,4231.538574,4232.563965,4221.538574,4542.820313,4466.025879,4384.102539,4458.974121,0.000000,4.000000,75.000000,,,,0.000000,4.000000,4.000000,4.000000,4.000000,4.000000,4.000000,4.000000,4.000000,4.000000,4.000000,4.000000,4.000000,4.000000,4.000000,100.000000,,,,,,,,,,,,,,,,,,,,,,,,,,,,
1703495939.722836,1703495939.723281,34.000000,0.000000,4250.384766,4242.436035,4316.025879,4307.820313,4244.487305,4264.615234,4263.974121,4237.563965,4233.717773,4221.794922,4550.641113,4477.307617,4386.794922,4461.666504,0.000000,4.000000,75.000000,,,,0.000000,4.000000,4.000000,4.000000,4.000000,4.000000,4.000000,4.000000,4.000000,4.000000,4.000000,4.000000,4.000000,4.000000,4.000000,100.000000,,,,,,,,,,,,,,,,,,,,,,,,,,,,
1703495939.730644,1703495939.731189,35.000000,0.000000,4260.000000,4247.436035,4321.538574,4312.179688,4251.410156,4262.179688,4266.794922,4240.256348,4231.794922,4234.102539,4556.794922,4484.743652,4395.769043,4476.794922,0.000000,4.000000,75.000000,,,,0.000000,4.000000,4.000000,4.000000,4.000000,4.000000,4.000000,4.000000,4.000000,4.000000,4.000000,4.000000,4.000000,4.000000,4.000000,100.000000,,,,,,,,,,,,,,,,,,,,,,,,,,,,
1703495939.738452,1703495939.738998,36.000000,0.000000,4266.025879,4246.666504,4328.717773,4313.974121,4248.974121,4262.436035,4272.820313,4240.128418,4233.205078,4249.358887,4568.717773,4491.153809,4414.743652,4497.307617,0.000000,4.000000,75.000000,,,,0.000000,4.000000,4.000000,4.000000,4.000000,4.000000,4.000000,4.000000,4.000000,4.000000,4.000000,4.000000,4.000000,4.000000,4.000000,100.000000,,,,,,,,,,,,,,,,,9.000000,0.000000,0.675734,0.250244,-0.662781,0.203674,1.005982,0.068368,0.001465,-17.236506,-38.775978,64.717270
1703495939.746260,1703495939.746806,37.000000,0.000000,4277.563965,4256.410156,4337.179688,4325.256348,4256.153809,4266.922852,4274.871582,4244.615234,4235.641113,4248.846191,4585.897461,4505.897461,4429.230957,4514.230957,0.000000,4.000000,75.000000,,,,0.000000,4.000000,4.000000,4.000000,4.000000,4.000000,4.000000,4.000000,4.000000,4.000000,4.000000,4.000000,4.000000,4.000000,4.000000,100.000000,,,,,,,,,,,,,,,,,,,,,,,,,,,,
1703495939.754068,1703495939.754514,38.000000,0.000000,4285.897461,4271.153809,4335.512695,4337.307617,4262.436035,4261.922852,4272.948730,4246.025879,4229.358887,4244.487305,4593.974121,4511.794922,4434.487305,4522.436035,0.000000,4.000000,75.000000,,,,0.000000,4.000000,4.000000,4.000000,4.000000,4.000000,4.000000,4.000000,4.000000,4.000000,4.000000,4.000000,4.000000,4.000000,4.000000,100.000000,,,,,,,,,,,,,,,,,,,,,,,,,,,,
1703495939.761876,1703495939.762422,39.000000,0.000000,4285.769043,4279.743652,4332.051270,4340.512695,4254.615234,4247.436035,4271.025879,4245.769043,4217.948730,4249.615234,4593.077148,4506.538574,4435.000000,4517.307617,0.000000,4.000000,75.000000,,,,0.000000,4.000000,4.000000,4.000000,4.000000,4.000000,4.000000,4.000000,4.000000,4.000000,4.000000,4.000000,4.000000,4.000000,4.000000,100.000000,,,,,,,,,,,,,,,,,,,,,,,,,,,,
1703495939.769684,1703495939.770230,40.000000,0.000000,4286.153809,4275.897461,4330.897461,4336.666504,4249.102539,4240.128418,4268.205078,4247.948730,4214.615234,4249.358887,4589.102539,4499.358887,4430.128418,4507.307617,0.000000,4.000000,75.000000,,,,0.000000,4.000000,4.000000,4.000000,4.000000,4.000000,4.000000,4.000000,4.000000,4.000000,4.000000,4.000000,4.000000,4.000000,4.000000,100.000000,,,,,,,,,,,,,,,,,10.000000,0.000000,0.675600,0.250183,-0.662903,0.203796,0.993285,0.067879,0.002442,-17.296188,-38.965050,64.745544
1703495939.777492,1703495939.778137,41.000000,0.000000,4280.897461,4267.948730,4330.769043,4334.871582,4252.563965,4243.589844,4268.717773,4246.282227,4224.615234,4248.974121,4585.641113,4498.461426,4428.333496,4506.153809,0.000000,4.000000,75.000000,,,,0.000000,4.000000,4.000000,4.000000,4.000000,4.000000,4.000000,4.000000,4.000000,4.000000,4.000000,4.000000,4.000000,4.000000,4.000000,100.000000,,,,,,,,,,,,,,,,,,,,,,,,,,,,
1703495939.785300,1703495939.785945,42.000000,0.000000,4264.743652,4265.512695,4329.358887,4333.974121,4253.974121,4249.871582,4273.205078,4247.820313,4234.358887,4258.333496,4590.512695,4501.922852,4433.333496,4510.512695,0.000000,4.000000,75.000000,,,,0.000000,4.000000,4.000000,4.000000,4.000000,4.000000,4.000000,4.000000,4.000000,4.000000,4.000000,4.000000,4.000000,4.000000,4.000000,100.000000,1.000000,75.000000,3.000000,4.000000,3.000000,4.000000,4.000000,4.000000,4.000000,4.000000,4.000000,4.000000,4.000000,4.000000,4.000000,3.000000,,,,,,,,,,,,
1703495939.793108,1703495939.793853,43.000000,0.000000,4245.384766,4253.461426,4321.025879,4325.384766,4245.256348,4249.871582,4268.846191,4261.025879,4234.487305,4255.128418,4587.563965,4495.641113,4419.230957,4498.974121,0.000000,4.000000,75.000000,,,,0.000000,4.000000,4.000000,4.000000,4.000000,4.000000,4.000000,4.000000,4.000000,4.000000,4.000000,4.000000,4.000000,4.000000,4.000000,100.000000,,,,,,,,,,,,,,,,,,,,,,,,,,,,
1703495939.800916,1703495939.801661,44.000000,0.000000,4235.512695,4229.871582,4316.282227,4310.000000,4233.846191,4247.307617,4259.230957,4265.897461,4232.948730,4234.102539,4565.897461,4485.000000,4388.974121,4460.641113,0.000000,4.000000,75.000000,,,,0.000000,4.000000,4.000000,4.000000,4.000000,4.000000,4.000000,4.000000,4.000000,4.000000,4.000000,4.000000,4.000000,4.000000,4.000000,100.000000,,,,,,,,,,,,,,,,,11.000000,0.000000,0.675544,0.250122,-0.662964,0.203857,0.987425,0.077158,-0.004883,-17.116570,-39.018543,64.820992
1703495939.808725,1703495939.809569,45.000000,0.000000,4245.128418,4226.794922,4319.487305,4304.871582,4237.307617,4254.615234,4261.794922,4256.666504,4234.102539,4228.077148,4557.820313,4485.128418,4385.000000,4444.871582,0.000000,4.000000,75.000000,,,,0.000000,4.000000,4.000000,4.000000,4.000000,4.000000,4.000000,4.000000,4.000000,4.000000,4.000000,4.000000,4.000000,4.000000,4.000000,100.000000,,,,,,,,,,,,,,,,,,,,,,,,,,,,
1703495939.816532,1703495939.817377,46.000000,0.000000,4258.846191,4239.358887,4322.307617,4312.563965,4247.307617,4264.102539,4270.128418,4250.384766,4231.794922,4232.820313,4566.153809,4487.307617,4395.256348,4473.205078,0.000000,4.000000,75.000000,,,,0.000000,4.000000,4.000000,4.000000,4.000000,4.000000,4.000000,4.000000,4.000000,4.000000,4.000000,4.000000,4.000000,4.000000,4.000000,100.000000,,,,,,,,,,,,,,,,,,,,,,,,,,,,
1703495939.824340,1703495939.825285,47.000000,0.000000,4261.794922,4245.769043,4330.256348,4320.769043,4246.666504,4263.461426,4270.000000,4244.743652,4229.871582,4232.051270,4567.436035,4487.820313,4396.282227,4496.153809,0.000000,4.000000,75.000000,,,,0.000000,4.000000,4.000000,4.000000,4.000000,4.000000,4.000000,4.000000,4.000000,4.000000,4.000000,4.000000,4.000000,4.000000,4.000000,100.000000,,,,,,,,,,,,,,,,,,,,,,,,,,,,
1703495939.832149,1703495939.833093,48.000000,0.000000,4264.615234,4253.333496,4337.948730,4327.051270,4244.230957,4260.897461,4266.025879,4237.051270,4233.333496,4239.615234,4576.410156,4494.358887,4405.256348,4499.615234,0.000000,4.000000,75.000000,,,,0.000000,4.000000,4.000000,4.000000,4.000000,4.000000,4.000000,4.000000,4.000000,4.000000,4.000000,4.000000,4.000000,4.000000,4.000000,100.000000,,,,,,,,,,,,,,,,,12.000000,0.000000,0.675493,0.250000,-0.663025,0.203979,0.985472,0.064949,-0.006837,-17.088245,-38.950024,64.805557
1703495939.839957,1703495939.841001,49.000000,0.000000,4271.025879,4259.230957,4337.692383,4326.922852,4252.307617,4262.948730,4269.615234,4234.615234,4228.974121,4249.871582,4588.461426,4498.077148,4416.538574,4502.563965,0.000000,4.000000,75.000000,,,,0.000000,4.000000,4.000000,4.000000,4.000000,4.000000,4.000000,4.000000,4.000000,4.000000,4.000000,4.000000,4.000000,4.000000,4.000000,100.000000,,,,,,,,,,,,,,,,,,,,,,,,,,,,
1703495939.847765,1703495939.848809,50.000000,0.000000,4274.102539,4261.410156,4336.282227,4326.025879,4261.025879,4260.128418,4276.410156,4226.794922,4221.922852,4246.025879,4583.077148,4491.282227,4415.897461,4502.563965,0.000000,4.000000,75.000000,,,,0.000000,4.000000,4.000000,4.000000,4.000000,4.000000,4.000000,4.000000,4.000000,4.000000,4.000000,4.000000,4.000000,4.000000,4.000000,100.000000,,,,,,,,,,,,,,,,,,,,,,,,,,,,
1703495939.855573,1703495939.856517,51.000000,0.000000,4287.692383,4271.538574,4343.077148,4336.666504,4263.461426,4249.615234,4276.153809,4219.102539,4224.358887,4243.589844,4585.256348,4493.974121,4421.153809,4513.717773,0.000000,4.000000,75.000000,,,,0.000000,4.000000,4.000000,4.000000,4.000000,4.000000,4.000000,4.000000,4.000000,4.000000,4.000000,4.000000,4.000000,4.000000,4.000000,100.000000,,,,,,,,,,,,,,,,,,,,,,,,,,,,
1703495939.863381,1703495939.864325,52.000000,0.000000,4306.666504,4284.743652,4354.871582,4349.871582,4263.205078,4245.897461,4276.922852,4234.230957,4228.717773,4261.922852,4609.230957,4513.846191,4442.179688,4533.717773,0.000000,4.000000,75.000000,,,,0.000000,4.000000,4.000000,4.000000,4.000000,4.000000,4.000000,4.000000,4.000000,4.000000,4.000000,4.000000,4.000000,4.000000,4.000000,100.000000,,,,,,,,,,,,,,,,,13.000000,0.000000,0.675524,0.249878,-0.662964,0.204224,0.988890,0.069833,-0.003418,-17.229422,-38.888355,64.758339
1703495939.871189,1703495939.872033,53.000000,0.000000,4299.743652,4282.692383,4352.051270,4345.128418,4265.256348,4254.358887,4281.410156,4251.282227,4236.666504,4287.692383,4627.692383,4522.436035,4458.717773,4532.307617,0.000000,4.000000,75.000000,,,,0.000000,4.000000,4.000000,4.000000,4.000000,4.000000,4.000000,4.000000,4.000000,4.000000,4.000000,4.000000,4.000000,4.000000,4.000000,100.000000,,,,,,,,,,,,,,,,,,,,,,,,,,,,
1703495939.878997,1703495939.879841,54.000000,0.000000,4284.871582,4266.282227,4334.102539,4328.077148,4266.025879,4265.128418,4281.410156,4247.051270,4248.333496,4284.871582,4623.077148,4509.358887,4453.974121,4520.256348,0.000000,4.000000,75.000000,,,,0.000000,4.000000,4.000000,4.000000,4.000000,4.000000,4.000000,4.000000,4.000000,4.000000,4.000000,4.000000,4.000000,4.000000,4.000000,100.000000,,,,,,,,,,,,,,,,,,,,,,,,,,,,
1703495939.886805,1703495939.887549,55.000000,0.000000,4285.128418,4257.436035,4325.384766,4322.307617,4263.205078,4275.384766,4278.846191,4251.153809,4253.717773,4266.538574,4612.820313,4499.487305,4443.333496,4522.563965,0.000000,4.000000,75.000000,,,,0.000000,4.000000,4.000000,4.000000,4.000000,4.000000,4.000000,4.000000,4.000000,4.000000,4.000000,4.000000,4.000000,4.000000,4.000000,100.000000,,,,,,,,,,,,,,,,,,,,,,,,,,,,
1703495939.894613,1703495939.895357,56.000000,0.000000,4282.051270,4261.410156,4327.563965,4326.025879,4264.743652,4280.769043,4280.256348,4268.077148,4253.205078,4268.589844,4613.333496,4504.871582,4442.820313,4525.000000,0.000000,4.000000,75.000000,,,,0.000000,4.000000,4.000000,4.000000,4.000000,4.000000,4.000000,4.000000,4.000000,4.000000,4.000000,4.000000,4.000000,4.000000,4.000000,100.000000,,,,,,,,,,,,,,,,,14.000000,0.000000,0.675547,0.249878,-0.662903,0.204346,1.003052,0.041509,0.002930,-17.356480,-38.949516,64.799171
1703495939.902421,1703495939.903065,57.000000,0.000000,4272.948730,4262.179688,4328.974121,4326.410156,4267.820313,4272.051270,4283.717773,4261.025879,4247.436035,4269.358887,4607.948730,4506.922852,4440.128418,4517.692383,0.000000,4.000000,75.000000,,,,0.000000,4.000000,4.000000,4.000000,4.000000,4.000000,4.000000,4.000000,4.000000,4.000000,4.000000,4.000000,4.000000,4.000000,4.000000,100.000000,,,,,,,,,,,,,,,,,,,,,,,,,,,,
1703495939.910229,1703495939.910973,58.000000,0.000000,4266.666504,4251.922852,4332.307617,4326.025879,4262.307617,4262.692383,4281.282227,4237.692383,4231.153809,4253.974121,4594.230957,4496.922852,4426.410156,4501.410156,0.000000,4.000000,75.000000,,,,0.000000,4.000000,4.000000,4.000000,4.000000,4.000000,4.000000,4.000000,4.000000,4.000000,4.000000,4.000000,4.000000,4.000000,4.000000,100.000000,,,,,,,,,,,,,,,,,,,,,,,,,,,,
1703495939.918037,1703495939.918781,59.000000,0.000000,4259.871582,4246.282227,4336.666504,4326.410156,4252.179688,4262.692383,4277.179688,4229.358887,4218.333496,4243.717773,4586.922852,4494.615234,4416.666504,4490.000000,0.000000,4.000000,75.000000,,,,0.000000,4.000000,4.000000,4.000000,4.000000,4.000000,4.000000,4.000000,4.000000,4.000000,4.000000,4.000000,4.000000,4.000000,4.000000,100.000000,,,,,,,,,,,,,,,,,,,,,,,,,,,,
1703495939.925845,1703495939.926689,60.000000,0.000000,4266.538574,4254.102539,4336.282227,4329.358887,4246.538574,4258.077148,4276.410156,4229.743652,4216.922852,4236.153809,4587.307617,4499.358887,4417.051270,4498.333496,0.000000,4.000000,75.000000,,,,0.000000,4.000000,4.000000,4.000000,4.000000,4.000000,4.000000,4.000000,4.000000,4.000000,4.000000,4.000000,4.000000,4.000000,4.000000,100.000000,,,,,,,,,,,,,,,,,15.000000,0.000000,0.675495,0.249756,-0.662964,0.204468,1.000122,0.049322,0.001465,-17.370831,-38.904568,64.652588
1703495939.933653,1703495939.934497,61.000000,0.000000,4281.153809,4263.461426,4338.717773,4338.077148,4248.205078,4247.179688,4275.769043,4229.743652,4216.410156,4227.436035,4591.410156,4498.333496,4417.051270,4511.282227,0.000000,4.000000,75.000000,,,,0.000000,4.000000,4.000000,4.000000,4.000000,4.000000,4.000000,4.000000,4.000000,4.000000,4.000000,4.000000,4.000000,4.000000,4.000000,100.000000,,,,,,,,,,,,,,,,,,,,,,,,,,,,
1703495939.941461,1703495939.942305,62.000000,0.000000,4288.077148,4266.794922,4352.692383,4349.743652,4252.179688,4245.512695,4273.717773,4235.641113,4213.846191,4231.025879,4599.230957,4503.461426,4418.974121,4510.000000,0.000000,4.000000,75.000000,,,,0.000000,4.000000,4.000000,4.000000,4.000000,4.000000,4.000000,4.000000,4.000000,4.000000,4.000000,4.000000,4.000000,4.000000,4.000000,100.000000,,,,,,,,,,,,,,,,,,,,,,,,,,,,
1703495939.949269,1703495939.950013,63.000000,0.000000,4297.179688,4270.512695,4364.615234,4352.307617,4251.410156,4246.922852,4270.641113,4229.743652,4212.179688,4233.717773,4601.153809,4508.077148,4425.128418,4506.410156,0.000000,4.000000,75.000000,,,,0.000000,4.000000,4.000000,4.000000,4.000000,4.000000,4.000000,4.000000,4.000000,4.000000,4.000000,4.000000,4.000000,4.000000,4.000000,100.000000,,,,,,,,,,,,,,,,,,,,,,,,,,,,
1703495939.957077,1703495939.957921,64.000000,0.000000,4291.666504,4265.000000,4359.743652,4343.589844,4247.948730,4242.051270,4270.641113,4217.307617,4213.974121,4230.641113,4594.743652,4498.461426,4425.512695,4514.358887,4662.000000,4.000000,75.000000,,,,0.000000,4.000000,4.000000,4.000000,4.000000,4.000000,4.000000,4.000000,4.000000,4.000000,4.000000,4.000000,4.000000,4.000000,4.000000,100.000000,,,,,,,,,,,,,,,,,16.000000,0.000000,0.675443,0.249573,-0.663086,0.204468,1.000122,0.083018,0.002442,-17.417082,-39.030777,64.720657
1703495939.964885,1703495939.965729,65.000000,0.000000,4279.615234,4252.563965,4352.563965,4338.589844,4247.436035,4239.358887,4271.922852,4225.641113,4222.307617,4233.077148,4588.974121,4494.102539,4416.410156,4512.563965,5651.000000,4.000000,75.000000,,,,0.000000,4.000000,4.000000,4.000000,4.000000,4.000000,4.000000,4.000000,4.000000,4.000000,4.000000,4.000000,4.000000,4.000000,4.000000,100.000000,,,,,,,,,,,,,,,,,,,,,,,,,,,,
1703495939.972694,1703495939.973637,66.000000,0.000000,4287.179688,4251.922852,4348.974121,4338.205078,4250.256348,4245.641113,4273.717773,4236.666504,4236.025879,4232.948730,4582.948730,4494.358887,4409.487305,4492.307617,5430.000000,4.000000,75.000000,,,,0.000000,4.000000,4.000000,4.000000,4.000000,4.000000,4.000000,4.000000,4.000000,4.000000,4.000000,4.000000,4.000000,4.000000,4.000000,100.000000,,,,,,,,,,,,,,,,,,,,,,,,,,,,
1703495939.980502,1703495939.981445,67.000000,0.000000,4287.436035,4256.282227,4345.000000,4331.410156,4249.615234,4256.410156,4278.077148,4233.589844,4246.922852,4240.769043,4582.307617,4488.461426,4412.948730,4489.871582,5455.000000,4.000000,75.000000,,,,0.000000,4.000000,4.000000,4.000000,4.000000,4.000000,4.000000,4.000000,4.000000,4.000000,4.000000,4.000000,4.000000,4.000000,4.000000,100.000000,,,,,,,,,,,,,,,,,,,,,,,,,,,,
1703495939.988310,1703495939.989353,68.000000,0.000000,4271.666504,4249.743652,4343.974121,4323.461426,4246.794922,4263.589844,4276.410156,4235.384766,4251.922852,4252.563965,4589.358887,4488.974121,4417.307617,4506.153809,5315.000000,4.000000,75.000000,,,,0.000000,4.000000,4.000000,4.000000,4.000000,4.000000,4.000000,4.000000,4.000000,4.000000,4.000000,4.000000,4.000000,4.000000,4.000000,100.000000,,,,,,,,,,,,,,,,,17.000000,0.000000,0.675379,0.249634,-0.663147,0.204407,0.985960,0.067391,0.002930,-17.425373,-38.977699,64.615265
1703495939.996118,1703495939.997161,69.000000,0.000000,4271.025879,4243.333496,4342.820313,4324.615234,4252.307617,4264.743652,4272.820313,4237.436035,4250.256348,4239.358887,4586.025879,4494.615234,4412.179688,4498.333496,4989.000000,4.000000,75.000000,,,,0.000000,4.000000,4.000000,4.000000,4.000000,4.000000,4.000000,4.000000,4.000000,4.000000,4.000000,4.000000,4.000000,4.000000,4.000000,100.000000,,,,,,,,,,,,,,,,,,,,,,,,,,,,
1703495940.003926,1703495940.005069,70.000000,0.000000,4281.153809,4248.077148,4343.077148,4325.256348,4258.077148,4266.025879,4278.205078,4225.128418,4240.897461,4222.563965,4573.717773,4496.410156,4405.000000,4483.077148,3137.000000,4.000000,75.000000,,,,0.000000,4.000000,4.000000,4.000000,4.000000,4.000000,4.000000,4.000000,4.000000,4.000000,4.000000,4.000000,4.000000,4.000000,4.000000,100.000000,,,,,,,,,,,,,,,,,,,,,,,,,,,,
1703495940.011734,1703495940.012877,71.000000,0.000000,4284.615234,4252.436035,4342.436035,4323.077148,4252.820313,4265.897461,4280.512695,4214.871582,4232.051270,4230.000000,4575.512695,4491.153809,4411.025879,4498.846191,3879.000000,4.000000,75.000000,,,,0.000000,4.000000,4.000000,4.000000,4.000000,4.000000,4.000000,4.000000,4.000000,4.000000,4.000000,4.000000,4.000000,4.000000,4.000000,100.000000,,,,,,,,,,,,,,,,,,,,,,,,,,,,
1703495940.019542,1703495940.020585,72.000000,0.000000,4273.846191,4249.358887,4341.153809,4325.897461,4244.871582,4257.307617,4275.000000,4216.282227,4230.641113,4236.666504,4587.307617,4485.256348,4417.436035,4504.615234,3712.000000,4.000000,75.000000,,,,0.000000,4.000000,4.000000,4.000000,4.000000,4.000000,4.000000,4.000000,4.000000,4.000000,4.000000,4.000000,4.000000,4.000000,4.000000,100.000000,,,,,,,,,,,,,,,,,18.000000,0.000000,0.675380,0.249695,-0.663086,0.204529,0.992797,0.059578,-0.002442,-17.482836,-38.946594,64.753738
1703495940.027350,1703495940.028393,73.000000,0.000000,4266.282227,4249.230957,4344.358887,4327.948730,4253.717773,4251.025879,4276.410156,4215.897461,4234.102539,4230.769043,4589.743652,4490.256348,4412.179688,4487.563965,5674.000000,4.000000,75.000000,,,,0.000000,4.000000,4.000000,4.000000,4.000000,4.000000,4.000000,4.000000,4.000000,4.000000,4.000000,4.000000,4.000000,4.000000,4.000000,100.000000,,,,,,,,,,,,,,,,,,,,,,,,,,,,
1703495940.035158,1703495940.036101,74.000000,0.000000,4283.077148,4256.666504,4347.948730,4331.025879,4267.307617,4250.000000,4281.666504,4207.051270,4230.000000,4236.794922,4587.051270,4495.384766,4417.820313,4500.256348,5938.000000,4.000000,75.000000,,,,0.000000,4.000000,4.000000,4.000000,4.000000,4.000000,4.000000,4.000000,4.000000,4.000000,4.000000,4.000000,4.000000,4.000000,4.000000,100.000000,,,,,,,,,,,,,,,,,,,,,,,,,,,,
1703495940.042966,1703495940.044009,75.000000,0.000000,4303.461426,4263.717773,4351.153809,4339.102539,4259.102539,4240.256348,4276.922852,4200.384766,4221.025879,4248.461426,4590.384766,4493.846191,4431.153809,4528.205078,6195.000000,4.000000,75.000000,,,,0.000000,4.000000,4.000000,4.000000,4.000000,4.000000,4.000000,4.000000,4.000000,4.000000,4.000000,4.000000,4.000000,4.000000,4.000000,100.000000,,,,,,,,,,,,,,,,,,,,,,,,,,,,
1703495940.050774,1703495940.051817,76.000000,0.000000,4298.846191,4263.589844,4351.666504,4343.717773,4247.051270,4231.153809,4269.615234,4208.589844,4222.948730,4244.487305,4597.179688,4494.487305,4431.922852,4525.641113,6656.000000,4.000000,75.000000,,,,0.000000,4.000000,4.000000,4.000000,4.000000,4.000000,4.000000,4.000000,4.000000,4.000000,4.000000,4.000000,4.000000,4.000000,4.000000,100.000000,,,,,,,,,,,,,,,,,19.000000,0.000000,0.675398,0.249756,-0.663025,0.204590,0.996704,0.066414,-0.012697,-17.434551,-38.901936,64.728363
1703495940.058582,1703495940.059625,77.000000,0.000000,4285.256348,4259.487305,4349.358887,4345.256348,4250.641113,4230.897461,4269.102539,4216.025879,4228.846191,4227.692383,4598.205078,4493.205078,4425.000000,4507.820313,6265.000000,4.000000,75.000000,,,,0.000000,4.000000,4.000000,4.000000,4.000000,4.000000,4.000000,4.000000,4.000000,4.000000,4.000000,4.000000,4.000000,4.000000,4.000000,100.000000,,,,,,,,,,,,,,,,,,,,,,,,,,,,
1703495940.066390,1703495940.067333,78.000000,0.000000,4284.102539,4252.051270,4343.974121,4341.794922,4250.769043,4224.615234,4266.410156,4213.846191,4226.538574,4220.512695,4585.512695,4484.102539,4411.666504,4497.051270,5938.000000,4.000000,75.000000,,,,0.000000,4.000000,4.000000,4.000000,4.000000,4.000000,4.000000,4.000000,4.000000,4.000000,4.000000,4.000000,4.000000,4.000000,4.000000,100.000000,,,,,,,,,,,,,,,,,,,,,,,,,,,,
1703495940.074198,1703495940.075141,79.000000,0.000000,4278.974121,4245.769043,4334.743652,4330.512695,4242.948730,4222.436035,4264.102539,4221.153809,4227.563965,4230.897461,4570.384766,4473.846191,4396.922852,4486.282227,6195.000000,4.000000,75.000000,,,,0.000000,4.000000,4.000000,4.000000,4.000000,4.000000,4.000000,4.000000,4.000000,4.000000,4.000000,4.000000,4.000000,4.000000,4.000000,100.000000,,,,,,,,,,,,,,,,,,,,,,,,,,,,
1703495940.082006,1703495940.082849,80.000000,0.000000,4260.641113,4245.641113,4331.922852,4321.410156,4245.128418,4240.512695,4269.871582,4232.179688,4236.153809,4231.794922,4566.666504,4469.230957,4391.282227,4478.205078,6656.000000,4.000000,75.000000,,,,0.000000,4.000000,4.000000,4.000000,4.000000,4.000000,4.000000,4.000000,4.000000,4.000000,4.000000,4.000000,4.000000,4.000000,4.000000,100.000000,,,,,,,,,,,,,,,,,20.000000,0.000000,0.675421,0.249756,-0.662964,0.204712,0.997680,0.054694,0.010743,-17.441097,-38.945076,64.705528
1703495940.089814,1703495940.090657,81.000000,0.000000,4251.153809,4245.256348,4333.333496,4323.333496,4250.000000,4251.282227,4275.128418,4230.897461,4237.436035,4216.666504,4565.769043,4471.282227,4393.461426,4477.563965,6265.000000,4.000000,75.000000,,,,0.000000,4.000000,4.000000,4.000000,4.000000,4.000000,4.000000,4.000000,4.000000,4.000000,4.000000,4.000000,4.000000,4.000000,4.000000,100.000000,,,,,,,,,,,,,,,,,,,,,,,,,,,,
1703495940.097622,1703495940.098365,82.000000,0.000000,4266.666504,4244.615234,4332.948730,4329.358887,4250.384766,4249.615234,4276.282227,4225.769043,4235.000000,4215.512695,4571.025879,4478.333496,4400.769043,4481.666504,5938.000000,4.000000,75.000000,,,,0.000000,4.000000,4.000000,4.000000,4.000000,4.000000,4.000000,4.000000,4.000000,4.000000,4.000000,4.000000,4.000000,4.000000,4.000000,100.000000,,,,,,,,,,,,,,,,,,,,,,,,,,,,
1703495940.105430,1703495940.106173,83.000000,0.000000,4285.256348,4252.948730,4340.384766,4335.000000,4254.230957,4257.692383,4278.846191,4221.025879,4235.641113,4235.128418,4581.282227,4486.025879,4410.641113,4493.333496,6195.000000,4.000000,75.000000,,,,0.000000,4.000000,4.000000,4.000000,4.000000,4.000000,4.000000,4.000000,4.000000,4.000000,4.000000,4.000000,4.000000,4.000000,4.000000,100.000000,,,,,,,,,,,,,,,,,,,,,,,,,,,,
1703495940.113238,1703495940.113881,84.000000,0.000000,4288.077148,4264.871582,4348.077148,4340.769043,4259.871582,4267.307617,4282.692383,4215.769043,4234.871582,4243.717773,4588.846191,4489.615234,4420.384766,4509.871582,6656.000000,4.000000,75.000000,,,,0.000000,4.000000,4.000000,4.000000,4.000000,4.000000,4.000000,4.000000,4.000000,4.000000,4.000000,4.000000,4.000000,4.000000,4.000000,100.000000,,,,,,,,,,,,,,,,,21.000000,0.000000,0.675519,0.249817,-0.662842,0.204712,0.986937,0.072274,0.000000,-17.663654,-38.983902,64.734970
1703495940.121046,1703495940.121689,85.000000,0.000000,4291.282227,4269.487305,4348.974121,4343.717773,4266.153809,4267.051270,4286.538574,4213.333496,4234.487305,4232.563965,4596.025879,4496.410156,4426.922852,4521.922852,6265.000000,4.000000,75.000000,,,,0.000000,4.000000,4.000000,4.000000,4.000000,4.000000,4.000000,4.000000,4.000000,4.000000,4.000000,4.000000,4.000000,4.000000,4.000000,100.000000,,,,,,,,,,,,,,,,,,,,,,,,,,,,
1703495940.128854,1703495940.129397,86.000000,0.000000,4293.461426,4267.051270,4350.897461,4344.743652,4268.717773,4263.077148,4287.051270,4208.205078,4236.153809,4233.846191,4603.717773,4502.307617,4433.077148,4531.794922,5938.000000,4.000000,75.000000,,,,0.000000,4.000000,4.000000,4.000000,4.000000,4.000000,4.000000,4.000000,4.000000,4.000000,4.000000,4.000000,4.000000,4.000000,4.000000,100.000000,,,,,,,,,,,,,,,,,,,,,,,,,,,,
1703495940.136662,1703495940.137205,87.000000,0.000000,4292.307617,4265.000000,4352.307617,4343.461426,4265.000000,4263.333496,4281.153809,4201.410156,4234.230957,4249.487305,4610.256348,4502.563965,4438.846191,4539.871582,6195.000000,4.000000,75.000000,,,,0.000000,4.000000,4.000000,4.000000,4.000000,4.000000,4.000000,4.000000,4.000000,4.000000,4.000000,4.000000,4.000000,4.000000,4.000000,100.000000,,,,,,,,,,,,,,,,,,,,,,,,,,,,
1703495940.144471,1703495940.144913,88.000000,0.000000,4289.615234,4264.743652,4353.589844,4341.538574,4263.205078,4261.794922,4280.000000,4202.436035,4223.205078,4248.077148,4608.589844,4503.077148,4437.436035,4531.794922,6656.000000,4.000000,75.000000,,,,0.000000,4.000000,4.000000,4.000000,4.000000,4.000000,4.000000,4.000000,4.000000,4.000000,4.000000,4.000000,4.000000,4.000000,4.000000,100.000000,,,,,,,,,,,,,,,,,22.000000,0.000000,0.675519,0.249817,-0.662842,0.204712,0.995727,0.058601,-0.000977,-17.797289,-38.952179,64.861473
1703495940.152279,1703495940.152721,89.000000,0.000000,4280.128418,4264.615234,4352.179688,4342.948730,4266.794922,4255.641113,4281.922852,4198.077148,4214.487305,4235.128418,4601.794922,4496.410156,4433.589844,4515.128418,6265.000000,4.000000,75.000000,,,,0.000000,4.000000,4.000000,4.000000,4.000000,4.000000,4.000000,4.000000,4.000000,4.000000,4.000000,4.000000,4.000000,4.000000,4.000000,100.000000,,,,,,,,,,,,,,,,,,,,,,,,,,,,
1703495940.160087,1703495940.160430,90.000000,0.000000,4279.487305,4265.384766,4346.410156,4343.846191,4263.333496,4244.358887,4278.974121,4194.487305,4220.384766,4239.358887,4599.358887,4485.256348,4434.487305,4520.512695,5938.000000,4.000000,75.000000,,,,0.000000,4.000000,4.000000,4.000000,4.000000,4.000000,4.000000,4.000000,4.000000,4.000000,4.000000,4.000000,4.000000,4.000000,4.000000,100.000000,,,,,,,,,,,,,,,,,,,,,,,,,,,,
1703495940.167895,1703495940.168337,91.000000,0.000000,4296.025879,4265.641113,4346.025879,4339.871582,4253.205078,4232.563965,4276.666504,4205.000000,4235.512695,4248.717773,4602.051270,4485.512695,4434.102539,4523.333496,6195.000000,4.000000,75.000000,,,,0.000000,4.000000,4.000000,4.000000,4.000000,4.000000,4.000000,4.000000,4.000000,4.000000,4.000000,4.000000,4.000000,4.000000,4.000000,100.000000,,,,,,,,,,,,,,,,,,,,,,,,,,,,
1703495940.175703,1703495940.176145,92.000000,0.000000,4297.820313,4259.102539,4348.205078,4335.512695,4249.230957,4231.538574,4276.922852,4216.538574,4247.307617,4245.897461,4602.179688,4493.077148,4426.666504,4508.333496,6656.000000,4.000000,75.000000,,,,0.000000,4.000000,4.000000,4.000000,4.000000,4.000000,4.000000,4.000000,4.000000,4.000000,4.000000,4.000000,4.000000,4.000000,4.000000,100.000000,,,,,,,,,,,,,,,,,23.000000,0.000000,0.675597,0.249756,-0.662842,0.204529,0.989867,0.065926,0.000000,-17.767559,-38.906960,64.958664
1703495940.183511,1703495940.184053,93.000000,0.000000,4281.538574,4250.769043,4346.153809,4335.128418,4249.871582,4239.230957,4276.922852,4226.922852,4248.974121,4244.230957,4599.743652,4499.487305,4427.820313,4510.641113,6265.000000,4.000000,75.000000,,,,0.000000,4.000000,4.000000,4.000000,4.000000,4.000000,4.000000,4.000000,4.000000,4.000000,4.000000,4.000000,4.000000,4.000000,4.000000,100.000000,,,,,,,,,,,,,,,,,,,,,,,,,,,,
1703495940.191319,1703495940.191861,94.000000,0.000000,4274.102539,4250.384766,4339.743652,4330.256348,4250.769043,4245.384766,4273.461426,4237.820313,4248.717773,4248.333496,4604.487305,4498.333496,4437.179688,4521.538574,5938.000000,4.000000,75.000000,,,,0.000000,4.000000,4.000000,4.000000,4.000000,4.000000,4.000000,4.000000,4.000000,4.000000,4.000000,4.000000,4.000000,4.000000,4.000000,100.000000,,,,,,,,,,,,,,,,,,,,,,,,,,,,
1703495940.199127,1703495940.199769,95.000000,0.000000,4271.153809,4249.871582,4333.461426,4317.563965,4247.179688,4248.333496,4271.153809,4240.769043,4247.820313,4249.230957,4602.051270,4493.461426,4432.948730,4508.461426,6195.000000,4.000000,75.000000,,,,0.000000,4.000000,4.000000,4.000000,4.000000,4.000000,4.000000,4.000000,4.000000,4.000000,4.000000,4.000000,4.000000,4.000000,4.000000,100.000000,,,,,,,,,,,,,,,,,,,,,,,,,,,,
1703495940.206935,1703495940.207577,96.000000,0.000000,4262.307617,4245.641113,4334.871582,4319.102539,4243.974121,4251.538574,4276.282227,4234.615234,4240.128418,4245.128418,4591.538574,4495.128418,4424.871582,4495.512695,6656.000000,4.000000,75.000000,,,,0.000000,4.000000,4.000000,4.000000,4.000000,4.000000,4.000000,4.000000,4.000000,4.000000,4.000000,4.000000,4.000000,4.000000,4.000000,100.000000,,,,,,,,,,,,,,,,,24.000000,0.000000,0.675570,0.249817,-0.662903,0.204346,0.992309,0.065438,-0.001953,-17.757471,-38.882931,64.812798
1703495940.214743,1703495940.215485,97.000000,0.000000,4261.666504,4250.769043,4340.512695,4335.256348,4252.692383,4254.102539,4279.615234,4233.974121,4232.948730,4248.974121,4595.128418,4501.025879,4436.922852,4513.333496,6265.000000,4.000000,75.000000,,,,0.000000,4.000000,4.000000,4.000000,4.000000,4.000000,4.000000,4.000000,4.000000,4.000000,4.000000,4.000000,4.000000,4.000000,4.000000,100.000000,,,,,,,,,,,,,,,,,,,,,,,,,,,,
1703495940.222551,1703495940.223293,98.000000,0.000000,4274.358887,4259.615234,4343.077148,4339.358887,4264.871582,4252.948730,4278.589844,4241.410156,4234.230957,4250.769043,4601.666504,4502.051270,4446.666504,4526.025879,5938.000000,4.000000,75.000000,,,,0.000000,4.000000,4.000000,4.000000,4.000000,4.000000,4.000000,4.000000,4.000000,4.000000,4.000000,4.000000,4.000000,4.000000,4.000000,100.000000,,,,,,,,,,,,,,,,,,,,,,,,,,,,
1703495940.230359,1703495940.231201,99.000000,0.000000,4288.205078,4262.179688,4345.128418,4334.743652,4267.179688,4250.384766,4280.384766,4241.410156,4236.666504,4244.615234,4595.000000,4497.179688,4438.589844,4517.948730,6195.000000,4.000000,75.000000,,,,0.000000,4.000000,4.000000,4.000000,4.000000,4.000000,4.000000,4.000000,4.000000,4.000000,4.000000,4.000000,4.000000,4.000000,4.000000,100.000000,,,,,,,,,,,,,,,,,,,,,,,,,,,,
1703495940.238167,1703495940.239009,100.000000,0.000000,4289.743652,4264.358887,4346.282227,4337.436035,4263.461426,4246.025879,4280.000000,4233.461426,4229.615234,4247.563965,4596.538574,4494.615234,4436.025879,4520.000000,6656.000000,4.000000,75.000000,,,,0.000000,4.000000,4.000000,4.000000,4.000000,4.000000,4.000000,4.000000,4.000000,4.000000,4.000000,4.000000,4.000000,4.000000,4.000000,100.000000,,,,,,,,,,,,,,,,,25.000000,0.000000,0.675558,0.250061,-0.662842,0.204285,0.987425,0.065926,0.006837,-17.681723,-38.927971,64.664848
1703495940.245975,1703495940.246717,101.000000,0.000000,4289.358887,4267.692383,4347.563965,4341.153809,4261.153809,4241.794922,4277.307617,4227.179688,4218.846191,4246.153809,4600.769043,4498.077148,4437.436035,4525.128418,6265.000000,4.000000,75.000000,,,,0.000000,4.000000,4.000000,4.000000,4.000000,4.000000,4.000000,4.000000,4.000000,4.000000,4.000000,4.000000,4.000000,4.000000,4.000000,100.000000,,,,,,,,,,,,,,,,,,,,,,,,,,,,
1703495940.253783,1703495940.254525,102.000000,0.000000,4293.461426,4267.179688,4346.282227,4338.205078,4262.948730,4243.846191,4279.487305,4228.974121,4220.256348,4235.512695,4590.897461,4494.358887,4428.589844,4517.820313,5938.000000,4.000000,75.000000,,,,0.000000,4.000000,4.000000,4.000000,4.000000,4.000000,4.000000,4.000000,4.000000,4.000000,4.000000,4.000000,4.000000,4.000000,4.000000,100.000000,,,,,,,,,,,,,,,,,,,,,,,,,,,,
1703495940.261591,1703495940.262233,103.000000,0.000000,4276.794922,4257.692383,4340.128418,4330.000000,4264.871582,4247.948730,4280.256348,4231.922852,4228.461426,4232.948730,4584.230957,4484.871582,4420.769043,4498.974121,6195.000000,4.000000,75.000000,,,,0.000000,4.000000,4.000000,4.000000,4.000000,4.000000,4.000000,4.000000,4.000000,4.000000,4.000000,4.000000,4.000000,4.000000,4.000000,100.000000,,,,,,,,,,,,,,,,,,,,,,,,,,,,
1703495940.269399,1703495940.270041,104.000000,0.000000,4257.307617,4248.077148,4337.436035,4323.461426,4256.666504,4248.205078,4275.512695,4233.974121,4232.948730,4232.820313,4589.230957,4484.358887,4420.512695,4484.230957,6656.000000,4.000000,75.000000,,,,0.000000,4.000000,4.000000,4.000000,4.000000,4.000000,4.000000,4.000000,4.000000,4.000000,4.000000,4.000000,4.000000,4.000000,4.000000,100.000000,,,,,,,,,,,,,,,,,26.000000,0.000000,0.675591,0.250183,-0.662781,0.204224,0.999634,0.064461,0.009278,-17.563551,-38.835175,64.698364
1703495940.277207,1703495940.277749,105.000000,0.000000,4271.282227,4252.051270,4340.384766,4328.461426,4247.179688,4249.487305,4277.051270,4241.025879,4239.358887,4225.512695,4596.025879,4491.538574,4422.307617,4493.717773,6265.000000,4.000000,75.000000,,,,0.000000,4.000000,4.000000,4.000000,4.000000,4.000000,4.000000,4.000000,4.000000,4.000000,4.000000,4.000000,4.000000,4.000000,4.000000,100.000000,,,,,,,,,,,,,,,,,,,,,,,,,,,,
1703495940.285015,1703495940.285557,106.000000,0.000000,4279.871582,4249.230957,4342.179688,4327.820313,4248.461426,4252.820313,4279.487305,4248.461426,4242.563965,4231.538574,4602.307617,4499.102539,4426.666504,4519.358887,5938.000000,4.000000,75.000000,,,,0.000000,4.000000,4.000000,4.000000,4.000000,4.000000,4.000000,4.000000,4.000000,4.000000,4.000000,4.000000,4.000000,4.000000,4.000000,100.000000,1.000000,75.000000,4.000000,3.000000,3.000000,4.000000,4.000000,4.000000,4.000000,4.000000,4.000000,4.000000,4.000000,4.000000,4.000000,3.000000,,,,,,,,,,,,
1703495940.292823,1703495940.293265,107.000000,0.000000,4260.769043,4233.205078,4336.410156,4310.512695,4249.230957,4252.820313,4271.410156,4248.077148,4233.461426,4243.717773,4599.358887,4499.743652,4427.436035,4518.846191,6195.000000,4.000000,75.000000,,,,0.000000,4.000000,4.000000,4.000000,4.000000,4.000000,4.000000,4.000000,4.000000,4.000000,4.000000,4.000000,4.000000,4.000000,4.000000,100.000000,,,,,,,,,,,,,,,,,,,,,,,,,,,,
1703495940.300631,1703495940.301073,108.000000,0.000000,4256.666504,4233.846191,4335.128418,4306.922852,4247.179688,4248.717773,4268.846191,4243.589844,4231.025879,4232.563965,4594.615234,4495.897461,4424.871582,4499.358887,6656.000000,4.000000,75.000000,,,,0.000000,4.000000,4.000000,4.000000,4.000000,4.000000,4.000000,4.000000,4.000000,4.000000,4.000000,4.000000,4.000000,4.000000,4.000000,100.000000,,,,,,,,,,,,,,,,,27.000000,0.000000,0.675700,0.250061,-0.662659,0.204407,0.998169,0.054206,0.004883,-17.523863,-38.901657,64.528526
1703495940.308440,1703495940.308781,109.000000,0.000000,4270.128418,4246.153809,4342.820313,4319.102539,4248.333496,4247.051270,4275.000000,4241.538574,4236.922852,4226.025879,4600.512695,4504.230957,4427.948730,4505.641113,6265.000000,4.000000,75.000000,,,,0.000000,4.000000,4.000000,4.000000,4.000000,4.000000,4.000000,4.000000,4.000000,4.000000,4.000000,4.000000,4.000000,4.000000,4.000000,100.000000,,,,,,,,,,,,,,,,,,,,,,,,,,,,
1703495940.316248,1703495940.316589,110.000000,0.000000,4277.051270,4247.820313,4344.358887,4321.922852,4247.692383,4248.205078,4277.179688,4231.282227,4233.717773,4243.846191,4604.615234,4512.820313,4433.717773,4522.179688,5938.000000,4.000000,75.000000,,,,0.000000,4.000000,4.000000,4.000000,4.000000,4.000000,4.000000,4.000000,4.000000,4.000000,4.000000,4.000000,4.000000,4.000000,4.000000,100.000000,,,,,,,,,,,,,,,,,,,,,,,,,,,,
1703495940.324056,1703495940.324297,111.000000,0.000000,4279.102539,4254.615234,4347.307617,4323.846191,4251.025879,4244.487305,4277.820313,4218.846191,4230.384766,4248.333496,4599.871582,4509.230957,4435.769043,4523.333496,6195.000000,4.000000,75.000000,,,,0.000000,4.000000,4.000000,4.000000,4.000000,4.000000,4.000000,4.000000,4.000000,4.000000,4.000000,4.000000,4.000000,4.000000,4.000000,100.000000,,,,,,,,,,,,,,,,,,,,,,,,,,,,
1703495940.331864,1703495940.332105,112.000000,0.000000,4283.846191,4269.102539,4356.666504,4336.794922,4259.743652,4236.538574,4277.051270,4215.641113,4228.974121,4230.512695,4599.871582,4505.256348,4433.717773,4521.153809,6656.000000,4.000000,75.000000,,,,0.000000,4.000000,4.000000,4.000000,4.000000,4.000000,4.000000,4.000000,4.000000,4.000000,4.000000,4.000000,4.000000,4.000000,4.000000,100.000000,,,,,,,,,,,,,,,,,28.000000,0.000000,0.675514,0.249878,-0.662842,0.204651,0.998657,0.062019,-0.003907,-17.538143,-38.761490,64.509010
1703495940.339672,1703495940.339813,113.000000,0.000000,4291.153809,4270.641113,4360.000000,4345.641113,4257.436035,4231.666504,4275.128418,4217.692383,4220.641113,4228.846191,4603.077148,4508.205078,4435.384766,4526.538574,6265.000000,4.000000,75.000000,,,,0.000000,4.000000,4.000000,4.000000,4.000000,4.000000,4.000000,4.000000,4.000000,4.000000,4.000000,4.000000,4.000000,4.000000,4.000000,100.000000,,,,,,,,,,,,,,,,,,,,,,,,,,,,
1703495940.347480,1703495940.347721,114.000000,0.000000,4292.307617,4262.563965,4354.230957,4343.846191,4248.461426,4233.077148,4274.487305,4225.256348,4212.820313,4235.256348,4596.538574,4505.256348,4432.436035,4524.102539,5938.000000,4.000000,75.000000,,,,0.000000,4.000000,4.000000,4.000000,4.000000,4.000000,4.000000,4.000000,4.000000,4.000000,4.000000,4.000000,4.000000,4.000000,4.000000,100.000000,,,,,,,,,,,,,,,,,,,,,,,,,,,,
1703495940.355288,1703495940.355529,115.000000,0.000000,4285.512695,4255.384766,4341.922852,4333.333496,4246.282227,4239.743652,4271.153809,4233.077148,4215.512695,4222.307617,4582.692383,4489.358887,4418.333496,4508.333496,6195.000000,4.000000,75.000000,,,,0.000000,4.000000,4.000000,4.000000,4.000000,4.000000,4.000000,4.000000,4.000000,4.000000,4.000000,4.000000,4.000000,4.000000,4.000000,100.000000,,,,,,,,,,,,,,,,,,,,,,,,,,,,
1703495940.363096,1703495940.363437,116.000000,0.000000,4272.692383,4242.307617,4333.717773,4317.948730,4245.641113,4245.512695,4266.922852,4237.563965,4222.563965,4216.153809,4570.512695,4481.794922,4406.922852,4489.743652,6656.000000,4.000000,75.000000,,,,0.000000,4.000000,4.000000,4.000000,4.000000,4.000000,4.000000,4.000000,4.000000,4.000000,4.000000,4.000000,4.000000,4.000000,4.000000,100.000000,,,,,,,,,,,,,,,,,29.000000,0.000000,0.675429,0.249634,-0.662964,0.204834,0.974240,0.063973,0.004883,-17.400995,-38.685341,64.591438
1703495940.370904,1703495940.371245,117.000000,0.000000,4259.102539,4232.179688,4332.307617,4309.487305,4243.589844,4247.692383,4270.000000,4234.615234,4227.179688,4220.512695,4563.589844,4481.025879,4400.897461,4472.051270,6265.000000,4.000000,75.000000,,,,0.000000,4.000000,4.000000,4.000000,4.000000,4.000000,4.000000,4.000000,4.000000,4.000000,4.000000,4.000000,4.000000,4.000000,4.000000,100.000000,,,,,,,,,,,,,,,,,,,,,,,,,,,,
1703495940.378712,1703495940.379153,118.000000,0.000000,4256.282227,4232.051270,4323.717773,4305.512695,4244.358887,4252.948730,4274.487305,4223.717773,4231.538574,4215.256348,4562.307617,4470.641113,4395.897461,4468.846191,5938.000000,4.000000,75.000000,,,,0.000000,4.000000,4.000000,4.000000,4.000000,4.000000,4.000000,4.000000,4.000000,4.000000,4.000000,4.000000,4.000000,4.000000,4.000000,100.000000,,,,,,,,,,,,,,,,,,,,,,,,,,,,
1703495940.386520,1703495940.386961,119.000000,0.000000,4257.820313,4233.974121,4318.974121,4301.922852,4245.384766,4261.922852,4275.256348,4216.410156,4236.410156,4212.692383,4561.025879,4464.743652,4394.615234,4482.820313,6195.000000,4.000000,75.000000,,,,0.000000,4.000000,4.000000,4.000000,4.000000,4.000000,4.000000,4.000000,4.000000,4.000000,4.000000,4.000000,4.000000,4.000000,4.000000,100.000000,,,,,,,,,,,,,,,,,,,,,,,,,,,,
1703495940.394328,1703495940.394868,120.000000,0.000000,4256.538574,4237.307617,4324.487305,4305.000000,4247.051270,4260.256348,4275.000000,4212.436035,4237.563965,4217.179688,4556.922852,4466.666504,4399.743652,4491.922852,6656.000000,4.000000,75.000000,,,,0.000000,4.000000,4.000000,4.000000,4.000000,4.000000,4.000000,4.000000,4.000000,4.000000,4.000000,4.000000,4.000000,4.000000,4.000000,100.000000,,,,,,,,,,,,,,,,,30.000000,0.000000,0.675452,0.249634,-0.662903,0.204956,0.996215,0.066903,-0.006837,-17.494228,-38.583473,64.498962
1703495940.402136,1703495940.402676,121.000000,0.000000,4265.384766,4247.436035,4329.615234,4310.256348,4246.922852,4251.538574,4276.282227,4209.358887,4231.922852,4216.153809,4560.384766,4471.282227,4407.051270,4493.077148,6265.000000,4.000000,75.000000,,,,0.000000,4.000000,4.000000,4.000000,4.000000,4.000000,4.000000,4.000000,4.000000,4.000000,4.000000,4.000000,4.000000,4.000000,4.000000,100.000000,,,,,,,,,,,,,,,,,,,,,,,,,,,,
1703495940.409944,1703495940.410584,122.000000,0.000000,4279.487305,4257.436035,4338.333496,4312.692383,4243.974121,4247.179688,4275.897461,4213.333496,4227.692383,4219.615234,4576.410156,4487.563965,4416.025879,4504.743652,5938.000000,4.000000,75.000000,,,,0.000000,4.000000,4.000000,4.000000,4.000000,4.000000,4.000000,4.000000,4.000000,4.000000,4.000000,4.000000,4.000000,4.000000,4.000000,100.000000,,,,,,,,,,,,,,,,,,,,,,,,,,,,
1703495940.417752,1703495940.418392,123.000000,0.000000,4282.179688,4260.128418,4345.512695,4319.102539,4244.615234,4242.948730,4272.692383,4220.512695,4229.615234,4231.153809,4587.692383,4507.307617,4423.974121,4519.615234,6195.000000,4.000000,75.000000,,,,0.000000,4.000000,4.000000,4.000000,4.000000,4.000000,4.000000,4.000000,4.000000,4.000000,4.000000,4.000000,4.000000,4.000000,4.000000,100.000000,,,,,,,,,,,,,,,,,,,,,,,,,,,,
1703495940.425560,1703495940.426100,124.000000,0.000000,4298.461426,4269.230957,4351.410156,4327.436035,4244.871582,4240.769043,4275.256348,4215.128418,4230.256348,4237.692383,4589.615234,4511.666504,4431.153809,4524.102539,6656.000000,4.000000,75.000000,,,,0.000000,4.000000,4.000000,4.000000,4.000000,4.000000,4.000000,4.000000,4.000000,4.000000,4.000000,4.000000,4.000000,4.000000,4.000000,100.000000,,,,,,,,,,,,,,,,,31.000000,0.000000,0.675467,0.249756,-0.662842,0.204956,0.992309,0.059578,-0.002930,-17.461473,-38.675125,64.482399
1703495940.433368,1703495940.433908,125.000000,0.000000,4324.102539,4286.410156,4359.230957,4336.794922,4251.025879,4244.871582,4281.922852,4208.077148,4232.051270,4240.769043,4593.077148,4511.538574,4439.230957,4531.666504,6265.000000,4.000000,75.000000,,,,0.000000,4.000000,4.000000,4.000000,4.000000,4.000000,4.000000,4.000000,4.000000,4.000000,4.000000,4.000000,4.000000,4.000000,4.000000,100.000000,,,,,,,,,,,,,,,,,,,,,,,,,,,,
1703495940.441176,1703495940.441616,126.000000,0.000000,4322.051270,4290.128418,4355.128418,4342.563965,4261.538574,4248.333496,4281.282227,4225.512695,4235.769043,4249.615234,4604.102539,4518.846191,4445.128418,4542.051270,5938.000000,4.000000,75.000000,,,,0.000000,4.000000,4.000000,4.000000,4.000000,4.000000,4.000000,4.000000,4.000000,4.000000,4.000000,4.000000,4.000000,4.000000,4.000000,100.000000,,,,,,,,,,,,,,,,,,,,,,,,,,,,
1703495940.448985,1703495940.449424,127.000000,0.000000,4304.358887,4276.666504,4341.025879,4335.000000,4258.205078,4242.948730,4278.077148,4247.692383,4232.307617,4257.948730,4616.538574,4521.282227,4450.897461,4542.820313,75.000000,4.000000,75.000000,,,,0.000000,4.000000,4.000000,4.000000,4.000000,4.000000,4.000000,4.000000,4.000000,4.000000,4.000000,4.000000,4.000000,4.000000,4.000000,100.000000,,,,,,,,,,,,,,,,,,,,,,,,,,,,
1703495940.456792,1703495940.457132,0.000000,0.000000,4291.025879,4266.153809,4331.922852,4324.615234,4249.615234,4235.256348,4277.179688,4243.974121,4224.743652,4248.205078,4607.307617,4508.461426,4444.358887,4526.922852,4662.000000,4.000000,75.000000,,,,0.000000,4.000000,4.000000,4.000000,4.000000,4.000000,4.000000,4.000000,4.000000,4.000000,4.000000,4.000000,4.000000,4.000000,4.000000,100.000000,,,,,,,,,,,,,,,,,0.000000,0.000000,0.675560,0.249817,-0.662781,0.204773,0.995239,0.060554,-0.001465,-17.515326,-38.724281,64.634163
1703495940.464600,1703495940.465040,1.000000,0.000000,4285.512695,4265.769043,4331.922852,4324.358887,4245.384766,4230.256348,4275.512695,4229.230957,4218.717773,4219.615234,4578.717773,4492.563965,4417.051270,4506.025879,5649.000000,4.000000,75.000000,,,,0.000000,4.000000,4.000000,4.000000,4.000000,4.000000,4.000000,4.000000,4.000000,4.000000,4.000000,4.000000,4.000000,4.000000,4.000000,100.000000,,,,,,,,,,,,,,,,,,,,,,,,,,,,
1703495940.472408,1703495940.472849,2.000000,0.000000,4280.000000,4265.512695,4336.538574,4325.384766,4233.974121,4227.948730,4267.820313,4229.487305,4216.153809,4205.769043,4571.538574,4491.794922,4403.589844,4504.102539,5434.000000,4.000000,75.000000,,,,0.000000,4.000000,4.000000,4.000000,4.000000,4.000000,4.000000,4.000000,4.000000,4.000000,4.000000,4.000000,4.000000,4.000000,4.000000,100.000000,,,,,,,,,,,,,,,,,,,,,,,,,,,,
1703495940.480217,1703495940.480757,3.000000,0.000000,4265.512695,4259.743652,4338.974121,4318.205078,4226.282227,4231.538574,4264.230957,4236.410156,4223.717773,4226.538574,4585.897461,4498.205078,4413.461426,4506.410156,5455.000000,4.000000,75.000000,,,,0.000000,4.000000,4.000000,4.000000,4.000000,4.000000,4.000000,4.000000,4.000000,4.000000,4.000000,4.000000,4.000000,4.000000,4.000000,100.000000,,,,,,,,,,,,,,,,,,,,,,,,,,,,
1703495940.488025,1703495940.488565,4.000000,0.000000,4260.641113,4247.948730,4334.487305,4310.256348,4231.153809,4233.717773,4268.589844,4234.358887,4231.153809,4236.282227,4580.769043,4497.436035,4410.384766,4496.282227,5315.000000,4.000000,75.000000,,,,0.000000,4.000000,4.000000,4.000000,4.000000,4.000000,4.000000,4.000000,4.000000,4.000000,4.000000,4.000000,4.000000,4.000000,4.000000,100.000000,,,,,,,,,,,,,,,,,1.000000,0.000000,0.675541,0.249817,-0.662781,0.204834,0.985960,0.056648,0.003418,-17.613792,-38.851852,64.604080
1703495940.495833,1703495940.496473,5.000000,0.000000,4273.205078,4241.538574,4328.461426,4307.436035,4232.820313,4231.025879,4268.717773,4224.358887,4231.025879,4217.948730,4565.769043,4488.461426,4398.333496,4486.410156,4989.000000,4.000000,75.000000,,,,0.000000,4.000000,4.000000,4.000000,4.000000,4.000000,4.000000,4.000000,4.000000,4.000000,4.000000,4.000000,4.000000,4.000000,4.000000,100.000000,,,,,,,,,,,,,,,,,,,,,,,,,,,,
1703495940.503641,1703495940.504281,6.000000,0.000000,4285.128418,4250.897461,4331.794922,4310.256348,4235.769043,4236.794922,4269.102539,4216.282227,4233.333496,4216.410156,4569.871582,4484.102539,4406.922852,4490.512695,3137.000000,4.000000,75.000000,,,,0.000000,4.000000,4.000000,4.000000,4.000000,4.000000,4.000000,4.000000,4.000000,4.000000,4.000000,4.000000,4.000000,4.000000,4.000000,100.000000,,,,,,,,,,,,,,,,,,,,,,,,,,,,
1703495940.511449,1703495940.512089,7.000000,0.000000,4284.230957,4261.410156,4337.692383,4315.128418,4246.025879,4245.897461,4274.871582,4209.230957,4235.641113,4235.000000,4576.025879,4485.897461,4416.922852,4498.846191,3879.000000,4.000000,75.000000,,,,0.000000,4.000000,4.000000,4.000000,4.000000,4.000000,4.000000,4.000000,4.000000,4.000000,4.000000,4.000000,4.000000,4.000000,4.000000,100.000000,,,,,,,,,,,,,,,,,,,,,,,,,,,,
1703495940.519257,1703495940.519797,8.000000,0.000000,4278.077148,4258.077148,4333.333496,4318.589844,4246.410156,4240.769043,4277.179688,4202.179688,4230.897461,4238.205078,4569.615234,4483.974121,4413.077148,4503.974121,3712.000000,4.000000,75.000000,,,,0.000000,4.000000,4.000000,4.000000,4.000000,4.000000,4.000000,4.000000,4.000000,4.000000,4.000000,4.000000,4.000000,4.000000,4.000000,100.000000,,,,,,,,,,,,,,,,,2.000000,0.000000,0.675455,0.249939,-0.662842,0.204773,0.980588,0.071786,-0.001465,-17.502413,-38.900002,64.643669
1703495940.527065,1703495940.527705,9.000000,0.000000,4285.256348,4259.358887,4333.589844,4323.589844,4241.538574,4231.282227,4275.000000,4205.769043,4231.666504,4229.230957,4570.897461,4486.922852,4417.563965,4510.769043,5649.000000,4.000000,75.000000,,,,0.000000,4.000000,4.000000,4.000000,4.000000,4.000000,4.000000,4.000000,4.000000,4.000000,4.000000,4.000000,4.000000,4.000000,4.000000,100.000000,,,,,,,,,,,,,,,,,,,,,,,,,,,,
1703495940.534873,1703495940.535513,10.000000,0.000000,4299.615234,4273.974121,4343.077148,4327.051270,4244.230957,4233.205078,4274.487305,4214.358887,4235.769043,4239.102539,4590.641113,4496.794922,4436.282227,4521.282227,5938.000000,4.000000,75.000000,,,,0.000000,4.000000,4.000000,4.000000,4.000000,4.000000,4.000000,4.000000,4.000000,4.000000,4.000000,4.000000,4.000000,4.000000,4.000000,100.000000,,,,,,,,,,,,,,,,,,,,,,,,,,,,
1703495940.542681,1703495940.543421,11.000000,0.000000,4303.717773,4280.384766,4346.282227,4328.205078,4248.205078,4242.563965,4275.897461,4215.256348,4235.512695,4257.179688,4603.589844,4501.410156,4449.102539,4532.307617,6189.000000,4.000000,75.000000,,,,0.000000,4.000000,4.000000,4.000000,4.000000,4.000000,4.000000,4.000000,4.000000,4.000000,4.000000,4.000000,4.000000,4.000000,4.000000,100.000000,,,,,,,,,,,,,,,,,,,,,,,,,,,,
1703495940.550489,1703495940.551229,12.000000,0.000000,4300.512695,4276.794922,4349.871582,4327.820313,4251.666504,4246.410156,4277.307617,4224.102539,4238.333496,4251.282227,4593.974121,4502.051270,4447.820313,4531.666504,6651.000000,4.000000,75.000000,,,,0.000000,4.000000,4.000000,4.000000,4.000000,4.000000,4.000000,4.000000,4.000000,4.000000,4.000000,4.000000,4.000000,4.000000,4.000000,100.000000,,,,,,,,,,,,,,,,,3.000000,0.000000,0.675573,0.250305,-0.662659,0.204529,0.984007,0.057136,-0.010255,-17.402172,-38.943333,64.679306
1703495940.558297,1703495940.559136,13.000000,0.000000,4303.717773,4277.051270,4352.051270,4326.025879,4254.230957,4245.512695,4279.102539,4233.846191,4240.897461,4236.153809,4586.922852,4497.436035,4444.871582,4525.512695,6262.000000,4.000000,75.000000,,,,0.000000,4.000000,4.000000,4.000000,4.000000,4.000000,4.000000,4.000000,4.000000,4.000000,4.000000,4.000000,4.000000,4.000000,4.000000,100.000000,,,,,,,,,,,,,,,,,,,,,,,,,,,,
1703495940.566105,1703495940.566944,14.000000,0.000000,4305.512695,4282.179688,4345.512695,4327.948730,4252.820313,4255.000000,4283.333496,4221.282227,4240.384766,4238.974121,4594.871582,4490.512695,4446.025879,4522.820313,5938.000000,4.000000,75.000000,,,,0.000000,4.000000,4.000000,4.000000,4.000000,4.000000,4.000000,4.000000,4.000000,4.000000,4.000000,4.000000,4.000000,4.000000,4.000000,100.000000,,,,,,,,,,,,,,,,,,,,,,,,,,,,
1703495940.573913,1703495940.574852,15.000000,0.000000,4285.641113,4278.333496,4339.230957,4328.205078,4252.051270,4266.538574,4285.897461,4212.307617,4239.230957,4253.205078,4601.025879,4490.512695,4448.077148,4513.974121,6189.000000,4.000000,75.000000,,,,0.000000,4.000000,4.000000,4.000000,4.000000,4.000000,4.000000,4.000000,4.000000,4.000000,4.000000,4.000000,4.000000,4.000000,4.000000,100.000000,,,,,,,,,,,,,,,,,,,,,,,,,,,,
1703495940.581721,1703495940.582660,16.000000,0.000000,4265.256348,4260.256348,4328.333496,4315.256348,4251.153809,4258.974121,4279.871582,4227.692383,4233.589844,4250.384766,4598.589844,4488.589844,4449.102539,4508.205078,0.000000,4.000000,75.000000,,,,0.000000,4.000000,4.000000,4.000000,4.000000,4.000000,4.000000,4.000000,4.000000,4.000000,4.000000,4.000000,4.000000,4.000000,4.000000,100.000000,,,,,,,,,,,,,,,,,4.000000,0.000000,0.675491,0.250427,-0.662659,0.204651,0.993774,0.063484,0.003418,-17.311954,-38.899002,64.711372
1703495940.589529,1703495940.590568,17.000000,0.000000,4268.077148,4246.025879,4321.025879,4302.051270,4248.589844,4247.051270,4276.025879,4237.307617,4227.948730,4228.333496,4588.205078,4485.641113,4438.717773,4510.000000,0.000000,4.000000,75.000000,,,,0.000000,4.000000,4.000000,4.000000,4.000000,4.000000,4.000000,4.000000,4.000000,4.000000,4.000000,4.000000,4.000000,4.000000,4.000000,100.000000,,,,,,,,,,,,,,,,,,,,,,,,,,,,
1703495940.597337,1703495940.598376,18.000000,0.000000,4275.384766,4243.205078,4326.538574,4301.922852,4249.487305,4249.871582,4278.333496,4226.794922,4231.025879,4216.922852,4580.641113,4489.358887,4426.922852,4504.358887,0.000000,4.000000,75.000000,,,,0.000000,4.000000,4.000000,4.000000,4.000000,4.000000,4.000000,4.000000,4.000000,4.000000,4.000000,4.000000,4.000000,4.000000,4.000000,100.000000,,,,,,,,,,,,,,,,,,,,,,,,,,,,
1703495940.605145,1703495940.606284,19.000000,0.000000,4268.717773,4242.307617,4330.256348,4302.307617,4245.641113,4250.641113,4277.307617,4214.743652,4234.871582,4226.153809,4584.102539,4491.153809,4429.102539,4497.820313,0.000000,4.000000,75.000000,,,,0.000000,4.000000,4.000000,4.000000,4.000000,4.000000,4.000000,4.000000,4.000000,4.000000,4.000000,4.000000,4.000000,4.000000,4.000000,100.000000,,,,,,,,,,,,,,,,,,,,,,,,,,,,
1703495940.612953,1703495940.614192,20.000000,0.000000,4258.717773,4241.025879,4328.461426,4299.743652,4234.615234,4243.974121,4270.641113,4212.948730,4232.179688,4239.358887,4585.897461,4490.384766,4433.205078,4501.282227,0.000000,4.000000,75.000000,,,,0.000000,4.000000,4.000000,4.000000,4.000000,4.000000,4.000000,4.000000,4.000000,4.000000,4.000000,4.000000,4.000000,4.000000,4.000000,100.000000,,,,,,,,,,,,,,,,,5.000000,0.000000,0.675375,0.250366,-0.662781,0.204712,0.986449,0.070809,-0.010743,-17.264093,-39.009102,64.673569
1703495940.620762,1703495940.622000,21.000000,0.000000,4257.436035,4243.461426,4329.743652,4303.461426,4231.922852,4237.307617,4266.025879,4214.615234,4230.128418,4234.871582,4581.794922,4491.794922,4428.461426,4495.512695,0.000000,4.000000,75.000000,,,,0.000000,4.000000,4.000000,4.000000,4.000000,4.000000,4.000000,4.000000,4.000000,4.000000,4.000000,4.000000,4.000000,4.000000,4.000000,100.000000,,,,,,,,,,,,,,,,,,,,,,,,,,,,
1703495940.628569,1703495940.629908,22.000000,0.000000,4264.102539,4242.692383,4334.102539,4306.794922,4235.512695,4232.948730,4265.641113,4213.846191,4234.102539,4218.974121,4583.717773,4494.871582,4424.358887,4492.563965,0.000000,4.000000,75.000000,,,,0.000000,4.000000,4.000000,4.000000,4.000000,4.000000,4.000000,4.000000,4.000000,4.000000,4.000000,4.000000,4.000000,4.000000,4.000000,100.000000,,,,,,,,,,,,,,,,,,,,,,,,,,,,
1703495940.636377,1703495940.637717,23.000000,0.000000,4276.282227,4246.410156,4334.871582,4306.410156,4234.230957,4236.025879,4266.794922,4212.051270,4243.589844,4223.717773,4594.871582,4496.922852,4433.205078,4514.102539,0.000000,4.000000,75.000000,,,,0.000000,4.000000,4.000000,4.000000,4.000000,4.000000,4.000000,4.000000,4.000000,4.000000,4.000000,4.000000,4.000000,4.000000,4.000000,100.000000,,,,,,,,,,,,,,,,,,,,,,,,,,,,
1703495940.644186,1703495940.645525,24.000000,0.000000,4280.128418,4258.461426,4337.563965,4310.000000,4234.358887,4246.410156,4270.384766,4220.897461,4243.717773,4246.025879,4603.589844,4501.153809,4446.922852,4531.922852,0.000000,4.000000,75.000000,,,,0.000000,4.000000,4.000000,4.000000,4.000000,4.000000,4.000000,4.000000,4.000000,4.000000,4.000000,4.000000,4.000000,4.000000,4.000000,100.000000,,,,,,,,,,,,,,,,,6.000000,0.000000,0.675369,0.250183,-0.662781,0.204956,0.991332,0.063484,-0.001465,-17.454350,-38.991524,64.489548
1703495940.651994,1703495940.653233,25.000000,0.000000,4275.897461,4258.717773,4342.051270,4313.589844,4236.794922,4247.051270,4272.307617,4229.358887,4235.641113,4245.897461,4597.692383,4501.922852,4444.743652,4523.589844,0.000000,4.000000,75.000000,,,,0.000000,4.000000,4.000000,4.000000,4.000000,4.000000,4.000000,4.000000,4.000000,4.000000,4.000000,4.000000,4.000000,4.000000,4.000000,100.000000,,,,,,,,,,,,,,,,,,,,,,,,,,,,
1703495940.659802,1703495940.661041,26.000000,0.000000,4279.871582,4248.717773,4338.077148,4313.461426,4233.974121,4236.538574,4267.436035,4224.871582,4231.538574,4219.871582,4583.589844,4494.102539,4430.000000,4513.717773,0.000000,4.000000,75.000000,,,,0.000000,4.000000,4.000000,4.000000,4.000000,4.000000,4.000000,4.000000,4.000000,4.000000,4.000000,4.000000,4.000000,4.000000,4.000000,100.000000,,,,,,,,,,,,,,,,,,,,,,,,,,,,
1703495940.667610,1703495940.668749,27.000000,0.000000,4285.256348,4249.230957,4340.512695,4311.794922,4230.769043,4231.666504,4265.641113,4221.410156,4224.230957,4207.948730,4584.230957,4495.512695,4430.256348,4515.256348,0.000000,4.000000,75.000000,,,,0.000000,4.000000,4.000000,4.000000,4.000000,4.000000,4.000000,4.000000,4.000000,4.000000,4.000000,4.000000,4.000000,4.000000,4.000000,100.000000,,,,,,,,,,,,,,,,,,,,,,,,,,,,
1703495940.675418,1703495940.676557,28.000000,0.000000,4286.282227,4262.179688,4350.897461,4317.307617,4232.179688,4232.563965,4269.230957,4227.436035,4217.051270,4218.333496,4599.487305,4506.025879,4446.410156,4524.230957,0.000000,4.000000,75.000000,,,,0.000000,4.000000,4.000000,4.000000,4.000000,4.000000,4.000000,4.000000,4.000000,4.000000,4.000000,4.000000,4.000000,4.000000,4.000000,100.000000,,,,,,,,,,,,,,,,,7.000000,0.000000,0.675377,0.250061,-0.662781,0.205078,0.993774,0.062508,0.007325,-17.542248,-38.975704,64.490593
1703495940.683226,1703495940.684265,29.000000,0.000000,4287.179688,4264.358887,4352.436035,4323.589844,4235.256348,4230.000000,4266.153809,4233.974121,4220.384766,4230.769043,4604.743652,4506.794922,4452.436035,4534.743652,0.000000,4.000000,75.000000,,,,0.000000,4.000000,4.000000,4.000000,4.000000,4.000000,4.000000,4.000000,4.000000,4.000000,4.000000,4.000000,4.000000,4.000000,4.000000,100.000000,,,,,,,,,,,,,,,,,,,,,,,,,,,,
1703495940.691034,1703495940.692073,30.000000,0.000000,4286.282227,4251.025879,4350.512695,4316.410156,4235.000000,4226.922852,4262.436035,4231.410156,4224.102539,4232.948730,4600.384766,4502.436035,4446.538574,4532.051270,0.000000,4.000000,75.000000,,,,0.000000,4.000000,4.000000,4.000000,4.000000,4.000000,4.000000,4.000000,4.000000,4.000000,4.000000,4.000000,4.000000,4.000000,4.000000,100.000000,,,,,,,,,,,,,,,,,,,,,,,,,,,,
1703495940.698842,1703495940.699781,31.000000,0.000000,4285.128418,4250.256348,4348.333496,4312.563965,4231.922852,4225.769043,4263.589844,4221.794922,4226.410156,4230.897461,4599.615234,4500.256348,4447.179688,4528.974121,0.000000,4.000000,75.000000,,,,0.000000,4.000000,4.000000,4.000000,4.000000,4.000000,4.000000,4.000000,4.000000,4.000000,4.000000,4.000000,4.000000,4.000000,4.000000,100.000000,,,,,,,,,,,,,,,,,,,,,,,,,,,,
1703495940.706650,1703495940.707589,32.000000,0.000000,4277.563965,4252.692383,4338.974121,4312.051270,4232.051270,4227.820313,4264.358887,4210.000000,4232.307617,4230.897461,4594.358887,4491.025879,4445.128418,4522.051270,0.000000,4.000000,75.000000,,,,0.000000,4.000000,4.000000,4.000000,4.000000,4.000000,4.000000,4.000000,4.000000,4.000000,4.000000,4.000000,4.000000,4.000000,4.000000,100.000000,,,,,,,,,,,,,,,,,8.000000,0.000000,0.675523,0.249939,-0.662659,0.205139,0.987425,0.063973,-0.000977,-17.554691,-39.028133,64.474861
1703495940.714458,1703495940.715297,33.000000,0.000000,4262.820313,4236.282227,4329.743652,4299.615234,4233.974121,4230.897461,4264.615234,4203.717773,4234.230957,4234.615234,4582.179688,4478.717773,4430.769043,4498.333496,0.000000,4.000000,75.000000,,,,0.000000,4.000000,4.000000,4.000000,4.000000,4.000000,4.000000,4.000000,4.000000,4.000000,4.000000,4.000000,4.000000,4.000000,4.000000,100.000000,,,,,,,,,,,,,,,,,,,,,,,,,,,,
1703495940.722266,1703495940.723105,34.000000,0.000000,4250.897461,4229.615234,4327.948730,4294.358887,4235.769043,4235.000000,4264.871582,4198.461426,4239.230957,4240.000000,4577.051270,4473.461426,4424.102539,4487.436035,0.000000,4.000000,75.000000,,,,0.000000,4.000000,4.000000,4.000000,4.000000,4.000000,4.000000,4.000000,4.000000,4.000000,4.000000,4.000000,4.000000,4.000000,4.000000,100.000000,,,,,,,,,,,,,,,,,,,,,,,,,,,,
1703495940.730074,1703495940.730813,35.000000,0.000000,4245.769043,4241.538574,4326.153809,4303.589844,4235.641113,4235.128418,4265.384766,4192.563965,4250.384766,4239.102539,4580.769043,4476.922852,4422.820313,4486.538574,0.000000,4.000000,75.000000,,,,0.000000,4.000000,4.000000,4.000000,4.000000,4.000000,4.000000,4.000000,4.000000,4.000000,4.000000,4.000000,4.000000,4.000000,4.000000,100.000000,,,,,,,,,,,,,,,,,,,,,,,,,,,,
1703495940.737882,1703495940.738721,36.000000,0.000000,4248.717773,4238.205078,4316.282227,4301.282227,4233.717773,4233.461426,4265.512695,4202.820313,4251.922852,4238.205078,4581.538574,4478.974121,4415.256348,4474.615234,0.000000,4.000000,75.000000,,,,0.000000,4.000000,4.000000,4.000000,4.000000,4.000000,4.000000,4.000000,4.000000,4.000000,4.000000,4.000000,4.000000,4.000000,4.000000,100.000000,,,,,,,,,,,,,,,,,9.000000,0.000000,0.675565,0.249939,-0.662598,0.205200,0.998169,0.065926,-0.004883,-17.549221,-38.891987,64.527382
1703495940.745690,1703495940.746529,37.000000,0.000000,4249.615234,4227.179688,4312.436035,4291.538574,4232.051270,4236.794922,4264.230957,4220.384766,4247.051270,4242.563965,4574.487305,4472.948730,4411.282227,4478.205078,0.000000,4.000000,75.000000,,,,0.000000,4.000000,4.000000,4.000000,4.000000,4.000000,4.000000,4.000000,4.000000,4.000000,4.000000,4.000000,4.000000,4.000000,4.000000,100.000000,,,,,,,,,,,,,,,,,,,,,,,,,,,,
1703495940.753498,1703495940.754437,38.000000,0.000000,4248.974121,4230.256348,4321.025879,4293.461426,4231.538574,4243.846191,4263.205078,4219.358887,4249.615234,4240.000000,4568.333496,4469.487305,4412.948730,4495.000000,0.000000,4.000000,75.000000,,,,0.000000,4.000000,4.000000,4.000000,4.000000,4.000000,4.000000,4.000000,4.000000,4.000000,4.000000,4.000000,4.000000,4.000000,4.000000,100.000000,,,,,,,,,,,,,,,,,,,,,,,,,,,,
1703495940.761306,1703495940.762245,39.000000,0.000000,4255.128418,4234.871582,4327.179688,4293.461426,4233.077148,4245.641113,4264.871582,4208.974121,4249.871582,4226.025879,4574.358887,4476.410156,4410.769043,4491.282227,0.000000,4.000000,75.000000,,,,0.000000,4.000000,4.000000,4.000000,4.000000,4.000000,4.000000,4.000000,4.000000,4.000000,4.000000,4.000000,4.000000,4.000000,4.000000,100.000000,,,,,,,,,,,,,,,,,,,,,,,,,,,,
1703495940.769114,1703495940.770153,40.000000,0.000000,4266.538574,4237.820313,4333.333496,4293.461426,4232.436035,4239.102539,4266.153809,4211.282227,4238.461426,4225.384766,4582.692383,4489.871582,4410.641113,4492.051270,0.000000,4.000000,75.000000,,,,0.000000,4.000000,4.000000,4.000000,4.000000,4.000000,4.000000,4.000000,4.000000,4.000000,4.000000,4.000000,4.000000,4.000000,4.000000,100.000000,,,,,,,,,,,,,,,,,10.000000,0.000000,0.675445,0.249939,-0.662720,0.205200,0.988402,0.067391,-0.001953,-17.644299,-38.836121,64.457977
1703495940.776922,1703495940.777961,41.000000,0.000000,4274.102539,4250.128418,4341.025879,4304.615234,4229.102539,4233.717773,4263.205078,4210.256348,4228.461426,4235.769043,4584.743652,4492.948730,4417.179688,4510.256348,0.000000,4.000000,75.000000,,,,0.000000,4.000000,4.000000,4.000000,4.000000,4.000000,4.000000,4.000000,4.000000,4.000000,4.000000,4.000000,4.000000,4.000000,4.000000,100.000000,,,,,,,,,,,,,,,,,,,,,,,,,,,,
1703495940.784731,1703495940.785868,42.000000,0.000000,4284.487305,4264.871582,4345.000000,4316.282227,4229.487305,4234.615234,4266.666504,4197.563965,4231.538574,4228.974121,4589.871582,4492.436035,4423.461426,4520.769043,0.000000,4.000000,75.000000,,,,0.000000,4.000000,4.000000,4.000000,4.000000,4.000000,4.000000,4.000000,4.000000,4.000000,4.000000,4.000000,4.000000,4.000000,4.000000,100.000000,1.000000,100.000000,4.000000,4.000000,4.000000,4.000000,4.000000,4.000000,4.000000,4.000000,4.000000,4.000000,4.000000,4.000000,4.000000,4.000000,,,,,,,,,,,,
1703495940.792539,1703495940.793676,43.000000,0.000000,4302.692383,4276.410156,4353.333496,4323.205078,4237.436035,4235.128418,4270.384766,4201.025879,4236.922852,4220.000000,4599.487305,4507.307617,4435.000000,4531.922852,0.000000,4.000000,75.000000,,,,0.000000,4.000000,4.000000,4.000000,4.000000,4.000000,4.000000,4.000000,4.000000,4.000000,4.000000,4.000000,4.000000,4.000000,4.000000,100.000000,,,,,,,,,,,,,,,,,,,,,,,,,,,,
1703495940.800346,1703495940.801384,44.000000,0.000000,4311.538574,4277.948730,4358.461426,4323.717773,4238.974121,4232.307617,4267.563965,4217.307617,4233.333496,4228.077148,4605.769043,4518.205078,4446.538574,4544.743652,0.000000,4.000000,75.000000,,,,0.000000,4.000000,4.000000,4.000000,4.000000,4.000000,4.000000,4.000000,4.000000,4.000000,4.000000,4.000000,4.000000,4.000000,4.000000,100.000000,,,,,,,,,,,,,,,,,11.000000,0.000000,0.675408,0.249878,-0.662781,0.205200,0.992309,0.065438,-0.002442,-17.629869,-38.802509,64.378845
1703495940.808155,1703495940.809192,45.000000,0.000000,4300.256348,4270.897461,4354.871582,4318.333496,4235.000000,4229.871582,4269.871582,4217.820313,4228.717773,4241.153809,4605.384766,4510.384766,4445.000000,4538.333496,0.000000,4.000000,75.000000,,,,0.000000,4.000000,4.000000,4.000000,4.000000,4.000000,4.000000,4.000000,4.000000,4.000000,4.000000,4.000000,4.000000,4.000000,4.000000,100.000000,,,,,,,,,,,,,,,,,,,,,,,,,,,,
1703495940.815963,1703495940.816901,46.000000,0.000000,4283.333496,4267.563965,4350.512695,4314.230957,4240.128418,4230.769043,4273.077148,4199.358887,4231.153809,4236.666504,4596.410156,4497.179688,4430.641113,4520.128418,0.000000,4.000000,75.000000,,,,0.000000,4.000000,4.000000,4.000000,4.000000,4.000000,4.000000,4.000000,4.000000,4.000000,4.000000,4.000000,4.000000,4.000000,4.000000,100.000000,,,,,,,,,,,,,,,,,,,,,,,,,,,,
1703495940.823771,1703495940.824709,47.000000,0.000000,4276.282227,4262.307617,4337.820313,4308.077148,4242.563965,4230.256348,4266.794922,4181.153809,4230.641113,4217.307617,4576.538574,4477.563965,4408.461426,4498.846191,0.000000,4.000000,75.000000,,,,0.000000,4.000000,4.000000,4.000000,4.000000,4.000000,4.000000,4.000000,4.000000,4.000000,4.000000,4.000000,4.000000,4.000000,4.000000,100.000000,,,,,,,,,,,,,,,,,,,,,,,,,,,,
1703495940.831579,1703495940.832417,48.000000,0.000000,4268.717773,4245.897461,4318.846191,4300.256348,4235.512695,4230.384766,4262.948730,4183.461426,4222.307617,4209.487305,4556.538574,4457.051270,4391.025879,4480.000000,0.000000,4.000000,75.000000,,,,0.000000,4.000000,4.000000,4.000000,4.000000,4.000000,4.000000,4.000000,4.000000,4.000000,4.000000,4.000000,4.000000,4.000000,4.000000,100.000000,,,,,,,,,,,,,,,,,12.000000,0.000000,0.675210,0.249939,-0.662903,0.205383,0.990844,0.062019,-0.005372,-17.616882,-38.855591,64.440956
1703495940.839387,1703495940.840225,49.000000,0.000000,4247.436035,4230.512695,4303.974121,4291.153809,4230.384766,4231.538574,4265.128418,4193.717773,4219.615234,4217.307617,4541.922852,4445.000000,4381.282227,4456.922852,0.000000,4.000000,75.000000,,,,0.000000,4.000000,4.000000,4.000000,4.000000,4.000000,4.000000,4.000000,4.000000,4.000000,4.000000,4.000000,4.000000,4.000000,4.000000,100.000000,,,,,,,,,,,,,,,,,,,,,,,,,,,,
1703495940.847195,1703495940.847933,50.000000,0.000000,4226.282227,4226.538574,4293.461426,4279.871582,4227.307617,4229.230957,4262.948730,4194.615234,4226.410156,4207.563965,4527.436035,4437.179688,4369.230957,4434.743652,0.000000,4.000000,75.000000,,,,0.000000,4.000000,4.000000,4.000000,4.000000,4.000000,4.000000,4.000000,4.000000,4.000000,4.000000,4.000000,4.000000,4.000000,4.000000,100.000000,,,,,,,,,,,,,,,,,,,,,,,,,,,,
1703495940.855003,1703495940.855741,51.000000,0.000000,4227.820313,4227.820313,4291.794922,4278.974121,4223.974121,4228.846191,4261.410156,4196.153809,4230.897461,4183.717773,4523.974121,4435.512695,4365.128418,4446.410156,0.000000,4.000000,75.000000,,,,0.000000,4.000000,4.000000,4.000000,4.000000,4.000000,4.000000,4.000000,4.000000,4.000000,4.000000,4.000000,4.000000,4.000000,4.000000,100.000000,,,,,,,,,,,,,,,,,,,,,,,,,,,,
1703495940.862811,1703495940.863449,52.000000,0.000000,4239.358887,4228.077148,4296.794922,4287.436035,4228.461426,4232.820313,4264.230957,4196.666504,4230.000000,4186.282227,4533.717773,4441.282227,4372.820313,4469.743652,0.000000,4.000000,75.000000,,,,0.000000,4.000000,4.000000,4.000000,4.000000,4.000000,4.000000,4.000000,4.000000,4.000000,4.000000,4.000000,4.000000,4.000000,4.000000,100.000000,,,,,,,,,,,,,,,,,13.000000,0.000000,0.675191,0.250000,-0.662842,0.205566,0.994750,0.070809,0.000977,-17.571861,-38.920033,64.430199
1703495940.870619,1703495940.871257,53.000000,0.000000,4244.871582,4231.666504,4304.743652,4291.666504,4233.974121,4234.743652,4266.025879,4188.461426,4226.153809,4199.358887,4537.179688,4447.563965,4374.230957,4466.794922,0.000000,4.000000,75.000000,,,,0.000000,4.000000,4.000000,4.000000,4.000000,4.000000,4.000000,4.000000,4.000000,4.000000,4.000000,4.000000,4.000000,4.000000,4.000000,100.000000,,,,,,,,,,,,,,,,,,,,,,,,,,,,
1703495940.878427,1703495940.878965,54.000000,0.000000,4257.307617,4239.358887,4316.538574,4294.487305,4231.153809,4232.307617,4265.128418,4182.820313,4219.358887,4198.077148,4538.974121,4454.487305,4373.205078,4466.538574,0.000000,4.000000,75.000000,,,,0.000000,4.000000,4.000000,4.000000,4.000000,4.000000,4.000000,4.000000,4.000000,4.000000,4.000000,4.000000,4.000000,4.000000,4.000000,100.000000,,,,,,,,,,,,,,,,,,,,,,,,,,,,
1703495940.886235,1703495940.886873,55.000000,0.000000,4275.000000,4250.000000,4332.179688,4306.922852,4230.897461,4225.384766,4263.461426,4187.179688,4216.410156,4199.358887,4551.153809,4473.333496,4387.179688,4489.615234,0.000000,4.000000,75.000000,,,,0.000000,4.000000,4.000000,4.000000,4.000000,4.000000,4.000000,4.000000,4.000000,4.000000,4.000000,4.000000,4.000000,4.000000,4.000000,100.000000,,,,,,,,,,,,,,,,,,,,,,,,,,,,
1703495940.894043,1703495940.894681,56.000000,0.000000,4281.794922,4264.358887,4345.512695,4320.384766,4233.589844,4219.230957,4264.102539,4189.871582,4218.974121,4200.384766,4557.948730,4488.333496,4396.666504,4503.846191,0.000000,4.000000,75.000000,,,,0.000000,4.000000,4.000000,4.000000,4.000000,4.000000,4.000000,4.000000,4.000000,4.000000,4.000000,4.000000,4.000000,4.000000,4.000000,100.000000,,,,,,,,,,,,,,,,,14.000000,0.000000,0.675169,0.250061,-0.662842,0.205566,1.008424,0.068856,-0.001465,-17.531342,-38.944695,64.453842
1703495940.901851,1703495940.902489,57.000000,0.000000,4287.563965,4279.615234,4345.897461,4327.179688,4235.000000,4218.461426,4263.974121,4182.051270,4216.666504,4195.512695,4559.358887,4486.666504,4392.948730,4500.384766,0.000000,4.000000,75.000000,,,,0.000000,4.000000,4.000000,4.000000,4.000000,4.000000,4.000000,4.000000,4.000000,4.000000,4.000000,4.000000,4.000000,4.000000,4.000000,100.000000,,,,,,,,,,,,,,,,,,,,,,,,,,,,
1703495940.909659,1703495940.910197,58.000000,0.000000,4310.512695,4281.794922,4343.846191,4329.102539,4235.256348,4214.358887,4262.563965,4178.974121,4215.512695,4203.461426,4570.641113,4492.051270,4404.230957,4509.358887,0.000000,4.000000,75.000000,,,,0.000000,4.000000,4.000000,4.000000,4.000000,4.000000,4.000000,4.000000,4.000000,4.000000,4.000000,4.000000,4.000000,4.000000,4.000000,100.000000,,,,,,,,,,,,,,,,,,,,,,,,,,,,
1703495940.917467,1703495940.918104,59.000000,0.000000,4313.077148,4270.769043,4346.794922,4326.025879,4234.230957,4209.871582,4263.077148,4191.538574,4223.846191,4218.077148,4578.205078,4499.358887,4415.897461,4526.153809,0.000000,4.000000,75.000000,,,,0.000000,4.000000,4.000000,4.000000,4.000000,4.000000,4.000000,4.000000,4.000000,4.000000,4.000000,4.000000,4.000000,4.000000,4.000000,100.000000,,,,,,,,,,,,,,,,,,,,,,,,,,,,
1703495940.925275,1703495940.925912,60.000000,0.000000,4283.717773,4261.282227,4340.769043,4316.794922,4233.205078,4221.410156,4263.717773,4204.743652,4232.563965,4216.538574,4571.794922,4488.589844,4403.333496,4515.641113,0.000000,4.000000,75.000000,,,,0.000000,4.000000,4.000000,4.000000,4.000000,4.000000,4.000000,4.000000,4.000000,4.000000,4.000000,4.000000,4.000000,4.000000,4.000000,100.000000,,,,,,,,,,,,,,,,,15.000000,0.000000,0.675206,0.250061,-0.662842,0.205444,0.982542,0.077158,-0.008302,-17.561541,-38.933559,64.458458
1703495940.933083,1703495940.933820,61.000000,0.000000,4269.871582,4252.563965,4326.794922,4303.205078,4233.589844,4234.487305,4263.717773,4200.000000,4233.589844,4203.205078,4552.563965,4469.358887,4380.769043,4481.794922,0.000000,4.000000,75.000000,,,,0.000000,4.000000,4.000000,4.000000,4.000000,4.000000,4.000000,4.000000,4.000000,4.000000,4.000000,4.000000,4.000000,4.000000,4.000000,100.000000,,,,,,,,,,,,,,,,,,,,,,,,,,,,
1703495940.940891,1703495940.941628,62.000000,0.000000,4265.000000,4237.563965,4311.282227,4293.717773,4233.717773,4233.461426,4262.820313,4199.615234,4231.538574,4196.410156,4535.256348,4454.871582,4371.153809,4463.717773,0.000000,4.000000,75.000000,,,,0.000000,4.000000,4.000000,4.000000,4.000000,4.000000,4.000000,4.000000,4.000000,4.000000,4.000000,4.000000,4.000000,4.000000,4.000000,100.000000,,,,,,,,,,,,,,,,,,,,,,,,,,,,
1703495940.948699,1703495940.949536,63.000000,0.000000,4248.205078,4229.102539,4301.922852,4287.307617,4232.179688,4237.307617,4262.692383,4212.820313,4232.051270,4201.666504,4534.487305,4449.487305,4371.794922,4463.333496,0.000000,4.000000,75.000000,,,,0.000000,4.000000,4.000000,4.000000,4.000000,4.000000,4.000000,4.000000,4.000000,4.000000,4.000000,4.000000,4.000000,4.000000,4.000000,100.000000,,,,,,,,,,,,,,,,,,,,,,,,,,,,
1703495940.956508,1703495940.957344,64.000000,0.000000,4242.436035,4229.358887,4305.641113,4280.512695,4232.436035,4248.974121,4263.974121,4213.974121,4234.102539,4201.025879,4535.256348,4448.974121,4369.102539,4458.461426,4662.000000,4.000000,75.000000,,,,0.000000,4.000000,4.000000,4.000000,4.000000,4.000000,4.000000,4.000000,4.000000,4.000000,4.000000,4.000000,4.000000,4.000000,4.000000,100.000000,,,,,,,,,,,,,,,,,16.000000,0.000000,0.675247,0.250000,-0.662842,0.205383,0.983518,0.065926,-0.001465,-17.522053,-38.873539,64.395943
1703495940.964316,1703495940.965252,65.000000,0.000000,4242.820313,4222.820313,4307.307617,4276.666504,4231.410156,4245.897461,4263.333496,4207.692383,4235.256348,4196.153809,4530.512695,4448.974121,4364.615234,4453.333496,5647.000000,4.000000,75.000000,,,,0.000000,4.000000,4.000000,4.000000,4.000000,4.000000,4.000000,4.000000,4.000000,4.000000,4.000000,4.000000,4.000000,4.000000,4.000000,100.000000,,,,,,,,,,,,,,,,,,,,,,,,,,,,
1703495940.972124,1703495940.973060,66.000000,0.000000,4238.461426,4219.615234,4305.641113,4278.717773,4230.384766,4231.794922,4262.307617,4206.025879,4233.589844,4205.769043,4537.051270,4453.717773,4366.153809,4457.179688,5435.000000,4.000000,75.000000,,,,0.000000,4.000000,4.000000,4.000000,4.000000,4.000000,4.000000,4.000000,4.000000,4.000000,4.000000,4.000000,4.000000,4.000000,4.000000,100.000000,,,,,,,,,,,,,,,,,,,,,,,,,,,,
1703495940.979932,1703495940.980768,67.000000,0.000000,4249.358887,4235.512695,4315.000000,4287.563965,4230.641113,4229.358887,4261.794922,4201.922852,4232.820313,4217.436035,4554.871582,4464.615234,4381.282227,4472.307617,5455.000000,4.000000,75.000000,,,,0.000000,4.000000,4.000000,4.000000,4.000000,4.000000,4.000000,4.000000,4.000000,4.000000,4.000000,4.000000,4.000000,4.000000,4.000000,100.000000,,,,,,,,,,,,,,,,,,,,,,,,,,,,
1703495940.987740,1703495940.988576,68.000000,0.000000,4271.922852,4248.974121,4332.692383,4300.256348,4230.384766,4228.717773,4262.307617,4203.717773,4234.487305,4220.641113,4572.307617,4481.794922,4401.153809,4497.948730,5315.000000,4.000000,75.000000,,,,0.000000,4.000000,4.000000,4.000000,4.000000,4.000000,4.000000,4.000000,4.000000,4.000000,4.000000,4.000000,4.000000,4.000000,4.000000,100.000000,,,,,,,,,,,,,,,,,17.000000,0.000000,0.675326,0.250061,-0.662720,0.205444,0.994750,0.075693,-0.004395,-17.536514,-38.852852,64.506355
1703495940.995548,1703495940.996284,69.000000,0.000000,4287.436035,4252.692383,4346.282227,4308.461426,4240.000000,4221.410156,4265.641113,4215.384766,4235.384766,4236.794922,4590.769043,4508.589844,4420.000000,4520.000000,4993.000000,4.000000,75.000000,,,,0.000000,4.000000,4.000000,4.000000,4.000000,4.000000,4.000000,4.000000,4.000000,4.000000,4.000000,4.000000,4.000000,4.000000,4.000000,100.000000,,,,,,,,,,,,,,,,,,,,,,,,,,,,
1703495941.003356,1703495941.004092,70.000000,0.000000,4300.512695,4260.000000,4350.769043,4311.538574,4248.717773,4218.589844,4268.077148,4219.358887,4235.641113,4251.153809,4607.692383,4527.179688,4434.615234,4535.000000,3139.000000,4.000000,75.000000,,,,0.000000,4.000000,4.000000,4.000000,4.000000,4.000000,4.000000,4.000000,4.000000,4.000000,4.000000,4.000000,4.000000,4.000000,4.000000,100.000000,,,,,,,,,,,,,,,,,,,,,,,,,,,,
1703495941.011164,1703495941.011800,71.000000,0.000000,4303.717773,4263.333496,4350.897461,4313.974121,4238.974121,4215.384766,4265.000000,4214.743652,4234.230957,4233.205078,4612.563965,4525.897461,4435.769043,4543.717773,3879.000000,4.000000,75.000000,,,,0.000000,4.000000,4.000000,4.000000,4.000000,4.000000,4.000000,4.000000,4.000000,4.000000,4.000000,4.000000,4.000000,4.000000,4.000000,100.000000,,,,,,,,,,,,,,,,,,,,,,,,,,,,
1703495941.018972,1703495941.019608,72.000000,0.000000,4295.256348,4258.717773,4347.948730,4315.000000,4229.743652,4204.615234,4258.461426,4212.820313,4228.974121,4216.282227,4605.000000,4515.384766,4431.538574,4541.025879,3714.000000,4.000000,75.000000,,,,0.000000,4.000000,4.000000,4.000000,4.000000,4.000000,4.000000,4.000000,4.000000,4.000000,4.000000,4.000000,4.000000,4.000000,4.000000,100.000000,,,,,,,,,,,,,,,,,18.000000,0.000000,0.675284,0.250061,-0.662781,0.205383,0.987914,0.077158,-0.001953,-17.482862,-38.984234,64.555717
1703495941.026780,1703495941.027316,73.000000,0.000000,4292.692383,4256.666504,4338.846191,4313.846191,4231.538574,4199.487305,4260.256348,4214.102539,4220.384766,4218.846191,4589.487305,4500.897461,4427.436035,4529.102539,5667.000000,4.000000,75.000000,,,,0.000000,4.000000,4.000000,4.000000,4.000000,4.000000,4.000000,4.000000,4.000000,4.000000,4.000000,4.000000,4.000000,4.000000,4.000000,100.000000,,,,,,,,,,,,,,,,,,,,,,,,,,,,
1703495941.034588,1703495941.035124,74.000000,0.000000,4275.897461,4250.384766,4327.692383,4307.179688,4231.025879,4207.436035,4262.307617,4213.717773,4216.666504,4211.666504,4570.128418,4484.743652,4414.230957,4513.589844,5943.000000,4.000000,75.000000,,,,0.000000,4.000000,4.000000,4.000000,4.000000,4.000000,4.000000,4.000000,4.000000,4.000000,4.000000,4.000000,4.000000,4.000000,4.000000,100.000000,,,,,,,,,,,,,,,,,,,,,,,,,,,,
1703495941.042396,1703495941.042832,75.000000,0.000000,4245.897461,4232.820313,4318.589844,4292.307617,4226.794922,4213.974121,4254.487305,4204.871582,4217.179688,4195.769043,4555.256348,4468.461426,4394.487305,4495.384766,6192.000000,4.000000,75.000000,,,,0.000000,4.000000,4.000000,4.000000,4.000000,4.000000,4.000000,4.000000,4.000000,4.000000,4.000000,4.000000,4.000000,4.000000,4.000000,100.000000,,,,,,,,,,,,,,,,,,,,,,,,,,,,
1703495941.050204,1703495941.050640,76.000000,0.000000,4240.769043,4219.230957,4310.897461,4279.871582,4219.487305,4212.692383,4249.743652,4199.615234,4218.461426,4186.282227,4542.692383,4457.307617,4379.743652,4473.846191,6659.000000,4.000000,75.000000,,,,0.000000,4.000000,4.000000,4.000000,4.000000,4.000000,4.000000,4.000000,4.000000,4.000000,4.000000,4.000000,4.000000,4.000000,4.000000,100.000000,,,,,,,,,,,,,,,,,19.000000,0.000000,0.675288,0.250000,-0.662781,0.205444,0.990844,0.056648,0.000488,-17.601244,-38.969143,64.550148
1703495941.058012,1703495941.058348,77.000000,0.000000,4246.922852,4217.307617,4300.000000,4276.794922,4215.256348,4218.205078,4254.871582,4207.948730,4227.179688,4184.615234,4534.358887,4452.692383,4379.102539,4460.512695,6265.000000,4.000000,75.000000,,,,0.000000,4.000000,4.000000,4.000000,4.000000,4.000000,4.000000,4.000000,4.000000,4.000000,4.000000,4.000000,4.000000,4.000000,4.000000,100.000000,,,,,,,,,,,,,,,,,,,,,,,,,,,,
1703495941.065820,1703495941.066256,78.000000,0.000000,4235.384766,4215.000000,4286.922852,4271.922852,4221.282227,4232.051270,4260.128418,4216.153809,4235.128418,4199.102539,4541.025879,4447.820313,4389.230957,4460.897461,5943.000000,4.000000,75.000000,,,,0.000000,4.000000,4.000000,4.000000,4.000000,4.000000,4.000000,4.000000,4.000000,4.000000,4.000000,4.000000,4.000000,4.000000,4.000000,100.000000,,,,,,,,,,,,,,,,,,,,,,,,,,,,
1703495941.073628,1703495941.074064,79.000000,0.000000,4220.512695,4208.205078,4284.871582,4260.384766,4223.589844,4237.692383,4260.128418,4214.615234,4237.179688,4212.692383,4549.358887,4449.358887,4391.794922,4456.538574,6192.000000,4.000000,75.000000,,,,0.000000,4.000000,4.000000,4.000000,4.000000,4.000000,4.000000,4.000000,4.000000,4.000000,4.000000,4.000000,4.000000,4.000000,4.000000,100.000000,,,,,,,,,,,,,,,,,,,,,,,,,,,,
1703495941.081436,1703495941.081972,80.000000,0.000000,4224.615234,4210.769043,4290.769043,4259.615234,4225.128418,4233.077148,4261.410156,4217.820313,4241.025879,4214.230957,4554.615234,4458.077148,4388.846191,4458.333496,6659.000000,4.000000,75.000000,,,,0.000000,4.000000,4.000000,4.000000,4.000000,4.000000,4.000000,4.000000,4.000000,4.000000,4.000000,4.000000,4.000000,4.000000,4.000000,100.000000,,,,,,,,,,,,,,,,,20.000000,0.000000,0.675280,0.250122,-0.662781,0.205322,0.980588,0.072274,-0.008302,-17.757786,-39.005562,64.428467
1703495941.089244,1703495941.089780,81.000000,0.000000,4234.487305,4220.769043,4298.077148,4271.666504,4230.384766,4229.230957,4263.077148,4229.230957,4241.794922,4226.794922,4565.641113,4465.384766,4400.128418,4472.436035,6265.000000,4.000000,75.000000,,,,0.000000,4.000000,4.000000,4.000000,4.000000,4.000000,4.000000,4.000000,4.000000,4.000000,4.000000,4.000000,4.000000,4.000000,4.000000,100.000000,,,,,,,,,,,,,,,,,,,,,,,,,,,,
1703495941.097052,1703495941.097688,82.000000,0.000000,4232.051270,4216.794922,4308.974121,4277.051270,4223.077148,4219.871582,4257.692383,4222.692383,4231.025879,4229.615234,4571.922852,4472.307617,4412.179688,4478.333496,5943.000000,4.000000,75.000000,,,,0.000000,4.000000,4.000000,4.000000,4.000000,4.000000,4.000000,4.000000,4.000000,4.000000,4.000000,4.000000,4.000000,4.000000,4.000000,100.000000,,,,,,,,,,,,,,,,,,,,,,,,,,,,
1703495941.104860,1703495941.105496,83.000000,0.000000,4235.000000,4217.179688,4314.871582,4277.307617,4219.358887,4215.512695,4253.077148,4202.820313,4229.615234,4213.846191,4573.461426,4481.666504,4413.461426,4487.563965,6192.000000,4.000000,75.000000,,,,0.000000,4.000000,4.000000,4.000000,4.000000,4.000000,4.000000,4.000000,4.000000,4.000000,4.000000,4.000000,4.000000,4.000000,4.000000,100.000000,,,,,,,,,,,,,,,,,,,,,,,,,,,,
1703495941.112668,1703495941.113404,84.000000,0.000000,4268.589844,4241.153809,4322.436035,4289.102539,4233.717773,4224.871582,4260.897461,4202.051270,4243.717773,4224.615234,4590.256348,4497.820313,4425.641113,4516.282227,6659.000000,4.000000,75.000000,,,,0.000000,4.000000,4.000000,4.000000,4.000000,4.000000,4.000000,4.000000,4.000000,4.000000,4.000000,4.000000,4.000000,4.000000,4.000000,100.000000,,,,,,,,,,,,,,,,,21.000000,0.000000,0.675396,0.250244,-0.662598,0.205383,0.998657,0.069344,-0.007325,-17.882008,-38.938339,64.668953
1703495941.120477,1703495941.121212,85.000000,0.000000,4300.128418,4254.871582,4333.077148,4301.153809,4235.384766,4224.102539,4266.410156,4210.897461,4245.384766,4251.153809,4608.846191,4511.025879,4442.307617,4538.974121,6265.000000,4.000000,75.000000,,,,0.000000,4.000000,4.000000,4.000000,4.000000,4.000000,4.000000,4.000000,4.000000,4.000000,4.000000,4.000000,4.000000,4.000000,4.000000,100.000000,,,,,,,,,,,,,,,,,,,,,,,,,,,,
1703495941.128285,1703495941.129119,86.000000,0.000000,4288.333496,4247.051270,4333.846191,4297.692383,4224.230957,4214.743652,4261.538574,4203.205078,4235.512695,4241.922852,4603.589844,4505.256348,4438.717773,4537.692383,5943.000000,4.000000,75.000000,,,,0.000000,4.000000,4.000000,4.000000,4.000000,4.000000,4.000000,4.000000,4.000000,4.000000,4.000000,4.000000,4.000000,4.000000,4.000000,100.000000,,,,,,,,,,,,,,,,,,,,,,,,,,,,
1703495941.136093,1703495941.136927,87.000000,0.000000,4268.589844,4243.974121,4329.358887,4294.871582,4228.461426,4219.358887,4257.179688,4199.230957,4233.974121,4220.384766,4586.282227,4492.436035,4426.025879,4527.051270,6192.000000,4.000000,75.000000,,,,0.000000,4.000000,4.000000,4.000000,4.000000,4.000000,4.000000,4.000000,4.000000,4.000000,4.000000,4.000000,4.000000,4.000000,4.000000,100.000000,,,,,,,,,,,,,,,,,,,,,,,,,,,,
1703495941.143901,1703495941.144835,88.000000,0.000000,4264.871582,4246.922852,4323.205078,4299.230957,4233.333496,4225.000000,4254.358887,4206.153809,4234.230957,4218.077148,4573.205078,4482.051270,4416.153809,4511.538574,6659.000000,4.000000,75.000000,,,,0.000000,4.000000,4.000000,4.000000,4.000000,4.000000,4.000000,4.000000,4.000000,4.000000,4.000000,4.000000,4.000000,4.000000,4.000000,100.000000,,,,,,,,,,,,,,,,,22.000000,0.000000,0.675553,0.250305,-0.662415,0.205383,0.985960,0.066414,-0.004883,-17.843807,-38.894505,64.735390
1703495941.151709,1703495941.152643,89.000000,0.000000,4252.051270,4233.461426,4319.102539,4291.282227,4223.333496,4219.102539,4253.717773,4203.333496,4223.589844,4207.948730,4563.589844,4474.487305,4403.333496,4492.179688,6265.000000,4.000000,75.000000,,,,0.000000,4.000000,4.000000,4.000000,4.000000,4.000000,4.000000,4.000000,4.000000,4.000000,4.000000,4.000000,4.000000,4.000000,4.000000,100.000000,,,,,,,,,,,,,,,,,,,,,,,,,,,,
1703495941.159517,1703495941.160551,90.000000,0.000000,4235.000000,4212.307617,4313.717773,4277.436035,4213.717773,4214.743652,4252.563965,4200.000000,4213.589844,4189.487305,4551.282227,4469.102539,4387.436035,4477.692383,5943.000000,4.000000,75.000000,,,,0.000000,4.000000,4.000000,4.000000,4.000000,4.000000,4.000000,4.000000,4.000000,4.000000,4.000000,4.000000,4.000000,4.000000,4.000000,100.000000,,,,,,,,,,,,,,,,,,,,,,,,,,,,
1703495941.167325,1703495941.168359,91.000000,0.000000,4223.461426,4207.307617,4301.538574,4272.307617,4214.102539,4214.230957,4246.666504,4203.077148,4212.692383,4183.205078,4532.307617,4458.974121,4372.563965,4464.102539,6192.000000,4.000000,75.000000,,,,0.000000,4.000000,4.000000,4.000000,4.000000,4.000000,4.000000,4.000000,4.000000,4.000000,4.000000,4.000000,4.000000,4.000000,4.000000,100.000000,,,,,,,,,,,,,,,,,,,,,,,,,,,,
1703495941.175133,1703495941.176267,92.000000,0.000000,4208.974121,4213.461426,4296.666504,4273.077148,4216.922852,4217.051270,4246.538574,4202.563965,4215.769043,4188.717773,4521.153809,4447.307617,4363.846191,4454.487305,6659.000000,4.000000,75.000000,,,,0.000000,4.000000,4.000000,4.000000,4.000000,4.000000,4.000000,4.000000,4.000000,4.000000,4.000000,4.000000,4.000000,4.000000,4.000000,100.000000,,,,,,,,,,,,,,,,,23.000000,0.000000,0.675561,0.250183,-0.662415,0.205505,0.990355,0.059578,-0.001465,-17.892759,-38.971722,64.595184
1703495941.182941,1703495941.184075,93.000000,0.000000,4211.153809,4213.077148,4300.256348,4275.256348,4218.333496,4222.820313,4250.897461,4204.102539,4223.205078,4196.153809,4529.102539,4447.563965,4369.487305,4456.666504,6265.000000,4.000000,75.000000,,,,0.000000,4.000000,4.000000,4.000000,4.000000,4.000000,4.000000,4.000000,4.000000,4.000000,4.000000,4.000000,4.000000,4.000000,4.000000,100.000000,,,,,,,,,,,,,,,,,,,,,,,,,,,,
1703495941.190749,1703495941.191983,94.000000,0.000000,4231.153809,4208.333496,4301.410156,4276.922852,4219.102539,4219.615234,4250.769043,4211.794922,4227.948730,4206.153809,4544.102539,4460.897461,4382.948730,4470.384766,5943.000000,4.000000,75.000000,,,,0.000000,4.000000,4.000000,4.000000,4.000000,4.000000,4.000000,4.000000,4.000000,4.000000,4.000000,4.000000,4.000000,4.000000,4.000000,100.000000,,,,,,,,,,,,,,,,,,,,,,,,,,,,
1703495941.198557,1703495941.199791,95.000000,0.000000,4232.051270,4212.051270,4307.179688,4277.179688,4218.333496,4212.436035,4249.743652,4218.974121,4229.102539,4222.948730,4558.974121,4473.589844,4394.615234,4488.717773,6192.000000,4.000000,75.000000,,,,0.000000,4.000000,4.000000,4.000000,4.000000,4.000000,4.000000,4.000000,4.000000,4.000000,4.000000,4.000000,4.000000,4.000000,4.000000,100.000000,,,,,,,,,,,,,,,,,,,,,,,,,,,,
