title:جمعة حمام, start timestamp:1703163579.572784, stop timestamp:1703163590.402540, headset type:EPOCX, headset serial:E50206EF, headset firmware:720, channels:67, sampling rate:eeg_128;mot_32, samples:1388      , version:2.2, 
Timestamp,OriginalTimestamp,EEG.Counter,EEG.Interpolated,EEG.AF3,EEG.F7,EEG.F3,EEG.FC5,EEG.T7,EEG.P7,EEG.O1,EEG.O2,EEG.P8,EEG.T8,EEG.FC6,EEG.F4,EEG.F8,EEG.AF4,EEG.RawCq,EEG.Battery,EEG.BatteryPercent,MarkerIndex,MarkerType,MarkerValueInt,EEG.MarkerHardware,CQ.AF3,CQ.F7,CQ.F3,CQ.FC5,CQ.T7,CQ.P7,CQ.O1,CQ.O2,CQ.P8,CQ.T8,CQ.FC6,CQ.F4,CQ.F8,CQ.AF4,CQ.Overall,EQ.SampleRateQuality,EQ.OVERALL,EQ.AF3,EQ.F7,EQ.F3,EQ.FC5,EQ.T7,EQ.P7,EQ.O1,EQ.O2,EQ.P8,EQ.T8,EQ.FC6,EQ.F4,EQ.F8,EQ.AF4,MOT.CounterMems,MOT.InterpolatedMems,MOT.Q0,MOT.Q1,MOT.Q2,MOT.Q3,MOT.AccX,MOT.AccY,MOT.AccZ,MOT.MagX,MOT.MagY,MOT.MagZ
1703163579.572784,1703163579.573113,13.000000,0.000000,4190.000000,4146.410156,4279.358887,4194.871582,4111.538574,4098.589844,4182.820313,4140.000000,4132.307617,4158.589844,4624.230957,4456.922852,4426.794922,4546.410156,6100.000000,3.000000,73.000000,,,,0.000000,4.000000,4.000000,4.000000,4.000000,4.000000,4.000000,4.000000,4.000000,4.000000,4.000000,4.000000,4.000000,4.000000,4.000000,100.000000,,,,,,,,,,,,,,,,,,,,,,,,,,,,
1703163579.580592,1703163579.580821,14.000000,0.000000,4184.358887,4140.897461,4276.153809,4194.230957,4115.641113,4101.025879,4183.974121,4139.102539,4144.487305,4154.871582,4633.333496,4443.589844,4426.282227,4539.871582,5654.000000,3.000000,73.000000,,,,0.000000,4.000000,4.000000,4.000000,4.000000,4.000000,4.000000,4.000000,4.000000,4.000000,4.000000,4.000000,4.000000,4.000000,4.000000,100.000000,,,,,,,,,,,,,,,,,,,,,,,,,,,,
1703163579.588400,1703163579.588729,15.000000,0.000000,4177.307617,4139.743652,4270.256348,4197.307617,4132.563965,4106.922852,4186.794922,4138.974121,4144.743652,4154.743652,4618.589844,4441.922852,4418.589844,4531.282227,6027.000000,3.000000,73.000000,,,,0.000000,4.000000,4.000000,4.000000,4.000000,4.000000,4.000000,4.000000,4.000000,4.000000,4.000000,4.000000,4.000000,4.000000,4.000000,100.000000,,,,,,,,,,,,,,,,,,,,,,,,,,,,
1703163579.596208,1703163579.596537,16.000000,0.000000,4176.794922,4141.410156,4265.256348,4190.000000,4125.128418,4106.666504,4183.205078,4137.820313,4141.153809,4144.743652,4595.641113,4445.000000,4415.897461,4532.948730,0.000000,3.000000,73.000000,,,,0.000000,4.000000,4.000000,4.000000,4.000000,4.000000,4.000000,4.000000,4.000000,4.000000,4.000000,4.000000,4.000000,4.000000,4.000000,100.000000,,,,,,,,,,,,,,,,,4.000000,0.000000,0.693095,0.063660,-0.696838,0.173157,0.970333,-0.166524,0.012697,-11.650529,-42.094078,62.867924
1703163579.604016,1703163579.604445,17.000000,0.000000,4176.538574,4134.102539,4265.000000,4182.948730,4115.641113,4114.230957,4188.589844,4138.974121,4141.153809,4137.692383,4627.436035,4437.436035,4417.179688,4532.179688,0.000000,3.000000,73.000000,,,,0.000000,4.000000,4.000000,4.000000,4.000000,4.000000,4.000000,4.000000,4.000000,4.000000,4.000000,4.000000,4.000000,4.000000,4.000000,100.000000,,,,,,,,,,,,,,,,,,,,,,,,,,,,
1703163579.611824,1703163579.612253,18.000000,0.000000,4165.256348,4125.128418,4260.128418,4182.051270,4112.307617,4116.410156,4196.538574,4138.974121,4135.512695,4145.384766,4635.897461,4429.487305,4402.436035,4520.000000,0.000000,3.000000,73.000000,,,,0.000000,4.000000,4.000000,4.000000,4.000000,4.000000,4.000000,4.000000,4.000000,4.000000,4.000000,4.000000,4.000000,4.000000,4.000000,100.000000,,,,,,,,,,,,,,,,,,,,,,,,,,,,
1703163579.619632,1703163579.620161,19.000000,0.000000,4153.333496,4119.358887,4252.563965,4171.922852,4092.692383,4100.769043,4191.922852,4138.077148,4124.102539,4139.230957,4605.384766,4430.897461,4389.358887,4512.948730,0.000000,3.000000,73.000000,,,,0.000000,4.000000,4.000000,4.000000,4.000000,4.000000,4.000000,4.000000,4.000000,4.000000,4.000000,4.000000,4.000000,4.000000,4.000000,100.000000,,,,,,,,,,,,,,,,,,,,,,,,,,,,
1703163579.627440,1703163579.627970,20.000000,0.000000,4152.436035,4110.897461,4254.615234,4163.077148,4097.948730,4097.820313,4190.769043,4138.077148,4116.794922,4117.179688,4608.846191,4432.563965,4393.846191,4512.436035,0.000000,3.000000,73.000000,,,,0.000000,4.000000,4.000000,4.000000,4.000000,4.000000,4.000000,4.000000,4.000000,4.000000,4.000000,4.000000,4.000000,4.000000,4.000000,100.000000,,,,,,,,,,,,,,,,,5.000000,0.000000,0.693022,0.063782,-0.696899,0.173157,0.973263,-0.166036,0.021487,-11.652143,-41.984673,62.747795
1703163579.635248,1703163579.635878,21.000000,0.000000,4158.846191,4111.410156,4261.153809,4172.948730,4128.205078,4115.128418,4197.307617,4133.461426,4110.000000,4120.897461,4607.179688,4435.897461,4395.897461,4511.410156,0.000000,3.000000,73.000000,,,,0.000000,4.000000,4.000000,4.000000,4.000000,4.000000,4.000000,4.000000,4.000000,4.000000,4.000000,4.000000,4.000000,4.000000,4.000000,100.000000,,,,,,,,,,,,,,,,,,,,,,,,,,,,
1703163579.643056,1703163579.643686,22.000000,0.000000,4172.436035,4135.384766,4269.102539,4189.230957,4127.436035,4117.436035,4193.077148,4124.358887,4102.692383,4147.307617,4584.615234,4445.000000,4399.487305,4517.692383,0.000000,3.000000,73.000000,,,,0.000000,4.000000,4.000000,4.000000,4.000000,4.000000,4.000000,4.000000,4.000000,4.000000,4.000000,4.000000,4.000000,4.000000,4.000000,100.000000,,,,,,,,,,,,,,,,,,,,,,,,,,,,
1703163579.650864,1703163579.651594,23.000000,0.000000,4187.563965,4159.102539,4277.820313,4200.384766,4117.436035,4105.384766,4184.615234,4118.717773,4101.666504,4147.307617,4614.102539,4447.563965,4410.897461,4529.615234,0.000000,3.000000,73.000000,,,,0.000000,4.000000,4.000000,4.000000,4.000000,4.000000,4.000000,4.000000,4.000000,4.000000,4.000000,4.000000,4.000000,4.000000,4.000000,100.000000,,,,,,,,,,,,,,,,,,,,,,,,,,,,
1703163579.658672,1703163579.659402,24.000000,0.000000,4180.897461,4153.974121,4279.743652,4202.563965,4122.948730,4104.615234,4179.615234,4120.769043,4107.948730,4129.230957,4648.974121,4441.666504,4408.077148,4527.563965,0.000000,3.000000,73.000000,,,,0.000000,4.000000,4.000000,4.000000,4.000000,4.000000,4.000000,4.000000,4.000000,4.000000,4.000000,4.000000,4.000000,4.000000,4.000000,100.000000,,,,,,,,,,,,,,,,,6.000000,0.000000,0.692955,0.063843,-0.696960,0.173157,0.981077,-0.165059,0.017580,-11.720262,-42.036205,62.906349
1703163579.666480,1703163579.667310,25.000000,0.000000,4166.794922,4141.666504,4272.692383,4195.897461,4121.794922,4103.333496,4175.256348,4122.051270,4116.538574,4128.974121,4622.179688,4437.051270,4399.487305,4519.358887,0.000000,3.000000,73.000000,,,,0.000000,4.000000,4.000000,4.000000,4.000000,4.000000,4.000000,4.000000,4.000000,4.000000,4.000000,4.000000,4.000000,4.000000,4.000000,100.000000,1.000000,66.666664,4.000000,4.000000,4.000000,4.000000,4.000000,4.000000,3.000000,4.000000,4.000000,4.000000,1.000000,4.000000,4.000000,4.000000,,,,,,,,,,,,
1703163579.674288,1703163579.675118,26.000000,0.000000,4169.230957,4136.153809,4267.051270,4189.871582,4121.282227,4097.051270,4175.128418,4122.179688,4125.000000,4142.307617,4602.436035,4434.615234,4401.282227,4517.051270,0.000000,3.000000,73.000000,,,,0.000000,4.000000,4.000000,4.000000,4.000000,4.000000,4.000000,4.000000,4.000000,4.000000,4.000000,4.000000,4.000000,4.000000,4.000000,100.000000,,,,,,,,,,,,,,,,,,,,,,,,,,,,
1703163579.682096,1703163579.683027,27.000000,0.000000,4170.641113,4127.436035,4266.282227,4187.692383,4125.256348,4100.512695,4179.871582,4125.256348,4128.077148,4150.256348,4622.692383,4432.307617,4400.641113,4514.487305,0.000000,3.000000,73.000000,,,,0.000000,4.000000,4.000000,4.000000,4.000000,4.000000,4.000000,4.000000,4.000000,4.000000,4.000000,4.000000,4.000000,4.000000,4.000000,100.000000,,,,,,,,,,,,,,,,,,,,,,,,,,,,
1703163579.689904,1703163579.690835,28.000000,0.000000,4160.384766,4122.563965,4264.615234,4186.410156,4121.794922,4109.230957,4179.871582,4125.769043,4122.307617,4145.128418,4609.230957,4432.692383,4389.871582,4510.000000,0.000000,3.000000,73.000000,,,,0.000000,4.000000,4.000000,4.000000,4.000000,4.000000,4.000000,4.000000,4.000000,4.000000,4.000000,4.000000,4.000000,4.000000,4.000000,100.000000,,,,,,,,,,,,,,,,,7.000000,0.000000,0.692967,0.063721,-0.696899,0.173401,0.957636,-0.183128,0.019045,-11.564902,-42.115917,62.832382
1703163579.697713,1703163579.698743,29.000000,0.000000,4159.102539,4131.666504,4266.666504,4191.282227,4130.000000,4109.230957,4176.410156,4121.410156,4113.846191,4140.512695,4582.307617,4437.179688,4394.230957,4511.410156,0.000000,3.000000,73.000000,,,,0.000000,4.000000,4.000000,4.000000,4.000000,4.000000,4.000000,4.000000,4.000000,4.000000,4.000000,4.000000,4.000000,4.000000,4.000000,100.000000,,,,,,,,,,,,,,,,,,,,,,,,,,,,
1703163579.705521,1703163579.706551,30.000000,0.000000,4173.974121,4145.512695,4275.128418,4198.717773,4142.051270,4108.589844,4178.974121,4114.615234,4109.743652,4151.153809,4612.179688,4441.538574,4410.897461,4521.410156,0.000000,3.000000,73.000000,,,,0.000000,4.000000,4.000000,4.000000,4.000000,4.000000,4.000000,4.000000,4.000000,4.000000,4.000000,4.000000,4.000000,4.000000,4.000000,100.000000,,,,,,,,,,,,,,,,,,,,,,,,,,,,
1703163579.713328,1703163579.714259,31.000000,0.000000,4170.897461,4138.717773,4274.230957,4190.384766,4128.205078,4110.128418,4183.205078,4105.512695,4100.128418,4148.717773,4637.948730,4435.128418,4405.256348,4515.128418,0.000000,3.000000,73.000000,,,,0.000000,4.000000,4.000000,4.000000,4.000000,4.000000,4.000000,4.000000,4.000000,4.000000,4.000000,4.000000,4.000000,4.000000,4.000000,100.000000,,,,,,,,,,,,,,,,,,,,,,,,,,,,
1703163579.721136,1703163579.722067,32.000000,0.000000,4157.820313,4127.051270,4263.589844,4181.922852,4122.436035,4113.974121,4185.384766,4104.230957,4091.410156,4129.487305,4615.641113,4427.563965,4399.871582,4502.820313,0.000000,3.000000,73.000000,,,,0.000000,4.000000,4.000000,4.000000,4.000000,4.000000,4.000000,4.000000,4.000000,4.000000,4.000000,4.000000,4.000000,4.000000,4.000000,100.000000,,,,,,,,,,,,,,,,,8.000000,0.000000,0.693042,0.063232,-0.696838,0.173523,0.989867,-0.173849,0.020999,-11.691745,-42.070992,62.815811
1703163579.728945,1703163579.729775,33.000000,0.000000,4163.589844,4135.384766,4264.871582,4191.410156,4138.205078,4118.589844,4185.769043,4110.641113,4098.589844,4133.589844,4606.282227,4436.410156,4410.256348,4511.538574,0.000000,3.000000,73.000000,,,,0.000000,4.000000,4.000000,4.000000,4.000000,4.000000,4.000000,4.000000,4.000000,4.000000,4.000000,4.000000,4.000000,4.000000,4.000000,100.000000,,,,,,,,,,,,,,,,,,,,,,,,,,,,
1703163579.736753,1703163579.737583,34.000000,0.000000,4164.487305,4139.230957,4267.051270,4191.282227,4131.025879,4107.948730,4180.769043,4107.051270,4104.230957,4142.692383,4608.077148,4440.128418,4397.948730,4512.948730,0.000000,3.000000,73.000000,,,,0.000000,4.000000,4.000000,4.000000,4.000000,4.000000,4.000000,4.000000,4.000000,4.000000,4.000000,4.000000,4.000000,4.000000,4.000000,100.000000,,,,,,,,,,,,,,,,,,,,,,,,,,,,
1703163579.744561,1703163579.745291,35.000000,0.000000,4161.025879,4135.128418,4263.205078,4187.179688,4117.051270,4100.512695,4177.436035,4110.128418,4107.563965,4137.820313,4602.307617,4430.897461,4390.769043,4507.820313,0.000000,3.000000,73.000000,,,,0.000000,4.000000,4.000000,4.000000,4.000000,4.000000,4.000000,4.000000,4.000000,4.000000,4.000000,4.000000,4.000000,4.000000,4.000000,100.000000,,,,,,,,,,,,,,,,,,,,,,,,,,,,
1703163579.752369,1703163579.753099,36.000000,0.000000,4166.922852,4137.436035,4264.487305,4192.179688,4122.563965,4108.461426,4179.871582,4131.922852,4120.000000,4141.410156,4608.077148,4433.846191,4412.692383,4517.563965,0.000000,3.000000,73.000000,,,,0.000000,4.000000,4.000000,4.000000,4.000000,4.000000,4.000000,4.000000,4.000000,4.000000,4.000000,4.000000,4.000000,4.000000,4.000000,100.000000,,,,,,,,,,,,,,,,,9.000000,0.000000,0.693048,0.063171,-0.696899,0.173279,0.978635,-0.179709,0.021975,-11.622571,-42.147228,62.750896
1703163579.760177,1703163579.760807,37.000000,0.000000,4165.256348,4135.641113,4265.384766,4189.358887,4123.077148,4108.717773,4181.410156,4142.436035,4129.871582,4148.589844,4592.820313,4445.256348,4412.948730,4521.153809,0.000000,3.000000,73.000000,,,,0.000000,4.000000,4.000000,4.000000,4.000000,4.000000,4.000000,4.000000,4.000000,4.000000,4.000000,4.000000,4.000000,4.000000,4.000000,100.000000,,,,,,,,,,,,,,,,,,,,,,,,,,,,
1703163579.767985,1703163579.768615,38.000000,0.000000,4170.897461,4142.307617,4270.128418,4193.333496,4127.820313,4111.153809,4177.948730,4140.256348,4132.820313,4153.461426,4589.102539,4450.000000,4401.794922,4527.692383,0.000000,3.000000,73.000000,,,,0.000000,4.000000,4.000000,4.000000,4.000000,4.000000,4.000000,4.000000,4.000000,4.000000,4.000000,4.000000,4.000000,4.000000,4.000000,100.000000,,,,,,,,,,,,,,,,,,,,,,,,,,,,
1703163579.775793,1703163579.776323,39.000000,0.000000,4185.769043,4151.794922,4280.000000,4207.436035,4142.820313,4123.205078,4180.128418,4143.974121,4133.205078,4152.307617,4627.307617,4449.230957,4413.077148,4539.358887,0.000000,3.000000,73.000000,,,,0.000000,4.000000,4.000000,4.000000,4.000000,4.000000,4.000000,4.000000,4.000000,4.000000,4.000000,4.000000,4.000000,4.000000,4.000000,100.000000,,,,,,,,,,,,,,,,,,,,,,,,,,,,
1703163579.783601,1703163579.784131,40.000000,0.000000,4178.461426,4144.230957,4279.615234,4206.538574,4141.282227,4123.974121,4186.538574,4144.487305,4125.897461,4139.743652,4626.153809,4445.256348,4418.589844,4532.179688,0.000000,3.000000,73.000000,,,,0.000000,4.000000,4.000000,4.000000,4.000000,4.000000,4.000000,4.000000,4.000000,4.000000,4.000000,4.000000,4.000000,4.000000,4.000000,100.000000,,,,,,,,,,,,,,,,,10.000000,0.000000,0.692866,0.063477,-0.697083,0.173157,0.978147,-0.175803,0.013674,-11.476980,-42.182503,62.742474
1703163579.791409,1703163579.791839,41.000000,0.000000,4166.153809,4137.179688,4271.025879,4199.615234,4132.436035,4120.000000,4187.692383,4133.333496,4116.410156,4137.436035,4596.922852,4435.512695,4405.769043,4522.820313,0.000000,3.000000,73.000000,,,,0.000000,4.000000,4.000000,4.000000,4.000000,4.000000,4.000000,4.000000,4.000000,4.000000,4.000000,4.000000,4.000000,4.000000,4.000000,100.000000,,,,,,,,,,,,,,,,,,,,,,,,,,,,
1703163579.799217,1703163579.799647,42.000000,0.000000,4167.051270,4135.897461,4261.794922,4199.487305,4140.128418,4127.820313,4185.769043,4122.307617,4112.051270,4138.461426,4593.717773,4423.717773,4397.051270,4523.077148,0.000000,3.000000,73.000000,,,,0.000000,4.000000,4.000000,4.000000,4.000000,4.000000,4.000000,4.000000,4.000000,4.000000,4.000000,4.000000,4.000000,4.000000,4.000000,100.000000,,,,,,,,,,,,,,,,,,,,,,,,,,,,
1703163579.807025,1703163579.807355,43.000000,0.000000,4157.179688,4127.563965,4251.538574,4192.436035,4144.358887,4130.641113,4188.974121,4112.692383,4097.692383,4126.282227,4567.307617,4415.641113,4390.641113,4510.769043,0.000000,3.000000,73.000000,,,,0.000000,4.000000,4.000000,4.000000,4.000000,4.000000,4.000000,4.000000,4.000000,4.000000,4.000000,4.000000,4.000000,4.000000,4.000000,100.000000,,,,,,,,,,,,,,,,,,,,,,,,,,,,
1703163579.814833,1703163579.815163,44.000000,0.000000,4147.051270,4117.692383,4243.589844,4182.692383,4127.692383,4122.179688,4193.974121,4103.461426,4080.512939,4115.641113,4545.128418,4407.179688,4387.307617,4495.128418,0.000000,3.000000,73.000000,,,,0.000000,4.000000,4.000000,4.000000,4.000000,4.000000,4.000000,4.000000,4.000000,4.000000,4.000000,4.000000,4.000000,4.000000,4.000000,100.000000,,,,,,,,,,,,,,,,,11.000000,0.000000,0.692739,0.064026,-0.697144,0.173218,0.975217,-0.167501,0.018069,-11.545949,-42.230919,62.718227
1703163579.822641,1703163579.822871,45.000000,0.000000,4150.256348,4117.820313,4241.666504,4183.846191,4121.666504,4120.512695,4192.307617,4103.717773,4080.897461,4113.077148,4581.282227,4404.743652,4391.538574,4497.179688,0.000000,3.000000,73.000000,,,,0.000000,4.000000,4.000000,4.000000,4.000000,4.000000,4.000000,4.000000,4.000000,4.000000,4.000000,4.000000,4.000000,4.000000,4.000000,100.000000,,,,,,,,,,,,,,,,,,,,,,,,,,,,
1703163579.830449,1703163579.830679,46.000000,0.000000,4153.461426,4123.077148,4246.794922,4190.000000,4137.436035,4125.641113,4190.769043,4112.820313,4090.769287,4116.794922,4595.641113,4414.487305,4389.230957,4505.256348,0.000000,3.000000,73.000000,,,,0.000000,4.000000,4.000000,4.000000,4.000000,4.000000,4.000000,4.000000,4.000000,4.000000,4.000000,4.000000,4.000000,4.000000,4.000000,100.000000,,,,,,,,,,,,,,,,,,,,,,,,,,,,
1703163579.838257,1703163579.838387,47.000000,0.000000,4158.077148,4120.897461,4256.666504,4195.256348,4135.512695,4119.102539,4194.487305,4119.615234,4098.333496,4127.692383,4577.179688,4426.666504,4389.871582,4512.051270,0.000000,3.000000,73.000000,,,,0.000000,4.000000,4.000000,4.000000,4.000000,4.000000,4.000000,4.000000,4.000000,4.000000,4.000000,4.000000,4.000000,4.000000,4.000000,100.000000,,,,,,,,,,,,,,,,,,,,,,,,,,,,
1703163579.846065,1703163579.846195,48.000000,0.000000,4164.871582,4109.487305,4264.615234,4197.051270,4115.256348,4109.358887,4191.410156,4128.205078,4110.128418,4135.512695,4594.615234,4437.436035,4403.077148,4519.358887,0.000000,3.000000,73.000000,,,,0.000000,4.000000,4.000000,4.000000,4.000000,4.000000,4.000000,4.000000,4.000000,4.000000,4.000000,4.000000,4.000000,4.000000,4.000000,100.000000,,,,,,,,,,,,,,,,,12.000000,0.000000,0.692841,0.064087,-0.697021,0.173279,0.979612,-0.164083,0.027835,-11.608021,-42.274494,62.863071
1703163579.853873,1703163579.853903,49.000000,0.000000,4172.436035,4120.769043,4271.794922,4203.589844,4123.461426,4113.589844,4186.282227,4145.512695,4131.282227,4149.615234,4617.179688,4452.692383,4413.077148,4529.743652,0.000000,3.000000,73.000000,,,,0.000000,4.000000,4.000000,4.000000,4.000000,4.000000,4.000000,4.000000,4.000000,4.000000,4.000000,4.000000,4.000000,4.000000,4.000000,100.000000,,,,,,,,,,,,,,,,,,,,,,,,,,,,
1703163579.861681,1703163579.861811,50.000000,0.000000,4185.769043,4163.974121,4283.333496,4223.589844,4151.025879,4118.333496,4183.077148,4153.589844,4142.307617,4173.974121,4620.128418,4461.025879,4418.974121,4542.820313,0.000000,3.000000,73.000000,,,,0.000000,4.000000,4.000000,4.000000,4.000000,4.000000,4.000000,4.000000,4.000000,4.000000,4.000000,4.000000,4.000000,4.000000,4.000000,100.000000,,,,,,,,,,,,,,,,,,,,,,,,,,,,
1703163579.869489,1703163579.869619,51.000000,0.000000,4192.820313,4185.512695,4289.487305,4235.769043,4153.974121,4109.487305,4176.922852,4146.282227,4141.538574,4170.897461,4623.077148,4458.205078,4423.846191,4546.410156,0.000000,3.000000,73.000000,,,,0.000000,4.000000,4.000000,4.000000,4.000000,4.000000,4.000000,4.000000,4.000000,4.000000,4.000000,4.000000,4.000000,4.000000,4.000000,100.000000,,,,,,,,,,,,,,,,,,,,,,,,,,,,
1703163579.877298,1703163579.877528,52.000000,0.000000,4188.589844,4174.358887,4284.871582,4226.153809,4141.794922,4107.820313,4174.615234,4141.025879,4142.179688,4155.769043,4602.692383,4457.563965,4421.538574,4539.230957,0.000000,3.000000,73.000000,,,,0.000000,4.000000,4.000000,4.000000,4.000000,4.000000,4.000000,4.000000,4.000000,4.000000,4.000000,4.000000,4.000000,4.000000,4.000000,100.000000,,,,,,,,,,,,,,,,,13.000000,0.000000,0.692993,0.064270,-0.696838,0.173340,0.974728,-0.186546,0.017092,-11.463885,-42.380379,62.876762
1703163579.885105,1703163579.885336,53.000000,0.000000,4182.820313,4167.179688,4276.153809,4218.333496,4140.641113,4117.820313,4182.820313,4136.025879,4137.692383,4160.384766,4586.666504,4449.102539,4409.615234,4529.102539,0.000000,3.000000,73.000000,,,,0.000000,4.000000,4.000000,4.000000,4.000000,4.000000,4.000000,4.000000,4.000000,4.000000,4.000000,4.000000,4.000000,4.000000,4.000000,100.000000,,,,,,,,,,,,,,,,,,,,,,,,,,,,
1703163579.892913,1703163579.893244,54.000000,0.000000,4170.256348,4163.974121,4261.153809,4215.897461,4144.615234,4125.512695,4188.461426,4123.974121,4118.974121,4146.153809,4599.358887,4426.538574,4389.102539,4511.410156,0.000000,3.000000,73.000000,,,,0.000000,4.000000,4.000000,4.000000,4.000000,4.000000,4.000000,4.000000,4.000000,4.000000,4.000000,4.000000,4.000000,4.000000,4.000000,100.000000,,,,,,,,,,,,,,,,,,,,,,,,,,,,
1703163579.900722,1703163579.901052,55.000000,0.000000,4154.487305,4158.717773,4246.025879,4203.974121,4132.692383,4125.128418,4187.563965,4111.410156,4095.256348,4113.974121,4589.487305,4408.333496,4366.153809,4492.692383,0.000000,3.000000,73.000000,,,,0.000000,4.000000,4.000000,4.000000,4.000000,4.000000,4.000000,4.000000,4.000000,4.000000,4.000000,4.000000,4.000000,4.000000,4.000000,100.000000,,,,,,,,,,,,,,,,,,,,,,,,,,,,
1703163579.908530,1703163579.908959,56.000000,0.000000,4148.846191,4148.461426,4242.436035,4194.615234,4118.974121,4120.384766,4193.589844,4106.410156,4080.512939,4107.051270,4553.077148,4406.025879,4358.077148,4485.384766,0.000000,3.000000,73.000000,,,,0.000000,4.000000,4.000000,4.000000,4.000000,4.000000,4.000000,4.000000,4.000000,4.000000,4.000000,4.000000,4.000000,4.000000,4.000000,100.000000,,,,,,,,,,,,,,,,,14.000000,0.000000,0.693132,0.064087,-0.696716,0.173340,0.982542,-0.173849,0.021975,-11.400830,-42.409008,62.922421
1703163579.916338,1703163579.916767,57.000000,0.000000,4148.333496,4137.692383,4244.102539,4198.077148,4121.282227,4123.974121,4198.717773,4111.794922,4073.846191,4103.333496,4553.205078,4414.230957,4360.512695,4486.666504,0.000000,3.000000,73.000000,,,,0.000000,4.000000,4.000000,4.000000,4.000000,4.000000,4.000000,4.000000,4.000000,4.000000,4.000000,4.000000,4.000000,4.000000,4.000000,100.000000,,,,,,,,,,,,,,,,,,,,,,,,,,,,
1703163579.924146,1703163579.924475,58.000000,0.000000,4155.641113,4143.461426,4247.563965,4198.717773,4124.487305,4127.051270,4193.846191,4121.153809,4075.512939,4087.948730,4583.333496,4422.563965,4356.794922,4495.641113,0.000000,3.000000,73.000000,,,,0.000000,4.000000,4.000000,4.000000,4.000000,4.000000,4.000000,4.000000,4.000000,4.000000,4.000000,4.000000,4.000000,4.000000,4.000000,100.000000,,,,,,,,,,,,,,,,,,,,,,,,,,,,
1703163579.931954,1703163579.932283,59.000000,0.000000,4168.077148,4154.743652,4256.538574,4198.333496,4122.948730,4116.922852,4190.256348,4132.436035,4092.564209,4103.589844,4576.410156,4436.794922,4365.384766,4507.820313,0.000000,3.000000,73.000000,,,,0.000000,4.000000,4.000000,4.000000,4.000000,4.000000,4.000000,4.000000,4.000000,4.000000,4.000000,4.000000,4.000000,4.000000,4.000000,100.000000,,,,,,,,,,,,,,,,,,,,,,,,,,,,
1703163579.939762,1703163579.939992,60.000000,0.000000,4170.384766,4152.563965,4264.743652,4205.256348,4122.692383,4108.974121,4190.641113,4147.948730,4119.615234,4146.025879,4568.717773,4452.051270,4387.692383,4515.641113,0.000000,3.000000,73.000000,,,,0.000000,4.000000,4.000000,4.000000,4.000000,4.000000,4.000000,4.000000,4.000000,4.000000,4.000000,4.000000,4.000000,4.000000,4.000000,100.000000,,,,,,,,,,,,,,,,,15.000000,0.000000,0.693178,0.064087,-0.696716,0.173157,0.984984,-0.175803,0.022952,-11.427414,-42.434772,62.963512
1703163579.947570,1703163579.947799,61.000000,0.000000,4176.025879,4159.230957,4271.666504,4214.615234,4126.538574,4115.384766,4187.179688,4156.922852,4135.769043,4157.179688,4611.025879,4456.410156,4401.794922,4527.948730,0.000000,3.000000,73.000000,,,,0.000000,4.000000,4.000000,4.000000,4.000000,4.000000,4.000000,4.000000,4.000000,4.000000,4.000000,4.000000,4.000000,4.000000,4.000000,100.000000,,,,,,,,,,,,,,,,,,,,,,,,,,,,
1703163579.955378,1703163579.955508,62.000000,0.000000,4196.794922,4176.410156,4287.307617,4226.282227,4137.820313,4118.461426,4180.384766,4155.128418,4140.769043,4149.102539,4659.102539,4465.000000,4417.692383,4550.256348,0.000000,3.000000,73.000000,,,,0.000000,4.000000,4.000000,4.000000,4.000000,4.000000,4.000000,4.000000,4.000000,4.000000,4.000000,4.000000,4.000000,4.000000,4.000000,100.000000,,,,,,,,,,,,,,,,,,,,,,,,,,,,
1703163579.963186,1703163579.963316,63.000000,0.000000,4207.436035,4175.897461,4299.102539,4233.717773,4140.000000,4108.974121,4178.077148,4156.922852,4147.051270,4167.307617,4652.948730,4480.769043,4431.410156,4561.922852,0.000000,3.000000,73.000000,,,,0.000000,4.000000,4.000000,4.000000,4.000000,4.000000,4.000000,4.000000,4.000000,4.000000,4.000000,4.000000,4.000000,4.000000,4.000000,100.000000,,,,,,,,,,,,,,,,,,,,,,,,,,,,
1703163579.970994,1703163579.971024,64.000000,0.000000,4202.692383,4178.974121,4296.282227,4233.846191,4130.897461,4101.666504,4176.794922,4155.128418,4143.846191,4185.000000,4638.717773,4475.128418,4429.102539,4556.025879,5440.000000,3.000000,73.000000,,,,0.000000,4.000000,4.000000,4.000000,4.000000,4.000000,4.000000,4.000000,4.000000,4.000000,4.000000,4.000000,4.000000,4.000000,4.000000,100.000000,,,,,,,,,,,,,,,,,16.000000,0.000000,0.693107,0.064026,-0.696777,0.173218,0.984984,-0.177756,0.026370,-11.501339,-42.424629,62.950493
1703163579.978802,1703163579.978832,65.000000,0.000000,4204.871582,4193.461426,4295.000000,4233.717773,4131.922852,4105.512695,4174.743652,4136.153809,4130.897461,4168.717773,4642.179688,4457.692383,4417.820313,4555.641113,5382.000000,3.000000,73.000000,,,,0.000000,4.000000,4.000000,4.000000,4.000000,4.000000,4.000000,4.000000,4.000000,4.000000,4.000000,4.000000,4.000000,4.000000,4.000000,100.000000,,,,,,,,,,,,,,,,,,,,,,,,,,,,
1703163579.986610,1703163579.986540,66.000000,0.000000,4205.128418,4182.436035,4294.487305,4231.538574,4131.538574,4114.102539,4175.512695,4122.051270,4115.769043,4148.974121,4607.051270,4454.230957,4404.871582,4553.846191,5290.000000,3.000000,73.000000,,,,0.000000,4.000000,4.000000,4.000000,4.000000,4.000000,4.000000,4.000000,4.000000,4.000000,4.000000,4.000000,4.000000,4.000000,4.000000,100.000000,,,,,,,,,,,,,,,,,,,,,,,,,,,,
1703163579.994418,1703163579.994348,67.000000,0.000000,4192.051270,4167.820313,4284.358887,4227.179688,4128.461426,4124.358887,4180.128418,4121.153809,4101.794922,4149.871582,4582.436035,4447.692383,4394.487305,4536.922852,5232.000000,3.000000,73.000000,,,,0.000000,4.000000,4.000000,4.000000,4.000000,4.000000,4.000000,4.000000,4.000000,4.000000,4.000000,4.000000,4.000000,4.000000,4.000000,100.000000,,,,,,,,,,,,,,,,,,,,,,,,,,,,
1703163580.002226,1703163580.002056,68.000000,0.000000,4185.128418,4182.051270,4276.538574,4229.487305,4142.051270,4133.974121,4188.077148,4114.102539,4091.025635,4143.974121,4607.051270,4431.153809,4393.205078,4526.025879,4939.000000,3.000000,73.000000,,,,0.000000,4.000000,4.000000,4.000000,4.000000,4.000000,4.000000,4.000000,4.000000,4.000000,4.000000,4.000000,4.000000,4.000000,4.000000,100.000000,,,,,,,,,,,,,,,,,17.000000,0.000000,0.692817,0.063843,-0.697083,0.173218,0.972287,-0.171408,0.017092,-11.451205,-42.348831,62.872112
1703163580.010034,1703163580.009964,69.000000,0.000000,4185.256348,4185.641113,4272.948730,4228.974121,4146.666504,4134.102539,4188.846191,4102.692383,4078.974365,4125.128418,4613.589844,4423.589844,4391.666504,4526.025879,5021.000000,3.000000,73.000000,,,,0.000000,4.000000,4.000000,4.000000,4.000000,4.000000,4.000000,4.000000,4.000000,4.000000,4.000000,4.000000,4.000000,4.000000,4.000000,100.000000,,,,,,,,,,,,,,,,,,,,,,,,,,,,
1703163580.017842,1703163580.017772,70.000000,0.000000,4175.256348,4158.333496,4265.128418,4217.179688,4134.615234,4134.102539,4185.769043,4102.179688,4070.897461,4116.410156,4587.820313,4422.436035,4377.563965,4513.077148,2174.000000,3.000000,73.000000,,,,0.000000,4.000000,4.000000,4.000000,4.000000,4.000000,4.000000,4.000000,4.000000,4.000000,4.000000,4.000000,4.000000,4.000000,4.000000,100.000000,,,,,,,,,,,,,,,,,,,,,,,,,,,,
1703163580.025650,1703163580.025680,71.000000,0.000000,4165.384766,4144.743652,4257.307617,4210.512695,4136.666504,4133.589844,4186.794922,4106.666504,4077.948730,4117.179688,4572.948730,4417.436035,4368.974121,4499.871582,4542.000000,3.000000,73.000000,,,,0.000000,4.000000,4.000000,4.000000,4.000000,4.000000,4.000000,4.000000,4.000000,4.000000,4.000000,4.000000,4.000000,4.000000,4.000000,100.000000,,,,,,,,,,,,,,,,,,,,,,,,,,,,
1703163580.033458,1703163580.033488,72.000000,0.000000,4168.461426,4156.922852,4258.974121,4213.846191,4137.692383,4119.358887,4184.102539,4118.461426,4099.487305,4126.538574,4584.230957,4421.794922,4379.487305,4508.205078,5175.000000,3.000000,73.000000,,,,0.000000,4.000000,4.000000,4.000000,4.000000,4.000000,4.000000,4.000000,4.000000,4.000000,4.000000,4.000000,4.000000,4.000000,4.000000,100.000000,,,,,,,,,,,,,,,,,18.000000,0.000000,0.692665,0.063660,-0.697205,0.173401,0.975705,-0.173849,0.010255,-11.589418,-42.363949,62.768234
1703163580.041266,1703163580.041396,73.000000,0.000000,4173.333496,4156.538574,4269.358887,4220.641113,4121.025879,4104.358887,4176.794922,4144.615234,4128.077148,4142.563965,4607.436035,4441.410156,4388.205078,4523.077148,5365.000000,3.000000,73.000000,,,,0.000000,4.000000,4.000000,4.000000,4.000000,4.000000,4.000000,4.000000,4.000000,4.000000,4.000000,4.000000,4.000000,4.000000,4.000000,100.000000,,,,,,,,,,,,,,,,,,,,,,,,,,,,
1703163580.049074,1703163580.049205,74.000000,0.000000,4180.128418,4145.384766,4285.641113,4226.666504,4121.666504,4104.487305,4176.282227,4160.641113,4153.846191,4161.153809,4609.102539,4458.974121,4393.077148,4532.179688,5671.000000,3.000000,73.000000,,,,0.000000,4.000000,4.000000,4.000000,4.000000,4.000000,4.000000,4.000000,4.000000,4.000000,4.000000,4.000000,4.000000,4.000000,4.000000,100.000000,,,,,,,,,,,,,,,,,,,,,,,,,,,,
1703163580.056883,1703163580.057113,75.000000,0.000000,4199.358887,4159.230957,4303.589844,4237.179688,4137.307617,4107.948730,4177.692383,4158.333496,4164.230957,4179.358887,4606.410156,4470.384766,4414.615234,4549.102539,6028.000000,3.000000,73.000000,,,,0.000000,4.000000,4.000000,4.000000,4.000000,4.000000,4.000000,4.000000,4.000000,4.000000,4.000000,4.000000,4.000000,4.000000,4.000000,100.000000,,,,,,,,,,,,,,,,,,,,,,,,,,,,
1703163580.064690,1703163580.064921,76.000000,0.000000,4218.461426,4183.205078,4314.871582,4252.820313,4142.948730,4104.871582,4173.461426,4158.589844,4162.436035,4187.820313,4646.153809,4477.948730,4434.102539,4567.307617,6329.000000,3.000000,73.000000,,,,0.000000,4.000000,4.000000,4.000000,4.000000,4.000000,4.000000,4.000000,4.000000,4.000000,4.000000,4.000000,4.000000,4.000000,4.000000,100.000000,,,,,,,,,,,,,,,,,19.000000,0.000000,0.692624,0.063782,-0.697205,0.173523,0.973752,-0.171408,0.001465,-11.563809,-42.277554,62.941410
1703163580.072498,1703163580.072829,77.000000,0.000000,4217.692383,4175.512695,4312.692383,4250.641113,4134.230957,4105.512695,4170.512695,4154.615234,4152.436035,4180.641113,4668.846191,4471.922852,4429.615234,4567.948730,6118.000000,3.000000,73.000000,,,,0.000000,4.000000,4.000000,4.000000,4.000000,4.000000,4.000000,4.000000,4.000000,4.000000,4.000000,4.000000,4.000000,4.000000,4.000000,100.000000,,,,,,,,,,,,,,,,,,,,,,,,,,,,
1703163580.080307,1703163580.080637,78.000000,0.000000,4204.102539,4149.615234,4300.641113,4234.487305,4126.410156,4111.153809,4171.025879,4138.461426,4131.922852,4166.538574,4635.512695,4460.256348,4418.333496,4550.641113,5671.000000,3.000000,73.000000,,,,0.000000,4.000000,4.000000,4.000000,4.000000,4.000000,4.000000,4.000000,4.000000,4.000000,4.000000,4.000000,4.000000,4.000000,4.000000,100.000000,,,,,,,,,,,,,,,,,,,,,,,,,,,,
1703163580.088115,1703163580.088545,79.000000,0.000000,4198.846191,4151.538574,4295.128418,4235.897461,4135.000000,4121.025879,4177.051270,4127.820313,4114.230957,4158.077148,4610.769043,4458.461426,4410.128418,4536.538574,6028.000000,3.000000,73.000000,,,,0.000000,4.000000,4.000000,4.000000,4.000000,4.000000,4.000000,4.000000,4.000000,4.000000,4.000000,4.000000,4.000000,4.000000,4.000000,100.000000,,,,,,,,,,,,,,,,,,,,,,,,,,,,
1703163580.095923,1703163580.096353,80.000000,0.000000,4200.384766,4173.077148,4297.436035,4244.358887,4141.794922,4129.102539,4181.922852,4122.436035,4098.205078,4148.205078,4611.538574,4455.128418,4401.538574,4539.615234,6329.000000,3.000000,73.000000,,,,0.000000,4.000000,4.000000,4.000000,4.000000,4.000000,4.000000,4.000000,4.000000,4.000000,4.000000,4.000000,4.000000,4.000000,4.000000,100.000000,,,,,,,,,,,,,,,,,20.000000,0.000000,0.692639,0.063782,-0.697205,0.173462,0.972775,-0.169943,0.018069,-11.740762,-42.299801,62.913937
1703163580.103731,1703163580.104260,81.000000,0.000000,4192.563965,4171.666504,4293.077148,4236.410156,4143.589844,4130.512695,4179.230957,4120.000000,4088.076904,4140.769043,4610.384766,4444.358887,4398.077148,4540.000000,6118.000000,3.000000,73.000000,,,,0.000000,4.000000,4.000000,4.000000,4.000000,4.000000,4.000000,4.000000,4.000000,4.000000,4.000000,4.000000,4.000000,4.000000,4.000000,100.000000,,,,,,,,,,,,,,,,,,,,,,,,,,,,
1703163580.111539,1703163580.112068,82.000000,0.000000,4175.641113,4148.077148,4277.820313,4223.717773,4135.641113,4123.461426,4177.692383,4127.051270,4095.769287,4145.256348,4589.743652,4439.871582,4399.487305,4525.512695,5671.000000,3.000000,73.000000,,,,0.000000,4.000000,4.000000,4.000000,4.000000,4.000000,4.000000,4.000000,4.000000,4.000000,4.000000,4.000000,4.000000,4.000000,4.000000,100.000000,,,,,,,,,,,,,,,,,,,,,,,,,,,,
1703163580.119347,1703163580.119777,83.000000,0.000000,4169.102539,4141.282227,4266.410156,4217.563965,4117.307617,4113.974121,4177.692383,4137.051270,4112.563965,4148.077148,4574.358887,4440.384766,4401.794922,4518.077148,6028.000000,3.000000,73.000000,,,,0.000000,4.000000,4.000000,4.000000,4.000000,4.000000,4.000000,4.000000,4.000000,4.000000,4.000000,4.000000,4.000000,4.000000,4.000000,100.000000,,,,,,,,,,,,,,,,,,,,,,,,,,,,
1703163580.127155,1703163580.127585,84.000000,0.000000,4174.102539,4149.871582,4268.589844,4213.974121,4119.230957,4110.256348,4176.922852,4146.025879,4129.102539,4148.333496,4603.461426,4438.846191,4407.820313,4522.948730,6329.000000,3.000000,73.000000,,,,0.000000,4.000000,4.000000,4.000000,4.000000,4.000000,4.000000,4.000000,4.000000,4.000000,4.000000,4.000000,4.000000,4.000000,4.000000,100.000000,,,,,,,,,,,,,,,,,21.000000,0.000000,0.692685,0.063782,-0.697144,0.173523,0.979123,-0.184105,0.012697,-11.833352,-42.469818,63.072540
1703163580.134963,1703163580.135293,85.000000,0.000000,4176.538574,4148.974121,4276.153809,4215.897461,4141.025879,4111.666504,4179.230957,4155.128418,4143.846191,4162.948730,4638.846191,4446.538574,4411.922852,4526.025879,6118.000000,3.000000,73.000000,,,,0.000000,4.000000,4.000000,4.000000,4.000000,4.000000,4.000000,4.000000,4.000000,4.000000,4.000000,4.000000,4.000000,4.000000,4.000000,100.000000,,,,,,,,,,,,,,,,,,,,,,,,,,,,
1703163580.142771,1703163580.143101,86.000000,0.000000,4172.692383,4134.487305,4277.692383,4216.282227,4140.897461,4108.461426,4178.846191,4158.333496,4147.820313,4172.563965,4624.743652,4458.717773,4408.205078,4524.358887,5671.000000,3.000000,73.000000,,,,0.000000,4.000000,4.000000,4.000000,4.000000,4.000000,4.000000,4.000000,4.000000,4.000000,4.000000,4.000000,4.000000,4.000000,4.000000,100.000000,,,,,,,,,,,,,,,,,,,,,,,,,,,,
1703163580.150579,1703163580.150809,87.000000,0.000000,4162.563965,4122.692383,4272.179688,4208.077148,4114.743652,4097.948730,4168.974121,4152.563965,4143.205078,4156.794922,4602.051270,4454.102539,4394.102539,4517.307617,6028.000000,3.000000,73.000000,,,,0.000000,4.000000,4.000000,4.000000,4.000000,4.000000,4.000000,4.000000,4.000000,4.000000,4.000000,4.000000,4.000000,4.000000,4.000000,100.000000,,,,,,,,,,,,,,,,,,,,,,,,,,,,
1703163580.158387,1703163580.158617,88.000000,0.000000,4160.512695,4132.563965,4271.025879,4209.230957,4106.538574,4095.512939,4166.922852,4143.846191,4137.948730,4140.384766,4606.538574,4441.666504,4383.461426,4509.871582,6329.000000,3.000000,73.000000,,,,0.000000,4.000000,4.000000,4.000000,4.000000,4.000000,4.000000,4.000000,4.000000,4.000000,4.000000,4.000000,4.000000,4.000000,4.000000,100.000000,,,,,,,,,,,,,,,,,22.000000,0.000000,0.692808,0.063782,-0.697021,0.173523,0.971798,-0.184105,0.024417,-11.850018,-42.389503,62.948620
1703163580.166195,1703163580.166325,89.000000,0.000000,4167.436035,4143.974121,4270.256348,4217.948730,4122.563965,4111.666504,4176.538574,4133.205078,4122.820313,4139.487305,4585.769043,4441.153809,4382.436035,4507.820313,6118.000000,3.000000,73.000000,,,,0.000000,4.000000,4.000000,4.000000,4.000000,4.000000,4.000000,4.000000,4.000000,4.000000,4.000000,4.000000,4.000000,4.000000,4.000000,100.000000,1.000000,66.666664,4.000000,4.000000,4.000000,4.000000,4.000000,4.000000,3.000000,4.000000,4.000000,4.000000,1.000000,4.000000,4.000000,4.000000,,,,,,,,,,,,
1703163580.174003,1703163580.174233,90.000000,0.000000,4166.410156,4138.461426,4264.615234,4216.410156,4137.820313,4127.563965,4184.102539,4120.000000,4103.205078,4134.871582,4555.641113,4438.077148,4380.512695,4501.282227,5671.000000,3.000000,73.000000,,,,0.000000,4.000000,4.000000,4.000000,4.000000,4.000000,4.000000,4.000000,4.000000,4.000000,4.000000,4.000000,4.000000,4.000000,4.000000,100.000000,,,,,,,,,,,,,,,,,,,,,,,,,,,,
1703163580.181811,1703163580.182041,91.000000,0.000000,4160.512695,4136.794922,4260.512695,4210.000000,4140.128418,4127.948730,4188.461426,4106.410156,4093.846191,4121.666504,4573.717773,4422.179688,4382.948730,4496.153809,6028.000000,3.000000,73.000000,,,,0.000000,4.000000,4.000000,4.000000,4.000000,4.000000,4.000000,4.000000,4.000000,4.000000,4.000000,4.000000,4.000000,4.000000,4.000000,100.000000,,,,,,,,,,,,,,,,,,,,,,,,,,,,
1703163580.189619,1703163580.189949,92.000000,0.000000,4161.666504,4138.205078,4259.743652,4211.922852,4134.102539,4125.769043,4186.666504,4100.000000,4088.205078,4119.487305,4597.820313,4414.871582,4387.436035,4501.410156,6329.000000,3.000000,73.000000,,,,0.000000,4.000000,4.000000,4.000000,4.000000,4.000000,4.000000,4.000000,4.000000,4.000000,4.000000,4.000000,4.000000,4.000000,4.000000,100.000000,,,,,,,,,,,,,,,,,23.000000,0.000000,0.692763,0.063599,-0.697083,0.173523,0.983030,-0.169454,0.016115,-11.681682,-42.350555,62.920425
1703163580.197427,1703163580.197757,93.000000,0.000000,4168.974121,4136.538574,4263.974121,4217.179688,4136.794922,4128.846191,4185.128418,4111.153809,4089.615479,4136.410156,4585.897461,4426.025879,4389.230957,4507.436035,6118.000000,3.000000,73.000000,,,,0.000000,4.000000,4.000000,4.000000,4.000000,4.000000,4.000000,4.000000,4.000000,4.000000,4.000000,4.000000,4.000000,4.000000,4.000000,100.000000,,,,,,,,,,,,,,,,,,,,,,,,,,,,
1703163580.205235,1703163580.205665,94.000000,0.000000,4175.512695,4148.717773,4273.846191,4218.846191,4139.615234,4126.794922,4185.512695,4129.487305,4105.256348,4156.666504,4593.205078,4436.025879,4400.897461,4515.128418,5671.000000,3.000000,73.000000,,,,0.000000,4.000000,4.000000,4.000000,4.000000,4.000000,4.000000,4.000000,4.000000,4.000000,4.000000,4.000000,4.000000,4.000000,4.000000,100.000000,,,,,,,,,,,,,,,,,,,,,,,,,,,,
1703163580.213043,1703163580.213474,95.000000,0.000000,4175.384766,4149.871582,4278.717773,4216.025879,4138.333496,4121.153809,4183.589844,4143.589844,4121.410156,4157.307617,4617.820313,4443.846191,4414.743652,4523.846191,6028.000000,3.000000,73.000000,,,,0.000000,4.000000,4.000000,4.000000,4.000000,4.000000,4.000000,4.000000,4.000000,4.000000,4.000000,4.000000,4.000000,4.000000,4.000000,100.000000,,,,,,,,,,,,,,,,,,,,,,,,,,,,
1703163580.220851,1703163580.221382,96.000000,0.000000,4169.871582,4128.077148,4279.230957,4213.589844,4143.333496,4119.487305,4182.436035,4153.589844,4130.384766,4151.410156,4597.436035,4461.666504,4410.128418,4526.153809,6329.000000,3.000000,73.000000,,,,0.000000,4.000000,4.000000,4.000000,4.000000,4.000000,4.000000,4.000000,4.000000,4.000000,4.000000,4.000000,4.000000,4.000000,4.000000,100.000000,,,,,,,,,,,,,,,,,24.000000,0.000000,0.692804,0.063660,-0.697021,0.173584,0.971310,-0.161641,0.013185,-11.780181,-42.382164,62.995049
1703163580.228659,1703163580.229190,97.000000,0.000000,4172.436035,4134.615234,4279.615234,4219.743652,4133.974121,4111.282227,4177.948730,4158.461426,4137.820313,4152.307617,4591.282227,4464.871582,4397.179688,4527.563965,6118.000000,3.000000,73.000000,,,,0.000000,4.000000,4.000000,4.000000,4.000000,4.000000,4.000000,4.000000,4.000000,4.000000,4.000000,4.000000,4.000000,4.000000,4.000000,100.000000,,,,,,,,,,,,,,,,,,,,,,,,,,,,
1703163580.236467,1703163580.237098,98.000000,0.000000,4178.717773,4162.436035,4271.410156,4224.102539,4121.922852,4098.589844,4170.000000,4158.846191,4140.897461,4153.717773,4625.512695,4446.794922,4393.589844,4527.436035,5671.000000,3.000000,73.000000,,,,0.000000,4.000000,4.000000,4.000000,4.000000,4.000000,4.000000,4.000000,4.000000,4.000000,4.000000,4.000000,4.000000,4.000000,4.000000,100.000000,,,,,,,,,,,,,,,,,,,,,,,,,,,,
1703163580.244275,1703163580.244906,99.000000,0.000000,4175.512695,4161.025879,4264.871582,4218.077148,4138.205078,4106.025879,4168.846191,4158.589844,4140.128418,4163.333496,4628.717773,4439.358887,4401.025879,4522.820313,6028.000000,3.000000,73.000000,,,,0.000000,4.000000,4.000000,4.000000,4.000000,4.000000,4.000000,4.000000,4.000000,4.000000,4.000000,4.000000,4.000000,4.000000,4.000000,100.000000,,,,,,,,,,,,,,,,,,,,,,,,,,,,
1703163580.252083,1703163580.252814,100.000000,0.000000,4172.179688,4146.025879,4264.230957,4216.025879,4146.666504,4124.230957,4176.922852,4157.820313,4141.666504,4169.743652,4605.512695,4441.410156,4412.820313,4524.102539,6329.000000,3.000000,73.000000,,,,0.000000,4.000000,4.000000,4.000000,4.000000,4.000000,4.000000,4.000000,4.000000,4.000000,4.000000,4.000000,4.000000,4.000000,4.000000,100.000000,,,,,,,,,,,,,,,,,25.000000,0.000000,0.692717,0.063599,-0.697083,0.173706,0.989867,-0.181174,0.016115,-11.818830,-42.410614,62.895546
1703163580.259892,1703163580.260622,101.000000,0.000000,4168.974121,4150.256348,4257.820313,4218.205078,4133.077148,4130.641113,4184.487305,4153.077148,4140.000000,4160.384766,4606.153809,4432.692383,4404.358887,4523.589844,6118.000000,3.000000,73.000000,,,,0.000000,4.000000,4.000000,4.000000,4.000000,4.000000,4.000000,4.000000,4.000000,4.000000,4.000000,4.000000,4.000000,4.000000,4.000000,100.000000,,,,,,,,,,,,,,,,,,,,,,,,,,,,
1703163580.267700,1703163580.268530,102.000000,0.000000,4157.820313,4153.333496,4246.666504,4208.974121,4129.230957,4127.820313,4185.384766,4140.000000,4124.871582,4144.102539,4600.128418,4418.461426,4373.974121,4507.820313,5671.000000,3.000000,73.000000,,,,0.000000,4.000000,4.000000,4.000000,4.000000,4.000000,4.000000,4.000000,4.000000,4.000000,4.000000,4.000000,4.000000,4.000000,4.000000,100.000000,,,,,,,,,,,,,,,,,,,,,,,,,,,,
1703163580.275508,1703163580.276338,103.000000,0.000000,4145.384766,4141.666504,4237.051270,4196.153809,4130.769043,4124.871582,4184.871582,4122.820313,4099.487305,4127.051270,4549.487305,4409.743652,4357.051270,4488.846191,6028.000000,3.000000,73.000000,,,,0.000000,4.000000,4.000000,4.000000,4.000000,4.000000,4.000000,4.000000,4.000000,4.000000,4.000000,4.000000,4.000000,4.000000,4.000000,100.000000,,,,,,,,,,,,,,,,,,,,,,,,,,,,
1703163580.283316,1703163580.284246,104.000000,0.000000,4144.102539,4137.179688,4236.410156,4197.820313,4127.820313,4125.256348,4187.051270,4115.897461,4087.307617,4116.794922,4537.692383,4406.282227,4361.282227,4483.974121,6329.000000,3.000000,73.000000,,,,0.000000,4.000000,4.000000,4.000000,4.000000,4.000000,4.000000,4.000000,4.000000,4.000000,4.000000,4.000000,4.000000,4.000000,4.000000,100.000000,,,,,,,,,,,,,,,,,26.000000,0.000000,0.692625,0.063599,-0.697144,0.173828,0.967892,-0.173849,0.013674,-11.786946,-42.419552,62.989323
1703163580.291124,1703163580.292054,105.000000,0.000000,4157.179688,4148.205078,4249.871582,4208.333496,4126.922852,4121.666504,4186.666504,4122.563965,4099.487305,4125.256348,4585.897461,4413.333496,4366.410156,4495.769043,6118.000000,3.000000,73.000000,,,,0.000000,4.000000,4.000000,4.000000,4.000000,4.000000,4.000000,4.000000,4.000000,4.000000,4.000000,4.000000,4.000000,4.000000,4.000000,100.000000,,,,,,,,,,,,,,,,,,,,,,,,,,,,
1703163580.298932,1703163580.299762,106.000000,0.000000,4169.230957,4156.922852,4261.666504,4214.871582,4129.102539,4115.256348,4183.333496,4133.974121,4120.128418,4144.230957,4608.717773,4428.077148,4376.666504,4512.179688,5671.000000,3.000000,73.000000,,,,0.000000,4.000000,4.000000,4.000000,4.000000,4.000000,4.000000,4.000000,4.000000,4.000000,4.000000,4.000000,4.000000,4.000000,4.000000,100.000000,,,,,,,,,,,,,,,,,,,,,,,,,,,,
1703163580.306740,1703163580.307670,107.000000,0.000000,4172.563965,4153.974121,4265.256348,4215.641113,4131.410156,4116.282227,4183.974121,4145.641113,4136.410156,4157.563965,4593.846191,4439.871582,4398.205078,4520.384766,6028.000000,3.000000,73.000000,,,,0.000000,4.000000,4.000000,4.000000,4.000000,4.000000,4.000000,4.000000,4.000000,4.000000,4.000000,4.000000,4.000000,4.000000,4.000000,100.000000,,,,,,,,,,,,,,,,,,,,,,,,,,,,
1703163580.314548,1703163580.315478,108.000000,0.000000,4169.358887,4144.615234,4273.846191,4217.692383,4124.358887,4116.025879,4185.128418,4153.333496,4144.102539,4155.384766,4601.794922,4447.051270,4402.307617,4523.205078,6329.000000,3.000000,73.000000,,,,0.000000,4.000000,4.000000,4.000000,4.000000,4.000000,4.000000,4.000000,4.000000,4.000000,4.000000,4.000000,4.000000,4.000000,4.000000,100.000000,,,,,,,,,,,,,,,,,27.000000,0.000000,0.692560,0.063477,-0.697205,0.173889,0.974240,-0.170431,0.011720,-11.708252,-42.377598,63.040390
1703163580.322356,1703163580.323386,109.000000,0.000000,4168.077148,4135.769043,4281.794922,4222.563965,4114.615234,4100.256348,4177.820313,4155.128418,4140.897461,4141.794922,4620.384766,4450.384766,4388.077148,4522.436035,6118.000000,3.000000,73.000000,,,,0.000000,4.000000,4.000000,4.000000,4.000000,4.000000,4.000000,4.000000,4.000000,4.000000,4.000000,4.000000,4.000000,4.000000,4.000000,100.000000,,,,,,,,,,,,,,,,,,,,,,,,,,,,
1703163580.330164,1703163580.331194,110.000000,0.000000,4177.051270,4144.615234,4286.153809,4231.666504,4128.333496,4089.487061,4169.102539,4157.948730,4135.000000,4145.897461,4598.974121,4457.051270,4391.282227,4521.666504,5671.000000,3.000000,73.000000,,,,0.000000,4.000000,4.000000,4.000000,4.000000,4.000000,4.000000,4.000000,4.000000,4.000000,4.000000,4.000000,4.000000,4.000000,4.000000,100.000000,,,,,,,,,,,,,,,,,,,,,,,,,,,,
1703163580.337972,1703163580.339003,111.000000,0.000000,4189.871582,4160.256348,4296.922852,4245.256348,4145.641113,4096.282227,4168.846191,4161.922852,4135.641113,4163.846191,4586.282227,4463.846191,4407.948730,4531.538574,6028.000000,3.000000,73.000000,,,,0.000000,4.000000,4.000000,4.000000,4.000000,4.000000,4.000000,4.000000,4.000000,4.000000,4.000000,4.000000,4.000000,4.000000,4.000000,100.000000,,,,,,,,,,,,,,,,,,,,,,,,,,,,
1703163580.345780,1703163580.346711,112.000000,0.000000,4192.051270,4155.897461,4299.230957,4247.436035,4140.128418,4101.922852,4167.820313,4155.384766,4131.538574,4157.436035,4617.948730,4459.358887,4407.692383,4541.794922,6329.000000,3.000000,73.000000,,,,0.000000,4.000000,4.000000,4.000000,4.000000,4.000000,4.000000,4.000000,4.000000,4.000000,4.000000,4.000000,4.000000,4.000000,4.000000,100.000000,,,,,,,,,,,,,,,,,28.000000,0.000000,0.692473,0.063416,-0.697327,0.173767,0.978635,-0.174826,0.024417,-11.670760,-42.489838,62.986351
1703163580.353588,1703163580.354519,113.000000,0.000000,4180.512695,4139.487305,4285.641113,4231.282227,4127.692383,4103.333496,4166.153809,4141.538574,4116.922852,4132.436035,4631.922852,4444.871582,4393.846191,4528.461426,6118.000000,3.000000,73.000000,,,,0.000000,4.000000,4.000000,4.000000,4.000000,4.000000,4.000000,4.000000,4.000000,4.000000,4.000000,4.000000,4.000000,4.000000,4.000000,100.000000,,,,,,,,,,,,,,,,,,,,,,,,,,,,
1703163580.361396,1703163580.362227,114.000000,0.000000,4167.563965,4133.589844,4274.615234,4223.333496,4125.897461,4112.820313,4174.743652,4136.538574,4108.333496,4125.512695,4595.769043,4435.512695,4383.846191,4505.000000,5671.000000,3.000000,73.000000,,,,0.000000,4.000000,4.000000,4.000000,4.000000,4.000000,4.000000,4.000000,4.000000,4.000000,4.000000,4.000000,4.000000,4.000000,4.000000,100.000000,,,,,,,,,,,,,,,,,,,,,,,,,,,,
1703163580.369204,1703163580.370035,115.000000,0.000000,4165.897461,4143.461426,4270.256348,4230.384766,4130.641113,4124.615234,4188.205078,4134.230957,4105.000000,4129.615234,4576.794922,4430.512695,4384.102539,4502.307617,6028.000000,3.000000,73.000000,,,,0.000000,4.000000,4.000000,4.000000,4.000000,4.000000,4.000000,4.000000,4.000000,4.000000,4.000000,4.000000,4.000000,4.000000,4.000000,100.000000,,,,,,,,,,,,,,,,,,,,,,,,,,,,
1703163580.377012,1703163580.377743,116.000000,0.000000,4170.897461,4146.282227,4265.256348,4226.410156,4131.666504,4122.948730,4191.666504,4123.974121,4095.256348,4117.436035,4587.051270,4422.436035,4383.717773,4510.384766,6329.000000,3.000000,73.000000,,,,0.000000,4.000000,4.000000,4.000000,4.000000,4.000000,4.000000,4.000000,4.000000,4.000000,4.000000,4.000000,4.000000,4.000000,4.000000,100.000000,,,,,,,,,,,,,,,,,29.000000,0.000000,0.692381,0.063416,-0.697449,0.173645,0.975217,-0.182639,0.015627,-11.737017,-42.490856,62.987717
1703163580.384820,1703163580.385551,117.000000,0.000000,4165.256348,4127.436035,4259.230957,4212.051270,4123.461426,4116.282227,4188.589844,4117.563965,4089.487061,4103.974121,4575.384766,4417.820313,4378.333496,4504.871582,6118.000000,3.000000,73.000000,,,,0.000000,4.000000,4.000000,4.000000,4.000000,4.000000,4.000000,4.000000,4.000000,4.000000,4.000000,4.000000,4.000000,4.000000,4.000000,100.000000,,,,,,,,,,,,,,,,,,,,,,,,,,,,
1703163580.392628,1703163580.393259,118.000000,0.000000,4160.769043,4118.717773,4260.897461,4213.846191,4123.461426,4117.307617,4188.461426,4123.589844,4100.641113,4119.615234,4576.538574,4421.922852,4381.538574,4500.000000,5671.000000,3.000000,73.000000,,,,0.000000,4.000000,4.000000,4.000000,4.000000,4.000000,4.000000,4.000000,4.000000,4.000000,4.000000,4.000000,4.000000,4.000000,4.000000,100.000000,,,,,,,,,,,,,,,,,,,,,,,,,,,,
1703163580.400436,1703163580.401067,119.000000,0.000000,4177.179688,4128.846191,4273.846191,4224.743652,4133.974121,4116.538574,4189.358887,4136.922852,4117.051270,4137.948730,4590.256348,4436.666504,4397.051270,4518.461426,6028.000000,3.000000,73.000000,,,,0.000000,4.000000,4.000000,4.000000,4.000000,4.000000,4.000000,4.000000,4.000000,4.000000,4.000000,4.000000,4.000000,4.000000,4.000000,100.000000,,,,,,,,,,,,,,,,,,,,,,,,,,,,
1703163580.408244,1703163580.408775,120.000000,0.000000,4189.102539,4129.487305,4283.717773,4229.230957,4132.820313,4109.358887,4188.333496,4149.358887,4126.025879,4137.692383,4583.461426,4451.538574,4413.205078,4536.025879,6329.000000,3.000000,73.000000,,,,0.000000,4.000000,4.000000,4.000000,4.000000,4.000000,4.000000,4.000000,4.000000,4.000000,4.000000,4.000000,4.000000,4.000000,4.000000,100.000000,,,,,,,,,,,,,,,,,30.000000,0.000000,0.692298,0.063477,-0.697510,0.173706,0.967892,-0.175314,0.008790,-11.913316,-42.475101,63.022278
1703163580.416052,1703163580.416683,121.000000,0.000000,4183.333496,4130.000000,4282.179688,4230.000000,4127.436035,4104.743652,4184.487305,4148.846191,4128.589844,4145.897461,4597.436035,4449.743652,4412.436035,4528.717773,6118.000000,3.000000,73.000000,,,,0.000000,4.000000,4.000000,4.000000,4.000000,4.000000,4.000000,4.000000,4.000000,4.000000,4.000000,4.000000,4.000000,4.000000,4.000000,100.000000,,,,,,,,,,,,,,,,,,,,,,,,,,,,
1703163580.423860,1703163580.424491,122.000000,0.000000,4184.102539,4145.641113,4282.307617,4233.461426,4125.384766,4100.512695,4177.820313,4144.615234,4124.358887,4157.179688,4623.717773,4443.077148,4401.922852,4525.769043,5671.000000,3.000000,73.000000,,,,0.000000,4.000000,4.000000,4.000000,4.000000,4.000000,4.000000,4.000000,4.000000,4.000000,4.000000,4.000000,4.000000,4.000000,4.000000,100.000000,,,,,,,,,,,,,,,,,,,,,,,,,,,,
1703163580.431668,1703163580.432399,123.000000,0.000000,4194.102539,4153.205078,4288.077148,4237.692383,4124.615234,4095.769287,4176.922852,4149.102539,4123.974121,4155.769043,4618.461426,4447.563965,4407.948730,4536.538574,6028.000000,3.000000,73.000000,,,,0.000000,4.000000,4.000000,4.000000,4.000000,4.000000,4.000000,4.000000,4.000000,4.000000,4.000000,4.000000,4.000000,4.000000,4.000000,100.000000,,,,,,,,,,,,,,,,,,,,,,,,,,,,
1703163580.439477,1703163580.440208,124.000000,0.000000,4192.307617,4143.846191,4285.769043,4238.974121,4125.641113,4097.307617,4182.563965,4148.333496,4129.615234,4149.743652,4603.974121,4448.333496,4421.282227,4533.461426,6329.000000,3.000000,73.000000,,,,0.000000,4.000000,4.000000,4.000000,4.000000,4.000000,4.000000,4.000000,4.000000,4.000000,4.000000,4.000000,4.000000,4.000000,4.000000,100.000000,,,,,,,,,,,,,,,,,31.000000,0.000000,0.692145,0.063477,-0.697632,0.173828,0.974240,-0.175803,0.007813,-11.738650,-42.560925,63.020050
1703163580.447285,1703163580.448115,125.000000,0.000000,4177.307617,4129.230957,4276.153809,4231.410156,4125.769043,4098.333496,4185.512695,4138.974121,4125.384766,4138.205078,4597.692383,4434.871582,4407.948730,4515.256348,6118.000000,3.000000,73.000000,,,,0.000000,4.000000,4.000000,4.000000,4.000000,4.000000,4.000000,4.000000,4.000000,4.000000,4.000000,4.000000,4.000000,4.000000,4.000000,100.000000,,,,,,,,,,,,,,,,,,,,,,,,,,,,
1703163580.455093,1703163580.455923,126.000000,0.000000,4166.025879,4118.974121,4268.333496,4220.128418,4122.179688,4100.897461,4183.846191,4136.410156,4116.410156,4120.512695,4588.461426,4426.282227,4389.230957,4506.538574,5671.000000,3.000000,73.000000,,,,0.000000,4.000000,4.000000,4.000000,4.000000,4.000000,4.000000,4.000000,4.000000,4.000000,4.000000,4.000000,4.000000,4.000000,4.000000,100.000000,,,,,,,,,,,,,,,,,,,,,,,,,,,,
1703163580.462901,1703163580.463831,127.000000,0.000000,4167.051270,4119.358887,4265.641113,4222.948730,4116.410156,4108.461426,4184.871582,4140.641113,4119.102539,4115.512695,4586.025879,4427.051270,4394.358887,4508.717773,73.000000,3.000000,73.000000,,,,0.000000,4.000000,4.000000,4.000000,4.000000,4.000000,4.000000,4.000000,4.000000,4.000000,4.000000,4.000000,4.000000,4.000000,4.000000,100.000000,,,,,,,,,,,,,,,,,,,,,,,,,,,,
1703163580.470709,1703163580.471639,0.000000,0.000000,4167.820313,4123.461426,4264.743652,4231.282227,4120.384766,4112.436035,4186.794922,4141.666504,4123.717773,4122.307617,4584.358887,4424.615234,4399.487305,4508.974121,5447.000000,3.000000,73.000000,,,,0.000000,4.000000,4.000000,4.000000,4.000000,4.000000,4.000000,4.000000,4.000000,4.000000,4.000000,4.000000,4.000000,4.000000,4.000000,100.000000,,,,,,,,,,,,,,,,,0.000000,0.000000,0.692180,0.062927,-0.697571,0.174133,0.981077,-0.174826,0.007813,-11.664785,-42.471500,63.151379
1703163580.478517,1703163580.479347,1.000000,0.000000,4162.563965,4114.487305,4262.563965,4223.717773,4123.333496,4109.743652,4186.538574,4140.128418,4119.487305,4124.102539,4579.743652,4423.205078,4397.692383,4507.948730,5387.000000,3.000000,73.000000,,,,0.000000,4.000000,4.000000,4.000000,4.000000,4.000000,4.000000,4.000000,4.000000,4.000000,4.000000,4.000000,4.000000,4.000000,4.000000,100.000000,,,,,,,,,,,,,,,,,,,,,,,,,,,,
1703163580.486325,1703163580.487155,2.000000,0.000000,4161.282227,4099.487305,4265.897461,4215.769043,4122.820313,4108.974121,4185.769043,4139.743652,4119.230957,4128.077148,4593.461426,4431.794922,4399.487305,4505.384766,5295.000000,3.000000,73.000000,,,,0.000000,4.000000,4.000000,4.000000,4.000000,4.000000,4.000000,4.000000,4.000000,4.000000,4.000000,4.000000,4.000000,4.000000,4.000000,100.000000,,,,,,,,,,,,,,,,,,,,,,,,,,,,
1703163580.494133,1703163580.494863,3.000000,0.000000,4167.436035,4106.922852,4276.794922,4225.897461,4128.717773,4111.153809,4184.615234,4139.102539,4120.256348,4134.871582,4584.871582,4444.487305,4397.692383,4506.922852,5240.000000,3.000000,73.000000,,,,0.000000,4.000000,4.000000,4.000000,4.000000,4.000000,4.000000,4.000000,4.000000,4.000000,4.000000,4.000000,4.000000,4.000000,4.000000,100.000000,,,,,,,,,,,,,,,,,,,,,,,,,,,,
1703163580.501941,1703163580.502671,4.000000,0.000000,4170.384766,4128.205078,4280.897461,4237.051270,4128.846191,4106.282227,4183.461426,4137.179688,4108.717773,4125.897461,4565.769043,4444.358887,4397.948730,4514.743652,4953.000000,3.000000,73.000000,,,,0.000000,4.000000,4.000000,4.000000,4.000000,4.000000,4.000000,4.000000,4.000000,4.000000,4.000000,4.000000,4.000000,4.000000,4.000000,100.000000,,,,,,,,,,,,,,,,,1.000000,0.000000,0.692213,0.062561,-0.697571,0.174133,0.974728,-0.181663,0.012209,-11.698307,-42.557682,63.019573
1703163580.509749,1703163580.510379,5.000000,0.000000,4168.974121,4127.436035,4277.179688,4229.102539,4122.948730,4101.666504,4184.102539,4145.256348,4102.692383,4115.512695,4596.538574,4438.717773,4414.871582,4521.666504,5021.000000,3.000000,73.000000,,,,0.000000,4.000000,4.000000,4.000000,4.000000,4.000000,4.000000,4.000000,4.000000,4.000000,4.000000,4.000000,4.000000,4.000000,4.000000,100.000000,,,,,,,,,,,,,,,,,,,,,,,,,,,,
1703163580.517557,1703163580.518187,6.000000,0.000000,4169.487305,4113.846191,4278.205078,4219.487305,4121.538574,4109.230957,4186.025879,4154.743652,4110.256348,4130.384766,4624.871582,4440.641113,4421.025879,4520.512695,2176.000000,3.000000,73.000000,,,,0.000000,4.000000,4.000000,4.000000,4.000000,4.000000,4.000000,4.000000,4.000000,4.000000,4.000000,4.000000,4.000000,4.000000,4.000000,100.000000,,,,,,,,,,,,,,,,,,,,,,,,,,,,
1703163580.525365,1703163580.525895,7.000000,0.000000,4172.948730,4120.256348,4282.436035,4223.717773,4123.461426,4120.000000,4187.179688,4148.077148,4110.897461,4141.794922,4604.871582,4442.820313,4405.128418,4519.358887,4542.000000,3.000000,73.000000,,,,0.000000,4.000000,4.000000,4.000000,4.000000,4.000000,4.000000,4.000000,4.000000,4.000000,4.000000,4.000000,4.000000,4.000000,4.000000,100.000000,,,,,,,,,,,,,,,,,,,,,,,,,,,,
1703163580.533173,1703163580.533703,8.000000,0.000000,4172.563965,4125.641113,4282.692383,4228.461426,4123.717773,4118.974121,4187.436035,4143.589844,4109.230957,4137.307617,4593.333496,4440.256348,4403.717773,4523.077148,5177.000000,3.000000,73.000000,,,,0.000000,4.000000,4.000000,4.000000,4.000000,4.000000,4.000000,4.000000,4.000000,4.000000,4.000000,4.000000,4.000000,4.000000,4.000000,100.000000,,,,,,,,,,,,,,,,,2.000000,0.000000,0.692105,0.062561,-0.697693,0.174072,0.979123,-0.169943,0.013185,-11.861810,-42.551914,62.934284
1703163580.540981,1703163580.541411,9.000000,0.000000,4173.205078,4117.692383,4282.179688,4227.692383,4128.589844,4118.974121,4188.205078,4153.846191,4123.589844,4140.897461,4610.128418,4444.230957,4422.051270,4524.102539,5357.000000,3.000000,73.000000,,,,0.000000,4.000000,4.000000,4.000000,4.000000,4.000000,4.000000,4.000000,4.000000,4.000000,4.000000,4.000000,4.000000,4.000000,4.000000,100.000000,,,,,,,,,,,,,,,,,,,,,,,,,,,,
1703163580.548789,1703163580.549320,10.000000,0.000000,4178.974121,4123.846191,4282.948730,4231.794922,4131.666504,4122.692383,4188.333496,4155.769043,4132.692383,4138.205078,4610.128418,4448.974121,4431.025879,4523.846191,5691.000000,3.000000,73.000000,,,,0.000000,4.000000,4.000000,4.000000,4.000000,4.000000,4.000000,4.000000,4.000000,4.000000,4.000000,4.000000,4.000000,4.000000,4.000000,100.000000,,,,,,,,,,,,,,,,,,,,,,,,,,,,
1703163580.556597,1703163580.557128,11.000000,0.000000,4179.743652,4125.641113,4281.922852,4233.461426,4126.153809,4118.461426,4186.666504,4149.615234,4126.025879,4130.641113,4612.820313,4442.692383,4425.128418,4524.358887,6043.000000,3.000000,73.000000,,,,0.000000,4.000000,4.000000,4.000000,4.000000,4.000000,4.000000,4.000000,4.000000,4.000000,4.000000,4.000000,4.000000,4.000000,4.000000,100.000000,,,,,,,,,,,,,,,,,,,,,,,,,,,,
1703163580.564405,1703163580.564936,12.000000,0.000000,4172.051270,4104.615234,4279.102539,4224.615234,4122.179688,4115.769043,4186.666504,4155.641113,4130.641113,4139.102539,4619.871582,4439.230957,4426.025879,4523.717773,6342.000000,3.000000,73.000000,,,,0.000000,4.000000,4.000000,4.000000,4.000000,4.000000,4.000000,4.000000,4.000000,4.000000,4.000000,4.000000,4.000000,4.000000,4.000000,100.000000,,,,,,,,,,,,,,,,,3.000000,0.000000,0.691991,0.062805,-0.697815,0.173950,0.987425,-0.170431,0.003418,-11.842296,-42.646725,63.090855
1703163580.572213,1703163580.572644,13.000000,0.000000,4163.077148,4089.358887,4276.794922,4216.666504,4124.743652,4116.922852,4187.692383,4161.538574,4137.948730,4143.846191,4592.692383,4445.897461,4423.589844,4518.589844,6117.000000,3.000000,73.000000,,,,0.000000,4.000000,4.000000,4.000000,4.000000,4.000000,4.000000,4.000000,4.000000,4.000000,4.000000,4.000000,4.000000,4.000000,4.000000,100.000000,,,,,,,,,,,,,,,,,,,,,,,,,,,,
1703163580.580021,1703163580.580552,14.000000,0.000000,4161.666504,4093.461426,4275.000000,4217.179688,4131.538574,4113.589844,4186.922852,4157.948730,4135.000000,4144.358887,4585.128418,4447.307617,4412.820313,4510.256348,5691.000000,3.000000,73.000000,,,,0.000000,4.000000,4.000000,4.000000,4.000000,4.000000,4.000000,4.000000,4.000000,4.000000,4.000000,4.000000,4.000000,4.000000,4.000000,100.000000,,,,,,,,,,,,,,,,,,,,,,,,,,,,
1703163580.587829,1703163580.588360,15.000000,0.000000,4171.153809,4105.384766,4275.641113,4223.717773,4127.820313,4107.051270,4183.461426,4153.974121,4134.743652,4161.922852,4617.436035,4441.410156,4417.820313,4511.794922,6043.000000,3.000000,73.000000,,,,0.000000,4.000000,4.000000,4.000000,4.000000,4.000000,4.000000,4.000000,4.000000,4.000000,4.000000,4.000000,4.000000,4.000000,4.000000,100.000000,,,,,,,,,,,,,,,,,,,,,,,,,,,,
1703163580.595637,1703163580.596268,16.000000,0.000000,4178.333496,4115.897461,4278.846191,4232.563965,4121.794922,4106.538574,4181.025879,4148.589844,4128.974121,4165.769043,4632.563965,4439.102539,4429.615234,4524.358887,0.000000,3.000000,73.000000,,,,0.000000,4.000000,4.000000,4.000000,4.000000,4.000000,4.000000,4.000000,4.000000,4.000000,4.000000,4.000000,4.000000,4.000000,4.000000,100.000000,,,,,,,,,,,,,,,,,4.000000,0.000000,0.691953,0.063049,-0.697815,0.174011,0.983030,-0.171408,0.008790,-11.741399,-42.615383,63.065102
1703163580.603445,1703163580.604077,17.000000,0.000000,4173.205078,4111.410156,4279.871582,4232.948730,4131.538574,4115.769043,4183.846191,4139.743652,4111.922852,4142.051270,4615.769043,4440.769043,4425.897461,4525.769043,0.000000,3.000000,73.000000,,,,0.000000,4.000000,4.000000,4.000000,4.000000,4.000000,4.000000,4.000000,4.000000,4.000000,4.000000,4.000000,4.000000,4.000000,4.000000,100.000000,,,,,,,,,,,,,,,,,,,,,,,,,,,,
1703163580.611253,1703163580.611985,18.000000,0.000000,4169.358887,4100.384766,4277.692383,4231.794922,4135.769043,4120.769043,4186.410156,4135.512695,4099.102539,4119.487305,4600.897461,4440.897461,4417.179688,4514.487305,0.000000,3.000000,73.000000,,,,0.000000,4.000000,4.000000,4.000000,4.000000,4.000000,4.000000,4.000000,4.000000,4.000000,4.000000,4.000000,4.000000,4.000000,4.000000,100.000000,,,,,,,,,,,,,,,,,,,,,,,,,,,,
1703163580.619062,1703163580.619793,19.000000,0.000000,4173.589844,4102.948730,4279.615234,4235.256348,4124.230957,4112.563965,4186.538574,4135.128418,4094.615479,4119.743652,4607.307617,4440.769043,4422.563965,4514.871582,0.000000,3.000000,73.000000,,,,0.000000,4.000000,4.000000,4.000000,4.000000,4.000000,4.000000,4.000000,4.000000,4.000000,4.000000,4.000000,4.000000,4.000000,4.000000,100.000000,,,,,,,,,,,,,,,,,,,,,,,,,,,,
1703163580.626870,1703163580.627701,20.000000,0.000000,4176.922852,4107.307617,4283.846191,4234.615234,4127.948730,4110.512695,4185.256348,4128.205078,4087.307617,4135.384766,4608.974121,4439.871582,4425.256348,4520.512695,0.000000,3.000000,73.000000,,,,0.000000,4.000000,4.000000,4.000000,4.000000,4.000000,4.000000,4.000000,4.000000,4.000000,4.000000,4.000000,4.000000,4.000000,4.000000,100.000000,,,,,,,,,,,,,,,,,5.000000,0.000000,0.691990,0.062988,-0.697754,0.174133,0.986449,-0.180686,0.011720,-11.717259,-42.637180,62.975258
1703163580.634678,1703163580.635509,21.000000,0.000000,4181.794922,4106.025879,4284.615234,4233.589844,4145.384766,4125.384766,4185.384766,4118.461426,4081.025635,4134.487305,4586.794922,4439.615234,4420.128418,4518.461426,0.000000,3.000000,73.000000,,,,0.000000,4.000000,4.000000,4.000000,4.000000,4.000000,4.000000,4.000000,4.000000,4.000000,4.000000,4.000000,4.000000,4.000000,4.000000,100.000000,,,,,,,,,,,,,,,,,,,,,,,,,,,,
1703163580.642486,1703163580.643417,22.000000,0.000000,4185.641113,4107.436035,4283.205078,4235.256348,4142.692383,4130.512695,4187.179688,4122.179688,4087.435791,4124.871582,4585.641113,4441.666504,4423.589844,4521.153809,0.000000,3.000000,73.000000,,,,0.000000,4.000000,4.000000,4.000000,4.000000,4.000000,4.000000,4.000000,4.000000,4.000000,4.000000,4.000000,4.000000,4.000000,4.000000,100.000000,,,,,,,,,,,,,,,,,,,,,,,,,,,,
1703163580.650294,1703163580.651225,23.000000,0.000000,4179.487305,4098.974121,4281.922852,4231.794922,4127.948730,4122.563965,4188.333496,4141.153809,4108.717773,4137.179688,4626.153809,4444.487305,4428.205078,4523.333496,0.000000,3.000000,73.000000,,,,0.000000,4.000000,4.000000,4.000000,4.000000,4.000000,4.000000,4.000000,4.000000,4.000000,4.000000,4.000000,4.000000,4.000000,4.000000,100.000000,,,,,,,,,,,,,,,,,,,,,,,,,,,,
1703163580.658102,1703163580.659133,24.000000,0.000000,4169.743652,4087.435791,4280.256348,4228.589844,4128.205078,4123.205078,4187.820313,4155.512695,4124.615234,4147.436035,4636.025879,4446.538574,4419.743652,4511.922852,0.000000,3.000000,73.000000,,,,0.000000,4.000000,4.000000,4.000000,4.000000,4.000000,4.000000,4.000000,4.000000,4.000000,4.000000,4.000000,4.000000,4.000000,4.000000,100.000000,,,,,,,,,,,,,,,,,6.000000,0.000000,0.692149,0.062927,-0.697632,0.174011,0.989867,-0.161641,0.017580,-11.562200,-42.540127,62.894402
1703163580.665910,1703163580.666941,25.000000,0.000000,4172.051270,4107.179688,4279.102539,4236.153809,4138.974121,4124.487305,4186.282227,4153.333496,4127.820313,4136.410156,4612.563965,4443.333496,4414.615234,4509.871582,0.000000,3.000000,73.000000,,,,0.000000,4.000000,4.000000,4.000000,4.000000,4.000000,4.000000,4.000000,4.000000,4.000000,4.000000,4.000000,4.000000,4.000000,4.000000,100.000000,1.000000,58.333332,4.000000,4.000000,4.000000,4.000000,4.000000,4.000000,3.000000,4.000000,4.000000,3.000000,1.000000,4.000000,4.000000,4.000000,,,,,,,,,,,,
1703163580.673718,1703163580.674649,26.000000,0.000000,4184.230957,4126.922852,4277.436035,4241.410156,4143.333496,4116.538574,4183.077148,4149.743652,4133.846191,4137.563965,4614.230957,4437.820313,4429.487305,4523.077148,0.000000,3.000000,73.000000,,,,0.000000,4.000000,4.000000,4.000000,4.000000,4.000000,4.000000,4.000000,4.000000,4.000000,4.000000,4.000000,4.000000,4.000000,4.000000,100.000000,,,,,,,,,,,,,,,,,,,,,,,,,,,,
1703163580.681526,1703163580.682457,27.000000,0.000000,4186.282227,4114.230957,4275.128418,4236.794922,4133.717773,4115.769043,4177.563965,4155.641113,4142.179688,4144.102539,4632.563965,4438.846191,4433.974121,4523.717773,0.000000,3.000000,73.000000,,,,0.000000,4.000000,4.000000,4.000000,4.000000,4.000000,4.000000,4.000000,4.000000,4.000000,4.000000,4.000000,4.000000,4.000000,4.000000,100.000000,,,,,,,,,,,,,,,,,,,,,,,,,,,,
1703163580.689334,1703163580.690165,28.000000,0.000000,4176.153809,4103.461426,4276.410156,4229.871582,4123.717773,4118.589844,4179.230957,4161.282227,4140.769043,4136.282227,4627.307617,4445.384766,4418.333496,4517.820313,0.000000,3.000000,73.000000,,,,0.000000,4.000000,4.000000,4.000000,4.000000,4.000000,4.000000,4.000000,4.000000,4.000000,4.000000,4.000000,4.000000,4.000000,4.000000,100.000000,,,,,,,,,,,,,,,,,7.000000,0.000000,0.692045,0.063049,-0.697754,0.173889,0.973263,-0.177756,0.021487,-11.572646,-42.552780,62.888294
1703163580.697142,1703163580.697973,29.000000,0.000000,4173.717773,4108.846191,4278.205078,4225.512695,4126.410156,4111.410156,4178.974121,4157.179688,4130.512695,4137.820313,4601.153809,4445.384766,4414.871582,4519.871582,0.000000,3.000000,73.000000,,,,0.000000,4.000000,4.000000,4.000000,4.000000,4.000000,4.000000,4.000000,4.000000,4.000000,4.000000,4.000000,4.000000,4.000000,4.000000,100.000000,,,,,,,,,,,,,,,,,,,,,,,,,,,,
1703163580.704950,1703163580.705681,30.000000,0.000000,4185.256348,4113.589844,4280.128418,4228.205078,4134.871582,4108.974121,4172.820313,4151.538574,4122.820313,4147.563965,4607.948730,4439.487305,4428.589844,4525.512695,0.000000,3.000000,73.000000,,,,0.000000,4.000000,4.000000,4.000000,4.000000,4.000000,4.000000,4.000000,4.000000,4.000000,4.000000,4.000000,4.000000,4.000000,4.000000,100.000000,,,,,,,,,,,,,,,,,,,,,,,,,,,,
1703163580.712758,1703163580.713489,31.000000,0.000000,4190.641113,4107.436035,4284.102539,4231.794922,4141.025879,4116.922852,4173.974121,4150.256348,4119.358887,4146.410156,4641.666504,4440.000000,4433.846191,4524.487305,0.000000,3.000000,73.000000,,,,0.000000,4.000000,4.000000,4.000000,4.000000,4.000000,4.000000,4.000000,4.000000,4.000000,4.000000,4.000000,4.000000,4.000000,4.000000,100.000000,,,,,,,,,,,,,,,,,,,,,,,,,,,,
1703163580.720566,1703163580.721197,32.000000,0.000000,4182.436035,4100.641113,4283.205078,4230.256348,4139.615234,4117.307617,4175.512695,4141.153809,4109.615234,4138.717773,4639.102539,4435.769043,4421.410156,4512.820313,0.000000,3.000000,73.000000,,,,0.000000,4.000000,4.000000,4.000000,4.000000,4.000000,4.000000,4.000000,4.000000,4.000000,4.000000,4.000000,4.000000,4.000000,4.000000,100.000000,,,,,,,,,,,,,,,,,8.000000,0.000000,0.692030,0.063049,-0.697754,0.173950,0.971310,-0.170919,0.014162,-11.432049,-42.580837,62.899464
1703163580.728374,1703163580.729005,33.000000,0.000000,4177.563965,4109.871582,4277.179688,4231.538574,4136.153809,4115.256348,4173.205078,4124.487305,4099.487305,4137.948730,4612.051270,4423.077148,4414.102539,4505.000000,0.000000,3.000000,73.000000,,,,0.000000,4.000000,4.000000,4.000000,4.000000,4.000000,4.000000,4.000000,4.000000,4.000000,4.000000,4.000000,4.000000,4.000000,4.000000,100.000000,,,,,,,,,,,,,,,,,,,,,,,,,,,,
1703163580.736182,1703163580.736713,34.000000,0.000000,4178.589844,4119.358887,4271.410156,4231.025879,4138.589844,4125.512695,4178.461426,4121.922852,4105.384766,4139.230957,4598.461426,4426.153809,4415.128418,4506.794922,0.000000,3.000000,73.000000,,,,0.000000,4.000000,4.000000,4.000000,4.000000,4.000000,4.000000,4.000000,4.000000,4.000000,4.000000,4.000000,4.000000,4.000000,4.000000,100.000000,,,,,,,,,,,,,,,,,,,,,,,,,,,,
1703163580.743990,1703163580.744621,35.000000,0.000000,4172.179688,4110.512695,4264.871582,4218.333496,4139.871582,4132.692383,4186.538574,4131.538574,4114.615234,4137.948730,4601.538574,4431.922852,4413.205078,4500.256348,0.000000,3.000000,73.000000,,,,0.000000,4.000000,4.000000,4.000000,4.000000,4.000000,4.000000,4.000000,4.000000,4.000000,4.000000,4.000000,4.000000,4.000000,4.000000,100.000000,,,,,,,,,,,,,,,,,,,,,,,,,,,,
1703163580.751798,1703163580.752430,36.000000,0.000000,4168.333496,4105.384766,4262.051270,4213.846191,4136.922852,4132.948730,4186.538574,4138.846191,4116.666504,4129.871582,4624.487305,4424.487305,4413.205078,4491.153809,0.000000,3.000000,73.000000,,,,0.000000,4.000000,4.000000,4.000000,4.000000,4.000000,4.000000,4.000000,4.000000,4.000000,4.000000,4.000000,4.000000,4.000000,4.000000,100.000000,,,,,,,,,,,,,,,,,9.000000,0.000000,0.692076,0.063049,-0.697693,0.174011,0.980100,-0.174338,0.025394,-11.438844,-42.656086,62.876183
1703163580.759606,1703163580.760338,37.000000,0.000000,4171.922852,4106.153809,4264.743652,4220.000000,4136.410156,4133.077148,4183.205078,4143.589844,4129.230957,4128.077148,4632.820313,4427.692383,4417.563965,4494.487305,0.000000,3.000000,73.000000,,,,0.000000,4.000000,4.000000,4.000000,4.000000,4.000000,4.000000,4.000000,4.000000,4.000000,4.000000,4.000000,4.000000,4.000000,4.000000,100.000000,,,,,,,,,,,,,,,,,,,,,,,,,,,,
1703163580.767414,1703163580.768146,38.000000,0.000000,4162.436035,4090.256348,4260.897461,4208.205078,4131.282227,4123.717773,4179.871582,4143.717773,4136.922852,4141.410156,4609.358887,4430.512695,4413.461426,4490.641113,0.000000,3.000000,73.000000,,,,0.000000,4.000000,4.000000,4.000000,4.000000,4.000000,4.000000,4.000000,4.000000,4.000000,4.000000,4.000000,4.000000,4.000000,4.000000,100.000000,,,,,,,,,,,,,,,,,,,,,,,,,,,,
1703163580.775222,1703163580.775954,39.000000,0.000000,4153.461426,4094.230713,4257.179688,4201.538574,4124.358887,4116.922852,4174.743652,4143.589844,4130.000000,4142.436035,4608.717773,4422.179688,4399.487305,4482.820313,0.000000,3.000000,73.000000,,,,0.000000,4.000000,4.000000,4.000000,4.000000,4.000000,4.000000,4.000000,4.000000,4.000000,4.000000,4.000000,4.000000,4.000000,4.000000,100.000000,,,,,,,,,,,,,,,,,,,,,,,,,,,,
1703163580.783030,1703163580.783662,40.000000,0.000000,4172.820313,4127.692383,4270.128418,4224.871582,4132.051270,4121.410156,4172.307617,4150.128418,4130.128418,4130.897461,4608.461426,4432.179688,4408.205078,4496.922852,0.000000,3.000000,73.000000,,,,0.000000,4.000000,4.000000,4.000000,4.000000,4.000000,4.000000,4.000000,4.000000,4.000000,4.000000,4.000000,4.000000,4.000000,4.000000,100.000000,,,,,,,,,,,,,,,,,10.000000,0.000000,0.691970,0.062866,-0.697754,0.174255,0.971798,-0.188500,0.026859,-11.428292,-42.490479,63.005234
1703163580.790838,1703163580.791570,41.000000,0.000000,4199.230957,4140.000000,4291.410156,4241.153809,4145.897461,4125.512695,4170.641113,4155.897461,4135.512695,4137.307617,4610.128418,4455.256348,4434.615234,4521.666504,0.000000,3.000000,73.000000,,,,0.000000,4.000000,4.000000,4.000000,4.000000,4.000000,4.000000,4.000000,4.000000,4.000000,4.000000,4.000000,4.000000,4.000000,4.000000,100.000000,,,,,,,,,,,,,,,,,,,,,,,,,,,,
1703163580.798647,1703163580.799378,42.000000,0.000000,4201.410156,4124.871582,4300.897461,4234.102539,4146.025879,4122.692383,4169.743652,4151.410156,4123.205078,4146.922852,4650.641113,4460.384766,4432.820313,4527.692383,0.000000,3.000000,73.000000,,,,0.000000,4.000000,4.000000,4.000000,4.000000,4.000000,4.000000,4.000000,4.000000,4.000000,4.000000,4.000000,4.000000,4.000000,4.000000,100.000000,,,,,,,,,,,,,,,,,,,,,,,,,,,,
1703163580.806455,1703163580.807287,43.000000,0.000000,4194.487305,4119.102539,4297.179688,4238.461426,4134.358887,4115.384766,4168.717773,4140.641113,4102.692383,4137.436035,4661.666504,4455.256348,4416.282227,4519.358887,0.000000,3.000000,73.000000,,,,0.000000,4.000000,4.000000,4.000000,4.000000,4.000000,4.000000,4.000000,4.000000,4.000000,4.000000,4.000000,4.000000,4.000000,4.000000,100.000000,,,,,,,,,,,,,,,,,,,,,,,,,,,,
1703163580.814263,1703163580.815095,44.000000,0.000000,4200.256348,4132.179688,4293.974121,4249.358887,4133.205078,4109.487305,4167.692383,4135.897461,4101.025879,4133.589844,4639.615234,4453.846191,4425.256348,4521.410156,0.000000,3.000000,73.000000,,,,0.000000,4.000000,4.000000,4.000000,4.000000,4.000000,4.000000,4.000000,4.000000,4.000000,4.000000,4.000000,4.000000,4.000000,4.000000,100.000000,,,,,,,,,,,,,,,,,11.000000,0.000000,0.691848,0.062683,-0.697876,0.174316,0.972287,-0.165548,0.016115,-11.418797,-42.558098,62.871376
1703163580.822071,1703163580.823003,45.000000,0.000000,4203.205078,4136.410156,4294.487305,4242.692383,4145.384766,4111.410156,4168.974121,4140.256348,4107.563965,4140.384766,4636.282227,4451.794922,4433.974121,4527.820313,0.000000,3.000000,73.000000,,,,0.000000,4.000000,4.000000,4.000000,4.000000,4.000000,4.000000,4.000000,4.000000,4.000000,4.000000,4.000000,4.000000,4.000000,4.000000,100.000000,,,,,,,,,,,,,,,,,,,,,,,,,,,,
1703163580.829879,1703163580.830811,46.000000,0.000000,4191.666504,4117.948730,4292.820313,4229.871582,4147.563965,4120.384766,4175.897461,4141.153809,4108.717773,4139.743652,4621.153809,4451.410156,4420.512695,4520.512695,0.000000,3.000000,73.000000,,,,0.000000,4.000000,4.000000,4.000000,4.000000,4.000000,4.000000,4.000000,4.000000,4.000000,4.000000,4.000000,4.000000,4.000000,4.000000,100.000000,,,,,,,,,,,,,,,,,,,,,,,,,,,,
1703163580.837687,1703163580.838719,47.000000,0.000000,4175.000000,4094.102539,4282.436035,4220.384766,4137.051270,4124.743652,4181.794922,4132.051270,4109.743652,4138.461426,4611.410156,4440.128418,4415.128418,4506.153809,0.000000,3.000000,73.000000,,,,0.000000,4.000000,4.000000,4.000000,4.000000,4.000000,4.000000,4.000000,4.000000,4.000000,4.000000,4.000000,4.000000,4.000000,4.000000,100.000000,,,,,,,,,,,,,,,,,,,,,,,,,,,,
1703163580.845495,1703163580.846527,48.000000,0.000000,4164.358887,4089.358887,4264.230957,4212.820313,4126.025879,4125.000000,4180.769043,4127.179688,4113.077148,4137.563965,4633.589844,4420.897461,4410.256348,4494.871582,0.000000,3.000000,73.000000,,,,0.000000,4.000000,4.000000,4.000000,4.000000,4.000000,4.000000,4.000000,4.000000,4.000000,4.000000,4.000000,4.000000,4.000000,4.000000,100.000000,,,,,,,,,,,,,,,,,12.000000,0.000000,0.691868,0.062805,-0.697876,0.174194,0.973263,-0.159199,0.009278,-11.493584,-42.318954,62.867573
1703163580.853303,1703163580.854235,49.000000,0.000000,4168.333496,4104.871582,4260.769043,4216.282227,4125.769043,4128.846191,4180.769043,4139.230957,4123.717773,4138.974121,4637.692383,4423.974121,4410.641113,4496.794922,0.000000,3.000000,73.000000,,,,0.000000,4.000000,4.000000,4.000000,4.000000,4.000000,4.000000,4.000000,4.000000,4.000000,4.000000,4.000000,4.000000,4.000000,4.000000,100.000000,,,,,,,,,,,,,,,,,,,,,,,,,,,,
1703163580.861111,1703163580.862043,50.000000,0.000000,4173.717773,4101.922852,4274.871582,4219.615234,4136.282227,4136.666504,4185.769043,4158.077148,4142.563965,4152.179688,4636.538574,4441.794922,4431.282227,4507.051270,0.000000,3.000000,73.000000,,,,0.000000,4.000000,4.000000,4.000000,4.000000,4.000000,4.000000,4.000000,4.000000,4.000000,4.000000,4.000000,4.000000,4.000000,4.000000,100.000000,,,,,,,,,,,,,,,,,,,,,,,,,,,,
1703163580.868919,1703163580.869751,51.000000,0.000000,4166.282227,4085.000000,4278.461426,4213.333496,4144.871582,4135.512695,4186.538574,4163.333496,4152.307617,4152.179688,4642.820313,4445.897461,4421.666504,4503.974121,0.000000,3.000000,73.000000,,,,0.000000,4.000000,4.000000,4.000000,4.000000,4.000000,4.000000,4.000000,4.000000,4.000000,4.000000,4.000000,4.000000,4.000000,4.000000,100.000000,,,,,,,,,,,,,,,,,,,,,,,,,,,,
1703163580.876727,1703163580.877659,52.000000,0.000000,4172.051270,4102.051270,4276.794922,4219.615234,4138.077148,4119.615234,4180.512695,4156.153809,4142.692383,4132.820313,4620.000000,4441.282227,4400.641113,4501.025879,0.000000,3.000000,73.000000,,,,0.000000,4.000000,4.000000,4.000000,4.000000,4.000000,4.000000,4.000000,4.000000,4.000000,4.000000,4.000000,4.000000,4.000000,4.000000,100.000000,,,,,,,,,,,,,,,,,13.000000,0.000000,0.691934,0.062927,-0.697815,0.174133,0.975705,-0.175314,0.021975,-11.627559,-42.370392,63.014149
1703163580.884535,1703163580.885467,53.000000,0.000000,4198.205078,4131.282227,4290.256348,4236.538574,4134.487305,4114.358887,4173.205078,4153.974121,4137.948730,4146.025879,4627.307617,4447.051270,4428.846191,4519.871582,0.000000,3.000000,73.000000,,,,0.000000,4.000000,4.000000,4.000000,4.000000,4.000000,4.000000,4.000000,4.000000,4.000000,4.000000,4.000000,4.000000,4.000000,4.000000,100.000000,,,,,,,,,,,,,,,,,,,,,,,,,,,,
1703163580.892343,1703163580.893276,54.000000,0.000000,4197.563965,4124.743652,4300.384766,4236.666504,4142.563965,4120.769043,4169.102539,4150.512695,4136.282227,4171.922852,4670.128418,4451.410156,4448.461426,4525.769043,0.000000,3.000000,73.000000,,,,0.000000,4.000000,4.000000,4.000000,4.000000,4.000000,4.000000,4.000000,4.000000,4.000000,4.000000,4.000000,4.000000,4.000000,4.000000,100.000000,,,,,,,,,,,,,,,,,,,,,,,,,,,,
1703163580.900151,1703163580.900984,55.000000,0.000000,4182.820313,4118.333496,4295.641113,4233.461426,4138.461426,4110.256348,4168.717773,4140.256348,4120.641113,4154.615234,4655.897461,4447.307617,4421.794922,4510.512695,0.000000,3.000000,73.000000,,,,0.000000,4.000000,4.000000,4.000000,4.000000,4.000000,4.000000,4.000000,4.000000,4.000000,4.000000,4.000000,4.000000,4.000000,4.000000,100.000000,,,,,,,,,,,,,,,,,,,,,,,,,,,,
1703163580.907959,1703163580.908792,56.000000,0.000000,4195.256348,4138.717773,4295.128418,4243.333496,4138.846191,4102.692383,4169.487305,4134.102539,4107.051270,4138.077148,4634.487305,4445.000000,4415.384766,4515.384766,0.000000,3.000000,73.000000,,,,0.000000,4.000000,4.000000,4.000000,4.000000,4.000000,4.000000,4.000000,4.000000,4.000000,4.000000,4.000000,4.000000,4.000000,4.000000,100.000000,,,,,,,,,,,,,,,,,14.000000,0.000000,0.691924,0.062866,-0.697815,0.174194,0.981565,-0.170431,0.019045,-11.698136,-42.333351,62.979401
1703163580.915767,1703163580.916500,57.000000,0.000000,4205.897461,4143.717773,4295.000000,4245.512695,4152.051270,4117.948730,4168.205078,4127.179688,4106.922852,4157.179688,4654.487305,4442.307617,4433.846191,4526.666504,0.000000,3.000000,73.000000,,,,0.000000,4.000000,4.000000,4.000000,4.000000,4.000000,4.000000,4.000000,4.000000,4.000000,4.000000,4.000000,4.000000,4.000000,4.000000,100.000000,,,,,,,,,,,,,,,,,,,,,,,,,,,,
1703163580.923575,1703163580.924308,58.000000,0.000000,4188.205078,4123.974121,4285.769043,4229.230957,4147.948730,4124.487305,4167.692383,4118.205078,4110.128418,4151.922852,4634.743652,4436.025879,4430.769043,4518.077148,0.000000,3.000000,73.000000,,,,0.000000,4.000000,4.000000,4.000000,4.000000,4.000000,4.000000,4.000000,4.000000,4.000000,4.000000,4.000000,4.000000,4.000000,4.000000,100.000000,,,,,,,,,,,,,,,,,,,,,,,,,,,,
1703163580.931383,1703163580.932016,59.000000,0.000000,4171.282227,4103.205078,4274.615234,4212.948730,4130.512695,4120.641113,4175.641113,4127.820313,4122.692383,4130.769043,4607.563965,4430.769043,4413.717773,4501.794922,0.000000,3.000000,73.000000,,,,0.000000,4.000000,4.000000,4.000000,4.000000,4.000000,4.000000,4.000000,4.000000,4.000000,4.000000,4.000000,4.000000,4.000000,4.000000,100.000000,,,,,,,,,,,,,,,,,,,,,,,,,,,,
1703163580.939191,1703163580.939824,60.000000,0.000000,4164.615234,4095.641113,4265.769043,4208.717773,4127.563965,4127.179688,4180.000000,4148.077148,4140.128418,4147.692383,4636.282227,4424.871582,4398.461426,4490.384766,0.000000,3.000000,73.000000,,,,0.000000,4.000000,4.000000,4.000000,4.000000,4.000000,4.000000,4.000000,4.000000,4.000000,4.000000,4.000000,4.000000,4.000000,4.000000,100.000000,,,,,,,,,,,,,,,,,15.000000,0.000000,0.692006,0.062805,-0.697754,0.174133,0.975705,-0.164571,0.018069,-11.744989,-42.416683,62.848125
1703163580.946999,1703163580.947532,61.000000,0.000000,4167.051270,4110.512695,4262.307617,4213.205078,4136.538574,4129.871582,4175.512695,4152.179688,4141.666504,4163.717773,4657.307617,4420.641113,4410.512695,4495.641113,0.000000,3.000000,73.000000,,,,0.000000,4.000000,4.000000,4.000000,4.000000,4.000000,4.000000,4.000000,4.000000,4.000000,4.000000,4.000000,4.000000,4.000000,4.000000,100.000000,,,,,,,,,,,,,,,,,,,,,,,,,,,,
1703163580.954807,1703163580.955340,62.000000,0.000000,4175.512695,4121.153809,4264.102539,4217.051270,4141.666504,4125.000000,4174.230957,4153.589844,4143.846191,4150.512695,4644.102539,4430.000000,4435.769043,4512.051270,0.000000,3.000000,73.000000,,,,0.000000,4.000000,4.000000,4.000000,4.000000,4.000000,4.000000,4.000000,4.000000,4.000000,4.000000,4.000000,4.000000,4.000000,4.000000,100.000000,,,,,,,,,,,,,,,,,,,,,,,,,,,,
1703163580.962615,1703163580.963048,63.000000,0.000000,4173.461426,4108.077148,4267.179688,4215.000000,4140.897461,4125.897461,4176.922852,4162.948730,4156.410156,4153.205078,4647.820313,4441.025879,4425.256348,4511.538574,0.000000,3.000000,73.000000,,,,0.000000,4.000000,4.000000,4.000000,4.000000,4.000000,4.000000,4.000000,4.000000,4.000000,4.000000,4.000000,4.000000,4.000000,4.000000,100.000000,,,,,,,,,,,,,,,,,,,,,,,,,,,,
1703163580.970423,1703163580.970956,64.000000,0.000000,4167.179688,4098.589844,4272.307617,4212.436035,4132.948730,4125.641113,4177.179688,4161.666504,4152.820313,4164.615234,4652.179688,4441.794922,4412.563965,4502.051270,5427.000000,3.000000,73.000000,,,,0.000000,4.000000,4.000000,4.000000,4.000000,4.000000,4.000000,4.000000,4.000000,4.000000,4.000000,4.000000,4.000000,4.000000,4.000000,100.000000,,,,,,,,,,,,,,,,,16.000000,0.000000,0.692001,0.062866,-0.697754,0.174133,0.978635,-0.176779,0.026370,-11.520491,-42.241684,62.846645
1703163580.978232,1703163580.978764,65.000000,0.000000,4172.051270,4098.589844,4282.051270,4214.358887,4125.128418,4120.128418,4175.000000,4153.846191,4137.179688,4146.025879,4628.333496,4448.333496,4428.461426,4509.230957,5375.000000,3.000000,73.000000,,,,0.000000,4.000000,4.000000,4.000000,4.000000,4.000000,4.000000,4.000000,4.000000,4.000000,4.000000,4.000000,4.000000,4.000000,4.000000,100.000000,,,,,,,,,,,,,,,,,,,,,,,,,,,,
1703163580.986040,1703163580.986672,66.000000,0.000000,4179.487305,4091.025635,4291.282227,4221.025879,4129.230957,4121.153809,4174.358887,4156.025879,4132.948730,4135.641113,4633.205078,4458.333496,4432.436035,4518.077148,5278.000000,3.000000,73.000000,,,,0.000000,4.000000,4.000000,4.000000,4.000000,4.000000,4.000000,4.000000,4.000000,4.000000,4.000000,4.000000,4.000000,4.000000,4.000000,100.000000,,,,,,,,,,,,,,,,,,,,,,,,,,,,
1703163580.993847,1703163580.994580,67.000000,0.000000,4180.897461,4098.205078,4293.589844,4228.461426,4139.743652,4119.487305,4172.820313,4153.461426,4126.794922,4150.256348,4663.077148,4450.769043,4424.102539,4517.436035,5225.000000,3.000000,73.000000,,,,0.000000,4.000000,4.000000,4.000000,4.000000,4.000000,4.000000,4.000000,4.000000,4.000000,4.000000,4.000000,4.000000,4.000000,4.000000,100.000000,,,,,,,,,,,,,,,,,,,,,,,,,,,,
1703163581.001656,1703163581.002389,68.000000,0.000000,4188.205078,4126.410156,4291.282227,4231.410156,4137.436035,4107.948730,4172.563965,4138.333496,4109.615234,4151.282227,4657.307617,4438.205078,4428.205078,4518.333496,4929.000000,3.000000,73.000000,,,,0.000000,4.000000,4.000000,4.000000,4.000000,4.000000,4.000000,4.000000,4.000000,4.000000,4.000000,4.000000,4.000000,4.000000,4.000000,100.000000,,,,,,,,,,,,,,,,,17.000000,0.000000,0.692006,0.062805,-0.697754,0.174133,0.977658,-0.185570,0.009278,-11.318441,-42.250847,62.895317
1703163581.009464,1703163581.010197,69.000000,0.000000,4200.897461,4139.743652,4292.948730,4235.512695,4132.436035,4102.692383,4169.743652,4132.436035,4103.846191,4146.922852,4640.641113,4445.128418,4427.820313,4524.743652,5008.000000,3.000000,73.000000,,,,0.000000,4.000000,4.000000,4.000000,4.000000,4.000000,4.000000,4.000000,4.000000,4.000000,4.000000,4.000000,4.000000,4.000000,4.000000,100.000000,,,,,,,,,,,,,,,,,,,,,,,,,,,,
1703163581.017272,1703163581.018105,70.000000,0.000000,4199.487305,4127.820313,4299.743652,4236.153809,4136.282227,4107.563965,4166.282227,4138.589844,4111.282227,4152.820313,4662.179688,4450.512695,4430.384766,4531.666504,2176.000000,3.000000,73.000000,,,,0.000000,4.000000,4.000000,4.000000,4.000000,4.000000,4.000000,4.000000,4.000000,4.000000,4.000000,4.000000,4.000000,4.000000,4.000000,100.000000,,,,,,,,,,,,,,,,,,,,,,,,,,,,
1703163581.025080,1703163581.025913,71.000000,0.000000,4185.641113,4108.846191,4294.487305,4225.384766,4139.358887,4112.692383,4168.717773,4137.692383,4114.871582,4144.102539,4657.436035,4441.282227,4432.692383,4522.179688,4534.000000,3.000000,73.000000,,,,0.000000,4.000000,4.000000,4.000000,4.000000,4.000000,4.000000,4.000000,4.000000,4.000000,4.000000,4.000000,4.000000,4.000000,4.000000,100.000000,,,,,,,,,,,,,,,,,,,,,,,,,,,,
1703163581.032888,1703163581.033821,72.000000,0.000000,4178.974121,4111.922852,4280.384766,4218.461426,4139.487305,4119.358887,4169.230957,4135.897461,4119.743652,4130.384766,4615.000000,4437.948730,4415.384766,4505.897461,5160.000000,3.000000,73.000000,,,,0.000000,4.000000,4.000000,4.000000,4.000000,4.000000,4.000000,4.000000,4.000000,4.000000,4.000000,4.000000,4.000000,4.000000,4.000000,100.000000,,,,,,,,,,,,,,,,,18.000000,0.000000,0.692002,0.062683,-0.697754,0.174194,0.974240,-0.165548,0.012209,-11.353264,-42.092430,62.855785
1703163581.040696,1703163581.041629,73.000000,0.000000,4177.948730,4124.743652,4276.410156,4221.794922,4141.153809,4126.282227,4169.615234,4146.922852,4134.358887,4152.563965,4635.641113,4437.179688,4414.230957,4506.538574,5333.000000,3.000000,73.000000,,,,0.000000,4.000000,4.000000,4.000000,4.000000,4.000000,4.000000,4.000000,4.000000,4.000000,4.000000,4.000000,4.000000,4.000000,4.000000,100.000000,,,,,,,,,,,,,,,,,,,,,,,,,,,,
1703163581.048504,1703163581.049337,74.000000,0.000000,4169.871582,4111.153809,4274.358887,4212.179688,4136.282227,4121.538574,4176.794922,4153.205078,4144.102539,4172.820313,4676.282227,4427.563965,4424.487305,4505.641113,5684.000000,3.000000,73.000000,,,,0.000000,4.000000,4.000000,4.000000,4.000000,4.000000,4.000000,4.000000,4.000000,4.000000,4.000000,4.000000,4.000000,4.000000,4.000000,100.000000,,,,,,,,,,,,,,,,,,,,,,,,,,,,
1703163581.056312,1703163581.057145,75.000000,0.000000,4167.692383,4101.538574,4268.077148,4201.282227,4128.846191,4114.487305,4181.025879,4147.051270,4136.410156,4154.743652,4656.922852,4425.256348,4411.538574,4495.641113,6018.000000,3.000000,73.000000,,,,0.000000,4.000000,4.000000,4.000000,4.000000,4.000000,4.000000,4.000000,4.000000,4.000000,4.000000,4.000000,4.000000,4.000000,4.000000,100.000000,,,,,,,,,,,,,,,,,,,,,,,,,,,,
1703163581.064120,1703163581.064853,76.000000,0.000000,4169.358887,4117.820313,4270.769043,4209.358887,4125.897461,4113.333496,4175.512695,4140.256348,4118.974121,4136.153809,4625.384766,4433.846191,4392.820313,4493.333496,6367.000000,3.000000,73.000000,,,,0.000000,4.000000,4.000000,4.000000,4.000000,4.000000,4.000000,4.000000,4.000000,4.000000,4.000000,4.000000,4.000000,4.000000,4.000000,100.000000,,,,,,,,,,,,,,,,,19.000000,0.000000,0.692039,0.062439,-0.697693,0.174377,0.978635,-0.174338,0.022952,-11.501270,-41.999851,62.920204
1703163581.071928,1703163581.072661,77.000000,0.000000,4163.461426,4118.974121,4274.487305,4212.948730,4112.820313,4105.384766,4171.538574,4133.205078,4101.025879,4132.051270,4628.717773,4427.563965,4388.077148,4491.538574,6110.000000,3.000000,73.000000,,,,0.000000,4.000000,4.000000,4.000000,4.000000,4.000000,4.000000,4.000000,4.000000,4.000000,4.000000,4.000000,4.000000,4.000000,4.000000,100.000000,,,,,,,,,,,,,,,,,,,,,,,,,,,,
1703163581.079736,1703163581.080369,78.000000,0.000000,4172.436035,4122.948730,4279.615234,4216.538574,4116.666504,4102.179688,4173.333496,4131.025879,4097.948730,4132.307617,4640.000000,4427.436035,4392.948730,4496.666504,5684.000000,3.000000,73.000000,,,,0.000000,4.000000,4.000000,4.000000,4.000000,4.000000,4.000000,4.000000,4.000000,4.000000,4.000000,4.000000,4.000000,4.000000,4.000000,100.000000,,,,,,,,,,,,,,,,,,,,,,,,,,,,
1703163581.087544,1703163581.088177,79.000000,0.000000,4193.077148,4151.410156,4293.205078,4230.512695,4137.179688,4105.256348,4171.794922,4133.589844,4101.794922,4128.077148,4624.615234,4445.641113,4400.897461,4515.897461,6018.000000,3.000000,73.000000,,,,0.000000,4.000000,4.000000,4.000000,4.000000,4.000000,4.000000,4.000000,4.000000,4.000000,4.000000,4.000000,4.000000,4.000000,4.000000,100.000000,,,,,,,,,,,,,,,,,,,,,,,,,,,,
1703163581.095352,1703163581.095885,80.000000,0.000000,4192.692383,4150.000000,4292.436035,4226.922852,4125.897461,4098.717773,4167.436035,4122.948730,4088.205078,4119.743652,4612.948730,4442.307617,4401.282227,4517.948730,6367.000000,3.000000,73.000000,,,,0.000000,4.000000,4.000000,4.000000,4.000000,4.000000,4.000000,4.000000,4.000000,4.000000,4.000000,4.000000,4.000000,4.000000,4.000000,100.000000,,,,,,,,,,,,,,,,,20.000000,0.000000,0.692035,0.062317,-0.697693,0.174438,0.987425,-0.175803,0.007325,-11.351144,-42.116535,62.961517
1703163581.103160,1703163581.103693,81.000000,0.000000,4182.820313,4137.820313,4285.128418,4220.256348,4112.179688,4102.948730,4168.846191,4107.820313,4076.281982,4118.461426,4631.794922,4425.000000,4398.077148,4505.384766,6110.000000,3.000000,73.000000,,,,0.000000,4.000000,4.000000,4.000000,4.000000,4.000000,4.000000,4.000000,4.000000,4.000000,4.000000,4.000000,4.000000,4.000000,4.000000,100.000000,,,,,,,,,,,,,,,,,,,,,,,,,,,,
1703163581.110968,1703163581.111401,82.000000,0.000000,4186.282227,4151.922852,4292.948730,4227.820313,4131.538574,4120.128418,4176.538574,4117.051270,4094.487061,4120.769043,4648.974121,4432.436035,4394.230957,4507.692383,5684.000000,3.000000,73.000000,,,,0.000000,4.000000,4.000000,4.000000,4.000000,4.000000,4.000000,4.000000,4.000000,4.000000,4.000000,4.000000,4.000000,4.000000,4.000000,100.000000,,,,,,,,,,,,,,,,,,,,,,,,,,,,
1703163581.118776,1703163581.119209,83.000000,0.000000,4188.589844,4154.358887,4295.000000,4226.025879,4148.717773,4121.922852,4177.307617,4141.794922,4125.256348,4125.512695,4648.846191,4446.282227,4391.025879,4513.717773,6018.000000,3.000000,73.000000,,,,0.000000,4.000000,4.000000,4.000000,4.000000,4.000000,4.000000,4.000000,4.000000,4.000000,4.000000,4.000000,4.000000,4.000000,4.000000,100.000000,,,,,,,,,,,,,,,,,,,,,,,,,,,,
1703163581.126584,1703163581.126917,84.000000,0.000000,4181.410156,4141.538574,4285.256348,4218.846191,4139.487305,4116.922852,4174.743652,4156.666504,4142.051270,4143.846191,4650.128418,4441.538574,4401.922852,4508.205078,6367.000000,3.000000,73.000000,,,,0.000000,4.000000,4.000000,4.000000,4.000000,4.000000,4.000000,4.000000,4.000000,4.000000,4.000000,4.000000,4.000000,4.000000,4.000000,100.000000,,,,,,,,,,,,,,,,,21.000000,0.000000,0.692071,0.062256,-0.697693,0.174316,0.975217,-0.171408,0.016115,-11.316030,-42.188213,62.932034
1703163581.134392,1703163581.134725,85.000000,0.000000,4168.589844,4133.846191,4278.846191,4216.794922,4129.615234,4120.769043,4178.717773,4151.282227,4138.205078,4147.051270,4627.563965,4437.820313,4400.897461,4498.205078,6110.000000,3.000000,73.000000,,,,0.000000,4.000000,4.000000,4.000000,4.000000,4.000000,4.000000,4.000000,4.000000,4.000000,4.000000,4.000000,4.000000,4.000000,4.000000,100.000000,,,,,,,,,,,,,,,,,,,,,,,,,,,,
1703163581.142200,1703163581.142433,86.000000,0.000000,4152.692383,4123.333496,4268.461426,4207.179688,4129.230957,4121.410156,4184.230957,4140.256348,4124.230957,4126.666504,4610.000000,4433.205078,4373.717773,4485.769043,5684.000000,3.000000,73.000000,,,,0.000000,4.000000,4.000000,4.000000,4.000000,4.000000,4.000000,4.000000,4.000000,4.000000,4.000000,4.000000,4.000000,4.000000,4.000000,100.000000,,,,,,,,,,,,,,,,,,,,,,,,,,,,
1703163581.150009,1703163581.150341,87.000000,0.000000,4149.358887,4118.974121,4261.282227,4200.897461,4129.743652,4121.922852,4184.871582,4146.922852,4123.846191,4131.666504,4643.717773,4425.000000,4371.153809,4483.974121,6018.000000,3.000000,73.000000,,,,0.000000,4.000000,4.000000,4.000000,4.000000,4.000000,4.000000,4.000000,4.000000,4.000000,4.000000,4.000000,4.000000,4.000000,4.000000,100.000000,,,,,,,,,,,,,,,,,,,,,,,,,,,,
1703163581.157817,1703163581.158150,88.000000,0.000000,4158.846191,4127.179688,4265.897461,4207.051270,4128.333496,4122.179688,4182.051270,4151.025879,4125.769043,4144.615234,4657.051270,4427.307617,4390.897461,4493.846191,6367.000000,3.000000,73.000000,,,,0.000000,4.000000,4.000000,4.000000,4.000000,4.000000,4.000000,4.000000,4.000000,4.000000,4.000000,4.000000,4.000000,4.000000,4.000000,100.000000,,,,,,,,,,,,,,,,,22.000000,0.000000,0.691933,0.062256,-0.697815,0.174377,0.962520,-0.170431,0.018069,-11.401093,-42.152725,63.005497
1703163581.165625,1703163581.166058,89.000000,0.000000,4154.871582,4121.282227,4263.717773,4201.025879,4117.051270,4107.820313,4179.487305,4133.846191,4106.794922,4123.974121,4622.307617,4425.641113,4378.974121,4487.948730,6110.000000,3.000000,73.000000,,,,0.000000,4.000000,4.000000,4.000000,4.000000,4.000000,4.000000,4.000000,4.000000,4.000000,4.000000,4.000000,4.000000,4.000000,4.000000,100.000000,1.000000,66.666664,4.000000,4.000000,4.000000,4.000000,4.000000,4.000000,4.000000,4.000000,4.000000,3.000000,1.000000,4.000000,4.000000,4.000000,,,,,,,,,,,,
1703163581.173432,1703163581.173866,90.000000,0.000000,4148.846191,4116.410156,4264.871582,4195.769043,4115.000000,4101.794922,4182.051270,4128.205078,4092.051270,4112.563965,4618.846191,4423.974121,4370.000000,4480.256348,5684.000000,3.000000,73.000000,,,,0.000000,4.000000,4.000000,4.000000,4.000000,4.000000,4.000000,4.000000,4.000000,4.000000,4.000000,4.000000,4.000000,4.000000,4.000000,100.000000,,,,,,,,,,,,,,,,,,,,,,,,,,,,
1703163581.181241,1703163581.181774,91.000000,0.000000,4163.461426,4129.230957,4282.307617,4210.769043,4135.384766,4114.230957,4183.589844,4136.282227,4096.666504,4124.487305,4653.077148,4437.436035,4393.077148,4489.743652,6018.000000,3.000000,73.000000,,,,0.000000,4.000000,4.000000,4.000000,4.000000,4.000000,4.000000,4.000000,4.000000,4.000000,4.000000,4.000000,4.000000,4.000000,4.000000,100.000000,,,,,,,,,,,,,,,,,,,,,,,,,,,,
1703163581.189049,1703163581.189582,92.000000,0.000000,4172.820313,4136.282227,4290.128418,4219.230957,4144.358887,4111.153809,4178.205078,4124.615234,4090.384521,4121.282227,4644.358887,4442.948730,4390.769043,4493.205078,6367.000000,3.000000,73.000000,,,,0.000000,4.000000,4.000000,4.000000,4.000000,4.000000,4.000000,4.000000,4.000000,4.000000,4.000000,4.000000,4.000000,4.000000,4.000000,100.000000,,,,,,,,,,,,,,,,,23.000000,0.000000,0.691886,0.062439,-0.697815,0.174500,0.993774,-0.160176,0.019534,-11.427650,-42.004120,63.071613
1703163581.196857,1703163581.197490,93.000000,0.000000,4169.743652,4141.282227,4286.282227,4217.948730,4126.666504,4097.307617,4177.563965,4109.102539,4076.666748,4117.563965,4607.948730,4433.077148,4372.436035,4491.538574,6110.000000,3.000000,73.000000,,,,0.000000,4.000000,4.000000,4.000000,4.000000,4.000000,4.000000,4.000000,4.000000,4.000000,4.000000,4.000000,4.000000,4.000000,4.000000,100.000000,,,,,,,,,,,,,,,,,,,,,,,,,,,,
1703163581.204665,1703163581.205298,94.000000,0.000000,4180.641113,4155.128418,4293.589844,4223.974121,4123.461426,4104.871582,4183.461426,4115.641113,4089.487061,4132.436035,4630.128418,4435.128418,4394.487305,4504.358887,5684.000000,3.000000,73.000000,,,,0.000000,4.000000,4.000000,4.000000,4.000000,4.000000,4.000000,4.000000,4.000000,4.000000,4.000000,4.000000,4.000000,4.000000,4.000000,100.000000,,,,,,,,,,,,,,,,,,,,,,,,,,,,
1703163581.212473,1703163581.213206,95.000000,0.000000,4189.487305,4157.051270,4300.897461,4227.820313,4143.846191,4123.077148,4184.230957,4127.179688,4110.384766,4143.205078,4679.487305,4445.256348,4415.384766,4514.487305,6018.000000,3.000000,73.000000,,,,0.000000,4.000000,4.000000,4.000000,4.000000,4.000000,4.000000,4.000000,4.000000,4.000000,4.000000,4.000000,4.000000,4.000000,4.000000,100.000000,,,,,,,,,,,,,,,,,,,,,,,,,,,,
1703163581.220281,1703163581.221014,96.000000,0.000000,4174.358887,4141.666504,4289.743652,4218.205078,4143.077148,4124.102539,4184.871582,4131.025879,4112.307617,4138.461426,4667.692383,4440.897461,4392.948730,4505.769043,6367.000000,3.000000,73.000000,,,,0.000000,4.000000,4.000000,4.000000,4.000000,4.000000,4.000000,4.000000,4.000000,4.000000,4.000000,4.000000,4.000000,4.000000,4.000000,100.000000,,,,,,,,,,,,,,,,,24.000000,0.000000,0.691896,0.062317,-0.697754,0.174744,0.985960,-0.169454,0.016604,-11.368218,-42.070374,63.014454
1703163581.228089,1703163581.228822,97.000000,0.000000,4165.769043,4136.025879,4277.563965,4213.589844,4131.538574,4120.256348,4188.461426,4135.000000,4113.077148,4135.512695,4630.512695,4430.897461,4381.410156,4497.948730,6110.000000,3.000000,73.000000,,,,0.000000,4.000000,4.000000,4.000000,4.000000,4.000000,4.000000,4.000000,4.000000,4.000000,4.000000,4.000000,4.000000,4.000000,4.000000,100.000000,,,,,,,,,,,,,,,,,,,,,,,,,,,,
1703163581.235897,1703163581.236630,98.000000,0.000000,4170.256348,4145.384766,4277.948730,4218.077148,4135.000000,4126.666504,4190.769043,4138.846191,4122.692383,4138.077148,4646.025879,4426.410156,4399.230957,4496.410156,5684.000000,3.000000,73.000000,,,,0.000000,4.000000,4.000000,4.000000,4.000000,4.000000,4.000000,4.000000,4.000000,4.000000,4.000000,4.000000,4.000000,4.000000,4.000000,100.000000,,,,,,,,,,,,,,,,,,,,,,,,,,,,
1703163581.243705,1703163581.244338,99.000000,0.000000,4161.538574,4139.871582,4275.128418,4212.563965,4127.948730,4123.077148,4190.512695,4138.077148,4123.589844,4126.410156,4657.179688,4425.512695,4391.794922,4490.769043,6018.000000,3.000000,73.000000,,,,0.000000,4.000000,4.000000,4.000000,4.000000,4.000000,4.000000,4.000000,4.000000,4.000000,4.000000,4.000000,4.000000,4.000000,4.000000,100.000000,,,,,,,,,,,,,,,,,,,,,,,,,,,,
1703163581.251513,1703163581.252146,100.000000,0.000000,4147.692383,4121.153809,4266.153809,4200.128418,4110.641113,4107.948730,4187.051270,4137.179688,4117.307617,4115.512695,4620.384766,4429.358887,4363.974121,4484.615234,6367.000000,3.000000,73.000000,,,,0.000000,4.000000,4.000000,4.000000,4.000000,4.000000,4.000000,4.000000,4.000000,4.000000,4.000000,4.000000,4.000000,4.000000,4.000000,100.000000,,,,,,,,,,,,,,,,,25.000000,0.000000,0.691950,0.061890,-0.697693,0.174927,0.976193,-0.167989,0.012697,-11.314731,-42.046669,62.829674
1703163581.259321,1703163581.259854,101.000000,0.000000,4154.487305,4123.589844,4270.512695,4200.384766,4120.000000,4109.358887,4185.384766,4142.179688,4120.897461,4134.487305,4622.692383,4435.256348,4369.743652,4488.205078,6110.000000,3.000000,73.000000,,,,0.000000,4.000000,4.000000,4.000000,4.000000,4.000000,4.000000,4.000000,4.000000,4.000000,4.000000,4.000000,4.000000,4.000000,4.000000,100.000000,,,,,,,,,,,,,,,,,,,,,,,,,,,,
1703163581.267129,1703163581.267662,102.000000,0.000000,4168.205078,4140.641113,4283.077148,4213.589844,4141.666504,4123.077148,4191.410156,4146.282227,4123.077148,4154.230957,4670.897461,4438.717773,4390.897461,4498.461426,5684.000000,3.000000,73.000000,,,,0.000000,4.000000,4.000000,4.000000,4.000000,4.000000,4.000000,4.000000,4.000000,4.000000,4.000000,4.000000,4.000000,4.000000,4.000000,100.000000,,,,,,,,,,,,,,,,,,,,,,,,,,,,
1703163581.274937,1703163581.275370,103.000000,0.000000,4162.307617,4135.128418,4281.538574,4214.871582,4138.077148,4115.769043,4194.871582,4138.846191,4111.025879,4138.333496,4671.410156,4437.307617,4386.922852,4499.102539,6018.000000,3.000000,73.000000,,,,0.000000,4.000000,4.000000,4.000000,4.000000,4.000000,4.000000,4.000000,4.000000,4.000000,4.000000,4.000000,4.000000,4.000000,4.000000,100.000000,,,,,,,,,,,,,,,,,,,,,,,,,,,,
1703163581.282745,1703163581.283178,104.000000,0.000000,4156.538574,4127.307617,4276.922852,4208.205078,4124.230957,4102.051270,4188.717773,4123.461426,4094.230713,4117.307617,4637.563965,4431.666504,4379.358887,4496.538574,6367.000000,3.000000,73.000000,,,,0.000000,4.000000,4.000000,4.000000,4.000000,4.000000,4.000000,4.000000,4.000000,4.000000,4.000000,4.000000,4.000000,4.000000,4.000000,100.000000,,,,,,,,,,,,,,,,,26.000000,0.000000,0.691880,0.061646,-0.697815,0.174805,0.976682,-0.179709,0.012697,-11.483257,-42.025337,62.996708
1703163581.290553,1703163581.290886,105.000000,0.000000,4171.282227,4143.205078,4288.077148,4219.615234,4132.692383,4108.846191,4189.102539,4111.025879,4088.846191,4123.717773,4646.025879,4428.589844,4393.333496,4506.538574,6110.000000,3.000000,73.000000,,,,0.000000,4.000000,4.000000,4.000000,4.000000,4.000000,4.000000,4.000000,4.000000,4.000000,4.000000,4.000000,4.000000,4.000000,4.000000,100.000000,,,,,,,,,,,,,,,,,,,,,,,,,,,,
1703163581.298361,1703163581.298694,106.000000,0.000000,4187.820313,4153.333496,4300.512695,4235.512695,4146.025879,4119.230957,4193.974121,4110.641113,4096.794922,4129.871582,4642.179688,4438.974121,4403.461426,4517.436035,5684.000000,3.000000,73.000000,,,,0.000000,4.000000,4.000000,4.000000,4.000000,4.000000,4.000000,4.000000,4.000000,4.000000,4.000000,4.000000,4.000000,4.000000,4.000000,100.000000,,,,,,,,,,,,,,,,,,,,,,,,,,,,
1703163581.306169,1703163581.306402,107.000000,0.000000,4181.538574,4142.436035,4297.820313,4233.974121,4141.153809,4117.948730,4188.461426,4117.948730,4103.846191,4122.436035,4615.769043,4448.846191,4384.102539,4512.948730,6018.000000,3.000000,73.000000,,,,0.000000,4.000000,4.000000,4.000000,4.000000,4.000000,4.000000,4.000000,4.000000,4.000000,4.000000,4.000000,4.000000,4.000000,4.000000,100.000000,,,,,,,,,,,,,,,,,,,,,,,,,,,,
1703163581.313977,1703163581.314311,108.000000,0.000000,4169.615234,4136.922852,4292.179688,4227.563965,4133.717773,4115.769043,4187.563965,4119.358887,4104.871582,4122.307617,4642.179688,4441.794922,4375.641113,4504.871582,6367.000000,3.000000,73.000000,,,,0.000000,4.000000,4.000000,4.000000,4.000000,4.000000,4.000000,4.000000,4.000000,4.000000,4.000000,4.000000,4.000000,4.000000,4.000000,100.000000,,,,,,,,,,,,,,,,,27.000000,0.000000,0.691663,0.061829,-0.698059,0.174622,0.967892,-0.168478,0.011232,-11.484931,-42.022804,62.913704
1703163581.321785,1703163581.322119,109.000000,0.000000,4176.794922,4144.487305,4292.820313,4231.282227,4137.179688,4120.512695,4198.589844,4114.487305,4107.692383,4128.205078,4676.410156,4440.256348,4402.179688,4513.589844,6110.000000,3.000000,73.000000,,,,0.000000,4.000000,4.000000,4.000000,4.000000,4.000000,4.000000,4.000000,4.000000,4.000000,4.000000,4.000000,4.000000,4.000000,4.000000,100.000000,,,,,,,,,,,,,,,,,,,,,,,,,,,,
1703163581.329594,1703163581.330027,110.000000,0.000000,4186.666504,4142.563965,4296.922852,4232.307617,4140.000000,4125.769043,4201.666504,4119.615234,4119.230957,4129.102539,4662.179688,4454.743652,4419.230957,4528.333496,5684.000000,3.000000,73.000000,,,,0.000000,4.000000,4.000000,4.000000,4.000000,4.000000,4.000000,4.000000,4.000000,4.000000,4.000000,4.000000,4.000000,4.000000,4.000000,100.000000,,,,,,,,,,,,,,,,,,,,,,,,,,,,
1703163581.337402,1703163581.337835,111.000000,0.000000,4178.461426,4126.538574,4296.538574,4224.743652,4130.769043,4121.922852,4197.820313,4133.333496,4135.384766,4139.102539,4654.358887,4458.333496,4405.384766,4527.307617,6018.000000,3.000000,73.000000,,,,0.000000,4.000000,4.000000,4.000000,4.000000,4.000000,4.000000,4.000000,4.000000,4.000000,4.000000,4.000000,4.000000,4.000000,4.000000,100.000000,,,,,,,,,,,,,,,,,,,,,,,,,,,,
1703163581.345209,1703163581.345643,112.000000,0.000000,4164.871582,4123.461426,4287.563965,4218.461426,4125.641113,4116.922852,4199.230957,4139.230957,4143.461426,4153.589844,4668.205078,4446.922852,4398.205078,4516.282227,6367.000000,3.000000,73.000000,,,,0.000000,4.000000,4.000000,4.000000,4.000000,4.000000,4.000000,4.000000,4.000000,4.000000,4.000000,4.000000,4.000000,4.000000,4.000000,100.000000,,,,,,,,,,,,,,,,,28.000000,0.000000,0.691558,0.062317,-0.698120,0.174622,0.980100,-0.178244,0.015139,-11.636438,-42.053856,62.905666
1703163581.353018,1703163581.353351,113.000000,0.000000,4168.589844,4132.436035,4280.128418,4218.974121,4133.717773,4121.282227,4201.153809,4143.846191,4142.692383,4148.846191,4646.922852,4446.922852,4404.102539,4513.077148,6110.000000,3.000000,73.000000,,,,0.000000,4.000000,4.000000,4.000000,4.000000,4.000000,4.000000,4.000000,4.000000,4.000000,4.000000,4.000000,4.000000,4.000000,4.000000,100.000000,,,,,,,,,,,,,,,,,,,,,,,,,,,,
1703163581.360826,1703163581.361260,114.000000,0.000000,4171.794922,4131.538574,4279.358887,4221.410156,4141.282227,4127.179688,4201.794922,4152.563965,4145.897461,4144.230957,4634.102539,4452.948730,4398.205078,4512.436035,5684.000000,3.000000,73.000000,,,,0.000000,4.000000,4.000000,4.000000,4.000000,4.000000,4.000000,4.000000,4.000000,4.000000,4.000000,4.000000,4.000000,4.000000,4.000000,100.000000,,,,,,,,,,,,,,,,,,,,,,,,,,,,
1703163581.368634,1703163581.369068,115.000000,0.000000,4161.153809,4123.333496,4275.128418,4215.256348,4137.948730,4122.948730,4200.897461,4154.743652,4151.410156,4154.743652,4666.410156,4446.282227,4391.025879,4506.282227,6018.000000,3.000000,73.000000,,,,0.000000,4.000000,4.000000,4.000000,4.000000,4.000000,4.000000,4.000000,4.000000,4.000000,4.000000,4.000000,4.000000,4.000000,4.000000,100.000000,,,,,,,,,,,,,,,,,,,,,,,,,,,,
1703163581.376442,1703163581.376976,116.000000,0.000000,4157.948730,4120.000000,4272.307617,4208.846191,4125.512695,4115.641113,4200.641113,4144.743652,4147.051270,4159.743652,4681.410156,4440.256348,4400.512695,4503.077148,6367.000000,3.000000,73.000000,,,,0.000000,4.000000,4.000000,4.000000,4.000000,4.000000,4.000000,4.000000,4.000000,4.000000,4.000000,4.000000,4.000000,4.000000,4.000000,100.000000,,,,,,,,,,,,,,,,,29.000000,0.000000,0.691593,0.062439,-0.697998,0.174927,0.975217,-0.176779,0.002930,-11.572795,-42.215137,62.798431
1703163581.384250,1703163581.384784,117.000000,0.000000,4165.897461,4125.128418,4276.538574,4216.538574,4124.743652,4116.282227,4201.794922,4132.436035,4132.692383,4153.205078,4661.922852,4444.871582,4412.051270,4510.641113,6110.000000,3.000000,73.000000,,,,0.000000,4.000000,4.000000,4.000000,4.000000,4.000000,4.000000,4.000000,4.000000,4.000000,4.000000,4.000000,4.000000,4.000000,4.000000,100.000000,,,,,,,,,,,,,,,,,,,,,,,,,,,,
1703163581.392058,1703163581.392692,118.000000,0.000000,4173.461426,4136.666504,4281.282227,4227.307617,4138.077148,4119.615234,4201.025879,4131.025879,4123.846191,4150.256348,4660.641113,4447.820313,4414.615234,4519.743652,5684.000000,3.000000,73.000000,,,,0.000000,4.000000,4.000000,4.000000,4.000000,4.000000,4.000000,4.000000,4.000000,4.000000,4.000000,4.000000,4.000000,4.000000,4.000000,100.000000,,,,,,,,,,,,,,,,,,,,,,,,,,,,
1703163581.399866,1703163581.400500,119.000000,0.000000,4171.025879,4133.077148,4283.333496,4223.461426,4142.948730,4118.461426,4201.025879,4135.769043,4130.128418,4149.230957,4683.717773,4449.102539,4410.128418,4514.615234,6018.000000,3.000000,73.000000,,,,0.000000,4.000000,4.000000,4.000000,4.000000,4.000000,4.000000,4.000000,4.000000,4.000000,4.000000,4.000000,4.000000,4.000000,4.000000,100.000000,,,,,,,,,,,,,,,,,,,,,,,,,,,,
1703163581.407674,1703163581.408408,120.000000,0.000000,4161.538574,4115.128418,4280.128418,4212.948730,4135.512695,4117.820313,4202.307617,4142.820313,4138.333496,4138.077148,4663.461426,4454.230957,4394.615234,4501.538574,6367.000000,3.000000,73.000000,,,,0.000000,4.000000,4.000000,4.000000,4.000000,4.000000,4.000000,4.000000,4.000000,4.000000,4.000000,4.000000,4.000000,4.000000,4.000000,100.000000,,,,,,,,,,,,,,,,,30.000000,0.000000,0.691716,0.062439,-0.697876,0.174927,0.968868,-0.167013,0.016115,-11.582182,-42.260292,62.768589
1703163581.415482,1703163581.416216,121.000000,0.000000,4162.820313,4125.641113,4279.102539,4217.436035,4134.615234,4120.384766,4202.820313,4149.230957,4137.948730,4136.410156,4637.948730,4455.641113,4386.794922,4509.487305,6110.000000,3.000000,73.000000,,,,0.000000,4.000000,4.000000,4.000000,4.000000,4.000000,4.000000,4.000000,4.000000,4.000000,4.000000,4.000000,4.000000,4.000000,4.000000,100.000000,,,,,,,,,,,,,,,,,,,,,,,,,,,,
1703163581.423290,1703163581.424124,122.000000,0.000000,4179.102539,4150.769043,4286.153809,4231.025879,4140.769043,4123.846191,4202.948730,4148.974121,4144.871582,4150.384766,4671.410156,4455.769043,4409.230957,4530.641113,5684.000000,3.000000,73.000000,,,,0.000000,4.000000,4.000000,4.000000,4.000000,4.000000,4.000000,4.000000,4.000000,4.000000,4.000000,4.000000,4.000000,4.000000,4.000000,100.000000,,,,,,,,,,,,,,,,,,,,,,,,,,,,
1703163581.431098,1703163581.431932,123.000000,0.000000,4184.743652,4145.512695,4288.846191,4233.461426,4143.205078,4121.922852,4203.717773,4144.871582,4155.256348,4159.358887,4706.282227,4457.563965,4428.846191,4535.256348,6018.000000,3.000000,73.000000,,,,0.000000,4.000000,4.000000,4.000000,4.000000,4.000000,4.000000,4.000000,4.000000,4.000000,4.000000,4.000000,4.000000,4.000000,4.000000,100.000000,,,,,,,,,,,,,,,,,,,,,,,,,,,,
1703163581.438906,1703163581.439640,124.000000,0.000000,4170.256348,4123.589844,4278.077148,4222.179688,4133.333496,4112.307617,4200.128418,4136.922852,4137.051270,4137.179688,4678.974121,4451.153809,4406.410156,4518.974121,6367.000000,3.000000,73.000000,,,,0.000000,4.000000,4.000000,4.000000,4.000000,4.000000,4.000000,4.000000,4.000000,4.000000,4.000000,4.000000,4.000000,4.000000,4.000000,100.000000,,,,,,,,,,,,,,,,,31.000000,0.000000,0.691747,0.062439,-0.697876,0.174805,0.980588,-0.172873,0.019045,-11.690630,-42.300926,62.941730
1703163581.446714,1703163581.447548,125.000000,0.000000,4162.820313,4118.461426,4274.358887,4213.333496,4117.179688,4106.153809,4201.282227,4127.563965,4106.666504,4105.512695,4643.461426,4443.077148,4380.769043,4505.769043,6110.000000,3.000000,73.000000,,,,0.000000,4.000000,4.000000,4.000000,4.000000,4.000000,4.000000,4.000000,4.000000,4.000000,4.000000,4.000000,4.000000,4.000000,4.000000,100.000000,,,,,,,,,,,,,,,,,,,,,,,,,,,,
1703163581.454522,1703163581.455356,126.000000,0.000000,4167.948730,4122.436035,4286.794922,4216.410156,4118.461426,4108.589844,4207.179688,4127.436035,4106.153809,4115.128418,4662.563965,4447.948730,4390.256348,4512.179688,5684.000000,3.000000,73.000000,,,,0.000000,4.000000,4.000000,4.000000,4.000000,4.000000,4.000000,4.000000,4.000000,4.000000,4.000000,4.000000,4.000000,4.000000,4.000000,100.000000,,,,,,,,,,,,,,,,,,,,,,,,,,,,
1703163581.462330,1703163581.463165,127.000000,0.000000,4172.179688,4124.615234,4296.153809,4226.153809,4132.820313,4113.205078,4205.769043,4139.615234,4123.333496,4143.717773,4681.922852,4459.102539,4408.205078,4523.461426,73.000000,3.000000,73.000000,,,,0.000000,4.000000,4.000000,4.000000,4.000000,4.000000,4.000000,4.000000,4.000000,4.000000,4.000000,4.000000,4.000000,4.000000,4.000000,100.000000,,,,,,,,,,,,,,,,,,,,,,,,,,,,
1703163581.470138,1703163581.470873,0.000000,0.000000,4172.692383,4133.461426,4296.538574,4230.512695,4134.615234,4113.717773,4207.692383,4143.461426,4120.256348,4135.897461,4659.230957,4465.128418,4403.717773,4524.871582,5440.000000,3.000000,73.000000,,,,0.000000,4.000000,4.000000,4.000000,4.000000,4.000000,4.000000,4.000000,4.000000,4.000000,4.000000,4.000000,4.000000,4.000000,4.000000,100.000000,,,,,,,,,,,,,,,,,0.000000,0.000000,0.691722,0.062378,-0.697937,0.174683,0.968868,-0.167989,0.023929,-11.654901,-42.387501,62.897556
1703163581.477946,1703163581.478681,1.000000,0.000000,4171.153809,4138.589844,4293.974121,4221.666504,4130.641113,4110.000000,4210.897461,4131.282227,4102.436035,4119.615234,4646.410156,4460.000000,4391.025879,4519.615234,5384.000000,3.000000,73.000000,,,,0.000000,4.000000,4.000000,4.000000,4.000000,4.000000,4.000000,4.000000,4.000000,4.000000,4.000000,4.000000,4.000000,4.000000,4.000000,100.000000,,,,,,,,,,,,,,,,,,,,,,,,,,,,
1703163581.485754,1703163581.486389,2.000000,0.000000,4177.051270,4136.410156,4296.025879,4219.615234,4135.512695,4107.692383,4206.153809,4121.410156,4102.307617,4140.512695,4677.820313,4450.897461,4400.384766,4521.282227,5290.000000,3.000000,73.000000,,,,0.000000,4.000000,4.000000,4.000000,4.000000,4.000000,4.000000,4.000000,4.000000,4.000000,4.000000,4.000000,4.000000,4.000000,4.000000,100.000000,,,,,,,,,,,,,,,,,,,,,,,,,,,,
1703163581.493562,1703163581.494197,3.000000,0.000000,4184.615234,4141.282227,4296.922852,4229.615234,4142.820313,4112.563965,4202.307617,4120.256348,4119.743652,4160.384766,4695.256348,4450.769043,4413.589844,4524.102539,5238.000000,3.000000,73.000000,,,,0.000000,4.000000,4.000000,4.000000,4.000000,4.000000,4.000000,4.000000,4.000000,4.000000,4.000000,4.000000,4.000000,4.000000,4.000000,100.000000,,,,,,,,,,,,,,,,,,,,,,,,,,,,
1703163581.501370,1703163581.501905,4.000000,0.000000,4177.948730,4143.333496,4289.487305,4227.692383,4140.256348,4117.692383,4205.769043,4127.436035,4131.025879,4154.230957,4668.717773,4450.897461,4404.102539,4519.487305,4946.000000,3.000000,73.000000,,,,0.000000,4.000000,4.000000,4.000000,4.000000,4.000000,4.000000,4.000000,4.000000,4.000000,4.000000,4.000000,4.000000,4.000000,4.000000,100.000000,,,,,,,,,,,,,,,,,1.000000,0.000000,0.691713,0.062134,-0.697937,0.174805,0.984007,-0.164571,0.019534,-11.689410,-42.348751,63.041134
1703163581.509179,1703163581.509713,5.000000,0.000000,4159.615234,4126.538574,4274.358887,4210.641113,4136.025879,4120.384766,4211.282227,4136.153809,4135.128418,4149.102539,4659.230957,4437.820313,4385.512695,4505.897461,5018.000000,3.000000,73.000000,,,,0.000000,4.000000,4.000000,4.000000,4.000000,4.000000,4.000000,4.000000,4.000000,4.000000,4.000000,4.000000,4.000000,4.000000,4.000000,100.000000,,,,,,,,,,,,,,,,,,,,,,,,,,,,
1703163581.516986,1703163581.517421,6.000000,0.000000,4150.000000,4111.922852,4261.153809,4200.256348,4141.666504,4125.128418,4215.000000,4137.051270,4138.717773,4145.512695,4647.179688,4431.922852,4374.487305,4494.487305,2172.000000,3.000000,73.000000,,,,0.000000,4.000000,4.000000,4.000000,4.000000,4.000000,4.000000,4.000000,4.000000,4.000000,4.000000,4.000000,4.000000,4.000000,4.000000,100.000000,,,,,,,,,,,,,,,,,,,,,,,,,,,,
1703163581.524794,1703163581.525329,7.000000,0.000000,4160.512695,4119.230957,4266.025879,4206.410156,4136.282227,4126.282227,4219.102539,4137.051270,4139.487305,4134.871582,4629.102539,4443.846191,4388.205078,4506.410156,4540.000000,3.000000,73.000000,,,,0.000000,4.000000,4.000000,4.000000,4.000000,4.000000,4.000000,4.000000,4.000000,4.000000,4.000000,4.000000,4.000000,4.000000,4.000000,100.000000,,,,,,,,,,,,,,,,,,,,,,,,,,,,
1703163581.532603,1703163581.533137,8.000000,0.000000,4168.974121,4125.384766,4275.000000,4215.384766,4124.871582,4123.077148,4217.179688,4138.717773,4136.794922,4128.974121,4659.615234,4446.410156,4410.256348,4518.974121,5165.000000,3.000000,73.000000,,,,0.000000,4.000000,4.000000,4.000000,4.000000,4.000000,4.000000,4.000000,4.000000,4.000000,4.000000,4.000000,4.000000,4.000000,4.000000,100.000000,,,,,,,,,,,,,,,,,2.000000,0.000000,0.691617,0.061829,-0.697998,0.175049,0.976193,-0.184105,0.006837,-11.737136,-42.380543,62.987022
1703163581.540411,1703163581.541045,9.000000,0.000000,4167.948730,4123.589844,4277.307617,4214.871582,4142.307617,4128.205078,4216.666504,4140.512695,4136.153809,4132.051270,4690.897461,4441.794922,4409.615234,4514.615234,5357.000000,3.000000,73.000000,,,,0.000000,4.000000,4.000000,4.000000,4.000000,4.000000,4.000000,4.000000,4.000000,4.000000,4.000000,4.000000,4.000000,4.000000,4.000000,100.000000,,,,,,,,,,,,,,,,,,,,,,,,,,,,
1703163581.548219,1703163581.548853,10.000000,0.000000,4172.948730,4130.128418,4285.256348,4213.846191,4156.666504,4135.641113,4223.461426,4142.692383,4138.846191,4134.615234,4675.000000,4447.563965,4403.974121,4519.615234,5672.000000,3.000000,73.000000,,,,0.000000,4.000000,4.000000,4.000000,4.000000,4.000000,4.000000,4.000000,4.000000,4.000000,4.000000,4.000000,4.000000,4.000000,4.000000,100.000000,,,,,,,,,,,,,,,,,,,,,,,,,,,,
1703163581.556027,1703163581.556762,11.000000,0.000000,4181.538574,4140.769043,4291.153809,4219.487305,4137.051270,4131.794922,4227.179688,4144.230957,4136.666504,4139.358887,4660.512695,4451.666504,4412.051270,4529.743652,6030.000000,3.000000,73.000000,,,,0.000000,4.000000,4.000000,4.000000,4.000000,4.000000,4.000000,4.000000,4.000000,4.000000,4.000000,4.000000,4.000000,4.000000,4.000000,100.000000,,,,,,,,,,,,,,,,,,,,,,,,,,,,
1703163581.563835,1703163581.564570,12.000000,0.000000,4171.410156,4132.948730,4282.692383,4214.871582,4126.794922,4123.461426,4223.077148,4136.538574,4125.000000,4137.051270,4665.512695,4442.307617,4403.717773,4516.410156,6322.000000,3.000000,73.000000,,,,0.000000,4.000000,4.000000,4.000000,4.000000,4.000000,4.000000,4.000000,4.000000,4.000000,4.000000,4.000000,4.000000,4.000000,4.000000,100.000000,,,,,,,,,,,,,,,,,3.000000,0.000000,0.691546,0.061584,-0.698059,0.175171,0.971798,-0.180198,0.022464,-11.780089,-42.292488,62.971653
1703163581.571643,1703163581.572478,13.000000,0.000000,4161.922852,4120.128418,4280.769043,4210.000000,4133.974121,4117.307617,4216.794922,4125.512695,4110.769043,4123.333496,4641.666504,4441.410156,4382.179688,4504.102539,6113.000000,3.000000,73.000000,,,,0.000000,4.000000,4.000000,4.000000,4.000000,4.000000,4.000000,4.000000,4.000000,4.000000,4.000000,4.000000,4.000000,4.000000,4.000000,100.000000,,,,,,,,,,,,,,,,,,,,,,,,,,,,
1703163581.579451,1703163581.580286,14.000000,0.000000,4183.974121,4141.410156,4300.512695,4228.589844,4137.692383,4115.384766,4218.333496,4125.128418,4107.307617,4125.000000,4631.538574,4459.743652,4402.051270,4528.333496,5672.000000,3.000000,73.000000,,,,0.000000,4.000000,4.000000,4.000000,4.000000,4.000000,4.000000,4.000000,4.000000,4.000000,4.000000,4.000000,4.000000,4.000000,4.000000,100.000000,,,,,,,,,,,,,,,,,,,,,,,,,,,,
1703163581.587259,1703163581.588194,15.000000,0.000000,4206.538574,4162.307617,4316.153809,4242.436035,4146.410156,4119.358887,4219.102539,4131.282227,4114.487305,4145.512695,4682.948730,4473.077148,4442.948730,4553.717773,6030.000000,3.000000,73.000000,,,,0.000000,4.000000,4.000000,4.000000,4.000000,4.000000,4.000000,4.000000,4.000000,4.000000,4.000000,4.000000,4.000000,4.000000,4.000000,100.000000,,,,,,,,,,,,,,,,,,,,,,,,,,,,
1703163581.595067,1703163581.596002,16.000000,0.000000,4198.717773,4140.128418,4311.922852,4232.820313,4148.589844,4118.077148,4217.307617,4138.974121,4127.051270,4157.179688,4717.179688,4474.102539,4437.948730,4549.102539,0.000000,3.000000,73.000000,,,,0.000000,4.000000,4.000000,4.000000,4.000000,4.000000,4.000000,4.000000,4.000000,4.000000,4.000000,4.000000,4.000000,4.000000,4.000000,100.000000,,,,,,,,,,,,,,,,,4.000000,0.000000,0.691598,0.061523,-0.697998,0.175232,0.973752,-0.169454,0.011720,-11.835414,-42.313240,62.941154
