title:مريان حمام, start timestamp:1703413807.038084, stop timestamp:1703413818.289488, headset type:EPOCX, headset serial:E50206EF, headset firmware:720, channels:67, sampling rate:eeg_128;mot_32, samples:1098      , version:2.2, 
Timestamp,OriginalTimestamp,EEG.Counter,EEG.Interpolated,EEG.AF3,EEG.F7,EEG.F3,EEG.FC5,EEG.T7,EEG.P7,EEG.O1,EEG.O2,EEG.P8,EEG.T8,EEG.FC6,EEG.F4,EEG.F8,EEG.AF4,EEG.RawCq,EEG.Battery,EEG.BatteryPercent,MarkerIndex,MarkerType,MarkerValueInt,EEG.MarkerHardware,CQ.AF3,CQ.F7,CQ.F3,CQ.FC5,CQ.T7,CQ.P7,CQ.O1,CQ.O2,CQ.P8,CQ.T8,CQ.FC6,CQ.F4,CQ.F8,CQ.AF4,CQ.Overall,EQ.SampleRateQuality,EQ.OVERALL,EQ.AF3,EQ.F7,EQ.F3,EQ.FC5,EQ.T7,EQ.P7,EQ.O1,EQ.O2,EQ.P8,EQ.T8,EQ.FC6,EQ.F4,EQ.F8,EQ.AF4,MOT.CounterMems,MOT.InterpolatedMems,MOT.Q0,MOT.Q1,MOT.Q2,MOT.Q3,MOT.AccX,MOT.AccY,MOT.AccZ,MOT.MagX,MOT.MagY,MOT.MagZ
1703413807.038084,1703413807.041618,1.000000,0.000000,4274.487305,4248.333496,4288.333496,4286.538574,4250.128418,4342.820313,4284.743652,4231.282227,4213.461426,4205.000000,4517.051270,4456.922852,4345.641113,4436.666504,5415.000000,3.000000,58.000000,,,,0.000000,4.000000,4.000000,4.000000,4.000000,4.000000,4.000000,4.000000,4.000000,4.000000,4.000000,4.000000,4.000000,4.000000,4.000000,100.000000,,,,,,,,,,,,,,,,,,,,,,,,,,,,
1703413807.045892,1703413807.049326,2.000000,0.000000,4259.358887,4230.512695,4279.615234,4277.179688,4236.538574,4342.820313,4280.256348,4230.000000,4211.794922,4196.025879,4501.666504,4441.794922,4329.102539,4418.846191,5096.000000,3.000000,58.000000,,,,0.000000,4.000000,4.000000,4.000000,4.000000,4.000000,4.000000,4.000000,4.000000,4.000000,4.000000,4.000000,4.000000,4.000000,4.000000,100.000000,,,,,,,,,,,,,,,,,,,,,,,,,,,,
1703413807.053700,1703413807.057134,3.000000,0.000000,4264.743652,4224.358887,4283.846191,4275.769043,4228.461426,4340.512695,4280.897461,4228.974121,4214.102539,4201.410156,4505.000000,4445.769043,4344.871582,4423.205078,5297.000000,3.000000,58.000000,,,,0.000000,4.000000,4.000000,4.000000,4.000000,4.000000,4.000000,4.000000,4.000000,4.000000,4.000000,4.000000,4.000000,4.000000,4.000000,100.000000,,,,,,,,,,,,,,,,,,,,,,,,,,,,
1703413807.061508,1703413807.064842,4.000000,0.000000,4274.615234,4241.153809,4288.077148,4283.205078,4235.769043,4351.282227,4283.205078,4237.948730,4214.358887,4220.769043,4514.358887,4459.743652,4351.666504,4437.948730,5153.000000,3.000000,58.000000,,,,0.000000,4.000000,4.000000,4.000000,4.000000,4.000000,4.000000,4.000000,4.000000,4.000000,4.000000,4.000000,4.000000,4.000000,4.000000,100.000000,,,,,,,,,,,,,,,,,1.000000,0.000000,0.380832,0.616089,-0.253723,0.641113,0.997680,0.154316,0.115737,-19.710100,-32.054920,66.133438
1703413807.069316,1703413807.072650,5.000000,0.000000,4266.922852,4238.205078,4284.230957,4284.230957,4245.897461,4366.025879,4287.820313,4254.743652,4224.487305,4228.589844,4522.307617,4463.846191,4343.589844,4441.282227,4460.000000,3.000000,58.000000,,,,0.000000,4.000000,4.000000,4.000000,4.000000,4.000000,4.000000,4.000000,4.000000,4.000000,4.000000,4.000000,4.000000,4.000000,4.000000,100.000000,,,,,,,,,,,,,,,,,,,,,,,,,,,,
1703413807.077124,1703413807.080358,6.000000,0.000000,4267.436035,4233.846191,4286.794922,4284.615234,4247.820313,4372.948730,4291.410156,4260.512695,4234.871582,4223.461426,4528.974121,4464.615234,4360.000000,4444.743652,2705.000000,3.000000,58.000000,,,,0.000000,4.000000,4.000000,4.000000,4.000000,4.000000,4.000000,4.000000,4.000000,4.000000,4.000000,4.000000,4.000000,4.000000,4.000000,100.000000,,,,,,,,,,,,,,,,,,,,,,,,,,,,
1703413807.084932,1703413807.088166,7.000000,0.000000,4281.666504,4244.743652,4290.128418,4291.025879,4239.102539,4374.230957,4288.333496,4249.487305,4224.358887,4223.205078,4520.384766,4465.000000,4370.769043,4447.948730,4771.000000,3.000000,58.000000,,,,0.000000,4.000000,4.000000,4.000000,4.000000,4.000000,4.000000,4.000000,4.000000,4.000000,4.000000,4.000000,4.000000,4.000000,4.000000,100.000000,,,,,,,,,,,,,,,,,,,,,,,,,,,,
1703413807.092740,1703413807.095874,8.000000,0.000000,4280.384766,4242.307617,4286.025879,4287.692383,4230.128418,4377.948730,4287.436035,4236.410156,4210.897461,4223.589844,4515.641113,4463.333496,4359.487305,4443.846191,4402.000000,3.000000,58.000000,,,,0.000000,4.000000,4.000000,4.000000,4.000000,4.000000,4.000000,4.000000,4.000000,4.000000,4.000000,4.000000,4.000000,4.000000,4.000000,100.000000,,,,,,,,,,,,,,,,,2.000000,0.000000,0.380853,0.616089,-0.253845,0.641052,0.969845,0.153827,0.117202,-19.639090,-32.132759,66.286758
1703413807.100548,1703413807.103782,9.000000,0.000000,4273.461426,4229.102539,4288.205078,4281.794922,4238.846191,4387.820313,4293.589844,4233.974121,4214.487305,4222.820313,4533.974121,4463.974121,4365.256348,4443.461426,5330.000000,3.000000,58.000000,,,,0.000000,4.000000,4.000000,4.000000,4.000000,4.000000,4.000000,4.000000,4.000000,4.000000,4.000000,4.000000,4.000000,4.000000,4.000000,100.000000,,,,,,,,,,,,,,,,,,,,,,,,,,,,
1703413807.108357,1703413807.111590,10.000000,0.000000,4278.077148,4233.717773,4293.205078,4287.820313,4248.205078,4397.307617,4294.871582,4236.153809,4218.846191,4224.358887,4543.333496,4463.846191,4376.666504,4449.743652,5896.000000,3.000000,58.000000,,,,0.000000,4.000000,4.000000,4.000000,4.000000,4.000000,4.000000,4.000000,4.000000,4.000000,4.000000,4.000000,4.000000,4.000000,4.000000,100.000000,,,,,,,,,,,,,,,,,,,,,,,,,,,,
1703413807.116165,1703413807.119398,11.000000,0.000000,4281.282227,4240.000000,4287.692383,4287.820313,4236.922852,4397.820313,4291.666504,4229.487305,4214.102539,4218.205078,4524.230957,4458.717773,4363.589844,4448.974121,6078.000000,3.000000,58.000000,,,,0.000000,4.000000,4.000000,4.000000,4.000000,4.000000,4.000000,4.000000,4.000000,4.000000,4.000000,4.000000,4.000000,4.000000,4.000000,100.000000,,,,,,,,,,,,,,,,,,,,,,,,,,,,
1703413807.123973,1703413807.127206,12.000000,0.000000,4277.436035,4230.641113,4284.102539,4278.077148,4234.230957,4399.358887,4293.333496,4222.307617,4213.205078,4217.820313,4515.128418,4458.205078,4360.769043,4443.589844,6579.000000,3.000000,58.000000,,,,0.000000,4.000000,4.000000,4.000000,4.000000,4.000000,4.000000,4.000000,4.000000,4.000000,4.000000,4.000000,4.000000,4.000000,4.000000,100.000000,,,,,,,,,,,,,,,,,3.000000,0.000000,0.380840,0.616211,-0.253723,0.640991,0.988402,0.143084,0.116713,-19.725182,-32.219486,66.358086
1703413807.131781,1703413807.135114,13.000000,0.000000,4275.128418,4228.717773,4286.538574,4279.871582,4251.794922,4410.256348,4296.666504,4235.641113,4219.615234,4233.461426,4531.282227,4464.358887,4378.717773,4449.358887,6559.000000,3.000000,58.000000,,,,0.000000,4.000000,4.000000,4.000000,4.000000,4.000000,4.000000,4.000000,4.000000,4.000000,4.000000,4.000000,4.000000,4.000000,4.000000,100.000000,,,,,,,,,,,,,,,,,,,,,,,,,,,,
1703413807.139589,1703413807.142921,14.000000,0.000000,4278.077148,4234.487305,4285.641113,4282.307617,4249.358887,4415.897461,4296.794922,4249.102539,4224.615234,4240.256348,4529.102539,4464.230957,4378.717773,4452.051270,5896.000000,3.000000,58.000000,,,,0.000000,4.000000,4.000000,4.000000,4.000000,4.000000,4.000000,4.000000,4.000000,4.000000,4.000000,4.000000,4.000000,4.000000,4.000000,100.000000,,,,,,,,,,,,,,,,,,,,,,,,,,,,
1703413807.147397,1703413807.150829,15.000000,0.000000,4277.051270,4229.230957,4284.358887,4277.051270,4230.897461,4412.436035,4296.282227,4247.563965,4219.871582,4226.153809,4518.205078,4461.410156,4368.974121,4445.128418,6078.000000,3.000000,58.000000,,,,0.000000,4.000000,4.000000,4.000000,4.000000,4.000000,4.000000,4.000000,4.000000,4.000000,4.000000,4.000000,4.000000,4.000000,4.000000,100.000000,,,,,,,,,,,,,,,,,,,,,,,,,,,,
1703413807.155205,1703413807.158737,16.000000,0.000000,4266.410156,4217.307617,4287.563965,4275.641113,4228.205078,4413.461426,4295.897461,4255.512695,4218.077148,4212.692383,4532.692383,4464.871582,4367.820313,4440.897461,0.000000,3.000000,58.000000,,,,0.000000,4.000000,4.000000,4.000000,4.000000,4.000000,4.000000,4.000000,4.000000,4.000000,4.000000,4.000000,4.000000,4.000000,4.000000,100.000000,,,,,,,,,,,,,,,,,4.000000,0.000000,0.380700,0.616272,-0.253784,0.640991,0.975217,0.145037,0.118667,-19.669331,-32.264202,66.255608
1703413807.163013,1703413807.166545,17.000000,0.000000,4265.256348,4218.589844,4289.230957,4275.769043,4229.230957,4422.563965,4296.538574,4269.871582,4224.487305,4212.051270,4532.948730,4468.846191,4365.000000,4441.794922,0.000000,3.000000,58.000000,,,,0.000000,4.000000,4.000000,4.000000,4.000000,4.000000,4.000000,4.000000,4.000000,4.000000,4.000000,4.000000,4.000000,4.000000,4.000000,100.000000,,,,,,,,,,,,,,,,,,,,,,,,,,,,
1703413807.170821,1703413807.174353,18.000000,0.000000,4278.589844,4231.538574,4290.769043,4280.897461,4230.256348,4428.846191,4301.025879,4265.641113,4223.846191,4218.333496,4517.692383,4470.256348,4368.589844,4450.128418,0.000000,3.000000,58.000000,,,,0.000000,4.000000,4.000000,4.000000,4.000000,4.000000,4.000000,4.000000,4.000000,4.000000,4.000000,4.000000,4.000000,4.000000,4.000000,100.000000,,,,,,,,,,,,,,,,,,,,,,,,,,,,
1703413807.178629,1703413807.182161,19.000000,0.000000,4283.846191,4235.384766,4293.589844,4283.461426,4240.897461,4427.820313,4301.410156,4253.077148,4218.589844,4223.461426,4528.333496,4475.384766,4377.307617,4462.563965,0.000000,3.000000,58.000000,,,,0.000000,4.000000,4.000000,4.000000,4.000000,4.000000,4.000000,4.000000,4.000000,4.000000,4.000000,4.000000,4.000000,4.000000,4.000000,100.000000,,,,,,,,,,,,,,,,,,,,,,,,,,,,
1703413807.186437,1703413807.189969,20.000000,0.000000,4280.769043,4229.743652,4293.974121,4277.051270,4247.436035,4429.615234,4299.102539,4248.717773,4216.282227,4229.743652,4541.794922,4477.948730,4378.333496,4469.102539,0.000000,3.000000,58.000000,,,,0.000000,4.000000,4.000000,4.000000,4.000000,4.000000,4.000000,4.000000,4.000000,4.000000,4.000000,4.000000,4.000000,4.000000,4.000000,100.000000,,,,,,,,,,,,,,,,,5.000000,0.000000,0.380803,0.616272,-0.253784,0.640930,0.975705,0.140154,0.119644,-19.769064,-32.154449,66.180046
1703413807.194245,1703413807.197777,21.000000,0.000000,4289.358887,4231.922852,4296.153809,4282.563965,4244.230957,4440.641113,4301.538574,4245.384766,4217.179688,4237.179688,4538.461426,4477.820313,4386.410156,4473.077148,0.000000,3.000000,58.000000,,,,0.000000,4.000000,4.000000,4.000000,4.000000,4.000000,4.000000,4.000000,4.000000,4.000000,4.000000,4.000000,4.000000,4.000000,4.000000,100.000000,,,,,,,,,,,,,,,,,,,,,,,,,,,,
1703413807.202053,1703413807.205485,22.000000,0.000000,4297.179688,4245.000000,4299.871582,4298.589844,4243.205078,4452.820313,4305.512695,4244.871582,4223.717773,4235.769043,4546.922852,4481.153809,4400.641113,4478.333496,0.000000,3.000000,58.000000,,,,0.000000,4.000000,4.000000,4.000000,4.000000,4.000000,4.000000,4.000000,4.000000,4.000000,4.000000,4.000000,4.000000,4.000000,4.000000,100.000000,,,,,,,,,,,,,,,,,,,,,,,,,,,,
1703413807.209861,1703413807.213393,23.000000,0.000000,4289.615234,4251.153809,4299.102539,4301.025879,4246.025879,4458.974121,4306.666504,4244.871582,4228.077148,4230.512695,4556.410156,4479.615234,4397.051270,4479.230957,0.000000,3.000000,58.000000,,,,0.000000,4.000000,4.000000,4.000000,4.000000,4.000000,4.000000,4.000000,4.000000,4.000000,4.000000,4.000000,4.000000,4.000000,4.000000,100.000000,,,,,,,,,,,,,,,,,,,,,,,,,,,,
1703413807.217669,1703413807.221201,24.000000,0.000000,4280.384766,4247.692383,4295.512695,4296.282227,4250.000000,4459.871582,4308.461426,4236.282227,4220.512695,4236.282227,4544.230957,4470.384766,4387.436035,4474.615234,0.000000,3.000000,58.000000,,,,0.000000,4.000000,4.000000,4.000000,4.000000,4.000000,4.000000,4.000000,4.000000,4.000000,4.000000,4.000000,4.000000,4.000000,4.000000,100.000000,,,,,,,,,,,,,,,,,6.000000,0.000000,0.380700,0.616272,-0.253784,0.640991,0.965938,0.152362,0.104993,-19.642157,-32.222340,66.112045
1703413807.225477,1703413807.229009,25.000000,0.000000,4275.512695,4243.461426,4290.512695,4296.153809,4249.743652,4457.307617,4309.102539,4229.230957,4213.333496,4246.282227,4532.563965,4461.538574,4391.410156,4466.025879,0.000000,3.000000,58.000000,,,,0.000000,4.000000,4.000000,4.000000,4.000000,4.000000,4.000000,4.000000,4.000000,4.000000,4.000000,4.000000,4.000000,4.000000,4.000000,100.000000,,,,,,,,,,,,,,,,,,,,,,,,,,,,
1703413807.233285,1703413807.236817,26.000000,0.000000,4275.897461,4235.769043,4289.102539,4295.128418,4240.128418,4457.307617,4308.461426,4234.871582,4217.692383,4242.563965,4534.102539,4458.589844,4396.922852,4457.436035,0.000000,3.000000,58.000000,,,,0.000000,4.000000,4.000000,4.000000,4.000000,4.000000,4.000000,4.000000,4.000000,4.000000,4.000000,4.000000,4.000000,4.000000,4.000000,100.000000,,,,,,,,,,,,,,,,,,,,,,,,,,,,
1703413807.241094,1703413807.244525,27.000000,0.000000,4278.077148,4231.025879,4293.205078,4295.256348,4232.307617,4463.589844,4312.051270,4250.641113,4224.743652,4230.384766,4547.179688,4466.922852,4397.051270,4458.461426,0.000000,3.000000,58.000000,,,,0.000000,4.000000,4.000000,4.000000,4.000000,4.000000,4.000000,4.000000,4.000000,4.000000,4.000000,4.000000,4.000000,4.000000,4.000000,100.000000,,,,,,,,,,,,,,,,,,,,,,,,,,,,
1703413807.248901,1703413807.252433,28.000000,0.000000,4271.794922,4234.102539,4291.538574,4290.128418,4234.487305,4463.461426,4310.897461,4264.102539,4233.205078,4230.512695,4553.333496,4477.307617,4394.743652,4462.179688,0.000000,3.000000,58.000000,,,,0.000000,4.000000,4.000000,4.000000,4.000000,4.000000,4.000000,4.000000,4.000000,4.000000,4.000000,4.000000,4.000000,4.000000,4.000000,100.000000,,,,,,,,,,,,,,,,,7.000000,0.000000,0.380646,0.616394,-0.253723,0.640930,0.971798,0.144549,0.115737,-19.661274,-32.200104,66.100838
1703413807.256709,1703413807.260241,29.000000,0.000000,4260.769043,4224.615234,4281.794922,4276.666504,4233.846191,4458.205078,4305.384766,4269.487305,4233.205078,4232.179688,4541.666504,4471.538574,4388.974121,4458.589844,0.000000,3.000000,58.000000,,,,0.000000,4.000000,4.000000,4.000000,4.000000,4.000000,4.000000,4.000000,4.000000,4.000000,4.000000,4.000000,4.000000,4.000000,4.000000,100.000000,,,,,,,,,,,,,,,,,,,,,,,,,,,,
1703413807.264518,1703413807.268049,30.000000,0.000000,4263.077148,4217.563965,4280.384766,4275.641113,4232.307617,4465.641113,4309.871582,4266.025879,4221.282227,4230.512695,4537.179688,4463.077148,4389.615234,4457.692383,0.000000,3.000000,58.000000,,,,0.000000,4.000000,4.000000,4.000000,4.000000,4.000000,4.000000,4.000000,4.000000,4.000000,4.000000,4.000000,4.000000,4.000000,4.000000,100.000000,,,,,,,,,,,,,,,,,,,,,,,,,,,,
1703413807.272326,1703413807.275757,31.000000,0.000000,4274.358887,4232.436035,4287.820313,4284.871582,4236.025879,4475.641113,4316.666504,4256.282227,4216.666504,4235.769043,4539.358887,4465.000000,4393.589844,4461.666504,0.000000,3.000000,58.000000,,,,0.000000,4.000000,4.000000,4.000000,4.000000,4.000000,4.000000,4.000000,4.000000,4.000000,4.000000,4.000000,4.000000,4.000000,4.000000,100.000000,,,,,,,,,,,,,,,,,,,,,,,,,,,,
1703413807.280134,1703413807.283665,32.000000,0.000000,4276.538574,4239.615234,4290.897461,4288.205078,4237.051270,4473.333496,4314.230957,4244.102539,4218.461426,4237.948730,4539.615234,4463.846191,4394.487305,4463.077148,0.000000,3.000000,58.000000,,,,0.000000,4.000000,4.000000,4.000000,4.000000,4.000000,4.000000,4.000000,4.000000,4.000000,4.000000,4.000000,4.000000,4.000000,4.000000,100.000000,,,,,,,,,,,,,,,,,8.000000,0.000000,0.380679,0.616272,-0.253662,0.641052,0.987914,0.138689,0.118667,-19.761814,-32.263428,66.124092
1703413807.287942,1703413807.291573,33.000000,0.000000,4276.025879,4231.666504,4288.846191,4291.666504,4236.153809,4473.205078,4312.307617,4234.871582,4216.922852,4232.436035,4547.307617,4467.179688,4398.846191,4470.897461,0.000000,3.000000,58.000000,,,,0.000000,4.000000,4.000000,4.000000,4.000000,4.000000,4.000000,4.000000,4.000000,4.000000,4.000000,4.000000,4.000000,4.000000,4.000000,100.000000,,,,,,,,,,,,,,,,,,,,,,,,,,,,
1703413807.295750,1703413807.299381,34.000000,0.000000,4280.128418,4234.102539,4291.025879,4299.230957,4240.384766,4479.871582,4314.358887,4233.461426,4216.922852,4232.820313,4547.307617,4472.051270,4401.153809,4473.717773,0.000000,3.000000,58.000000,,,,0.000000,4.000000,4.000000,4.000000,4.000000,4.000000,4.000000,4.000000,4.000000,4.000000,4.000000,4.000000,4.000000,4.000000,4.000000,100.000000,,,,,,,,,,,,,,,,,,,,,,,,,,,,
1703413807.303558,1703413807.307288,35.000000,0.000000,4281.538574,4241.282227,4292.436035,4299.487305,4244.102539,4478.077148,4312.179688,4230.384766,4217.820313,4238.846191,4534.743652,4463.461426,4397.692383,4463.077148,0.000000,3.000000,58.000000,,,,0.000000,4.000000,4.000000,4.000000,4.000000,4.000000,4.000000,4.000000,4.000000,4.000000,4.000000,4.000000,4.000000,4.000000,4.000000,100.000000,,,,,,,,,,,,,,,,,,,,,,,,,,,,
1703413807.311366,1703413807.315096,36.000000,0.000000,4280.128418,4235.128418,4289.230957,4295.641113,4243.974121,4476.025879,4312.051270,4228.974121,4217.948730,4235.641113,4533.461426,4461.666504,4392.563965,4459.230957,0.000000,3.000000,58.000000,,,,0.000000,4.000000,4.000000,4.000000,4.000000,4.000000,4.000000,4.000000,4.000000,4.000000,4.000000,4.000000,4.000000,4.000000,4.000000,100.000000,,,,,,,,,,,,,,,,,9.000000,0.000000,0.380700,0.616272,-0.253784,0.640991,0.970822,0.151386,0.104993,-19.752298,-32.420418,66.211678
1703413807.319174,1703413807.322904,37.000000,0.000000,4275.897461,4228.333496,4291.410156,4293.717773,4246.410156,4484.871582,4315.769043,4239.358887,4224.615234,4231.282227,4537.820313,4471.282227,4386.282227,4464.871582,0.000000,3.000000,58.000000,,,,0.000000,4.000000,4.000000,4.000000,4.000000,4.000000,4.000000,4.000000,4.000000,4.000000,4.000000,4.000000,4.000000,4.000000,4.000000,100.000000,,,,,,,,,,,,,,,,,,,,,,,,,,,,
1703413807.326982,1703413807.330712,38.000000,0.000000,4267.820313,4227.307617,4292.948730,4287.179688,4243.589844,4490.769043,4318.974121,4247.692383,4226.922852,4230.128418,4533.717773,4468.077148,4382.051270,4461.794922,0.000000,3.000000,58.000000,,,,0.000000,4.000000,4.000000,4.000000,4.000000,4.000000,4.000000,4.000000,4.000000,4.000000,4.000000,4.000000,4.000000,4.000000,4.000000,100.000000,,,,,,,,,,,,,,,,,,,,,,,,,,,,
1703413807.334790,1703413807.338520,39.000000,0.000000,4260.256348,4230.512695,4284.871582,4281.794922,4232.179688,4489.102539,4317.948730,4250.128418,4220.000000,4221.538574,4543.974121,4459.230957,4385.256348,4457.563965,0.000000,3.000000,58.000000,,,,0.000000,4.000000,4.000000,4.000000,4.000000,4.000000,4.000000,4.000000,4.000000,4.000000,4.000000,4.000000,4.000000,4.000000,4.000000,100.000000,,,,,,,,,,,,,,,,,,,,,,,,,,,,
1703413807.342598,1703413807.346428,40.000000,0.000000,4262.051270,4228.717773,4281.025879,4281.025879,4228.974121,4490.897461,4317.307617,4259.230957,4223.717773,4218.333496,4551.794922,4462.307617,4383.077148,4458.461426,0.000000,3.000000,58.000000,,,,0.000000,4.000000,4.000000,4.000000,4.000000,4.000000,4.000000,4.000000,4.000000,4.000000,4.000000,4.000000,4.000000,4.000000,4.000000,100.000000,1.000000,75.000000,4.000000,4.000000,4.000000,4.000000,4.000000,1.000000,4.000000,4.000000,4.000000,4.000000,4.000000,4.000000,4.000000,4.000000,10.000000,0.000000,0.380803,0.616272,-0.253784,0.640930,0.969845,0.153339,0.117202,-19.543736,-32.295044,66.140511
1703413807.350406,1703413807.354236,41.000000,0.000000,4267.179688,4219.615234,4287.179688,4278.205078,4233.205078,4495.000000,4322.051270,4267.051270,4233.333496,4230.897461,4541.282227,4468.077148,4382.307617,4457.307617,0.000000,3.000000,58.000000,,,,0.000000,4.000000,4.000000,4.000000,4.000000,4.000000,4.000000,4.000000,4.000000,4.000000,4.000000,4.000000,4.000000,4.000000,4.000000,100.000000,,,,,,,,,,,,,,,,,,,,,,,,,,,,
1703413807.358214,1703413807.362044,42.000000,0.000000,4263.461426,4218.333496,4286.666504,4276.538574,4232.692383,4489.871582,4322.692383,4262.820313,4229.615234,4236.410156,4535.256348,4468.717773,4390.128418,4457.948730,0.000000,3.000000,58.000000,,,,0.000000,4.000000,4.000000,4.000000,4.000000,4.000000,4.000000,4.000000,4.000000,4.000000,4.000000,4.000000,4.000000,4.000000,4.000000,100.000000,,,,,,,,,,,,,,,,,,,,,,,,,,,,
1703413807.366022,1703413807.369752,43.000000,0.000000,4257.179688,4213.205078,4284.102539,4278.077148,4227.692383,4483.846191,4316.922852,4262.563965,4224.358887,4225.897461,4534.358887,4468.077148,4379.358887,4458.589844,0.000000,3.000000,58.000000,,,,0.000000,4.000000,4.000000,4.000000,4.000000,4.000000,4.000000,4.000000,4.000000,4.000000,4.000000,4.000000,4.000000,4.000000,4.000000,100.000000,,,,,,,,,,,,,,,,,,,,,,,,,,,,
1703413807.373830,1703413807.377660,44.000000,0.000000,4259.871582,4206.538574,4290.897461,4274.871582,4230.512695,4490.512695,4317.436035,4263.205078,4226.922852,4227.051270,4541.794922,4474.743652,4374.102539,4459.871582,0.000000,3.000000,58.000000,,,,0.000000,4.000000,4.000000,4.000000,4.000000,4.000000,4.000000,4.000000,4.000000,4.000000,4.000000,4.000000,4.000000,4.000000,4.000000,100.000000,,,,,,,,,,,,,,,,,11.000000,0.000000,0.380646,0.616394,-0.253723,0.640930,0.988402,0.147967,0.111342,-19.522696,-32.298870,66.243126
1703413807.381638,1703413807.385468,45.000000,0.000000,4267.563965,4219.230957,4296.410156,4275.384766,4236.922852,4496.794922,4323.974121,4253.461426,4223.846191,4238.077148,4553.846191,4479.487305,4397.051270,4464.743652,0.000000,3.000000,58.000000,,,,0.000000,4.000000,4.000000,4.000000,4.000000,4.000000,4.000000,4.000000,4.000000,4.000000,4.000000,4.000000,4.000000,4.000000,4.000000,100.000000,,,,,,,,,,,,,,,,,,,,,,,,,,,,
1703413807.389446,1703413807.393376,46.000000,0.000000,4268.717773,4237.051270,4293.717773,4285.000000,4235.897461,4495.256348,4323.589844,4248.333496,4215.769043,4228.077148,4548.717773,4467.948730,4399.102539,4459.102539,0.000000,3.000000,58.000000,,,,0.000000,4.000000,4.000000,4.000000,4.000000,4.000000,4.000000,4.000000,4.000000,4.000000,4.000000,4.000000,4.000000,4.000000,4.000000,100.000000,,,,,,,,,,,,,,,,,,,,,,,,,,,,
1703413807.397255,1703413807.401184,47.000000,0.000000,4262.692383,4236.794922,4282.820313,4284.487305,4233.717773,4499.358887,4323.461426,4245.769043,4216.922852,4213.461426,4526.153809,4451.282227,4368.205078,4440.641113,0.000000,3.000000,58.000000,,,,0.000000,4.000000,4.000000,4.000000,4.000000,4.000000,4.000000,4.000000,4.000000,4.000000,4.000000,4.000000,4.000000,4.000000,4.000000,100.000000,,,,,,,,,,,,,,,,,,,,,,,,,,,,
1703413807.405063,1703413807.408992,48.000000,0.000000,4259.358887,4232.563965,4277.948730,4279.358887,4235.512695,4507.692383,4328.974121,4243.333496,4225.000000,4221.410156,4517.307617,4449.487305,4355.128418,4437.307617,0.000000,3.000000,58.000000,,,,0.000000,4.000000,4.000000,4.000000,4.000000,4.000000,4.000000,4.000000,4.000000,4.000000,4.000000,4.000000,4.000000,4.000000,4.000000,100.000000,,,,,,,,,,,,,,,,,12.000000,0.000000,0.380485,0.616455,-0.253662,0.640991,0.981565,0.143572,0.118667,-19.537092,-32.202316,66.152145
1703413807.412871,1703413807.416700,49.000000,0.000000,4265.128418,4235.384766,4288.077148,4284.871582,4230.128418,4507.948730,4331.538574,4257.179688,4231.025879,4228.333496,4527.820313,4464.487305,4370.641113,4455.256348,0.000000,3.000000,58.000000,,,,0.000000,4.000000,4.000000,4.000000,4.000000,4.000000,4.000000,4.000000,4.000000,4.000000,4.000000,4.000000,4.000000,4.000000,4.000000,100.000000,,,,,,,,,,,,,,,,,,,,,,,,,,,,
1703413807.420679,1703413807.424408,50.000000,0.000000,4274.102539,4230.769043,4296.153809,4287.307617,4229.230957,4506.282227,4329.358887,4269.358887,4236.538574,4217.563965,4539.102539,4477.307617,4380.641113,4464.102539,0.000000,3.000000,58.000000,,,,0.000000,4.000000,4.000000,4.000000,4.000000,4.000000,4.000000,4.000000,4.000000,4.000000,4.000000,4.000000,4.000000,4.000000,4.000000,100.000000,,,,,,,,,,,,,,,,,,,,,,,,,,,,
1703413807.428487,1703413807.432316,51.000000,0.000000,4278.974121,4225.641113,4291.666504,4278.717773,4239.487305,4501.922852,4326.666504,4256.410156,4233.077148,4215.000000,4538.205078,4468.846191,4377.436035,4453.717773,0.000000,3.000000,58.000000,,,,0.000000,4.000000,4.000000,4.000000,4.000000,4.000000,4.000000,4.000000,4.000000,4.000000,4.000000,4.000000,4.000000,4.000000,4.000000,100.000000,,,,,,,,,,,,,,,,,,,,,,,,,,,,
1703413807.436295,1703413807.440224,52.000000,0.000000,4274.743652,4231.025879,4288.846191,4279.743652,4243.461426,4495.256348,4329.358887,4244.102539,4216.153809,4219.230957,4521.666504,4456.538574,4367.563965,4444.615234,0.000000,3.000000,58.000000,,,,0.000000,4.000000,4.000000,4.000000,4.000000,4.000000,4.000000,4.000000,4.000000,4.000000,4.000000,4.000000,4.000000,4.000000,4.000000,100.000000,,,,,,,,,,,,,,,,,13.000000,0.000000,0.380332,0.616638,-0.253601,0.640930,0.973752,0.147967,0.104017,-19.433384,-32.215420,66.220268
1703413807.444103,1703413807.448032,53.000000,0.000000,4266.922852,4239.871582,4291.153809,4290.512695,4239.230957,4502.692383,4331.025879,4248.717773,4211.666504,4214.102539,4515.256348,4461.538574,4363.205078,4446.410156,0.000000,3.000000,58.000000,,,,0.000000,4.000000,4.000000,4.000000,4.000000,4.000000,4.000000,4.000000,4.000000,4.000000,4.000000,4.000000,4.000000,4.000000,4.000000,100.000000,,,,,,,,,,,,,,,,,,,,,,,,,,,,
1703413807.451911,1703413807.455840,54.000000,0.000000,4268.589844,4238.846191,4290.256348,4288.589844,4238.589844,4512.692383,4326.282227,4249.743652,4218.077148,4216.922852,4524.743652,4466.153809,4367.179688,4447.307617,0.000000,3.000000,58.000000,,,,0.000000,4.000000,4.000000,4.000000,4.000000,4.000000,4.000000,4.000000,4.000000,4.000000,4.000000,4.000000,4.000000,4.000000,4.000000,100.000000,,,,,,,,,,,,,,,,,,,,,,,,,,,,
1703413807.459719,1703413807.463648,55.000000,0.000000,4275.128418,4227.436035,4287.307617,4277.436035,4236.025879,4498.717773,4323.461426,4243.717773,4203.974121,4220.769043,4524.102539,4457.692383,4362.820313,4440.256348,0.000000,3.000000,58.000000,,,,0.000000,4.000000,4.000000,4.000000,4.000000,4.000000,4.000000,4.000000,4.000000,4.000000,4.000000,4.000000,4.000000,4.000000,4.000000,100.000000,,,,,,,,,,,,,,,,,,,,,,,,,,,,
1703413807.467527,1703413807.471356,56.000000,0.000000,4277.051270,4230.384766,4285.384766,4284.358887,4232.563965,4491.153809,4329.358887,4242.948730,4197.307617,4210.897461,4526.153809,4459.871582,4360.384766,4442.948730,0.000000,3.000000,58.000000,,,,0.000000,4.000000,4.000000,4.000000,4.000000,4.000000,4.000000,4.000000,4.000000,4.000000,4.000000,4.000000,4.000000,4.000000,4.000000,100.000000,,,,,,,,,,,,,,,,,14.000000,0.000000,0.380462,0.616760,-0.253418,0.640808,0.979612,0.132340,0.111342,-19.406712,-32.210545,66.298241
1703413807.475335,1703413807.479264,57.000000,0.000000,4280.256348,4241.666504,4289.487305,4302.307617,4239.230957,4512.051270,4337.051270,4247.948730,4222.307617,4217.820313,4541.153809,4478.205078,4374.743652,4460.000000,0.000000,3.000000,58.000000,,,,0.000000,4.000000,4.000000,4.000000,4.000000,4.000000,4.000000,4.000000,4.000000,4.000000,4.000000,4.000000,4.000000,4.000000,4.000000,100.000000,,,,,,,,,,,,,,,,,,,,,,,,,,,,
1703413807.483143,1703413807.487072,58.000000,0.000000,4282.563965,4236.794922,4292.948730,4292.692383,4244.230957,4511.922852,4333.589844,4247.948730,4230.897461,4237.307617,4545.384766,4479.871582,4386.410156,4466.922852,0.000000,3.000000,58.000000,,,,0.000000,4.000000,4.000000,4.000000,4.000000,4.000000,4.000000,4.000000,4.000000,4.000000,4.000000,4.000000,4.000000,4.000000,4.000000,100.000000,,,,,,,,,,,,,,,,,,,,,,,,,,,,
1703413807.490951,1703413807.494979,59.000000,0.000000,4278.846191,4230.256348,4290.384766,4277.051270,4239.743652,4491.025879,4326.666504,4246.538574,4219.230957,4236.153809,4535.384766,4464.358887,4378.717773,4460.128418,0.000000,3.000000,58.000000,,,,0.000000,4.000000,4.000000,4.000000,4.000000,4.000000,4.000000,4.000000,4.000000,4.000000,4.000000,4.000000,4.000000,4.000000,4.000000,100.000000,,,,,,,,,,,,,,,,,,,,,,,,,,,,
1703413807.498759,1703413807.502787,60.000000,0.000000,4277.307617,4235.641113,4290.384766,4286.410156,4235.512695,4500.641113,4329.230957,4255.641113,4229.102539,4231.025879,4533.205078,4467.307617,4371.025879,4458.846191,0.000000,3.000000,58.000000,,,,0.000000,4.000000,4.000000,4.000000,4.000000,4.000000,4.000000,4.000000,4.000000,4.000000,4.000000,4.000000,4.000000,4.000000,4.000000,100.000000,,,,,,,,,,,,,,,,,15.000000,0.000000,0.380485,0.616821,-0.253235,0.640808,0.969845,0.139665,0.107435,-19.432707,-32.206158,66.485085
1703413807.506567,1703413807.510695,61.000000,0.000000,4278.589844,4238.589844,4293.589844,4292.051270,4237.051270,4513.589844,4332.948730,4269.358887,4242.436035,4231.538574,4544.358887,4480.256348,4376.666504,4460.000000,0.000000,3.000000,58.000000,,,,0.000000,4.000000,4.000000,4.000000,4.000000,4.000000,4.000000,4.000000,4.000000,4.000000,4.000000,4.000000,4.000000,4.000000,4.000000,100.000000,,,,,,,,,,,,,,,,,,,,,,,,,,,,
1703413807.514375,1703413807.518603,62.000000,0.000000,4270.769043,4230.128418,4289.615234,4277.563965,4228.205078,4488.717773,4326.410156,4264.615234,4225.769043,4214.230957,4537.051270,4470.256348,4366.538574,4447.820313,0.000000,3.000000,58.000000,,,,0.000000,4.000000,4.000000,4.000000,4.000000,4.000000,4.000000,4.000000,4.000000,4.000000,4.000000,4.000000,4.000000,4.000000,4.000000,100.000000,,,,,,,,,,,,,,,,,,,,,,,,,,,,
1703413807.522183,1703413807.526411,63.000000,0.000000,4261.410156,4217.948730,4283.205078,4271.666504,4214.102539,4473.333496,4321.666504,4251.666504,4203.717773,4193.717773,4516.922852,4456.666504,4347.436035,4433.846191,0.000000,3.000000,58.000000,,,,0.000000,4.000000,4.000000,4.000000,4.000000,4.000000,4.000000,4.000000,4.000000,4.000000,4.000000,4.000000,4.000000,4.000000,4.000000,100.000000,,,,,,,,,,,,,,,,,,,,,,,,,,,,
1703413807.529992,1703413807.534319,64.000000,0.000000,4260.384766,4215.000000,4281.538574,4279.615234,4220.769043,4486.025879,4327.307617,4253.205078,4197.051270,4196.282227,4515.000000,4458.589844,4345.897461,4433.589844,3715.000000,3.000000,58.000000,,,,0.000000,4.000000,4.000000,4.000000,4.000000,4.000000,4.000000,4.000000,4.000000,4.000000,4.000000,4.000000,4.000000,4.000000,4.000000,100.000000,,,,,,,,,,,,,,,,,16.000000,0.000000,0.380672,0.616882,-0.253113,0.640686,0.969845,0.151874,0.115248,-19.456102,-31.918875,66.419907
1703413807.537799,1703413807.542227,65.000000,0.000000,4266.794922,4224.358887,4279.743652,4283.846191,4235.897461,4493.461426,4330.769043,4256.666504,4208.846191,4209.102539,4522.436035,4460.641113,4355.128418,4439.230957,5412.000000,3.000000,58.000000,,,,0.000000,4.000000,4.000000,4.000000,4.000000,4.000000,4.000000,4.000000,4.000000,4.000000,4.000000,4.000000,4.000000,4.000000,4.000000,100.000000,,,,,,,,,,,,,,,,,,,,,,,,,,,,
1703413807.545607,1703413807.550035,66.000000,0.000000,4274.743652,4231.282227,4280.897461,4288.974121,4240.897461,4502.820313,4331.922852,4254.615234,4231.025879,4217.820313,4530.641113,4461.025879,4374.487305,4444.743652,5086.000000,3.000000,58.000000,,,,0.000000,4.000000,4.000000,4.000000,4.000000,4.000000,4.000000,4.000000,4.000000,4.000000,4.000000,4.000000,4.000000,4.000000,4.000000,100.000000,,,,,,,,,,,,,,,,,,,,,,,,,,,,
1703413807.553416,1703413807.557843,67.000000,0.000000,4276.282227,4232.051270,4285.897461,4291.922852,4244.358887,4513.333496,4334.743652,4247.436035,4235.512695,4216.538574,4543.205078,4460.256348,4381.794922,4445.256348,5247.000000,3.000000,58.000000,,,,0.000000,4.000000,4.000000,4.000000,4.000000,4.000000,4.000000,4.000000,4.000000,4.000000,4.000000,4.000000,4.000000,4.000000,4.000000,100.000000,,,,,,,,,,,,,,,,,,,,,,,,,,,,
1703413807.561224,1703413807.565651,68.000000,0.000000,4275.769043,4241.153809,4287.692383,4293.461426,4249.230957,4511.282227,4338.205078,4238.333496,4228.077148,4214.358887,4542.179688,4457.051270,4372.948730,4443.846191,5156.000000,3.000000,58.000000,,,,0.000000,4.000000,4.000000,4.000000,4.000000,4.000000,4.000000,4.000000,4.000000,4.000000,4.000000,4.000000,4.000000,4.000000,4.000000,100.000000,,,,,,,,,,,,,,,,,17.000000,0.000000,0.380852,0.616821,-0.252991,0.640686,0.995239,0.146991,0.108900,-19.443827,-31.926987,66.327919
1703413807.569032,1703413807.573459,69.000000,0.000000,4276.922852,4245.384766,4285.256348,4292.307617,4244.358887,4509.230957,4340.512695,4238.205078,4231.794922,4219.487305,4524.358887,4455.897461,4376.794922,4445.512695,4452.000000,3.000000,58.000000,,,,0.000000,4.000000,4.000000,4.000000,4.000000,4.000000,4.000000,4.000000,4.000000,4.000000,4.000000,4.000000,4.000000,4.000000,4.000000,100.000000,,,,,,,,,,,,,,,,,,,,,,,,,,,,
1703413807.576840,1703413807.581267,70.000000,0.000000,4275.641113,4235.128418,4283.846191,4288.461426,4237.051270,4505.384766,4336.922852,4244.871582,4232.436035,4213.461426,4520.769043,4456.794922,4381.538574,4445.256348,2702.000000,3.000000,58.000000,,,,0.000000,4.000000,4.000000,4.000000,4.000000,4.000000,4.000000,4.000000,4.000000,4.000000,4.000000,4.000000,4.000000,4.000000,4.000000,100.000000,,,,,,,,,,,,,,,,,,,,,,,,,,,,
1703413807.584648,1703413807.589075,71.000000,0.000000,4273.333496,4229.230957,4286.666504,4286.922852,4234.102539,4493.077148,4330.641113,4244.615234,4218.717773,4198.717773,4525.641113,4457.948730,4366.794922,4442.051270,4772.000000,3.000000,58.000000,,,,0.000000,4.000000,4.000000,4.000000,4.000000,4.000000,4.000000,4.000000,4.000000,4.000000,4.000000,4.000000,4.000000,4.000000,4.000000,100.000000,,,,,,,,,,,,,,,,,,,,,,,,,,,,
1703413807.592456,1703413807.596883,72.000000,0.000000,4275.000000,4230.769043,4289.615234,4286.922852,4231.410156,4494.743652,4331.410156,4241.025879,4218.205078,4203.717773,4530.128418,4464.358887,4368.846191,4442.179688,4398.000000,3.000000,58.000000,,,,0.000000,4.000000,4.000000,4.000000,4.000000,4.000000,4.000000,4.000000,4.000000,4.000000,4.000000,4.000000,4.000000,4.000000,4.000000,100.000000,,,,,,,,,,,,,,,,,18.000000,0.000000,0.380874,0.616821,-0.253113,0.640625,0.981565,0.140154,0.108412,-19.432777,-31.800955,66.295128
1703413807.600264,1703413807.604691,73.000000,0.000000,4278.077148,4232.179688,4291.282227,4289.487305,4231.410156,4504.615234,4335.512695,4246.538574,4229.358887,4212.179688,4547.436035,4474.102539,4390.641113,4448.846191,5315.000000,3.000000,58.000000,,,,0.000000,4.000000,4.000000,4.000000,4.000000,4.000000,4.000000,4.000000,4.000000,4.000000,4.000000,4.000000,4.000000,4.000000,4.000000,100.000000,,,,,,,,,,,,,,,,,,,,,,,,,,,,
1703413807.608072,1703413807.612499,74.000000,0.000000,4280.512695,4232.820313,4293.974121,4292.436035,4232.051270,4498.846191,4334.487305,4248.205078,4223.846191,4203.846191,4546.025879,4476.025879,4380.000000,4452.948730,5871.000000,3.000000,58.000000,,,,0.000000,4.000000,4.000000,4.000000,4.000000,4.000000,4.000000,4.000000,4.000000,4.000000,4.000000,4.000000,4.000000,4.000000,4.000000,100.000000,,,,,,,,,,,,,,,,,,,,,,,,,,,,
1703413807.615880,1703413807.620207,75.000000,0.000000,4280.641113,4235.000000,4296.153809,4297.692383,4231.025879,4491.666504,4332.692383,4247.051270,4213.846191,4202.563965,4529.487305,4473.974121,4363.589844,4454.230957,6060.000000,3.000000,58.000000,,,,0.000000,4.000000,4.000000,4.000000,4.000000,4.000000,4.000000,4.000000,4.000000,4.000000,4.000000,4.000000,4.000000,4.000000,4.000000,100.000000,,,,,,,,,,,,,,,,,,,,,,,,,,,,
1703413807.623688,1703413807.628115,76.000000,0.000000,4278.974121,4232.948730,4295.384766,4294.487305,4230.256348,4493.205078,4332.692383,4247.436035,4221.666504,4210.769043,4532.307617,4474.615234,4379.871582,4458.589844,6541.000000,3.000000,58.000000,,,,0.000000,4.000000,4.000000,4.000000,4.000000,4.000000,4.000000,4.000000,4.000000,4.000000,4.000000,4.000000,4.000000,4.000000,4.000000,100.000000,,,,,,,,,,,,,,,,,19.000000,0.000000,0.380833,0.616821,-0.253174,0.640625,0.979612,0.158711,0.111342,-19.356167,-31.754192,66.315613
1703413807.631496,1703413807.635922,77.000000,0.000000,4284.230957,4231.282227,4295.256348,4285.256348,4233.077148,4493.846191,4333.846191,4244.487305,4231.538574,4206.794922,4542.820313,4478.205078,4394.487305,4460.000000,6556.000000,3.000000,58.000000,,,,0.000000,4.000000,4.000000,4.000000,4.000000,4.000000,4.000000,4.000000,4.000000,4.000000,4.000000,4.000000,4.000000,4.000000,4.000000,100.000000,,,,,,,,,,,,,,,,,,,,,,,,,,,,
1703413807.639304,1703413807.643830,78.000000,0.000000,4292.692383,4239.487305,4296.922852,4288.333496,4237.948730,4494.102539,4338.077148,4244.487305,4230.256348,4203.077148,4545.512695,4477.051270,4386.922852,4458.589844,5871.000000,3.000000,58.000000,,,,0.000000,4.000000,4.000000,4.000000,4.000000,4.000000,4.000000,4.000000,4.000000,4.000000,4.000000,4.000000,4.000000,4.000000,4.000000,100.000000,,,,,,,,,,,,,,,,,,,,,,,,,,,,
1703413807.647112,1703413807.651638,79.000000,0.000000,4291.410156,4242.692383,4295.641113,4296.794922,4237.948730,4494.358887,4340.384766,4247.307617,4229.615234,4207.948730,4552.307617,4477.051270,4390.769043,4464.230957,6060.000000,3.000000,58.000000,,,,0.000000,4.000000,4.000000,4.000000,4.000000,4.000000,4.000000,4.000000,4.000000,4.000000,4.000000,4.000000,4.000000,4.000000,4.000000,100.000000,,,,,,,,,,,,,,,,,,,,,,,,,,,,
1703413807.654920,1703413807.659446,80.000000,0.000000,4291.538574,4241.922852,4295.512695,4296.922852,4237.051270,4494.487305,4339.358887,4247.692383,4233.589844,4218.205078,4561.282227,4483.717773,4413.461426,4478.077148,6541.000000,3.000000,58.000000,,,,0.000000,4.000000,4.000000,4.000000,4.000000,4.000000,4.000000,4.000000,4.000000,4.000000,4.000000,4.000000,4.000000,4.000000,4.000000,100.000000,,,,,,,,,,,,,,,,,20.000000,0.000000,0.380870,0.616760,-0.253113,0.640686,0.977658,0.141619,0.112318,-19.487215,-31.695440,66.284050
1703413807.662728,1703413807.667154,81.000000,0.000000,4295.000000,4251.922852,4296.794922,4297.179688,4238.461426,4497.692383,4339.487305,4244.230957,4237.820313,4233.974121,4551.282227,4482.692383,4410.128418,4478.205078,6556.000000,3.000000,58.000000,,,,0.000000,4.000000,4.000000,4.000000,4.000000,4.000000,4.000000,4.000000,4.000000,4.000000,4.000000,4.000000,4.000000,4.000000,4.000000,100.000000,,,,,,,,,,,,,,,,,,,,,,,,,,,,
1703413807.670536,1703413807.675062,82.000000,0.000000,4287.051270,4246.794922,4292.436035,4294.230957,4235.769043,4487.563965,4335.897461,4239.230957,4233.717773,4237.436035,4540.769043,4473.717773,4394.615234,4465.128418,5871.000000,3.000000,58.000000,,,,0.000000,4.000000,4.000000,4.000000,4.000000,4.000000,4.000000,4.000000,4.000000,4.000000,4.000000,4.000000,4.000000,4.000000,4.000000,100.000000,,,,,,,,,,,,,,,,,,,,,,,,,,,,
1703413807.678344,1703413807.682870,83.000000,0.000000,4277.179688,4227.436035,4287.563965,4285.256348,4231.410156,4472.436035,4331.666504,4232.436035,4222.307617,4218.974121,4541.538574,4468.077148,4396.794922,4461.153809,6060.000000,3.000000,58.000000,,,,0.000000,4.000000,4.000000,4.000000,4.000000,4.000000,4.000000,4.000000,4.000000,4.000000,4.000000,4.000000,4.000000,4.000000,4.000000,100.000000,,,,,,,,,,,,,,,,,,,,,,,,,,,,
1703413807.686153,1703413807.690678,84.000000,0.000000,4278.846191,4232.179688,4287.948730,4289.230957,4231.538574,4482.563965,4336.025879,4231.922852,4221.282227,4207.820313,4540.512695,4468.461426,4392.436035,4465.000000,6541.000000,3.000000,58.000000,,,,0.000000,4.000000,4.000000,4.000000,4.000000,4.000000,4.000000,4.000000,4.000000,4.000000,4.000000,4.000000,4.000000,4.000000,4.000000,100.000000,,,,,,,,,,,,,,,,,21.000000,0.000000,0.380704,0.616699,-0.253357,0.640747,0.993774,0.143572,0.114760,-19.655161,-31.809229,66.172310
1703413807.693961,1703413807.698486,85.000000,0.000000,4281.922852,4237.563965,4291.922852,4287.692383,4236.282227,4494.102539,4338.077148,4240.384766,4231.153809,4214.487305,4547.307617,4472.692383,4388.589844,4465.256348,6556.000000,3.000000,58.000000,,,,0.000000,4.000000,4.000000,4.000000,4.000000,4.000000,4.000000,4.000000,4.000000,4.000000,4.000000,4.000000,4.000000,4.000000,4.000000,100.000000,,,,,,,,,,,,,,,,,,,,,,,,,,,,
1703413807.701769,1703413807.706294,86.000000,0.000000,4279.743652,4231.282227,4295.897461,4280.128418,4239.102539,4486.922852,4336.282227,4247.051270,4232.179688,4215.897461,4550.897461,4475.769043,4398.333496,4463.717773,5871.000000,3.000000,58.000000,,,,0.000000,4.000000,4.000000,4.000000,4.000000,4.000000,4.000000,4.000000,4.000000,4.000000,4.000000,4.000000,4.000000,4.000000,4.000000,100.000000,,,,,,,,,,,,,,,,,,,,,,,,,,,,
1703413807.709577,1703413807.714002,87.000000,0.000000,4283.205078,4245.256348,4295.512695,4292.692383,4236.025879,4482.307617,4340.384766,4255.128418,4227.948730,4214.230957,4539.743652,4476.282227,4396.282227,4466.666504,6060.000000,3.000000,58.000000,,,,0.000000,4.000000,4.000000,4.000000,4.000000,4.000000,4.000000,4.000000,4.000000,4.000000,4.000000,4.000000,4.000000,4.000000,4.000000,100.000000,,,,,,,,,,,,,,,,,,,,,,,,,,,,
1703413807.717385,1703413807.721910,88.000000,0.000000,4290.128418,4253.461426,4293.077148,4302.820313,4232.436035,4486.153809,4343.846191,4262.436035,4232.436035,4217.948730,4539.487305,4478.333496,4392.948730,4474.358887,6541.000000,3.000000,58.000000,,,,0.000000,4.000000,4.000000,4.000000,4.000000,4.000000,4.000000,4.000000,4.000000,4.000000,4.000000,4.000000,4.000000,4.000000,4.000000,100.000000,,,,,,,,,,,,,,,,,22.000000,0.000000,0.380850,0.616699,-0.253601,0.640564,0.970822,0.142596,0.117690,-19.806313,-31.944973,66.238419
1703413807.725193,1703413807.729718,89.000000,0.000000,4292.948730,4241.282227,4293.589844,4296.025879,4231.794922,4488.333496,4340.000000,4260.000000,4236.153809,4216.666504,4556.538574,4482.436035,4405.384766,4478.461426,6556.000000,3.000000,58.000000,,,,0.000000,4.000000,4.000000,4.000000,4.000000,4.000000,4.000000,4.000000,4.000000,4.000000,4.000000,4.000000,4.000000,4.000000,4.000000,100.000000,,,,,,,,,,,,,,,,,,,,,,,,,,,,
1703413807.733001,1703413807.737526,90.000000,0.000000,4292.179688,4240.769043,4296.025879,4294.230957,4230.384766,4486.153809,4337.692383,4248.333496,4230.897461,4217.563965,4558.461426,4481.538574,4409.358887,4475.000000,5871.000000,3.000000,58.000000,,,,0.000000,4.000000,4.000000,4.000000,4.000000,4.000000,4.000000,4.000000,4.000000,4.000000,4.000000,4.000000,4.000000,4.000000,4.000000,100.000000,,,,,,,,,,,,,,,,,,,,,,,,,,,,
1703413807.740809,1703413807.745334,91.000000,0.000000,4291.538574,4243.717773,4295.384766,4296.282227,4231.794922,4477.307617,4337.051270,4235.897461,4220.641113,4224.871582,4549.487305,4478.717773,4407.051270,4472.948730,6060.000000,3.000000,58.000000,,,,0.000000,4.000000,4.000000,4.000000,4.000000,4.000000,4.000000,4.000000,4.000000,4.000000,4.000000,4.000000,4.000000,4.000000,4.000000,100.000000,,,,,,,,,,,,,,,,,,,,,,,,,,,,
1703413807.748617,1703413807.753242,92.000000,0.000000,4294.615234,4242.820313,4295.128418,4295.769043,4242.563965,4477.820313,4337.436035,4232.692383,4217.820313,4223.589844,4548.717773,4477.563965,4407.820313,4473.589844,6541.000000,3.000000,58.000000,,,,0.000000,4.000000,4.000000,4.000000,4.000000,4.000000,4.000000,4.000000,4.000000,4.000000,4.000000,4.000000,4.000000,4.000000,4.000000,100.000000,,,,,,,,,,,,,,,,,23.000000,0.000000,0.380935,0.616760,-0.253479,0.640503,0.977170,0.147479,0.115248,-19.792347,-31.967142,66.264572
1703413807.756425,1703413807.761050,93.000000,0.000000,4296.025879,4250.641113,4296.922852,4297.051270,4243.205078,4489.871582,4341.538574,4235.897461,4226.538574,4210.000000,4541.282227,4474.615234,4397.948730,4466.282227,6556.000000,3.000000,58.000000,,,,0.000000,4.000000,4.000000,4.000000,4.000000,4.000000,4.000000,4.000000,4.000000,4.000000,4.000000,4.000000,4.000000,4.000000,4.000000,100.000000,,,,,,,,,,,,,,,,,,,,,,,,,,,,
1703413807.764233,1703413807.768758,94.000000,0.000000,4290.641113,4252.563965,4292.051270,4292.563965,4229.743652,4481.282227,4338.846191,4233.333496,4221.794922,4197.436035,4535.641113,4469.230957,4391.282227,4458.461426,5871.000000,3.000000,58.000000,,,,0.000000,4.000000,4.000000,4.000000,4.000000,4.000000,4.000000,4.000000,4.000000,4.000000,4.000000,4.000000,4.000000,4.000000,4.000000,100.000000,,,,,,,,,,,,,,,,,,,,,,,,,,,,
1703413807.772041,1703413807.776566,95.000000,0.000000,4283.333496,4243.589844,4285.384766,4287.948730,4227.820313,4469.615234,4334.102539,4233.205078,4215.897461,4199.230957,4539.230957,4468.717773,4398.589844,4458.974121,6060.000000,3.000000,58.000000,,,,0.000000,4.000000,4.000000,4.000000,4.000000,4.000000,4.000000,4.000000,4.000000,4.000000,4.000000,4.000000,4.000000,4.000000,4.000000,100.000000,,,,,,,,,,,,,,,,,,,,,,,,,,,,
1703413807.779849,1703413807.784374,96.000000,0.000000,4281.153809,4236.282227,4287.948730,4287.436035,4235.384766,4476.282227,4336.025879,4242.948730,4226.282227,4217.051270,4540.512695,4473.461426,4400.897461,4461.153809,6541.000000,3.000000,58.000000,,,,0.000000,4.000000,4.000000,4.000000,4.000000,4.000000,4.000000,4.000000,4.000000,4.000000,4.000000,4.000000,4.000000,4.000000,4.000000,100.000000,,,,,,,,,,,,,,,,,24.000000,0.000000,0.381115,0.616699,-0.253357,0.640503,0.984984,0.127945,0.122085,-19.813112,-31.987095,66.338120
1703413807.787657,1703413807.792082,97.000000,0.000000,4278.461426,4231.666504,4290.769043,4277.179688,4232.948730,4470.384766,4335.256348,4241.410156,4219.487305,4224.230957,4532.563965,4471.153809,4389.871582,4458.077148,6556.000000,3.000000,58.000000,,,,0.000000,4.000000,4.000000,4.000000,4.000000,4.000000,4.000000,4.000000,4.000000,4.000000,4.000000,4.000000,4.000000,4.000000,4.000000,100.000000,,,,,,,,,,,,,,,,,,,,,,,,,,,,
1703413807.795465,1703413807.799990,98.000000,0.000000,4277.692383,4227.563965,4287.179688,4270.769043,4227.948730,4462.436035,4332.051270,4228.717773,4202.307617,4208.717773,4523.205078,4459.871582,4382.820313,4457.692383,5871.000000,3.000000,58.000000,,,,0.000000,4.000000,4.000000,4.000000,4.000000,4.000000,4.000000,4.000000,4.000000,4.000000,4.000000,4.000000,4.000000,4.000000,4.000000,100.000000,,,,,,,,,,,,,,,,,,,,,,,,,,,,
1703413807.803273,1703413807.807798,99.000000,0.000000,4288.205078,4227.948730,4288.974121,4284.871582,4230.000000,4473.589844,4336.282227,4228.589844,4211.538574,4198.461426,4526.666504,4459.615234,4389.102539,4459.871582,6060.000000,3.000000,58.000000,,,,0.000000,4.000000,4.000000,4.000000,4.000000,4.000000,4.000000,4.000000,4.000000,4.000000,4.000000,4.000000,4.000000,4.000000,4.000000,100.000000,,,,,,,,,,,,,,,,,,,,,,,,,,,,
1703413807.811081,1703413807.815606,100.000000,0.000000,4296.282227,4238.974121,4295.000000,4295.897461,4235.000000,4480.128418,4343.333496,4231.282227,4223.589844,4196.794922,4530.128418,4467.692383,4393.333496,4456.922852,6541.000000,3.000000,58.000000,,,,0.000000,4.000000,4.000000,4.000000,4.000000,4.000000,4.000000,4.000000,4.000000,4.000000,4.000000,4.000000,4.000000,4.000000,4.000000,100.000000,,,,,,,,,,,,,,,,,25.000000,0.000000,0.381074,0.616699,-0.253418,0.640503,0.988890,0.146014,0.108900,-19.798468,-32.005051,66.237640
1703413807.818889,1703413807.823414,101.000000,0.000000,4292.563965,4248.205078,4294.743652,4291.922852,4244.102539,4475.128418,4341.538574,4232.820313,4218.333496,4195.256348,4534.743652,4472.948730,4393.077148,4461.410156,6556.000000,3.000000,58.000000,,,,0.000000,4.000000,4.000000,4.000000,4.000000,4.000000,4.000000,4.000000,4.000000,4.000000,4.000000,4.000000,4.000000,4.000000,4.000000,100.000000,,,,,,,,,,,,,,,,,,,,,,,,,,,,
1703413807.826697,1703413807.831122,102.000000,0.000000,4292.307617,4247.179688,4292.820313,4293.461426,4248.333496,4476.794922,4340.128418,4242.692383,4221.666504,4205.256348,4543.077148,4479.743652,4400.512695,4474.487305,5871.000000,3.000000,58.000000,,,,0.000000,4.000000,4.000000,4.000000,4.000000,4.000000,4.000000,4.000000,4.000000,4.000000,4.000000,4.000000,4.000000,4.000000,4.000000,100.000000,,,,,,,,,,,,,,,,,,,,,,,,,,,,
1703413807.834505,1703413807.839030,103.000000,0.000000,4296.282227,4247.051270,4295.256348,4298.077148,4240.384766,4481.410156,4341.282227,4246.666504,4227.820313,4219.871582,4543.974121,4485.641113,4404.358887,4477.436035,6060.000000,3.000000,58.000000,,,,0.000000,4.000000,4.000000,4.000000,4.000000,4.000000,4.000000,4.000000,4.000000,4.000000,4.000000,4.000000,4.000000,4.000000,4.000000,100.000000,,,,,,,,,,,,,,,,,,,,,,,,,,,,
1703413807.842313,1703413807.846937,104.000000,0.000000,4294.871582,4243.589844,4300.641113,4291.922852,4230.000000,4474.487305,4338.205078,4242.436035,4226.666504,4226.025879,4550.769043,4488.846191,4400.128418,4470.128418,6541.000000,3.000000,58.000000,,,,0.000000,4.000000,4.000000,4.000000,4.000000,4.000000,4.000000,4.000000,4.000000,4.000000,4.000000,4.000000,4.000000,4.000000,4.000000,100.000000,1.000000,75.000000,4.000000,4.000000,4.000000,4.000000,4.000000,1.000000,4.000000,4.000000,4.000000,4.000000,4.000000,4.000000,4.000000,4.000000,26.000000,0.000000,0.381275,0.616638,-0.253418,0.640442,0.972775,0.148456,0.119644,-19.785288,-31.937880,66.263870
1703413807.850122,1703413807.854745,105.000000,0.000000,4297.051270,4240.256348,4306.922852,4293.205078,4231.538574,4466.922852,4338.333496,4248.077148,4232.948730,4234.230957,4565.128418,4495.256348,4408.974121,4474.615234,6556.000000,3.000000,58.000000,,,,0.000000,4.000000,4.000000,4.000000,4.000000,4.000000,4.000000,4.000000,4.000000,4.000000,4.000000,4.000000,4.000000,4.000000,4.000000,100.000000,,,,,,,,,,,,,,,,,,,,,,,,,,,,
1703413807.857930,1703413807.862553,106.000000,0.000000,4303.589844,4251.282227,4305.128418,4303.333496,4241.538574,4470.769043,4344.102539,4251.538574,4238.717773,4240.641113,4564.615234,4495.512695,4420.128418,4486.153809,5871.000000,3.000000,58.000000,,,,0.000000,4.000000,4.000000,4.000000,4.000000,4.000000,4.000000,4.000000,4.000000,4.000000,4.000000,4.000000,4.000000,4.000000,4.000000,100.000000,,,,,,,,,,,,,,,,,,,,,,,,,,,,
1703413807.865738,1703413807.870361,107.000000,0.000000,4296.538574,4249.230957,4297.948730,4293.589844,4242.948730,4474.358887,4345.128418,4241.666504,4232.692383,4232.820313,4551.666504,4484.615234,4411.153809,4481.025879,6060.000000,3.000000,58.000000,,,,0.000000,4.000000,4.000000,4.000000,4.000000,4.000000,4.000000,4.000000,4.000000,4.000000,4.000000,4.000000,4.000000,4.000000,4.000000,100.000000,,,,,,,,,,,,,,,,,,,,,,,,,,,,
1703413807.873546,1703413807.878169,108.000000,0.000000,4279.743652,4228.333496,4291.794922,4277.692383,4233.974121,4466.794922,4340.256348,4238.974121,4224.743652,4221.666504,4540.128418,4473.461426,4393.461426,4462.563965,6541.000000,3.000000,58.000000,,,,0.000000,4.000000,4.000000,4.000000,4.000000,4.000000,4.000000,4.000000,4.000000,4.000000,4.000000,4.000000,4.000000,4.000000,4.000000,100.000000,,,,,,,,,,,,,,,,,27.000000,0.000000,0.381239,0.616699,-0.253479,0.640381,0.972775,0.154804,0.119644,-19.706758,-32.027424,66.487488
1703413807.881354,1703413807.885977,109.000000,0.000000,4272.820313,4222.820313,4282.051270,4274.358887,4226.922852,4458.589844,4339.615234,4244.743652,4220.897461,4200.641113,4523.205078,4460.000000,4375.256348,4448.589844,6556.000000,3.000000,58.000000,,,,0.000000,4.000000,4.000000,4.000000,4.000000,4.000000,4.000000,4.000000,4.000000,4.000000,4.000000,4.000000,4.000000,4.000000,4.000000,100.000000,,,,,,,,,,,,,,,,,,,,,,,,,,,,
1703413807.889162,1703413807.893785,110.000000,0.000000,4275.384766,4221.025879,4278.333496,4274.358887,4230.641113,4457.948730,4339.743652,4243.717773,4216.410156,4172.051270,4518.333496,4451.410156,4367.179688,4446.666504,5871.000000,3.000000,58.000000,,,,0.000000,4.000000,4.000000,4.000000,4.000000,4.000000,4.000000,4.000000,4.000000,4.000000,4.000000,4.000000,4.000000,4.000000,4.000000,100.000000,,,,,,,,,,,,,,,,,,,,,,,,,,,,
1703413807.896970,1703413807.901593,111.000000,0.000000,4276.153809,4212.820313,4286.153809,4274.487305,4235.512695,4458.589844,4339.358887,4251.025879,4218.717773,4184.743652,4528.077148,4463.846191,4382.436035,4452.436035,6060.000000,3.000000,58.000000,,,,0.000000,4.000000,4.000000,4.000000,4.000000,4.000000,4.000000,4.000000,4.000000,4.000000,4.000000,4.000000,4.000000,4.000000,4.000000,100.000000,,,,,,,,,,,,,,,,,,,,,,,,,,,,
1703413807.904778,1703413807.909301,112.000000,0.000000,4275.128418,4223.205078,4292.820313,4278.205078,4230.641113,4456.282227,4342.692383,4263.461426,4232.179688,4223.333496,4533.974121,4479.358887,4398.461426,4462.051270,6541.000000,3.000000,58.000000,,,,0.000000,4.000000,4.000000,4.000000,4.000000,4.000000,4.000000,4.000000,4.000000,4.000000,4.000000,4.000000,4.000000,4.000000,4.000000,100.000000,,,,,,,,,,,,,,,,,28.000000,0.000000,0.381221,0.616760,-0.253357,0.640381,0.979612,0.143084,0.116713,-19.802750,-32.108017,66.555405
1703413807.912586,1703413807.917109,113.000000,0.000000,4280.641113,4235.128418,4296.666504,4278.589844,4220.897461,4449.230957,4342.051270,4258.461426,4235.128418,4229.743652,4548.205078,4484.871582,4394.743652,4468.717773,6556.000000,3.000000,58.000000,,,,0.000000,4.000000,4.000000,4.000000,4.000000,4.000000,4.000000,4.000000,4.000000,4.000000,4.000000,4.000000,4.000000,4.000000,4.000000,100.000000,,,,,,,,,,,,,,,,,,,,,,,,,,,,
1703413807.920394,1703413807.924817,114.000000,0.000000,4287.692383,4228.461426,4298.077148,4280.000000,4215.128418,4442.563965,4333.974121,4244.615234,4219.487305,4220.256348,4552.051270,4487.179688,4387.563965,4467.307617,5871.000000,3.000000,58.000000,,,,0.000000,4.000000,4.000000,4.000000,4.000000,4.000000,4.000000,4.000000,4.000000,4.000000,4.000000,4.000000,4.000000,4.000000,4.000000,100.000000,,,,,,,,,,,,,,,,,,,,,,,,,,,,
1703413807.928202,1703413807.932725,115.000000,0.000000,4293.717773,4232.307617,4299.487305,4286.025879,4221.794922,4448.077148,4332.563965,4242.436035,4216.410156,4230.384766,4547.307617,4490.769043,4400.512695,4476.538574,6060.000000,3.000000,58.000000,,,,0.000000,4.000000,4.000000,4.000000,4.000000,4.000000,4.000000,4.000000,4.000000,4.000000,4.000000,4.000000,4.000000,4.000000,4.000000,100.000000,,,,,,,,,,,,,,,,,,,,,,,,,,,,
1703413807.936010,1703413807.940633,116.000000,0.000000,4303.589844,4247.563965,4304.230957,4295.384766,4240.769043,4452.179688,4337.692383,4242.436035,4231.666504,4240.641113,4559.230957,4492.436035,4419.230957,4496.153809,6541.000000,3.000000,58.000000,,,,0.000000,4.000000,4.000000,4.000000,4.000000,4.000000,4.000000,4.000000,4.000000,4.000000,4.000000,4.000000,4.000000,4.000000,4.000000,100.000000,,,,,,,,,,,,,,,,,29.000000,0.000000,0.381210,0.616577,-0.253357,0.640564,0.981077,0.147967,0.113783,-19.889141,-32.047215,66.583199
1703413807.943818,1703413807.948541,117.000000,0.000000,4302.179688,4251.538574,4303.846191,4304.871582,4250.384766,4443.717773,4337.051270,4231.666504,4234.358887,4228.974121,4557.179688,4484.487305,4413.974121,4493.205078,6556.000000,3.000000,58.000000,,,,0.000000,4.000000,4.000000,4.000000,4.000000,4.000000,4.000000,4.000000,4.000000,4.000000,4.000000,4.000000,4.000000,4.000000,4.000000,100.000000,,,,,,,,,,,,,,,,,,,,,,,,,,,,
1703413807.951626,1703413807.956349,118.000000,0.000000,4292.692383,4251.794922,4293.846191,4303.461426,4241.025879,4445.641113,4333.717773,4227.051270,4224.358887,4215.000000,4543.205078,4473.077148,4398.589844,4475.384766,5871.000000,3.000000,58.000000,,,,0.000000,4.000000,4.000000,4.000000,4.000000,4.000000,4.000000,4.000000,4.000000,4.000000,4.000000,4.000000,4.000000,4.000000,4.000000,100.000000,,,,,,,,,,,,,,,,,,,,,,,,,,,,
1703413807.959434,1703413807.964157,119.000000,0.000000,4289.615234,4252.307617,4289.615234,4293.589844,4237.179688,4459.487305,4337.820313,4240.000000,4232.948730,4222.436035,4550.128418,4473.717773,4400.512695,4474.743652,6060.000000,3.000000,58.000000,,,,0.000000,4.000000,4.000000,4.000000,4.000000,4.000000,4.000000,4.000000,4.000000,4.000000,4.000000,4.000000,4.000000,4.000000,4.000000,100.000000,,,,,,,,,,,,,,,,,,,,,,,,,,,,
1703413807.967242,1703413807.971965,120.000000,0.000000,4285.384766,4248.333496,4291.794922,4291.666504,4242.820313,4459.102539,4343.589844,4253.205078,4250.000000,4234.615234,4554.102539,4478.974121,4401.922852,4473.974121,6541.000000,3.000000,58.000000,,,,0.000000,4.000000,4.000000,4.000000,4.000000,4.000000,4.000000,4.000000,4.000000,4.000000,4.000000,4.000000,4.000000,4.000000,4.000000,100.000000,,,,,,,,,,,,,,,,,30.000000,0.000000,0.381312,0.616577,-0.253357,0.640503,0.968380,0.157734,0.117690,-19.950228,-32.025826,66.508209
1703413807.975050,1703413807.979773,121.000000,0.000000,4277.051270,4243.717773,4292.820313,4289.615234,4237.307617,4444.743652,4342.051270,4250.512695,4244.487305,4230.512695,4537.179688,4475.384766,4386.410156,4461.025879,6556.000000,3.000000,58.000000,,,,0.000000,4.000000,4.000000,4.000000,4.000000,4.000000,4.000000,4.000000,4.000000,4.000000,4.000000,4.000000,4.000000,4.000000,4.000000,100.000000,,,,,,,,,,,,,,,,,,,,,,,,,,,,
1703413807.982859,1703413807.987581,122.000000,0.000000,4277.692383,4234.487305,4291.922852,4275.512695,4226.153809,4441.410156,4339.230957,4244.615234,4230.769043,4223.205078,4528.205078,4470.769043,4379.102539,4455.641113,5871.000000,3.000000,58.000000,,,,0.000000,4.000000,4.000000,4.000000,4.000000,4.000000,4.000000,4.000000,4.000000,4.000000,4.000000,4.000000,4.000000,4.000000,4.000000,100.000000,,,,,,,,,,,,,,,,,,,,,,,,,,,,
1703413807.990667,1703413807.995289,123.000000,0.000000,4282.948730,4227.307617,4291.666504,4275.384766,4228.461426,4446.538574,4340.256348,4257.051270,4234.487305,4229.871582,4536.025879,4473.333496,4392.820313,4461.153809,6060.000000,3.000000,58.000000,,,,0.000000,4.000000,4.000000,4.000000,4.000000,4.000000,4.000000,4.000000,4.000000,4.000000,4.000000,4.000000,4.000000,4.000000,4.000000,100.000000,,,,,,,,,,,,,,,,,,,,,,,,,,,,
1703413807.998474,1703413808.003097,124.000000,0.000000,4281.282227,4237.820313,4295.897461,4291.025879,4232.692383,4439.743652,4337.563965,4263.589844,4234.230957,4223.589844,4543.717773,4476.794922,4403.589844,4463.205078,6541.000000,3.000000,58.000000,,,,0.000000,4.000000,4.000000,4.000000,4.000000,4.000000,4.000000,4.000000,4.000000,4.000000,4.000000,4.000000,4.000000,4.000000,4.000000,100.000000,,,,,,,,,,,,,,,,,31.000000,0.000000,0.381235,0.616638,-0.253479,0.640442,0.988402,0.148456,0.101575,-19.938538,-32.056576,66.540726
1703413808.006283,1703413808.010805,125.000000,0.000000,4278.205078,4242.436035,4299.743652,4288.077148,4225.128418,4426.025879,4332.563965,4243.974121,4215.128418,4203.589844,4542.948730,4474.230957,4395.897461,4460.897461,6556.000000,3.000000,58.000000,,,,0.000000,4.000000,4.000000,4.000000,4.000000,4.000000,4.000000,4.000000,4.000000,4.000000,4.000000,4.000000,4.000000,4.000000,4.000000,100.000000,,,,,,,,,,,,,,,,,,,,,,,,,,,,
1703413808.014091,1703413808.018613,126.000000,0.000000,4281.922852,4234.743652,4301.153809,4280.384766,4221.666504,4423.461426,4332.563965,4229.615234,4207.692383,4201.794922,4533.717773,4472.436035,4389.102539,4464.230957,5871.000000,3.000000,58.000000,,,,0.000000,4.000000,4.000000,4.000000,4.000000,4.000000,4.000000,4.000000,4.000000,4.000000,4.000000,4.000000,4.000000,4.000000,4.000000,100.000000,,,,,,,,,,,,,,,,,,,,,,,,,,,,
1703413808.021899,1703413808.026321,127.000000,0.000000,4289.615234,4237.179688,4304.615234,4288.974121,4230.512695,4431.922852,4334.358887,4233.205078,4216.922852,4215.512695,4534.230957,4477.179688,4402.436035,4472.179688,58.000000,3.000000,58.000000,,,,0.000000,4.000000,4.000000,4.000000,4.000000,4.000000,4.000000,4.000000,4.000000,4.000000,4.000000,4.000000,4.000000,4.000000,4.000000,100.000000,,,,,,,,,,,,,,,,,,,,,,,,,,,,
1703413808.029707,1703413808.034129,0.000000,0.000000,4294.102539,4239.358887,4308.461426,4293.333496,4237.051270,4433.846191,4335.256348,4227.563965,4215.769043,4220.000000,4546.282227,4479.487305,4412.563965,4476.922852,3714.000000,3.000000,58.000000,,,,0.000000,4.000000,4.000000,4.000000,4.000000,4.000000,4.000000,4.000000,4.000000,4.000000,4.000000,4.000000,4.000000,4.000000,4.000000,100.000000,,,,,,,,,,,,,,,,,0.000000,0.000000,0.380873,0.616760,-0.253418,0.640564,0.992309,0.130875,0.119155,-19.861351,-31.950920,66.536652
1703413808.037515,1703413808.041837,1.000000,0.000000,4294.615234,4238.717773,4311.025879,4289.102539,4232.051270,4428.717773,4336.666504,4213.077148,4200.769043,4203.205078,4540.769043,4475.897461,4400.128418,4475.641113,5417.000000,3.000000,58.000000,,,,0.000000,4.000000,4.000000,4.000000,4.000000,4.000000,4.000000,4.000000,4.000000,4.000000,4.000000,4.000000,4.000000,4.000000,4.000000,100.000000,,,,,,,,,,,,,,,,,,,,,,,,,,,,
1703413808.045323,1703413808.049745,2.000000,0.000000,4293.589844,4248.846191,4308.846191,4297.820313,4231.538574,4428.717773,4334.871582,4215.256348,4195.897461,4191.794922,4532.563965,4476.794922,4399.743652,4475.512695,5090.000000,3.000000,58.000000,,,,0.000000,4.000000,4.000000,4.000000,4.000000,4.000000,4.000000,4.000000,4.000000,4.000000,4.000000,4.000000,4.000000,4.000000,4.000000,100.000000,,,,,,,,,,,,,,,,,,,,,,,,,,,,
1703413808.053131,1703413808.057553,3.000000,0.000000,4291.794922,4246.538574,4300.000000,4299.230957,4233.205078,4430.256348,4335.512695,4227.436035,4211.282227,4209.358887,4546.794922,4478.589844,4416.794922,4476.794922,5270.000000,3.000000,58.000000,,,,0.000000,4.000000,4.000000,4.000000,4.000000,4.000000,4.000000,4.000000,4.000000,4.000000,4.000000,4.000000,4.000000,4.000000,4.000000,100.000000,,,,,,,,,,,,,,,,,,,,,,,,,,,,
1703413808.060939,1703413808.065361,4.000000,0.000000,4287.051270,4236.410156,4292.820313,4282.051270,4232.563965,4428.205078,4340.512695,4238.333496,4225.641113,4233.846191,4558.205078,4475.384766,4409.871582,4475.769043,5156.000000,3.000000,58.000000,,,,0.000000,4.000000,4.000000,4.000000,4.000000,4.000000,4.000000,4.000000,4.000000,4.000000,4.000000,4.000000,4.000000,4.000000,4.000000,100.000000,,,,,,,,,,,,,,,,,1.000000,0.000000,0.380609,0.616821,-0.253357,0.640686,0.970822,0.152362,0.103528,-19.741882,-31.939161,66.616318
1703413808.068747,1703413808.073069,5.000000,0.000000,4282.436035,4245.000000,4298.461426,4275.897461,4232.563965,4426.410156,4340.000000,4250.769043,4232.051270,4244.102539,4551.538574,4478.589844,4391.153809,4475.128418,4460.000000,3.000000,58.000000,,,,0.000000,4.000000,4.000000,4.000000,4.000000,4.000000,4.000000,4.000000,4.000000,4.000000,4.000000,4.000000,4.000000,4.000000,4.000000,100.000000,,,,,,,,,,,,,,,,,,,,,,,,,,,,
1703413808.076555,1703413808.080877,6.000000,0.000000,4282.051270,4244.743652,4305.000000,4283.974121,4224.487305,4427.820313,4337.436035,4260.384766,4243.846191,4251.922852,4550.128418,4490.128418,4402.820313,4475.641113,2700.000000,3.000000,58.000000,,,,0.000000,4.000000,4.000000,4.000000,4.000000,4.000000,4.000000,4.000000,4.000000,4.000000,4.000000,4.000000,4.000000,4.000000,4.000000,100.000000,,,,,,,,,,,,,,,,,,,,,,,,,,,,
1703413808.084363,1703413808.088585,7.000000,0.000000,4282.436035,4228.077148,4302.563965,4280.512695,4223.846191,4430.384766,4340.256348,4265.128418,4252.820313,4254.102539,4558.333496,4496.666504,4423.077148,4480.384766,4784.000000,3.000000,58.000000,,,,0.000000,4.000000,4.000000,4.000000,4.000000,4.000000,4.000000,4.000000,4.000000,4.000000,4.000000,4.000000,4.000000,4.000000,4.000000,100.000000,,,,,,,,,,,,,,,,,,,,,,,,,,,,
1703413808.092171,1703413808.096493,8.000000,0.000000,4282.307617,4233.846191,4302.563965,4276.538574,4239.230957,4422.436035,4340.641113,4263.589844,4241.794922,4229.743652,4554.487305,4493.589844,4410.384766,4478.974121,4400.000000,3.000000,58.000000,,,,0.000000,4.000000,4.000000,4.000000,4.000000,4.000000,4.000000,4.000000,4.000000,4.000000,4.000000,4.000000,4.000000,4.000000,4.000000,100.000000,,,,,,,,,,,,,,,,,2.000000,0.000000,0.380712,0.616821,-0.253357,0.640625,0.976682,0.147967,0.114760,-19.801027,-32.111912,66.421356
1703413808.099979,1703413808.104301,9.000000,0.000000,4289.871582,4254.743652,4309.743652,4291.666504,4248.846191,4417.307617,4339.230957,4260.384766,4228.589844,4219.743652,4551.922852,4492.948730,4397.692383,4474.743652,5312.000000,3.000000,58.000000,,,,0.000000,4.000000,4.000000,4.000000,4.000000,4.000000,4.000000,4.000000,4.000000,4.000000,4.000000,4.000000,4.000000,4.000000,4.000000,100.000000,,,,,,,,,,,,,,,,,,,,,,,,,,,,
1703413808.107787,1703413808.112109,10.000000,0.000000,4299.615234,4256.666504,4310.256348,4303.461426,4245.384766,4426.922852,4342.051270,4263.846191,4230.641113,4235.769043,4557.436035,4496.538574,4410.512695,4481.410156,5843.000000,3.000000,58.000000,,,,0.000000,4.000000,4.000000,4.000000,4.000000,4.000000,4.000000,4.000000,4.000000,4.000000,4.000000,4.000000,4.000000,4.000000,4.000000,100.000000,,,,,,,,,,,,,,,,,,,,,,,,,,,,
1703413808.115595,1703413808.119917,11.000000,0.000000,4296.794922,4250.769043,4303.205078,4295.384766,4241.282227,4425.000000,4340.769043,4261.153809,4232.948730,4227.436035,4553.974121,4490.512695,4409.871582,4483.077148,6055.000000,3.000000,58.000000,,,,0.000000,4.000000,4.000000,4.000000,4.000000,4.000000,4.000000,4.000000,4.000000,4.000000,4.000000,4.000000,4.000000,4.000000,4.000000,100.000000,,,,,,,,,,,,,,,,,,,,,,,,,,,,
1703413808.123403,1703413808.127725,12.000000,0.000000,4292.948730,4252.051270,4303.717773,4288.717773,4238.205078,4414.487305,4336.153809,4248.205078,4228.717773,4217.692383,4548.333496,4480.000000,4399.487305,4475.256348,6533.000000,3.000000,58.000000,,,,0.000000,4.000000,4.000000,4.000000,4.000000,4.000000,4.000000,4.000000,4.000000,4.000000,4.000000,4.000000,4.000000,4.000000,4.000000,100.000000,,,,,,,,,,,,,,,,,3.000000,0.000000,0.380737,0.616882,-0.253479,0.640503,0.968868,0.150897,0.105482,-19.737591,-32.117386,66.562553
1703413808.131211,1703413808.135433,13.000000,0.000000,4296.538574,4264.358887,4307.051270,4299.358887,4233.077148,4422.179688,4336.282227,4241.282227,4231.666504,4242.179688,4548.846191,4482.179688,4412.820313,4482.436035,6543.000000,3.000000,58.000000,,,,0.000000,4.000000,4.000000,4.000000,4.000000,4.000000,4.000000,4.000000,4.000000,4.000000,4.000000,4.000000,4.000000,4.000000,4.000000,100.000000,,,,,,,,,,,,,,,,,,,,,,,,,,,,
1703413808.139020,1703413808.143241,14.000000,0.000000,4298.846191,4266.410156,4302.179688,4299.487305,4236.025879,4427.948730,4337.820313,4245.384766,4243.717773,4258.846191,4562.436035,4493.333496,4427.692383,4494.102539,5843.000000,3.000000,58.000000,,,,0.000000,4.000000,4.000000,4.000000,4.000000,4.000000,4.000000,4.000000,4.000000,4.000000,4.000000,4.000000,4.000000,4.000000,4.000000,100.000000,,,,,,,,,,,,,,,,,,,,,,,,,,,,
1703413808.146828,1703413808.150949,15.000000,0.000000,4292.948730,4243.846191,4297.692383,4281.538574,4240.000000,4413.589844,4337.563965,4252.692383,4247.563965,4250.769043,4573.974121,4494.102539,4425.128418,4488.461426,6055.000000,3.000000,58.000000,,,,0.000000,4.000000,4.000000,4.000000,4.000000,4.000000,4.000000,4.000000,4.000000,4.000000,4.000000,4.000000,4.000000,4.000000,4.000000,100.000000,,,,,,,,,,,,,,,,,,,,,,,,,,,,
1703413808.154636,1703413808.158857,16.000000,0.000000,4281.282227,4234.358887,4293.333496,4280.641113,4239.358887,4408.589844,4336.666504,4255.256348,4241.153809,4242.307617,4557.179688,4479.230957,4416.922852,4475.769043,0.000000,3.000000,58.000000,,,,0.000000,4.000000,4.000000,4.000000,4.000000,4.000000,4.000000,4.000000,4.000000,4.000000,4.000000,4.000000,4.000000,4.000000,4.000000,100.000000,,,,,,,,,,,,,,,,,4.000000,0.000000,0.381041,0.616821,-0.253479,0.640381,0.986449,0.140154,0.113783,-19.797165,-32.188980,66.706299
1703413808.162444,1703413808.166765,17.000000,0.000000,4276.025879,4250.384766,4287.692383,4291.922852,4241.538574,4412.948730,4335.897461,4251.153809,4229.743652,4225.512695,4529.871582,4463.077148,4395.897461,4464.615234,0.000000,3.000000,58.000000,,,,0.000000,4.000000,4.000000,4.000000,4.000000,4.000000,4.000000,4.000000,4.000000,4.000000,4.000000,4.000000,4.000000,4.000000,4.000000,100.000000,,,,,,,,,,,,,,,,,,,,,,,,,,,,
1703413808.170252,1703413808.174573,18.000000,0.000000,4278.589844,4249.230957,4291.538574,4285.512695,4239.358887,4406.025879,4334.871582,4246.794922,4219.871582,4204.743652,4520.897461,4463.077148,4375.128418,4456.922852,0.000000,3.000000,58.000000,,,,0.000000,4.000000,4.000000,4.000000,4.000000,4.000000,4.000000,4.000000,4.000000,4.000000,4.000000,4.000000,4.000000,4.000000,4.000000,100.000000,,,,,,,,,,,,,,,,,,,,,,,,,,,,
1703413808.178060,1703413808.182380,19.000000,0.000000,4278.077148,4229.230957,4297.307617,4275.000000,4227.436035,4398.717773,4333.077148,4248.077148,4224.102539,4206.153809,4525.897461,4471.538574,4384.487305,4455.769043,0.000000,3.000000,58.000000,,,,0.000000,4.000000,4.000000,4.000000,4.000000,4.000000,4.000000,4.000000,4.000000,4.000000,4.000000,4.000000,4.000000,4.000000,4.000000,100.000000,,,,,,,,,,,,,,,,,,,,,,,,,,,,
1703413808.185868,1703413808.190188,20.000000,0.000000,4278.717773,4237.051270,4294.230957,4285.769043,4225.256348,4398.717773,4332.179688,4252.436035,4229.871582,4211.666504,4537.307617,4476.153809,4396.794922,4461.538574,0.000000,3.000000,58.000000,,,,0.000000,4.000000,4.000000,4.000000,4.000000,4.000000,4.000000,4.000000,4.000000,4.000000,4.000000,4.000000,4.000000,4.000000,4.000000,100.000000,,,,,,,,,,,,,,,,,5.000000,0.000000,0.381082,0.616821,-0.253418,0.640381,0.967403,0.150409,0.120132,-19.867449,-32.353416,66.735664
1703413808.193676,1703413808.197996,21.000000,0.000000,4285.897461,4253.461426,4295.256348,4289.230957,4236.410156,4394.102539,4331.410156,4253.333496,4216.410156,4208.205078,4545.000000,4480.769043,4388.333496,4468.461426,0.000000,3.000000,58.000000,,,,0.000000,4.000000,4.000000,4.000000,4.000000,4.000000,4.000000,4.000000,4.000000,4.000000,4.000000,4.000000,4.000000,4.000000,4.000000,100.000000,,,,,,,,,,,,,,,,,,,,,,,,,,,,
1703413808.201484,1703413808.205704,22.000000,0.000000,4292.051270,4246.153809,4306.153809,4284.230957,4237.820313,4385.641113,4328.461426,4246.794922,4210.000000,4215.256348,4542.436035,4488.717773,4388.717773,4475.256348,0.000000,3.000000,58.000000,,,,0.000000,4.000000,4.000000,4.000000,4.000000,4.000000,4.000000,4.000000,4.000000,4.000000,4.000000,4.000000,4.000000,4.000000,4.000000,100.000000,,,,,,,,,,,,,,,,,,,,,,,,,,,,
1703413808.209292,1703413808.213512,23.000000,0.000000,4299.358887,4246.922852,4313.205078,4293.589844,4229.358887,4388.589844,4327.692383,4239.615234,4224.871582,4230.000000,4547.820313,4496.282227,4410.256348,4483.589844,0.000000,3.000000,58.000000,,,,0.000000,4.000000,4.000000,4.000000,4.000000,4.000000,4.000000,4.000000,4.000000,4.000000,4.000000,4.000000,4.000000,4.000000,4.000000,100.000000,,,,,,,,,,,,,,,,,,,,,,,,,,,,
1703413808.217100,1703413808.221221,24.000000,0.000000,4308.461426,4260.512695,4314.102539,4300.256348,4230.769043,4399.487305,4332.948730,4241.794922,4228.333496,4236.794922,4559.358887,4500.897461,4420.769043,4492.436035,0.000000,3.000000,58.000000,,,,0.000000,4.000000,4.000000,4.000000,4.000000,4.000000,4.000000,4.000000,4.000000,4.000000,4.000000,4.000000,4.000000,4.000000,4.000000,100.000000,,,,,,,,,,,,,,,,,6.000000,0.000000,0.381060,0.616821,-0.253296,0.640442,0.974728,0.149921,0.108900,-19.864037,-32.318073,66.662102
1703413808.224908,1703413808.229029,25.000000,0.000000,4312.948730,4266.282227,4316.794922,4303.333496,4242.820313,4400.512695,4334.743652,4239.743652,4217.307617,4233.717773,4561.025879,4501.025879,4412.692383,4497.563965,0.000000,3.000000,58.000000,,,,0.000000,4.000000,4.000000,4.000000,4.000000,4.000000,4.000000,4.000000,4.000000,4.000000,4.000000,4.000000,4.000000,4.000000,4.000000,100.000000,,,,,,,,,,,,,,,,,,,,,,,,,,,,
1703413808.232716,1703413808.236737,26.000000,0.000000,4307.692383,4262.307617,4316.153809,4307.051270,4247.307617,4395.384766,4332.436035,4224.615234,4211.153809,4226.282227,4557.051270,4490.769043,4404.358887,4488.974121,0.000000,3.000000,58.000000,,,,0.000000,4.000000,4.000000,4.000000,4.000000,4.000000,4.000000,4.000000,4.000000,4.000000,4.000000,4.000000,4.000000,4.000000,4.000000,100.000000,,,,,,,,,,,,,,,,,,,,,,,,,,,,
1703413808.240524,1703413808.244545,27.000000,0.000000,4296.922852,4256.153809,4309.615234,4295.000000,4235.769043,4395.512695,4331.538574,4221.282227,4212.820313,4220.384766,4546.666504,4478.846191,4401.538574,4479.230957,0.000000,3.000000,58.000000,,,,0.000000,4.000000,4.000000,4.000000,4.000000,4.000000,4.000000,4.000000,4.000000,4.000000,4.000000,4.000000,4.000000,4.000000,4.000000,100.000000,,,,,,,,,,,,,,,,,,,,,,,,,,,,
1703413808.248332,1703413808.252253,28.000000,0.000000,4289.743652,4244.102539,4306.153809,4278.077148,4229.615234,4392.563965,4330.000000,4230.512695,4223.461426,4220.256348,4537.692383,4476.410156,4393.205078,4474.615234,0.000000,3.000000,58.000000,,,,0.000000,4.000000,4.000000,4.000000,4.000000,4.000000,4.000000,4.000000,4.000000,4.000000,4.000000,4.000000,4.000000,4.000000,4.000000,100.000000,,,,,,,,,,,,,,,,,7.000000,0.000000,0.380917,0.616821,-0.253357,0.640503,0.986449,0.145526,0.107923,-19.910967,-32.286266,66.545891
1703413808.256140,1703413808.260160,29.000000,0.000000,4280.641113,4233.717773,4301.153809,4275.384766,4233.461426,4382.179688,4328.974121,4235.000000,4232.563965,4217.436035,4538.846191,4475.384766,4381.538574,4461.025879,0.000000,3.000000,58.000000,,,,0.000000,4.000000,4.000000,4.000000,4.000000,4.000000,4.000000,4.000000,4.000000,4.000000,4.000000,4.000000,4.000000,4.000000,4.000000,100.000000,,,,,,,,,,,,,,,,,,,,,,,,,,,,
1703413808.263948,1703413808.267968,30.000000,0.000000,4276.794922,4237.820313,4296.410156,4281.025879,4235.000000,4383.205078,4330.384766,4238.717773,4231.922852,4213.333496,4537.563965,4471.153809,4383.205078,4453.974121,0.000000,3.000000,58.000000,,,,0.000000,4.000000,4.000000,4.000000,4.000000,4.000000,4.000000,4.000000,4.000000,4.000000,4.000000,4.000000,4.000000,4.000000,4.000000,100.000000,,,,,,,,,,,,,,,,,,,,,,,,,,,,
1703413808.271757,1703413808.275776,31.000000,0.000000,4291.025879,4246.922852,4302.307617,4288.974121,4232.563965,4393.589844,4335.128418,4246.794922,4231.025879,4220.128418,4533.974121,4473.205078,4394.230957,4470.256348,0.000000,3.000000,58.000000,,,,0.000000,4.000000,4.000000,4.000000,4.000000,4.000000,4.000000,4.000000,4.000000,4.000000,4.000000,4.000000,4.000000,4.000000,4.000000,100.000000,,,,,,,,,,,,,,,,,,,,,,,,,,,,
1703413808.279565,1703413808.283485,32.000000,0.000000,4296.666504,4249.487305,4304.743652,4288.205078,4234.615234,4390.769043,4335.897461,4250.769043,4232.051270,4230.256348,4537.179688,4477.179688,4390.256348,4476.153809,0.000000,3.000000,58.000000,,,,0.000000,4.000000,4.000000,4.000000,4.000000,4.000000,4.000000,4.000000,4.000000,4.000000,4.000000,4.000000,4.000000,4.000000,4.000000,100.000000,,,,,,,,,,,,,,,,,8.000000,0.000000,0.380859,0.616882,-0.253296,0.640503,0.968868,0.140642,0.108900,-19.886538,-32.157642,66.507965
1703413808.287372,1703413808.291392,33.000000,0.000000,4283.846191,4251.153809,4298.205078,4282.051270,4238.205078,4382.051270,4330.897461,4245.769043,4230.512695,4230.641113,4537.307617,4474.230957,4379.102539,4458.461426,0.000000,3.000000,58.000000,,,,0.000000,4.000000,4.000000,4.000000,4.000000,4.000000,4.000000,4.000000,4.000000,4.000000,4.000000,4.000000,4.000000,4.000000,4.000000,100.000000,,,,,,,,,,,,,,,,,,,,,,,,,,,,
1703413808.295181,1703413808.299200,34.000000,0.000000,4283.974121,4248.077148,4301.153809,4290.256348,4239.102539,4381.153809,4330.000000,4245.256348,4229.102539,4223.077148,4537.051270,4476.794922,4386.153809,4461.025879,0.000000,3.000000,58.000000,,,,0.000000,4.000000,4.000000,4.000000,4.000000,4.000000,4.000000,4.000000,4.000000,4.000000,4.000000,4.000000,4.000000,4.000000,4.000000,100.000000,,,,,,,,,,,,,,,,,,,,,,,,,,,,
1703413808.302989,1703413808.307108,35.000000,0.000000,4292.692383,4245.000000,4305.641113,4293.333496,4237.820313,4376.666504,4330.256348,4246.922852,4223.846191,4220.512695,4542.051270,4481.538574,4398.077148,4477.948730,0.000000,3.000000,58.000000,,,,0.000000,4.000000,4.000000,4.000000,4.000000,4.000000,4.000000,4.000000,4.000000,4.000000,4.000000,4.000000,4.000000,4.000000,4.000000,100.000000,,,,,,,,,,,,,,,,,,,,,,,,,,,,
1703413808.310797,1703413808.314916,36.000000,0.000000,4291.922852,4257.436035,4302.179688,4286.666504,4240.256348,4369.871582,4327.179688,4241.538574,4220.384766,4232.307617,4541.666504,4477.820313,4401.538574,4476.025879,0.000000,3.000000,58.000000,,,,0.000000,4.000000,4.000000,4.000000,4.000000,4.000000,4.000000,4.000000,4.000000,4.000000,4.000000,4.000000,4.000000,4.000000,4.000000,100.000000,,,,,,,,,,,,,,,,,9.000000,0.000000,0.380917,0.616821,-0.253357,0.640503,0.975705,0.149432,0.117690,-19.931217,-32.091877,66.457169
1703413808.318605,1703413808.322824,37.000000,0.000000,4296.025879,4268.717773,4305.512695,4301.025879,4248.717773,4376.794922,4329.230957,4231.666504,4227.436035,4239.230957,4539.487305,4477.436035,4395.384766,4472.820313,0.000000,3.000000,58.000000,,,,0.000000,4.000000,4.000000,4.000000,4.000000,4.000000,4.000000,4.000000,4.000000,4.000000,4.000000,4.000000,4.000000,4.000000,4.000000,100.000000,,,,,,,,,,,,,,,,,,,,,,,,,,,,
1703413808.326413,1703413808.330632,38.000000,0.000000,4299.487305,4259.230957,4307.948730,4312.179688,4246.538574,4381.282227,4330.384766,4230.128418,4230.897461,4230.256348,4541.538574,4482.051270,4386.025879,4475.512695,0.000000,3.000000,58.000000,,,,0.000000,4.000000,4.000000,4.000000,4.000000,4.000000,4.000000,4.000000,4.000000,4.000000,4.000000,4.000000,4.000000,4.000000,4.000000,100.000000,,,,,,,,,,,,,,,,,,,,,,,,,,,,
1703413808.334221,1703413808.338440,39.000000,0.000000,4293.846191,4261.794922,4301.282227,4298.974121,4235.769043,4370.384766,4323.846191,4241.538574,4227.820313,4226.410156,4549.487305,4485.769043,4399.615234,4473.077148,0.000000,3.000000,58.000000,,,,0.000000,4.000000,4.000000,4.000000,4.000000,4.000000,4.000000,4.000000,4.000000,4.000000,4.000000,4.000000,4.000000,4.000000,4.000000,100.000000,,,,,,,,,,,,,,,,,,,,,,,,,,,,
1703413808.342029,1703413808.346148,40.000000,0.000000,4296.282227,4267.948730,4298.077148,4290.897461,4235.256348,4371.538574,4323.589844,4252.436035,4236.282227,4233.333496,4558.333496,4494.487305,4419.487305,4476.922852,0.000000,3.000000,58.000000,,,,0.000000,4.000000,4.000000,4.000000,4.000000,4.000000,4.000000,4.000000,4.000000,4.000000,4.000000,4.000000,4.000000,4.000000,4.000000,100.000000,1.000000,75.000000,4.000000,4.000000,4.000000,4.000000,4.000000,1.000000,4.000000,4.000000,4.000000,4.000000,4.000000,4.000000,4.000000,4.000000,10.000000,0.000000,0.380979,0.616821,-0.253418,0.640442,0.993285,0.142107,0.112318,-19.938095,-32.099358,66.344788
1703413808.349837,1703413808.354056,41.000000,0.000000,4296.153809,4244.615234,4297.692383,4286.153809,4240.512695,4380.769043,4330.641113,4254.615234,4247.948730,4236.410156,4547.563965,4495.000000,4404.743652,4479.230957,0.000000,3.000000,58.000000,,,,0.000000,4.000000,4.000000,4.000000,4.000000,4.000000,4.000000,4.000000,4.000000,4.000000,4.000000,4.000000,4.000000,4.000000,4.000000,100.000000,,,,,,,,,,,,,,,,,,,,,,,,,,,,
1703413808.357645,1703413808.361864,42.000000,0.000000,4280.512695,4234.102539,4292.820313,4272.179688,4233.717773,4375.512695,4330.641113,4248.205078,4245.128418,4232.692383,4530.384766,4479.487305,4381.922852,4467.563965,0.000000,3.000000,58.000000,,,,0.000000,4.000000,4.000000,4.000000,4.000000,4.000000,4.000000,4.000000,4.000000,4.000000,4.000000,4.000000,4.000000,4.000000,4.000000,100.000000,,,,,,,,,,,,,,,,,,,,,,,,,,,,
1703413808.365453,1703413808.369672,43.000000,0.000000,4276.538574,4247.820313,4292.563965,4276.538574,4223.077148,4371.153809,4328.717773,4249.871582,4237.051270,4230.128418,4541.025879,4476.922852,4398.846191,4464.615234,0.000000,3.000000,58.000000,,,,0.000000,4.000000,4.000000,4.000000,4.000000,4.000000,4.000000,4.000000,4.000000,4.000000,4.000000,4.000000,4.000000,4.000000,4.000000,100.000000,,,,,,,,,,,,,,,,,,,,,,,,,,,,
1703413808.373261,1703413808.377380,44.000000,0.000000,4295.256348,4249.487305,4303.077148,4303.846191,4239.358887,4381.153809,4335.897461,4261.922852,4235.897461,4229.871582,4559.487305,4490.769043,4422.051270,4476.666504,0.000000,3.000000,58.000000,,,,0.000000,4.000000,4.000000,4.000000,4.000000,4.000000,4.000000,4.000000,4.000000,4.000000,4.000000,4.000000,4.000000,4.000000,4.000000,100.000000,,,,,,,,,,,,,,,,,11.000000,0.000000,0.381140,0.616760,-0.253479,0.640381,0.968868,0.137712,0.104017,-19.910952,-32.156086,66.326973
1703413808.381069,1703413808.385088,45.000000,0.000000,4306.025879,4255.384766,4310.256348,4310.769043,4260.000000,4382.948730,4340.512695,4257.051270,4236.538574,4229.102539,4554.230957,4495.769043,4419.487305,4481.666504,0.000000,3.000000,58.000000,,,,0.000000,4.000000,4.000000,4.000000,4.000000,4.000000,4.000000,4.000000,4.000000,4.000000,4.000000,4.000000,4.000000,4.000000,4.000000,100.000000,,,,,,,,,,,,,,,,,,,,,,,,,,,,
1703413808.388877,1703413808.392996,46.000000,0.000000,4297.948730,4272.307617,4304.871582,4297.051270,4253.717773,4370.769043,4333.077148,4235.256348,4225.512695,4230.384766,4546.282227,4489.358887,4409.871582,4475.256348,0.000000,3.000000,58.000000,,,,0.000000,4.000000,4.000000,4.000000,4.000000,4.000000,4.000000,4.000000,4.000000,4.000000,4.000000,4.000000,4.000000,4.000000,4.000000,100.000000,,,,,,,,,,,,,,,,,,,,,,,,,,,,
1703413808.396685,1703413808.400904,47.000000,0.000000,4296.794922,4272.563965,4303.717773,4298.077148,4246.153809,4366.794922,4327.563965,4228.461426,4220.769043,4240.128418,4554.871582,4486.025879,4410.897461,4475.256348,0.000000,3.000000,58.000000,,,,0.000000,4.000000,4.000000,4.000000,4.000000,4.000000,4.000000,4.000000,4.000000,4.000000,4.000000,4.000000,4.000000,4.000000,4.000000,100.000000,,,,,,,,,,,,,,,,,,,,,,,,,,,,
1703413808.404493,1703413808.408712,48.000000,0.000000,4304.487305,4263.589844,4311.153809,4311.282227,4250.128418,4366.538574,4330.384766,4236.666504,4227.051270,4253.589844,4557.948730,4488.974121,4423.717773,4480.769043,0.000000,3.000000,58.000000,,,,0.000000,4.000000,4.000000,4.000000,4.000000,4.000000,4.000000,4.000000,4.000000,4.000000,4.000000,4.000000,4.000000,4.000000,4.000000,100.000000,,,,,,,,,,,,,,,,,12.000000,0.000000,0.381060,0.616821,-0.253296,0.640442,0.990355,0.147967,0.116225,-19.986523,-32.057144,66.327614
1703413808.412301,1703413808.416520,49.000000,0.000000,4301.282227,4263.205078,4311.025879,4305.000000,4247.051270,4359.615234,4328.333496,4234.871582,4220.128418,4245.512695,4552.563965,4488.333496,4428.589844,4479.102539,0.000000,3.000000,58.000000,,,,0.000000,4.000000,4.000000,4.000000,4.000000,4.000000,4.000000,4.000000,4.000000,4.000000,4.000000,4.000000,4.000000,4.000000,4.000000,100.000000,,,,,,,,,,,,,,,,,,,,,,,,,,,,
1703413808.420109,1703413808.424328,50.000000,0.000000,4294.358887,4263.717773,4305.128418,4293.717773,4244.230957,4355.769043,4323.205078,4225.000000,4213.589844,4227.692383,4557.820313,4482.179688,4422.051270,4475.384766,0.000000,3.000000,58.000000,,,,0.000000,4.000000,4.000000,4.000000,4.000000,4.000000,4.000000,4.000000,4.000000,4.000000,4.000000,4.000000,4.000000,4.000000,4.000000,100.000000,,,,,,,,,,,,,,,,,,,,,,,,,,,,
1703413808.427918,1703413808.432136,51.000000,0.000000,4295.256348,4261.666504,4304.102539,4300.641113,4246.282227,4359.358887,4324.230957,4219.230957,4222.051270,4233.333496,4552.692383,4474.230957,4411.922852,4474.871582,0.000000,3.000000,58.000000,,,,0.000000,4.000000,4.000000,4.000000,4.000000,4.000000,4.000000,4.000000,4.000000,4.000000,4.000000,4.000000,4.000000,4.000000,4.000000,100.000000,,,,,,,,,,,,,,,,,,,,,,,,,,,,
1703413808.435726,1703413808.439944,52.000000,0.000000,4296.666504,4259.615234,4304.102539,4303.846191,4242.563965,4360.769043,4326.922852,4218.974121,4224.358887,4246.538574,4540.128418,4471.922852,4403.846191,4475.897461,0.000000,3.000000,58.000000,,,,0.000000,4.000000,4.000000,4.000000,4.000000,4.000000,4.000000,4.000000,4.000000,4.000000,4.000000,4.000000,4.000000,4.000000,4.000000,100.000000,,,,,,,,,,,,,,,,,13.000000,0.000000,0.381189,0.616943,-0.253113,0.640320,0.979123,0.144061,0.117690,-19.887871,-32.168098,66.328186
1703413808.443534,1703413808.447652,53.000000,0.000000,4294.615234,4261.282227,4300.897461,4297.563965,4245.128418,4359.230957,4327.179688,4227.179688,4221.666504,4239.358887,4551.666504,4476.410156,4409.487305,4475.384766,0.000000,3.000000,58.000000,,,,0.000000,4.000000,4.000000,4.000000,4.000000,4.000000,4.000000,4.000000,4.000000,4.000000,4.000000,4.000000,4.000000,4.000000,4.000000,100.000000,,,,,,,,,,,,,,,,,,,,,,,,,,,,
1703413808.451342,1703413808.455460,54.000000,0.000000,4287.563965,4260.897461,4295.769043,4288.205078,4249.487305,4359.102539,4328.205078,4238.846191,4229.230957,4224.615234,4549.615234,4475.769043,4409.615234,4467.436035,0.000000,3.000000,58.000000,,,,0.000000,4.000000,4.000000,4.000000,4.000000,4.000000,4.000000,4.000000,4.000000,4.000000,4.000000,4.000000,4.000000,4.000000,4.000000,100.000000,,,,,,,,,,,,,,,,,,,,,,,,,,,,
1703413808.459150,1703413808.463168,55.000000,0.000000,4277.179688,4252.307617,4290.512695,4282.820313,4243.974121,4358.205078,4330.641113,4249.102539,4236.666504,4225.000000,4524.871582,4469.358887,4394.102539,4455.641113,0.000000,3.000000,58.000000,,,,0.000000,4.000000,4.000000,4.000000,4.000000,4.000000,4.000000,4.000000,4.000000,4.000000,4.000000,4.000000,4.000000,4.000000,4.000000,100.000000,,,,,,,,,,,,,,,,,,,,,,,,,,,,
1703413808.466958,1703413808.470976,56.000000,0.000000,4276.922852,4240.512695,4292.563965,4282.692383,4237.563965,4355.128418,4329.358887,4261.922852,4243.333496,4232.307617,4533.205078,4470.897461,4393.846191,4456.666504,0.000000,3.000000,58.000000,,,,0.000000,4.000000,4.000000,4.000000,4.000000,4.000000,4.000000,4.000000,4.000000,4.000000,4.000000,4.000000,4.000000,4.000000,4.000000,100.000000,,,,,,,,,,,,,,,,,14.000000,0.000000,0.381170,0.616943,-0.253296,0.640259,0.977658,0.154804,0.121109,-19.932417,-32.184620,66.412033
1703413808.474766,1703413808.478684,57.000000,0.000000,4286.025879,4239.871582,4298.333496,4280.897461,4235.512695,4348.077148,4325.000000,4266.153809,4249.743652,4234.102539,4553.717773,4477.692383,4406.282227,4463.461426,0.000000,3.000000,58.000000,,,,0.000000,4.000000,4.000000,4.000000,4.000000,4.000000,4.000000,4.000000,4.000000,4.000000,4.000000,4.000000,4.000000,4.000000,4.000000,100.000000,,,,,,,,,,,,,,,,,,,,,,,,,,,,
1703413808.482574,1703413808.486492,58.000000,0.000000,4294.102539,4255.256348,4298.974121,4286.282227,4237.820313,4340.384766,4323.205078,4256.025879,4245.384766,4236.025879,4540.512695,4479.743652,4403.461426,4463.717773,0.000000,3.000000,58.000000,,,,0.000000,4.000000,4.000000,4.000000,4.000000,4.000000,4.000000,4.000000,4.000000,4.000000,4.000000,4.000000,4.000000,4.000000,4.000000,100.000000,,,,,,,,,,,,,,,,,,,,,,,,,,,,
1703413808.490382,1703413808.494200,59.000000,0.000000,4297.563965,4267.948730,4299.358887,4297.820313,4241.153809,4338.846191,4325.512695,4247.436035,4238.974121,4240.384766,4532.307617,4477.692383,4401.538574,4467.307617,0.000000,3.000000,58.000000,,,,0.000000,4.000000,4.000000,4.000000,4.000000,4.000000,4.000000,4.000000,4.000000,4.000000,4.000000,4.000000,4.000000,4.000000,4.000000,100.000000,,,,,,,,,,,,,,,,,,,,,,,,,,,,
1703413808.498190,1703413808.502008,60.000000,0.000000,4296.025879,4264.230957,4302.051270,4300.000000,4241.410156,4342.436035,4327.948730,4245.000000,4236.025879,4240.128418,4548.461426,4477.179688,4414.743652,4474.615234,0.000000,3.000000,58.000000,,,,0.000000,4.000000,4.000000,4.000000,4.000000,4.000000,4.000000,4.000000,4.000000,4.000000,4.000000,4.000000,4.000000,4.000000,4.000000,100.000000,,,,,,,,,,,,,,,,,15.000000,0.000000,0.381371,0.616882,-0.253296,0.640198,0.977170,0.160176,0.115737,-19.855843,-32.066158,66.187492
1703413808.505998,1703413808.509716,61.000000,0.000000,4297.051270,4261.282227,4303.846191,4292.948730,4243.974121,4339.102539,4326.153809,4242.051270,4232.820313,4233.461426,4554.487305,4482.436035,4421.666504,4482.948730,0.000000,3.000000,58.000000,,,,0.000000,4.000000,4.000000,4.000000,4.000000,4.000000,4.000000,4.000000,4.000000,4.000000,4.000000,4.000000,4.000000,4.000000,4.000000,100.000000,,,,,,,,,,,,,,,,,,,,,,,,,,,,
1703413808.513806,1703413808.517524,62.000000,0.000000,4307.563965,4270.384766,4307.307617,4296.922852,4248.205078,4332.948730,4324.102539,4232.948730,4230.256348,4232.948730,4555.256348,4492.307617,4421.282227,4488.846191,0.000000,3.000000,58.000000,,,,0.000000,4.000000,4.000000,4.000000,4.000000,4.000000,4.000000,4.000000,4.000000,4.000000,4.000000,4.000000,4.000000,4.000000,4.000000,100.000000,,,,,,,,,,,,,,,,,,,,,,,,,,,,
1703413808.521614,1703413808.525232,63.000000,0.000000,4311.666504,4265.384766,4311.282227,4306.153809,4248.589844,4341.153809,4325.769043,4227.820313,4230.128418,4238.461426,4557.436035,4491.922852,4421.666504,4484.358887,0.000000,3.000000,58.000000,,,,0.000000,4.000000,4.000000,4.000000,4.000000,4.000000,4.000000,4.000000,4.000000,4.000000,4.000000,4.000000,4.000000,4.000000,4.000000,100.000000,,,,,,,,,,,,,,,,,,,,,,,,,,,,
1703413808.529422,1703413808.533140,64.000000,0.000000,4302.051270,4251.666504,4309.358887,4300.512695,4246.538574,4345.769043,4326.025879,4227.436035,4226.794922,4239.615234,4543.717773,4480.897461,4415.000000,4477.692383,3700.000000,3.000000,58.000000,,,,0.000000,4.000000,4.000000,4.000000,4.000000,4.000000,4.000000,4.000000,4.000000,4.000000,4.000000,4.000000,4.000000,4.000000,4.000000,100.000000,,,,,,,,,,,,,,,,,16.000000,0.000000,0.381170,0.616943,-0.253296,0.640259,0.983030,0.151874,0.101575,-19.703592,-32.076210,66.152077
1703413808.537230,1703413808.540948,65.000000,0.000000,4290.769043,4250.769043,4303.461426,4283.461426,4239.743652,4334.743652,4321.282227,4226.153809,4219.102539,4232.820313,4530.769043,4472.820313,4408.461426,4473.461426,5415.000000,3.000000,58.000000,,,,0.000000,4.000000,4.000000,4.000000,4.000000,4.000000,4.000000,4.000000,4.000000,4.000000,4.000000,4.000000,4.000000,4.000000,4.000000,100.000000,,,,,,,,,,,,,,,,,,,,,,,,,,,,
1703413808.545038,1703413808.548756,66.000000,0.000000,4282.051270,4247.436035,4298.717773,4276.025879,4232.179688,4335.256348,4323.205078,4234.230957,4222.307617,4225.000000,4547.179688,4476.410156,4408.589844,4467.692383,5083.000000,3.000000,58.000000,,,,0.000000,4.000000,4.000000,4.000000,4.000000,4.000000,4.000000,4.000000,4.000000,4.000000,4.000000,4.000000,4.000000,4.000000,4.000000,100.000000,,,,,,,,,,,,,,,,,,,,,,,,,,,,
1703413808.552846,1703413808.556564,67.000000,0.000000,4279.871582,4234.743652,4296.666504,4280.897461,4232.436035,4347.051270,4328.717773,4250.512695,4239.615234,4228.717773,4556.153809,4485.512695,4401.282227,4462.179688,5278.000000,3.000000,58.000000,,,,0.000000,4.000000,4.000000,4.000000,4.000000,4.000000,4.000000,4.000000,4.000000,4.000000,4.000000,4.000000,4.000000,4.000000,4.000000,100.000000,,,,,,,,,,,,,,,,,,,,,,,,,,,,
1703413808.560655,1703413808.564372,68.000000,0.000000,4276.025879,4228.205078,4293.846191,4270.128418,4232.051270,4333.077148,4323.974121,4253.461426,4239.230957,4236.410156,4527.820313,4475.512695,4386.025879,4451.666504,5148.000000,3.000000,58.000000,,,,0.000000,4.000000,4.000000,4.000000,4.000000,4.000000,4.000000,4.000000,4.000000,4.000000,4.000000,4.000000,4.000000,4.000000,4.000000,100.000000,,,,,,,,,,,,,,,,,17.000000,0.000000,0.381248,0.616882,-0.253174,0.640320,0.978635,0.138689,0.121597,-19.783232,-32.001923,66.120201
1703413808.568462,1703413808.572080,69.000000,0.000000,4264.487305,4228.333496,4288.846191,4258.461426,4226.538574,4312.179688,4317.307617,4243.333496,4220.897461,4225.128418,4509.487305,4461.794922,4381.410156,4436.666504,4463.000000,3.000000,58.000000,,,,0.000000,4.000000,4.000000,4.000000,4.000000,4.000000,4.000000,4.000000,4.000000,4.000000,4.000000,4.000000,4.000000,4.000000,4.000000,100.000000,,,,,,,,,,,,,,,,,,,,,,,,,,,,
1703413808.576270,1703413808.579788,70.000000,0.000000,4266.410156,4230.897461,4293.589844,4273.974121,4228.333496,4319.487305,4321.025879,4247.436035,4228.333496,4213.461426,4532.436035,4477.948730,4395.256348,4446.538574,2697.000000,3.000000,58.000000,,,,0.000000,4.000000,4.000000,4.000000,4.000000,4.000000,4.000000,4.000000,4.000000,4.000000,4.000000,4.000000,4.000000,4.000000,4.000000,100.000000,,,,,,,,,,,,,,,,,,,,,,,,,,,,
1703413808.584079,1703413808.587596,71.000000,0.000000,4281.410156,4242.307617,4303.589844,4285.641113,4238.077148,4330.641113,4324.743652,4252.436035,4245.897461,4224.230957,4555.769043,4491.922852,4406.025879,4468.461426,4769.000000,3.000000,58.000000,,,,0.000000,4.000000,4.000000,4.000000,4.000000,4.000000,4.000000,4.000000,4.000000,4.000000,4.000000,4.000000,4.000000,4.000000,4.000000,100.000000,,,,,,,,,,,,,,,,,,,,,,,,,,,,
1703413808.591887,1703413808.595304,72.000000,0.000000,4280.769043,4248.205078,4303.077148,4280.512695,4240.897461,4322.820313,4320.897461,4239.743652,4237.692383,4230.384766,4548.205078,4477.820313,4400.897461,4465.512695,4388.000000,3.000000,58.000000,,,,0.000000,4.000000,4.000000,4.000000,4.000000,4.000000,4.000000,4.000000,4.000000,4.000000,4.000000,4.000000,4.000000,4.000000,4.000000,100.000000,,,,,,,,,,,,,,,,,18.000000,0.000000,0.381451,0.616516,-0.253296,0.640503,0.986937,0.149921,0.114760,-19.788242,-31.918396,66.058182
1703413808.599695,1703413808.603212,73.000000,0.000000,4279.743652,4250.641113,4302.179688,4286.282227,4237.436035,4315.256348,4320.256348,4223.846191,4223.717773,4221.025879,4535.769043,4469.615234,4398.717773,4456.538574,5312.000000,3.000000,58.000000,,,,0.000000,4.000000,4.000000,4.000000,4.000000,4.000000,4.000000,4.000000,4.000000,4.000000,4.000000,4.000000,4.000000,4.000000,4.000000,100.000000,,,,,,,,,,,,,,,,,,,,,,,,,,,,
1703413808.607503,1703413808.611120,74.000000,0.000000,4294.871582,4257.436035,4307.179688,4298.589844,4240.384766,4319.358887,4324.230957,4221.666504,4227.692383,4227.179688,4541.025879,4477.820313,4408.333496,4466.666504,5826.000000,3.000000,58.000000,,,,0.000000,4.000000,4.000000,4.000000,4.000000,4.000000,4.000000,4.000000,4.000000,4.000000,4.000000,4.000000,4.000000,4.000000,4.000000,100.000000,,,,,,,,,,,,,,,,,,,,,,,,,,,,
1703413808.615311,1703413808.618928,75.000000,0.000000,4297.436035,4252.948730,4306.922852,4297.563965,4248.589844,4318.461426,4320.512695,4229.358887,4236.794922,4247.692383,4551.666504,4482.436035,4414.230957,4476.025879,6043.000000,3.000000,58.000000,,,,0.000000,4.000000,4.000000,4.000000,4.000000,4.000000,4.000000,4.000000,4.000000,4.000000,4.000000,4.000000,4.000000,4.000000,4.000000,100.000000,,,,,,,,,,,,,,,,,,,,,,,,,,,,
1703413808.623119,1703413808.626735,76.000000,0.000000,4291.922852,4248.717773,4304.230957,4289.230957,4245.384766,4311.666504,4315.641113,4230.384766,4235.769043,4251.153809,4555.512695,4488.205078,4409.102539,4478.974121,6492.000000,3.000000,58.000000,,,,0.000000,4.000000,4.000000,4.000000,4.000000,4.000000,4.000000,4.000000,4.000000,4.000000,4.000000,4.000000,4.000000,4.000000,4.000000,100.000000,,,,,,,,,,,,,,,,,19.000000,0.000000,0.381535,0.616516,-0.253479,0.640381,0.973752,0.148456,0.108900,-19.876085,-32.043224,66.085701
1703413808.630927,1703413808.634543,77.000000,0.000000,4294.487305,4249.487305,4305.000000,4281.922852,4233.205078,4311.153809,4317.179688,4232.179688,4231.794922,4241.153809,4553.717773,4491.153809,4405.641113,4479.487305,6529.000000,3.000000,58.000000,,,,0.000000,4.000000,4.000000,4.000000,4.000000,4.000000,4.000000,4.000000,4.000000,4.000000,4.000000,4.000000,4.000000,4.000000,4.000000,100.000000,,,,,,,,,,,,,,,,,,,,,,,,,,,,
1703413808.638735,1703413808.642252,78.000000,0.000000,4289.102539,4240.256348,4301.922852,4281.666504,4227.436035,4309.230957,4316.666504,4243.846191,4229.743652,4230.128418,4544.487305,4479.230957,4401.410156,4465.384766,5826.000000,3.000000,58.000000,,,,0.000000,4.000000,4.000000,4.000000,4.000000,4.000000,4.000000,4.000000,4.000000,4.000000,4.000000,4.000000,4.000000,4.000000,4.000000,100.000000,,,,,,,,,,,,,,,,,,,,,,,,,,,,
1703413808.646543,1703413808.650060,79.000000,0.000000,4274.102539,4233.461426,4299.615234,4277.051270,4228.589844,4305.641113,4314.615234,4251.666504,4231.025879,4219.743652,4527.692383,4465.769043,4385.256348,4448.717773,6043.000000,3.000000,58.000000,,,,0.000000,4.000000,4.000000,4.000000,4.000000,4.000000,4.000000,4.000000,4.000000,4.000000,4.000000,4.000000,4.000000,4.000000,4.000000,100.000000,,,,,,,,,,,,,,,,,,,,,,,,,,,,
1703413808.654351,1703413808.657768,80.000000,0.000000,4264.487305,4236.153809,4302.436035,4265.897461,4231.410156,4309.358887,4317.948730,4249.230957,4232.563965,4215.000000,4525.897461,4466.282227,4373.974121,4449.358887,6492.000000,3.000000,58.000000,,,,0.000000,4.000000,4.000000,4.000000,4.000000,4.000000,4.000000,4.000000,4.000000,4.000000,4.000000,4.000000,4.000000,4.000000,4.000000,100.000000,,,,,,,,,,,,,,,,,20.000000,0.000000,0.381420,0.616638,-0.253662,0.640259,0.989379,0.147479,0.113295,-19.871809,-32.038902,66.110466
1703413808.662159,1703413808.665576,81.000000,0.000000,4261.922852,4232.948730,4301.794922,4270.512695,4232.563965,4313.077148,4319.743652,4248.974121,4230.512695,4214.487305,4529.871582,4470.512695,4374.102539,4454.230957,6529.000000,3.000000,58.000000,,,,0.000000,4.000000,4.000000,4.000000,4.000000,4.000000,4.000000,4.000000,4.000000,4.000000,4.000000,4.000000,4.000000,4.000000,4.000000,100.000000,,,,,,,,,,,,,,,,,,,,,,,,,,,,
1703413808.669967,1703413808.673284,82.000000,0.000000,4258.974121,4231.794922,4299.743652,4281.025879,4230.256348,4308.717773,4314.871582,4250.512695,4230.641113,4220.769043,4534.615234,4474.102539,4381.794922,4453.846191,5826.000000,3.000000,58.000000,,,,0.000000,4.000000,4.000000,4.000000,4.000000,4.000000,4.000000,4.000000,4.000000,4.000000,4.000000,4.000000,4.000000,4.000000,4.000000,100.000000,,,,,,,,,,,,,,,,,,,,,,,,,,,,
1703413808.677775,1703413808.681092,83.000000,0.000000,4262.948730,4244.871582,4305.641113,4282.820313,4231.025879,4302.436035,4312.948730,4243.461426,4234.102539,4232.820313,4553.077148,4481.153809,4395.128418,4465.512695,6043.000000,3.000000,58.000000,,,,0.000000,4.000000,4.000000,4.000000,4.000000,4.000000,4.000000,4.000000,4.000000,4.000000,4.000000,4.000000,4.000000,4.000000,4.000000,100.000000,,,,,,,,,,,,,,,,,,,,,,,,,,,,
1703413808.685583,1703413808.688800,84.000000,0.000000,4270.384766,4257.051270,4312.179688,4290.256348,4237.051270,4296.794922,4312.692383,4234.487305,4228.333496,4241.922852,4554.743652,4484.743652,4400.512695,4476.538574,6492.000000,3.000000,58.000000,,,,0.000000,4.000000,4.000000,4.000000,4.000000,4.000000,4.000000,4.000000,4.000000,4.000000,4.000000,4.000000,4.000000,4.000000,4.000000,100.000000,,,,,,,,,,,,,,,,,21.000000,0.000000,0.381136,0.616699,-0.253479,0.640442,0.986449,0.140154,0.111342,-19.934629,-32.051678,66.082748
1703413808.693391,1703413808.696608,85.000000,0.000000,4276.538574,4263.461426,4313.717773,4299.871582,4239.615234,4294.487305,4309.871582,4229.871582,4218.333496,4238.461426,4541.922852,4483.846191,4401.794922,4476.794922,6529.000000,3.000000,58.000000,,,,0.000000,4.000000,4.000000,4.000000,4.000000,4.000000,4.000000,4.000000,4.000000,4.000000,4.000000,4.000000,4.000000,4.000000,4.000000,100.000000,,,,,,,,,,,,,,,,,,,,,,,,,,,,
1703413808.701199,1703413808.704316,86.000000,0.000000,4283.461426,4266.794922,4318.589844,4296.410156,4240.512695,4296.282227,4309.615234,4228.461426,4223.974121,4235.256348,4552.436035,4488.333496,4410.769043,4482.820313,5826.000000,3.000000,58.000000,,,,0.000000,4.000000,4.000000,4.000000,4.000000,4.000000,4.000000,4.000000,4.000000,4.000000,4.000000,4.000000,4.000000,4.000000,4.000000,100.000000,,,,,,,,,,,,,,,,,,,,,,,,,,,,
1703413808.709007,1703413808.712124,87.000000,0.000000,4285.769043,4264.102539,4321.666504,4293.205078,4245.000000,4293.205078,4310.769043,4228.077148,4228.077148,4243.333496,4563.717773,4494.102539,4415.769043,4484.743652,6043.000000,3.000000,58.000000,,,,0.000000,4.000000,4.000000,4.000000,4.000000,4.000000,4.000000,4.000000,4.000000,4.000000,4.000000,4.000000,4.000000,4.000000,4.000000,100.000000,,,,,,,,,,,,,,,,,,,,,,,,,,,,
1703413808.716816,1703413808.719832,88.000000,0.000000,4276.922852,4262.948730,4313.974121,4296.922852,4247.179688,4292.051270,4311.282227,4228.974121,4222.948730,4249.358887,4551.025879,4489.615234,4404.743652,4476.282227,6492.000000,3.000000,58.000000,,,,0.000000,4.000000,4.000000,4.000000,4.000000,4.000000,4.000000,4.000000,4.000000,4.000000,4.000000,4.000000,4.000000,4.000000,4.000000,100.000000,,,,,,,,,,,,,,,,,22.000000,0.000000,0.381016,0.616760,-0.253357,0.640503,0.986449,0.143084,0.114272,-19.874498,-31.996510,66.107811
1703413808.724624,1703413808.727640,89.000000,0.000000,4266.153809,4260.256348,4307.051270,4295.897461,4247.436035,4300.128418,4312.563965,4228.589844,4231.153809,4250.512695,4548.974121,4481.410156,4398.717773,4474.871582,6529.000000,3.000000,58.000000,,,,0.000000,4.000000,4.000000,4.000000,4.000000,4.000000,4.000000,4.000000,4.000000,4.000000,4.000000,4.000000,4.000000,4.000000,4.000000,100.000000,,,,,,,,,,,,,,,,,,,,,,,,,,,,
1703413808.732432,1703413808.735348,90.000000,0.000000,4266.538574,4250.128418,4310.000000,4292.179688,4248.205078,4303.846191,4314.358887,4233.717773,4245.897461,4248.717773,4560.512695,4481.794922,4403.077148,4477.307617,5826.000000,3.000000,58.000000,,,,0.000000,4.000000,4.000000,4.000000,4.000000,4.000000,4.000000,4.000000,4.000000,4.000000,4.000000,4.000000,4.000000,4.000000,4.000000,100.000000,,,,,,,,,,,,,,,,,,,,,,,,,,,,
1703413808.740240,1703413808.743256,91.000000,0.000000,4263.717773,4244.230957,4304.487305,4285.256348,4242.307617,4299.102539,4315.384766,4246.922852,4249.871582,4240.641113,4546.282227,4479.102539,4393.333496,4465.384766,6043.000000,3.000000,58.000000,,,,0.000000,4.000000,4.000000,4.000000,4.000000,4.000000,4.000000,4.000000,4.000000,4.000000,4.000000,4.000000,4.000000,4.000000,4.000000,100.000000,,,,,,,,,,,,,,,,,,,,,,,,,,,,
1703413808.748048,1703413808.751064,92.000000,0.000000,4249.358887,4248.205078,4294.871582,4279.743652,4235.769043,4294.743652,4314.230957,4251.538574,4247.179688,4230.512695,4531.025879,4466.666504,4379.743652,4450.769043,6492.000000,3.000000,58.000000,,,,0.000000,4.000000,4.000000,4.000000,4.000000,4.000000,4.000000,4.000000,4.000000,4.000000,4.000000,4.000000,4.000000,4.000000,4.000000,100.000000,,,,,,,,,,,,,,,,,23.000000,0.000000,0.381099,0.616760,-0.253540,0.640381,0.971798,0.149921,0.118178,-19.653715,-32.080193,66.213692
1703413808.755856,1703413808.758972,93.000000,0.000000,4242.692383,4248.077148,4299.615234,4276.025879,4231.538574,4291.794922,4313.717773,4245.384766,4239.487305,4230.641113,4533.974121,4462.692383,4378.589844,4449.615234,6529.000000,3.000000,58.000000,,,,0.000000,4.000000,4.000000,4.000000,4.000000,4.000000,4.000000,4.000000,4.000000,4.000000,4.000000,4.000000,4.000000,4.000000,4.000000,100.000000,,,,,,,,,,,,,,,,,,,,,,,,,,,,
1703413808.763664,1703413808.766779,94.000000,0.000000,4250.512695,4241.922852,4307.051270,4277.692383,4227.307617,4287.563965,4312.436035,4243.846191,4228.717773,4232.436035,4535.512695,4473.205078,4382.436035,4455.897461,5826.000000,3.000000,58.000000,,,,0.000000,4.000000,4.000000,4.000000,4.000000,4.000000,4.000000,4.000000,4.000000,4.000000,4.000000,4.000000,4.000000,4.000000,4.000000,100.000000,,,,,,,,,,,,,,,,,,,,,,,,,,,,
1703413808.771472,1703413808.774488,95.000000,0.000000,4267.692383,4253.461426,4314.487305,4292.436035,4237.948730,4293.461426,4310.256348,4249.487305,4231.538574,4231.538574,4542.820313,4485.769043,4388.846191,4468.589844,6043.000000,3.000000,58.000000,,,,0.000000,4.000000,4.000000,4.000000,4.000000,4.000000,4.000000,4.000000,4.000000,4.000000,4.000000,4.000000,4.000000,4.000000,4.000000,100.000000,,,,,,,,,,,,,,,,,,,,,,,,,,,,
1703413808.779280,1703413808.782395,96.000000,0.000000,4273.077148,4267.179688,4318.846191,4301.538574,4246.282227,4298.077148,4309.358887,4244.615234,4236.282227,4231.922852,4555.897461,4488.974121,4393.205078,4477.307617,6492.000000,3.000000,58.000000,,,,0.000000,4.000000,4.000000,4.000000,4.000000,4.000000,4.000000,4.000000,4.000000,4.000000,4.000000,4.000000,4.000000,4.000000,4.000000,100.000000,,,,,,,,,,,,,,,,,24.000000,0.000000,0.381055,0.616699,-0.253601,0.640442,0.979612,0.145526,0.115248,-19.671679,-32.022171,66.225655
1703413808.787088,1703413808.790303,97.000000,0.000000,4266.282227,4258.589844,4311.025879,4296.922852,4235.512695,4283.333496,4308.717773,4226.153809,4226.922852,4226.025879,4557.179688,4484.358887,4391.794922,4476.025879,6529.000000,3.000000,58.000000,,,,0.000000,4.000000,4.000000,4.000000,4.000000,4.000000,4.000000,4.000000,4.000000,4.000000,4.000000,4.000000,4.000000,4.000000,4.000000,100.000000,,,,,,,,,,,,,,,,,,,,,,,,,,,,
1703413808.794896,1703413808.798111,98.000000,0.000000,4271.538574,4251.282227,4310.769043,4301.410156,4233.717773,4271.282227,4306.153809,4220.128418,4222.307617,4228.461426,4550.897461,4484.743652,4393.717773,4476.025879,5826.000000,3.000000,58.000000,,,,0.000000,4.000000,4.000000,4.000000,4.000000,4.000000,4.000000,4.000000,4.000000,4.000000,4.000000,4.000000,4.000000,4.000000,4.000000,100.000000,,,,,,,,,,,,,,,,,,,,,,,,,,,,
1703413808.802704,1703413808.805919,99.000000,0.000000,4281.538574,4263.846191,4323.846191,4312.948730,4252.051270,4283.461426,4304.871582,4228.846191,4228.846191,4248.333496,4554.102539,4493.333496,4404.743652,4479.487305,6043.000000,3.000000,58.000000,,,,0.000000,4.000000,4.000000,4.000000,4.000000,4.000000,4.000000,4.000000,4.000000,4.000000,4.000000,4.000000,4.000000,4.000000,4.000000,100.000000,,,,,,,,,,,,,,,,,,,,,,,,,,,,
1703413808.810512,1703413808.813727,100.000000,0.000000,4273.205078,4270.000000,4323.077148,4303.974121,4252.820313,4291.922852,4307.307617,4228.461426,4233.205078,4256.410156,4555.641113,4494.358887,4407.820313,4478.333496,6492.000000,3.000000,58.000000,,,,0.000000,4.000000,4.000000,4.000000,4.000000,4.000000,4.000000,4.000000,4.000000,4.000000,4.000000,4.000000,4.000000,4.000000,4.000000,100.000000,,,,,,,,,,,,,,,,,25.000000,0.000000,0.381399,0.616638,-0.253540,0.640320,0.982053,0.153827,0.111830,-19.704510,-31.953289,66.219757
1703413808.818320,1703413808.821535,101.000000,0.000000,4261.666504,4257.563965,4309.743652,4287.692383,4236.153809,4281.922852,4310.256348,4228.461426,4231.922852,4241.538574,4552.820313,4485.897461,4401.922852,4473.846191,6529.000000,3.000000,58.000000,,,,0.000000,4.000000,4.000000,4.000000,4.000000,4.000000,4.000000,4.000000,4.000000,4.000000,4.000000,4.000000,4.000000,4.000000,4.000000,100.000000,,,,,,,,,,,,,,,,,,,,,,,,,,,,
1703413808.826128,1703413808.829443,102.000000,0.000000,4263.077148,4249.358887,4307.948730,4288.205078,4232.563965,4278.589844,4310.000000,4243.974121,4225.897461,4231.410156,4553.077148,4487.436035,4393.333496,4473.974121,5826.000000,3.000000,58.000000,,,,0.000000,4.000000,4.000000,4.000000,4.000000,4.000000,4.000000,4.000000,4.000000,4.000000,4.000000,4.000000,4.000000,4.000000,4.000000,100.000000,,,,,,,,,,,,,,,,,,,,,,,,,,,,
1703413808.833936,1703413808.837351,103.000000,0.000000,4262.436035,4254.358887,4310.769043,4295.000000,4232.307617,4283.589844,4309.358887,4252.820313,4223.205078,4230.384766,4546.922852,4489.615234,4386.410156,4474.487305,6043.000000,3.000000,58.000000,,,,0.000000,4.000000,4.000000,4.000000,4.000000,4.000000,4.000000,4.000000,4.000000,4.000000,4.000000,4.000000,4.000000,4.000000,4.000000,100.000000,,,,,,,,,,,,,,,,,,,,,,,,,,,,
1703413808.841744,1703413808.845159,104.000000,0.000000,4258.846191,4256.794922,4306.410156,4292.179688,4232.307617,4281.922852,4310.512695,4250.256348,4231.410156,4234.230957,4545.256348,4482.051270,4390.128418,4468.589844,6492.000000,3.000000,58.000000,,,,0.000000,4.000000,4.000000,4.000000,4.000000,4.000000,4.000000,4.000000,4.000000,4.000000,4.000000,4.000000,4.000000,4.000000,4.000000,100.000000,1.000000,75.000000,4.000000,4.000000,4.000000,4.000000,4.000000,1.000000,4.000000,4.000000,4.000000,4.000000,4.000000,4.000000,4.000000,4.000000,26.000000,0.000000,0.381552,0.616455,-0.253601,0.640381,0.989867,0.143572,0.109388,-19.767393,-31.874626,66.397781
1703413808.849552,1703413808.852967,105.000000,0.000000,4258.205078,4247.692383,4299.102539,4282.307617,4236.922852,4277.563965,4312.436035,4251.282227,4237.948730,4240.000000,4548.333496,4474.230957,4392.820313,4461.153809,6529.000000,3.000000,58.000000,,,,0.000000,4.000000,4.000000,4.000000,4.000000,4.000000,4.000000,4.000000,4.000000,4.000000,4.000000,4.000000,4.000000,4.000000,4.000000,100.000000,,,,,,,,,,,,,,,,,,,,,,,,,,,,
1703413808.857360,1703413808.860775,106.000000,0.000000,4258.077148,4244.230957,4299.615234,4282.563965,4236.153809,4275.641113,4305.641113,4243.717773,4230.256348,4238.205078,4546.666504,4472.820313,4390.256348,4463.205078,5826.000000,3.000000,58.000000,,,,0.000000,4.000000,4.000000,4.000000,4.000000,4.000000,4.000000,4.000000,4.000000,4.000000,4.000000,4.000000,4.000000,4.000000,4.000000,100.000000,,,,,,,,,,,,,,,,,,,,,,,,,,,,
1703413808.865168,1703413808.868583,107.000000,0.000000,4265.128418,4258.077148,4310.256348,4293.974121,4232.051270,4271.282227,4298.974121,4230.512695,4227.436035,4235.256348,4551.282227,4477.179688,4396.282227,4475.897461,6043.000000,3.000000,58.000000,,,,0.000000,4.000000,4.000000,4.000000,4.000000,4.000000,4.000000,4.000000,4.000000,4.000000,4.000000,4.000000,4.000000,4.000000,4.000000,100.000000,,,,,,,,,,,,,,,,,,,,,,,,,,,,
1703413808.872976,1703413808.876491,108.000000,0.000000,4275.512695,4270.256348,4314.871582,4297.820313,4237.948730,4268.717773,4304.230957,4230.384766,4234.230957,4242.179688,4555.256348,4482.307617,4400.256348,4481.794922,6492.000000,3.000000,58.000000,,,,0.000000,4.000000,4.000000,4.000000,4.000000,4.000000,4.000000,4.000000,4.000000,4.000000,4.000000,4.000000,4.000000,4.000000,4.000000,100.000000,,,,,,,,,,,,,,,,,27.000000,0.000000,0.381631,0.616394,-0.253784,0.640320,0.978147,0.147479,0.102552,-19.773987,-31.920498,66.308006
1703413808.880785,1703413808.884399,109.000000,0.000000,4274.743652,4267.820313,4309.230957,4293.589844,4242.051270,4267.179688,4307.692383,4228.846191,4231.538574,4250.000000,4544.871582,4479.230957,4392.563965,4477.948730,6529.000000,3.000000,58.000000,,,,0.000000,4.000000,4.000000,4.000000,4.000000,4.000000,4.000000,4.000000,4.000000,4.000000,4.000000,4.000000,4.000000,4.000000,4.000000,100.000000,,,,,,,,,,,,,,,,,,,,,,,,,,,,
1703413808.888593,1703413808.892206,110.000000,0.000000,4268.717773,4263.717773,4304.487305,4299.871582,4233.461426,4263.974121,4303.461426,4217.179688,4228.333496,4246.538574,4534.358887,4471.153809,4390.000000,4472.948730,5826.000000,3.000000,58.000000,,,,0.000000,4.000000,4.000000,4.000000,4.000000,4.000000,4.000000,4.000000,4.000000,4.000000,4.000000,4.000000,4.000000,4.000000,4.000000,100.000000,,,,,,,,,,,,,,,,,,,,,,,,,,,,
1703413808.896401,1703413808.900014,111.000000,0.000000,4271.794922,4269.871582,4304.358887,4310.000000,4236.410156,4270.897461,4304.871582,4221.666504,4239.102539,4241.410156,4545.256348,4478.461426,4400.384766,4472.436035,6043.000000,3.000000,58.000000,,,,0.000000,4.000000,4.000000,4.000000,4.000000,4.000000,4.000000,4.000000,4.000000,4.000000,4.000000,4.000000,4.000000,4.000000,4.000000,100.000000,,,,,,,,,,,,,,,,,,,,,,,,,,,,
1703413808.904209,1703413808.907822,112.000000,0.000000,4281.282227,4270.256348,4307.820313,4307.051270,4250.128418,4281.666504,4312.436035,4245.256348,4250.769043,4243.717773,4568.974121,4494.358887,4411.538574,4485.641113,6492.000000,3.000000,58.000000,,,,0.000000,4.000000,4.000000,4.000000,4.000000,4.000000,4.000000,4.000000,4.000000,4.000000,4.000000,4.000000,4.000000,4.000000,4.000000,100.000000,,,,,,,,,,,,,,,,,28.000000,0.000000,0.381484,0.616333,-0.253845,0.640442,0.977170,0.147479,0.113783,-19.696589,-32.011780,66.193871
1703413808.912017,1703413808.915630,113.000000,0.000000,4281.666504,4264.743652,4309.871582,4301.025879,4250.641113,4278.974121,4310.000000,4252.307617,4249.102539,4248.077148,4573.589844,4494.871582,4410.256348,4494.102539,6529.000000,3.000000,58.000000,,,,0.000000,4.000000,4.000000,4.000000,4.000000,4.000000,4.000000,4.000000,4.000000,4.000000,4.000000,4.000000,4.000000,4.000000,4.000000,100.000000,,,,,,,,,,,,,,,,,,,,,,,,,,,,
1703413808.919825,1703413808.923438,114.000000,0.000000,4270.256348,4263.846191,4308.077148,4297.820313,4243.461426,4271.794922,4302.179688,4244.358887,4247.307617,4252.307617,4553.974121,4483.077148,4399.358887,4478.974121,5826.000000,3.000000,58.000000,,,,0.000000,4.000000,4.000000,4.000000,4.000000,4.000000,4.000000,4.000000,4.000000,4.000000,4.000000,4.000000,4.000000,4.000000,4.000000,100.000000,,,,,,,,,,,,,,,,,,,,,,,,,,,,
1703413808.927633,1703413808.931246,115.000000,0.000000,4260.256348,4267.051270,4303.589844,4290.384766,4244.102539,4278.461426,4305.128418,4253.846191,4252.692383,4263.205078,4551.922852,4481.025879,4402.179688,4473.205078,6043.000000,3.000000,58.000000,,,,0.000000,4.000000,4.000000,4.000000,4.000000,4.000000,4.000000,4.000000,4.000000,4.000000,4.000000,4.000000,4.000000,4.000000,4.000000,100.000000,,,,,,,,,,,,,,,,,,,,,,,,,,,,
1703413808.935441,1703413808.938954,116.000000,0.000000,4265.769043,4264.230957,4305.769043,4289.102539,4244.487305,4283.974121,4313.717773,4265.769043,4252.563965,4268.205078,4575.256348,4491.025879,4419.358887,4491.922852,6492.000000,3.000000,58.000000,,,,0.000000,4.000000,4.000000,4.000000,4.000000,4.000000,4.000000,4.000000,4.000000,4.000000,4.000000,4.000000,4.000000,4.000000,4.000000,100.000000,,,,,,,,,,,,,,,,,29.000000,0.000000,0.381535,0.616150,-0.253906,0.640564,0.977170,0.145037,0.116713,-19.826929,-32.110603,66.274483
1703413808.943249,1703413808.946762,117.000000,0.000000,4275.256348,4262.820313,4309.615234,4301.538574,4241.025879,4279.615234,4316.025879,4257.948730,4249.102539,4254.487305,4575.384766,4493.589844,4420.256348,4493.717773,6529.000000,3.000000,58.000000,,,,0.000000,4.000000,4.000000,4.000000,4.000000,4.000000,4.000000,4.000000,4.000000,4.000000,4.000000,4.000000,4.000000,4.000000,4.000000,100.000000,,,,,,,,,,,,,,,,,,,,,,,,,,,,
1703413808.951057,1703413808.954470,118.000000,0.000000,4270.000000,4264.102539,4301.282227,4300.641113,4243.205078,4274.871582,4308.974121,4247.820313,4241.794922,4239.615234,4551.025879,4479.743652,4400.256348,4472.948730,5826.000000,3.000000,58.000000,,,,0.000000,4.000000,4.000000,4.000000,4.000000,4.000000,4.000000,4.000000,4.000000,4.000000,4.000000,4.000000,4.000000,4.000000,4.000000,100.000000,,,,,,,,,,,,,,,,,,,,,,,,,,,,
1703413808.958865,1703413808.962278,119.000000,0.000000,4267.179688,4267.307617,4296.410156,4289.871582,4246.922852,4270.897461,4304.230957,4245.000000,4234.615234,4243.077148,4555.000000,4472.179688,4401.922852,4475.256348,6043.000000,3.000000,58.000000,,,,0.000000,4.000000,4.000000,4.000000,4.000000,4.000000,4.000000,4.000000,4.000000,4.000000,4.000000,4.000000,4.000000,4.000000,4.000000,100.000000,,,,,,,,,,,,,,,,,,,,,,,,,,,,
1703413808.966673,1703413808.969986,120.000000,0.000000,4280.512695,4275.512695,4309.102539,4300.769043,4251.025879,4268.974121,4306.794922,4236.794922,4238.461426,4256.153809,4573.589844,4486.922852,4423.333496,4494.487305,6492.000000,3.000000,58.000000,,,,0.000000,4.000000,4.000000,4.000000,4.000000,4.000000,4.000000,4.000000,4.000000,4.000000,4.000000,4.000000,4.000000,4.000000,4.000000,100.000000,,,,,,,,,,,,,,,,,30.000000,0.000000,0.381753,0.616028,-0.254028,0.640503,0.984495,0.135270,0.114272,-19.894236,-32.082874,66.180367
1703413808.974481,1703413808.977794,121.000000,0.000000,4284.615234,4269.871582,4316.025879,4317.820313,4248.717773,4265.897461,4304.102539,4227.436035,4237.179688,4257.820313,4568.333496,4493.205078,4425.256348,4494.230957,6529.000000,3.000000,58.000000,,,,0.000000,4.000000,4.000000,4.000000,4.000000,4.000000,4.000000,4.000000,4.000000,4.000000,4.000000,4.000000,4.000000,4.000000,4.000000,100.000000,,,,,,,,,,,,,,,,,,,,,,,,,,,,
1703413808.982289,1703413808.985503,122.000000,0.000000,4276.282227,4264.487305,4306.410156,4314.102539,4245.256348,4258.717773,4298.461426,4227.948730,4229.487305,4253.333496,4566.794922,4483.205078,4412.307617,4483.846191,5826.000000,3.000000,58.000000,,,,0.000000,4.000000,4.000000,4.000000,4.000000,4.000000,4.000000,4.000000,4.000000,4.000000,4.000000,4.000000,4.000000,4.000000,4.000000,100.000000,,,,,,,,,,,,,,,,,,,,,,,,,,,,
1703413808.990097,1703413808.993410,123.000000,0.000000,4277.307617,4277.563965,4305.256348,4302.948730,4253.077148,4262.692383,4303.846191,4228.077148,4239.743652,4256.538574,4579.743652,4483.846191,4413.846191,4488.461426,6043.000000,3.000000,58.000000,,,,0.000000,4.000000,4.000000,4.000000,4.000000,4.000000,4.000000,4.000000,4.000000,4.000000,4.000000,4.000000,4.000000,4.000000,4.000000,100.000000,,,,,,,,,,,,,,,,,,,,,,,,,,,,
1703413808.997905,1703413809.001218,124.000000,0.000000,4278.461426,4270.256348,4310.897461,4299.487305,4257.820313,4272.820313,4306.922852,4230.256348,4254.743652,4265.256348,4573.846191,4490.256348,4422.820313,4495.897461,6492.000000,3.000000,58.000000,,,,0.000000,4.000000,4.000000,4.000000,4.000000,4.000000,4.000000,4.000000,4.000000,4.000000,4.000000,4.000000,4.000000,4.000000,4.000000,100.000000,,,,,,,,,,,,,,,,,31.000000,0.000000,0.381873,0.615967,-0.254150,0.640442,0.976682,0.157734,0.115248,-19.771479,-32.007923,66.179001
1703413809.005713,1703413809.009026,125.000000,0.000000,4266.922852,4245.384766,4303.846191,4297.820313,4247.436035,4269.102539,4300.128418,4241.410156,4252.051270,4264.615234,4555.897461,4483.589844,4412.820313,4478.333496,6529.000000,3.000000,58.000000,,,,0.000000,4.000000,4.000000,4.000000,4.000000,4.000000,4.000000,4.000000,4.000000,4.000000,4.000000,4.000000,4.000000,4.000000,4.000000,100.000000,,,,,,,,,,,,,,,,,,,,,,,,,,,,
1703413809.013522,1703413809.016734,126.000000,0.000000,4257.051270,4253.461426,4293.077148,4292.179688,4243.461426,4262.436035,4300.769043,4248.846191,4245.128418,4251.922852,4548.846191,4472.692383,4395.384766,4456.153809,5826.000000,3.000000,58.000000,,,,0.000000,4.000000,4.000000,4.000000,4.000000,4.000000,4.000000,4.000000,4.000000,4.000000,4.000000,4.000000,4.000000,4.000000,4.000000,100.000000,,,,,,,,,,,,,,,,,,,,,,,,,,,,
1703413809.021330,1703413809.024542,127.000000,0.000000,4258.974121,4266.282227,4291.794922,4285.769043,4248.461426,4266.794922,4304.871582,4251.538574,4243.974121,4244.358887,4544.871582,4472.563965,4389.230957,4462.692383,58.000000,3.000000,58.000000,,,,0.000000,4.000000,4.000000,4.000000,4.000000,4.000000,4.000000,4.000000,4.000000,4.000000,4.000000,4.000000,4.000000,4.000000,4.000000,100.000000,,,,,,,,,,,,,,,,,,,,,,,,,,,,
1703413809.029137,1703413809.032250,0.000000,0.000000,4267.820313,4248.846191,4297.179688,4286.666504,4247.051270,4269.230957,4304.230957,4257.820313,4244.102539,4241.153809,4550.384766,4480.512695,4390.897461,4473.846191,3700.000000,3.000000,58.000000,,,,0.000000,4.000000,4.000000,4.000000,4.000000,4.000000,4.000000,4.000000,4.000000,4.000000,4.000000,4.000000,4.000000,4.000000,4.000000,100.000000,,,,,,,,,,,,,,,,,0.000000,0.000000,0.382172,0.615845,-0.254150,0.640381,0.980100,0.153339,0.115248,-19.844332,-31.940462,66.177765
1703413809.036946,1703413809.040058,1.000000,0.000000,4278.077148,4245.897461,4298.589844,4294.615234,4245.641113,4267.179688,4306.025879,4257.692383,4244.358887,4237.436035,4553.077148,4482.307617,4390.128418,4465.256348,5409.000000,3.000000,58.000000,,,,0.000000,4.000000,4.000000,4.000000,4.000000,4.000000,4.000000,4.000000,4.000000,4.000000,4.000000,4.000000,4.000000,4.000000,4.000000,100.000000,,,,,,,,,,,,,,,,,,,,,,,,,,,,
1703413809.044754,1703413809.047766,2.000000,0.000000,4286.538574,4261.538574,4299.487305,4294.871582,4248.717773,4267.307617,4305.384766,4246.538574,4241.666504,4235.897461,4538.461426,4476.410156,4392.820313,4462.051270,5091.000000,3.000000,58.000000,,,,0.000000,4.000000,4.000000,4.000000,4.000000,4.000000,4.000000,4.000000,4.000000,4.000000,4.000000,4.000000,4.000000,4.000000,4.000000,100.000000,,,,,,,,,,,,,,,,,,,,,,,,,,,,
1703413809.052562,1703413809.055574,3.000000,0.000000,4294.230957,4264.615234,4308.461426,4295.000000,4250.897461,4267.692383,4303.077148,4244.102539,4242.820313,4242.307617,4541.538574,4480.000000,4400.769043,4475.897461,5282.000000,3.000000,58.000000,,,,0.000000,4.000000,4.000000,4.000000,4.000000,4.000000,4.000000,4.000000,4.000000,4.000000,4.000000,4.000000,4.000000,4.000000,4.000000,100.000000,,,,,,,,,,,,,,,,,,,,,,,,,,,,
1703413809.060370,1703413809.063283,4.000000,0.000000,4302.820313,4266.025879,4314.102539,4303.461426,4250.897461,4266.153809,4308.077148,4249.871582,4248.205078,4252.051270,4563.205078,4491.153809,4402.820313,4485.128418,5136.000000,3.000000,58.000000,,,,0.000000,4.000000,4.000000,4.000000,4.000000,4.000000,4.000000,4.000000,4.000000,4.000000,4.000000,4.000000,4.000000,4.000000,4.000000,100.000000,,,,,,,,,,,,,,,,,1.000000,0.000000,0.382289,0.615784,-0.253967,0.640442,0.978147,0.137224,0.115737,-19.776566,-31.929750,66.209991
