title:ليال حمام, start timestamp:1703407930.596975, stop timestamp:1703407941.278389, headset type:EPOCX, headset serial:E50206EF, headset firmware:720, channels:67, sampling rate:eeg_128;mot_32, samples:1369      , version:2.2, 
Timestamp,OriginalTimestamp,EEG.Counter,EEG.Interpolated,EEG.AF3,EEG.F7,EEG.F3,EEG.FC5,EEG.T7,EEG.P7,EEG.O1,EEG.O2,EEG.P8,EEG.T8,EEG.FC6,EEG.F4,EEG.F8,EEG.AF4,EEG.RawCq,EEG.Battery,EEG.BatteryPercent,MarkerIndex,MarkerType,MarkerValueInt,EEG.MarkerHardware,CQ.AF3,CQ.F7,CQ.F3,CQ.FC5,CQ.T7,CQ.P7,CQ.O1,CQ.O2,CQ.P8,CQ.T8,CQ.FC6,CQ.F4,CQ.F8,CQ.AF4,CQ.Overall,EQ.SampleRateQuality,EQ.OVERALL,EQ.AF3,EQ.F7,EQ.F3,EQ.FC5,EQ.T7,EQ.P7,EQ.O1,EQ.O2,EQ.P8,EQ.T8,EQ.FC6,EQ.F4,EQ.F8,EQ.AF4,MOT.CounterMems,MOT.InterpolatedMems,MOT.Q0,MOT.Q1,MOT.Q2,MOT.Q3,MOT.AccX,MOT.AccY,MOT.AccZ,MOT.MagX,MOT.MagY,MOT.MagZ
1703407930.596975,1703407930.597487,112.000000,0.000000,4222.179688,4193.077148,4312.179688,4262.692383,4182.563965,4170.769043,4232.051270,4203.589844,4198.461426,4186.922852,4663.974121,4492.820313,4400.897461,4488.205078,6601.000000,3.000000,74.000000,,,,0.000000,4.000000,4.000000,4.000000,4.000000,4.000000,4.000000,4.000000,4.000000,4.000000,4.000000,4.000000,4.000000,4.000000,4.000000,100.000000,,,,,,,,,,,,,,,,,28.000000,0.000000,0.722471,-0.187195,-0.651550,-0.135925,0.980100,-0.096691,0.071786,-14.831052,-41.473747,65.717247
1703407930.604783,1703407930.605195,113.000000,0.000000,4227.179688,4200.128418,4325.512695,4268.589844,4185.128418,4166.666504,4230.128418,4193.333496,4187.051270,4192.051270,4669.615234,4493.461426,4409.615234,4487.563965,7175.000000,3.000000,74.000000,,,,0.000000,4.000000,4.000000,4.000000,4.000000,4.000000,4.000000,4.000000,4.000000,4.000000,4.000000,4.000000,4.000000,4.000000,4.000000,100.000000,,,,,,,,,,,,,,,,,,,,,,,,,,,,
1703407930.612591,1703407930.613003,114.000000,0.000000,4232.051270,4208.333496,4324.230957,4274.615234,4184.358887,4164.230957,4230.256348,4183.205078,4174.358887,4182.692383,4665.256348,4490.897461,4405.897461,4502.948730,5906.000000,3.000000,74.000000,,,,0.000000,4.000000,4.000000,4.000000,4.000000,4.000000,4.000000,4.000000,4.000000,4.000000,4.000000,4.000000,4.000000,4.000000,4.000000,100.000000,,,,,,,,,,,,,,,,,,,,,,,,,,,,
1703407930.620399,1703407930.620711,115.000000,0.000000,4242.820313,4215.000000,4312.051270,4282.563965,4188.205078,4165.256348,4232.307617,4177.948730,4170.641113,4168.717773,4658.974121,4486.538574,4400.897461,4512.948730,6075.000000,3.000000,74.000000,,,,0.000000,4.000000,4.000000,4.000000,4.000000,4.000000,4.000000,4.000000,4.000000,4.000000,4.000000,4.000000,4.000000,4.000000,4.000000,100.000000,,,,,,,,,,,,,,,,,,,,,,,,,,,,
1703407930.628207,1703407930.628519,116.000000,0.000000,4243.846191,4213.077148,4311.410156,4280.256348,4198.333496,4159.871582,4232.692383,4172.820313,4163.846191,4168.846191,4650.512695,4474.358887,4398.461426,4504.487305,6601.000000,3.000000,74.000000,,,,0.000000,4.000000,4.000000,4.000000,4.000000,4.000000,4.000000,4.000000,4.000000,4.000000,4.000000,4.000000,4.000000,4.000000,4.000000,100.000000,,,,,,,,,,,,,,,,,29.000000,0.000000,0.722296,-0.186890,-0.651794,-0.136108,0.989867,-0.108412,0.073251,-14.831280,-41.476372,65.795525
1703407930.636016,1703407930.636227,117.000000,0.000000,4230.897461,4213.717773,4322.563965,4273.077148,4201.282227,4153.461426,4232.051270,4161.153809,4150.897461,4171.922852,4644.743652,4472.820313,4397.563965,4505.256348,7175.000000,3.000000,74.000000,,,,0.000000,4.000000,4.000000,4.000000,4.000000,4.000000,4.000000,4.000000,4.000000,4.000000,4.000000,4.000000,4.000000,4.000000,4.000000,100.000000,,,,,,,,,,,,,,,,,,,,,,,,,,,,
1703407930.643824,1703407930.644035,118.000000,0.000000,4226.282227,4214.102539,4320.897461,4275.256348,4191.153809,4159.102539,4231.794922,4153.461426,4145.641113,4158.974121,4640.512695,4482.051270,4397.692383,4497.692383,5906.000000,3.000000,74.000000,,,,0.000000,4.000000,4.000000,4.000000,4.000000,4.000000,4.000000,4.000000,4.000000,4.000000,4.000000,4.000000,4.000000,4.000000,4.000000,100.000000,,,,,,,,,,,,,,,,,,,,,,,,,,,,
1703407930.651631,1703407930.651743,119.000000,0.000000,4224.230957,4207.307617,4308.461426,4280.000000,4184.102539,4170.384766,4232.692383,4166.538574,4153.461426,4151.538574,4633.974121,4481.282227,4394.487305,4473.717773,6075.000000,3.000000,74.000000,,,,0.000000,4.000000,4.000000,4.000000,4.000000,4.000000,4.000000,4.000000,4.000000,4.000000,4.000000,4.000000,4.000000,4.000000,4.000000,100.000000,,,,,,,,,,,,,,,,,,,,,,,,,,,,
1703407930.659440,1703407930.659551,120.000000,0.000000,4214.487305,4205.128418,4307.563965,4278.717773,4188.589844,4171.922852,4233.974121,4191.282227,4172.051270,4167.051270,4640.384766,4480.256348,4391.538574,4480.897461,6601.000000,3.000000,74.000000,,,,0.000000,4.000000,4.000000,4.000000,4.000000,4.000000,4.000000,4.000000,4.000000,4.000000,4.000000,4.000000,4.000000,4.000000,4.000000,100.000000,,,,,,,,,,,,,,,,,30.000000,0.000000,0.722198,-0.186707,-0.651917,-0.136292,0.982542,-0.105482,0.079111,-14.898152,-41.412071,65.682640
1703407930.667248,1703407930.667259,121.000000,0.000000,4223.974121,4208.589844,4316.410156,4277.051270,4183.589844,4169.487305,4235.769043,4206.666504,4198.974121,4186.922852,4663.077148,4491.794922,4402.948730,4510.256348,7175.000000,3.000000,74.000000,,,,0.000000,4.000000,4.000000,4.000000,4.000000,4.000000,4.000000,4.000000,4.000000,4.000000,4.000000,4.000000,4.000000,4.000000,4.000000,100.000000,,,,,,,,,,,,,,,,,,,,,,,,,,,,
1703407930.675056,1703407930.675067,122.000000,0.000000,4235.769043,4205.128418,4319.230957,4272.820313,4170.256348,4171.538574,4235.512695,4209.615234,4215.256348,4199.102539,4673.589844,4501.794922,4415.128418,4505.512695,5906.000000,3.000000,74.000000,,,,0.000000,4.000000,4.000000,4.000000,4.000000,4.000000,4.000000,4.000000,4.000000,4.000000,4.000000,4.000000,4.000000,4.000000,4.000000,100.000000,,,,,,,,,,,,,,,,,,,,,,,,,,,,
1703407930.682864,1703407930.682775,123.000000,0.000000,4222.307617,4196.153809,4310.641113,4260.384766,4174.230957,4172.436035,4233.461426,4210.769043,4210.256348,4199.743652,4664.230957,4494.871582,4408.589844,4481.410156,6075.000000,3.000000,74.000000,,,,0.000000,4.000000,4.000000,4.000000,4.000000,4.000000,4.000000,4.000000,4.000000,4.000000,4.000000,4.000000,4.000000,4.000000,4.000000,100.000000,,,,,,,,,,,,,,,,,,,,,,,,,,,,
1703407930.690672,1703407930.690683,124.000000,0.000000,4207.820313,4187.948730,4300.641113,4252.948730,4184.743652,4170.641113,4233.846191,4203.589844,4200.641113,4190.769043,4653.205078,4479.487305,4397.051270,4479.743652,6601.000000,3.000000,74.000000,,,,0.000000,4.000000,4.000000,4.000000,4.000000,4.000000,4.000000,4.000000,4.000000,4.000000,4.000000,4.000000,4.000000,4.000000,4.000000,100.000000,,,,,,,,,,,,,,,,,31.000000,0.000000,0.722136,-0.186646,-0.651978,-0.136414,0.974728,-0.086925,0.083018,-14.958337,-41.304195,65.664375
1703407930.698480,1703407930.698491,125.000000,0.000000,4200.384766,4184.615234,4295.256348,4252.948730,4184.358887,4168.461426,4233.717773,4190.128418,4190.769043,4180.512695,4647.692383,4473.461426,4393.846191,4478.589844,7175.000000,3.000000,74.000000,,,,0.000000,4.000000,4.000000,4.000000,4.000000,4.000000,4.000000,4.000000,4.000000,4.000000,4.000000,4.000000,4.000000,4.000000,4.000000,100.000000,,,,,,,,,,,,,,,,,,,,,,,,,,,,
1703407930.706288,1703407930.706399,126.000000,0.000000,4197.436035,4192.051270,4293.461426,4254.743652,4190.384766,4166.025879,4229.871582,4184.102539,4177.563965,4174.615234,4642.563965,4474.743652,4391.794922,4472.436035,5906.000000,3.000000,74.000000,,,,0.000000,4.000000,4.000000,4.000000,4.000000,4.000000,4.000000,4.000000,4.000000,4.000000,4.000000,4.000000,4.000000,4.000000,4.000000,100.000000,,,,,,,,,,,,,,,,,,,,,,,,,,,,
1703407930.714096,1703407930.714207,127.000000,0.000000,4217.436035,4199.743652,4297.692383,4266.410156,4202.948730,4167.307617,4228.461426,4180.641113,4167.436035,4169.102539,4632.948730,4474.102539,4386.410156,4480.256348,74.000000,3.000000,74.000000,,,,0.000000,4.000000,4.000000,4.000000,4.000000,4.000000,4.000000,4.000000,4.000000,4.000000,4.000000,4.000000,4.000000,4.000000,4.000000,100.000000,,,,,,,,,,,,,,,,,,,,,,,,,,,,
1703407930.721904,1703407930.722115,0.000000,0.000000,4238.846191,4202.820313,4305.769043,4279.358887,4199.358887,4169.102539,4229.743652,4167.563965,4155.641113,4161.282227,4625.769043,4472.692383,4384.487305,4491.794922,5020.000000,3.000000,74.000000,,,,0.000000,4.000000,4.000000,4.000000,4.000000,4.000000,4.000000,4.000000,4.000000,4.000000,4.000000,4.000000,4.000000,4.000000,4.000000,100.000000,,,,,,,,,,,,,,,,,0.000000,0.000000,0.722073,-0.186584,-0.652039,-0.136536,0.992797,-0.095226,0.088390,-14.962503,-41.373775,65.564606
1703407930.729712,1703407930.729923,1.000000,0.000000,4230.897461,4208.846191,4308.974121,4280.000000,4187.436035,4166.794922,4222.051270,4150.128418,4136.538574,4151.538574,4627.563965,4474.230957,4387.051270,4500.256348,5417.000000,3.000000,74.000000,,,,0.000000,4.000000,4.000000,4.000000,4.000000,4.000000,4.000000,4.000000,4.000000,4.000000,4.000000,4.000000,4.000000,4.000000,4.000000,100.000000,,,,,,,,,,,,,,,,,,,,,,,,,,,,
1703407930.737520,1703407930.737831,2.000000,0.000000,4233.717773,4216.666504,4312.820313,4273.846191,4186.922852,4166.538574,4216.025879,4148.717773,4137.307617,4152.692383,4641.025879,4481.282227,4395.000000,4510.000000,5198.000000,3.000000,74.000000,,,,0.000000,4.000000,4.000000,4.000000,4.000000,4.000000,4.000000,4.000000,4.000000,4.000000,4.000000,4.000000,4.000000,4.000000,4.000000,100.000000,,,,,,,,,,,,,,,,,,,,,,,,,,,,
1703407930.745328,1703407930.745639,3.000000,0.000000,4252.563965,4214.358887,4321.410156,4270.384766,4184.871582,4168.974121,4224.358887,4163.461426,4158.461426,4166.282227,4650.384766,4495.000000,4401.922852,4513.974121,5280.000000,3.000000,74.000000,,,,0.000000,4.000000,4.000000,4.000000,4.000000,4.000000,4.000000,4.000000,4.000000,4.000000,4.000000,4.000000,4.000000,4.000000,4.000000,100.000000,,,,,,,,,,,,,,,,,,,,,,,,,,,,
1703407930.753136,1703407930.753547,4.000000,0.000000,4239.871582,4203.846191,4320.256348,4268.461426,4177.692383,4168.717773,4230.128418,4175.256348,4169.230957,4171.025879,4641.538574,4499.871582,4399.358887,4511.153809,5106.000000,3.000000,74.000000,,,,0.000000,4.000000,4.000000,4.000000,4.000000,4.000000,4.000000,4.000000,4.000000,4.000000,4.000000,4.000000,4.000000,4.000000,4.000000,100.000000,,,,,,,,,,,,,,,,,1.000000,0.000000,0.722038,-0.186462,-0.652100,-0.136597,0.979123,-0.094738,0.079111,-15.032920,-41.503067,65.541481
1703407930.760944,1703407930.761355,5.000000,0.000000,4219.230957,4195.897461,4310.897461,4262.307617,4177.307617,4168.589844,4230.897461,4185.256348,4176.794922,4168.461426,4630.000000,4494.230957,4392.436035,4514.615234,4550.000000,3.000000,74.000000,,,,0.000000,4.000000,4.000000,4.000000,4.000000,4.000000,4.000000,4.000000,4.000000,4.000000,4.000000,4.000000,4.000000,4.000000,4.000000,100.000000,,,,,,,,,,,,,,,,,,,,,,,,,,,,
1703407930.768752,1703407930.769063,6.000000,0.000000,4234.102539,4194.743652,4305.897461,4255.000000,4181.282227,4168.461426,4227.948730,4197.563965,4188.974121,4172.436035,4633.077148,4491.666504,4391.666504,4523.333496,3064.000000,3.000000,74.000000,,,,0.000000,4.000000,4.000000,4.000000,4.000000,4.000000,4.000000,4.000000,4.000000,4.000000,4.000000,4.000000,4.000000,4.000000,4.000000,100.000000,,,,,,,,,,,,,,,,,,,,,,,,,,,,
1703407930.776560,1703407930.776871,7.000000,0.000000,4257.051270,4203.333496,4299.743652,4261.666504,4189.615234,4168.589844,4223.333496,4198.589844,4190.512695,4178.717773,4641.025879,4493.461426,4401.153809,4523.077148,5056.000000,3.000000,74.000000,,,,0.000000,4.000000,4.000000,4.000000,4.000000,4.000000,4.000000,4.000000,4.000000,4.000000,4.000000,4.000000,4.000000,4.000000,4.000000,100.000000,,,,,,,,,,,,,,,,,,,,,,,,,,,,
1703407930.784368,1703407930.784579,8.000000,0.000000,4249.871582,4211.410156,4295.897461,4269.102539,4200.128418,4171.794922,4226.410156,4189.487305,4188.077148,4185.000000,4641.153809,4493.974121,4408.717773,4513.589844,4868.000000,3.000000,74.000000,,,,0.000000,4.000000,4.000000,4.000000,4.000000,4.000000,4.000000,4.000000,4.000000,4.000000,4.000000,4.000000,4.000000,4.000000,4.000000,100.000000,,,,,,,,,,,,,,,,,2.000000,0.000000,0.722003,-0.186218,-0.652222,-0.136536,0.987425,-0.085460,0.077158,-15.046294,-41.586094,65.520660
1703407930.792176,1703407930.792387,9.000000,0.000000,4227.307617,4208.717773,4304.102539,4260.128418,4201.922852,4171.282227,4227.179688,4187.307617,4192.820313,4190.000000,4634.230957,4492.563965,4404.871582,4504.487305,5125.000000,3.000000,74.000000,,,,0.000000,4.000000,4.000000,4.000000,4.000000,4.000000,4.000000,4.000000,4.000000,4.000000,4.000000,4.000000,4.000000,4.000000,4.000000,100.000000,,,,,,,,,,,,,,,,,,,,,,,,,,,,
1703407930.799985,1703407930.800095,10.000000,0.000000,4224.230957,4210.769043,4311.282227,4266.666504,4197.436035,4167.563965,4221.282227,4185.641113,4186.538574,4181.922852,4629.743652,4489.230957,4400.000000,4505.512695,5906.000000,3.000000,74.000000,,,,0.000000,4.000000,4.000000,4.000000,4.000000,4.000000,4.000000,4.000000,4.000000,4.000000,4.000000,4.000000,4.000000,4.000000,4.000000,100.000000,,,,,,,,,,,,,,,,,,,,,,,,,,,,
1703407930.807793,1703407930.807903,11.000000,0.000000,4235.256348,4218.717773,4309.230957,4282.563965,4201.666504,4164.102539,4221.153809,4174.487305,4172.948730,4169.743652,4633.077148,4488.717773,4401.410156,4510.897461,6072.000000,3.000000,74.000000,,,,0.000000,4.000000,4.000000,4.000000,4.000000,4.000000,4.000000,4.000000,4.000000,4.000000,4.000000,4.000000,4.000000,4.000000,4.000000,100.000000,,,,,,,,,,,,,,,,,,,,,,,,,,,,
1703407930.815601,1703407930.815611,12.000000,0.000000,4233.846191,4217.436035,4308.974121,4277.307617,4201.538574,4159.487305,4222.436035,4167.307617,4168.717773,4173.077148,4634.102539,4489.487305,4399.871582,4508.589844,6601.000000,3.000000,74.000000,,,,0.000000,4.000000,4.000000,4.000000,4.000000,4.000000,4.000000,4.000000,4.000000,4.000000,4.000000,4.000000,4.000000,4.000000,4.000000,100.000000,,,,,,,,,,,,,,,,,3.000000,0.000000,0.721888,-0.185974,-0.652405,-0.136597,0.969845,-0.092296,0.085460,-15.174998,-41.510815,65.568596
1703407930.823409,1703407930.823419,13.000000,0.000000,4235.128418,4216.153809,4315.256348,4275.128418,4190.128418,4153.333496,4216.282227,4167.051270,4163.205078,4179.871582,4630.256348,4488.589844,4396.153809,4501.666504,7172.000000,3.000000,74.000000,,,,0.000000,4.000000,4.000000,4.000000,4.000000,4.000000,4.000000,4.000000,4.000000,4.000000,4.000000,4.000000,4.000000,4.000000,4.000000,100.000000,,,,,,,,,,,,,,,,,,,,,,,,,,,,
1703407930.831217,1703407930.831127,14.000000,0.000000,4249.230957,4217.820313,4317.051270,4285.512695,4185.512695,4153.205078,4213.846191,4165.512695,4160.512695,4180.000000,4634.230957,4492.051270,4399.358887,4505.641113,5906.000000,3.000000,74.000000,,,,0.000000,4.000000,4.000000,4.000000,4.000000,4.000000,4.000000,4.000000,4.000000,4.000000,4.000000,4.000000,4.000000,4.000000,4.000000,100.000000,,,,,,,,,,,,,,,,,,,,,,,,,,,,
1703407930.839025,1703407930.838935,15.000000,0.000000,4239.743652,4207.692383,4311.922852,4275.000000,4184.358887,4160.769043,4222.179688,4171.794922,4166.410156,4180.512695,4638.461426,4495.897461,4400.897461,4514.102539,6072.000000,3.000000,74.000000,,,,0.000000,4.000000,4.000000,4.000000,4.000000,4.000000,4.000000,4.000000,4.000000,4.000000,4.000000,4.000000,4.000000,4.000000,4.000000,100.000000,,,,,,,,,,,,,,,,,,,,,,,,,,,,
1703407930.846833,1703407930.846643,16.000000,0.000000,4215.128418,4193.077148,4305.769043,4251.666504,4177.307617,4168.205078,4226.153809,4184.487305,4172.948730,4184.743652,4633.333496,4489.743652,4393.333496,4499.615234,0.000000,3.000000,74.000000,,,,0.000000,4.000000,4.000000,4.000000,4.000000,4.000000,4.000000,4.000000,4.000000,4.000000,4.000000,4.000000,4.000000,4.000000,4.000000,100.000000,,,,,,,,,,,,,,,,,4.000000,0.000000,0.721959,-0.185913,-0.652344,-0.136597,0.987914,-0.098645,0.083018,-15.174165,-41.459736,65.545067
1703407930.854641,1703407930.854551,17.000000,0.000000,4214.743652,4185.641113,4300.384766,4253.077148,4175.384766,4169.743652,4224.743652,4188.077148,4177.563965,4185.000000,4624.743652,4481.282227,4386.282227,4471.538574,0.000000,3.000000,74.000000,,,,0.000000,4.000000,4.000000,4.000000,4.000000,4.000000,4.000000,4.000000,4.000000,4.000000,4.000000,4.000000,4.000000,4.000000,4.000000,100.000000,,,,,,,,,,,,,,,,,,,,,,,,,,,,
1703407930.862449,1703407930.862359,18.000000,0.000000,4214.743652,4183.846191,4295.128418,4257.820313,4183.717773,4167.563965,4225.641113,4185.384766,4182.948730,4179.487305,4616.410156,4477.436035,4384.615234,4474.743652,0.000000,3.000000,74.000000,,,,0.000000,4.000000,4.000000,4.000000,4.000000,4.000000,4.000000,4.000000,4.000000,4.000000,4.000000,4.000000,4.000000,4.000000,4.000000,100.000000,,,,,,,,,,,,,,,,,,,,,,,,,,,,
1703407930.870257,1703407930.870267,19.000000,0.000000,4200.512695,4184.358887,4291.282227,4246.025879,4185.897461,4166.410156,4228.717773,4185.641113,4187.307617,4173.205078,4614.102539,4473.974121,4387.436035,4501.410156,0.000000,3.000000,74.000000,,,,0.000000,4.000000,4.000000,4.000000,4.000000,4.000000,4.000000,4.000000,4.000000,4.000000,4.000000,4.000000,4.000000,4.000000,4.000000,100.000000,,,,,,,,,,,,,,,,,,,,,,,,,,,,
1703407930.878065,1703407930.878076,20.000000,0.000000,4208.589844,4187.563965,4297.563965,4248.846191,4183.717773,4165.897461,4223.461426,4189.230957,4190.000000,4176.538574,4626.538574,4476.666504,4396.794922,4506.922852,0.000000,3.000000,74.000000,,,,0.000000,4.000000,4.000000,4.000000,4.000000,4.000000,4.000000,4.000000,4.000000,4.000000,4.000000,4.000000,4.000000,4.000000,4.000000,100.000000,,,,,,,,,,,,,,,,,5.000000,0.000000,0.722011,-0.186096,-0.652222,-0.136658,0.977170,-0.093761,0.078623,-15.106749,-41.513760,65.457230
1703407930.885873,1703407930.885984,21.000000,0.000000,4228.717773,4189.743652,4304.743652,4264.743652,4188.589844,4165.897461,4215.128418,4190.384766,4191.025879,4186.538574,4636.282227,4491.666504,4408.589844,4503.461426,0.000000,3.000000,74.000000,,,,0.000000,4.000000,4.000000,4.000000,4.000000,4.000000,4.000000,4.000000,4.000000,4.000000,4.000000,4.000000,4.000000,4.000000,4.000000,100.000000,,,,,,,,,,,,,,,,,,,,,,,,,,,,
1703407930.893681,1703407930.893792,22.000000,0.000000,4222.820313,4192.563965,4300.256348,4266.282227,4192.307617,4167.307617,4216.922852,4182.563965,4184.358887,4182.051270,4629.230957,4497.692383,4408.461426,4506.538574,0.000000,3.000000,74.000000,,,,0.000000,4.000000,4.000000,4.000000,4.000000,4.000000,4.000000,4.000000,4.000000,4.000000,4.000000,4.000000,4.000000,4.000000,4.000000,100.000000,,,,,,,,,,,,,,,,,,,,,,,,,,,,
1703407930.901489,1703407930.901700,23.000000,0.000000,4218.974121,4200.512695,4295.384766,4271.153809,4188.205078,4168.974121,4218.846191,4165.256348,4169.358887,4168.974121,4621.794922,4483.717773,4398.974121,4497.436035,0.000000,3.000000,74.000000,,,,0.000000,4.000000,4.000000,4.000000,4.000000,4.000000,4.000000,4.000000,4.000000,4.000000,4.000000,4.000000,4.000000,4.000000,4.000000,100.000000,1.000000,91.666664,4.000000,4.000000,4.000000,4.000000,4.000000,4.000000,4.000000,4.000000,4.000000,3.000000,4.000000,4.000000,4.000000,4.000000,,,,,,,,,,,,
1703407930.909297,1703407930.909508,24.000000,0.000000,4237.563965,4203.461426,4300.641113,4283.461426,4186.794922,4175.641113,4216.153809,4156.282227,4155.769043,4165.641113,4621.538574,4474.230957,4395.256348,4490.384766,0.000000,3.000000,74.000000,,,,0.000000,4.000000,4.000000,4.000000,4.000000,4.000000,4.000000,4.000000,4.000000,4.000000,4.000000,4.000000,4.000000,4.000000,4.000000,100.000000,,,,,,,,,,,,,,,,,6.000000,0.000000,0.721909,-0.186279,-0.652283,-0.136658,0.969845,-0.083995,0.082041,-15.079407,-41.379051,65.528175
1703407930.917105,1703407930.917416,25.000000,0.000000,4230.512695,4188.333496,4301.282227,4273.461426,4187.948730,4181.025879,4220.000000,4168.846191,4159.102539,4167.051270,4617.820313,4476.794922,4389.487305,4493.077148,0.000000,3.000000,74.000000,,,,0.000000,4.000000,4.000000,4.000000,4.000000,4.000000,4.000000,4.000000,4.000000,4.000000,4.000000,4.000000,4.000000,4.000000,4.000000,100.000000,,,,,,,,,,,,,,,,,,,,,,,,,,,,
1703407930.924913,1703407930.925224,26.000000,0.000000,4200.769043,4171.282227,4291.538574,4256.410156,4179.487305,4181.153809,4228.205078,4182.563965,4169.615234,4167.692383,4614.102539,4472.692383,4379.230957,4484.230957,0.000000,3.000000,74.000000,,,,0.000000,4.000000,4.000000,4.000000,4.000000,4.000000,4.000000,4.000000,4.000000,4.000000,4.000000,4.000000,4.000000,4.000000,4.000000,100.000000,,,,,,,,,,,,,,,,,,,,,,,,,,,,
1703407930.932721,1703407930.933132,27.000000,0.000000,4205.512695,4170.128418,4290.000000,4262.820313,4174.230957,4182.563965,4232.692383,4192.948730,4176.794922,4175.000000,4624.743652,4472.948730,4384.230957,4480.256348,0.000000,3.000000,74.000000,,,,0.000000,4.000000,4.000000,4.000000,4.000000,4.000000,4.000000,4.000000,4.000000,4.000000,4.000000,4.000000,4.000000,4.000000,4.000000,100.000000,,,,,,,,,,,,,,,,,,,,,,,,,,,,
1703407930.940529,1703407930.940939,28.000000,0.000000,4234.358887,4172.179688,4299.230957,4267.948730,4177.179688,4185.512695,4232.436035,4211.282227,4189.230957,4187.307617,4638.717773,4486.410156,4396.666504,4492.436035,0.000000,3.000000,74.000000,,,,0.000000,4.000000,4.000000,4.000000,4.000000,4.000000,4.000000,4.000000,4.000000,4.000000,4.000000,4.000000,4.000000,4.000000,4.000000,100.000000,,,,,,,,,,,,,,,,,7.000000,0.000000,0.721837,-0.186218,-0.652405,-0.136536,0.979123,-0.104993,0.077158,-15.088133,-41.474480,65.558693
1703407930.948337,1703407930.948847,29.000000,0.000000,4228.333496,4169.230957,4304.615234,4253.589844,4175.641113,4186.666504,4233.974121,4220.769043,4197.692383,4192.051270,4637.563965,4490.128418,4396.025879,4497.563965,0.000000,3.000000,74.000000,,,,0.000000,4.000000,4.000000,4.000000,4.000000,4.000000,4.000000,4.000000,4.000000,4.000000,4.000000,4.000000,4.000000,4.000000,4.000000,100.000000,,,,,,,,,,,,,,,,,,,,,,,,,,,,
1703407930.956145,1703407930.956655,30.000000,0.000000,4202.051270,4167.692383,4300.256348,4247.820313,4173.717773,4187.563965,4235.128418,4205.897461,4193.461426,4184.743652,4625.641113,4475.384766,4387.307617,4488.846191,0.000000,3.000000,74.000000,,,,0.000000,4.000000,4.000000,4.000000,4.000000,4.000000,4.000000,4.000000,4.000000,4.000000,4.000000,4.000000,4.000000,4.000000,4.000000,100.000000,,,,,,,,,,,,,,,,,,,,,,,,,,,,
1703407930.963954,1703407930.964363,31.000000,0.000000,4202.820313,4170.641113,4293.974121,4265.384766,4181.538574,4188.077148,4232.563965,4188.589844,4184.871582,4173.461426,4615.256348,4460.897461,4381.282227,4475.128418,0.000000,3.000000,74.000000,,,,0.000000,4.000000,4.000000,4.000000,4.000000,4.000000,4.000000,4.000000,4.000000,4.000000,4.000000,4.000000,4.000000,4.000000,4.000000,100.000000,,,,,,,,,,,,,,,,,,,,,,,,,,,,
1703407930.971762,1703407930.972171,32.000000,0.000000,4221.153809,4178.717773,4296.282227,4271.025879,4187.820313,4188.333496,4232.051270,4184.358887,4180.256348,4168.846191,4613.205078,4460.000000,4382.307617,4475.641113,0.000000,3.000000,74.000000,,,,0.000000,4.000000,4.000000,4.000000,4.000000,4.000000,4.000000,4.000000,4.000000,4.000000,4.000000,4.000000,4.000000,4.000000,4.000000,100.000000,,,,,,,,,,,,,,,,,8.000000,0.000000,0.721930,-0.186035,-0.652405,-0.136292,0.988890,-0.109877,0.083506,-15.029320,-41.360367,65.469490
1703407930.979570,1703407930.979879,33.000000,0.000000,4224.358887,4182.179688,4298.717773,4252.563965,4187.179688,4188.717773,4231.666504,4182.948730,4178.846191,4167.563965,4612.436035,4462.179688,4387.307617,4498.717773,0.000000,3.000000,74.000000,,,,0.000000,4.000000,4.000000,4.000000,4.000000,4.000000,4.000000,4.000000,4.000000,4.000000,4.000000,4.000000,4.000000,4.000000,4.000000,100.000000,,,,,,,,,,,,,,,,,,,,,,,,,,,,
1703407930.987378,1703407930.987687,34.000000,0.000000,4218.333496,4177.179688,4292.692383,4253.717773,4187.692383,4185.769043,4230.384766,4180.512695,4175.641113,4160.000000,4606.794922,4455.769043,4385.256348,4513.846191,0.000000,3.000000,74.000000,,,,0.000000,4.000000,4.000000,4.000000,4.000000,4.000000,4.000000,4.000000,4.000000,4.000000,4.000000,4.000000,4.000000,4.000000,4.000000,100.000000,,,,,,,,,,,,,,,,,,,,,,,,,,,,
1703407930.995186,1703407930.995395,35.000000,0.000000,4218.974121,4173.205078,4286.025879,4266.410156,4186.025879,4182.307617,4231.794922,4175.128418,4165.512695,4151.025879,4601.153809,4448.461426,4379.230957,4501.410156,0.000000,3.000000,74.000000,,,,0.000000,4.000000,4.000000,4.000000,4.000000,4.000000,4.000000,4.000000,4.000000,4.000000,4.000000,4.000000,4.000000,4.000000,4.000000,100.000000,,,,,,,,,,,,,,,,,,,,,,,,,,,,
1703407931.002994,1703407931.003304,36.000000,0.000000,4215.641113,4173.589844,4288.333496,4254.615234,4185.641113,4184.102539,4232.179688,4172.051270,4162.179688,4150.897461,4598.077148,4452.820313,4377.051270,4477.692383,0.000000,3.000000,74.000000,,,,0.000000,4.000000,4.000000,4.000000,4.000000,4.000000,4.000000,4.000000,4.000000,4.000000,4.000000,4.000000,4.000000,4.000000,4.000000,100.000000,,,,,,,,,,,,,,,,,9.000000,0.000000,0.721956,-0.186157,-0.652405,-0.135986,0.973752,-0.100110,0.072763,-15.093055,-41.240993,65.505875
1703407931.010802,1703407931.011112,37.000000,0.000000,4201.538574,4171.282227,4288.846191,4243.077148,4184.743652,4186.410156,4230.512695,4176.410156,4169.102539,4153.333496,4587.563965,4450.897461,4365.641113,4455.128418,0.000000,3.000000,74.000000,,,,0.000000,4.000000,4.000000,4.000000,4.000000,4.000000,4.000000,4.000000,4.000000,4.000000,4.000000,4.000000,4.000000,4.000000,4.000000,100.000000,,,,,,,,,,,,,,,,,,,,,,,,,,,,
1703407931.018610,1703407931.019020,38.000000,0.000000,4177.436035,4160.512695,4282.820313,4246.153809,4181.538574,4187.307617,4230.256348,4180.897461,4169.487305,4151.153809,4579.871582,4435.769043,4350.641113,4443.974121,0.000000,3.000000,74.000000,,,,0.000000,4.000000,4.000000,4.000000,4.000000,4.000000,4.000000,4.000000,4.000000,4.000000,4.000000,4.000000,4.000000,4.000000,4.000000,100.000000,,,,,,,,,,,,,,,,,,,,,,,,,,,,
1703407931.026418,1703407931.026828,39.000000,0.000000,4172.179688,4153.846191,4281.794922,4246.922852,4184.871582,4191.282227,4232.307617,4183.077148,4169.230957,4157.436035,4592.051270,4441.025879,4356.410156,4456.794922,0.000000,3.000000,74.000000,,,,0.000000,4.000000,4.000000,4.000000,4.000000,4.000000,4.000000,4.000000,4.000000,4.000000,4.000000,4.000000,4.000000,4.000000,4.000000,100.000000,,,,,,,,,,,,,,,,,,,,,,,,,,,,
1703407931.034226,1703407931.034636,40.000000,0.000000,4199.743652,4163.077148,4283.077148,4247.948730,4189.230957,4192.307617,4232.692383,4185.512695,4176.922852,4169.230957,4604.487305,4454.230957,4371.153809,4472.692383,0.000000,3.000000,74.000000,,,,0.000000,4.000000,4.000000,4.000000,4.000000,4.000000,4.000000,4.000000,4.000000,4.000000,4.000000,4.000000,4.000000,4.000000,4.000000,100.000000,,,,,,,,,,,,,,,,,10.000000,0.000000,0.721929,-0.186218,-0.652405,-0.136047,0.986449,-0.086925,0.087901,-15.033749,-41.366898,65.505287
1703407931.042034,1703407931.042344,41.000000,0.000000,4206.794922,4170.128418,4276.153809,4246.410156,4183.717773,4184.743652,4230.384766,4187.307617,4182.179688,4172.948730,4604.230957,4441.794922,4370.641113,4466.153809,0.000000,3.000000,74.000000,,,,0.000000,4.000000,4.000000,4.000000,4.000000,4.000000,4.000000,4.000000,4.000000,4.000000,4.000000,4.000000,4.000000,4.000000,4.000000,100.000000,,,,,,,,,,,,,,,,,,,,,,,,,,,,
1703407931.049842,1703407931.050252,42.000000,0.000000,4186.922852,4165.384766,4268.974121,4235.641113,4182.179688,4180.897461,4230.256348,4194.487305,4186.153809,4180.641113,4609.615234,4434.615234,4370.641113,4452.436035,0.000000,3.000000,74.000000,,,,0.000000,4.000000,4.000000,4.000000,4.000000,4.000000,4.000000,4.000000,4.000000,4.000000,4.000000,4.000000,4.000000,4.000000,4.000000,100.000000,,,,,,,,,,,,,,,,,,,,,,,,,,,,
1703407931.057650,1703407931.058061,43.000000,0.000000,4188.846191,4165.256348,4272.436035,4236.410156,4193.205078,4187.307617,4232.948730,4202.436035,4191.666504,4194.230957,4617.436035,4451.666504,4383.846191,4455.512695,0.000000,3.000000,74.000000,,,,0.000000,4.000000,4.000000,4.000000,4.000000,4.000000,4.000000,4.000000,4.000000,4.000000,4.000000,4.000000,4.000000,4.000000,4.000000,100.000000,,,,,,,,,,,,,,,,,,,,,,,,,,,,
1703407931.065458,1703407931.065969,44.000000,0.000000,4193.974121,4168.974121,4276.538574,4250.256348,4193.974121,4189.102539,4232.179688,4195.256348,4189.230957,4193.589844,4610.512695,4452.948730,4386.153809,4463.077148,0.000000,3.000000,74.000000,,,,0.000000,4.000000,4.000000,4.000000,4.000000,4.000000,4.000000,4.000000,4.000000,4.000000,4.000000,4.000000,4.000000,4.000000,4.000000,100.000000,,,,,,,,,,,,,,,,,11.000000,0.000000,0.721919,-0.186035,-0.652405,-0.136353,0.977170,-0.083995,0.073251,-15.030374,-41.513538,65.304756
1703407931.073266,1703407931.073777,45.000000,0.000000,4178.589844,4164.102539,4277.051270,4256.153809,4182.179688,4181.666504,4229.487305,4184.358887,4183.205078,4180.256348,4603.717773,4439.230957,4375.000000,4460.897461,0.000000,3.000000,74.000000,,,,0.000000,4.000000,4.000000,4.000000,4.000000,4.000000,4.000000,4.000000,4.000000,4.000000,4.000000,4.000000,4.000000,4.000000,4.000000,100.000000,,,,,,,,,,,,,,,,,,,,,,,,,,,,
1703407931.081074,1703407931.081685,46.000000,0.000000,4189.743652,4166.410156,4282.820313,4255.769043,4181.794922,4181.538574,4232.179688,4186.538574,4181.153809,4173.846191,4608.974121,4451.025879,4374.487305,4462.436035,0.000000,3.000000,74.000000,,,,0.000000,4.000000,4.000000,4.000000,4.000000,4.000000,4.000000,4.000000,4.000000,4.000000,4.000000,4.000000,4.000000,4.000000,4.000000,100.000000,,,,,,,,,,,,,,,,,,,,,,,,,,,,
1703407931.088882,1703407931.089493,47.000000,0.000000,4213.974121,4180.897461,4294.230957,4260.384766,4188.461426,4182.307617,4231.153809,4189.358887,4177.692383,4171.153809,4612.948730,4470.512695,4385.000000,4473.461426,0.000000,3.000000,74.000000,,,,0.000000,4.000000,4.000000,4.000000,4.000000,4.000000,4.000000,4.000000,4.000000,4.000000,4.000000,4.000000,4.000000,4.000000,4.000000,100.000000,,,,,,,,,,,,,,,,,,,,,,,,,,,,
1703407931.096691,1703407931.097401,48.000000,0.000000,4206.666504,4182.051270,4301.025879,4261.410156,4186.666504,4175.384766,4226.538574,4185.641113,4174.743652,4168.205078,4614.743652,4469.358887,4387.692383,4483.589844,0.000000,3.000000,74.000000,,,,0.000000,4.000000,4.000000,4.000000,4.000000,4.000000,4.000000,4.000000,4.000000,4.000000,4.000000,4.000000,4.000000,4.000000,4.000000,100.000000,,,,,,,,,,,,,,,,,12.000000,0.000000,0.721877,-0.185547,-0.652527,-0.136658,0.984984,-0.092296,0.084971,-15.010670,-41.595520,65.190948
1703407931.104499,1703407931.105209,49.000000,0.000000,4196.794922,4169.102539,4294.615234,4248.205078,4182.051270,4175.512695,4229.230957,4186.410156,4174.615234,4170.512695,4616.025879,4461.666504,4382.563965,4468.205078,0.000000,3.000000,74.000000,,,,0.000000,4.000000,4.000000,4.000000,4.000000,4.000000,4.000000,4.000000,4.000000,4.000000,4.000000,4.000000,4.000000,4.000000,4.000000,100.000000,,,,,,,,,,,,,,,,,,,,,,,,,,,,
1703407931.112306,1703407931.113117,50.000000,0.000000,4191.922852,4162.820313,4282.820313,4237.563965,4184.358887,4185.000000,4232.948730,4186.922852,4176.794922,4172.692383,4615.897461,4459.743652,4381.153809,4442.563965,0.000000,3.000000,74.000000,,,,0.000000,4.000000,4.000000,4.000000,4.000000,4.000000,4.000000,4.000000,4.000000,4.000000,4.000000,4.000000,4.000000,4.000000,4.000000,100.000000,,,,,,,,,,,,,,,,,,,,,,,,,,,,
1703407931.120115,1703407931.120925,51.000000,0.000000,4171.666504,4162.051270,4278.205078,4241.666504,4188.333496,4189.230957,4231.666504,4182.436035,4176.922852,4169.871582,4609.487305,4454.230957,4380.769043,4447.692383,0.000000,3.000000,74.000000,,,,0.000000,4.000000,4.000000,4.000000,4.000000,4.000000,4.000000,4.000000,4.000000,4.000000,4.000000,4.000000,4.000000,4.000000,4.000000,100.000000,,,,,,,,,,,,,,,,,,,,,,,,,,,,
1703407931.127923,1703407931.128633,52.000000,0.000000,4170.769043,4160.641113,4275.000000,4246.282227,4191.025879,4187.692383,4232.307617,4182.692383,4176.282227,4169.102539,4596.410156,4437.563965,4375.256348,4461.666504,0.000000,3.000000,74.000000,,,,0.000000,4.000000,4.000000,4.000000,4.000000,4.000000,4.000000,4.000000,4.000000,4.000000,4.000000,4.000000,4.000000,4.000000,4.000000,100.000000,,,,,,,,,,,,,,,,,13.000000,0.000000,0.721956,-0.185364,-0.652466,-0.136780,0.988402,-0.099133,0.083995,-14.992936,-41.702633,65.255188
1703407931.135731,1703407931.136441,53.000000,0.000000,4198.717773,4164.615234,4267.051270,4246.666504,4189.102539,4187.563965,4233.974121,4187.820313,4178.077148,4173.333496,4592.436035,4428.974121,4372.179688,4458.589844,0.000000,3.000000,74.000000,,,,0.000000,4.000000,4.000000,4.000000,4.000000,4.000000,4.000000,4.000000,4.000000,4.000000,4.000000,4.000000,4.000000,4.000000,4.000000,100.000000,,,,,,,,,,,,,,,,,,,,,,,,,,,,
1703407931.143539,1703407931.144149,54.000000,0.000000,4193.846191,4166.282227,4268.589844,4245.000000,4186.153809,4187.436035,4233.077148,4189.487305,4181.666504,4173.974121,4599.871582,4439.871582,4375.512695,4453.589844,0.000000,3.000000,74.000000,,,,0.000000,4.000000,4.000000,4.000000,4.000000,4.000000,4.000000,4.000000,4.000000,4.000000,4.000000,4.000000,4.000000,4.000000,4.000000,100.000000,,,,,,,,,,,,,,,,,,,,,,,,,,,,
1703407931.151347,1703407931.151957,55.000000,0.000000,4169.102539,4162.948730,4279.487305,4243.589844,4193.974121,4182.948730,4231.794922,4188.333496,4181.794922,4174.230957,4604.615234,4450.769043,4376.410156,4454.230957,0.000000,3.000000,74.000000,,,,0.000000,4.000000,4.000000,4.000000,4.000000,4.000000,4.000000,4.000000,4.000000,4.000000,4.000000,4.000000,4.000000,4.000000,4.000000,100.000000,,,,,,,,,,,,,,,,,,,,,,,,,,,,
1703407931.159155,1703407931.159665,56.000000,0.000000,4187.436035,4170.256348,4283.205078,4254.743652,4198.461426,4174.615234,4232.820313,4186.153809,4172.051270,4177.563965,4602.051270,4450.256348,4377.051270,4455.769043,0.000000,3.000000,74.000000,,,,0.000000,4.000000,4.000000,4.000000,4.000000,4.000000,4.000000,4.000000,4.000000,4.000000,4.000000,4.000000,4.000000,4.000000,4.000000,100.000000,,,,,,,,,,,,,,,,,14.000000,0.000000,0.721932,-0.185364,-0.652466,-0.136902,1.000122,-0.098157,0.076181,-15.043643,-41.615704,65.329666
1703407931.166963,1703407931.167473,57.000000,0.000000,4210.897461,4177.307617,4282.307617,4264.230957,4190.641113,4171.282227,4229.615234,4182.948730,4171.282227,4179.743652,4603.205078,4449.615234,4381.153809,4460.897461,0.000000,3.000000,74.000000,,,,0.000000,4.000000,4.000000,4.000000,4.000000,4.000000,4.000000,4.000000,4.000000,4.000000,4.000000,4.000000,4.000000,4.000000,4.000000,100.000000,,,,,,,,,,,,,,,,,,,,,,,,,,,,
1703407931.174771,1703407931.175181,58.000000,0.000000,4192.948730,4169.871582,4285.769043,4252.179688,4188.205078,4174.230957,4224.102539,4183.077148,4178.461426,4181.025879,4611.538574,4451.538574,4382.948730,4462.692383,0.000000,3.000000,74.000000,,,,0.000000,4.000000,4.000000,4.000000,4.000000,4.000000,4.000000,4.000000,4.000000,4.000000,4.000000,4.000000,4.000000,4.000000,4.000000,100.000000,,,,,,,,,,,,,,,,,,,,,,,,,,,,
1703407931.182579,1703407931.182989,59.000000,0.000000,4178.333496,4164.871582,4288.333496,4243.589844,4191.538574,4176.538574,4224.358887,4180.641113,4176.922852,4180.000000,4608.205078,4449.615234,4381.666504,4457.436035,0.000000,3.000000,74.000000,,,,0.000000,4.000000,4.000000,4.000000,4.000000,4.000000,4.000000,4.000000,4.000000,4.000000,4.000000,4.000000,4.000000,4.000000,4.000000,100.000000,,,,,,,,,,,,,,,,,,,,,,,,,,,,
1703407931.190387,1703407931.190697,60.000000,0.000000,4189.487305,4168.717773,4286.282227,4251.538574,4188.205078,4179.743652,4224.358887,4173.974121,4165.256348,4172.436035,4592.307617,4445.897461,4374.615234,4456.666504,0.000000,3.000000,74.000000,,,,0.000000,4.000000,4.000000,4.000000,4.000000,4.000000,4.000000,4.000000,4.000000,4.000000,4.000000,4.000000,4.000000,4.000000,4.000000,100.000000,,,,,,,,,,,,,,,,,15.000000,0.000000,0.721890,-0.185486,-0.652466,-0.136963,0.985472,-0.083506,0.078623,-14.839278,-41.687466,65.380035
1703407931.198195,1703407931.198505,61.000000,0.000000,4184.487305,4163.846191,4279.358887,4251.025879,4183.589844,4181.922852,4222.948730,4176.282227,4164.871582,4166.794922,4587.179688,4439.743652,4362.179688,4448.974121,0.000000,3.000000,74.000000,,,,0.000000,4.000000,4.000000,4.000000,4.000000,4.000000,4.000000,4.000000,4.000000,4.000000,4.000000,4.000000,4.000000,4.000000,4.000000,100.000000,,,,,,,,,,,,,,,,,,,,,,,,,,,,
1703407931.206003,1703407931.206213,62.000000,0.000000,4173.717773,4157.820313,4275.897461,4243.717773,4187.307617,4179.871582,4227.436035,4190.897461,4181.922852,4176.025879,4600.897461,4440.128418,4362.692383,4440.256348,0.000000,3.000000,74.000000,,,,0.000000,4.000000,4.000000,4.000000,4.000000,4.000000,4.000000,4.000000,4.000000,4.000000,4.000000,4.000000,4.000000,4.000000,4.000000,100.000000,,,,,,,,,,,,,,,,,,,,,,,,,,,,
1703407931.213811,1703407931.214021,63.000000,0.000000,4182.820313,4164.230957,4278.333496,4249.871582,4196.153809,4183.717773,4233.077148,4202.948730,4190.769043,4187.563965,4611.538574,4449.358887,4377.051270,4449.230957,0.000000,3.000000,74.000000,,,,0.000000,4.000000,4.000000,4.000000,4.000000,4.000000,4.000000,4.000000,4.000000,4.000000,4.000000,4.000000,4.000000,4.000000,4.000000,100.000000,,,,,,,,,,,,,,,,,,,,,,,,,,,,
1703407931.221619,1703407931.221729,64.000000,0.000000,4189.615234,4171.666504,4272.436035,4257.436035,4198.974121,4186.410156,4231.025879,4198.589844,4182.820313,4188.974121,4607.820313,4445.512695,4380.769043,4455.897461,5020.000000,3.000000,74.000000,,,,0.000000,4.000000,4.000000,4.000000,4.000000,4.000000,4.000000,4.000000,4.000000,4.000000,4.000000,4.000000,4.000000,4.000000,4.000000,100.000000,,,,,,,,,,,,,,,,,16.000000,0.000000,0.721995,-0.185425,-0.652405,-0.136780,0.975217,-0.088878,0.083018,-14.855350,-41.602055,65.275360
1703407931.229427,1703407931.229537,65.000000,0.000000,4185.000000,4170.641113,4267.436035,4255.769043,4193.846191,4174.615234,4227.820313,4188.205078,4175.897461,4186.538574,4604.358887,4436.410156,4373.846191,4447.051270,5414.000000,3.000000,74.000000,,,,0.000000,4.000000,4.000000,4.000000,4.000000,4.000000,4.000000,4.000000,4.000000,4.000000,4.000000,4.000000,4.000000,4.000000,4.000000,100.000000,,,,,,,,,,,,,,,,,,,,,,,,,,,,
1703407931.237235,1703407931.237245,66.000000,0.000000,4184.358887,4170.897461,4276.153809,4249.871582,4189.102539,4167.051270,4229.487305,4185.128418,4178.333496,4185.512695,4602.948730,4442.563965,4373.205078,4442.692383,5203.000000,3.000000,74.000000,,,,0.000000,4.000000,4.000000,4.000000,4.000000,4.000000,4.000000,4.000000,4.000000,4.000000,4.000000,4.000000,4.000000,4.000000,4.000000,100.000000,,,,,,,,,,,,,,,,,,,,,,,,,,,,
1703407931.245043,1703407931.245153,67.000000,0.000000,4184.102539,4169.743652,4279.358887,4245.641113,4192.436035,4177.179688,4230.384766,4185.384766,4176.025879,4183.589844,4598.205078,4444.487305,4373.846191,4451.025879,5280.000000,3.000000,74.000000,,,,0.000000,4.000000,4.000000,4.000000,4.000000,4.000000,4.000000,4.000000,4.000000,4.000000,4.000000,4.000000,4.000000,4.000000,4.000000,100.000000,,,,,,,,,,,,,,,,,,,,,,,,,,,,
1703407931.252851,1703407931.252962,68.000000,0.000000,4182.563965,4169.230957,4275.897461,4252.051270,4197.179688,4182.436035,4229.615234,4185.641113,4175.128418,4184.487305,4602.820313,4445.128418,4377.563965,4459.871582,5103.000000,3.000000,74.000000,,,,0.000000,4.000000,4.000000,4.000000,4.000000,4.000000,4.000000,4.000000,4.000000,4.000000,4.000000,4.000000,4.000000,4.000000,4.000000,100.000000,,,,,,,,,,,,,,,,,17.000000,0.000000,0.722097,-0.185547,-0.652283,-0.136658,0.985960,-0.097668,0.081065,-15.069816,-41.708515,65.364494
1703407931.260660,1703407931.260870,69.000000,0.000000,4195.128418,4182.692383,4288.205078,4263.717773,4197.692383,4175.384766,4230.384766,4187.051270,4181.922852,4187.436035,4621.538574,4467.436035,4392.051270,4469.487305,4549.000000,3.000000,74.000000,,,,0.000000,4.000000,4.000000,4.000000,4.000000,4.000000,4.000000,4.000000,4.000000,4.000000,4.000000,4.000000,4.000000,4.000000,4.000000,100.000000,,,,,,,,,,,,,,,,,,,,,,,,,,,,
1703407931.268468,1703407931.268678,70.000000,0.000000,4209.230957,4189.230957,4298.333496,4266.153809,4196.282227,4171.922852,4227.563965,4183.717773,4176.153809,4183.461426,4627.436035,4477.948730,4397.820313,4473.589844,3064.000000,3.000000,74.000000,,,,0.000000,4.000000,4.000000,4.000000,4.000000,4.000000,4.000000,4.000000,4.000000,4.000000,4.000000,4.000000,4.000000,4.000000,4.000000,100.000000,,,,,,,,,,,,,,,,,,,,,,,,,,,,
1703407931.276276,1703407931.276586,71.000000,0.000000,4205.897461,4175.256348,4290.769043,4263.205078,4197.948730,4173.461426,4219.871582,4181.025879,4165.512695,4181.666504,4614.871582,4462.051270,4386.282227,4461.666504,5055.000000,3.000000,74.000000,,,,0.000000,4.000000,4.000000,4.000000,4.000000,4.000000,4.000000,4.000000,4.000000,4.000000,4.000000,4.000000,4.000000,4.000000,4.000000,100.000000,,,,,,,,,,,,,,,,,,,,,,,,,,,,
1703407931.284084,1703407931.284394,72.000000,0.000000,4194.230957,4167.051270,4286.025879,4260.256348,4198.461426,4174.102539,4222.820313,4186.153809,4171.666504,4183.974121,4613.205078,4456.538574,4378.461426,4455.128418,4868.000000,3.000000,74.000000,,,,0.000000,4.000000,4.000000,4.000000,4.000000,4.000000,4.000000,4.000000,4.000000,4.000000,4.000000,4.000000,4.000000,4.000000,4.000000,100.000000,,,,,,,,,,,,,,,,,18.000000,0.000000,0.722113,-0.185791,-0.652222,-0.136536,0.991820,-0.087901,0.082530,-15.012834,-41.737663,65.544708
1703407931.291892,1703407931.292302,73.000000,0.000000,4186.410156,4173.205078,4288.461426,4258.333496,4196.025879,4175.897461,4230.512695,4188.846191,4182.436035,4185.128418,4617.436035,4463.846191,4385.256348,4463.205078,5118.000000,3.000000,74.000000,,,,0.000000,4.000000,4.000000,4.000000,4.000000,4.000000,4.000000,4.000000,4.000000,4.000000,4.000000,4.000000,4.000000,4.000000,4.000000,100.000000,,,,,,,,,,,,,,,,,,,,,,,,,,,,
1703407931.299700,1703407931.300110,74.000000,0.000000,4186.153809,4174.487305,4287.948730,4260.641113,4198.205078,4181.922852,4230.769043,4189.358887,4185.256348,4192.820313,4616.922852,4464.358887,4393.461426,4469.102539,5898.000000,3.000000,74.000000,,,,0.000000,4.000000,4.000000,4.000000,4.000000,4.000000,4.000000,4.000000,4.000000,4.000000,4.000000,4.000000,4.000000,4.000000,4.000000,100.000000,,,,,,,,,,,,,,,,,,,,,,,,,,,,
1703407931.307508,1703407931.308018,75.000000,0.000000,4190.769043,4169.102539,4282.820313,4260.000000,4200.384766,4183.589844,4230.897461,4190.128418,4187.051270,4199.871582,4618.589844,4456.538574,4392.179688,4459.743652,6072.000000,3.000000,74.000000,,,,0.000000,4.000000,4.000000,4.000000,4.000000,4.000000,4.000000,4.000000,4.000000,4.000000,4.000000,4.000000,4.000000,4.000000,4.000000,100.000000,,,,,,,,,,,,,,,,,,,,,,,,,,,,
1703407931.315316,1703407931.315826,76.000000,0.000000,4189.743652,4172.948730,4283.077148,4248.461426,4198.846191,4176.538574,4227.820313,4185.256348,4181.666504,4193.461426,4617.948730,4451.153809,4386.794922,4446.410156,6604.000000,3.000000,74.000000,,,,0.000000,4.000000,4.000000,4.000000,4.000000,4.000000,4.000000,4.000000,4.000000,4.000000,4.000000,4.000000,4.000000,4.000000,4.000000,100.000000,,,,,,,,,,,,,,,,,19.000000,0.000000,0.722093,-0.186035,-0.652161,-0.136597,0.998169,-0.094250,0.077158,-15.028217,-41.797230,65.606911
1703407931.323124,1703407931.323534,77.000000,0.000000,4184.230957,4180.769043,4295.384766,4246.666504,4196.025879,4168.974121,4218.461426,4181.410156,4171.666504,4183.461426,4613.077148,4457.179688,4384.743652,4449.358887,7172.000000,3.000000,74.000000,,,,0.000000,4.000000,4.000000,4.000000,4.000000,4.000000,4.000000,4.000000,4.000000,4.000000,4.000000,4.000000,4.000000,4.000000,4.000000,100.000000,,,,,,,,,,,,,,,,,,,,,,,,,,,,
1703407931.330932,1703407931.331342,78.000000,0.000000,4193.205078,4181.666504,4301.794922,4251.794922,4188.846191,4167.307617,4215.512695,4182.820313,4167.179688,4182.436035,4612.692383,4466.025879,4384.743652,4471.025879,5898.000000,3.000000,74.000000,,,,0.000000,4.000000,4.000000,4.000000,4.000000,4.000000,4.000000,4.000000,4.000000,4.000000,4.000000,4.000000,4.000000,4.000000,4.000000,100.000000,,,,,,,,,,,,,,,,,,,,,,,,,,,,
1703407931.338740,1703407931.339050,79.000000,0.000000,4205.000000,4180.384766,4295.769043,4248.205078,4185.769043,4168.717773,4222.820313,4185.384766,4170.641113,4183.974121,4617.436035,4467.179688,4384.487305,4477.436035,6072.000000,3.000000,74.000000,,,,0.000000,4.000000,4.000000,4.000000,4.000000,4.000000,4.000000,4.000000,4.000000,4.000000,4.000000,4.000000,4.000000,4.000000,4.000000,100.000000,,,,,,,,,,,,,,,,,,,,,,,,,,,,
1703407931.346548,1703407931.346858,80.000000,0.000000,4205.256348,4183.077148,4298.461426,4252.692383,4189.615234,4170.897461,4226.153809,4187.820313,4179.102539,4183.333496,4615.128418,4471.666504,4383.846191,4462.179688,6604.000000,3.000000,74.000000,,,,0.000000,4.000000,4.000000,4.000000,4.000000,4.000000,4.000000,4.000000,4.000000,4.000000,4.000000,4.000000,4.000000,4.000000,4.000000,100.000000,,,,,,,,,,,,,,,,,20.000000,0.000000,0.722148,-0.186035,-0.652100,-0.136597,0.977170,-0.101575,0.080576,-15.008729,-41.767506,65.579552
1703407931.354356,1703407931.354566,81.000000,0.000000,4202.307617,4184.743652,4304.743652,4263.077148,4189.487305,4172.692383,4221.922852,4190.000000,4185.128418,4183.205078,4609.487305,4475.897461,4380.128418,4462.692383,7172.000000,3.000000,74.000000,,,,0.000000,4.000000,4.000000,4.000000,4.000000,4.000000,4.000000,4.000000,4.000000,4.000000,4.000000,4.000000,4.000000,4.000000,4.000000,100.000000,,,,,,,,,,,,,,,,,,,,,,,,,,,,
1703407931.362164,1703407931.362374,82.000000,0.000000,4197.179688,4181.025879,4299.615234,4256.666504,4187.948730,4171.794922,4222.563965,4187.179688,4184.102539,4186.282227,4609.615234,4466.282227,4378.846191,4474.743652,5898.000000,3.000000,74.000000,,,,0.000000,4.000000,4.000000,4.000000,4.000000,4.000000,4.000000,4.000000,4.000000,4.000000,4.000000,4.000000,4.000000,4.000000,4.000000,100.000000,,,,,,,,,,,,,,,,,,,,,,,,,,,,
1703407931.369972,1703407931.370082,83.000000,0.000000,4194.743652,4177.948730,4296.922852,4249.358887,4188.461426,4170.512695,4226.794922,4184.743652,4174.615234,4187.820313,4608.589844,4460.641113,4380.000000,4472.692383,6072.000000,3.000000,74.000000,,,,0.000000,4.000000,4.000000,4.000000,4.000000,4.000000,4.000000,4.000000,4.000000,4.000000,4.000000,4.000000,4.000000,4.000000,4.000000,100.000000,,,,,,,,,,,,,,,,,,,,,,,,,,,,
1703407931.377780,1703407931.377890,84.000000,0.000000,4202.948730,4179.615234,4299.743652,4258.077148,4186.922852,4169.487305,4228.333496,4190.512695,4168.974121,4184.358887,4606.922852,4467.692383,4376.538574,4468.461426,6604.000000,3.000000,74.000000,,,,0.000000,4.000000,4.000000,4.000000,4.000000,4.000000,4.000000,4.000000,4.000000,4.000000,4.000000,4.000000,4.000000,4.000000,4.000000,100.000000,,,,,,,,,,,,,,,,,21.000000,0.000000,0.722156,-0.185791,-0.652161,-0.136597,0.970333,-0.095715,0.078135,-15.124522,-41.774090,65.604927
1703407931.385588,1703407931.385598,85.000000,0.000000,4208.333496,4187.179688,4302.820313,4265.769043,4187.563965,4169.743652,4228.333496,4200.897461,4177.820313,4190.384766,4615.512695,4479.102539,4383.589844,4475.769043,7172.000000,3.000000,74.000000,,,,0.000000,4.000000,4.000000,4.000000,4.000000,4.000000,4.000000,4.000000,4.000000,4.000000,4.000000,4.000000,4.000000,4.000000,4.000000,100.000000,,,,,,,,,,,,,,,,,,,,,,,,,,,,
1703407931.393396,1703407931.393406,86.000000,0.000000,4203.589844,4189.871582,4303.077148,4264.743652,4189.615234,4170.000000,4226.922852,4205.641113,4188.974121,4202.692383,4621.410156,4483.846191,4396.025879,4480.769043,5898.000000,3.000000,74.000000,,,,0.000000,4.000000,4.000000,4.000000,4.000000,4.000000,4.000000,4.000000,4.000000,4.000000,4.000000,4.000000,4.000000,4.000000,4.000000,100.000000,,,,,,,,,,,,,,,,,,,,,,,,,,,,
1703407931.401204,1703407931.401114,87.000000,0.000000,4201.410156,4183.589844,4294.487305,4262.692383,4185.897461,4166.666504,4220.897461,4199.230957,4186.282227,4197.692383,4614.358887,4472.307617,4390.641113,4473.333496,6072.000000,3.000000,74.000000,,,,0.000000,4.000000,4.000000,4.000000,4.000000,4.000000,4.000000,4.000000,4.000000,4.000000,4.000000,4.000000,4.000000,4.000000,4.000000,100.000000,1.000000,91.666664,4.000000,4.000000,4.000000,4.000000,4.000000,4.000000,4.000000,4.000000,4.000000,3.000000,4.000000,4.000000,4.000000,4.000000,,,,,,,,,,,,
1703407931.409012,1703407931.408922,88.000000,0.000000,4201.922852,4180.512695,4287.563965,4255.128418,4186.538574,4165.769043,4216.922852,4189.871582,4183.846191,4189.358887,4613.589844,4463.589844,4381.666504,4459.487305,6604.000000,3.000000,74.000000,,,,0.000000,4.000000,4.000000,4.000000,4.000000,4.000000,4.000000,4.000000,4.000000,4.000000,4.000000,4.000000,4.000000,4.000000,4.000000,100.000000,,,,,,,,,,,,,,,,,22.000000,0.000000,0.722117,-0.185730,-0.652222,-0.136597,0.988890,-0.094738,0.073251,-15.062070,-41.713348,65.677765
1703407931.416820,1703407931.416630,89.000000,0.000000,4198.974121,4184.487305,4296.282227,4248.333496,4193.077148,4170.897461,4222.179688,4189.487305,4193.333496,4198.974121,4622.820313,4472.051270,4389.487305,4457.692383,7172.000000,3.000000,74.000000,,,,0.000000,4.000000,4.000000,4.000000,4.000000,4.000000,4.000000,4.000000,4.000000,4.000000,4.000000,4.000000,4.000000,4.000000,4.000000,100.000000,,,,,,,,,,,,,,,,,,,,,,,,,,,,
1703407931.424629,1703407931.424438,90.000000,0.000000,4199.871582,4187.051270,4303.974121,4251.282227,4192.436035,4175.384766,4224.615234,4197.179688,4194.487305,4202.948730,4624.743652,4478.589844,4400.384766,4474.487305,5898.000000,3.000000,74.000000,,,,0.000000,4.000000,4.000000,4.000000,4.000000,4.000000,4.000000,4.000000,4.000000,4.000000,4.000000,4.000000,4.000000,4.000000,4.000000,100.000000,,,,,,,,,,,,,,,,,,,,,,,,,,,,
1703407931.432437,1703407931.432146,91.000000,0.000000,4200.384766,4184.487305,4298.077148,4251.282227,4185.256348,4174.358887,4221.282227,4198.974121,4186.153809,4189.743652,4621.153809,4472.820313,4395.128418,4481.666504,6072.000000,3.000000,74.000000,,,,0.000000,4.000000,4.000000,4.000000,4.000000,4.000000,4.000000,4.000000,4.000000,4.000000,4.000000,4.000000,4.000000,4.000000,4.000000,100.000000,,,,,,,,,,,,,,,,,,,,,,,,,,,,
1703407931.440245,1703407931.440054,92.000000,0.000000,4197.948730,4180.256348,4291.282227,4245.769043,4186.282227,4172.051270,4223.974121,4192.179688,4184.615234,4184.102539,4616.282227,4472.692383,4388.589844,4470.000000,6604.000000,3.000000,74.000000,,,,0.000000,4.000000,4.000000,4.000000,4.000000,4.000000,4.000000,4.000000,4.000000,4.000000,4.000000,4.000000,4.000000,4.000000,4.000000,100.000000,,,,,,,,,,,,,,,,,23.000000,0.000000,0.722117,-0.185730,-0.652222,-0.136597,0.970333,-0.098645,0.085948,-15.005863,-41.708679,65.626656
1703407931.448053,1703407931.447862,93.000000,0.000000,4197.179688,4176.025879,4292.692383,4245.769043,4189.230957,4170.000000,4227.563965,4186.794922,4184.102539,4186.025879,4609.743652,4476.922852,4388.589844,4462.436035,7172.000000,3.000000,74.000000,,,,0.000000,4.000000,4.000000,4.000000,4.000000,4.000000,4.000000,4.000000,4.000000,4.000000,4.000000,4.000000,4.000000,4.000000,4.000000,100.000000,,,,,,,,,,,,,,,,,,,,,,,,,,,,
1703407931.455861,1703407931.455770,94.000000,0.000000,4195.384766,4173.717773,4295.641113,4249.358887,4183.589844,4169.871582,4224.487305,4183.974121,4174.487305,4183.077148,4607.307617,4473.717773,4383.333496,4466.538574,5898.000000,3.000000,74.000000,,,,0.000000,4.000000,4.000000,4.000000,4.000000,4.000000,4.000000,4.000000,4.000000,4.000000,4.000000,4.000000,4.000000,4.000000,4.000000,100.000000,,,,,,,,,,,,,,,,,,,,,,,,,,,,
1703407931.463669,1703407931.463579,95.000000,0.000000,4199.358887,4173.333496,4295.384766,4250.641113,4181.410156,4169.358887,4220.897461,4185.384766,4168.974121,4182.051270,4614.871582,4476.410156,4382.692383,4474.871582,6072.000000,3.000000,74.000000,,,,0.000000,4.000000,4.000000,4.000000,4.000000,4.000000,4.000000,4.000000,4.000000,4.000000,4.000000,4.000000,4.000000,4.000000,4.000000,100.000000,,,,,,,,,,,,,,,,,,,,,,,,,,,,
1703407931.471477,1703407931.471487,96.000000,0.000000,4209.102539,4176.153809,4296.282227,4251.794922,4184.615234,4162.436035,4221.282227,4187.051270,4176.794922,4186.666504,4623.077148,4485.256348,4394.102539,4478.077148,6604.000000,3.000000,74.000000,,,,0.000000,4.000000,4.000000,4.000000,4.000000,4.000000,4.000000,4.000000,4.000000,4.000000,4.000000,4.000000,4.000000,4.000000,4.000000,100.000000,,,,,,,,,,,,,,,,,24.000000,0.000000,0.722117,-0.185730,-0.652222,-0.136597,0.993774,-0.080576,0.075204,-14.955277,-41.704479,65.747322
1703407931.479285,1703407931.479295,97.000000,0.000000,4211.282227,4184.487305,4296.922852,4250.256348,4183.846191,4154.487305,4217.179688,4186.410156,4182.563965,4190.512695,4622.563965,4485.256348,4401.410156,4474.487305,7172.000000,3.000000,74.000000,,,,0.000000,4.000000,4.000000,4.000000,4.000000,4.000000,4.000000,4.000000,4.000000,4.000000,4.000000,4.000000,4.000000,4.000000,4.000000,100.000000,,,,,,,,,,,,,,,,,,,,,,,,,,,,
1703407931.487093,1703407931.487203,98.000000,0.000000,4200.897461,4186.025879,4293.846191,4243.205078,4182.179688,4152.307617,4213.205078,4191.153809,4185.512695,4191.538574,4619.615234,4470.897461,4391.153809,4474.358887,5898.000000,3.000000,74.000000,,,,0.000000,4.000000,4.000000,4.000000,4.000000,4.000000,4.000000,4.000000,4.000000,4.000000,4.000000,4.000000,4.000000,4.000000,4.000000,100.000000,,,,,,,,,,,,,,,,,,,,,,,,,,,,
1703407931.494901,1703407931.495011,99.000000,0.000000,4197.179688,4183.589844,4296.538574,4251.666504,4187.948730,4158.333496,4217.948730,4200.256348,4194.358887,4195.641113,4618.333496,4464.743652,4386.025879,4477.179688,6072.000000,3.000000,74.000000,,,,0.000000,4.000000,4.000000,4.000000,4.000000,4.000000,4.000000,4.000000,4.000000,4.000000,4.000000,4.000000,4.000000,4.000000,4.000000,100.000000,,,,,,,,,,,,,,,,,,,,,,,,,,,,
1703407931.502709,1703407931.502919,100.000000,0.000000,4210.641113,4194.871582,4303.589844,4272.563965,4196.153809,4167.820313,4219.358887,4196.538574,4196.025879,4197.948730,4617.307617,4475.512695,4395.512695,4477.692383,6604.000000,3.000000,74.000000,,,,0.000000,4.000000,4.000000,4.000000,4.000000,4.000000,4.000000,4.000000,4.000000,4.000000,4.000000,4.000000,4.000000,4.000000,4.000000,100.000000,,,,,,,,,,,,,,,,,25.000000,0.000000,0.722211,-0.185791,-0.652100,-0.136597,1.000610,-0.102552,0.073739,-14.893083,-41.717365,65.705925
1703407931.510517,1703407931.510727,101.000000,0.000000,4216.922852,4204.743652,4301.666504,4272.563965,4197.563965,4171.410156,4215.384766,4185.128418,4185.897461,4190.128418,4616.794922,4474.615234,4396.025879,4478.461426,7172.000000,3.000000,74.000000,,,,0.000000,4.000000,4.000000,4.000000,4.000000,4.000000,4.000000,4.000000,4.000000,4.000000,4.000000,4.000000,4.000000,4.000000,4.000000,100.000000,,,,,,,,,,,,,,,,,,,,,,,,,,,,
1703407931.518325,1703407931.518634,102.000000,0.000000,4200.256348,4194.230957,4297.179688,4261.025879,4198.077148,4171.282227,4220.384766,4181.025879,4178.846191,4183.974121,4614.358887,4462.179688,4386.666504,4473.205078,5898.000000,3.000000,74.000000,,,,0.000000,4.000000,4.000000,4.000000,4.000000,4.000000,4.000000,4.000000,4.000000,4.000000,4.000000,4.000000,4.000000,4.000000,4.000000,100.000000,,,,,,,,,,,,,,,,,,,,,,,,,,,,
1703407931.526133,1703407931.526442,103.000000,0.000000,4188.333496,4186.282227,4294.615234,4258.974121,4202.820313,4174.102539,4224.871582,4174.102539,4175.641113,4184.358887,4606.410156,4458.846191,4382.948730,4467.692383,6072.000000,3.000000,74.000000,,,,0.000000,4.000000,4.000000,4.000000,4.000000,4.000000,4.000000,4.000000,4.000000,4.000000,4.000000,4.000000,4.000000,4.000000,4.000000,100.000000,,,,,,,,,,,,,,,,,,,,,,,,,,,,
1703407931.533941,1703407931.534350,104.000000,0.000000,4197.563965,4187.051270,4286.282227,4257.307617,4200.000000,4176.666504,4223.077148,4168.589844,4167.692383,4178.589844,4598.205078,4457.051270,4382.307617,4466.666504,6604.000000,3.000000,74.000000,,,,0.000000,4.000000,4.000000,4.000000,4.000000,4.000000,4.000000,4.000000,4.000000,4.000000,4.000000,4.000000,4.000000,4.000000,4.000000,100.000000,,,,,,,,,,,,,,,,,26.000000,0.000000,0.722174,-0.185730,-0.652222,-0.136292,0.992797,-0.090343,0.077158,-14.903774,-41.745628,65.568665
1703407931.541749,1703407931.542158,105.000000,0.000000,4202.563965,4179.615234,4285.512695,4245.641113,4187.563965,4171.922852,4226.922852,4174.743652,4164.102539,4168.974121,4595.128418,4453.717773,4371.922852,4461.025879,7172.000000,3.000000,74.000000,,,,0.000000,4.000000,4.000000,4.000000,4.000000,4.000000,4.000000,4.000000,4.000000,4.000000,4.000000,4.000000,4.000000,4.000000,4.000000,100.000000,,,,,,,,,,,,,,,,,,,,,,,,,,,,
1703407931.549557,1703407931.549866,106.000000,0.000000,4203.333496,4176.794922,4297.436035,4239.743652,4181.538574,4166.666504,4229.102539,4186.025879,4169.230957,4171.794922,4597.563965,4465.000000,4369.743652,4458.205078,5898.000000,3.000000,74.000000,,,,0.000000,4.000000,4.000000,4.000000,4.000000,4.000000,4.000000,4.000000,4.000000,4.000000,4.000000,4.000000,4.000000,4.000000,4.000000,100.000000,,,,,,,,,,,,,,,,,,,,,,,,,,,,
1703407931.557366,1703407931.557674,107.000000,0.000000,4221.794922,4185.512695,4306.282227,4253.077148,4183.461426,4165.512695,4222.563965,4197.692383,4184.358887,4187.051270,4616.153809,4487.820313,4387.820313,4479.102539,6072.000000,3.000000,74.000000,,,,0.000000,4.000000,4.000000,4.000000,4.000000,4.000000,4.000000,4.000000,4.000000,4.000000,4.000000,4.000000,4.000000,4.000000,4.000000,100.000000,,,,,,,,,,,,,,,,,,,,,,,,,,,,
1703407931.565174,1703407931.565382,108.000000,0.000000,4235.384766,4188.846191,4313.077148,4267.563965,4185.000000,4160.769043,4221.025879,4206.794922,4200.128418,4197.436035,4636.538574,4500.641113,4404.743652,4503.846191,6604.000000,3.000000,74.000000,,,,0.000000,4.000000,4.000000,4.000000,4.000000,4.000000,4.000000,4.000000,4.000000,4.000000,4.000000,4.000000,4.000000,4.000000,4.000000,100.000000,,,,,,,,,,,,,,,,,27.000000,0.000000,0.722147,-0.185669,-0.652283,-0.136230,0.981077,-0.102063,0.073251,-14.913397,-41.737732,65.478470
1703407931.572981,1703407931.573290,109.000000,0.000000,4233.333496,4192.692383,4323.974121,4263.846191,4185.384766,4153.589844,4223.846191,4207.051270,4196.153809,4199.102539,4637.179688,4507.051270,4410.128418,4511.538574,7172.000000,3.000000,74.000000,,,,0.000000,4.000000,4.000000,4.000000,4.000000,4.000000,4.000000,4.000000,4.000000,4.000000,4.000000,4.000000,4.000000,4.000000,4.000000,100.000000,,,,,,,,,,,,,,,,,,,,,,,,,,,,
1703407931.580790,1703407931.581099,110.000000,0.000000,4235.897461,4202.436035,4326.410156,4258.205078,4184.487305,4159.230957,4219.358887,4198.461426,4185.000000,4197.307617,4634.743652,4510.897461,4413.205078,4515.256348,5898.000000,3.000000,74.000000,,,,0.000000,4.000000,4.000000,4.000000,4.000000,4.000000,4.000000,4.000000,4.000000,4.000000,4.000000,4.000000,4.000000,4.000000,4.000000,100.000000,,,,,,,,,,,,,,,,,,,,,,,,,,,,
1703407931.588598,1703407931.589007,111.000000,0.000000,4234.102539,4204.871582,4318.589844,4268.589844,4186.025879,4166.410156,4214.871582,4189.871582,4182.179688,4192.820313,4633.717773,4501.282227,4411.538574,4519.102539,6072.000000,3.000000,74.000000,,,,0.000000,4.000000,4.000000,4.000000,4.000000,4.000000,4.000000,4.000000,4.000000,4.000000,4.000000,4.000000,4.000000,4.000000,4.000000,100.000000,,,,,,,,,,,,,,,,,,,,,,,,,,,,
1703407931.596406,1703407931.596815,112.000000,0.000000,4219.743652,4198.461426,4308.205078,4269.487305,4189.230957,4161.410156,4220.897461,4186.153809,4177.436035,4185.897461,4623.846191,4483.205078,4401.922852,4509.615234,6604.000000,3.000000,74.000000,,,,0.000000,4.000000,4.000000,4.000000,4.000000,4.000000,4.000000,4.000000,4.000000,4.000000,4.000000,4.000000,4.000000,4.000000,4.000000,100.000000,,,,,,,,,,,,,,,,,28.000000,0.000000,0.722272,-0.185608,-0.652161,-0.136230,0.982053,-0.096203,0.089366,-14.905391,-41.747292,65.347290
1703407931.604214,1703407931.604623,113.000000,0.000000,4211.153809,4186.153809,4298.461426,4252.692383,4186.794922,4161.922852,4223.077148,4186.794922,4166.538574,4179.358887,4613.461426,4476.538574,4395.000000,4494.615234,7172.000000,3.000000,74.000000,,,,0.000000,4.000000,4.000000,4.000000,4.000000,4.000000,4.000000,4.000000,4.000000,4.000000,4.000000,4.000000,4.000000,4.000000,4.000000,100.000000,,,,,,,,,,,,,,,,,,,,,,,,,,,,
1703407931.612022,1703407931.612331,114.000000,0.000000,4214.102539,4170.512695,4289.743652,4245.769043,4181.153809,4170.128418,4220.000000,4186.282227,4165.000000,4178.461426,4609.230957,4473.846191,4387.563965,4489.358887,5898.000000,3.000000,74.000000,,,,0.000000,4.000000,4.000000,4.000000,4.000000,4.000000,4.000000,4.000000,4.000000,4.000000,4.000000,4.000000,4.000000,4.000000,4.000000,100.000000,,,,,,,,,,,,,,,,,,,,,,,,,,,,
1703407931.619830,1703407931.620239,115.000000,0.000000,4212.563965,4165.000000,4283.717773,4246.922852,4181.922852,4170.384766,4222.179688,4185.256348,4175.769043,4179.358887,4601.410156,4461.666504,4378.333496,4490.897461,6072.000000,3.000000,74.000000,,,,0.000000,4.000000,4.000000,4.000000,4.000000,4.000000,4.000000,4.000000,4.000000,4.000000,4.000000,4.000000,4.000000,4.000000,4.000000,100.000000,,,,,,,,,,,,,,,,,,,,,,,,,,,,
1703407931.627638,1703407931.628048,116.000000,0.000000,4202.436035,4166.025879,4280.897461,4245.128418,4186.666504,4173.077148,4229.487305,4186.922852,4181.025879,4179.102539,4600.256348,4454.230957,4377.692383,4481.282227,6604.000000,3.000000,74.000000,,,,0.000000,4.000000,4.000000,4.000000,4.000000,4.000000,4.000000,4.000000,4.000000,4.000000,4.000000,4.000000,4.000000,4.000000,4.000000,100.000000,,,,,,,,,,,,,,,,,29.000000,0.000000,0.722304,-0.185913,-0.652039,-0.136230,0.979123,-0.087901,0.081065,-14.898185,-41.672562,65.462555
1703407931.635446,1703407931.635956,117.000000,0.000000,4196.410156,4158.717773,4280.512695,4246.410156,4187.179688,4183.589844,4231.922852,4188.077148,4180.897461,4179.487305,4610.128418,4456.282227,4380.769043,4463.077148,7172.000000,3.000000,74.000000,,,,0.000000,4.000000,4.000000,4.000000,4.000000,4.000000,4.000000,4.000000,4.000000,4.000000,4.000000,4.000000,4.000000,4.000000,4.000000,100.000000,,,,,,,,,,,,,,,,,,,,,,,,,,,,
1703407931.643254,1703407931.643764,118.000000,0.000000,4193.589844,4151.282227,4283.846191,4250.512695,4183.077148,4185.256348,4229.230957,4187.051270,4183.717773,4182.820313,4612.179688,4457.436035,4379.743652,4459.615234,5898.000000,3.000000,74.000000,,,,0.000000,4.000000,4.000000,4.000000,4.000000,4.000000,4.000000,4.000000,4.000000,4.000000,4.000000,4.000000,4.000000,4.000000,4.000000,100.000000,,,,,,,,,,,,,,,,,,,,,,,,,,,,
1703407931.651062,1703407931.651672,119.000000,0.000000,4194.358887,4158.333496,4290.384766,4248.589844,4184.615234,4184.743652,4229.743652,4185.897461,4187.563965,4186.794922,4610.897461,4465.128418,4385.000000,4484.358887,6072.000000,3.000000,74.000000,,,,0.000000,4.000000,4.000000,4.000000,4.000000,4.000000,4.000000,4.000000,4.000000,4.000000,4.000000,4.000000,4.000000,4.000000,4.000000,100.000000,,,,,,,,,,,,,,,,,,,,,,,,,,,,
1703407931.658870,1703407931.659480,120.000000,0.000000,4208.717773,4168.974121,4299.615234,4247.051270,4187.820313,4187.948730,4229.230957,4188.333496,4183.974121,4184.230957,4617.436035,4476.794922,4392.692383,4505.897461,6604.000000,3.000000,74.000000,,,,0.000000,4.000000,4.000000,4.000000,4.000000,4.000000,4.000000,4.000000,4.000000,4.000000,4.000000,4.000000,4.000000,4.000000,4.000000,100.000000,,,,,,,,,,,,,,,,,30.000000,0.000000,0.722296,-0.186035,-0.652039,-0.136108,0.983030,-0.078623,0.083018,-14.908366,-41.588638,65.516304
1703407931.666678,1703407931.667388,121.000000,0.000000,4221.538574,4168.846191,4305.769043,4257.692383,4181.410156,4186.922852,4230.256348,4196.153809,4182.436035,4183.077148,4622.948730,4478.846191,4392.692383,4506.538574,7172.000000,3.000000,74.000000,,,,0.000000,4.000000,4.000000,4.000000,4.000000,4.000000,4.000000,4.000000,4.000000,4.000000,4.000000,4.000000,4.000000,4.000000,4.000000,100.000000,,,,,,,,,,,,,,,,,,,,,,,,,,,,
1703407931.674486,1703407931.675196,122.000000,0.000000,4218.461426,4166.922852,4305.769043,4269.230957,4176.922852,4186.025879,4234.102539,4202.820313,4187.436035,4187.179688,4620.641113,4480.000000,4393.717773,4507.051270,5898.000000,3.000000,74.000000,,,,0.000000,4.000000,4.000000,4.000000,4.000000,4.000000,4.000000,4.000000,4.000000,4.000000,4.000000,4.000000,4.000000,4.000000,4.000000,100.000000,,,,,,,,,,,,,,,,,,,,,,,,,,,,
1703407931.682294,1703407931.683104,123.000000,0.000000,4219.358887,4168.846191,4306.025879,4260.512695,4180.769043,4187.051270,4234.102539,4203.589844,4189.615234,4189.358887,4622.436035,4486.666504,4398.589844,4509.230957,6072.000000,3.000000,74.000000,,,,0.000000,4.000000,4.000000,4.000000,4.000000,4.000000,4.000000,4.000000,4.000000,4.000000,4.000000,4.000000,4.000000,4.000000,4.000000,100.000000,,,,,,,,,,,,,,,,,,,,,,,,,,,,
1703407931.690102,1703407931.690912,124.000000,0.000000,4231.794922,4169.743652,4310.897461,4248.974121,4182.820313,4187.436035,4234.230957,4204.743652,4191.153809,4188.461426,4634.358887,4486.538574,4402.307617,4507.948730,6604.000000,3.000000,74.000000,,,,0.000000,4.000000,4.000000,4.000000,4.000000,4.000000,4.000000,4.000000,4.000000,4.000000,4.000000,4.000000,4.000000,4.000000,4.000000,100.000000,,,,,,,,,,,,,,,,,31.000000,0.000000,0.722451,-0.185913,-0.651978,-0.135742,0.982053,-0.101087,0.070321,-14.984197,-41.663109,65.498009
1703407931.697910,1703407931.698820,125.000000,0.000000,4228.461426,4168.205078,4313.589844,4255.384766,4180.256348,4186.794922,4233.846191,4201.922852,4188.717773,4186.282227,4628.846191,4478.333496,4396.922852,4507.179688,7172.000000,3.000000,74.000000,,,,0.000000,4.000000,4.000000,4.000000,4.000000,4.000000,4.000000,4.000000,4.000000,4.000000,4.000000,4.000000,4.000000,4.000000,4.000000,100.000000,,,,,,,,,,,,,,,,,,,,,,,,,,,,
1703407931.705718,1703407931.706628,126.000000,0.000000,4202.179688,4164.487305,4308.205078,4256.794922,4182.436035,4188.205078,4232.692383,4191.410156,4183.717773,4184.230957,4607.307617,4470.769043,4384.871582,4491.922852,5898.000000,3.000000,74.000000,,,,0.000000,4.000000,4.000000,4.000000,4.000000,4.000000,4.000000,4.000000,4.000000,4.000000,4.000000,4.000000,4.000000,4.000000,4.000000,100.000000,,,,,,,,,,,,,,,,,,,,,,,,,,,,
1703407931.713526,1703407931.714336,127.000000,0.000000,4188.077148,4161.666504,4302.179688,4246.922852,4188.461426,4193.589844,4232.436035,4183.846191,4182.820313,4183.589844,4602.563965,4466.153809,4379.871582,4477.692383,74.000000,3.000000,74.000000,,,,0.000000,4.000000,4.000000,4.000000,4.000000,4.000000,4.000000,4.000000,4.000000,4.000000,4.000000,4.000000,4.000000,4.000000,4.000000,100.000000,,,,,,,,,,,,,,,,,,,,,,,,,,,,
1703407931.721335,1703407931.722144,0.000000,0.000000,4197.051270,4162.436035,4293.461426,4248.077148,4190.000000,4200.384766,4233.846191,4184.615234,4180.897461,4180.512695,4609.102539,4462.563965,4378.205078,4487.563965,5016.000000,3.000000,74.000000,,,,0.000000,4.000000,4.000000,4.000000,4.000000,4.000000,4.000000,4.000000,4.000000,4.000000,4.000000,4.000000,4.000000,4.000000,4.000000,100.000000,,,,,,,,,,,,,,,,,0.000000,0.000000,0.722520,-0.185913,-0.651978,-0.135376,0.986449,-0.094250,0.071298,-14.902444,-41.613464,65.498207
1703407931.729143,1703407931.729852,1.000000,0.000000,4201.538574,4161.153809,4281.282227,4251.666504,4185.897461,4200.128418,4235.769043,4186.922852,4175.000000,4174.102539,4604.743652,4455.641113,4372.179688,4485.641113,5414.000000,3.000000,74.000000,,,,0.000000,4.000000,4.000000,4.000000,4.000000,4.000000,4.000000,4.000000,4.000000,4.000000,4.000000,4.000000,4.000000,4.000000,4.000000,100.000000,,,,,,,,,,,,,,,,,,,,,,,,,,,,
1703407931.736951,1703407931.737660,2.000000,0.000000,4187.436035,4153.589844,4280.897461,4244.615234,4179.615234,4191.410156,4233.974121,4184.615234,4169.871582,4167.436035,4595.641113,4443.846191,4364.871582,4457.692383,5203.000000,3.000000,74.000000,,,,0.000000,4.000000,4.000000,4.000000,4.000000,4.000000,4.000000,4.000000,4.000000,4.000000,4.000000,4.000000,4.000000,4.000000,4.000000,100.000000,,,,,,,,,,,,,,,,,,,,,,,,,,,,
1703407931.744759,1703407931.745368,3.000000,0.000000,4184.487305,4157.051270,4292.179688,4247.820313,4178.717773,4185.512695,4231.538574,4182.436035,4171.410156,4168.077148,4599.358887,4445.512695,4367.436035,4451.538574,5280.000000,3.000000,74.000000,,,,0.000000,4.000000,4.000000,4.000000,4.000000,4.000000,4.000000,4.000000,4.000000,4.000000,4.000000,4.000000,4.000000,4.000000,4.000000,100.000000,,,,,,,,,,,,,,,,,,,,,,,,,,,,
1703407931.752567,1703407931.753176,4.000000,0.000000,4211.666504,4174.871582,4299.615234,4261.794922,4182.179688,4184.358887,4230.897461,4184.230957,4178.077148,4177.820313,4614.358887,4468.589844,4382.436035,4478.333496,5103.000000,3.000000,74.000000,,,,0.000000,4.000000,4.000000,4.000000,4.000000,4.000000,4.000000,4.000000,4.000000,4.000000,4.000000,4.000000,4.000000,4.000000,4.000000,100.000000,,,,,,,,,,,,,,,,,1.000000,0.000000,0.722424,-0.186035,-0.652100,-0.135132,0.982542,-0.081553,0.071786,-14.845532,-41.518784,65.448387
1703407931.760375,1703407931.760884,5.000000,0.000000,4234.230957,4183.205078,4304.743652,4264.743652,4185.000000,4185.000000,4230.512695,4192.820313,4185.512695,4188.589844,4631.282227,4483.333496,4399.230957,4506.538574,4549.000000,3.000000,74.000000,,,,0.000000,4.000000,4.000000,4.000000,4.000000,4.000000,4.000000,4.000000,4.000000,4.000000,4.000000,4.000000,4.000000,4.000000,4.000000,100.000000,,,,,,,,,,,,,,,,,,,,,,,,,,,,
1703407931.768183,1703407931.768692,6.000000,0.000000,4227.692383,4183.077148,4317.436035,4264.358887,4184.487305,4186.538574,4230.000000,4203.205078,4193.589844,4191.666504,4641.922852,4484.102539,4407.436035,4515.384766,3064.000000,3.000000,74.000000,,,,0.000000,4.000000,4.000000,4.000000,4.000000,4.000000,4.000000,4.000000,4.000000,4.000000,4.000000,4.000000,4.000000,4.000000,4.000000,100.000000,,,,,,,,,,,,,,,,,,,,,,,,,,,,
1703407931.775991,1703407931.776400,7.000000,0.000000,4213.333496,4180.128418,4320.897461,4266.538574,4182.820313,4184.615234,4230.128418,4204.102539,4197.051270,4187.820313,4640.641113,4486.922852,4405.128418,4506.410156,5055.000000,3.000000,74.000000,,,,0.000000,4.000000,4.000000,4.000000,4.000000,4.000000,4.000000,4.000000,4.000000,4.000000,4.000000,4.000000,4.000000,4.000000,4.000000,100.000000,,,,,,,,,,,,,,,,,,,,,,,,,,,,
1703407931.783799,1703407931.784208,8.000000,0.000000,4218.717773,4172.692383,4305.641113,4262.179688,4183.461426,4180.769043,4230.256348,4197.692383,4187.307617,4185.256348,4629.743652,4486.922852,4392.820313,4504.358887,4868.000000,3.000000,74.000000,,,,0.000000,4.000000,4.000000,4.000000,4.000000,4.000000,4.000000,4.000000,4.000000,4.000000,4.000000,4.000000,4.000000,4.000000,4.000000,100.000000,,,,,,,,,,,,,,,,,2.000000,0.000000,0.722507,-0.186096,-0.651978,-0.135193,0.978635,-0.094250,0.088390,-14.794312,-41.516907,65.553543
1703407931.791607,1703407931.791916,9.000000,0.000000,4224.230957,4171.922852,4301.153809,4257.820313,4183.974121,4183.205078,4232.051270,4190.384766,4173.461426,4181.922852,4620.256348,4478.589844,4385.897461,4509.230957,5118.000000,3.000000,74.000000,,,,0.000000,4.000000,4.000000,4.000000,4.000000,4.000000,4.000000,4.000000,4.000000,4.000000,4.000000,4.000000,4.000000,4.000000,4.000000,100.000000,,,,,,,,,,,,,,,,,,,,,,,,,,,,
1703407931.799415,1703407931.799724,10.000000,0.000000,4216.410156,4183.333496,4313.589844,4261.922852,4186.025879,4189.871582,4235.128418,4185.384766,4170.641113,4181.025879,4622.179688,4475.897461,4393.846191,4506.666504,5898.000000,3.000000,74.000000,,,,0.000000,4.000000,4.000000,4.000000,4.000000,4.000000,4.000000,4.000000,4.000000,4.000000,4.000000,4.000000,4.000000,4.000000,4.000000,100.000000,,,,,,,,,,,,,,,,,,,,,,,,,,,,
1703407931.807223,1703407931.807432,11.000000,0.000000,4221.922852,4188.717773,4317.436035,4264.230957,4186.538574,4189.102539,4234.487305,4185.000000,4173.717773,4184.487305,4624.102539,4479.487305,4395.512695,4508.974121,6075.000000,3.000000,74.000000,,,,0.000000,4.000000,4.000000,4.000000,4.000000,4.000000,4.000000,4.000000,4.000000,4.000000,4.000000,4.000000,4.000000,4.000000,4.000000,100.000000,,,,,,,,,,,,,,,,,,,,,,,,,,,,
1703407931.815031,1703407931.815240,12.000000,0.000000,4231.538574,4182.820313,4307.820313,4261.794922,4183.846191,4183.589844,4231.538574,4185.384766,4176.410156,4182.436035,4615.641113,4468.205078,4382.692383,4508.846191,6603.000000,3.000000,74.000000,,,,0.000000,4.000000,4.000000,4.000000,4.000000,4.000000,4.000000,4.000000,4.000000,4.000000,4.000000,4.000000,4.000000,4.000000,4.000000,100.000000,,,,,,,,,,,,,,,,,3.000000,0.000000,0.722516,-0.185974,-0.651978,-0.135315,0.987914,-0.097180,0.088390,-14.798215,-41.548550,65.614861
1703407931.822839,1703407931.822948,13.000000,0.000000,4220.769043,4183.846191,4301.282227,4264.230957,4182.179688,4183.589844,4228.846191,4183.205078,4180.769043,4179.487305,4613.077148,4453.461426,4378.717773,4488.974121,7167.000000,3.000000,74.000000,,,,0.000000,4.000000,4.000000,4.000000,4.000000,4.000000,4.000000,4.000000,4.000000,4.000000,4.000000,4.000000,4.000000,4.000000,4.000000,100.000000,,,,,,,,,,,,,,,,,,,,,,,,,,,,
1703407931.830647,1703407931.830856,14.000000,0.000000,4211.794922,4187.051270,4300.897461,4266.794922,4185.897461,4186.922852,4230.000000,4185.641113,4185.769043,4187.051270,4618.717773,4465.256348,4384.358887,4478.589844,5898.000000,3.000000,74.000000,,,,0.000000,4.000000,4.000000,4.000000,4.000000,4.000000,4.000000,4.000000,4.000000,4.000000,4.000000,4.000000,4.000000,4.000000,4.000000,100.000000,,,,,,,,,,,,,,,,,,,,,,,,,,,,
1703407931.838455,1703407931.838664,15.000000,0.000000,4218.205078,4184.615234,4301.538574,4264.230957,4188.205078,4185.384766,4233.205078,4192.436035,4187.436035,4189.615234,4618.461426,4476.794922,4381.025879,4489.487305,6075.000000,3.000000,74.000000,,,,0.000000,4.000000,4.000000,4.000000,4.000000,4.000000,4.000000,4.000000,4.000000,4.000000,4.000000,4.000000,4.000000,4.000000,4.000000,100.000000,,,,,,,,,,,,,,,,,,,,,,,,,,,,
1703407931.846263,1703407931.846572,16.000000,0.000000,4211.794922,4182.307617,4301.666504,4259.358887,4185.512695,4183.461426,4232.692383,4190.256348,4180.641113,4177.820313,4615.512695,4463.974121,4376.025879,4492.436035,0.000000,3.000000,74.000000,,,,0.000000,4.000000,4.000000,4.000000,4.000000,4.000000,4.000000,4.000000,4.000000,4.000000,4.000000,4.000000,4.000000,4.000000,4.000000,100.000000,,,,,,,,,,,,,,,,,4.000000,0.000000,0.722619,-0.185608,-0.651917,-0.135559,0.975217,-0.086436,0.082041,-14.901727,-41.560360,65.570038
1703407931.854071,1703407931.854381,17.000000,0.000000,4205.000000,4182.820313,4297.563965,4254.358887,4183.333496,4183.717773,4231.794922,4185.128418,4174.743652,4176.410156,4619.615234,4459.358887,4380.769043,4487.307617,0.000000,3.000000,74.000000,,,,0.000000,4.000000,4.000000,4.000000,4.000000,4.000000,4.000000,4.000000,4.000000,4.000000,4.000000,4.000000,4.000000,4.000000,4.000000,100.000000,,,,,,,,,,,,,,,,,,,,,,,,,,,,
1703407931.861879,1703407931.862289,18.000000,0.000000,4212.692383,4184.615234,4296.282227,4259.743652,4184.487305,4177.820313,4233.461426,4192.307617,4179.743652,4186.666504,4624.230957,4477.436035,4387.563965,4491.666504,0.000000,3.000000,74.000000,,,,0.000000,4.000000,4.000000,4.000000,4.000000,4.000000,4.000000,4.000000,4.000000,4.000000,4.000000,4.000000,4.000000,4.000000,4.000000,100.000000,,,,,,,,,,,,,,,,,,,,,,,,,,,,
1703407931.869687,1703407931.870096,19.000000,0.000000,4207.820313,4178.974121,4295.384766,4263.461426,4184.230957,4170.897461,4233.205078,4204.102539,4187.436035,4186.153809,4623.461426,4479.871582,4386.410156,4496.153809,0.000000,3.000000,74.000000,,,,0.000000,4.000000,4.000000,4.000000,4.000000,4.000000,4.000000,4.000000,4.000000,4.000000,4.000000,4.000000,4.000000,4.000000,4.000000,100.000000,,,,,,,,,,,,,,,,,,,,,,,,,,,,
1703407931.877495,1703407931.878004,20.000000,0.000000,4189.615234,4170.000000,4286.410156,4251.538574,4181.794922,4176.794922,4231.153809,4201.153809,4186.025879,4179.487305,4613.974121,4459.871582,4378.333496,4490.128418,0.000000,3.000000,74.000000,,,,0.000000,4.000000,4.000000,4.000000,4.000000,4.000000,4.000000,4.000000,4.000000,4.000000,4.000000,4.000000,4.000000,4.000000,4.000000,100.000000,,,,,,,,,,,,,,,,,5.000000,0.000000,0.722733,-0.185547,-0.651794,-0.135620,0.986937,-0.114760,0.079600,-14.994887,-41.604324,65.613037
1703407931.885304,1703407931.885812,21.000000,0.000000,4192.948730,4172.820313,4282.307617,4248.205078,4183.461426,4184.230957,4232.179688,4188.205078,4182.051270,4179.102539,4605.512695,4452.563965,4374.615234,4483.333496,0.000000,3.000000,74.000000,,,,0.000000,4.000000,4.000000,4.000000,4.000000,4.000000,4.000000,4.000000,4.000000,4.000000,4.000000,4.000000,4.000000,4.000000,4.000000,100.000000,,,,,,,,,,,,,,,,,,,,,,,,,,,,
1703407931.893112,1703407931.893720,22.000000,0.000000,4218.589844,4185.512695,4293.205078,4263.974121,4187.051270,4182.051270,4231.538574,4183.205078,4183.717773,4181.025879,4609.358887,4467.692383,4377.948730,4491.538574,0.000000,3.000000,74.000000,,,,0.000000,4.000000,4.000000,4.000000,4.000000,4.000000,4.000000,4.000000,4.000000,4.000000,4.000000,4.000000,4.000000,4.000000,4.000000,100.000000,,,,,,,,,,,,,,,,,,,,,,,,,,,,
1703407931.900920,1703407931.901528,23.000000,0.000000,4236.794922,4190.769043,4305.512695,4270.512695,4187.051270,4181.410156,4231.025879,4185.128418,4182.179688,4183.205078,4617.436035,4480.897461,4383.205078,4511.153809,0.000000,3.000000,74.000000,,,,0.000000,4.000000,4.000000,4.000000,4.000000,4.000000,4.000000,4.000000,4.000000,4.000000,4.000000,4.000000,4.000000,4.000000,4.000000,100.000000,1.000000,100.000000,4.000000,4.000000,4.000000,4.000000,4.000000,4.000000,4.000000,4.000000,4.000000,4.000000,4.000000,4.000000,4.000000,4.000000,,,,,,,,,,,,
1703407931.908728,1703407931.909336,24.000000,0.000000,4234.615234,4186.794922,4309.358887,4262.692383,4187.436035,4183.077148,4227.307617,4184.230957,4177.948730,4185.769043,4617.692383,4475.897461,4383.589844,4509.743652,0.000000,3.000000,74.000000,,,,0.000000,4.000000,4.000000,4.000000,4.000000,4.000000,4.000000,4.000000,4.000000,4.000000,4.000000,4.000000,4.000000,4.000000,4.000000,100.000000,,,,,,,,,,,,,,,,,6.000000,0.000000,0.722737,-0.185791,-0.651733,-0.135559,0.991332,-0.100110,0.073251,-15.045399,-41.610558,65.518394
1703407931.916536,1703407931.917144,25.000000,0.000000,4221.410156,4187.051270,4310.897461,4267.179688,4188.717773,4177.820313,4221.410156,4183.717773,4178.077148,4185.769043,4614.743652,4471.666504,4382.948730,4495.128418,0.000000,3.000000,74.000000,,,,0.000000,4.000000,4.000000,4.000000,4.000000,4.000000,4.000000,4.000000,4.000000,4.000000,4.000000,4.000000,4.000000,4.000000,4.000000,100.000000,,,,,,,,,,,,,,,,,,,,,,,,,,,,
1703407931.924344,1703407931.924852,26.000000,0.000000,4217.692383,4189.487305,4312.563965,4274.487305,4187.179688,4171.922852,4221.538574,4185.641113,4178.717773,4181.538574,4613.589844,4475.769043,4383.077148,4504.102539,0.000000,3.000000,74.000000,,,,0.000000,4.000000,4.000000,4.000000,4.000000,4.000000,4.000000,4.000000,4.000000,4.000000,4.000000,4.000000,4.000000,4.000000,4.000000,100.000000,,,,,,,,,,,,,,,,,,,,,,,,,,,,
1703407931.932152,1703407931.932660,27.000000,0.000000,4222.179688,4188.077148,4310.256348,4267.563965,4185.641113,4170.384766,4222.179688,4186.666504,4173.974121,4175.512695,4614.358887,4470.384766,4377.820313,4510.000000,0.000000,3.000000,74.000000,,,,0.000000,4.000000,4.000000,4.000000,4.000000,4.000000,4.000000,4.000000,4.000000,4.000000,4.000000,4.000000,4.000000,4.000000,4.000000,100.000000,,,,,,,,,,,,,,,,,,,,,,,,,,,,
1703407931.939960,1703407931.940368,28.000000,0.000000,4216.666504,4180.897461,4302.436035,4259.230957,4179.487305,4171.794922,4223.205078,4184.615234,4170.000000,4170.641113,4611.794922,4459.487305,4370.128418,4490.769043,0.000000,3.000000,74.000000,,,,0.000000,4.000000,4.000000,4.000000,4.000000,4.000000,4.000000,4.000000,4.000000,4.000000,4.000000,4.000000,4.000000,4.000000,4.000000,100.000000,,,,,,,,,,,,,,,,,7.000000,0.000000,0.722849,-0.185791,-0.651672,-0.135254,0.987425,-0.090343,0.080088,-14.940859,-41.382835,65.499893
1703407931.947768,1703407931.948176,29.000000,0.000000,4207.563965,4171.922852,4294.871582,4256.282227,4173.205078,4177.051270,4225.897461,4183.461426,4170.512695,4169.743652,4605.384766,4455.128418,4368.717773,4483.333496,0.000000,3.000000,74.000000,,,,0.000000,4.000000,4.000000,4.000000,4.000000,4.000000,4.000000,4.000000,4.000000,4.000000,4.000000,4.000000,4.000000,4.000000,4.000000,100.000000,,,,,,,,,,,,,,,,,,,,,,,,,,,,
1703407931.955576,1703407931.955884,30.000000,0.000000,4210.128418,4174.743652,4293.846191,4249.615234,4174.743652,4181.794922,4227.692383,4190.256348,4176.025879,4176.922852,4608.717773,4460.128418,4376.666504,4493.077148,0.000000,3.000000,74.000000,,,,0.000000,4.000000,4.000000,4.000000,4.000000,4.000000,4.000000,4.000000,4.000000,4.000000,4.000000,4.000000,4.000000,4.000000,4.000000,100.000000,,,,,,,,,,,,,,,,,,,,,,,,,,,,
1703407931.963384,1703407931.963692,31.000000,0.000000,4218.846191,4180.384766,4294.743652,4245.000000,4175.000000,4178.333496,4228.461426,4198.205078,4180.641113,4183.461426,4619.871582,4467.436035,4379.358887,4490.641113,0.000000,3.000000,74.000000,,,,0.000000,4.000000,4.000000,4.000000,4.000000,4.000000,4.000000,4.000000,4.000000,4.000000,4.000000,4.000000,4.000000,4.000000,4.000000,100.000000,,,,,,,,,,,,,,,,,,,,,,,,,,,,
1703407931.971192,1703407931.971400,32.000000,0.000000,4212.436035,4177.307617,4293.333496,4254.871582,4175.769043,4171.922852,4229.871582,4191.538574,4173.461426,4176.282227,4617.436035,4467.820313,4374.871582,4486.794922,0.000000,3.000000,74.000000,,,,0.000000,4.000000,4.000000,4.000000,4.000000,4.000000,4.000000,4.000000,4.000000,4.000000,4.000000,4.000000,4.000000,4.000000,4.000000,100.000000,,,,,,,,,,,,,,,,,8.000000,0.000000,0.723005,-0.185791,-0.651550,-0.135010,0.982542,-0.098645,0.083995,-15.080106,-41.411221,65.499901
1703407931.979000,1703407931.979208,33.000000,0.000000,4207.692383,4178.205078,4294.358887,4261.282227,4183.461426,4175.769043,4230.769043,4177.820313,4163.974121,4168.461426,4608.589844,4462.820313,4376.153809,4500.000000,0.000000,3.000000,74.000000,,,,0.000000,4.000000,4.000000,4.000000,4.000000,4.000000,4.000000,4.000000,4.000000,4.000000,4.000000,4.000000,4.000000,4.000000,4.000000,100.000000,,,,,,,,,,,,,,,,,,,,,,,,,,,,
1703407931.986808,1703407931.986916,34.000000,0.000000,4213.333496,4187.051270,4301.922852,4259.358887,4188.333496,4183.846191,4230.256348,4176.794922,4167.692383,4176.538574,4611.922852,4462.563965,4382.179688,4506.410156,0.000000,3.000000,74.000000,,,,0.000000,4.000000,4.000000,4.000000,4.000000,4.000000,4.000000,4.000000,4.000000,4.000000,4.000000,4.000000,4.000000,4.000000,4.000000,100.000000,,,,,,,,,,,,,,,,,,,,,,,,,,,,
1703407931.994616,1703407931.994724,35.000000,0.000000,4217.692383,4190.128418,4309.871582,4262.051270,4188.589844,4184.487305,4232.820313,4186.153809,4179.871582,4186.922852,4619.871582,4471.666504,4389.102539,4505.000000,0.000000,3.000000,74.000000,,,,0.000000,4.000000,4.000000,4.000000,4.000000,4.000000,4.000000,4.000000,4.000000,4.000000,4.000000,4.000000,4.000000,4.000000,4.000000,100.000000,,,,,,,,,,,,,,,,,,,,,,,,,,,,
1703407932.002424,1703407932.002432,36.000000,0.000000,4226.666504,4186.922852,4309.230957,4266.538574,4190.000000,4183.717773,4231.794922,4190.641113,4187.563965,4187.948730,4618.589844,4476.922852,4391.153809,4518.846191,0.000000,3.000000,74.000000,,,,0.000000,4.000000,4.000000,4.000000,4.000000,4.000000,4.000000,4.000000,4.000000,4.000000,4.000000,4.000000,4.000000,4.000000,4.000000,100.000000,,,,,,,,,,,,,,,,,9.000000,0.000000,0.723038,-0.186096,-0.651489,-0.134705,0.987425,-0.104505,0.088878,-15.205429,-41.436764,65.499916
1703407932.010232,1703407932.010341,37.000000,0.000000,4233.974121,4187.436035,4302.820313,4264.358887,4186.153809,4182.307617,4224.358887,4193.461426,4189.230957,4186.794922,4619.230957,4474.743652,4390.384766,4531.153809,0.000000,3.000000,74.000000,,,,0.000000,4.000000,4.000000,4.000000,4.000000,4.000000,4.000000,4.000000,4.000000,4.000000,4.000000,4.000000,4.000000,4.000000,4.000000,100.000000,,,,,,,,,,,,,,,,,,,,,,,,,,,,
1703407932.018041,1703407932.018149,38.000000,0.000000,4231.282227,4192.692383,4304.358887,4259.358887,4181.410156,4175.769043,4223.589844,4198.589844,4190.769043,4187.436035,4630.000000,4478.974121,4393.461426,4521.410156,0.000000,3.000000,74.000000,,,,0.000000,4.000000,4.000000,4.000000,4.000000,4.000000,4.000000,4.000000,4.000000,4.000000,4.000000,4.000000,4.000000,4.000000,4.000000,100.000000,,,,,,,,,,,,,,,,,,,,,,,,,,,,
1703407932.025849,1703407932.026057,39.000000,0.000000,4236.282227,4199.358887,4313.461426,4263.077148,4186.282227,4171.666504,4230.256348,4203.461426,4192.563965,4188.205078,4636.794922,4493.077148,4398.589844,4517.692383,0.000000,3.000000,74.000000,,,,0.000000,4.000000,4.000000,4.000000,4.000000,4.000000,4.000000,4.000000,4.000000,4.000000,4.000000,4.000000,4.000000,4.000000,4.000000,100.000000,,,,,,,,,,,,,,,,,,,,,,,,,,,,
1703407932.033656,1703407932.033865,40.000000,0.000000,4248.974121,4201.538574,4317.179688,4273.589844,4189.743652,4175.641113,4227.307617,4204.102539,4185.769043,4187.820313,4632.436035,4496.666504,4400.512695,4531.153809,0.000000,3.000000,74.000000,,,,0.000000,4.000000,4.000000,4.000000,4.000000,4.000000,4.000000,4.000000,4.000000,4.000000,4.000000,4.000000,4.000000,4.000000,4.000000,100.000000,,,,,,,,,,,,,,,,,10.000000,0.000000,0.723080,-0.186279,-0.651428,-0.134521,0.986937,-0.088878,0.081553,-15.168220,-41.443089,65.683258
1703407932.041465,1703407932.041773,41.000000,0.000000,4239.487305,4199.743652,4313.589844,4276.153809,4186.410156,4168.077148,4216.794922,4194.871582,4172.563965,4182.179688,4623.846191,4480.512695,4393.077148,4520.384766,0.000000,3.000000,74.000000,,,,0.000000,4.000000,4.000000,4.000000,4.000000,4.000000,4.000000,4.000000,4.000000,4.000000,4.000000,4.000000,4.000000,4.000000,4.000000,100.000000,,,,,,,,,,,,,,,,,,,,,,,,,,,,
1703407932.049273,1703407932.049581,42.000000,0.000000,4229.487305,4199.358887,4311.794922,4270.384766,4182.307617,4155.256348,4216.922852,4183.717773,4166.922852,4173.461426,4618.974121,4474.871582,4384.487305,4501.025879,0.000000,3.000000,74.000000,,,,0.000000,4.000000,4.000000,4.000000,4.000000,4.000000,4.000000,4.000000,4.000000,4.000000,4.000000,4.000000,4.000000,4.000000,4.000000,100.000000,,,,,,,,,,,,,,,,,,,,,,,,,,,,
1703407932.057081,1703407932.057489,43.000000,0.000000,4245.128418,4202.563965,4318.589844,4275.512695,4183.077148,4158.717773,4220.641113,4183.846191,4169.102539,4169.358887,4622.436035,4488.846191,4385.384766,4513.589844,0.000000,3.000000,74.000000,,,,0.000000,4.000000,4.000000,4.000000,4.000000,4.000000,4.000000,4.000000,4.000000,4.000000,4.000000,4.000000,4.000000,4.000000,4.000000,100.000000,,,,,,,,,,,,,,,,,,,,,,,,,,,,
1703407932.064889,1703407932.065297,44.000000,0.000000,4250.769043,4206.025879,4324.230957,4281.538574,4185.769043,4167.820313,4216.922852,4187.692383,4172.436035,4170.769043,4626.794922,4494.358887,4393.077148,4530.256348,0.000000,3.000000,74.000000,,,,0.000000,4.000000,4.000000,4.000000,4.000000,4.000000,4.000000,4.000000,4.000000,4.000000,4.000000,4.000000,4.000000,4.000000,4.000000,100.000000,,,,,,,,,,,,,,,,,11.000000,0.000000,0.723111,-0.186462,-0.651367,-0.134399,0.976682,-0.094738,0.082041,-15.284731,-41.465446,65.581596
1703407932.072697,1703407932.073205,45.000000,0.000000,4233.846191,4203.205078,4318.974121,4270.769043,4186.025879,4171.922852,4218.077148,4181.922852,4173.077148,4177.436035,4622.051270,4482.307617,4393.589844,4521.282227,0.000000,3.000000,74.000000,,,,0.000000,4.000000,4.000000,4.000000,4.000000,4.000000,4.000000,4.000000,4.000000,4.000000,4.000000,4.000000,4.000000,4.000000,4.000000,100.000000,,,,,,,,,,,,,,,,,,,,,,,,,,,,
1703407932.080505,1703407932.081013,46.000000,0.000000,4224.487305,4198.589844,4309.615234,4259.487305,4185.512695,4178.974121,4227.307617,4172.948730,4169.358887,4179.487305,4613.717773,4471.538574,4386.282227,4509.615234,0.000000,3.000000,74.000000,,,,0.000000,4.000000,4.000000,4.000000,4.000000,4.000000,4.000000,4.000000,4.000000,4.000000,4.000000,4.000000,4.000000,4.000000,4.000000,100.000000,,,,,,,,,,,,,,,,,,,,,,,,,,,,
1703407932.088313,1703407932.088920,47.000000,0.000000,4235.641113,4199.358887,4309.230957,4262.307617,4187.820313,4186.794922,4233.077148,4172.563965,4168.077148,4173.461426,4613.333496,4473.589844,4387.051270,4511.794922,0.000000,3.000000,74.000000,,,,0.000000,4.000000,4.000000,4.000000,4.000000,4.000000,4.000000,4.000000,4.000000,4.000000,4.000000,4.000000,4.000000,4.000000,4.000000,100.000000,,,,,,,,,,,,,,,,,,,,,,,,,,,,
1703407932.096121,1703407932.096728,48.000000,0.000000,4240.897461,4199.743652,4312.436035,4266.153809,4188.589844,4187.692383,4232.179688,4178.205078,4175.512695,4172.563965,4615.897461,4476.025879,4391.410156,4519.102539,0.000000,3.000000,74.000000,,,,0.000000,4.000000,4.000000,4.000000,4.000000,4.000000,4.000000,4.000000,4.000000,4.000000,4.000000,4.000000,4.000000,4.000000,4.000000,100.000000,,,,,,,,,,,,,,,,,12.000000,0.000000,0.723083,-0.186401,-0.651428,-0.134338,0.988890,-0.090343,0.077646,-15.306257,-41.568901,65.573433
1703407932.103929,1703407932.104436,49.000000,0.000000,4239.615234,4198.974121,4309.358887,4261.410156,4184.743652,4185.128418,4231.153809,4185.384766,4180.769043,4179.615234,4617.820313,4477.179688,4393.846191,4532.820313,0.000000,3.000000,74.000000,,,,0.000000,4.000000,4.000000,4.000000,4.000000,4.000000,4.000000,4.000000,4.000000,4.000000,4.000000,4.000000,4.000000,4.000000,4.000000,100.000000,,,,,,,,,,,,,,,,,,,,,,,,,,,,
1703407932.111737,1703407932.112244,50.000000,0.000000,4250.256348,4200.512695,4308.846191,4261.410156,4188.846191,4180.128418,4228.333496,4189.230957,4177.820313,4182.692383,4622.563965,4483.333496,4395.641113,4540.769043,0.000000,3.000000,74.000000,,,,0.000000,4.000000,4.000000,4.000000,4.000000,4.000000,4.000000,4.000000,4.000000,4.000000,4.000000,4.000000,4.000000,4.000000,4.000000,100.000000,,,,,,,,,,,,,,,,,,,,,,,,,,,,
1703407932.119545,1703407932.119952,51.000000,0.000000,4254.743652,4201.025879,4312.436035,4267.820313,4193.589844,4170.256348,4226.794922,4191.410156,4181.410156,4181.153809,4623.461426,4491.794922,4394.358887,4538.333496,0.000000,3.000000,74.000000,,,,0.000000,4.000000,4.000000,4.000000,4.000000,4.000000,4.000000,4.000000,4.000000,4.000000,4.000000,4.000000,4.000000,4.000000,4.000000,100.000000,,,,,,,,,,,,,,,,,,,,,,,,,,,,
1703407932.127353,1703407932.127760,52.000000,0.000000,4246.153809,4200.897461,4310.897461,4267.179688,4188.333496,4164.743652,4227.307617,4197.436035,4188.077148,4184.743652,4621.282227,4491.666504,4392.436035,4542.436035,0.000000,3.000000,74.000000,,,,0.000000,4.000000,4.000000,4.000000,4.000000,4.000000,4.000000,4.000000,4.000000,4.000000,4.000000,4.000000,4.000000,4.000000,4.000000,100.000000,,,,,,,,,,,,,,,,,13.000000,0.000000,0.722997,-0.186096,-0.651611,-0.134338,0.986937,-0.097668,0.092785,-15.325632,-41.612011,65.732758
1703407932.135161,1703407932.135469,53.000000,0.000000,4241.410156,4206.025879,4308.717773,4267.307617,4187.563965,4166.282227,4223.717773,4197.051270,4185.641113,4191.025879,4628.333496,4486.922852,4397.948730,4539.358887,0.000000,3.000000,74.000000,,,,0.000000,4.000000,4.000000,4.000000,4.000000,4.000000,4.000000,4.000000,4.000000,4.000000,4.000000,4.000000,4.000000,4.000000,4.000000,100.000000,,,,,,,,,,,,,,,,,,,,,,,,,,,,
1703407932.142969,1703407932.143377,54.000000,0.000000,4250.384766,4218.333496,4316.922852,4280.641113,4194.358887,4168.589844,4222.820313,4189.487305,4186.666504,4198.205078,4647.051270,4498.589844,4414.871582,4533.717773,0.000000,3.000000,74.000000,,,,0.000000,4.000000,4.000000,4.000000,4.000000,4.000000,4.000000,4.000000,4.000000,4.000000,4.000000,4.000000,4.000000,4.000000,4.000000,100.000000,,,,,,,,,,,,,,,,,,,,,,,,,,,,
1703407932.150777,1703407932.151185,55.000000,0.000000,4256.538574,4227.436035,4327.563965,4291.922852,4194.615234,4163.461426,4223.717773,4188.717773,4192.436035,4203.589844,4656.794922,4514.871582,4424.102539,4549.615234,0.000000,3.000000,74.000000,,,,0.000000,4.000000,4.000000,4.000000,4.000000,4.000000,4.000000,4.000000,4.000000,4.000000,4.000000,4.000000,4.000000,4.000000,4.000000,100.000000,,,,,,,,,,,,,,,,,,,,,,,,,,,,
1703407932.158585,1703407932.159093,56.000000,0.000000,4257.820313,4225.000000,4326.025879,4288.333496,4189.358887,4157.820313,4221.025879,4186.922852,4184.102539,4197.179688,4647.436035,4507.307617,4415.384766,4560.641113,0.000000,3.000000,74.000000,,,,0.000000,4.000000,4.000000,4.000000,4.000000,4.000000,4.000000,4.000000,4.000000,4.000000,4.000000,4.000000,4.000000,4.000000,4.000000,100.000000,,,,,,,,,,,,,,,,,14.000000,0.000000,0.723018,-0.185974,-0.651672,-0.134094,0.988890,-0.097668,0.085948,-15.226402,-41.634144,65.776154
1703407932.166393,1703407932.166901,57.000000,0.000000,4260.256348,4214.871582,4318.846191,4276.794922,4187.692383,4163.333496,4219.230957,4176.153809,4170.256348,4180.384766,4636.410156,4490.769043,4402.948730,4534.230957,0.000000,3.000000,74.000000,,,,0.000000,4.000000,4.000000,4.000000,4.000000,4.000000,4.000000,4.000000,4.000000,4.000000,4.000000,4.000000,4.000000,4.000000,4.000000,100.000000,,,,,,,,,,,,,,,,,,,,,,,,,,,,
1703407932.174201,1703407932.174709,58.000000,0.000000,4251.153809,4205.256348,4310.769043,4266.282227,4188.077148,4173.205078,4224.102539,4172.692383,4169.743652,4169.358887,4628.717773,4489.487305,4395.769043,4518.461426,0.000000,3.000000,74.000000,,,,0.000000,4.000000,4.000000,4.000000,4.000000,4.000000,4.000000,4.000000,4.000000,4.000000,4.000000,4.000000,4.000000,4.000000,4.000000,100.000000,,,,,,,,,,,,,,,,,,,,,,,,,,,,
1703407932.182010,1703407932.182417,59.000000,0.000000,4238.717773,4197.820313,4299.487305,4259.871582,4185.512695,4176.153809,4229.487305,4178.974121,4172.307617,4169.230957,4621.410156,4488.717773,4390.384766,4527.563965,0.000000,3.000000,74.000000,,,,0.000000,4.000000,4.000000,4.000000,4.000000,4.000000,4.000000,4.000000,4.000000,4.000000,4.000000,4.000000,4.000000,4.000000,4.000000,100.000000,,,,,,,,,,,,,,,,,,,,,,,,,,,,
1703407932.189818,1703407932.190225,60.000000,0.000000,4230.512695,4194.871582,4293.461426,4250.897461,4180.384766,4174.358887,4228.077148,4182.307617,4170.641113,4169.871582,4614.358887,4475.384766,4383.205078,4527.820313,0.000000,3.000000,74.000000,,,,0.000000,4.000000,4.000000,4.000000,4.000000,4.000000,4.000000,4.000000,4.000000,4.000000,4.000000,4.000000,4.000000,4.000000,4.000000,100.000000,,,,,,,,,,,,,,,,,15.000000,0.000000,0.723052,-0.185974,-0.651672,-0.133911,0.993774,-0.099133,0.078623,-15.353762,-41.570728,65.848534
1703407932.197626,1703407932.197933,61.000000,0.000000,4228.333496,4195.000000,4296.025879,4244.230957,4178.846191,4173.205078,4227.563965,4186.922852,4177.179688,4167.307617,4612.820313,4471.922852,4380.256348,4526.538574,0.000000,3.000000,74.000000,,,,0.000000,4.000000,4.000000,4.000000,4.000000,4.000000,4.000000,4.000000,4.000000,4.000000,4.000000,4.000000,4.000000,4.000000,4.000000,100.000000,,,,,,,,,,,,,,,,,,,,,,,,,,,,
1703407932.205434,1703407932.205741,62.000000,0.000000,4236.410156,4197.563965,4296.282227,4254.358887,4184.358887,4172.563965,4226.794922,4189.358887,4183.077148,4168.717773,4615.641113,4483.717773,4385.384766,4530.897461,0.000000,3.000000,74.000000,,,,0.000000,4.000000,4.000000,4.000000,4.000000,4.000000,4.000000,4.000000,4.000000,4.000000,4.000000,4.000000,4.000000,4.000000,4.000000,100.000000,,,,,,,,,,,,,,,,,,,,,,,,,,,,
1703407932.213242,1703407932.213450,63.000000,0.000000,4243.077148,4204.743652,4292.563965,4270.641113,4189.230957,4171.282227,4222.692383,4186.922852,4183.333496,4176.282227,4619.871582,4491.025879,4393.205078,4534.615234,0.000000,3.000000,74.000000,,,,0.000000,4.000000,4.000000,4.000000,4.000000,4.000000,4.000000,4.000000,4.000000,4.000000,4.000000,4.000000,4.000000,4.000000,4.000000,100.000000,,,,,,,,,,,,,,,,,,,,,,,,,,,,
1703407932.221050,1703407932.221358,64.000000,0.000000,4248.717773,4214.102539,4297.563965,4272.563965,4191.410156,4171.538574,4218.589844,4195.128418,4192.307617,4185.256348,4628.205078,4489.871582,4397.563965,4540.256348,5016.000000,3.000000,74.000000,,,,0.000000,4.000000,4.000000,4.000000,4.000000,4.000000,4.000000,4.000000,4.000000,4.000000,4.000000,4.000000,4.000000,4.000000,4.000000,100.000000,,,,,,,,,,,,,,,,,16.000000,0.000000,0.723079,-0.185913,-0.651672,-0.133850,0.965450,-0.101087,0.078135,-15.301719,-41.563656,65.913681
1703407932.228858,1703407932.229166,65.000000,0.000000,4259.102539,4219.102539,4309.743652,4271.153809,4195.000000,4173.846191,4219.871582,4201.538574,4199.743652,4188.717773,4639.871582,4495.000000,4403.461426,4544.358887,5414.000000,3.000000,74.000000,,,,0.000000,4.000000,4.000000,4.000000,4.000000,4.000000,4.000000,4.000000,4.000000,4.000000,4.000000,4.000000,4.000000,4.000000,4.000000,100.000000,,,,,,,,,,,,,,,,,,,,,,,,,,,,
1703407932.236666,1703407932.237074,66.000000,0.000000,4261.282227,4218.846191,4314.358887,4280.000000,4194.615234,4165.128418,4219.871582,4193.333496,4190.641113,4186.922852,4644.743652,4507.307617,4412.179688,4542.436035,5203.000000,3.000000,74.000000,,,,0.000000,4.000000,4.000000,4.000000,4.000000,4.000000,4.000000,4.000000,4.000000,4.000000,4.000000,4.000000,4.000000,4.000000,4.000000,100.000000,,,,,,,,,,,,,,,,,,,,,,,,,,,,
1703407932.244474,1703407932.244882,67.000000,0.000000,4250.512695,4217.307617,4312.436035,4279.615234,4188.974121,4151.794922,4213.846191,4182.051270,4175.641113,4181.153809,4639.358887,4507.436035,4410.512695,4540.512695,5278.000000,3.000000,74.000000,,,,0.000000,4.000000,4.000000,4.000000,4.000000,4.000000,4.000000,4.000000,4.000000,4.000000,4.000000,4.000000,4.000000,4.000000,4.000000,100.000000,,,,,,,,,,,,,,,,,,,,,,,,,,,,
1703407932.252282,1703407932.252790,68.000000,0.000000,4246.410156,4216.410156,4313.846191,4268.846191,4186.922852,4156.538574,4214.743652,4173.077148,4167.820313,4173.461426,4631.538574,4489.871582,4399.615234,4538.333496,5103.000000,3.000000,74.000000,,,,0.000000,4.000000,4.000000,4.000000,4.000000,4.000000,4.000000,4.000000,4.000000,4.000000,4.000000,4.000000,4.000000,4.000000,4.000000,100.000000,,,,,,,,,,,,,,,,,17.000000,0.000000,0.723075,-0.185974,-0.651672,-0.133789,0.981565,-0.088390,0.085460,-15.121547,-41.640625,65.772316
1703407932.260090,1703407932.260598,69.000000,0.000000,4243.077148,4210.641113,4311.282227,4266.794922,4188.333496,4172.820313,4224.102539,4168.461426,4166.794922,4170.384766,4624.743652,4476.922852,4391.538574,4522.820313,4549.000000,3.000000,74.000000,,,,0.000000,4.000000,4.000000,4.000000,4.000000,4.000000,4.000000,4.000000,4.000000,4.000000,4.000000,4.000000,4.000000,4.000000,4.000000,100.000000,,,,,,,,,,,,,,,,,,,,,,,,,,,,
1703407932.267898,1703407932.268505,70.000000,0.000000,4229.743652,4200.769043,4300.512695,4269.871582,4186.666504,4180.512695,4228.205078,4169.102539,4168.205078,4169.230957,4616.282227,4473.717773,4385.512695,4503.846191,3064.000000,3.000000,74.000000,,,,0.000000,4.000000,4.000000,4.000000,4.000000,4.000000,4.000000,4.000000,4.000000,4.000000,4.000000,4.000000,4.000000,4.000000,4.000000,100.000000,,,,,,,,,,,,,,,,,,,,,,,,,,,,
1703407932.275706,1703407932.276313,71.000000,0.000000,4226.282227,4197.948730,4293.717773,4265.384766,4187.820313,4183.077148,4226.666504,4172.563965,4172.948730,4165.641113,4611.794922,4471.153809,4380.000000,4496.922852,5055.000000,3.000000,74.000000,,,,0.000000,4.000000,4.000000,4.000000,4.000000,4.000000,4.000000,4.000000,4.000000,4.000000,4.000000,4.000000,4.000000,4.000000,4.000000,100.000000,,,,,,,,,,,,,,,,,,,,,,,,,,,,
1703407932.283514,1703407932.284221,72.000000,0.000000,4228.333496,4199.487305,4294.487305,4260.512695,4196.410156,4186.538574,4228.333496,4179.487305,4181.922852,4165.641113,4615.384766,4477.692383,4382.563965,4502.692383,4864.000000,3.000000,74.000000,,,,0.000000,4.000000,4.000000,4.000000,4.000000,4.000000,4.000000,4.000000,4.000000,4.000000,4.000000,4.000000,4.000000,4.000000,4.000000,100.000000,,,,,,,,,,,,,,,,,18.000000,0.000000,0.722996,-0.185852,-0.651794,-0.133789,0.989379,-0.094250,0.074228,-15.126059,-41.493229,65.778412
1703407932.291322,1703407932.292029,73.000000,0.000000,4234.102539,4201.025879,4296.153809,4263.205078,4202.307617,4186.282227,4230.000000,4188.974121,4189.102539,4172.307617,4625.256348,4492.179688,4392.307617,4514.615234,5118.000000,3.000000,74.000000,,,,0.000000,4.000000,4.000000,4.000000,4.000000,4.000000,4.000000,4.000000,4.000000,4.000000,4.000000,4.000000,4.000000,4.000000,4.000000,100.000000,,,,,,,,,,,,,,,,,,,,,,,,,,,,
1703407932.299130,1703407932.299737,74.000000,0.000000,4241.282227,4205.256348,4295.769043,4264.615234,4197.436035,4185.769043,4229.230957,4189.358887,4188.717773,4179.230957,4627.436035,4494.487305,4397.436035,4535.769043,5900.000000,3.000000,74.000000,,,,0.000000,4.000000,4.000000,4.000000,4.000000,4.000000,4.000000,4.000000,4.000000,4.000000,4.000000,4.000000,4.000000,4.000000,4.000000,100.000000,,,,,,,,,,,,,,,,,,,,,,,,,,,,
1703407932.306938,1703407932.307545,75.000000,0.000000,4234.743652,4207.563965,4295.128418,4260.512695,4191.666504,4181.666504,4226.666504,4179.871582,4187.563965,4177.307617,4621.666504,4486.025879,4396.922852,4543.974121,6062.000000,3.000000,74.000000,,,,0.000000,4.000000,4.000000,4.000000,4.000000,4.000000,4.000000,4.000000,4.000000,4.000000,4.000000,4.000000,4.000000,4.000000,4.000000,100.000000,,,,,,,,,,,,,,,,,,,,,,,,,,,,
1703407932.314746,1703407932.315253,76.000000,0.000000,4232.179688,4203.333496,4295.000000,4256.282227,4191.794922,4175.641113,4221.666504,4177.692383,4187.820313,4173.077148,4623.077148,4486.282227,4394.358887,4528.333496,6603.000000,3.000000,74.000000,,,,0.000000,4.000000,4.000000,4.000000,4.000000,4.000000,4.000000,4.000000,4.000000,4.000000,4.000000,4.000000,4.000000,4.000000,4.000000,100.000000,,,,,,,,,,,,,,,,,19.000000,0.000000,0.722906,-0.185730,-0.651917,-0.133850,1.004517,-0.099133,0.076670,-15.096786,-41.493904,65.700577
1703407932.322554,1703407932.323061,77.000000,0.000000,4248.589844,4201.538574,4297.307617,4257.820313,4193.205078,4175.000000,4222.948730,4185.256348,4187.436035,4178.846191,4630.000000,4491.410156,4395.128418,4526.922852,7167.000000,3.000000,74.000000,,,,0.000000,4.000000,4.000000,4.000000,4.000000,4.000000,4.000000,4.000000,4.000000,4.000000,4.000000,4.000000,4.000000,4.000000,4.000000,100.000000,,,,,,,,,,,,,,,,,,,,,,,,,,,,
1703407932.330362,1703407932.330769,78.000000,0.000000,4261.666504,4209.102539,4299.102539,4267.563965,4193.974121,4175.256348,4226.153809,4187.692383,4189.102539,4187.051270,4633.333496,4492.436035,4406.025879,4546.153809,5900.000000,3.000000,74.000000,,,,0.000000,4.000000,4.000000,4.000000,4.000000,4.000000,4.000000,4.000000,4.000000,4.000000,4.000000,4.000000,4.000000,4.000000,4.000000,100.000000,,,,,,,,,,,,,,,,,,,,,,,,,,,,
1703407932.338170,1703407932.338577,79.000000,0.000000,4257.436035,4211.922852,4299.102539,4273.205078,4193.846191,4171.153809,4222.820313,4177.563965,4185.897461,4181.410156,4632.563965,4494.615234,4411.282227,4545.769043,6062.000000,3.000000,74.000000,,,,0.000000,4.000000,4.000000,4.000000,4.000000,4.000000,4.000000,4.000000,4.000000,4.000000,4.000000,4.000000,4.000000,4.000000,4.000000,100.000000,,,,,,,,,,,,,,,,,,,,,,,,,,,,
1703407932.345979,1703407932.346285,80.000000,0.000000,4244.487305,4207.820313,4300.384766,4271.794922,4188.974121,4168.717773,4219.487305,4170.256348,4175.000000,4169.615234,4626.282227,4490.897461,4401.282227,4529.358887,6603.000000,3.000000,74.000000,,,,0.000000,4.000000,4.000000,4.000000,4.000000,4.000000,4.000000,4.000000,4.000000,4.000000,4.000000,4.000000,4.000000,4.000000,4.000000,100.000000,,,,,,,,,,,,,,,,,20.000000,0.000000,0.723036,-0.185913,-0.651733,-0.133789,0.983518,-0.094250,0.077158,-15.070441,-41.361183,65.547180
1703407932.353787,1703407932.354093,81.000000,0.000000,4231.922852,4206.025879,4300.384766,4272.436035,4183.205078,4174.743652,4222.436035,4171.666504,4167.948730,4165.769043,4622.692383,4482.948730,4393.974121,4531.410156,7167.000000,3.000000,74.000000,,,,0.000000,4.000000,4.000000,4.000000,4.000000,4.000000,4.000000,4.000000,4.000000,4.000000,4.000000,4.000000,4.000000,4.000000,4.000000,100.000000,,,,,,,,,,,,,,,,,,,,,,,,,,,,
1703407932.361595,1703407932.361801,82.000000,0.000000,4230.769043,4205.769043,4298.205078,4275.641113,4186.410156,4184.102539,4227.820313,4173.974121,4170.128418,4167.692383,4626.153809,4482.307617,4399.102539,4537.820313,5900.000000,3.000000,74.000000,,,,0.000000,4.000000,4.000000,4.000000,4.000000,4.000000,4.000000,4.000000,4.000000,4.000000,4.000000,4.000000,4.000000,4.000000,4.000000,100.000000,,,,,,,,,,,,,,,,,,,,,,,,,,,,
1703407932.369403,1703407932.369609,83.000000,0.000000,4243.205078,4199.871582,4293.846191,4269.230957,4189.871582,4187.948730,4228.461426,4173.461426,4172.179688,4168.205078,4623.974121,4481.538574,4400.000000,4526.922852,6062.000000,3.000000,74.000000,,,,0.000000,4.000000,4.000000,4.000000,4.000000,4.000000,4.000000,4.000000,4.000000,4.000000,4.000000,4.000000,4.000000,4.000000,4.000000,100.000000,,,,,,,,,,,,,,,,,,,,,,,,,,,,
1703407932.377211,1703407932.377317,84.000000,0.000000,4251.922852,4195.641113,4292.051270,4260.128418,4183.461426,4185.000000,4222.436035,4169.102539,4170.641113,4166.025879,4615.641113,4475.641113,4393.846191,4525.384766,6603.000000,3.000000,74.000000,,,,0.000000,4.000000,4.000000,4.000000,4.000000,4.000000,4.000000,4.000000,4.000000,4.000000,4.000000,4.000000,4.000000,4.000000,4.000000,100.000000,,,,,,,,,,,,,,,,,21.000000,0.000000,0.722960,-0.186035,-0.651794,-0.133728,0.979123,-0.092296,0.077158,-15.146730,-41.425064,65.459129
1703407932.385019,1703407932.385125,85.000000,0.000000,4256.282227,4200.641113,4293.461426,4266.922852,4182.692383,4182.179688,4218.974121,4169.871582,4176.410156,4166.538574,4618.717773,4480.256348,4395.897461,4537.948730,7167.000000,3.000000,74.000000,,,,0.000000,4.000000,4.000000,4.000000,4.000000,4.000000,4.000000,4.000000,4.000000,4.000000,4.000000,4.000000,4.000000,4.000000,4.000000,100.000000,,,,,,,,,,,,,,,,,,,,,,,,,,,,
1703407932.392827,1703407932.392834,86.000000,0.000000,4260.641113,4202.179688,4295.000000,4276.666504,4193.974121,4188.846191,4224.358887,4179.230957,4185.128418,4168.846191,4627.051270,4491.538574,4404.743652,4539.743652,5900.000000,3.000000,74.000000,,,,0.000000,4.000000,4.000000,4.000000,4.000000,4.000000,4.000000,4.000000,4.000000,4.000000,4.000000,4.000000,4.000000,4.000000,4.000000,100.000000,,,,,,,,,,,,,,,,,,,,,,,,,,,,
1703407932.400635,1703407932.400742,87.000000,0.000000,4257.820313,4198.974121,4299.743652,4280.641113,4198.717773,4195.000000,4226.410156,4186.538574,4186.794922,4170.128418,4631.922852,4490.769043,4409.102539,4540.256348,6062.000000,3.000000,74.000000,,,,0.000000,4.000000,4.000000,4.000000,4.000000,4.000000,4.000000,4.000000,4.000000,4.000000,4.000000,4.000000,4.000000,4.000000,4.000000,100.000000,1.000000,100.000000,4.000000,4.000000,4.000000,4.000000,4.000000,4.000000,4.000000,4.000000,4.000000,4.000000,4.000000,4.000000,4.000000,4.000000,,,,,,,,,,,,
1703407932.408443,1703407932.408550,88.000000,0.000000,4249.487305,4197.563965,4303.333496,4276.410156,4187.563965,4193.461426,4228.205078,4186.282227,4185.641113,4172.692383,4635.384766,4490.384766,4410.000000,4551.794922,6603.000000,3.000000,74.000000,,,,0.000000,4.000000,4.000000,4.000000,4.000000,4.000000,4.000000,4.000000,4.000000,4.000000,4.000000,4.000000,4.000000,4.000000,4.000000,100.000000,,,,,,,,,,,,,,,,,22.000000,0.000000,0.722814,-0.185791,-0.652039,-0.133667,0.980100,-0.095226,0.081553,-15.132057,-41.532558,65.463219
1703407932.416251,1703407932.416458,89.000000,0.000000,4244.358887,4197.179688,4303.077148,4263.717773,4181.282227,4192.179688,4233.077148,4185.128418,4185.000000,4174.871582,4632.179688,4497.563965,4411.922852,4559.102539,7167.000000,3.000000,74.000000,,,,0.000000,4.000000,4.000000,4.000000,4.000000,4.000000,4.000000,4.000000,4.000000,4.000000,4.000000,4.000000,4.000000,4.000000,4.000000,100.000000,,,,,,,,,,,,,,,,,,,,,,,,,,,,
1703407932.424059,1703407932.424266,90.000000,0.000000,4248.717773,4199.871582,4306.666504,4268.077148,4187.692383,4194.358887,4232.051270,4186.538574,4183.077148,4171.410156,4627.692383,4497.948730,4409.487305,4555.769043,5900.000000,3.000000,74.000000,,,,0.000000,4.000000,4.000000,4.000000,4.000000,4.000000,4.000000,4.000000,4.000000,4.000000,4.000000,4.000000,4.000000,4.000000,4.000000,100.000000,,,,,,,,,,,,,,,,,,,,,,,,,,,,
1703407932.431867,1703407932.432174,91.000000,0.000000,4256.922852,4201.794922,4309.230957,4283.589844,4190.384766,4192.179688,4232.179688,4187.563965,4181.922852,4168.974121,4633.333496,4492.051270,4405.641113,4543.717773,6062.000000,3.000000,74.000000,,,,0.000000,4.000000,4.000000,4.000000,4.000000,4.000000,4.000000,4.000000,4.000000,4.000000,4.000000,4.000000,4.000000,4.000000,4.000000,100.000000,,,,,,,,,,,,,,,,,,,,,,,,,,,,
1703407932.439675,1703407932.439982,92.000000,0.000000,4256.410156,4196.794922,4302.692383,4280.384766,4185.384766,4191.410156,4232.179688,4184.871582,4182.436035,4170.641113,4640.512695,4485.512695,4410.256348,4534.102539,6603.000000,3.000000,74.000000,,,,0.000000,4.000000,4.000000,4.000000,4.000000,4.000000,4.000000,4.000000,4.000000,4.000000,4.000000,4.000000,4.000000,4.000000,4.000000,100.000000,,,,,,,,,,,,,,,,,23.000000,0.000000,0.722789,-0.185547,-0.652161,-0.133545,0.989867,-0.101575,0.085948,-15.018851,-41.529301,65.533562
1703407932.447483,1703407932.447889,93.000000,0.000000,4246.666504,4192.948730,4299.615234,4270.384766,4186.410156,4200.128418,4231.922852,4182.307617,4182.179688,4173.333496,4638.333496,4483.461426,4412.692383,4539.358887,7167.000000,3.000000,74.000000,,,,0.000000,4.000000,4.000000,4.000000,4.000000,4.000000,4.000000,4.000000,4.000000,4.000000,4.000000,4.000000,4.000000,4.000000,4.000000,100.000000,,,,,,,,,,,,,,,,,,,,,,,,,,,,
1703407932.455291,1703407932.455697,94.000000,0.000000,4241.282227,4198.205078,4306.666504,4278.846191,4197.051270,4203.077148,4233.846191,4187.179688,4184.358887,4177.692383,4636.410156,4487.692383,4410.128418,4543.333496,5900.000000,3.000000,74.000000,,,,0.000000,4.000000,4.000000,4.000000,4.000000,4.000000,4.000000,4.000000,4.000000,4.000000,4.000000,4.000000,4.000000,4.000000,4.000000,100.000000,,,,,,,,,,,,,,,,,,,,,,,,,,,,
1703407932.463099,1703407932.463605,95.000000,0.000000,4243.717773,4202.051270,4309.487305,4284.358887,4198.077148,4190.512695,4232.692383,4188.717773,4186.025879,4176.794922,4641.794922,4491.153809,4412.051270,4533.974121,6062.000000,3.000000,74.000000,,,,0.000000,4.000000,4.000000,4.000000,4.000000,4.000000,4.000000,4.000000,4.000000,4.000000,4.000000,4.000000,4.000000,4.000000,4.000000,100.000000,,,,,,,,,,,,,,,,,,,,,,,,,,,,
1703407932.470907,1703407932.471413,96.000000,0.000000,4246.538574,4199.871582,4303.461426,4274.230957,4188.846191,4185.384766,4231.153809,4187.307617,4186.282227,4176.794922,4646.922852,4495.384766,4414.615234,4533.846191,6603.000000,3.000000,74.000000,,,,0.000000,4.000000,4.000000,4.000000,4.000000,4.000000,4.000000,4.000000,4.000000,4.000000,4.000000,4.000000,4.000000,4.000000,4.000000,100.000000,,,,,,,,,,,,,,,,,24.000000,0.000000,0.722756,-0.185425,-0.652283,-0.133301,0.972287,-0.104017,0.080088,-15.000299,-41.643036,65.513542
1703407932.478716,1703407932.479121,97.000000,0.000000,4249.487305,4199.358887,4299.871582,4271.794922,4187.307617,4195.128418,4231.025879,4191.153809,4187.179688,4180.512695,4645.384766,4499.230957,4415.256348,4543.077148,7167.000000,3.000000,74.000000,,,,0.000000,4.000000,4.000000,4.000000,4.000000,4.000000,4.000000,4.000000,4.000000,4.000000,4.000000,4.000000,4.000000,4.000000,4.000000,100.000000,,,,,,,,,,,,,,,,,,,,,,,,,,,,
1703407932.486524,1703407932.486929,98.000000,0.000000,4246.282227,4202.436035,4303.589844,4276.025879,4188.461426,4196.794922,4231.666504,4188.974121,4185.000000,4179.615234,4639.871582,4497.820313,4414.487305,4543.077148,5900.000000,3.000000,74.000000,,,,0.000000,4.000000,4.000000,4.000000,4.000000,4.000000,4.000000,4.000000,4.000000,4.000000,4.000000,4.000000,4.000000,4.000000,4.000000,100.000000,,,,,,,,,,,,,,,,,,,,,,,,,,,,
1703407932.494331,1703407932.494637,99.000000,0.000000,4244.358887,4203.077148,4312.436035,4269.358887,4186.794922,4189.230957,4232.051270,4184.871582,4185.128418,4178.974121,4643.461426,4501.282227,4415.000000,4543.333496,6062.000000,3.000000,74.000000,,,,0.000000,4.000000,4.000000,4.000000,4.000000,4.000000,4.000000,4.000000,4.000000,4.000000,4.000000,4.000000,4.000000,4.000000,4.000000,100.000000,,,,,,,,,,,,,,,,,,,,,,,,,,,,
1703407932.502140,1703407932.502445,100.000000,0.000000,4253.974121,4200.256348,4313.077148,4256.153809,4188.717773,4187.820313,4231.922852,4184.743652,4183.205078,4180.769043,4646.666504,4506.282227,4415.897461,4551.922852,6603.000000,3.000000,74.000000,,,,0.000000,4.000000,4.000000,4.000000,4.000000,4.000000,4.000000,4.000000,4.000000,4.000000,4.000000,4.000000,4.000000,4.000000,4.000000,100.000000,,,,,,,,,,,,,,,,,25.000000,0.000000,0.722689,-0.185425,-0.652344,-0.133362,0.973263,-0.088390,0.080088,-14.916937,-41.728733,65.595520
1703407932.509948,1703407932.510153,101.000000,0.000000,4262.692383,4198.974121,4300.512695,4260.512695,4187.563965,4190.000000,4229.358887,4176.666504,4173.461426,4174.230957,4634.871582,4493.846191,4410.641113,4559.743652,7167.000000,3.000000,74.000000,,,,0.000000,4.000000,4.000000,4.000000,4.000000,4.000000,4.000000,4.000000,4.000000,4.000000,4.000000,4.000000,4.000000,4.000000,4.000000,100.000000,,,,,,,,,,,,,,,,,,,,,,,,,,,,
1703407932.517756,1703407932.517961,102.000000,0.000000,4260.897461,4202.436035,4295.000000,4276.538574,4181.282227,4188.717773,4230.000000,4167.820313,4169.487305,4166.153809,4626.025879,4477.179688,4405.641113,4561.025879,5900.000000,3.000000,74.000000,,,,0.000000,4.000000,4.000000,4.000000,4.000000,4.000000,4.000000,4.000000,4.000000,4.000000,4.000000,4.000000,4.000000,4.000000,4.000000,100.000000,,,,,,,,,,,,,,,,,,,,,,,,,,,,
1703407932.525564,1703407932.525669,103.000000,0.000000,4251.922852,4203.846191,4304.358887,4275.384766,4185.000000,4186.410156,4233.205078,4174.487305,4175.897461,4170.256348,4630.256348,4479.487305,4407.820313,4546.794922,6062.000000,3.000000,74.000000,,,,0.000000,4.000000,4.000000,4.000000,4.000000,4.000000,4.000000,4.000000,4.000000,4.000000,4.000000,4.000000,4.000000,4.000000,4.000000,100.000000,,,,,,,,,,,,,,,,,,,,,,,,,,,,
1703407932.533372,1703407932.533477,104.000000,0.000000,4244.102539,4201.794922,4307.948730,4265.512695,4192.436035,4185.769043,4229.487305,4175.128418,4174.102539,4171.025879,4628.077148,4483.589844,4406.282227,4528.077148,6603.000000,3.000000,74.000000,,,,0.000000,4.000000,4.000000,4.000000,4.000000,4.000000,4.000000,4.000000,4.000000,4.000000,4.000000,4.000000,4.000000,4.000000,4.000000,100.000000,,,,,,,,,,,,,,,,,26.000000,0.000000,0.722535,-0.185120,-0.652527,-0.133728,0.970822,-0.084483,0.072763,-15.141910,-41.672527,65.502632
1703407932.541180,1703407932.541185,105.000000,0.000000,4244.102539,4201.922852,4300.641113,4264.615234,4186.538574,4185.128418,4225.897461,4164.871582,4166.153809,4165.512695,4622.051270,4476.538574,4398.461426,4526.666504,7167.000000,3.000000,74.000000,,,,0.000000,4.000000,4.000000,4.000000,4.000000,4.000000,4.000000,4.000000,4.000000,4.000000,4.000000,4.000000,4.000000,4.000000,4.000000,100.000000,,,,,,,,,,,,,,,,,,,,,,,,,,,,
1703407932.548988,1703407932.548993,106.000000,0.000000,4245.000000,4201.666504,4299.102539,4265.769043,4184.358887,4186.282227,4229.358887,4171.922852,4173.717773,4168.077148,4628.974121,4480.256348,4402.563965,4534.871582,5900.000000,3.000000,74.000000,,,,0.000000,4.000000,4.000000,4.000000,4.000000,4.000000,4.000000,4.000000,4.000000,4.000000,4.000000,4.000000,4.000000,4.000000,4.000000,100.000000,,,,,,,,,,,,,,,,,,,,,,,,,,,,
1703407932.556796,1703407932.556701,107.000000,0.000000,4244.487305,4201.153809,4300.512695,4265.000000,4192.948730,4188.077148,4233.077148,4185.641113,4185.384766,4172.692383,4636.410156,4491.538574,4408.333496,4535.384766,6062.000000,3.000000,74.000000,,,,0.000000,4.000000,4.000000,4.000000,4.000000,4.000000,4.000000,4.000000,4.000000,4.000000,4.000000,4.000000,4.000000,4.000000,4.000000,100.000000,,,,,,,,,,,,,,,,,,,,,,,,,,,,
1703407932.564604,1703407932.564509,108.000000,0.000000,4244.358887,4199.615234,4293.205078,4265.128418,4192.820313,4188.589844,4232.051270,4183.589844,4184.871582,4172.179688,4632.692383,4488.077148,4403.846191,4532.179688,6603.000000,3.000000,74.000000,,,,0.000000,4.000000,4.000000,4.000000,4.000000,4.000000,4.000000,4.000000,4.000000,4.000000,4.000000,4.000000,4.000000,4.000000,4.000000,100.000000,,,,,,,,,,,,,,,,,27.000000,0.000000,0.722526,-0.184753,-0.652527,-0.134277,0.974728,-0.097668,0.071298,-15.144385,-41.655273,65.485703
1703407932.572412,1703407932.572218,109.000000,0.000000,4241.410156,4199.102539,4288.077148,4262.179688,4186.666504,4187.948730,4231.282227,4180.000000,4182.563965,4171.922852,4630.641113,4480.256348,4402.692383,4526.538574,7167.000000,3.000000,74.000000,,,,0.000000,4.000000,4.000000,4.000000,4.000000,4.000000,4.000000,4.000000,4.000000,4.000000,4.000000,4.000000,4.000000,4.000000,4.000000,100.000000,,,,,,,,,,,,,,,,,,,,,,,,,,,,
1703407932.580220,1703407932.580126,110.000000,0.000000,4237.692383,4203.717773,4295.256348,4261.538574,4191.922852,4190.256348,4232.948730,4186.666504,4187.307617,4177.820313,4641.025879,4487.179688,4410.256348,4524.487305,5900.000000,3.000000,74.000000,,,,0.000000,4.000000,4.000000,4.000000,4.000000,4.000000,4.000000,4.000000,4.000000,4.000000,4.000000,4.000000,4.000000,4.000000,4.000000,100.000000,,,,,,,,,,,,,,,,,,,,,,,,,,,,
1703407932.588028,1703407932.587934,111.000000,0.000000,4237.051270,4206.794922,4301.410156,4266.922852,4201.025879,4192.692383,4233.461426,4191.025879,4190.512695,4185.512695,4646.282227,4495.512695,4418.589844,4536.410156,6062.000000,3.000000,74.000000,,,,0.000000,4.000000,4.000000,4.000000,4.000000,4.000000,4.000000,4.000000,4.000000,4.000000,4.000000,4.000000,4.000000,4.000000,4.000000,100.000000,,,,,,,,,,,,,,,,,,,,,,,,,,,,
1703407932.595836,1703407932.595842,112.000000,0.000000,4233.077148,4207.820313,4301.538574,4267.692383,4200.641113,4189.871582,4233.461426,4187.051270,4186.282227,4190.000000,4643.717773,4498.589844,4423.974121,4541.153809,6603.000000,3.000000,74.000000,,,,0.000000,4.000000,4.000000,4.000000,4.000000,4.000000,4.000000,4.000000,4.000000,4.000000,4.000000,4.000000,4.000000,4.000000,4.000000,100.000000,,,,,,,,,,,,,,,,,28.000000,0.000000,0.722500,-0.184509,-0.652588,-0.134460,0.997192,-0.093761,0.072274,-15.196613,-41.673080,65.470467
1703407932.603644,1703407932.603650,113.000000,0.000000,4238.589844,4212.307617,4304.358887,4263.846191,4196.153809,4188.974121,4233.717773,4185.897461,4185.512695,4190.000000,4652.179688,4506.410156,4429.487305,4537.179688,7167.000000,3.000000,74.000000,,,,0.000000,4.000000,4.000000,4.000000,4.000000,4.000000,4.000000,4.000000,4.000000,4.000000,4.000000,4.000000,4.000000,4.000000,4.000000,100.000000,,,,,,,,,,,,,,,,,,,,,,,,,,,,
1703407932.611452,1703407932.611558,114.000000,0.000000,4260.256348,4216.025879,4310.256348,4265.641113,4193.846191,4191.025879,4233.974121,4189.487305,4188.717773,4187.692383,4662.307617,4510.384766,4431.538574,4546.153809,5900.000000,3.000000,74.000000,,,,0.000000,4.000000,4.000000,4.000000,4.000000,4.000000,4.000000,4.000000,4.000000,4.000000,4.000000,4.000000,4.000000,4.000000,4.000000,100.000000,,,,,,,,,,,,,,,,,,,,,,,,,,,,
