title:اسيد حمام, start timestamp:1703502258.945910, stop timestamp:1703502269.697605, headset type:EPOCX, headset serial:E50206EF, headset firmware:720, channels:67, sampling rate:eeg_128;mot_32, samples:1378      , version:2.2, 
Timestamp,OriginalTimestamp,EEG.Counter,EEG.Interpolated,EEG.AF3,EEG.F7,EEG.F3,EEG.FC5,EEG.T7,EEG.P7,EEG.O1,EEG.O2,EEG.P8,EEG.T8,EEG.FC6,EEG.F4,EEG.F8,EEG.AF4,EEG.RawCq,EEG.Battery,EEG.BatteryPercent,MarkerIndex,MarkerType,MarkerValueInt,EEG.MarkerHardware,CQ.AF3,CQ.F7,CQ.F3,CQ.FC5,CQ.T7,CQ.P7,CQ.O1,CQ.O2,CQ.P8,CQ.T8,CQ.FC6,CQ.F4,CQ.F8,CQ.AF4,CQ.Overall,EQ.SampleRateQuality,EQ.OVERALL,EQ.AF3,EQ.F7,EQ.F3,EQ.FC5,EQ.T7,EQ.P7,EQ.O1,EQ.O2,EQ.P8,EQ.T8,EQ.FC6,EQ.F4,EQ.F8,EQ.AF4,MOT.CounterMems,MOT.InterpolatedMems,MOT.Q0,MOT.Q1,MOT.Q2,MOT.Q3,MOT.AccX,MOT.AccY,MOT.AccZ,MOT.MagX,MOT.MagY,MOT.MagZ
1703502258.945910,1703502258.946712,9.000000,0.000000,4291.282227,4261.025879,4369.102539,4296.666504,4293.077148,4254.102539,4267.563965,4262.563965,4265.641113,4261.538574,4538.974121,4525.000000,4444.743652,4524.871582,5469.000000,3.000000,66.000000,,,,0.000000,4.000000,4.000000,4.000000,4.000000,4.000000,4.000000,4.000000,4.000000,4.000000,4.000000,4.000000,4.000000,4.000000,4.000000,100.000000,,,,,,,,,,,,,,,,,,,,,,,,,,,,
1703502258.953718,1703502258.954420,10.000000,0.000000,4297.436035,4267.948730,4372.436035,4297.820313,4293.974121,4248.846191,4271.538574,4263.077148,4261.410156,4250.641113,4529.102539,4521.153809,4434.871582,4528.205078,6052.000000,3.000000,66.000000,,,,0.000000,4.000000,4.000000,4.000000,4.000000,4.000000,4.000000,4.000000,4.000000,4.000000,4.000000,4.000000,4.000000,4.000000,4.000000,100.000000,,,,,,,,,,,,,,,,,,,,,,,,,,,,
1703502258.961526,1703502258.962228,11.000000,0.000000,4283.717773,4262.563965,4363.974121,4295.769043,4293.974121,4255.641113,4272.563965,4262.563965,4252.692383,4245.256348,4514.102539,4514.487305,4408.589844,4508.589844,6359.000000,3.000000,66.000000,,,,0.000000,4.000000,4.000000,4.000000,4.000000,4.000000,4.000000,4.000000,4.000000,4.000000,4.000000,4.000000,4.000000,4.000000,4.000000,100.000000,,,,,,,,,,,,,,,,,,,,,,,,,,,,
1703502258.969334,1703502258.969936,12.000000,0.000000,4260.384766,4247.692383,4345.384766,4284.487305,4285.769043,4254.871582,4267.948730,4253.461426,4247.307617,4239.102539,4505.897461,4503.333496,4399.358887,4489.102539,6908.000000,3.000000,66.000000,,,,0.000000,4.000000,4.000000,4.000000,4.000000,4.000000,4.000000,4.000000,4.000000,4.000000,4.000000,4.000000,4.000000,4.000000,4.000000,100.000000,,,,,,,,,,,,,,,,,3.000000,0.000000,0.732311,-0.311401,-0.604187,-0.041321,0.898547,-0.411671,0.073739,-8.002222,-48.922264,62.241386
1703502258.977142,1703502258.977844,13.000000,0.000000,4264.102539,4247.179688,4337.436035,4275.512695,4282.179688,4245.512695,4264.615234,4245.512695,4244.230957,4228.974121,4501.922852,4493.077148,4409.871582,4487.820313,6678.000000,3.000000,66.000000,,,,0.000000,4.000000,4.000000,4.000000,4.000000,4.000000,4.000000,4.000000,4.000000,4.000000,4.000000,4.000000,4.000000,4.000000,4.000000,100.000000,,,,,,,,,,,,,,,,,,,,,,,,,,,,
1703502258.984950,1703502258.985652,14.000000,0.000000,4278.846191,4251.794922,4347.948730,4278.717773,4288.589844,4249.871582,4272.051270,4248.461426,4245.512695,4229.615234,4505.000000,4498.333496,4413.846191,4492.563965,6052.000000,3.000000,66.000000,,,,0.000000,4.000000,4.000000,4.000000,4.000000,4.000000,4.000000,4.000000,4.000000,4.000000,4.000000,4.000000,4.000000,4.000000,4.000000,100.000000,,,,,,,,,,,,,,,,,,,,,,,,,,,,
1703502258.992758,1703502258.993561,15.000000,0.000000,4277.948730,4247.436035,4355.641113,4280.769043,4291.922852,4256.666504,4277.436035,4252.948730,4248.974121,4241.025879,4516.922852,4508.846191,4418.333496,4500.897461,6359.000000,3.000000,66.000000,,,,0.000000,4.000000,4.000000,4.000000,4.000000,4.000000,4.000000,4.000000,4.000000,4.000000,4.000000,4.000000,4.000000,4.000000,4.000000,100.000000,,,,,,,,,,,,,,,,,,,,,,,,,,,,
1703502259.000566,1703502259.001369,16.000000,0.000000,4276.410156,4249.743652,4353.717773,4276.538574,4285.897461,4249.871582,4274.358887,4249.230957,4246.153809,4240.641113,4517.436035,4506.410156,4422.820313,4506.282227,0.000000,3.000000,66.000000,,,,0.000000,4.000000,4.000000,4.000000,4.000000,4.000000,4.000000,4.000000,4.000000,4.000000,4.000000,4.000000,4.000000,4.000000,4.000000,100.000000,,,,,,,,,,,,,,,,,4.000000,0.000000,0.732318,-0.311646,-0.604065,-0.041138,0.900012,-0.407765,0.073739,-7.901999,-48.880039,62.217247
1703502259.008375,1703502259.009277,17.000000,0.000000,4288.974121,4264.358887,4357.948730,4281.282227,4281.025879,4245.897461,4270.897461,4248.846191,4245.384766,4235.769043,4510.897461,4505.897461,4416.410156,4504.615234,0.000000,3.000000,66.000000,,,,0.000000,4.000000,4.000000,4.000000,4.000000,4.000000,4.000000,4.000000,4.000000,4.000000,4.000000,4.000000,4.000000,4.000000,4.000000,100.000000,,,,,,,,,,,,,,,,,,,,,,,,,,,,
1703502259.016183,1703502259.017085,18.000000,0.000000,4303.846191,4269.871582,4368.077148,4290.897461,4284.358887,4248.717773,4271.666504,4258.974121,4257.563965,4250.000000,4524.102539,4522.179688,4424.871582,4519.102539,0.000000,3.000000,66.000000,,,,0.000000,4.000000,4.000000,4.000000,4.000000,4.000000,4.000000,4.000000,4.000000,4.000000,4.000000,4.000000,4.000000,4.000000,4.000000,100.000000,,,,,,,,,,,,,,,,,,,,,,,,,,,,
1703502259.023991,1703502259.024993,19.000000,0.000000,4310.641113,4265.897461,4375.641113,4290.897461,4287.179688,4248.846191,4272.179688,4263.333496,4264.871582,4261.538574,4541.410156,4535.000000,4440.897461,4541.282227,0.000000,3.000000,66.000000,,,,0.000000,4.000000,4.000000,4.000000,4.000000,4.000000,4.000000,4.000000,4.000000,4.000000,4.000000,4.000000,4.000000,4.000000,4.000000,100.000000,,,,,,,,,,,,,,,,,,,,,,,,,,,,
1703502259.031799,1703502259.032801,20.000000,0.000000,4311.666504,4271.922852,4379.615234,4289.615234,4281.666504,4248.333496,4272.692383,4260.897461,4259.487305,4252.179688,4540.641113,4534.871582,4433.077148,4540.769043,0.000000,3.000000,66.000000,,,,0.000000,4.000000,4.000000,4.000000,4.000000,4.000000,4.000000,4.000000,4.000000,4.000000,4.000000,4.000000,4.000000,4.000000,4.000000,100.000000,,,,,,,,,,,,,,,,,5.000000,0.000000,0.732441,-0.311523,-0.604004,-0.040771,0.898547,-0.414601,0.072763,-7.928466,-48.892033,62.245522
1703502259.039607,1703502259.040709,21.000000,0.000000,4311.666504,4276.410156,4379.102539,4288.846191,4276.922852,4250.000000,4275.384766,4265.897461,4259.871582,4252.563965,4541.410156,4540.512695,4431.666504,4536.410156,0.000000,3.000000,66.000000,,,,0.000000,4.000000,4.000000,4.000000,4.000000,4.000000,4.000000,4.000000,4.000000,4.000000,4.000000,4.000000,4.000000,4.000000,4.000000,100.000000,,,,,,,,,,,,,,,,,,,,,,,,,,,,
1703502259.047415,1703502259.048517,22.000000,0.000000,4310.769043,4270.384766,4375.897461,4284.615234,4280.000000,4250.000000,4276.538574,4272.051270,4267.051270,4264.487305,4550.641113,4544.230957,4448.205078,4543.846191,0.000000,3.000000,66.000000,,,,0.000000,4.000000,4.000000,4.000000,4.000000,4.000000,4.000000,4.000000,4.000000,4.000000,4.000000,4.000000,4.000000,4.000000,4.000000,100.000000,,,,,,,,,,,,,,,,,,,,,,,,,,,,
1703502259.055223,1703502259.056325,23.000000,0.000000,4300.641113,4262.436035,4368.205078,4281.282227,4280.769043,4248.846191,4278.717773,4267.948730,4266.410156,4261.153809,4546.922852,4531.282227,4440.641113,4535.256348,0.000000,3.000000,66.000000,,,,0.000000,4.000000,4.000000,4.000000,4.000000,4.000000,4.000000,4.000000,4.000000,4.000000,4.000000,4.000000,4.000000,4.000000,4.000000,100.000000,,,,,,,,,,,,,,,,,,,,,,,,,,,,
1703502259.063031,1703502259.064133,24.000000,0.000000,4279.230957,4254.358887,4349.102539,4274.743652,4277.563965,4252.692383,4279.230957,4256.153809,4255.384766,4244.358887,4522.563965,4510.897461,4408.846191,4503.077148,0.000000,3.000000,66.000000,,,,0.000000,4.000000,4.000000,4.000000,4.000000,4.000000,4.000000,4.000000,4.000000,4.000000,4.000000,4.000000,4.000000,4.000000,4.000000,100.000000,,,,,,,,,,,,,,,,,6.000000,0.000000,0.732409,-0.311401,-0.604126,-0.040466,0.897082,-0.417043,0.082530,-7.985620,-48.969498,62.120972
1703502259.070839,1703502259.071841,25.000000,0.000000,4263.461426,4246.538574,4333.974121,4263.846191,4277.948730,4258.333496,4279.230957,4247.820313,4243.717773,4232.307617,4502.436035,4494.487305,4397.563965,4482.307617,0.000000,3.000000,66.000000,,,,0.000000,4.000000,4.000000,4.000000,4.000000,4.000000,4.000000,4.000000,4.000000,4.000000,4.000000,4.000000,4.000000,4.000000,4.000000,100.000000,,,,,,,,,,,,,,,,,,,,,,,,,,,,
1703502259.078647,1703502259.079649,26.000000,0.000000,4264.230957,4241.538574,4337.563965,4263.461426,4282.563965,4263.077148,4284.230957,4251.025879,4242.307617,4235.256348,4507.563965,4492.179688,4409.102539,4486.025879,0.000000,3.000000,66.000000,,,,0.000000,4.000000,4.000000,4.000000,4.000000,4.000000,4.000000,4.000000,4.000000,4.000000,4.000000,4.000000,4.000000,4.000000,4.000000,100.000000,,,,,,,,,,,,,,,,,,,,,,,,,,,,
1703502259.086455,1703502259.087357,27.000000,0.000000,4270.769043,4246.794922,4342.179688,4274.871582,4283.846191,4263.205078,4285.897461,4252.179688,4246.282227,4238.333496,4509.487305,4497.436035,4406.794922,4490.897461,0.000000,3.000000,66.000000,,,,0.000000,4.000000,4.000000,4.000000,4.000000,4.000000,4.000000,4.000000,4.000000,4.000000,4.000000,4.000000,4.000000,4.000000,4.000000,100.000000,1.000000,75.000000,4.000000,4.000000,4.000000,4.000000,4.000000,4.000000,1.000000,4.000000,4.000000,4.000000,4.000000,4.000000,4.000000,4.000000,,,,,,,,,,,,
1703502259.094263,1703502259.095165,28.000000,0.000000,4276.666504,4258.589844,4344.615234,4280.384766,4280.000000,4257.307617,4282.436035,4247.179688,4242.820313,4230.256348,4498.717773,4498.333496,4393.846191,4489.102539,0.000000,3.000000,66.000000,,,,0.000000,4.000000,4.000000,4.000000,4.000000,4.000000,4.000000,4.000000,4.000000,4.000000,4.000000,4.000000,4.000000,4.000000,4.000000,100.000000,,,,,,,,,,,,,,,,,7.000000,0.000000,0.732435,-0.311340,-0.604126,-0.040466,0.902942,-0.406788,0.083506,-7.920391,-49.089214,62.158875
1703502259.102071,1703502259.102873,29.000000,0.000000,4286.282227,4263.205078,4356.410156,4278.589844,4277.436035,4250.897461,4280.641113,4251.538574,4244.230957,4234.487305,4505.641113,4504.230957,4402.563965,4500.384766,0.000000,3.000000,66.000000,,,,0.000000,4.000000,4.000000,4.000000,4.000000,4.000000,4.000000,4.000000,4.000000,4.000000,4.000000,4.000000,4.000000,4.000000,4.000000,100.000000,,,,,,,,,,,,,,,,,,,,,,,,,,,,
1703502259.109879,1703502259.110681,30.000000,0.000000,4294.230957,4260.641113,4366.282227,4282.563965,4278.461426,4248.974121,4281.794922,4266.922852,4258.205078,4251.025879,4526.025879,4517.051270,4417.948730,4518.846191,0.000000,3.000000,66.000000,,,,0.000000,4.000000,4.000000,4.000000,4.000000,4.000000,4.000000,4.000000,4.000000,4.000000,4.000000,4.000000,4.000000,4.000000,4.000000,100.000000,,,,,,,,,,,,,,,,,,,,,,,,,,,,
1703502259.117687,1703502259.118389,31.000000,0.000000,4297.307617,4263.846191,4368.077148,4292.179688,4278.974121,4253.589844,4281.282227,4271.538574,4266.666504,4252.307617,4532.948730,4526.794922,4418.333496,4524.230957,0.000000,3.000000,66.000000,,,,0.000000,4.000000,4.000000,4.000000,4.000000,4.000000,4.000000,4.000000,4.000000,4.000000,4.000000,4.000000,4.000000,4.000000,4.000000,100.000000,,,,,,,,,,,,,,,,,,,,,,,,,,,,
1703502259.125495,1703502259.126298,32.000000,0.000000,4300.256348,4270.000000,4371.025879,4296.666504,4277.820313,4259.102539,4283.077148,4267.948730,4264.871582,4247.436035,4529.230957,4527.692383,4420.384766,4523.333496,0.000000,3.000000,66.000000,,,,0.000000,4.000000,4.000000,4.000000,4.000000,4.000000,4.000000,4.000000,4.000000,4.000000,4.000000,4.000000,4.000000,4.000000,4.000000,100.000000,,,,,,,,,,,,,,,,,8.000000,0.000000,0.732291,-0.311340,-0.604309,-0.040344,0.906361,-0.429252,0.062508,-8.061686,-49.013626,62.209652
1703502259.133304,1703502259.134106,33.000000,0.000000,4299.743652,4267.948730,4372.307617,4296.025879,4281.666504,4260.000000,4288.846191,4271.922852,4265.000000,4251.794922,4529.358887,4524.615234,4428.333496,4524.102539,0.000000,3.000000,66.000000,,,,0.000000,4.000000,4.000000,4.000000,4.000000,4.000000,4.000000,4.000000,4.000000,4.000000,4.000000,4.000000,4.000000,4.000000,4.000000,100.000000,,,,,,,,,,,,,,,,,,,,,,,,,,,,
1703502259.141111,1703502259.141914,34.000000,0.000000,4294.743652,4263.077148,4365.384766,4293.205078,4287.307617,4261.538574,4292.307617,4274.487305,4266.922852,4253.974121,4537.563965,4524.230957,4430.641113,4526.025879,0.000000,3.000000,66.000000,,,,0.000000,4.000000,4.000000,4.000000,4.000000,4.000000,4.000000,4.000000,4.000000,4.000000,4.000000,4.000000,4.000000,4.000000,4.000000,100.000000,,,,,,,,,,,,,,,,,,,,,,,,,,,,
1703502259.148919,1703502259.149622,35.000000,0.000000,4293.333496,4260.769043,4355.769043,4285.000000,4287.436035,4264.743652,4289.743652,4267.436035,4266.153809,4252.307617,4541.794922,4520.384766,4429.102539,4523.589844,0.000000,3.000000,66.000000,,,,0.000000,4.000000,4.000000,4.000000,4.000000,4.000000,4.000000,4.000000,4.000000,4.000000,4.000000,4.000000,4.000000,4.000000,4.000000,100.000000,,,,,,,,,,,,,,,,,,,,,,,,,,,,
1703502259.156728,1703502259.157430,36.000000,0.000000,4292.563965,4265.641113,4353.077148,4279.358887,4281.538574,4263.589844,4285.000000,4260.897461,4263.205078,4250.641113,4529.102539,4510.384766,4424.487305,4513.717773,0.000000,3.000000,66.000000,,,,0.000000,4.000000,4.000000,4.000000,4.000000,4.000000,4.000000,4.000000,4.000000,4.000000,4.000000,4.000000,4.000000,4.000000,4.000000,100.000000,,,,,,,,,,,,,,,,,9.000000,0.000000,0.732215,-0.311401,-0.604370,-0.040344,0.898547,-0.413136,0.079111,-8.188850,-49.112263,62.255356
1703502259.164536,1703502259.165138,37.000000,0.000000,4284.487305,4261.922852,4350.641113,4279.615234,4278.461426,4260.641113,4282.820313,4261.666504,4256.538574,4244.230957,4515.256348,4502.692383,4410.512695,4500.897461,0.000000,3.000000,66.000000,,,,0.000000,4.000000,4.000000,4.000000,4.000000,4.000000,4.000000,4.000000,4.000000,4.000000,4.000000,4.000000,4.000000,4.000000,4.000000,100.000000,,,,,,,,,,,,,,,,,,,,,,,,,,,,
1703502259.172344,1703502259.173046,38.000000,0.000000,4273.333496,4248.717773,4342.692383,4276.282227,4280.384766,4261.538574,4282.563965,4261.794922,4254.358887,4239.871582,4513.846191,4500.897461,4399.871582,4496.282227,0.000000,3.000000,66.000000,,,,0.000000,4.000000,4.000000,4.000000,4.000000,4.000000,4.000000,4.000000,4.000000,4.000000,4.000000,4.000000,4.000000,4.000000,4.000000,100.000000,,,,,,,,,,,,,,,,,,,,,,,,,,,,
1703502259.180152,1703502259.180854,39.000000,0.000000,4274.487305,4251.794922,4341.410156,4275.897461,4280.000000,4262.436035,4284.743652,4265.128418,4258.974121,4242.179688,4519.102539,4503.077148,4407.692383,4500.897461,0.000000,3.000000,66.000000,,,,0.000000,4.000000,4.000000,4.000000,4.000000,4.000000,4.000000,4.000000,4.000000,4.000000,4.000000,4.000000,4.000000,4.000000,4.000000,100.000000,,,,,,,,,,,,,,,,,,,,,,,,,,,,
1703502259.187960,1703502259.188762,40.000000,0.000000,4285.128418,4259.743652,4351.794922,4278.974121,4280.256348,4262.820313,4288.333496,4277.820313,4266.538574,4250.641113,4531.410156,4512.563965,4426.153809,4508.974121,0.000000,3.000000,66.000000,,,,0.000000,4.000000,4.000000,4.000000,4.000000,4.000000,4.000000,4.000000,4.000000,4.000000,4.000000,4.000000,4.000000,4.000000,4.000000,100.000000,,,,,,,,,,,,,,,,,10.000000,0.000000,0.732107,-0.311401,-0.604492,-0.040466,0.901477,-0.399951,0.070321,-8.036632,-49.034370,62.296486
1703502259.195768,1703502259.196571,41.000000,0.000000,4291.410156,4255.897461,4359.871582,4280.512695,4284.230957,4264.102539,4288.589844,4282.563965,4273.333496,4258.974121,4540.769043,4525.000000,4436.666504,4518.589844,0.000000,3.000000,66.000000,,,,0.000000,4.000000,4.000000,4.000000,4.000000,4.000000,4.000000,4.000000,4.000000,4.000000,4.000000,4.000000,4.000000,4.000000,4.000000,100.000000,,,,,,,,,,,,,,,,,,,,,,,,,,,,
1703502259.203576,1703502259.204479,42.000000,0.000000,4295.000000,4260.000000,4361.794922,4287.692383,4285.384766,4266.153809,4289.743652,4280.000000,4274.358887,4255.128418,4540.897461,4532.948730,4436.025879,4523.205078,0.000000,3.000000,66.000000,,,,0.000000,4.000000,4.000000,4.000000,4.000000,4.000000,4.000000,4.000000,4.000000,4.000000,4.000000,4.000000,4.000000,4.000000,4.000000,100.000000,,,,,,,,,,,,,,,,,,,,,,,,,,,,
1703502259.211384,1703502259.212287,43.000000,0.000000,4307.307617,4277.563965,4368.846191,4296.922852,4285.384766,4266.922852,4290.512695,4281.410156,4274.102539,4252.436035,4541.922852,4536.794922,4439.102539,4529.743652,0.000000,3.000000,66.000000,,,,0.000000,4.000000,4.000000,4.000000,4.000000,4.000000,4.000000,4.000000,4.000000,4.000000,4.000000,4.000000,4.000000,4.000000,4.000000,100.000000,,,,,,,,,,,,,,,,,,,,,,,,,,,,
1703502259.219192,1703502259.220195,44.000000,0.000000,4312.820313,4284.743652,4375.512695,4298.461426,4286.794922,4264.487305,4287.692383,4282.820313,4275.641113,4256.025879,4540.897461,4534.102539,4435.256348,4534.230957,0.000000,3.000000,66.000000,,,,0.000000,4.000000,4.000000,4.000000,4.000000,4.000000,4.000000,4.000000,4.000000,4.000000,4.000000,4.000000,4.000000,4.000000,4.000000,100.000000,,,,,,,,,,,,,,,,,11.000000,0.000000,0.732114,-0.311157,-0.604614,-0.040405,0.907337,-0.405323,0.079111,-7.966302,-49.064266,62.350170
1703502259.227000,1703502259.228003,45.000000,0.000000,4300.128418,4275.641113,4369.230957,4296.794922,4285.128418,4261.794922,4283.589844,4280.128418,4277.051270,4256.025879,4533.205078,4527.820313,4425.512695,4523.717773,0.000000,3.000000,66.000000,,,,0.000000,4.000000,4.000000,4.000000,4.000000,4.000000,4.000000,4.000000,4.000000,4.000000,4.000000,4.000000,4.000000,4.000000,4.000000,100.000000,,,,,,,,,,,,,,,,,,,,,,,,,,,,
1703502259.234808,1703502259.235911,46.000000,0.000000,4291.922852,4266.153809,4360.256348,4293.974121,4278.589844,4261.538574,4281.794922,4278.589844,4275.641113,4256.410156,4531.538574,4527.307617,4431.282227,4515.641113,0.000000,3.000000,66.000000,,,,0.000000,4.000000,4.000000,4.000000,4.000000,4.000000,4.000000,4.000000,4.000000,4.000000,4.000000,4.000000,4.000000,4.000000,4.000000,100.000000,,,,,,,,,,,,,,,,,,,,,,,,,,,,
1703502259.242616,1703502259.243719,47.000000,0.000000,4295.256348,4265.384766,4358.461426,4291.794922,4278.846191,4262.436035,4282.179688,4276.538574,4270.384766,4258.589844,4535.897461,4523.717773,4440.128418,4518.333496,0.000000,3.000000,66.000000,,,,0.000000,4.000000,4.000000,4.000000,4.000000,4.000000,4.000000,4.000000,4.000000,4.000000,4.000000,4.000000,4.000000,4.000000,4.000000,100.000000,,,,,,,,,,,,,,,,,,,,,,,,,,,,
1703502259.250424,1703502259.251427,48.000000,0.000000,4292.948730,4266.153809,4357.307617,4293.717773,4287.051270,4265.384766,4284.487305,4275.512695,4267.179688,4257.948730,4535.897461,4518.205078,4437.692383,4520.641113,0.000000,3.000000,66.000000,,,,0.000000,4.000000,4.000000,4.000000,4.000000,4.000000,4.000000,4.000000,4.000000,4.000000,4.000000,4.000000,4.000000,4.000000,4.000000,100.000000,,,,,,,,,,,,,,,,,12.000000,0.000000,0.732112,-0.311035,-0.604675,-0.040466,0.895617,-0.411183,0.066414,-7.886338,-48.957840,62.298489
1703502259.258232,1703502259.259235,49.000000,0.000000,4289.871582,4260.000000,4355.256348,4293.846191,4290.641113,4266.922852,4287.051270,4278.461426,4272.563965,4256.410156,4535.512695,4521.538574,4437.820313,4518.461426,0.000000,3.000000,66.000000,,,,0.000000,4.000000,4.000000,4.000000,4.000000,4.000000,4.000000,4.000000,4.000000,4.000000,4.000000,4.000000,4.000000,4.000000,4.000000,100.000000,,,,,,,,,,,,,,,,,,,,,,,,,,,,
1703502259.266040,1703502259.266943,50.000000,0.000000,4294.871582,4264.102539,4354.615234,4292.307617,4290.641113,4263.846191,4286.666504,4279.871582,4278.461426,4258.717773,4538.077148,4523.333496,4447.051270,4517.692383,0.000000,3.000000,66.000000,,,,0.000000,4.000000,4.000000,4.000000,4.000000,4.000000,4.000000,4.000000,4.000000,4.000000,4.000000,4.000000,4.000000,4.000000,4.000000,100.000000,,,,,,,,,,,,,,,,,,,,,,,,,,,,
1703502259.273848,1703502259.274851,51.000000,0.000000,4298.077148,4278.461426,4355.512695,4298.205078,4293.205078,4267.436035,4288.077148,4281.025879,4276.794922,4254.615234,4536.538574,4517.948730,4439.230957,4517.692383,0.000000,3.000000,66.000000,,,,0.000000,4.000000,4.000000,4.000000,4.000000,4.000000,4.000000,4.000000,4.000000,4.000000,4.000000,4.000000,4.000000,4.000000,4.000000,100.000000,,,,,,,,,,,,,,,,,,,,,,,,,,,,
1703502259.281657,1703502259.282660,52.000000,0.000000,4294.487305,4281.794922,4359.358887,4306.153809,4296.410156,4272.948730,4290.897461,4282.692383,4277.051270,4248.205078,4530.897461,4522.051270,4423.205078,4513.461426,0.000000,3.000000,66.000000,,,,0.000000,4.000000,4.000000,4.000000,4.000000,4.000000,4.000000,4.000000,4.000000,4.000000,4.000000,4.000000,4.000000,4.000000,4.000000,100.000000,,,,,,,,,,,,,,,,,13.000000,0.000000,0.732063,-0.310913,-0.604797,-0.040466,0.900501,-0.420950,0.056648,-7.797705,-48.828724,62.235306
1703502259.289465,1703502259.290468,53.000000,0.000000,4299.743652,4280.000000,4366.538574,4309.871582,4295.000000,4270.000000,4291.282227,4283.077148,4277.820313,4254.743652,4537.307617,4532.051270,4433.333496,4519.230957,0.000000,3.000000,66.000000,,,,0.000000,4.000000,4.000000,4.000000,4.000000,4.000000,4.000000,4.000000,4.000000,4.000000,4.000000,4.000000,4.000000,4.000000,4.000000,100.000000,,,,,,,,,,,,,,,,,,,,,,,,,,,,
1703502259.297273,1703502259.298176,54.000000,0.000000,4308.077148,4282.436035,4371.153809,4312.051270,4292.948730,4269.871582,4293.589844,4284.743652,4278.333496,4263.974121,4547.692383,4533.205078,4448.205078,4530.512695,0.000000,3.000000,66.000000,,,,0.000000,4.000000,4.000000,4.000000,4.000000,4.000000,4.000000,4.000000,4.000000,4.000000,4.000000,4.000000,4.000000,4.000000,4.000000,100.000000,,,,,,,,,,,,,,,,,,,,,,,,,,,,
1703502259.305081,1703502259.306084,55.000000,0.000000,4303.205078,4280.000000,4369.358887,4310.897461,4295.641113,4278.077148,4294.487305,4286.025879,4280.000000,4262.179688,4542.948730,4532.051270,4441.666504,4527.436035,0.000000,3.000000,66.000000,,,,0.000000,4.000000,4.000000,4.000000,4.000000,4.000000,4.000000,4.000000,4.000000,4.000000,4.000000,4.000000,4.000000,4.000000,4.000000,100.000000,,,,,,,,,,,,,,,,,,,,,,,,,,,,
1703502259.312889,1703502259.313892,56.000000,0.000000,4293.461426,4275.000000,4366.794922,4307.307617,4295.512695,4280.641113,4291.794922,4281.153809,4272.563965,4256.410156,4534.358887,4528.974121,4434.102539,4517.307617,0.000000,3.000000,66.000000,,,,0.000000,4.000000,4.000000,4.000000,4.000000,4.000000,4.000000,4.000000,4.000000,4.000000,4.000000,4.000000,4.000000,4.000000,4.000000,100.000000,,,,,,,,,,,,,,,,,14.000000,0.000000,0.732012,-0.310913,-0.604858,-0.040466,0.906361,-0.419485,0.067879,-7.817934,-49.079185,62.111774
1703502259.320697,1703502259.321800,57.000000,0.000000,4294.102539,4278.589844,4366.410156,4308.974121,4294.102539,4274.487305,4292.179688,4277.051270,4263.589844,4253.846191,4528.974121,4521.538574,4429.358887,4513.974121,0.000000,3.000000,66.000000,,,,0.000000,4.000000,4.000000,4.000000,4.000000,4.000000,4.000000,4.000000,4.000000,4.000000,4.000000,4.000000,4.000000,4.000000,4.000000,100.000000,,,,,,,,,,,,,,,,,,,,,,,,,,,,
1703502259.328505,1703502259.329608,58.000000,0.000000,4296.025879,4282.820313,4366.153809,4311.666504,4295.128418,4269.102539,4291.410156,4276.794922,4265.384766,4250.769043,4523.205078,4517.307617,4419.743652,4509.871582,0.000000,3.000000,66.000000,,,,0.000000,4.000000,4.000000,4.000000,4.000000,4.000000,4.000000,4.000000,4.000000,4.000000,4.000000,4.000000,4.000000,4.000000,4.000000,100.000000,,,,,,,,,,,,,,,,,,,,,,,,,,,,
1703502259.336313,1703502259.337417,59.000000,0.000000,4292.563965,4277.692383,4366.666504,4306.922852,4293.205078,4265.384766,4284.230957,4277.307617,4267.179688,4249.102539,4524.358887,4518.333496,4422.820313,4501.282227,0.000000,3.000000,66.000000,,,,0.000000,4.000000,4.000000,4.000000,4.000000,4.000000,4.000000,4.000000,4.000000,4.000000,4.000000,4.000000,4.000000,4.000000,4.000000,100.000000,,,,,,,,,,,,,,,,,,,,,,,,,,,,
1703502259.344121,1703502259.345125,60.000000,0.000000,4293.589844,4275.641113,4369.230957,4306.922852,4289.102539,4264.871582,4284.743652,4277.051270,4264.487305,4254.871582,4531.410156,4518.589844,4438.589844,4507.563965,0.000000,3.000000,66.000000,,,,0.000000,4.000000,4.000000,4.000000,4.000000,4.000000,4.000000,4.000000,4.000000,4.000000,4.000000,4.000000,4.000000,4.000000,4.000000,100.000000,,,,,,,,,,,,,,,,,15.000000,0.000000,0.731934,-0.310852,-0.604980,-0.040527,0.896594,-0.421926,0.085460,-7.902807,-49.071266,62.017265
1703502259.351929,1703502259.352933,61.000000,0.000000,4295.769043,4282.307617,4366.666504,4312.179688,4290.641113,4265.641113,4293.333496,4271.410156,4262.820313,4252.179688,4525.000000,4510.256348,4434.615234,4509.487305,0.000000,3.000000,66.000000,,,,0.000000,4.000000,4.000000,4.000000,4.000000,4.000000,4.000000,4.000000,4.000000,4.000000,4.000000,4.000000,4.000000,4.000000,4.000000,100.000000,,,,,,,,,,,,,,,,,,,,,,,,,,,,
1703502259.359737,1703502259.360641,62.000000,0.000000,4290.384766,4281.666504,4358.589844,4304.358887,4289.102539,4262.179688,4291.666504,4263.589844,4262.307617,4243.974121,4512.051270,4500.769043,4417.179688,4492.436035,0.000000,3.000000,66.000000,,,,0.000000,4.000000,4.000000,4.000000,4.000000,4.000000,4.000000,4.000000,4.000000,4.000000,4.000000,4.000000,4.000000,4.000000,4.000000,100.000000,,,,,,,,,,,,,,,,,,,,,,,,,,,,
1703502259.367545,1703502259.368549,63.000000,0.000000,4284.102539,4272.948730,4353.461426,4292.820313,4282.948730,4259.358887,4286.282227,4266.153809,4262.563965,4245.512695,4515.000000,4499.871582,4416.538574,4486.794922,0.000000,3.000000,66.000000,,,,0.000000,4.000000,4.000000,4.000000,4.000000,4.000000,4.000000,4.000000,4.000000,4.000000,4.000000,4.000000,4.000000,4.000000,4.000000,100.000000,,,,,,,,,,,,,,,,,,,,,,,,,,,,
1703502259.375353,1703502259.376357,64.000000,0.000000,4287.563965,4273.077148,4354.102539,4297.436035,4284.871582,4262.179688,4289.358887,4277.307617,4265.897461,4250.641113,4521.666504,4507.563965,4427.179688,4497.820313,5171.000000,3.000000,66.000000,,,,0.000000,4.000000,4.000000,4.000000,4.000000,4.000000,4.000000,4.000000,4.000000,4.000000,4.000000,4.000000,4.000000,4.000000,4.000000,100.000000,,,,,,,,,,,,,,,,,16.000000,0.000000,0.731882,-0.310974,-0.604980,-0.040527,0.899524,-0.402881,0.057624,-7.929193,-49.014137,62.098869
1703502259.383161,1703502259.384265,65.000000,0.000000,4295.769043,4280.000000,4357.948730,4306.794922,4289.871582,4265.000000,4292.820313,4277.692383,4266.410156,4250.769043,4518.205078,4510.769043,4427.436035,4502.563965,5517.000000,3.000000,66.000000,,,,0.000000,4.000000,4.000000,4.000000,4.000000,4.000000,4.000000,4.000000,4.000000,4.000000,4.000000,4.000000,4.000000,4.000000,4.000000,100.000000,,,,,,,,,,,,,,,,,,,,,,,,,,,,
1703502259.390969,1703502259.392073,66.000000,0.000000,4296.410156,4279.743652,4359.487305,4304.358887,4290.384766,4261.666504,4291.025879,4268.077148,4264.102539,4250.000000,4515.256348,4508.077148,4419.487305,4497.051270,5354.000000,3.000000,66.000000,,,,0.000000,4.000000,4.000000,4.000000,4.000000,4.000000,4.000000,4.000000,4.000000,4.000000,4.000000,4.000000,4.000000,4.000000,4.000000,100.000000,,,,,,,,,,,,,,,,,,,,,,,,,,,,
1703502259.398777,1703502259.399982,67.000000,0.000000,4297.820313,4276.794922,4362.692383,4302.307617,4288.717773,4259.743652,4290.128418,4270.512695,4269.487305,4258.077148,4527.436035,4516.153809,4428.717773,4503.846191,5422.000000,3.000000,66.000000,,,,0.000000,4.000000,4.000000,4.000000,4.000000,4.000000,4.000000,4.000000,4.000000,4.000000,4.000000,4.000000,4.000000,4.000000,4.000000,100.000000,,,,,,,,,,,,,,,,,,,,,,,,,,,,
1703502259.406586,1703502259.407790,68.000000,0.000000,4307.692383,4280.512695,4371.666504,4307.307617,4285.512695,4263.717773,4292.179688,4282.563965,4280.769043,4268.974121,4544.615234,4530.641113,4451.025879,4521.282227,5308.000000,3.000000,66.000000,,,,0.000000,4.000000,4.000000,4.000000,4.000000,4.000000,4.000000,4.000000,4.000000,4.000000,4.000000,4.000000,4.000000,4.000000,4.000000,100.000000,,,,,,,,,,,,,,,,,17.000000,0.000000,0.731658,-0.311035,-0.605225,-0.040466,0.895617,-0.402881,0.070809,-7.802940,-48.829391,61.988983
1703502259.414394,1703502259.415698,69.000000,0.000000,4314.615234,4283.846191,4375.641113,4303.974121,4282.820313,4264.358887,4293.461426,4282.563965,4279.743652,4269.615234,4545.128418,4534.230957,4453.461426,4526.282227,4894.000000,3.000000,66.000000,,,,0.000000,4.000000,4.000000,4.000000,4.000000,4.000000,4.000000,4.000000,4.000000,4.000000,4.000000,4.000000,4.000000,4.000000,4.000000,100.000000,,,,,,,,,,,,,,,,,,,,,,,,,,,,
1703502259.422202,1703502259.423506,70.000000,0.000000,4308.077148,4278.717773,4371.922852,4295.512695,4282.820313,4261.153809,4290.897461,4273.974121,4269.230957,4260.512695,4538.974121,4526.410156,4444.358887,4516.410156,3969.000000,3.000000,66.000000,,,,0.000000,4.000000,4.000000,4.000000,4.000000,4.000000,4.000000,4.000000,4.000000,4.000000,4.000000,4.000000,4.000000,4.000000,4.000000,100.000000,,,,,,,,,,,,,,,,,,,,,,,,,,,,
1703502259.430010,1703502259.431214,71.000000,0.000000,4300.641113,4278.461426,4367.307617,4298.333496,4285.000000,4265.128418,4291.153809,4276.922852,4266.538574,4255.769043,4536.282227,4520.384766,4444.743652,4507.307617,5292.000000,3.000000,66.000000,,,,0.000000,4.000000,4.000000,4.000000,4.000000,4.000000,4.000000,4.000000,4.000000,4.000000,4.000000,4.000000,4.000000,4.000000,4.000000,100.000000,,,,,,,,,,,,,,,,,,,,,,,,,,,,
1703502259.437818,1703502259.439022,72.000000,0.000000,4300.128418,4288.461426,4362.436035,4305.256348,4289.487305,4271.538574,4294.743652,4276.153809,4267.051270,4257.563965,4530.000000,4513.846191,4443.846191,4504.615234,5404.000000,3.000000,66.000000,,,,0.000000,4.000000,4.000000,4.000000,4.000000,4.000000,4.000000,4.000000,4.000000,4.000000,4.000000,4.000000,4.000000,4.000000,4.000000,100.000000,,,,,,,,,,,,,,,,,18.000000,0.000000,0.731587,-0.310852,-0.605408,-0.040405,0.890734,-0.403858,0.064949,-7.822647,-48.946453,61.973419
1703502259.445626,1703502259.446730,73.000000,0.000000,4298.205078,4291.794922,4356.666504,4306.410156,4296.282227,4269.871582,4294.487305,4266.410156,4262.563965,4247.307617,4513.974121,4505.384766,4422.179688,4492.948730,5469.000000,3.000000,66.000000,,,,0.000000,4.000000,4.000000,4.000000,4.000000,4.000000,4.000000,4.000000,4.000000,4.000000,4.000000,4.000000,4.000000,4.000000,4.000000,100.000000,,,,,,,,,,,,,,,,,,,,,,,,,,,,
1703502259.453434,1703502259.454538,74.000000,0.000000,4292.436035,4285.384766,4349.871582,4303.974121,4293.974121,4265.256348,4293.205078,4267.436035,4261.025879,4235.769043,4503.205078,4501.282227,4405.256348,4475.512695,6050.000000,3.000000,66.000000,,,,0.000000,4.000000,4.000000,4.000000,4.000000,4.000000,4.000000,4.000000,4.000000,4.000000,4.000000,4.000000,4.000000,4.000000,4.000000,100.000000,,,,,,,,,,,,,,,,,,,,,,,,,,,,
1703502259.461242,1703502259.462246,75.000000,0.000000,4288.333496,4276.025879,4343.589844,4296.666504,4283.205078,4264.230957,4291.922852,4277.307617,4260.897461,4238.077148,4512.179688,4501.666504,4418.717773,4477.179688,6359.000000,3.000000,66.000000,,,,0.000000,4.000000,4.000000,4.000000,4.000000,4.000000,4.000000,4.000000,4.000000,4.000000,4.000000,4.000000,4.000000,4.000000,4.000000,100.000000,,,,,,,,,,,,,,,,,,,,,,,,,,,,
1703502259.469050,1703502259.470054,76.000000,0.000000,4290.256348,4270.897461,4348.461426,4296.538574,4278.461426,4265.128418,4292.563965,4281.153809,4263.846191,4247.051270,4525.769043,4512.692383,4434.615234,4492.051270,6907.000000,3.000000,66.000000,,,,0.000000,4.000000,4.000000,4.000000,4.000000,4.000000,4.000000,4.000000,4.000000,4.000000,4.000000,4.000000,4.000000,4.000000,4.000000,100.000000,,,,,,,,,,,,,,,,,19.000000,0.000000,0.731717,-0.310547,-0.605408,-0.040405,0.904896,-0.398486,0.074716,-7.673715,-48.968475,62.042744
1703502259.476858,1703502259.477762,77.000000,0.000000,4294.615234,4273.717773,4361.025879,4307.179688,4280.128418,4264.358887,4294.871582,4279.615234,4273.717773,4251.794922,4526.282227,4524.871582,4428.205078,4494.230957,6681.000000,3.000000,66.000000,,,,0.000000,4.000000,4.000000,4.000000,4.000000,4.000000,4.000000,4.000000,4.000000,4.000000,4.000000,4.000000,4.000000,4.000000,4.000000,100.000000,,,,,,,,,,,,,,,,,,,,,,,,,,,,
1703502259.484666,1703502259.485570,78.000000,0.000000,4294.615234,4271.666504,4362.692383,4303.974121,4279.871582,4263.077148,4293.333496,4280.897461,4277.179688,4252.820313,4524.230957,4524.615234,4423.974121,4491.153809,6050.000000,3.000000,66.000000,,,,0.000000,4.000000,4.000000,4.000000,4.000000,4.000000,4.000000,4.000000,4.000000,4.000000,4.000000,4.000000,4.000000,4.000000,4.000000,100.000000,,,,,,,,,,,,,,,,,,,,,,,,,,,,
1703502259.492474,1703502259.493278,79.000000,0.000000,4290.897461,4261.794922,4357.948730,4294.358887,4277.051270,4261.282227,4289.102539,4283.846191,4272.051270,4253.846191,4529.615234,4522.179688,4437.820313,4494.743652,6359.000000,3.000000,66.000000,,,,0.000000,4.000000,4.000000,4.000000,4.000000,4.000000,4.000000,4.000000,4.000000,4.000000,4.000000,4.000000,4.000000,4.000000,4.000000,100.000000,,,,,,,,,,,,,,,,,,,,,,,,,,,,
1703502259.500282,1703502259.501086,80.000000,0.000000,4288.974121,4266.794922,4359.358887,4302.820313,4277.692383,4259.615234,4287.436035,4279.487305,4268.589844,4248.974121,4525.897461,4519.358887,4435.512695,4492.179688,6907.000000,3.000000,66.000000,,,,0.000000,4.000000,4.000000,4.000000,4.000000,4.000000,4.000000,4.000000,4.000000,4.000000,4.000000,4.000000,4.000000,4.000000,4.000000,100.000000,,,,,,,,,,,,,,,,,20.000000,0.000000,0.731807,-0.310486,-0.605347,-0.040161,0.894152,-0.420950,0.075204,-7.623010,-48.904961,62.021801
1703502259.508090,1703502259.508794,81.000000,0.000000,4287.436035,4285.769043,4356.538574,4315.897461,4282.820313,4260.641113,4286.666504,4266.922852,4263.205078,4240.000000,4509.358887,4507.051270,4412.307617,4478.974121,6681.000000,3.000000,66.000000,,,,0.000000,4.000000,4.000000,4.000000,4.000000,4.000000,4.000000,4.000000,4.000000,4.000000,4.000000,4.000000,4.000000,4.000000,4.000000,100.000000,,,,,,,,,,,,,,,,,,,,,,,,,,,,
1703502259.515898,1703502259.516602,82.000000,0.000000,4281.538574,4280.769043,4350.128418,4311.922852,4288.333496,4262.692383,4284.102539,4262.692383,4258.077148,4237.436035,4502.179688,4497.179688,4409.487305,4472.948730,6050.000000,3.000000,66.000000,,,,0.000000,4.000000,4.000000,4.000000,4.000000,4.000000,4.000000,4.000000,4.000000,4.000000,4.000000,4.000000,4.000000,4.000000,4.000000,100.000000,,,,,,,,,,,,,,,,,,,,,,,,,,,,
1703502259.523706,1703502259.524310,83.000000,0.000000,4274.871582,4265.769043,4347.692383,4299.871582,4287.692383,4262.307617,4286.538574,4268.846191,4262.692383,4244.230957,4507.436035,4499.230957,4427.179688,4476.025879,6359.000000,3.000000,66.000000,,,,0.000000,4.000000,4.000000,4.000000,4.000000,4.000000,4.000000,4.000000,4.000000,4.000000,4.000000,4.000000,4.000000,4.000000,4.000000,100.000000,,,,,,,,,,,,,,,,,,,,,,,,,,,,
1703502259.531514,1703502259.532219,84.000000,0.000000,4275.256348,4273.205078,4343.077148,4294.743652,4279.871582,4258.974121,4291.025879,4272.820313,4267.307617,4247.820313,4510.256348,4499.230957,4427.051270,4470.384766,6907.000000,3.000000,66.000000,,,,0.000000,4.000000,4.000000,4.000000,4.000000,4.000000,4.000000,4.000000,4.000000,4.000000,4.000000,4.000000,4.000000,4.000000,4.000000,100.000000,,,,,,,,,,,,,,,,,21.000000,0.000000,0.731784,-0.310547,-0.605347,-0.040100,0.896105,-0.416555,0.080088,-7.744043,-48.681129,61.952957
1703502259.539323,1703502259.540027,85.000000,0.000000,4274.102539,4279.871582,4337.051270,4294.871582,4278.205078,4260.769043,4292.948730,4273.589844,4262.820313,4241.538574,4502.692383,4494.615234,4408.205078,4458.717773,6681.000000,3.000000,66.000000,,,,0.000000,4.000000,4.000000,4.000000,4.000000,4.000000,4.000000,4.000000,4.000000,4.000000,4.000000,4.000000,4.000000,4.000000,4.000000,100.000000,,,,,,,,,,,,,,,,,,,,,,,,,,,,
1703502259.547130,1703502259.547935,86.000000,0.000000,4267.436035,4268.461426,4335.000000,4291.538574,4280.769043,4261.410156,4293.205078,4273.077148,4258.846191,4236.282227,4496.282227,4490.512695,4406.282227,4458.461426,6050.000000,3.000000,66.000000,,,,0.000000,4.000000,4.000000,4.000000,4.000000,4.000000,4.000000,4.000000,4.000000,4.000000,4.000000,4.000000,4.000000,4.000000,4.000000,100.000000,,,,,,,,,,,,,,,,,,,,,,,,,,,,
1703502259.554939,1703502259.555743,87.000000,0.000000,4266.282227,4262.948730,4335.641113,4286.666504,4276.025879,4251.410156,4291.282227,4273.974121,4260.000000,4237.307617,4496.666504,4489.615234,4411.794922,4458.589844,6359.000000,3.000000,66.000000,,,,0.000000,4.000000,4.000000,4.000000,4.000000,4.000000,4.000000,4.000000,4.000000,4.000000,4.000000,4.000000,4.000000,4.000000,4.000000,100.000000,,,,,,,,,,,,,,,,,,,,,,,,,,,,
1703502259.562747,1703502259.563551,88.000000,0.000000,4273.461426,4272.051270,4337.948730,4290.256348,4272.436035,4246.922852,4290.512695,4278.205078,4262.179688,4242.436035,4502.692383,4496.410156,4408.461426,4455.128418,6907.000000,3.000000,66.000000,,,,0.000000,4.000000,4.000000,4.000000,4.000000,4.000000,4.000000,4.000000,4.000000,4.000000,4.000000,4.000000,4.000000,4.000000,4.000000,100.000000,,,,,,,,,,,,,,,,,22.000000,0.000000,0.731781,-0.310791,-0.605225,-0.040100,0.899036,-0.409230,0.079111,-7.636305,-48.563019,62.140995
1703502259.570555,1703502259.571259,89.000000,0.000000,4277.948730,4271.282227,4343.589844,4294.102539,4276.922852,4257.179688,4291.794922,4283.333496,4266.922852,4249.871582,4517.051270,4506.025879,4419.743652,4465.256348,6681.000000,3.000000,66.000000,,,,0.000000,4.000000,4.000000,4.000000,4.000000,4.000000,4.000000,4.000000,4.000000,4.000000,4.000000,4.000000,4.000000,4.000000,4.000000,100.000000,,,,,,,,,,,,,,,,,,,,,,,,,,,,
1703502259.578363,1703502259.579167,90.000000,0.000000,4276.794922,4262.051270,4349.743652,4292.051270,4279.615234,4264.743652,4293.974121,4284.102539,4273.077148,4255.512695,4526.025879,4510.641113,4434.743652,4476.666504,6050.000000,3.000000,66.000000,,,,0.000000,4.000000,4.000000,4.000000,4.000000,4.000000,4.000000,4.000000,4.000000,4.000000,4.000000,4.000000,4.000000,4.000000,4.000000,100.000000,,,,,,,,,,,,,,,,,,,,,,,,,,,,
1703502259.586171,1703502259.586976,91.000000,0.000000,4278.589844,4263.077148,4350.512695,4293.461426,4277.948730,4261.410156,4293.589844,4282.563965,4271.410156,4255.256348,4525.128418,4507.820313,4432.436035,4476.538574,6359.000000,3.000000,66.000000,,,,0.000000,4.000000,4.000000,4.000000,4.000000,4.000000,4.000000,4.000000,4.000000,4.000000,4.000000,4.000000,4.000000,4.000000,4.000000,100.000000,1.000000,100.000000,4.000000,4.000000,4.000000,4.000000,4.000000,4.000000,4.000000,4.000000,4.000000,4.000000,4.000000,4.000000,4.000000,4.000000,,,,,,,,,,,,
1703502259.593979,1703502259.594884,92.000000,0.000000,4281.410156,4266.922852,4348.974121,4294.743652,4278.717773,4260.128418,4291.794922,4279.487305,4265.256348,4249.230957,4526.153809,4504.615234,4426.538574,4474.358887,6907.000000,3.000000,66.000000,,,,0.000000,4.000000,4.000000,4.000000,4.000000,4.000000,4.000000,4.000000,4.000000,4.000000,4.000000,4.000000,4.000000,4.000000,4.000000,100.000000,,,,,,,,,,,,,,,,,23.000000,0.000000,0.731671,-0.311035,-0.605225,-0.040222,0.898059,-0.409230,0.075204,-7.572675,-48.640049,62.126892
1703502259.601787,1703502259.602692,93.000000,0.000000,4280.641113,4266.666504,4348.461426,4294.230957,4281.282227,4262.179688,4291.538574,4277.563965,4263.205078,4246.922852,4518.333496,4503.974121,4416.410156,4463.205078,6681.000000,3.000000,66.000000,,,,0.000000,4.000000,4.000000,4.000000,4.000000,4.000000,4.000000,4.000000,4.000000,4.000000,4.000000,4.000000,4.000000,4.000000,4.000000,100.000000,,,,,,,,,,,,,,,,,,,,,,,,,,,,
1703502259.609595,1703502259.610600,94.000000,0.000000,4277.692383,4265.512695,4345.897461,4294.615234,4280.384766,4260.128418,4289.358887,4275.384766,4262.820313,4245.512695,4503.717773,4496.794922,4400.512695,4451.538574,6050.000000,3.000000,66.000000,,,,0.000000,4.000000,4.000000,4.000000,4.000000,4.000000,4.000000,4.000000,4.000000,4.000000,4.000000,4.000000,4.000000,4.000000,4.000000,100.000000,,,,,,,,,,,,,,,,,,,,,,,,,,,,
1703502259.617403,1703502259.618408,95.000000,0.000000,4279.743652,4266.025879,4345.512695,4294.102539,4278.974121,4258.077148,4286.794922,4271.794922,4259.358887,4242.820313,4509.102539,4497.051270,4398.461426,4462.051270,6359.000000,3.000000,66.000000,,,,0.000000,4.000000,4.000000,4.000000,4.000000,4.000000,4.000000,4.000000,4.000000,4.000000,4.000000,4.000000,4.000000,4.000000,4.000000,100.000000,,,,,,,,,,,,,,,,,,,,,,,,,,,,
1703502259.625211,1703502259.626316,96.000000,0.000000,4283.974121,4264.102539,4350.384766,4289.487305,4278.205078,4258.461426,4289.102539,4280.256348,4263.974121,4252.948730,4528.205078,4509.230957,4396.410156,4474.487305,6907.000000,3.000000,66.000000,,,,0.000000,4.000000,4.000000,4.000000,4.000000,4.000000,4.000000,4.000000,4.000000,4.000000,4.000000,4.000000,4.000000,4.000000,4.000000,100.000000,,,,,,,,,,,,,,,,,24.000000,0.000000,0.731668,-0.311035,-0.605225,-0.040283,0.901477,-0.410206,0.079111,-7.665407,-48.692711,62.014206
1703502259.633019,1703502259.634124,97.000000,0.000000,4280.512695,4259.871582,4350.256348,4285.512695,4276.794922,4259.743652,4294.487305,4292.692383,4276.025879,4263.974121,4532.820313,4512.820313,4375.769043,4470.769043,6681.000000,3.000000,66.000000,,,,0.000000,4.000000,4.000000,4.000000,4.000000,4.000000,4.000000,4.000000,4.000000,4.000000,4.000000,4.000000,4.000000,4.000000,4.000000,100.000000,,,,,,,,,,,,,,,,,,,,,,,,,,,,
1703502259.640827,1703502259.641832,98.000000,0.000000,4278.205078,4256.794922,4344.102539,4286.153809,4277.436035,4261.922852,4294.615234,4292.436035,4278.717773,4263.333496,4528.333496,4509.615234,4364.487305,4466.410156,6050.000000,3.000000,66.000000,,,,0.000000,4.000000,4.000000,4.000000,4.000000,4.000000,4.000000,4.000000,4.000000,4.000000,4.000000,4.000000,4.000000,4.000000,4.000000,100.000000,,,,,,,,,,,,,,,,,,,,,,,,,,,,
1703502259.648635,1703502259.649640,99.000000,0.000000,4279.358887,4257.563965,4344.102539,4287.051270,4280.384766,4263.846191,4291.282227,4291.282227,4277.051270,4262.692383,4530.000000,4511.153809,4370.128418,4464.615234,6359.000000,3.000000,66.000000,,,,0.000000,4.000000,4.000000,4.000000,4.000000,4.000000,4.000000,4.000000,4.000000,4.000000,4.000000,4.000000,4.000000,4.000000,4.000000,100.000000,,,,,,,,,,,,,,,,,,,,,,,,,,,,
1703502259.656443,1703502259.657348,100.000000,0.000000,4278.974121,4260.897461,4346.153809,4285.641113,4280.000000,4261.794922,4291.410156,4295.769043,4278.077148,4264.487305,4529.487305,4512.563965,4365.256348,4460.641113,6907.000000,3.000000,66.000000,,,,0.000000,4.000000,4.000000,4.000000,4.000000,4.000000,4.000000,4.000000,4.000000,4.000000,4.000000,4.000000,4.000000,4.000000,4.000000,100.000000,,,,,,,,,,,,,,,,,25.000000,0.000000,0.731639,-0.310730,-0.605408,-0.040405,0.901966,-0.407765,0.070809,-7.698866,-48.706772,61.946117
1703502259.664251,1703502259.665156,101.000000,0.000000,4279.743652,4258.846191,4342.948730,4286.282227,4278.205078,4258.717773,4290.641113,4290.641113,4273.974121,4262.179688,4524.615234,4510.641113,4355.769043,4460.256348,6681.000000,3.000000,66.000000,,,,0.000000,4.000000,4.000000,4.000000,4.000000,4.000000,4.000000,4.000000,4.000000,4.000000,4.000000,4.000000,4.000000,4.000000,4.000000,100.000000,,,,,,,,,,,,,,,,,,,,,,,,,,,,
1703502259.672059,1703502259.672864,102.000000,0.000000,4278.974121,4248.589844,4340.897461,4288.846191,4278.846191,4260.641113,4285.641113,4280.897461,4268.333496,4259.487305,4526.922852,4509.487305,4361.153809,4463.589844,6050.000000,3.000000,66.000000,,,,0.000000,4.000000,4.000000,4.000000,4.000000,4.000000,4.000000,4.000000,4.000000,4.000000,4.000000,4.000000,4.000000,4.000000,4.000000,100.000000,,,,,,,,,,,,,,,,,,,,,,,,,,,,
1703502259.679867,1703502259.680772,103.000000,0.000000,4277.307617,4246.153809,4343.077148,4291.922852,4277.820313,4257.820313,4282.051270,4281.153809,4269.358887,4262.179688,4534.871582,4511.282227,4374.102539,4467.948730,6359.000000,3.000000,66.000000,,,,0.000000,4.000000,4.000000,4.000000,4.000000,4.000000,4.000000,4.000000,4.000000,4.000000,4.000000,4.000000,4.000000,4.000000,4.000000,100.000000,,,,,,,,,,,,,,,,,,,,,,,,,,,,
1703502259.687676,1703502259.688580,104.000000,0.000000,4286.922852,4264.102539,4347.820313,4296.025879,4275.641113,4251.538574,4280.000000,4281.282227,4270.256348,4265.256348,4536.153809,4514.230957,4378.333496,4477.436035,6907.000000,3.000000,66.000000,,,,0.000000,4.000000,4.000000,4.000000,4.000000,4.000000,4.000000,4.000000,4.000000,4.000000,4.000000,4.000000,4.000000,4.000000,4.000000,100.000000,,,,,,,,,,,,,,,,,26.000000,0.000000,0.731541,-0.310486,-0.605652,-0.040405,0.891710,-0.402881,0.076181,-7.645647,-48.636097,61.968174
1703502259.695484,1703502259.696388,105.000000,0.000000,4291.538574,4277.436035,4350.128418,4297.948730,4278.077148,4253.717773,4279.230957,4275.512695,4264.871582,4262.692383,4525.000000,4509.487305,4367.307617,4476.025879,6681.000000,3.000000,66.000000,,,,0.000000,4.000000,4.000000,4.000000,4.000000,4.000000,4.000000,4.000000,4.000000,4.000000,4.000000,4.000000,4.000000,4.000000,4.000000,100.000000,,,,,,,,,,,,,,,,,,,,,,,,,,,,
1703502259.703292,1703502259.704096,106.000000,0.000000,4281.538574,4268.974121,4346.025879,4296.538574,4282.179688,4260.512695,4283.717773,4274.615234,4262.307617,4257.436035,4516.538574,4500.128418,4356.538574,4462.179688,6050.000000,3.000000,66.000000,,,,0.000000,4.000000,4.000000,4.000000,4.000000,4.000000,4.000000,4.000000,4.000000,4.000000,4.000000,4.000000,4.000000,4.000000,4.000000,100.000000,,,,,,,,,,,,,,,,,,,,,,,,,,,,
1703502259.711100,1703502259.711904,107.000000,0.000000,4276.025879,4261.282227,4342.948730,4295.897461,4283.461426,4262.436035,4290.384766,4281.410156,4268.077148,4257.948730,4519.615234,4501.025879,4360.512695,4457.436035,6359.000000,3.000000,66.000000,,,,0.000000,4.000000,4.000000,4.000000,4.000000,4.000000,4.000000,4.000000,4.000000,4.000000,4.000000,4.000000,4.000000,4.000000,4.000000,100.000000,,,,,,,,,,,,,,,,,,,,,,,,,,,,
1703502259.718908,1703502259.719612,108.000000,0.000000,4274.358887,4262.179688,4343.205078,4295.256348,4281.153809,4262.307617,4292.820313,4285.000000,4272.948730,4261.153809,4523.717773,4505.000000,4369.230957,4458.077148,6907.000000,3.000000,66.000000,,,,0.000000,4.000000,4.000000,4.000000,4.000000,4.000000,4.000000,4.000000,4.000000,4.000000,4.000000,4.000000,4.000000,4.000000,4.000000,100.000000,,,,,,,,,,,,,,,,,27.000000,0.000000,0.731536,-0.310242,-0.605774,-0.040527,0.908802,-0.407276,0.085948,-7.614415,-48.455818,61.888023
1703502259.726716,1703502259.727420,109.000000,0.000000,4265.512695,4250.897461,4338.974121,4292.051270,4278.846191,4263.589844,4290.128418,4281.282227,4271.794922,4261.282227,4523.205078,4502.179688,4367.307617,4451.538574,6681.000000,3.000000,66.000000,,,,0.000000,4.000000,4.000000,4.000000,4.000000,4.000000,4.000000,4.000000,4.000000,4.000000,4.000000,4.000000,4.000000,4.000000,4.000000,100.000000,,,,,,,,,,,,,,,,,,,,,,,,,,,,
1703502259.734524,1703502259.735128,110.000000,0.000000,4259.358887,4239.358887,4334.615234,4291.153809,4284.102539,4263.205078,4288.205078,4283.077148,4272.307617,4261.666504,4524.743652,4500.000000,4366.538574,4448.717773,6050.000000,3.000000,66.000000,,,,0.000000,4.000000,4.000000,4.000000,4.000000,4.000000,4.000000,4.000000,4.000000,4.000000,4.000000,4.000000,4.000000,4.000000,4.000000,100.000000,,,,,,,,,,,,,,,,,,,,,,,,,,,,
1703502259.742332,1703502259.743037,111.000000,0.000000,4266.538574,4252.179688,4340.000000,4297.948730,4288.717773,4261.282227,4288.589844,4289.615234,4278.974121,4265.641113,4532.179688,4502.948730,4379.615234,4459.615234,6359.000000,3.000000,66.000000,,,,0.000000,4.000000,4.000000,4.000000,4.000000,4.000000,4.000000,4.000000,4.000000,4.000000,4.000000,4.000000,4.000000,4.000000,4.000000,100.000000,,,,,,,,,,,,,,,,,,,,,,,,,,,,
1703502259.750140,1703502259.750845,112.000000,0.000000,4273.846191,4266.153809,4344.358887,4305.769043,4283.461426,4262.051270,4287.436035,4286.282227,4281.538574,4266.794922,4530.128418,4504.871582,4383.717773,4465.384766,6907.000000,3.000000,66.000000,,,,0.000000,4.000000,4.000000,4.000000,4.000000,4.000000,4.000000,4.000000,4.000000,4.000000,4.000000,4.000000,4.000000,4.000000,4.000000,100.000000,,,,,,,,,,,,,,,,,28.000000,0.000000,0.731559,-0.310181,-0.605774,-0.040588,0.925406,-0.400440,0.068856,-7.519640,-48.526905,61.915886
1703502259.757948,1703502259.758753,113.000000,0.000000,4273.333496,4263.205078,4340.641113,4306.794922,4277.179688,4259.102539,4281.794922,4278.205078,4272.948730,4260.641113,4521.025879,4507.179688,4368.974121,4458.461426,6681.000000,3.000000,66.000000,,,,0.000000,4.000000,4.000000,4.000000,4.000000,4.000000,4.000000,4.000000,4.000000,4.000000,4.000000,4.000000,4.000000,4.000000,4.000000,100.000000,,,,,,,,,,,,,,,,,,,,,,,,,,,,
1703502259.765756,1703502259.766561,114.000000,0.000000,4272.563965,4261.794922,4342.051270,4306.410156,4279.230957,4253.974121,4276.666504,4278.461426,4267.436035,4258.974121,4520.000000,4509.615234,4366.410156,4455.000000,6050.000000,3.000000,66.000000,,,,0.000000,4.000000,4.000000,4.000000,4.000000,4.000000,4.000000,4.000000,4.000000,4.000000,4.000000,4.000000,4.000000,4.000000,4.000000,100.000000,,,,,,,,,,,,,,,,,,,,,,,,,,,,
1703502259.773564,1703502259.774469,115.000000,0.000000,4276.282227,4267.307617,4349.487305,4308.461426,4282.563965,4252.436035,4276.282227,4279.230957,4272.051270,4263.333496,4526.538574,4510.897461,4383.974121,4463.589844,6359.000000,3.000000,66.000000,,,,0.000000,4.000000,4.000000,4.000000,4.000000,4.000000,4.000000,4.000000,4.000000,4.000000,4.000000,4.000000,4.000000,4.000000,4.000000,100.000000,,,,,,,,,,,,,,,,,,,,,,,,,,,,
1703502259.781372,1703502259.782277,116.000000,0.000000,4276.025879,4262.307617,4350.897461,4303.333496,4279.358887,4250.641113,4275.769043,4276.538574,4277.692383,4265.000000,4530.641113,4514.743652,4392.436035,4470.384766,6907.000000,3.000000,66.000000,,,,0.000000,4.000000,4.000000,4.000000,4.000000,4.000000,4.000000,4.000000,4.000000,4.000000,4.000000,4.000000,4.000000,4.000000,4.000000,100.000000,,,,,,,,,,,,,,,,,29.000000,0.000000,0.731385,-0.310242,-0.605957,-0.040527,0.906849,-0.406788,0.067391,-7.651010,-48.474213,61.990963
1703502259.789180,1703502259.790185,117.000000,0.000000,4273.846191,4261.025879,4349.487305,4298.077148,4276.282227,4246.666504,4271.025879,4277.051270,4278.461426,4265.128418,4530.256348,4515.128418,4389.230957,4466.538574,6681.000000,3.000000,66.000000,,,,0.000000,4.000000,4.000000,4.000000,4.000000,4.000000,4.000000,4.000000,4.000000,4.000000,4.000000,4.000000,4.000000,4.000000,4.000000,100.000000,,,,,,,,,,,,,,,,,,,,,,,,,,,,
1703502259.796988,1703502259.797993,118.000000,0.000000,4276.282227,4271.410156,4347.948730,4303.461426,4277.179688,4246.794922,4268.205078,4274.871582,4273.461426,4261.153809,4522.307617,4509.358887,4383.846191,4460.384766,6050.000000,3.000000,66.000000,,,,0.000000,4.000000,4.000000,4.000000,4.000000,4.000000,4.000000,4.000000,4.000000,4.000000,4.000000,4.000000,4.000000,4.000000,4.000000,100.000000,,,,,,,,,,,,,,,,,,,,,,,,,,,,
1703502259.804796,1703502259.805901,119.000000,0.000000,4270.128418,4271.922852,4341.282227,4305.384766,4278.846191,4251.025879,4273.205078,4266.666504,4264.743652,4248.205078,4504.743652,4499.230957,4367.179688,4450.384766,6359.000000,3.000000,66.000000,,,,0.000000,4.000000,4.000000,4.000000,4.000000,4.000000,4.000000,4.000000,4.000000,4.000000,4.000000,4.000000,4.000000,4.000000,4.000000,100.000000,,,,,,,,,,,,,,,,,,,,,,,,,,,,
1703502259.812605,1703502259.813709,120.000000,0.000000,4262.307617,4269.102539,4338.333496,4302.179688,4280.256348,4254.615234,4278.717773,4264.615234,4261.538574,4241.922852,4499.230957,4494.102539,4360.256348,4446.153809,6907.000000,3.000000,66.000000,,,,0.000000,4.000000,4.000000,4.000000,4.000000,4.000000,4.000000,4.000000,4.000000,4.000000,4.000000,4.000000,4.000000,4.000000,4.000000,100.000000,,,,,,,,,,,,,,,,,30.000000,0.000000,0.731274,-0.310486,-0.605957,-0.040649,0.901477,-0.401905,0.075204,-7.619242,-48.776791,61.958534
1703502259.820413,1703502259.821417,121.000000,0.000000,4266.410156,4271.794922,4340.512695,4305.128418,4279.871582,4258.846191,4277.563965,4272.051270,4266.922852,4249.102539,4509.615234,4499.230957,4374.358887,4452.307617,6681.000000,3.000000,66.000000,,,,0.000000,4.000000,4.000000,4.000000,4.000000,4.000000,4.000000,4.000000,4.000000,4.000000,4.000000,4.000000,4.000000,4.000000,4.000000,100.000000,,,,,,,,,,,,,,,,,,,,,,,,,,,,
1703502259.828220,1703502259.829225,122.000000,0.000000,4267.307617,4266.794922,4338.717773,4302.948730,4281.666504,4261.922852,4275.641113,4277.563965,4272.307617,4253.461426,4511.153809,4501.794922,4377.692383,4448.717773,6050.000000,3.000000,66.000000,,,,0.000000,4.000000,4.000000,4.000000,4.000000,4.000000,4.000000,4.000000,4.000000,4.000000,4.000000,4.000000,4.000000,4.000000,4.000000,100.000000,,,,,,,,,,,,,,,,,,,,,,,,,,,,
1703502259.836029,1703502259.836933,123.000000,0.000000,4263.589844,4261.410156,4337.692383,4296.025879,4280.897461,4256.538574,4271.410156,4274.871582,4270.256348,4254.230957,4508.333496,4498.461426,4371.666504,4444.615234,6359.000000,3.000000,66.000000,,,,0.000000,4.000000,4.000000,4.000000,4.000000,4.000000,4.000000,4.000000,4.000000,4.000000,4.000000,4.000000,4.000000,4.000000,4.000000,100.000000,,,,,,,,,,,,,,,,,,,,,,,,,,,,
1703502259.843837,1703502259.844741,124.000000,0.000000,4268.077148,4265.641113,4341.025879,4296.410156,4271.538574,4249.102539,4264.743652,4272.948730,4269.871582,4260.256348,4520.256348,4500.384766,4383.717773,4459.102539,6907.000000,3.000000,66.000000,,,,0.000000,4.000000,4.000000,4.000000,4.000000,4.000000,4.000000,4.000000,4.000000,4.000000,4.000000,4.000000,4.000000,4.000000,4.000000,100.000000,,,,,,,,,,,,,,,,,31.000000,0.000000,0.731280,-0.310608,-0.605896,-0.040527,0.894640,-0.403858,0.071298,-7.640651,-48.715778,62.012680
1703502259.851645,1703502259.852449,125.000000,0.000000,4269.743652,4261.025879,4340.897461,4293.333496,4266.410156,4245.512695,4263.205078,4276.410156,4272.820313,4265.000000,4527.692383,4507.436035,4394.871582,4466.666504,6681.000000,3.000000,66.000000,,,,0.000000,4.000000,4.000000,4.000000,4.000000,4.000000,4.000000,4.000000,4.000000,4.000000,4.000000,4.000000,4.000000,4.000000,4.000000,100.000000,,,,,,,,,,,,,,,,,,,,,,,,,,,,
1703502259.859453,1703502259.860357,126.000000,0.000000,4269.487305,4257.692383,4340.641113,4287.820313,4269.743652,4245.512695,4264.102539,4273.717773,4270.641113,4261.922852,4522.820313,4506.794922,4390.384766,4457.563965,6050.000000,3.000000,66.000000,,,,0.000000,4.000000,4.000000,4.000000,4.000000,4.000000,4.000000,4.000000,4.000000,4.000000,4.000000,4.000000,4.000000,4.000000,4.000000,100.000000,,,,,,,,,,,,,,,,,,,,,,,,,,,,
1703502259.867261,1703502259.868166,127.000000,0.000000,4281.794922,4277.948730,4341.410156,4294.358887,4272.948730,4246.410156,4261.410156,4263.461426,4265.128418,4256.282227,4522.051270,4501.922852,4390.256348,4463.333496,66.000000,3.000000,66.000000,,,,0.000000,4.000000,4.000000,4.000000,4.000000,4.000000,4.000000,4.000000,4.000000,4.000000,4.000000,4.000000,4.000000,4.000000,4.000000,100.000000,,,,,,,,,,,,,,,,,,,,,,,,,,,,
1703502259.875069,1703502259.876074,0.000000,0.000000,4283.333496,4282.948730,4336.153809,4295.512695,4272.436035,4247.820313,4260.769043,4260.000000,4260.256348,4245.256348,4512.051270,4498.974121,4378.846191,4465.000000,5171.000000,3.000000,66.000000,,,,0.000000,4.000000,4.000000,4.000000,4.000000,4.000000,4.000000,4.000000,4.000000,4.000000,4.000000,4.000000,4.000000,4.000000,4.000000,100.000000,,,,,,,,,,,,,,,,,0.000000,0.000000,0.731285,-0.310730,-0.605835,-0.040405,0.900012,-0.399951,0.074228,-7.443253,-48.744202,62.178082
1703502259.882877,1703502259.883882,1.000000,0.000000,4263.461426,4260.000000,4329.615234,4281.282227,4268.589844,4248.333496,4261.922852,4262.307617,4255.641113,4233.461426,4491.666504,4492.692383,4350.769043,4440.769043,5517.000000,3.000000,66.000000,,,,0.000000,4.000000,4.000000,4.000000,4.000000,4.000000,4.000000,4.000000,4.000000,4.000000,4.000000,4.000000,4.000000,4.000000,4.000000,100.000000,,,,,,,,,,,,,,,,,,,,,,,,,,,,
1703502259.890685,1703502259.891690,2.000000,0.000000,4255.512695,4252.563965,4329.358887,4275.128418,4264.615234,4249.230957,4263.205078,4258.589844,4250.384766,4230.128418,4485.128418,4486.025879,4343.333496,4428.846191,5355.000000,3.000000,66.000000,,,,0.000000,4.000000,4.000000,4.000000,4.000000,4.000000,4.000000,4.000000,4.000000,4.000000,4.000000,4.000000,4.000000,4.000000,4.000000,100.000000,,,,,,,,,,,,,,,,,,,,,,,,,,,,
1703502259.898493,1703502259.899398,3.000000,0.000000,4260.256348,4255.897461,4331.922852,4278.461426,4264.743652,4253.077148,4265.256348,4256.410156,4248.077148,4231.410156,4496.666504,4486.538574,4358.717773,4438.589844,5422.000000,3.000000,66.000000,,,,0.000000,4.000000,4.000000,4.000000,4.000000,4.000000,4.000000,4.000000,4.000000,4.000000,4.000000,4.000000,4.000000,4.000000,4.000000,100.000000,,,,,,,,,,,,,,,,,,,,,,,,,,,,
1703502259.906301,1703502259.907206,4.000000,0.000000,4259.871582,4247.948730,4331.794922,4276.410156,4265.897461,4253.589844,4265.897461,4262.563965,4251.922852,4233.205078,4504.358887,4492.179688,4367.307617,4446.410156,5308.000000,3.000000,66.000000,,,,0.000000,4.000000,4.000000,4.000000,4.000000,4.000000,4.000000,4.000000,4.000000,4.000000,4.000000,4.000000,4.000000,4.000000,4.000000,100.000000,,,,,,,,,,,,,,,,,1.000000,0.000000,0.731291,-0.310852,-0.605774,-0.040283,0.900501,-0.407765,0.077158,-7.515594,-48.686447,62.043606
1703502259.914109,1703502259.914914,5.000000,0.000000,4261.282227,4250.384766,4329.102539,4274.358887,4262.820313,4249.102539,4264.871582,4263.077148,4254.743652,4233.461426,4495.641113,4492.692383,4360.000000,4445.128418,4894.000000,3.000000,66.000000,,,,0.000000,4.000000,4.000000,4.000000,4.000000,4.000000,4.000000,4.000000,4.000000,4.000000,4.000000,4.000000,4.000000,4.000000,4.000000,100.000000,,,,,,,,,,,,,,,,,,,,,,,,,,,,
1703502259.921917,1703502259.922722,6.000000,0.000000,4261.666504,4262.692383,4326.538574,4277.051270,4262.948730,4248.461426,4262.436035,4260.384766,4252.051270,4229.487305,4482.692383,4486.282227,4344.102539,4436.666504,3969.000000,3.000000,66.000000,,,,0.000000,4.000000,4.000000,4.000000,4.000000,4.000000,4.000000,4.000000,4.000000,4.000000,4.000000,4.000000,4.000000,4.000000,4.000000,100.000000,,,,,,,,,,,,,,,,,,,,,,,,,,,,
1703502259.929725,1703502259.930430,7.000000,0.000000,4258.461426,4261.922852,4325.256348,4279.615234,4265.000000,4250.256348,4261.538574,4265.128418,4252.563965,4231.282227,4483.846191,4487.051270,4339.358887,4433.461426,5292.000000,3.000000,66.000000,,,,0.000000,4.000000,4.000000,4.000000,4.000000,4.000000,4.000000,4.000000,4.000000,4.000000,4.000000,4.000000,4.000000,4.000000,4.000000,100.000000,,,,,,,,,,,,,,,,,,,,,,,,,,,,
1703502259.937533,1703502259.938338,8.000000,0.000000,4261.666504,4256.410156,4327.051270,4278.461426,4263.717773,4247.820313,4264.487305,4268.077148,4262.051270,4244.102539,4498.333496,4494.871582,4354.615234,4443.974121,5402.000000,3.000000,66.000000,,,,0.000000,4.000000,4.000000,4.000000,4.000000,4.000000,4.000000,4.000000,4.000000,4.000000,4.000000,4.000000,4.000000,4.000000,4.000000,100.000000,,,,,,,,,,,,,,,,,2.000000,0.000000,0.731348,-0.310852,-0.605713,-0.040161,0.907826,-0.401416,0.079600,-7.697368,-48.901138,61.939243
1703502259.945341,1703502259.946147,9.000000,0.000000,4265.128418,4258.333496,4330.897461,4277.692383,4264.102539,4245.641113,4261.666504,4262.307617,4264.230957,4248.205078,4506.922852,4496.538574,4364.615234,4450.256348,5465.000000,3.000000,66.000000,,,,0.000000,4.000000,4.000000,4.000000,4.000000,4.000000,4.000000,4.000000,4.000000,4.000000,4.000000,4.000000,4.000000,4.000000,4.000000,100.000000,,,,,,,,,,,,,,,,,,,,,,,,,,,,
1703502259.953149,1703502259.953955,10.000000,0.000000,4263.846191,4260.897461,4335.384766,4281.282227,4264.230957,4245.641113,4252.563965,4261.666504,4259.487305,4245.256348,4507.051270,4497.051270,4361.282227,4449.230957,6057.000000,3.000000,66.000000,,,,0.000000,4.000000,4.000000,4.000000,4.000000,4.000000,4.000000,4.000000,4.000000,4.000000,4.000000,4.000000,4.000000,4.000000,4.000000,100.000000,,,,,,,,,,,,,,,,,,,,,,,,,,,,
1703502259.960958,1703502259.961663,11.000000,0.000000,4266.794922,4264.871582,4339.102539,4283.589844,4262.820313,4244.487305,4254.487305,4261.922852,4258.205078,4244.487305,4502.436035,4497.307617,4357.179688,4453.589844,6362.000000,3.000000,66.000000,,,,0.000000,4.000000,4.000000,4.000000,4.000000,4.000000,4.000000,4.000000,4.000000,4.000000,4.000000,4.000000,4.000000,4.000000,4.000000,100.000000,,,,,,,,,,,,,,,,,,,,,,,,,,,,
1703502259.968766,1703502259.969571,12.000000,0.000000,4267.692383,4268.333496,4337.820313,4280.256348,4264.615234,4247.051270,4263.846191,4255.384766,4252.436035,4238.846191,4494.102539,4490.897461,4348.846191,4448.974121,6907.000000,3.000000,66.000000,,,,0.000000,4.000000,4.000000,4.000000,4.000000,4.000000,4.000000,4.000000,4.000000,4.000000,4.000000,4.000000,4.000000,4.000000,4.000000,100.000000,,,,,,,,,,,,,,,,,3.000000,0.000000,0.731366,-0.310913,-0.605652,-0.040283,0.900989,-0.411671,0.073739,-7.627631,-48.944355,62.028652
1703502259.976574,1703502259.977379,13.000000,0.000000,4262.436035,4266.794922,4330.769043,4278.589844,4267.051270,4250.384766,4264.230957,4254.102539,4245.641113,4232.179688,4485.000000,4485.512695,4341.410156,4437.820313,6683.000000,3.000000,66.000000,,,,0.000000,4.000000,4.000000,4.000000,4.000000,4.000000,4.000000,4.000000,4.000000,4.000000,4.000000,4.000000,4.000000,4.000000,4.000000,100.000000,,,,,,,,,,,,,,,,,,,,,,,,,,,,
1703502259.984382,1703502259.985287,14.000000,0.000000,4262.307617,4265.128418,4327.436035,4280.256348,4265.769043,4249.487305,4262.436035,4257.948730,4252.692383,4235.897461,4488.589844,4486.794922,4349.487305,4441.025879,6057.000000,3.000000,66.000000,,,,0.000000,4.000000,4.000000,4.000000,4.000000,4.000000,4.000000,4.000000,4.000000,4.000000,4.000000,4.000000,4.000000,4.000000,4.000000,100.000000,,,,,,,,,,,,,,,,,,,,,,,,,,,,
1703502259.992190,1703502259.993095,15.000000,0.000000,4264.358887,4264.487305,4329.358887,4279.102539,4269.230957,4255.641113,4266.410156,4257.307617,4262.307617,4243.974121,4497.820313,4488.846191,4360.769043,4445.897461,6362.000000,3.000000,66.000000,,,,0.000000,4.000000,4.000000,4.000000,4.000000,4.000000,4.000000,4.000000,4.000000,4.000000,4.000000,4.000000,4.000000,4.000000,4.000000,100.000000,,,,,,,,,,,,,,,,,,,,,,,,,,,,
1703502259.999998,1703502260.001003,16.000000,0.000000,4264.615234,4265.256348,4329.615234,4278.589844,4276.282227,4259.743652,4268.333496,4259.102539,4260.769043,4241.538574,4495.769043,4490.512695,4358.846191,4442.820313,0.000000,3.000000,66.000000,,,,0.000000,4.000000,4.000000,4.000000,4.000000,4.000000,4.000000,4.000000,4.000000,4.000000,4.000000,4.000000,4.000000,4.000000,4.000000,100.000000,,,,,,,,,,,,,,,,,4.000000,0.000000,0.731416,-0.310913,-0.605591,-0.040283,0.900989,-0.411183,0.078135,-7.731535,-48.866589,62.192455
1703502260.007806,1703502260.008811,17.000000,0.000000,4264.358887,4264.487305,4329.230957,4280.897461,4272.179688,4254.615234,4266.025879,4263.974121,4257.948730,4236.153809,4496.025879,4493.205078,4360.128418,4442.563965,0.000000,3.000000,66.000000,,,,0.000000,4.000000,4.000000,4.000000,4.000000,4.000000,4.000000,4.000000,4.000000,4.000000,4.000000,4.000000,4.000000,4.000000,4.000000,100.000000,,,,,,,,,,,,,,,,,,,,,,,,,,,,
1703502260.015614,1703502260.016519,18.000000,0.000000,4264.358887,4262.307617,4329.230957,4280.128418,4263.846191,4255.256348,4266.153809,4263.077148,4259.871582,4240.000000,4504.487305,4492.820313,4368.589844,4448.974121,0.000000,3.000000,66.000000,,,,0.000000,4.000000,4.000000,4.000000,4.000000,4.000000,4.000000,4.000000,4.000000,4.000000,4.000000,4.000000,4.000000,4.000000,4.000000,100.000000,,,,,,,,,,,,,,,,,,,,,,,,,,,,
1703502260.023422,1703502260.024327,19.000000,0.000000,4265.000000,4263.333496,4328.589844,4277.820313,4265.512695,4258.461426,4268.077148,4262.948730,4262.820313,4249.230957,4510.769043,4496.025879,4376.794922,4457.051270,0.000000,3.000000,66.000000,,,,0.000000,4.000000,4.000000,4.000000,4.000000,4.000000,4.000000,4.000000,4.000000,4.000000,4.000000,4.000000,4.000000,4.000000,4.000000,100.000000,,,,,,,,,,,,,,,,,,,,,,,,,,,,
1703502260.031230,1703502260.032035,20.000000,0.000000,4266.922852,4265.128418,4332.692383,4278.461426,4266.922852,4251.666504,4268.077148,4267.436035,4264.743652,4252.051270,4513.205078,4502.948730,4381.282227,4461.410156,0.000000,3.000000,66.000000,,,,0.000000,4.000000,4.000000,4.000000,4.000000,4.000000,4.000000,4.000000,4.000000,4.000000,4.000000,4.000000,4.000000,4.000000,4.000000,100.000000,,,,,,,,,,,,,,,,,5.000000,0.000000,0.731438,-0.310974,-0.605530,-0.040344,0.886827,-0.404346,0.061043,-7.425048,-48.796597,62.223209
1703502260.039038,1703502260.039843,21.000000,0.000000,4267.179688,4266.025879,4337.948730,4280.256348,4263.077148,4245.897461,4265.384766,4266.794922,4266.153809,4248.461426,4508.846191,4500.897461,4374.487305,4456.794922,0.000000,3.000000,66.000000,,,,0.000000,4.000000,4.000000,4.000000,4.000000,4.000000,4.000000,4.000000,4.000000,4.000000,4.000000,4.000000,4.000000,4.000000,4.000000,100.000000,,,,,,,,,,,,,,,,,,,,,,,,,,,,
1703502260.046846,1703502260.047551,22.000000,0.000000,4266.282227,4266.666504,4332.563965,4278.589844,4262.307617,4249.230957,4264.102539,4264.358887,4264.487305,4247.948730,4501.794922,4493.717773,4363.461426,4451.666504,0.000000,3.000000,66.000000,,,,0.000000,4.000000,4.000000,4.000000,4.000000,4.000000,4.000000,4.000000,4.000000,4.000000,4.000000,4.000000,4.000000,4.000000,4.000000,100.000000,,,,,,,,,,,,,,,,,,,,,,,,,,,,
1703502260.054654,1703502260.055359,23.000000,0.000000,4270.128418,4266.153809,4329.743652,4278.846191,4264.871582,4250.512695,4265.897461,4265.000000,4262.820313,4247.820313,4506.282227,4495.256348,4365.897461,4456.538574,0.000000,3.000000,66.000000,,,,0.000000,4.000000,4.000000,4.000000,4.000000,4.000000,4.000000,4.000000,4.000000,4.000000,4.000000,4.000000,4.000000,4.000000,4.000000,100.000000,,,,,,,,,,,,,,,,,,,,,,,,,,,,
1703502260.062462,1703502260.063067,24.000000,0.000000,4272.692383,4266.025879,4333.461426,4282.948730,4267.051270,4248.846191,4266.410156,4264.230957,4262.820313,4244.102539,4508.333496,4497.820313,4371.922852,4458.077148,0.000000,3.000000,66.000000,,,,0.000000,4.000000,4.000000,4.000000,4.000000,4.000000,4.000000,4.000000,4.000000,4.000000,4.000000,4.000000,4.000000,4.000000,4.000000,100.000000,,,,,,,,,,,,,,,,,6.000000,0.000000,0.731535,-0.310974,-0.605408,-0.040405,0.895617,-0.407765,0.075693,-7.432543,-48.800270,62.184223
1703502260.070270,1703502260.070875,25.000000,0.000000,4264.615234,4261.794922,4327.179688,4276.538574,4263.974121,4251.922852,4266.282227,4262.051270,4260.641113,4235.897461,4495.128418,4486.153809,4364.871582,4447.307617,0.000000,3.000000,66.000000,,,,0.000000,4.000000,4.000000,4.000000,4.000000,4.000000,4.000000,4.000000,4.000000,4.000000,4.000000,4.000000,4.000000,4.000000,4.000000,100.000000,,,,,,,,,,,,,,,,,,,,,,,,,,,,
1703502260.078078,1703502260.078584,26.000000,0.000000,4257.307617,4255.128418,4318.589844,4266.025879,4260.897461,4253.717773,4266.538574,4256.922852,4257.307617,4232.436035,4488.717773,4479.487305,4360.128418,4438.974121,0.000000,3.000000,66.000000,,,,0.000000,4.000000,4.000000,4.000000,4.000000,4.000000,4.000000,4.000000,4.000000,4.000000,4.000000,4.000000,4.000000,4.000000,4.000000,100.000000,,,,,,,,,,,,,,,,,,,,,,,,,,,,
1703502260.085886,1703502260.086391,27.000000,0.000000,4261.153809,4255.641113,4320.256348,4271.666504,4263.077148,4254.102539,4265.641113,4249.871582,4251.666504,4233.846191,4493.205078,4482.563965,4364.743652,4443.974121,0.000000,3.000000,66.000000,,,,0.000000,4.000000,4.000000,4.000000,4.000000,4.000000,4.000000,4.000000,4.000000,4.000000,4.000000,4.000000,4.000000,4.000000,4.000000,100.000000,1.000000,100.000000,4.000000,4.000000,4.000000,4.000000,4.000000,4.000000,4.000000,4.000000,4.000000,4.000000,4.000000,4.000000,4.000000,4.000000,,,,,,,,,,,,
1703502260.093695,1703502260.094100,28.000000,0.000000,4266.666504,4260.769043,4324.743652,4279.871582,4264.743652,4255.641113,4266.153809,4253.077148,4247.179688,4231.922852,4495.000000,4483.717773,4366.025879,4449.102539,0.000000,3.000000,66.000000,,,,0.000000,4.000000,4.000000,4.000000,4.000000,4.000000,4.000000,4.000000,4.000000,4.000000,4.000000,4.000000,4.000000,4.000000,4.000000,100.000000,,,,,,,,,,,,,,,,,7.000000,0.000000,0.731746,-0.310913,-0.605164,-0.040710,0.882432,-0.415090,0.067879,-7.472622,-48.853577,61.965801
1703502260.101503,1703502260.101908,29.000000,0.000000,4266.410156,4262.179688,4323.461426,4274.615234,4263.589844,4253.461426,4264.615234,4258.974121,4248.846191,4230.128418,4494.487305,4484.871582,4367.179688,4447.948730,0.000000,3.000000,66.000000,,,,0.000000,4.000000,4.000000,4.000000,4.000000,4.000000,4.000000,4.000000,4.000000,4.000000,4.000000,4.000000,4.000000,4.000000,4.000000,100.000000,,,,,,,,,,,,,,,,,,,,,,,,,,,,
1703502260.109311,1703502260.109616,30.000000,0.000000,4264.871582,4262.820313,4321.538574,4270.384766,4262.563965,4249.615234,4262.563965,4252.436035,4249.102539,4230.256348,4492.179688,4483.846191,4363.077148,4446.410156,0.000000,3.000000,66.000000,,,,0.000000,4.000000,4.000000,4.000000,4.000000,4.000000,4.000000,4.000000,4.000000,4.000000,4.000000,4.000000,4.000000,4.000000,4.000000,100.000000,,,,,,,,,,,,,,,,,,,,,,,,,,,,
1703502260.117119,1703502260.117524,31.000000,0.000000,4263.205078,4263.333496,4321.153809,4275.512695,4263.846191,4253.589844,4264.615234,4246.025879,4246.025879,4228.077148,4485.384766,4480.128418,4351.153809,4440.769043,0.000000,3.000000,66.000000,,,,0.000000,4.000000,4.000000,4.000000,4.000000,4.000000,4.000000,4.000000,4.000000,4.000000,4.000000,4.000000,4.000000,4.000000,4.000000,100.000000,,,,,,,,,,,,,,,,,,,,,,,,,,,,
1703502260.124927,1703502260.125332,32.000000,0.000000,4262.692383,4262.948730,4321.410156,4278.205078,4266.025879,4257.179688,4266.538574,4249.743652,4245.769043,4227.051270,4480.769043,4478.974121,4350.128418,4439.743652,0.000000,3.000000,66.000000,,,,0.000000,4.000000,4.000000,4.000000,4.000000,4.000000,4.000000,4.000000,4.000000,4.000000,4.000000,4.000000,4.000000,4.000000,4.000000,100.000000,,,,,,,,,,,,,,,,,8.000000,0.000000,0.731832,-0.311035,-0.604980,-0.040955,0.910756,-0.397021,0.065438,-7.358693,-48.801552,62.035885
1703502260.132735,1703502260.133140,33.000000,0.000000,4265.512695,4264.358887,4326.666504,4277.436035,4267.051270,4252.563965,4264.743652,4250.000000,4248.077148,4230.641113,4487.051270,4481.410156,4365.769043,4451.282227,0.000000,3.000000,66.000000,,,,0.000000,4.000000,4.000000,4.000000,4.000000,4.000000,4.000000,4.000000,4.000000,4.000000,4.000000,4.000000,4.000000,4.000000,4.000000,100.000000,,,,,,,,,,,,,,,,,,,,,,,,,,,,
1703502260.140543,1703502260.140848,34.000000,0.000000,4265.512695,4261.666504,4328.205078,4276.153809,4264.102539,4248.333496,4264.102539,4247.179688,4249.871582,4234.230957,4495.256348,4484.487305,4377.563965,4456.153809,0.000000,3.000000,66.000000,,,,0.000000,4.000000,4.000000,4.000000,4.000000,4.000000,4.000000,4.000000,4.000000,4.000000,4.000000,4.000000,4.000000,4.000000,4.000000,100.000000,,,,,,,,,,,,,,,,,,,,,,,,,,,,
1703502260.148351,1703502260.148756,35.000000,0.000000,4265.256348,4258.974121,4325.641113,4275.769043,4263.846191,4249.871582,4265.641113,4249.102539,4251.410156,4236.282227,4498.205078,4485.641113,4377.179688,4451.666504,0.000000,3.000000,66.000000,,,,0.000000,4.000000,4.000000,4.000000,4.000000,4.000000,4.000000,4.000000,4.000000,4.000000,4.000000,4.000000,4.000000,4.000000,4.000000,100.000000,,,,,,,,,,,,,,,,,,,,,,,,,,,,
1703502260.156159,1703502260.156565,36.000000,0.000000,4271.153809,4265.641113,4325.128418,4275.641113,4266.538574,4255.000000,4265.384766,4248.461426,4250.897461,4237.820313,4498.717773,4485.769043,4376.025879,4454.743652,0.000000,3.000000,66.000000,,,,0.000000,4.000000,4.000000,4.000000,4.000000,4.000000,4.000000,4.000000,4.000000,4.000000,4.000000,4.000000,4.000000,4.000000,4.000000,100.000000,,,,,,,,,,,,,,,,,9.000000,0.000000,0.731862,-0.311035,-0.604919,-0.041321,0.906849,-0.419485,0.070809,-7.339490,-48.754730,62.098965
1703502260.163967,1703502260.164473,37.000000,0.000000,4275.384766,4266.410156,4324.743652,4273.077148,4267.948730,4260.512695,4264.230957,4247.563965,4250.769043,4235.000000,4497.307617,4483.205078,4375.256348,4458.461426,0.000000,3.000000,66.000000,,,,0.000000,4.000000,4.000000,4.000000,4.000000,4.000000,4.000000,4.000000,4.000000,4.000000,4.000000,4.000000,4.000000,4.000000,4.000000,100.000000,,,,,,,,,,,,,,,,,,,,,,,,,,,,
1703502260.171775,1703502260.172281,38.000000,0.000000,4274.743652,4266.025879,4325.512695,4274.487305,4271.538574,4261.282227,4266.794922,4248.589844,4249.871582,4229.743652,4489.487305,4480.641113,4371.410156,4453.333496,0.000000,3.000000,66.000000,,,,0.000000,4.000000,4.000000,4.000000,4.000000,4.000000,4.000000,4.000000,4.000000,4.000000,4.000000,4.000000,4.000000,4.000000,4.000000,100.000000,,,,,,,,,,,,,,,,,,,,,,,,,,,,
1703502260.179583,1703502260.180189,39.000000,0.000000,4276.666504,4274.358887,4326.794922,4279.487305,4272.563965,4259.743652,4270.769043,4250.384766,4247.692383,4230.641113,4491.153809,4484.871582,4376.666504,4456.666504,0.000000,3.000000,66.000000,,,,0.000000,4.000000,4.000000,4.000000,4.000000,4.000000,4.000000,4.000000,4.000000,4.000000,4.000000,4.000000,4.000000,4.000000,4.000000,100.000000,,,,,,,,,,,,,,,,,,,,,,,,,,,,
1703502260.187391,1703502260.187997,40.000000,0.000000,4280.256348,4272.820313,4327.563965,4279.487305,4269.615234,4261.153809,4269.743652,4250.512695,4250.128418,4236.666504,4504.871582,4490.512695,4388.077148,4464.358887,0.000000,3.000000,66.000000,,,,0.000000,4.000000,4.000000,4.000000,4.000000,4.000000,4.000000,4.000000,4.000000,4.000000,4.000000,4.000000,4.000000,4.000000,4.000000,100.000000,,,,,,,,,,,,,,,,,10.000000,0.000000,0.731956,-0.311035,-0.604797,-0.041443,0.916127,-0.402881,0.083995,-7.338875,-48.645924,62.089069
1703502260.195199,1703502260.195805,41.000000,0.000000,4277.436035,4263.589844,4324.871582,4276.794922,4267.692383,4258.717773,4264.743652,4247.820313,4251.153809,4239.358887,4504.358887,4485.897461,4388.846191,4460.897461,0.000000,3.000000,66.000000,,,,0.000000,4.000000,4.000000,4.000000,4.000000,4.000000,4.000000,4.000000,4.000000,4.000000,4.000000,4.000000,4.000000,4.000000,4.000000,100.000000,,,,,,,,,,,,,,,,,,,,,,,,,,,,
1703502260.203007,1703502260.203613,42.000000,0.000000,4274.358887,4268.333496,4322.692383,4278.205078,4266.153809,4253.333496,4262.436035,4247.179688,4248.205078,4236.282227,4491.666504,4477.563965,4380.000000,4458.333496,0.000000,3.000000,66.000000,,,,0.000000,4.000000,4.000000,4.000000,4.000000,4.000000,4.000000,4.000000,4.000000,4.000000,4.000000,4.000000,4.000000,4.000000,4.000000,100.000000,,,,,,,,,,,,,,,,,,,,,,,,,,,,
1703502260.210815,1703502260.211321,43.000000,0.000000,4275.512695,4273.846191,4322.051270,4278.717773,4261.794922,4250.000000,4262.436035,4246.666504,4247.948730,4233.333496,4489.230957,4478.461426,4380.384766,4459.743652,0.000000,3.000000,66.000000,,,,0.000000,4.000000,4.000000,4.000000,4.000000,4.000000,4.000000,4.000000,4.000000,4.000000,4.000000,4.000000,4.000000,4.000000,4.000000,100.000000,,,,,,,,,,,,,,,,,,,,,,,,,,,,
1703502260.218624,1703502260.219129,44.000000,0.000000,4278.333496,4267.307617,4324.487305,4274.615234,4259.615234,4249.102539,4261.410156,4245.384766,4249.487305,4237.820313,4499.487305,4484.871582,4389.615234,4459.743652,0.000000,3.000000,66.000000,,,,0.000000,4.000000,4.000000,4.000000,4.000000,4.000000,4.000000,4.000000,4.000000,4.000000,4.000000,4.000000,4.000000,4.000000,4.000000,100.000000,,,,,,,,,,,,,,,,,11.000000,0.000000,0.731878,-0.310974,-0.604919,-0.041504,0.900012,-0.399951,0.067391,-7.521654,-48.681332,62.080162
1703502260.226431,1703502260.226837,45.000000,0.000000,4282.692383,4265.641113,4330.256348,4275.000000,4262.436035,4249.871582,4260.512695,4247.948730,4251.153809,4247.179688,4510.256348,4486.922852,4397.051270,4465.000000,0.000000,3.000000,66.000000,,,,0.000000,4.000000,4.000000,4.000000,4.000000,4.000000,4.000000,4.000000,4.000000,4.000000,4.000000,4.000000,4.000000,4.000000,4.000000,100.000000,,,,,,,,,,,,,,,,,,,,,,,,,,,,
1703502260.234239,1703502260.234645,46.000000,0.000000,4282.948730,4267.179688,4330.128418,4275.000000,4261.538574,4250.256348,4260.512695,4250.384766,4251.025879,4244.102539,4507.820313,4486.538574,4395.000000,4470.000000,0.000000,3.000000,66.000000,,,,0.000000,4.000000,4.000000,4.000000,4.000000,4.000000,4.000000,4.000000,4.000000,4.000000,4.000000,4.000000,4.000000,4.000000,4.000000,100.000000,,,,,,,,,,,,,,,,,,,,,,,,,,,,
1703502260.242048,1703502260.242353,47.000000,0.000000,4277.563965,4265.128418,4323.589844,4267.948730,4260.000000,4248.333496,4260.128418,4247.820313,4247.692383,4231.666504,4493.974121,4481.025879,4385.769043,4464.230957,0.000000,3.000000,66.000000,,,,0.000000,4.000000,4.000000,4.000000,4.000000,4.000000,4.000000,4.000000,4.000000,4.000000,4.000000,4.000000,4.000000,4.000000,4.000000,100.000000,,,,,,,,,,,,,,,,,,,,,,,,,,,,
1703502260.249856,1703502260.250161,48.000000,0.000000,4275.897461,4269.487305,4318.974121,4267.051270,4265.384766,4251.282227,4259.743652,4247.436035,4245.897461,4230.256348,4487.179688,4474.230957,4386.410156,4457.307617,0.000000,3.000000,66.000000,,,,0.000000,4.000000,4.000000,4.000000,4.000000,4.000000,4.000000,4.000000,4.000000,4.000000,4.000000,4.000000,4.000000,4.000000,4.000000,100.000000,,,,,,,,,,,,,,,,,12.000000,0.000000,0.731846,-0.310669,-0.605103,-0.041687,0.909779,-0.397509,0.068856,-7.619489,-48.696529,61.972145
1703502260.257664,1703502260.257869,49.000000,0.000000,4281.666504,4277.692383,4323.846191,4277.692383,4270.000000,4259.743652,4260.256348,4249.487305,4246.410156,4233.974121,4490.641113,4476.410156,4391.794922,4460.769043,0.000000,3.000000,66.000000,,,,0.000000,4.000000,4.000000,4.000000,4.000000,4.000000,4.000000,4.000000,4.000000,4.000000,4.000000,4.000000,4.000000,4.000000,4.000000,100.000000,,,,,,,,,,,,,,,,,,,,,,,,,,,,
1703502260.265472,1703502260.265677,50.000000,0.000000,4281.794922,4282.051270,4327.051270,4281.666504,4266.666504,4258.589844,4262.563965,4244.743652,4240.512695,4225.641113,4482.436035,4476.922852,4378.717773,4456.282227,0.000000,3.000000,66.000000,,,,0.000000,4.000000,4.000000,4.000000,4.000000,4.000000,4.000000,4.000000,4.000000,4.000000,4.000000,4.000000,4.000000,4.000000,4.000000,100.000000,,,,,,,,,,,,,,,,,,,,,,,,,,,,
1703502260.273280,1703502260.273385,51.000000,0.000000,4271.025879,4276.922852,4320.769043,4277.692383,4264.102539,4249.358887,4262.692383,4240.769043,4231.538574,4214.615234,4470.897461,4470.128418,4363.589844,4440.769043,0.000000,3.000000,66.000000,,,,0.000000,4.000000,4.000000,4.000000,4.000000,4.000000,4.000000,4.000000,4.000000,4.000000,4.000000,4.000000,4.000000,4.000000,4.000000,100.000000,,,,,,,,,,,,,,,,,,,,,,,,,,,,
1703502260.281088,1703502260.281193,52.000000,0.000000,4264.743652,4267.820313,4318.461426,4278.333496,4260.128418,4248.717773,4260.641113,4243.589844,4230.897461,4215.769043,4475.000000,4471.794922,4372.051270,4438.205078,0.000000,3.000000,66.000000,,,,0.000000,4.000000,4.000000,4.000000,4.000000,4.000000,4.000000,4.000000,4.000000,4.000000,4.000000,4.000000,4.000000,4.000000,4.000000,100.000000,,,,,,,,,,,,,,,,,13.000000,0.000000,0.731742,-0.310303,-0.605408,-0.041809,0.902942,-0.394579,0.076670,-7.740873,-48.793545,62.041595
1703502260.288896,1703502260.288901,53.000000,0.000000,4266.922852,4264.102539,4321.153809,4280.000000,4252.179688,4252.692383,4259.487305,4251.538574,4241.666504,4223.205078,4485.641113,4482.179688,4385.384766,4451.794922,0.000000,3.000000,66.000000,,,,0.000000,4.000000,4.000000,4.000000,4.000000,4.000000,4.000000,4.000000,4.000000,4.000000,4.000000,4.000000,4.000000,4.000000,4.000000,100.000000,,,,,,,,,,,,,,,,,,,,,,,,,,,,
1703502260.296704,1703502260.296709,54.000000,0.000000,4265.641113,4258.717773,4321.794922,4272.948730,4250.897461,4252.051270,4262.563965,4263.077148,4255.128418,4230.512695,4497.563965,4489.615234,4390.128418,4459.487305,0.000000,3.000000,66.000000,,,,0.000000,4.000000,4.000000,4.000000,4.000000,4.000000,4.000000,4.000000,4.000000,4.000000,4.000000,4.000000,4.000000,4.000000,4.000000,100.000000,,,,,,,,,,,,,,,,,,,,,,,,,,,,
1703502260.304512,1703502260.304417,55.000000,0.000000,4261.666504,4246.794922,4319.615234,4266.666504,4252.051270,4250.384766,4263.461426,4265.897461,4256.794922,4236.282227,4506.666504,4490.128418,4400.000000,4459.358887,0.000000,3.000000,66.000000,,,,0.000000,4.000000,4.000000,4.000000,4.000000,4.000000,4.000000,4.000000,4.000000,4.000000,4.000000,4.000000,4.000000,4.000000,4.000000,100.000000,,,,,,,,,,,,,,,,,,,,,,,,,,,,
1703502260.312320,1703502260.312326,56.000000,0.000000,4261.794922,4246.922852,4318.589844,4270.256348,4250.000000,4250.256348,4257.820313,4255.128418,4250.128418,4237.051270,4500.897461,4485.128418,4396.794922,4458.461426,0.000000,3.000000,66.000000,,,,0.000000,4.000000,4.000000,4.000000,4.000000,4.000000,4.000000,4.000000,4.000000,4.000000,4.000000,4.000000,4.000000,4.000000,4.000000,100.000000,,,,,,,,,,,,,,,,,14.000000,0.000000,0.731776,-0.310120,-0.605469,-0.041687,0.889757,-0.405323,0.080088,-7.716786,-48.797523,62.220772
1703502260.320128,1703502260.320134,57.000000,0.000000,4264.871582,4260.897461,4319.487305,4278.077148,4251.153809,4248.717773,4254.487305,4245.000000,4245.256348,4231.538574,4489.743652,4482.307617,4378.846191,4453.589844,0.000000,3.000000,66.000000,,,,0.000000,4.000000,4.000000,4.000000,4.000000,4.000000,4.000000,4.000000,4.000000,4.000000,4.000000,4.000000,4.000000,4.000000,4.000000,100.000000,,,,,,,,,,,,,,,,,,,,,,,,,,,,
1703502260.327936,1703502260.328042,58.000000,0.000000,4273.205078,4266.794922,4320.769043,4281.666504,4258.205078,4246.410156,4255.128418,4250.000000,4248.589844,4231.538574,4490.512695,4484.487305,4382.436035,4454.230957,0.000000,3.000000,66.000000,,,,0.000000,4.000000,4.000000,4.000000,4.000000,4.000000,4.000000,4.000000,4.000000,4.000000,4.000000,4.000000,4.000000,4.000000,4.000000,100.000000,,,,,,,,,,,,,,,,,,,,,,,,,,,,
1703502260.335744,1703502260.335850,59.000000,0.000000,4281.666504,4266.794922,4323.846191,4281.538574,4260.384766,4246.282227,4254.230957,4259.743652,4256.794922,4242.692383,4494.871582,4485.641113,4398.589844,4461.153809,0.000000,3.000000,66.000000,,,,0.000000,4.000000,4.000000,4.000000,4.000000,4.000000,4.000000,4.000000,4.000000,4.000000,4.000000,4.000000,4.000000,4.000000,4.000000,100.000000,,,,,,,,,,,,,,,,,,,,,,,,,,,,
1703502260.343552,1703502260.343758,60.000000,0.000000,4277.692383,4267.307617,4324.358887,4282.948730,4255.256348,4247.051270,4250.128418,4257.948730,4256.410156,4243.717773,4490.512695,4481.666504,4398.077148,4457.307617,0.000000,3.000000,66.000000,,,,0.000000,4.000000,4.000000,4.000000,4.000000,4.000000,4.000000,4.000000,4.000000,4.000000,4.000000,4.000000,4.000000,4.000000,4.000000,100.000000,,,,,,,,,,,,,,,,,15.000000,0.000000,0.731786,-0.310120,-0.605469,-0.041504,0.896105,-0.403858,0.069344,-7.595107,-48.734436,62.332027
1703502260.351360,1703502260.351566,61.000000,0.000000,4276.025879,4264.487305,4320.769043,4284.102539,4252.692383,4245.512695,4247.948730,4250.641113,4247.436035,4234.871582,4484.487305,4476.025879,4395.384766,4452.436035,0.000000,3.000000,66.000000,,,,0.000000,4.000000,4.000000,4.000000,4.000000,4.000000,4.000000,4.000000,4.000000,4.000000,4.000000,4.000000,4.000000,4.000000,4.000000,100.000000,,,,,,,,,,,,,,,,,,,,,,,,,,,,
1703502260.359168,1703502260.359474,62.000000,0.000000,4279.743652,4265.256348,4313.717773,4283.846191,4254.230957,4244.102539,4249.358887,4243.846191,4237.307617,4229.487305,4478.589844,4471.153809,4395.128418,4452.307617,0.000000,3.000000,66.000000,,,,0.000000,4.000000,4.000000,4.000000,4.000000,4.000000,4.000000,4.000000,4.000000,4.000000,4.000000,4.000000,4.000000,4.000000,4.000000,100.000000,,,,,,,,,,,,,,,,,,,,,,,,,,,,
1703502260.366977,1703502260.367283,63.000000,0.000000,4271.410156,4268.205078,4309.230957,4281.410156,4252.436035,4244.615234,4250.128418,4234.871582,4223.846191,4217.948730,4470.000000,4463.846191,4382.948730,4445.256348,0.000000,3.000000,66.000000,,,,0.000000,4.000000,4.000000,4.000000,4.000000,4.000000,4.000000,4.000000,4.000000,4.000000,4.000000,4.000000,4.000000,4.000000,4.000000,100.000000,,,,,,,,,,,,,,,,,,,,,,,,,,,,
1703502260.374785,1703502260.375191,64.000000,0.000000,4261.922852,4259.615234,4311.282227,4274.230957,4245.641113,4240.769043,4248.077148,4231.922852,4210.128418,4205.000000,4467.436035,4460.897461,4375.384766,4437.436035,5171.000000,3.000000,66.000000,,,,0.000000,4.000000,4.000000,4.000000,4.000000,4.000000,4.000000,4.000000,4.000000,4.000000,4.000000,4.000000,4.000000,4.000000,4.000000,100.000000,,,,,,,,,,,,,,,,,16.000000,0.000000,0.731856,-0.310303,-0.605286,-0.041565,0.899524,-0.399463,0.080088,-7.685596,-48.827660,62.232159
1703502260.382593,1703502260.382999,65.000000,0.000000,4264.358887,4248.846191,4313.333496,4267.948730,4243.333496,4235.769043,4246.538574,4242.051270,4213.846191,4209.615234,4472.692383,4465.256348,4379.615234,4437.948730,5517.000000,3.000000,66.000000,,,,0.000000,4.000000,4.000000,4.000000,4.000000,4.000000,4.000000,4.000000,4.000000,4.000000,4.000000,4.000000,4.000000,4.000000,4.000000,100.000000,,,,,,,,,,,,,,,,,,,,,,,,,,,,
1703502260.390401,1703502260.390906,66.000000,0.000000,4264.615234,4252.051270,4306.153809,4265.641113,4245.128418,4233.717773,4249.230957,4248.333496,4225.512695,4215.256348,4471.025879,4462.948730,4370.000000,4431.538574,5357.000000,3.000000,66.000000,,,,0.000000,4.000000,4.000000,4.000000,4.000000,4.000000,4.000000,4.000000,4.000000,4.000000,4.000000,4.000000,4.000000,4.000000,4.000000,100.000000,,,,,,,,,,,,,,,,,,,,,,,,,,,,
1703502260.398209,1703502260.398714,67.000000,0.000000,4261.410156,4259.358887,4298.589844,4266.282227,4246.538574,4234.358887,4250.384766,4245.128418,4230.384766,4211.794922,4464.230957,4456.153809,4362.307617,4421.922852,5422.000000,3.000000,66.000000,,,,0.000000,4.000000,4.000000,4.000000,4.000000,4.000000,4.000000,4.000000,4.000000,4.000000,4.000000,4.000000,4.000000,4.000000,4.000000,100.000000,,,,,,,,,,,,,,,,,,,,,,,,,,,,
1703502260.406017,1703502260.406422,68.000000,0.000000,4264.230957,4262.051270,4302.179688,4267.820313,4249.358887,4241.410156,4248.846191,4253.205078,4240.769043,4223.589844,4477.436035,4462.948730,4379.230957,4432.179688,5312.000000,3.000000,66.000000,,,,0.000000,4.000000,4.000000,4.000000,4.000000,4.000000,4.000000,4.000000,4.000000,4.000000,4.000000,4.000000,4.000000,4.000000,4.000000,100.000000,,,,,,,,,,,,,,,,,17.000000,0.000000,0.731694,-0.310669,-0.605286,-0.041687,0.903431,-0.400440,0.085460,-7.900370,-48.911560,62.225609
1703502260.413825,1703502260.414230,69.000000,0.000000,4266.282227,4261.282227,4306.410156,4267.948730,4248.461426,4245.897461,4247.820313,4264.487305,4250.512695,4237.563965,4495.128418,4472.179688,4390.769043,4444.871582,4894.000000,3.000000,66.000000,,,,0.000000,4.000000,4.000000,4.000000,4.000000,4.000000,4.000000,4.000000,4.000000,4.000000,4.000000,4.000000,4.000000,4.000000,4.000000,100.000000,,,,,,,,,,,,,,,,,,,,,,,,,,,,
1703502260.421633,1703502260.421938,70.000000,0.000000,4261.922852,4256.794922,4303.846191,4263.846191,4244.871582,4237.436035,4247.307617,4262.436035,4247.436035,4232.051270,4490.128418,4466.666504,4380.000000,4438.589844,3969.000000,3.000000,66.000000,,,,0.000000,4.000000,4.000000,4.000000,4.000000,4.000000,4.000000,4.000000,4.000000,4.000000,4.000000,4.000000,4.000000,4.000000,4.000000,100.000000,,,,,,,,,,,,,,,,,,,,,,,,,,,,
1703502260.429441,1703502260.429847,71.000000,0.000000,4263.846191,4256.794922,4308.077148,4265.641113,4244.615234,4233.589844,4249.487305,4263.589844,4246.538574,4230.769043,4486.538574,4470.641113,4380.384766,4434.230957,5295.000000,3.000000,66.000000,,,,0.000000,4.000000,4.000000,4.000000,4.000000,4.000000,4.000000,4.000000,4.000000,4.000000,4.000000,4.000000,4.000000,4.000000,4.000000,100.000000,,,,,,,,,,,,,,,,,,,,,,,,,,,,
1703502260.437249,1703502260.437655,72.000000,0.000000,4272.051270,4263.077148,4318.974121,4275.000000,4246.922852,4239.487305,4252.820313,4271.410156,4251.794922,4237.307617,4493.717773,4482.948730,4388.205078,4440.641113,5405.000000,3.000000,66.000000,,,,0.000000,4.000000,4.000000,4.000000,4.000000,4.000000,4.000000,4.000000,4.000000,4.000000,4.000000,4.000000,4.000000,4.000000,4.000000,100.000000,,,,,,,,,,,,,,,,,18.000000,0.000000,0.731665,-0.310730,-0.605286,-0.041748,0.908314,-0.407276,0.064949,-7.777000,-48.903740,62.303047
1703502260.445057,1703502260.445563,73.000000,0.000000,4272.179688,4265.256348,4318.461426,4273.461426,4247.307617,4237.820313,4250.256348,4268.846191,4246.410156,4229.358887,4487.436035,4475.128418,4373.589844,4439.102539,5467.000000,3.000000,66.000000,,,,0.000000,4.000000,4.000000,4.000000,4.000000,4.000000,4.000000,4.000000,4.000000,4.000000,4.000000,4.000000,4.000000,4.000000,4.000000,100.000000,,,,,,,,,,,,,,,,,,,,,,,,,,,,
1703502260.452865,1703502260.453371,74.000000,0.000000,4266.153809,4262.820313,4313.333496,4263.974121,4245.384766,4233.589844,4247.307617,4261.666504,4237.692383,4217.692383,4474.487305,4463.333496,4361.025879,4429.615234,6057.000000,3.000000,66.000000,,,,0.000000,4.000000,4.000000,4.000000,4.000000,4.000000,4.000000,4.000000,4.000000,4.000000,4.000000,4.000000,4.000000,4.000000,4.000000,100.000000,,,,,,,,,,,,,,,,,,,,,,,,,,,,
1703502260.460673,1703502260.461179,75.000000,0.000000,4266.025879,4260.512695,4314.230957,4263.205078,4246.410156,4241.025879,4253.461426,4263.846191,4237.820313,4219.743652,4476.666504,4467.436035,4370.000000,4429.358887,6362.000000,3.000000,66.000000,,,,0.000000,4.000000,4.000000,4.000000,4.000000,4.000000,4.000000,4.000000,4.000000,4.000000,4.000000,4.000000,4.000000,4.000000,4.000000,100.000000,,,,,,,,,,,,,,,,,,,,,,,,,,,,
1703502260.468481,1703502260.468887,76.000000,0.000000,4266.538574,4257.307617,4311.794922,4266.153809,4249.743652,4247.179688,4257.692383,4264.487305,4236.025879,4220.512695,4479.102539,4469.743652,4373.589844,4430.641113,6907.000000,3.000000,66.000000,,,,0.000000,4.000000,4.000000,4.000000,4.000000,4.000000,4.000000,4.000000,4.000000,4.000000,4.000000,4.000000,4.000000,4.000000,4.000000,100.000000,,,,,,,,,,,,,,,,,19.000000,0.000000,0.731633,-0.310669,-0.605347,-0.041870,0.910756,-0.391649,0.070321,-7.749300,-48.896698,62.256077
1703502260.476289,1703502260.476695,77.000000,0.000000,4265.128418,4260.000000,4306.794922,4262.179688,4249.871582,4245.000000,4255.897461,4263.333496,4231.153809,4215.256348,4473.333496,4463.589844,4363.077148,4429.102539,6693.000000,3.000000,66.000000,,,,0.000000,4.000000,4.000000,4.000000,4.000000,4.000000,4.000000,4.000000,4.000000,4.000000,4.000000,4.000000,4.000000,4.000000,4.000000,100.000000,,,,,,,,,,,,,,,,,,,,,,,,,,,,
1703502260.484097,1703502260.484403,78.000000,0.000000,4265.512695,4265.256348,4303.846191,4264.102539,4249.358887,4245.897461,4257.820313,4267.436035,4231.666504,4213.589844,4470.769043,4461.538574,4355.384766,4423.461426,6057.000000,3.000000,66.000000,,,,0.000000,4.000000,4.000000,4.000000,4.000000,4.000000,4.000000,4.000000,4.000000,4.000000,4.000000,4.000000,4.000000,4.000000,4.000000,100.000000,,,,,,,,,,,,,,,,,,,,,,,,,,,,
1703502260.491905,1703502260.492312,79.000000,0.000000,4262.820313,4262.692383,4304.230957,4270.256348,4253.589844,4248.717773,4262.179688,4267.051270,4237.563965,4217.820313,4476.410156,4464.230957,4362.051270,4419.487305,6362.000000,3.000000,66.000000,,,,0.000000,4.000000,4.000000,4.000000,4.000000,4.000000,4.000000,4.000000,4.000000,4.000000,4.000000,4.000000,4.000000,4.000000,4.000000,100.000000,,,,,,,,,,,,,,,,,,,,,,,,,,,,
1703502260.499714,1703502260.500120,80.000000,0.000000,4262.051270,4259.743652,4306.282227,4267.563965,4254.871582,4248.589844,4261.794922,4263.589844,4243.589844,4223.077148,4485.256348,4466.922852,4375.384766,4427.051270,6907.000000,3.000000,66.000000,,,,0.000000,4.000000,4.000000,4.000000,4.000000,4.000000,4.000000,4.000000,4.000000,4.000000,4.000000,4.000000,4.000000,4.000000,4.000000,100.000000,,,,,,,,,,,,,,,,,20.000000,0.000000,0.731610,-0.310486,-0.605469,-0.041870,0.903919,-0.393114,0.082041,-7.841036,-49.023693,62.363800
1703502260.507522,1703502260.508028,81.000000,0.000000,4270.512695,4262.179688,4309.871582,4267.820313,4253.974121,4248.589844,4262.179688,4269.871582,4246.282227,4227.948730,4488.717773,4469.743652,4378.589844,4432.820313,6693.000000,3.000000,66.000000,,,,0.000000,4.000000,4.000000,4.000000,4.000000,4.000000,4.000000,4.000000,4.000000,4.000000,4.000000,4.000000,4.000000,4.000000,4.000000,100.000000,,,,,,,,,,,,,,,,,,,,,,,,,,,,
1703502260.515330,1703502260.515836,82.000000,0.000000,4275.128418,4264.487305,4313.333496,4276.153809,4259.358887,4249.358887,4265.000000,4273.589844,4247.051270,4228.717773,4485.897461,4473.717773,4372.820313,4433.333496,6057.000000,3.000000,66.000000,,,,0.000000,4.000000,4.000000,4.000000,4.000000,4.000000,4.000000,4.000000,4.000000,4.000000,4.000000,4.000000,4.000000,4.000000,4.000000,100.000000,,,,,,,,,,,,,,,,,,,,,,,,,,,,
1703502260.523138,1703502260.523744,83.000000,0.000000,4273.846191,4261.538574,4316.282227,4276.922852,4264.102539,4248.974121,4263.589844,4268.589844,4250.128418,4230.512695,4488.589844,4477.436035,4380.256348,4440.769043,6362.000000,3.000000,66.000000,,,,0.000000,4.000000,4.000000,4.000000,4.000000,4.000000,4.000000,4.000000,4.000000,4.000000,4.000000,4.000000,4.000000,4.000000,4.000000,100.000000,,,,,,,,,,,,,,,,,,,,,,,,,,,,
1703502260.530946,1703502260.531552,84.000000,0.000000,4276.282227,4261.410156,4319.871582,4272.820313,4262.692383,4248.077148,4262.820313,4269.230957,4251.538574,4233.461426,4497.307617,4482.563965,4390.897461,4450.000000,6907.000000,3.000000,66.000000,,,,0.000000,4.000000,4.000000,4.000000,4.000000,4.000000,4.000000,4.000000,4.000000,4.000000,4.000000,4.000000,4.000000,4.000000,4.000000,100.000000,,,,,,,,,,,,,,,,,21.000000,0.000000,0.731593,-0.310303,-0.605591,-0.041748,0.904896,-0.406300,0.076670,-7.856933,-48.921326,62.344090
1703502260.538754,1703502260.539460,85.000000,0.000000,4281.538574,4271.666504,4325.128418,4282.820313,4264.230957,4250.128418,4265.641113,4276.410156,4249.743652,4233.974121,4498.717773,4485.000000,4385.769043,4450.128418,6693.000000,3.000000,66.000000,,,,0.000000,4.000000,4.000000,4.000000,4.000000,4.000000,4.000000,4.000000,4.000000,4.000000,4.000000,4.000000,4.000000,4.000000,4.000000,100.000000,,,,,,,,,,,,,,,,,,,,,,,,,,,,
1703502260.546562,1703502260.547269,86.000000,0.000000,4283.205078,4276.666504,4330.384766,4295.384766,4265.512695,4249.487305,4266.538574,4279.358887,4249.487305,4235.897461,4499.743652,4488.589844,4383.461426,4453.974121,6057.000000,3.000000,66.000000,,,,0.000000,4.000000,4.000000,4.000000,4.000000,4.000000,4.000000,4.000000,4.000000,4.000000,4.000000,4.000000,4.000000,4.000000,4.000000,100.000000,,,,,,,,,,,,,,,,,,,,,,,,,,,,
1703502260.554370,1703502260.555177,87.000000,0.000000,4283.205078,4273.846191,4331.025879,4295.769043,4262.307617,4246.538574,4262.948730,4278.717773,4248.974121,4237.436035,4502.436035,4494.615234,4387.051270,4458.077148,6362.000000,3.000000,66.000000,,,,0.000000,4.000000,4.000000,4.000000,4.000000,4.000000,4.000000,4.000000,4.000000,4.000000,4.000000,4.000000,4.000000,4.000000,4.000000,100.000000,,,,,,,,,,,,,,,,,,,,,,,,,,,,
1703502260.562178,1703502260.562985,88.000000,0.000000,4283.205078,4277.820313,4328.589844,4296.794922,4263.333496,4247.692383,4262.051270,4278.974121,4248.846191,4234.615234,4493.717773,4492.692383,4375.256348,4446.922852,6907.000000,3.000000,66.000000,,,,0.000000,4.000000,4.000000,4.000000,4.000000,4.000000,4.000000,4.000000,4.000000,4.000000,4.000000,4.000000,4.000000,4.000000,4.000000,100.000000,,,,,,,,,,,,,,,,,22.000000,0.000000,0.731569,-0.310242,-0.605652,-0.041748,0.903431,-0.400928,0.077158,-7.854573,-48.962524,62.443012
1703502260.569986,1703502260.570892,89.000000,0.000000,4282.692383,4281.153809,4328.589844,4299.487305,4264.230957,4249.358887,4264.743652,4278.846191,4254.230957,4234.230957,4489.230957,4491.025879,4370.384766,4442.307617,6693.000000,3.000000,66.000000,,,,0.000000,4.000000,4.000000,4.000000,4.000000,4.000000,4.000000,4.000000,4.000000,4.000000,4.000000,4.000000,4.000000,4.000000,4.000000,100.000000,,,,,,,,,,,,,,,,,,,,,,,,,,,,
1703502260.577794,1703502260.578700,90.000000,0.000000,4283.461426,4277.563965,4328.974121,4297.692383,4263.077148,4248.589844,4263.717773,4277.948730,4255.641113,4240.000000,4499.871582,4493.589844,4387.948730,4457.179688,6057.000000,3.000000,66.000000,,,,0.000000,4.000000,4.000000,4.000000,4.000000,4.000000,4.000000,4.000000,4.000000,4.000000,4.000000,4.000000,4.000000,4.000000,4.000000,100.000000,,,,,,,,,,,,,,,,,,,,,,,,,,,,
1703502260.585602,1703502260.586608,91.000000,0.000000,4285.256348,4276.153809,4326.282227,4297.948730,4266.794922,4249.615234,4262.692383,4278.333496,4253.461426,4247.692383,4503.589844,4491.282227,4393.077148,4460.769043,6362.000000,3.000000,66.000000,,,,0.000000,4.000000,4.000000,4.000000,4.000000,4.000000,4.000000,4.000000,4.000000,4.000000,4.000000,4.000000,4.000000,4.000000,4.000000,100.000000,1.000000,100.000000,4.000000,4.000000,4.000000,4.000000,4.000000,4.000000,4.000000,4.000000,4.000000,4.000000,4.000000,4.000000,4.000000,4.000000,,,,,,,,,,,,
1703502260.593410,1703502260.594416,92.000000,0.000000,4277.820313,4270.512695,4318.589844,4294.487305,4267.307617,4250.128418,4264.102539,4278.205078,4256.538574,4248.077148,4491.666504,4484.230957,4378.974121,4442.436035,6907.000000,3.000000,66.000000,,,,0.000000,4.000000,4.000000,4.000000,4.000000,4.000000,4.000000,4.000000,4.000000,4.000000,4.000000,4.000000,4.000000,4.000000,4.000000,100.000000,,,,,,,,,,,,,,,,,23.000000,0.000000,0.731572,-0.310242,-0.605652,-0.041687,0.901477,-0.405811,0.070321,-7.869116,-49.116272,62.332047
1703502260.601218,1703502260.602124,93.000000,0.000000,4264.743652,4261.794922,4310.128418,4282.307617,4260.897461,4246.538574,4262.307617,4274.358887,4253.846191,4238.461426,4486.410156,4477.820313,4375.512695,4437.563965,6693.000000,3.000000,66.000000,,,,0.000000,4.000000,4.000000,4.000000,4.000000,4.000000,4.000000,4.000000,4.000000,4.000000,4.000000,4.000000,4.000000,4.000000,4.000000,100.000000,,,,,,,,,,,,,,,,,,,,,,,,,,,,
1703502260.609026,1703502260.609932,94.000000,0.000000,4264.615234,4263.077148,4308.333496,4279.871582,4259.615234,4244.871582,4259.615234,4273.205078,4249.615234,4235.512695,4487.948730,4473.461426,4378.333496,4446.666504,6057.000000,3.000000,66.000000,,,,0.000000,4.000000,4.000000,4.000000,4.000000,4.000000,4.000000,4.000000,4.000000,4.000000,4.000000,4.000000,4.000000,4.000000,4.000000,100.000000,,,,,,,,,,,,,,,,,,,,,,,,,,,,
1703502260.616834,1703502260.617640,95.000000,0.000000,4275.256348,4266.922852,4312.051270,4287.820313,4263.589844,4247.307617,4261.794922,4277.563965,4253.846191,4244.871582,4486.153809,4475.769043,4374.487305,4443.205078,6362.000000,3.000000,66.000000,,,,0.000000,4.000000,4.000000,4.000000,4.000000,4.000000,4.000000,4.000000,4.000000,4.000000,4.000000,4.000000,4.000000,4.000000,4.000000,100.000000,,,,,,,,,,,,,,,,,,,,,,,,,,,,
1703502260.624642,1703502260.625448,96.000000,0.000000,4281.025879,4266.538574,4317.051270,4289.615234,4263.461426,4248.974121,4264.230957,4278.717773,4257.692383,4250.384766,4488.846191,4483.205078,4381.794922,4442.436035,6907.000000,3.000000,66.000000,,,,0.000000,4.000000,4.000000,4.000000,4.000000,4.000000,4.000000,4.000000,4.000000,4.000000,4.000000,4.000000,4.000000,4.000000,4.000000,100.000000,,,,,,,,,,,,,,,,,24.000000,0.000000,0.731479,-0.310486,-0.605652,-0.041504,0.906361,-0.401416,0.071786,-7.932204,-49.004646,62.232174
1703502260.632450,1703502260.633156,97.000000,0.000000,4279.871582,4264.871582,4320.512695,4288.333496,4262.820313,4249.102539,4264.358887,4276.922852,4255.000000,4246.666504,4494.102539,4483.589844,4391.922852,4455.256348,6693.000000,3.000000,66.000000,,,,0.000000,4.000000,4.000000,4.000000,4.000000,4.000000,4.000000,4.000000,4.000000,4.000000,4.000000,4.000000,4.000000,4.000000,4.000000,100.000000,,,,,,,,,,,,,,,,,,,,,,,,,,,,
1703502260.640258,1703502260.640964,98.000000,0.000000,4280.128418,4265.512695,4321.666504,4293.846191,4263.717773,4248.461426,4264.358887,4277.563965,4252.307617,4243.205078,4490.384766,4482.948730,4382.307617,4457.436035,6057.000000,3.000000,66.000000,,,,0.000000,4.000000,4.000000,4.000000,4.000000,4.000000,4.000000,4.000000,4.000000,4.000000,4.000000,4.000000,4.000000,4.000000,4.000000,100.000000,,,,,,,,,,,,,,,,,,,,,,,,,,,,
1703502260.648067,1703502260.648672,99.000000,0.000000,4283.589844,4268.077148,4324.102539,4297.307617,4263.205078,4248.077148,4264.358887,4275.641113,4251.538574,4244.358887,4485.384766,4487.051270,4375.641113,4449.743652,6362.000000,3.000000,66.000000,,,,0.000000,4.000000,4.000000,4.000000,4.000000,4.000000,4.000000,4.000000,4.000000,4.000000,4.000000,4.000000,4.000000,4.000000,4.000000,100.000000,,,,,,,,,,,,,,,,,,,,,,,,,,,,
1703502260.655875,1703502260.656580,100.000000,0.000000,4285.000000,4264.743652,4327.948730,4290.641113,4260.256348,4246.922852,4263.461426,4272.179688,4252.948730,4246.410156,4490.256348,4492.692383,4392.179688,4455.000000,6907.000000,3.000000,66.000000,,,,0.000000,4.000000,4.000000,4.000000,4.000000,4.000000,4.000000,4.000000,4.000000,4.000000,4.000000,4.000000,4.000000,4.000000,4.000000,100.000000,,,,,,,,,,,,,,,,,25.000000,0.000000,0.731454,-0.310791,-0.605530,-0.041443,0.899036,-0.411671,0.078135,-7.888984,-49.020847,62.275623
1703502260.663683,1703502260.664389,101.000000,0.000000,4280.641113,4258.461426,4326.410156,4281.538574,4258.717773,4245.769043,4262.563965,4273.077148,4254.871582,4245.641113,4496.282227,4492.820313,4399.230957,4460.256348,6693.000000,3.000000,66.000000,,,,0.000000,4.000000,4.000000,4.000000,4.000000,4.000000,4.000000,4.000000,4.000000,4.000000,4.000000,4.000000,4.000000,4.000000,4.000000,100.000000,,,,,,,,,,,,,,,,,,,,,,,,,,,,
1703502260.671491,1703502260.672197,102.000000,0.000000,4276.282227,4262.436035,4321.410156,4279.871582,4260.512695,4248.077148,4263.717773,4274.871582,4249.358887,4235.128418,4491.025879,4485.000000,4376.794922,4447.307617,6057.000000,3.000000,66.000000,,,,0.000000,4.000000,4.000000,4.000000,4.000000,4.000000,4.000000,4.000000,4.000000,4.000000,4.000000,4.000000,4.000000,4.000000,4.000000,100.000000,,,,,,,,,,,,,,,,,,,,,,,,,,,,
1703502260.679299,1703502260.679905,103.000000,0.000000,4278.717773,4265.641113,4320.384766,4282.307617,4258.333496,4249.615234,4262.948730,4271.410156,4245.128418,4230.128418,4482.948730,4482.692383,4368.974121,4440.128418,6362.000000,3.000000,66.000000,,,,0.000000,4.000000,4.000000,4.000000,4.000000,4.000000,4.000000,4.000000,4.000000,4.000000,4.000000,4.000000,4.000000,4.000000,4.000000,100.000000,,,,,,,,,,,,,,,,,,,,,,,,,,,,
1703502260.687107,1703502260.687713,104.000000,0.000000,4276.025879,4254.487305,4318.974121,4274.487305,4254.487305,4248.589844,4260.897461,4271.282227,4250.641113,4241.025879,4487.051270,4487.563965,4385.769043,4448.717773,6907.000000,3.000000,66.000000,,,,0.000000,4.000000,4.000000,4.000000,4.000000,4.000000,4.000000,4.000000,4.000000,4.000000,4.000000,4.000000,4.000000,4.000000,4.000000,100.000000,,,,,,,,,,,,,,,,,26.000000,0.000000,0.731406,-0.310913,-0.605530,-0.041382,0.884874,-0.399951,0.071786,-7.816752,-49.035431,62.181393
1703502260.694915,1703502260.695421,105.000000,0.000000,4266.153809,4244.358887,4313.717773,4265.384766,4258.333496,4249.871582,4262.563965,4273.589844,4251.025879,4243.333496,4489.743652,4487.307617,4384.358887,4449.102539,6693.000000,3.000000,66.000000,,,,0.000000,4.000000,4.000000,4.000000,4.000000,4.000000,4.000000,4.000000,4.000000,4.000000,4.000000,4.000000,4.000000,4.000000,4.000000,100.000000,,,,,,,,,,,,,,,,,,,,,,,,,,,,
1703502260.702723,1703502260.703229,106.000000,0.000000,4262.051270,4249.615234,4307.820313,4266.153809,4261.025879,4251.282227,4263.846191,4267.436035,4241.666504,4230.897461,4473.461426,4475.384766,4363.717773,4434.743652,6057.000000,3.000000,66.000000,,,,0.000000,4.000000,4.000000,4.000000,4.000000,4.000000,4.000000,4.000000,4.000000,4.000000,4.000000,4.000000,4.000000,4.000000,4.000000,100.000000,,,,,,,,,,,,,,,,,,,,,,,,,,,,
1703502260.710531,1703502260.710937,107.000000,0.000000,4265.512695,4257.051270,4305.769043,4266.153809,4258.461426,4247.307617,4261.282227,4261.025879,4236.922852,4227.436035,4461.025879,4465.512695,4357.179688,4427.948730,6362.000000,3.000000,66.000000,,,,0.000000,4.000000,4.000000,4.000000,4.000000,4.000000,4.000000,4.000000,4.000000,4.000000,4.000000,4.000000,4.000000,4.000000,4.000000,100.000000,,,,,,,,,,,,,,,,,,,,,,,,,,,,
1703502260.718339,1703502260.718845,108.000000,0.000000,4266.538574,4252.820313,4305.897461,4263.717773,4256.282227,4244.743652,4260.512695,4262.307617,4243.333496,4232.692383,4470.128418,4467.692383,4364.615234,4432.179688,6907.000000,3.000000,66.000000,,,,0.000000,4.000000,4.000000,4.000000,4.000000,4.000000,4.000000,4.000000,4.000000,4.000000,4.000000,4.000000,4.000000,4.000000,4.000000,100.000000,,,,,,,,,,,,,,,,,27.000000,0.000000,0.731441,-0.310974,-0.605469,-0.041199,0.910267,-0.402393,0.062019,-7.751743,-49.098553,62.096588
1703502260.726147,1703502260.726653,109.000000,0.000000,4266.538574,4248.974121,4306.410156,4263.846191,4255.512695,4249.871582,4262.436035,4264.743652,4246.794922,4233.461426,4481.025879,4473.589844,4371.410156,4436.538574,6693.000000,3.000000,66.000000,,,,0.000000,4.000000,4.000000,4.000000,4.000000,4.000000,4.000000,4.000000,4.000000,4.000000,4.000000,4.000000,4.000000,4.000000,4.000000,100.000000,,,,,,,,,,,,,,,,,,,,,,,,,,,,
1703502260.733955,1703502260.734561,110.000000,0.000000,4273.077148,4254.230957,4311.410156,4265.512695,4254.615234,4252.307617,4262.820313,4267.692383,4245.897461,4239.871582,4487.179688,4480.897461,4382.563965,4445.641113,6057.000000,3.000000,66.000000,,,,0.000000,4.000000,4.000000,4.000000,4.000000,4.000000,4.000000,4.000000,4.000000,4.000000,4.000000,4.000000,4.000000,4.000000,4.000000,100.000000,,,,,,,,,,,,,,,,,,,,,,,,,,,,
1703502260.741763,1703502260.742370,111.000000,0.000000,4278.974121,4258.077148,4315.512695,4269.230957,4256.922852,4249.102539,4264.230957,4274.615234,4249.102539,4243.717773,4495.641113,4487.820313,4388.846191,4454.102539,6362.000000,3.000000,66.000000,,,,0.000000,4.000000,4.000000,4.000000,4.000000,4.000000,4.000000,4.000000,4.000000,4.000000,4.000000,4.000000,4.000000,4.000000,4.000000,100.000000,,,,,,,,,,,,,,,,,,,,,,,,,,,,
1703502260.749571,1703502260.750278,112.000000,0.000000,4275.897461,4257.179688,4313.589844,4276.666504,4259.743652,4252.692383,4265.128418,4276.794922,4251.410156,4234.487305,4490.000000,4485.000000,4379.358887,4445.897461,6907.000000,3.000000,66.000000,,,,0.000000,4.000000,4.000000,4.000000,4.000000,4.000000,4.000000,4.000000,4.000000,4.000000,4.000000,4.000000,4.000000,4.000000,4.000000,100.000000,,,,,,,,,,,,,,,,,28.000000,0.000000,0.731574,-0.310913,-0.605347,-0.041077,0.895617,-0.413136,0.078623,-7.976569,-49.088699,62.136929
1703502260.757379,1703502260.758086,113.000000,0.000000,4274.102539,4257.179688,4316.025879,4279.615234,4260.897461,4259.102539,4264.615234,4276.410156,4254.358887,4236.666504,4486.538574,4483.589844,4375.769043,4441.794922,6693.000000,3.000000,66.000000,,,,0.000000,4.000000,4.000000,4.000000,4.000000,4.000000,4.000000,4.000000,4.000000,4.000000,4.000000,4.000000,4.000000,4.000000,4.000000,100.000000,,,,,,,,,,,,,,,,,,,,,,,,,,,,
1703502260.765187,1703502260.765994,114.000000,0.000000,4285.769043,4262.563965,4327.948730,4279.358887,4262.307617,4260.897461,4265.000000,4282.563965,4262.179688,4252.051270,4506.538574,4495.384766,4393.589844,4460.769043,6057.000000,3.000000,66.000000,,,,0.000000,4.000000,4.000000,4.000000,4.000000,4.000000,4.000000,4.000000,4.000000,4.000000,4.000000,4.000000,4.000000,4.000000,4.000000,100.000000,,,,,,,,,,,,,,,,,,,,,,,,,,,,
1703502260.772996,1703502260.773802,115.000000,0.000000,4291.025879,4266.538574,4328.589844,4281.666504,4261.922852,4258.333496,4264.871582,4280.897461,4259.615234,4250.897461,4508.333496,4498.077148,4394.230957,4466.538574,6362.000000,3.000000,66.000000,,,,0.000000,4.000000,4.000000,4.000000,4.000000,4.000000,4.000000,4.000000,4.000000,4.000000,4.000000,4.000000,4.000000,4.000000,4.000000,100.000000,,,,,,,,,,,,,,,,,,,,,,,,,,,,
1703502260.780804,1703502260.781510,116.000000,0.000000,4278.205078,4263.461426,4314.358887,4281.538574,4262.307617,4254.615234,4264.615234,4268.077148,4245.641113,4235.512695,4482.563965,4481.538574,4371.794922,4446.282227,6907.000000,3.000000,66.000000,,,,0.000000,4.000000,4.000000,4.000000,4.000000,4.000000,4.000000,4.000000,4.000000,4.000000,4.000000,4.000000,4.000000,4.000000,4.000000,100.000000,,,,,,,,,,,,,,,,,29.000000,0.000000,0.731626,-0.310791,-0.605347,-0.041077,0.903919,-0.412648,0.075693,-8.112246,-49.229828,62.189903
1703502260.788612,1703502260.789318,117.000000,0.000000,4275.769043,4264.102539,4308.974121,4281.282227,4263.846191,4255.128418,4265.512695,4260.128418,4239.615234,4230.512695,4475.641113,4472.563965,4367.051270,4441.666504,6693.000000,3.000000,66.000000,,,,0.000000,4.000000,4.000000,4.000000,4.000000,4.000000,4.000000,4.000000,4.000000,4.000000,4.000000,4.000000,4.000000,4.000000,4.000000,100.000000,,,,,,,,,,,,,,,,,,,,,,,,,,,,
1703502260.796420,1703502260.797026,118.000000,0.000000,4277.820313,4260.512695,4313.205078,4277.948730,4262.820313,4257.692383,4264.358887,4262.820313,4246.794922,4238.846191,4488.205078,4478.077148,4379.230957,4449.230957,6057.000000,3.000000,66.000000,,,,0.000000,4.000000,4.000000,4.000000,4.000000,4.000000,4.000000,4.000000,4.000000,4.000000,4.000000,4.000000,4.000000,4.000000,4.000000,100.000000,,,,,,,,,,,,,,,,,,,,,,,,,,,,
1703502260.804228,1703502260.804834,119.000000,0.000000,4269.102539,4249.230957,4310.641113,4270.769043,4261.538574,4259.358887,4262.948730,4265.384766,4251.794922,4246.794922,4496.282227,4480.769043,4390.256348,4450.641113,6362.000000,3.000000,66.000000,,,,0.000000,4.000000,4.000000,4.000000,4.000000,4.000000,4.000000,4.000000,4.000000,4.000000,4.000000,4.000000,4.000000,4.000000,4.000000,100.000000,,,,,,,,,,,,,,,,,,,,,,,,,,,,
1703502260.812036,1703502260.812542,120.000000,0.000000,4270.000000,4252.692383,4305.000000,4272.436035,4261.794922,4256.922852,4265.256348,4261.282227,4245.641113,4239.230957,4489.615234,4474.358887,4382.692383,4446.794922,6907.000000,3.000000,66.000000,,,,0.000000,4.000000,4.000000,4.000000,4.000000,4.000000,4.000000,4.000000,4.000000,4.000000,4.000000,4.000000,4.000000,4.000000,4.000000,100.000000,,,,,,,,,,,,,,,,,30.000000,0.000000,0.731571,-0.310913,-0.605347,-0.041138,0.907337,-0.402393,0.067879,-7.934354,-49.140179,62.104244
1703502260.819844,1703502260.820350,121.000000,0.000000,4282.307617,4265.512695,4305.641113,4278.974121,4262.948730,4252.692383,4266.282227,4258.846191,4240.512695,4225.897461,4474.871582,4468.461426,4363.717773,4442.948730,6693.000000,3.000000,66.000000,,,,0.000000,4.000000,4.000000,4.000000,4.000000,4.000000,4.000000,4.000000,4.000000,4.000000,4.000000,4.000000,4.000000,4.000000,4.000000,100.000000,,,,,,,,,,,,,,,,,,,,,,,,,,,,
1703502260.827652,1703502260.828058,122.000000,0.000000,4279.358887,4261.282227,4308.717773,4278.077148,4261.666504,4253.717773,4263.846191,4263.205078,4245.769043,4234.230957,4481.666504,4475.512695,4375.769043,4450.128418,6057.000000,3.000000,66.000000,,,,0.000000,4.000000,4.000000,4.000000,4.000000,4.000000,4.000000,4.000000,4.000000,4.000000,4.000000,4.000000,4.000000,4.000000,4.000000,100.000000,,,,,,,,,,,,,,,,,,,,,,,,,,,,
1703502260.835460,1703502260.835866,123.000000,0.000000,4278.077148,4258.589844,4314.358887,4279.102539,4262.051270,4256.794922,4263.974121,4267.436035,4250.641113,4248.333496,4503.717773,4489.615234,4402.307617,4464.615234,6362.000000,3.000000,66.000000,,,,0.000000,4.000000,4.000000,4.000000,4.000000,4.000000,4.000000,4.000000,4.000000,4.000000,4.000000,4.000000,4.000000,4.000000,4.000000,100.000000,,,,,,,,,,,,,,,,,,,,,,,,,,,,
1703502260.843268,1703502260.843574,124.000000,0.000000,4285.897461,4268.846191,4320.384766,4281.410156,4261.666504,4254.615234,4265.384766,4265.769043,4249.102539,4241.666504,4495.897461,4487.563965,4389.615234,4462.436035,6907.000000,3.000000,66.000000,,,,0.000000,4.000000,4.000000,4.000000,4.000000,4.000000,4.000000,4.000000,4.000000,4.000000,4.000000,4.000000,4.000000,4.000000,4.000000,100.000000,,,,,,,,,,,,,,,,,31.000000,0.000000,0.731542,-0.310974,-0.605347,-0.041199,0.891710,-0.413625,0.072763,-8.124252,-49.059494,62.077156
1703502260.851076,1703502260.851382,125.000000,0.000000,4283.333496,4268.205078,4320.128418,4281.282227,4255.256348,4247.692383,4263.205078,4262.820313,4246.538574,4233.717773,4478.589844,4479.871582,4368.205078,4452.436035,6693.000000,3.000000,66.000000,,,,0.000000,4.000000,4.000000,4.000000,4.000000,4.000000,4.000000,4.000000,4.000000,4.000000,4.000000,4.000000,4.000000,4.000000,4.000000,100.000000,,,,,,,,,,,,,,,,,,,,,,,,,,,,
1703502260.858884,1703502260.859090,126.000000,0.000000,4284.615234,4263.589844,4323.974121,4288.333496,4253.974121,4248.461426,4263.589844,4263.205078,4247.692383,4244.487305,4497.948730,4489.871582,4390.512695,4463.461426,6057.000000,3.000000,66.000000,,,,0.000000,4.000000,4.000000,4.000000,4.000000,4.000000,4.000000,4.000000,4.000000,4.000000,4.000000,4.000000,4.000000,4.000000,4.000000,100.000000,,,,,,,,,,,,,,,,,,,,,,,,,,,,
1703502260.866692,1703502260.866998,127.000000,0.000000,4290.641113,4264.615234,4330.512695,4290.769043,4260.897461,4258.077148,4261.666504,4265.641113,4249.487305,4252.948730,4515.512695,4497.179688,4412.179688,4473.333496,66.000000,3.000000,66.000000,,,,0.000000,4.000000,4.000000,4.000000,4.000000,4.000000,4.000000,4.000000,4.000000,4.000000,4.000000,4.000000,4.000000,4.000000,4.000000,100.000000,,,,,,,,,,,,,,,,,,,,,,,,,,,,
1703502260.874500,1703502260.874806,0.000000,0.000000,4284.871582,4264.743652,4328.205078,4282.436035,4261.922852,4259.743652,4254.743652,4259.615234,4244.743652,4243.461426,4496.538574,4486.666504,4397.051270,4462.820313,5173.000000,3.000000,66.000000,,,,0.000000,4.000000,4.000000,4.000000,4.000000,4.000000,4.000000,4.000000,4.000000,4.000000,4.000000,4.000000,4.000000,4.000000,4.000000,100.000000,,,,,,,,,,,,,,,,,0.000000,0.000000,0.731615,-0.310913,-0.605286,-0.041260,0.893664,-0.397998,0.073251,-8.178493,-49.003544,62.119438
1703502260.882308,1703502260.882715,1.000000,0.000000,4279.615234,4266.153809,4320.384766,4280.128418,4258.461426,4251.922852,4252.563965,4250.384766,4239.102539,4232.692383,4477.436035,4477.948730,4378.461426,4452.436035,5517.000000,3.000000,66.000000,,,,0.000000,4.000000,4.000000,4.000000,4.000000,4.000000,4.000000,4.000000,4.000000,4.000000,4.000000,4.000000,4.000000,4.000000,4.000000,100.000000,,,,,,,,,,,,,,,,,,,,,,,,,,,,
1703502260.890116,1703502260.890523,2.000000,0.000000,4282.051270,4266.282227,4316.410156,4282.948730,4261.666504,4253.077148,4255.256348,4253.077148,4242.436035,4231.153809,4478.077148,4477.179688,4378.589844,4449.102539,5357.000000,3.000000,66.000000,,,,0.000000,4.000000,4.000000,4.000000,4.000000,4.000000,4.000000,4.000000,4.000000,4.000000,4.000000,4.000000,4.000000,4.000000,4.000000,100.000000,,,,,,,,,,,,,,,,,,,,,,,,,,,,
1703502260.897925,1703502260.898431,3.000000,0.000000,4280.769043,4263.205078,4312.307617,4280.000000,4265.512695,4261.153809,4257.692383,4255.384766,4247.179688,4234.358887,4482.307617,4473.717773,4387.179688,4449.743652,5422.000000,3.000000,66.000000,,,,0.000000,4.000000,4.000000,4.000000,4.000000,4.000000,4.000000,4.000000,4.000000,4.000000,4.000000,4.000000,4.000000,4.000000,4.000000,100.000000,,,,,,,,,,,,,,,,,,,,,,,,,,,,
1703502260.905733,1703502260.906239,4.000000,0.000000,4274.358887,4261.666504,4306.282227,4277.563965,4263.461426,4255.641113,4256.025879,4250.256348,4245.384766,4234.871582,4476.538574,4467.051270,4380.256348,4446.410156,5315.000000,3.000000,66.000000,,,,0.000000,4.000000,4.000000,4.000000,4.000000,4.000000,4.000000,4.000000,4.000000,4.000000,4.000000,4.000000,4.000000,4.000000,4.000000,100.000000,,,,,,,,,,,,,,,,,1.000000,0.000000,0.731665,-0.310913,-0.605225,-0.041260,0.890734,-0.393114,0.073739,-8.093978,-49.036526,62.240829
1703502260.913540,1703502260.914147,5.000000,0.000000,4274.358887,4263.333496,4306.410156,4277.820313,4262.820313,4250.641113,4254.871582,4254.615234,4245.897461,4233.846191,4474.230957,4469.358887,4370.384766,4440.769043,4896.000000,3.000000,66.000000,,,,0.000000,4.000000,4.000000,4.000000,4.000000,4.000000,4.000000,4.000000,4.000000,4.000000,4.000000,4.000000,4.000000,4.000000,4.000000,100.000000,,,,,,,,,,,,,,,,,,,,,,,,,,,,
1703502260.921349,1703502260.921955,6.000000,0.000000,4278.077148,4262.692383,4313.589844,4275.641113,4264.102539,4259.487305,4258.974121,4263.205078,4251.282227,4240.897461,4485.128418,4476.794922,4386.538574,4446.282227,3969.000000,3.000000,66.000000,,,,0.000000,4.000000,4.000000,4.000000,4.000000,4.000000,4.000000,4.000000,4.000000,4.000000,4.000000,4.000000,4.000000,4.000000,4.000000,100.000000,,,,,,,,,,,,,,,,,,,,,,,,,,,,
1703502260.929157,1703502260.929864,7.000000,0.000000,4282.948730,4263.717773,4322.307617,4281.153809,4262.820313,4260.512695,4262.820313,4261.666504,4252.948730,4248.717773,4497.051270,4482.563965,4404.358887,4460.641113,5295.000000,3.000000,66.000000,,,,0.000000,4.000000,4.000000,4.000000,4.000000,4.000000,4.000000,4.000000,4.000000,4.000000,4.000000,4.000000,4.000000,4.000000,4.000000,100.000000,,,,,,,,,,,,,,,,,,,,,,,,,,,,
1703502260.936965,1703502260.937672,8.000000,0.000000,4282.692383,4267.307617,4322.948730,4289.102539,4262.179688,4251.282227,4260.897461,4256.794922,4249.487305,4243.333496,4491.025879,4479.230957,4390.512695,4458.077148,5405.000000,3.000000,66.000000,,,,0.000000,4.000000,4.000000,4.000000,4.000000,4.000000,4.000000,4.000000,4.000000,4.000000,4.000000,4.000000,4.000000,4.000000,4.000000,100.000000,,,,,,,,,,,,,,,,,2.000000,0.000000,0.731795,-0.310852,-0.605103,-0.041199,0.904896,-0.412160,0.082530,-8.017913,-48.982872,62.350079
1703502260.944773,1703502260.945580,9.000000,0.000000,4276.666504,4265.128418,4319.487305,4285.256348,4262.179688,4250.384766,4258.205078,4254.102539,4247.051270,4233.461426,4475.641113,4471.538574,4368.589844,4443.589844,5467.000000,3.000000,66.000000,,,,0.000000,4.000000,4.000000,4.000000,4.000000,4.000000,4.000000,4.000000,4.000000,4.000000,4.000000,4.000000,4.000000,4.000000,4.000000,100.000000,,,,,,,,,,,,,,,,,,,,,,,,,,,,
1703502260.952581,1703502260.953388,10.000000,0.000000,4273.846191,4258.333496,4321.922852,4280.641113,4261.666504,4256.153809,4260.897461,4249.743652,4243.846191,4226.666504,4473.205078,4471.666504,4369.358887,4440.512695,6057.000000,3.000000,66.000000,,,,0.000000,4.000000,4.000000,4.000000,4.000000,4.000000,4.000000,4.000000,4.000000,4.000000,4.000000,4.000000,4.000000,4.000000,4.000000,100.000000,,,,,,,,,,,,,,,,,,,,,,,,,,,,
1703502260.960389,1703502260.961096,11.000000,0.000000,4275.000000,4259.615234,4323.333496,4288.205078,4263.205078,4258.717773,4261.410156,4247.820313,4238.333496,4220.384766,4476.922852,4472.307617,4369.871582,4441.153809,6364.000000,3.000000,66.000000,,,,0.000000,4.000000,4.000000,4.000000,4.000000,4.000000,4.000000,4.000000,4.000000,4.000000,4.000000,4.000000,4.000000,4.000000,4.000000,100.000000,,,,,,,,,,,,,,,,,,,,,,,,,,,,
1703502260.968197,1703502260.968904,12.000000,0.000000,4274.358887,4266.025879,4319.358887,4295.000000,4264.743652,4260.641113,4262.436035,4252.563965,4240.512695,4221.538574,4476.922852,4471.666504,4361.282227,4436.153809,6907.000000,3.000000,66.000000,,,,0.000000,4.000000,4.000000,4.000000,4.000000,4.000000,4.000000,4.000000,4.000000,4.000000,4.000000,4.000000,4.000000,4.000000,4.000000,100.000000,,,,,,,,,,,,,,,,,3.000000,0.000000,0.731825,-0.310791,-0.605103,-0.041138,0.900012,-0.407765,0.071298,-7.949455,-48.901253,62.365070
