title:ملاح مسافة, start timestamp:1703495734.394460, stop timestamp:1703495745.177361, headset type:EPOCX, headset serial:E50206EF, headset firmware:720, channels:67, sampling rate:eeg_128;mot_32, samples:1382      , version:2.2, 
Timestamp,OriginalTimestamp,EEG.Counter,EEG.Interpolated,EEG.AF3,EEG.F7,EEG.F3,EEG.FC5,EEG.T7,EEG.P7,EEG.O1,EEG.O2,EEG.P8,EEG.T8,EEG.FC6,EEG.F4,EEG.F8,EEG.AF4,EEG.RawCq,EEG.Battery,EEG.BatteryPercent,MarkerIndex,MarkerType,MarkerValueInt,EEG.MarkerHardware,CQ.AF3,CQ.F7,CQ.F3,CQ.FC5,CQ.T7,CQ.P7,CQ.O1,CQ.O2,CQ.P8,CQ.T8,CQ.FC6,CQ.F4,CQ.F8,CQ.AF4,CQ.Overall,EQ.SampleRateQuality,EQ.OVERALL,EQ.AF3,EQ.F7,EQ.F3,EQ.FC5,EQ.T7,EQ.P7,EQ.O1,EQ.O2,EQ.P8,EQ.T8,EQ.FC6,EQ.F4,EQ.F8,EQ.AF4,MOT.CounterMems,MOT.InterpolatedMems,MOT.Q0,MOT.Q1,MOT.Q2,MOT.Q3,MOT.AccX,MOT.AccY,MOT.AccZ,MOT.MagX,MOT.MagY,MOT.MagZ
1703495734.394460,1703495734.394933,105.000000,0.000000,4122.179688,4110.641113,4235.384766,4183.717773,4119.487305,4109.358887,4155.256348,4182.436035,4179.871582,4087.051270,4441.153809,4380.000000,4241.538574,4314.871582,5996.000000,4.000000,76.000000,,,,0.000000,4.000000,4.000000,4.000000,4.000000,4.000000,4.000000,4.000000,4.000000,4.000000,4.000000,4.000000,4.000000,4.000000,4.000000,100.000000,,,,,,,,,,,,,,,,,,,,,,,,,,,,
1703495734.402268,1703495734.402641,106.000000,0.000000,4120.769043,4110.000000,4238.205078,4184.487305,4112.179688,4113.589844,4157.436035,4181.153809,4175.769043,4090.128174,4438.205078,4379.871582,4238.333496,4309.871582,6043.000000,4.000000,76.000000,,,,0.000000,4.000000,4.000000,4.000000,4.000000,4.000000,4.000000,4.000000,4.000000,4.000000,4.000000,4.000000,4.000000,4.000000,4.000000,100.000000,1.000000,83.333336,4.000000,4.000000,4.000000,4.000000,4.000000,4.000000,4.000000,4.000000,4.000000,3.000000,3.000000,4.000000,4.000000,4.000000,,,,,,,,,,,,
1703495734.410076,1703495734.410449,107.000000,0.000000,4127.179688,4115.256348,4238.846191,4188.846191,4108.974121,4119.743652,4157.820313,4174.358887,4173.717773,4096.538574,4447.820313,4381.153809,4246.794922,4311.794922,6280.000000,4.000000,76.000000,,,,0.000000,4.000000,4.000000,4.000000,4.000000,4.000000,4.000000,4.000000,4.000000,4.000000,4.000000,4.000000,4.000000,4.000000,4.000000,100.000000,,,,,,,,,,,,,,,,,,,,,,,,,,,,
1703495734.417884,1703495734.418157,108.000000,0.000000,4133.333496,4114.743652,4239.230957,4185.897461,4109.743652,4120.000000,4154.487305,4165.512695,4173.589844,4091.666748,4452.692383,4385.897461,4255.512695,4321.153809,6713.000000,4.000000,76.000000,,,,0.000000,4.000000,4.000000,4.000000,4.000000,4.000000,4.000000,4.000000,4.000000,4.000000,4.000000,4.000000,4.000000,4.000000,4.000000,100.000000,,,,,,,,,,,,,,,,,27.000000,0.000000,0.671678,0.257385,-0.662842,0.207947,0.986449,0.079600,-0.008302,-17.079977,-38.303242,63.338966
1703495734.425692,1703495734.425965,109.000000,0.000000,4146.410156,4116.153809,4251.410156,4192.307617,4116.794922,4121.025879,4160.256348,4171.153809,4172.179688,4096.794922,4462.563965,4395.000000,4263.717773,4334.871582,5996.000000,4.000000,76.000000,,,,0.000000,4.000000,4.000000,4.000000,4.000000,4.000000,4.000000,4.000000,4.000000,4.000000,4.000000,4.000000,4.000000,4.000000,4.000000,100.000000,,,,,,,,,,,,,,,,,,,,,,,,,,,,
1703495734.433500,1703495734.433673,110.000000,0.000000,4163.205078,4133.717773,4260.000000,4210.512695,4125.128418,4124.230957,4170.641113,4184.102539,4171.538574,4115.512695,4483.077148,4405.897461,4279.230957,4355.641113,6043.000000,4.000000,76.000000,,,,0.000000,4.000000,4.000000,4.000000,4.000000,4.000000,4.000000,4.000000,4.000000,4.000000,4.000000,4.000000,4.000000,4.000000,4.000000,100.000000,,,,,,,,,,,,,,,,,,,,,,,,,,,,
1703495734.441308,1703495734.441581,111.000000,0.000000,4164.102539,4141.538574,4258.077148,4213.846191,4123.589844,4123.077148,4167.563965,4181.666504,4170.512695,4115.256348,4488.589844,4414.230957,4290.641113,4369.871582,6280.000000,4.000000,76.000000,,,,0.000000,4.000000,4.000000,4.000000,4.000000,4.000000,4.000000,4.000000,4.000000,4.000000,4.000000,4.000000,4.000000,4.000000,4.000000,100.000000,,,,,,,,,,,,,,,,,,,,,,,,,,,,
1703495734.449116,1703495734.449389,112.000000,0.000000,4154.487305,4133.974121,4257.563965,4204.358887,4123.717773,4120.769043,4159.871582,4169.871582,4167.436035,4096.025879,4478.077148,4411.153809,4281.025879,4361.666504,6713.000000,4.000000,76.000000,,,,0.000000,4.000000,4.000000,4.000000,4.000000,4.000000,4.000000,4.000000,4.000000,4.000000,4.000000,4.000000,4.000000,4.000000,4.000000,100.000000,,,,,,,,,,,,,,,,,28.000000,0.000000,0.671818,0.257385,-0.662720,0.207886,1.009889,0.077646,-0.020999,-16.988646,-38.239582,63.421738
1703495734.456925,1703495734.457297,113.000000,0.000000,4152.436035,4136.282227,4257.179688,4204.230957,4128.717773,4123.077148,4160.128418,4168.717773,4165.641113,4082.307617,4467.307617,4396.538574,4261.153809,4342.948730,5996.000000,4.000000,76.000000,,,,0.000000,4.000000,4.000000,4.000000,4.000000,4.000000,4.000000,4.000000,4.000000,4.000000,4.000000,4.000000,4.000000,4.000000,4.000000,100.000000,,,,,,,,,,,,,,,,,,,,,,,,,,,,
1703495734.464733,1703495734.465106,114.000000,0.000000,4147.051270,4134.871582,4253.589844,4201.666504,4116.922852,4123.077148,4156.153809,4171.025879,4166.922852,4075.384521,4457.692383,4385.897461,4250.897461,4329.871582,6043.000000,4.000000,76.000000,,,,0.000000,4.000000,4.000000,4.000000,4.000000,4.000000,4.000000,4.000000,4.000000,4.000000,4.000000,4.000000,4.000000,4.000000,4.000000,100.000000,,,,,,,,,,,,,,,,,,,,,,,,,,,,
1703495734.472541,1703495734.473013,115.000000,0.000000,4136.538574,4122.436035,4251.538574,4196.282227,4108.846191,4125.897461,4154.358887,4167.692383,4168.846191,4078.589844,4451.282227,4383.461426,4245.897461,4323.846191,6280.000000,4.000000,76.000000,,,,0.000000,4.000000,4.000000,4.000000,4.000000,4.000000,4.000000,4.000000,4.000000,4.000000,4.000000,4.000000,4.000000,4.000000,4.000000,100.000000,,,,,,,,,,,,,,,,,,,,,,,,,,,,
1703495734.480348,1703495734.480821,116.000000,0.000000,4137.179688,4123.846191,4251.666504,4203.589844,4120.641113,4137.436035,4162.563965,4171.922852,4171.922852,4094.358887,4455.256348,4384.871582,4249.102539,4321.538574,6713.000000,4.000000,76.000000,,,,0.000000,4.000000,4.000000,4.000000,4.000000,4.000000,4.000000,4.000000,4.000000,4.000000,4.000000,4.000000,4.000000,4.000000,4.000000,100.000000,,,,,,,,,,,,,,,,,29.000000,0.000000,0.671808,0.257263,-0.662720,0.208069,0.979612,0.065926,-0.003907,-16.856449,-38.132294,63.362896
1703495734.488157,1703495734.488729,117.000000,0.000000,4137.179688,4126.794922,4249.871582,4203.333496,4118.461426,4137.179688,4161.282227,4177.307617,4173.461426,4093.846191,4459.615234,4384.615234,4257.051270,4319.358887,5996.000000,4.000000,76.000000,,,,0.000000,4.000000,4.000000,4.000000,4.000000,4.000000,4.000000,4.000000,4.000000,4.000000,4.000000,4.000000,4.000000,4.000000,4.000000,100.000000,,,,,,,,,,,,,,,,,,,,,,,,,,,,
1703495734.495965,1703495734.496537,118.000000,0.000000,4133.461426,4120.256348,4250.512695,4196.538574,4109.358887,4127.436035,4153.205078,4173.205078,4172.436035,4087.179443,4460.512695,4386.025879,4262.051270,4322.563965,6043.000000,4.000000,76.000000,,,,0.000000,4.000000,4.000000,4.000000,4.000000,4.000000,4.000000,4.000000,4.000000,4.000000,4.000000,4.000000,4.000000,4.000000,4.000000,100.000000,,,,,,,,,,,,,,,,,,,,,,,,,,,,
1703495734.503773,1703495734.504445,119.000000,0.000000,4142.692383,4128.205078,4258.717773,4206.666504,4119.358887,4127.436035,4156.794922,4170.384766,4169.102539,4103.461426,4460.512695,4393.589844,4266.538574,4334.102539,6280.000000,4.000000,76.000000,,,,0.000000,4.000000,4.000000,4.000000,4.000000,4.000000,4.000000,4.000000,4.000000,4.000000,4.000000,4.000000,4.000000,4.000000,4.000000,100.000000,,,,,,,,,,,,,,,,,,,,,,,,,,,,
1703495734.511581,1703495734.512253,120.000000,0.000000,4152.948730,4136.282227,4262.436035,4212.820313,4125.384766,4127.820313,4160.384766,4171.410156,4167.307617,4108.461426,4457.307617,4395.897461,4265.512695,4341.538574,6713.000000,4.000000,76.000000,,,,0.000000,4.000000,4.000000,4.000000,4.000000,4.000000,4.000000,4.000000,4.000000,4.000000,4.000000,4.000000,4.000000,4.000000,4.000000,100.000000,,,,,,,,,,,,,,,,,30.000000,0.000000,0.671930,0.256836,-0.662781,0.208008,0.998169,0.076670,-0.002442,-16.687469,-38.169064,63.393272
1703495734.519389,1703495734.520161,121.000000,0.000000,4152.179688,4129.743652,4259.615234,4208.333496,4118.461426,4123.205078,4153.846191,4169.102539,4167.307617,4088.333252,4462.307617,4395.256348,4263.974121,4344.230957,5996.000000,4.000000,76.000000,,,,0.000000,4.000000,4.000000,4.000000,4.000000,4.000000,4.000000,4.000000,4.000000,4.000000,4.000000,4.000000,4.000000,4.000000,4.000000,100.000000,,,,,,,,,,,,,,,,,,,,,,,,,,,,
1703495734.527197,1703495734.527969,122.000000,0.000000,4151.410156,4131.922852,4260.256348,4216.666504,4120.769043,4123.589844,4152.948730,4168.333496,4168.077148,4088.974365,4476.153809,4402.563965,4273.461426,4354.743652,6043.000000,4.000000,76.000000,,,,0.000000,4.000000,4.000000,4.000000,4.000000,4.000000,4.000000,4.000000,4.000000,4.000000,4.000000,4.000000,4.000000,4.000000,4.000000,100.000000,,,,,,,,,,,,,,,,,,,,,,,,,,,,
1703495734.535005,1703495734.535877,123.000000,0.000000,4157.436035,4141.538574,4259.871582,4225.000000,4126.410156,4123.333496,4157.820313,4176.282227,4169.102539,4110.512695,4486.410156,4409.230957,4290.769043,4369.358887,6280.000000,4.000000,76.000000,,,,0.000000,4.000000,4.000000,4.000000,4.000000,4.000000,4.000000,4.000000,4.000000,4.000000,4.000000,4.000000,4.000000,4.000000,4.000000,100.000000,,,,,,,,,,,,,,,,,,,,,,,,,,,,
1703495734.542813,1703495734.543685,124.000000,0.000000,4160.256348,4141.025879,4259.230957,4216.538574,4127.051270,4123.461426,4158.077148,4185.256348,4168.846191,4116.538574,4489.615234,4410.512695,4298.077148,4375.897461,6713.000000,4.000000,76.000000,,,,0.000000,4.000000,4.000000,4.000000,4.000000,4.000000,4.000000,4.000000,4.000000,4.000000,4.000000,4.000000,4.000000,4.000000,4.000000,100.000000,,,,,,,,,,,,,,,,,31.000000,0.000000,0.671883,0.256287,-0.662964,0.208252,0.984984,0.067391,-0.007813,-16.585390,-38.152157,63.553947
1703495734.550621,1703495734.551593,125.000000,0.000000,4158.974121,4138.589844,4259.743652,4213.205078,4132.436035,4133.333496,4157.692383,4188.077148,4174.358887,4115.512695,4492.563965,4410.769043,4295.641113,4379.358887,5996.000000,4.000000,76.000000,,,,0.000000,4.000000,4.000000,4.000000,4.000000,4.000000,4.000000,4.000000,4.000000,4.000000,4.000000,4.000000,4.000000,4.000000,4.000000,100.000000,,,,,,,,,,,,,,,,,,,,,,,,,,,,
1703495734.558429,1703495734.559401,126.000000,0.000000,4159.743652,4141.538574,4255.512695,4221.538574,4141.538574,4142.692383,4162.948730,4188.589844,4181.794922,4124.743652,4496.025879,4408.974121,4297.436035,4379.102539,6043.000000,4.000000,76.000000,,,,0.000000,4.000000,4.000000,4.000000,4.000000,4.000000,4.000000,4.000000,4.000000,4.000000,4.000000,4.000000,4.000000,4.000000,4.000000,100.000000,,,,,,,,,,,,,,,,,,,,,,,,,,,,
1703495734.566237,1703495734.567109,127.000000,0.000000,4149.743652,4138.846191,4252.179688,4215.384766,4135.256348,4143.205078,4168.846191,4182.051270,4180.897461,4125.000000,4495.384766,4403.205078,4298.589844,4366.025879,76.000000,4.000000,76.000000,,,,0.000000,4.000000,4.000000,4.000000,4.000000,4.000000,4.000000,4.000000,4.000000,4.000000,4.000000,4.000000,4.000000,4.000000,4.000000,100.000000,,,,,,,,,,,,,,,,,,,,,,,,,,,,
1703495734.574045,1703495734.575017,0.000000,0.000000,4135.384766,4131.538574,4253.077148,4199.871582,4122.820313,4144.358887,4168.974121,4174.743652,4178.077148,4118.589844,4493.846191,4393.974121,4293.717773,4352.563965,4475.000000,4.000000,76.000000,,,,0.000000,4.000000,4.000000,4.000000,4.000000,4.000000,4.000000,4.000000,4.000000,4.000000,4.000000,4.000000,4.000000,4.000000,4.000000,100.000000,,,,,,,,,,,,,,,,,0.000000,0.000000,0.671952,0.255798,-0.663025,0.208435,0.989379,0.050787,-0.014162,-16.576851,-38.186939,63.398552
1703495734.581853,1703495734.582825,1.000000,0.000000,4141.666504,4132.692383,4254.743652,4200.384766,4130.000000,4146.025879,4167.692383,4183.974121,4176.538574,4126.538574,4494.487305,4393.717773,4292.948730,4356.538574,5738.000000,4.000000,76.000000,,,,0.000000,4.000000,4.000000,4.000000,4.000000,4.000000,4.000000,4.000000,4.000000,4.000000,4.000000,4.000000,4.000000,4.000000,4.000000,100.000000,,,,,,,,,,,,,,,,,,,,,,,,,,,,
1703495734.589661,1703495734.590633,2.000000,0.000000,4150.128418,4137.563965,4254.743652,4206.794922,4140.384766,4143.461426,4170.128418,4195.384766,4171.282227,4125.897461,4493.205078,4403.333496,4297.692383,4365.384766,5579.000000,4.000000,76.000000,,,,0.000000,4.000000,4.000000,4.000000,4.000000,4.000000,4.000000,4.000000,4.000000,4.000000,4.000000,4.000000,4.000000,4.000000,4.000000,100.000000,,,,,,,,,,,,,,,,,,,,,,,,,,,,
1703495734.597469,1703495734.598341,3.000000,0.000000,4140.512695,4130.897461,4253.974121,4197.820313,4125.384766,4138.717773,4167.307617,4189.102539,4168.333496,4106.025879,4489.615234,4401.153809,4293.846191,4361.666504,5559.000000,4.000000,76.000000,,,,0.000000,4.000000,4.000000,4.000000,4.000000,4.000000,4.000000,4.000000,4.000000,4.000000,4.000000,4.000000,4.000000,4.000000,4.000000,100.000000,,,,,,,,,,,,,,,,,,,,,,,,,,,,
1703495734.605277,1703495734.606149,4.000000,0.000000,4140.897461,4127.179688,4258.205078,4194.102539,4114.102539,4137.436035,4164.487305,4181.922852,4171.410156,4102.307617,4492.692383,4393.333496,4288.846191,4357.307617,5397.000000,4.000000,76.000000,,,,0.000000,4.000000,4.000000,4.000000,4.000000,4.000000,4.000000,4.000000,4.000000,4.000000,4.000000,4.000000,4.000000,4.000000,4.000000,100.000000,,,,,,,,,,,,,,,,,1.000000,0.000000,0.671906,0.255554,-0.663147,0.208496,1.001587,0.059089,-0.017092,-16.602499,-38.151581,63.492031
1703495734.613085,1703495734.613857,5.000000,0.000000,4153.846191,4138.589844,4257.820313,4204.487305,4129.230957,4138.974121,4169.230957,4183.589844,4168.846191,4120.128418,4492.051270,4398.717773,4291.538574,4362.436035,4894.000000,4.000000,76.000000,,,,0.000000,4.000000,4.000000,4.000000,4.000000,4.000000,4.000000,4.000000,4.000000,4.000000,4.000000,4.000000,4.000000,4.000000,4.000000,100.000000,,,,,,,,,,,,,,,,,,,,,,,,,,,,
1703495734.620893,1703495734.621665,6.000000,0.000000,4158.333496,4143.333496,4255.641113,4203.461426,4130.000000,4131.153809,4169.358887,4183.717773,4164.743652,4120.897461,4486.282227,4405.384766,4292.820313,4371.282227,3537.000000,4.000000,76.000000,,,,0.000000,4.000000,4.000000,4.000000,4.000000,4.000000,4.000000,4.000000,4.000000,4.000000,4.000000,4.000000,4.000000,4.000000,4.000000,100.000000,,,,,,,,,,,,,,,,,,,,,,,,,,,,
1703495734.628701,1703495734.629373,7.000000,0.000000,4168.974121,4145.000000,4266.538574,4202.563965,4118.461426,4121.538574,4165.512695,4184.743652,4168.205078,4115.256348,4503.974121,4411.153809,4302.051270,4384.487305,3543.000000,4.000000,76.000000,,,,0.000000,4.000000,4.000000,4.000000,4.000000,4.000000,4.000000,4.000000,4.000000,4.000000,4.000000,4.000000,4.000000,4.000000,4.000000,100.000000,,,,,,,,,,,,,,,,,,,,,,,,,,,,
1703495734.636509,1703495734.637180,8.000000,0.000000,4189.102539,4156.922852,4278.589844,4221.410156,4130.897461,4127.436035,4168.974121,4189.871582,4169.615234,4130.384766,4528.077148,4419.871582,4319.358887,4401.922852,2398.000000,4.000000,76.000000,,,,0.000000,4.000000,4.000000,4.000000,4.000000,4.000000,4.000000,4.000000,4.000000,4.000000,4.000000,4.000000,4.000000,4.000000,4.000000,100.000000,,,,,,,,,,,,,,,,,2.000000,0.000000,0.671822,0.255615,-0.663208,0.208496,0.999145,0.075693,-0.013185,-16.725582,-38.269756,63.476158
1703495734.644317,1703495734.644888,9.000000,0.000000,4191.922852,4162.179688,4276.666504,4235.897461,4148.717773,4138.205078,4173.974121,4187.820313,4166.538574,4135.256348,4518.974121,4419.615234,4317.948730,4403.205078,5806.000000,4.000000,76.000000,,,,0.000000,4.000000,4.000000,4.000000,4.000000,4.000000,4.000000,4.000000,4.000000,4.000000,4.000000,4.000000,4.000000,4.000000,4.000000,100.000000,,,,,,,,,,,,,,,,,,,,,,,,,,,,
1703495734.652125,1703495734.652696,10.000000,0.000000,4177.307617,4156.282227,4266.025879,4226.666504,4145.128418,4136.922852,4171.666504,4183.461426,4169.487305,4128.461426,4503.846191,4406.922852,4306.794922,4386.410156,6023.000000,4.000000,76.000000,,,,0.000000,4.000000,4.000000,4.000000,4.000000,4.000000,4.000000,4.000000,4.000000,4.000000,4.000000,4.000000,4.000000,4.000000,4.000000,100.000000,,,,,,,,,,,,,,,,,,,,,,,,,,,,
1703495734.659933,1703495734.660404,11.000000,0.000000,4164.358887,4148.717773,4257.179688,4214.743652,4137.051270,4135.256348,4169.358887,4192.179688,4179.871582,4131.794922,4508.205078,4400.641113,4304.615234,4371.666504,6275.000000,4.000000,76.000000,,,,0.000000,4.000000,4.000000,4.000000,4.000000,4.000000,4.000000,4.000000,4.000000,4.000000,4.000000,4.000000,4.000000,4.000000,4.000000,100.000000,,,,,,,,,,,,,,,,,,,,,,,,,,,,
1703495734.667741,1703495734.668312,12.000000,0.000000,4157.820313,4142.820313,4255.384766,4217.307617,4141.922852,4145.641113,4170.897461,4199.615234,4187.692383,4130.512695,4504.102539,4402.563965,4294.615234,4362.051270,6680.000000,4.000000,76.000000,,,,0.000000,4.000000,4.000000,4.000000,4.000000,4.000000,4.000000,4.000000,4.000000,4.000000,4.000000,4.000000,4.000000,4.000000,4.000000,100.000000,,,,,,,,,,,,,,,,,3.000000,0.000000,0.671758,0.256042,-0.663147,0.208374,0.984495,0.059578,-0.009278,-16.736357,-38.309448,63.428543
1703495734.675550,1703495734.676120,13.000000,0.000000,4146.794922,4136.153809,4251.282227,4212.948730,4143.077148,4153.333496,4169.358887,4190.769043,4182.179688,4119.230957,4488.717773,4392.051270,4276.794922,4351.282227,5986.000000,4.000000,76.000000,,,,0.000000,4.000000,4.000000,4.000000,4.000000,4.000000,4.000000,4.000000,4.000000,4.000000,4.000000,4.000000,4.000000,4.000000,4.000000,100.000000,,,,,,,,,,,,,,,,,,,,,,,,,,,,
1703495734.683358,1703495734.684027,14.000000,0.000000,4136.025879,4128.333496,4248.589844,4198.461426,4136.025879,4153.974121,4167.692383,4184.102539,4174.871582,4120.769043,4488.846191,4388.077148,4276.025879,4347.820313,6023.000000,4.000000,76.000000,,,,0.000000,4.000000,4.000000,4.000000,4.000000,4.000000,4.000000,4.000000,4.000000,4.000000,4.000000,4.000000,4.000000,4.000000,4.000000,100.000000,,,,,,,,,,,,,,,,,,,,,,,,,,,,
1703495734.691166,1703495734.691835,15.000000,0.000000,4140.384766,4129.102539,4255.769043,4202.051270,4138.974121,4155.512695,4170.897461,4188.077148,4177.179688,4130.641113,4499.743652,4403.333496,4288.846191,4354.871582,6275.000000,4.000000,76.000000,,,,0.000000,4.000000,4.000000,4.000000,4.000000,4.000000,4.000000,4.000000,4.000000,4.000000,4.000000,4.000000,4.000000,4.000000,4.000000,100.000000,,,,,,,,,,,,,,,,,,,,,,,,,,,,
1703495734.698974,1703495734.699743,16.000000,0.000000,4153.461426,4140.128418,4261.410156,4217.820313,4148.846191,4156.538574,4174.871582,4188.077148,4176.666504,4129.230957,4507.820313,4410.769043,4296.794922,4368.077148,0.000000,4.000000,76.000000,,,,0.000000,4.000000,4.000000,4.000000,4.000000,4.000000,4.000000,4.000000,4.000000,4.000000,4.000000,4.000000,4.000000,4.000000,4.000000,100.000000,,,,,,,,,,,,,,,,,4.000000,0.000000,0.671823,0.256287,-0.663025,0.208252,0.998169,0.067879,-0.008790,-16.846056,-38.328503,63.452354
1703495734.706782,1703495734.707651,17.000000,0.000000,4159.871582,4140.128418,4262.307617,4218.717773,4144.230957,4152.692383,4172.307617,4183.846191,4167.563965,4122.563965,4508.461426,4408.077148,4298.205078,4378.077148,0.000000,4.000000,76.000000,,,,0.000000,4.000000,4.000000,4.000000,4.000000,4.000000,4.000000,4.000000,4.000000,4.000000,4.000000,4.000000,4.000000,4.000000,4.000000,100.000000,,,,,,,,,,,,,,,,,,,,,,,,,,,,
1703495734.714590,1703495734.715460,18.000000,0.000000,4163.205078,4132.051270,4266.922852,4217.820313,4137.307617,4144.743652,4170.384766,4183.077148,4166.538574,4119.102539,4507.948730,4413.461426,4302.820313,4382.948730,0.000000,4.000000,76.000000,,,,0.000000,4.000000,4.000000,4.000000,4.000000,4.000000,4.000000,4.000000,4.000000,4.000000,4.000000,4.000000,4.000000,4.000000,4.000000,100.000000,,,,,,,,,,,,,,,,,,,,,,,,,,,,
1703495734.722398,1703495734.723268,19.000000,0.000000,4178.333496,4145.384766,4274.487305,4232.051270,4147.179688,4140.000000,4173.846191,4189.615234,4169.871582,4125.769043,4513.717773,4424.743652,4310.641113,4391.666504,0.000000,4.000000,76.000000,,,,0.000000,4.000000,4.000000,4.000000,4.000000,4.000000,4.000000,4.000000,4.000000,4.000000,4.000000,4.000000,4.000000,4.000000,4.000000,100.000000,,,,,,,,,,,,,,,,,,,,,,,,,,,,
1703495734.730206,1703495734.730976,20.000000,0.000000,4198.589844,4165.769043,4276.922852,4244.358887,4152.820313,4138.589844,4172.051270,4195.897461,4164.615234,4130.384766,4522.051270,4425.641113,4311.282227,4403.846191,0.000000,4.000000,76.000000,,,,0.000000,4.000000,4.000000,4.000000,4.000000,4.000000,4.000000,4.000000,4.000000,4.000000,4.000000,4.000000,4.000000,4.000000,4.000000,100.000000,,,,,,,,,,,,,,,,,5.000000,0.000000,0.671995,0.256409,-0.662842,0.208130,0.983030,0.057624,-0.014650,-16.878117,-38.362320,63.490456
1703495734.738014,1703495734.738784,21.000000,0.000000,4207.307617,4174.230957,4279.871582,4247.436035,4148.846191,4137.820313,4173.717773,4198.717773,4170.256348,4135.512695,4530.000000,4422.051270,4311.025879,4413.461426,0.000000,4.000000,76.000000,,,,0.000000,4.000000,4.000000,4.000000,4.000000,4.000000,4.000000,4.000000,4.000000,4.000000,4.000000,4.000000,4.000000,4.000000,4.000000,100.000000,,,,,,,,,,,,,,,,,,,,,,,,,,,,
1703495734.745822,1703495734.746492,22.000000,0.000000,4206.794922,4179.358887,4286.282227,4250.769043,4153.974121,4142.820313,4180.384766,4202.307617,4185.000000,4147.051270,4538.717773,4426.922852,4321.666504,4414.743652,0.000000,4.000000,76.000000,,,,0.000000,4.000000,4.000000,4.000000,4.000000,4.000000,4.000000,4.000000,4.000000,4.000000,4.000000,4.000000,4.000000,4.000000,4.000000,100.000000,,,,,,,,,,,,,,,,,,,,,,,,,,,,
1703495734.753630,1703495734.754300,23.000000,0.000000,4206.282227,4177.948730,4283.205078,4251.922852,4157.563965,4150.897461,4179.615234,4209.358887,4186.538574,4156.282227,4551.538574,4435.641113,4334.615234,4414.358887,0.000000,4.000000,76.000000,,,,0.000000,4.000000,4.000000,4.000000,4.000000,4.000000,4.000000,4.000000,4.000000,4.000000,4.000000,4.000000,4.000000,4.000000,4.000000,100.000000,,,,,,,,,,,,,,,,,,,,,,,,,,,,
1703495734.761438,1703495734.762008,24.000000,0.000000,4198.461426,4165.000000,4273.077148,4243.461426,4151.666504,4156.153809,4179.102539,4214.743652,4185.769043,4162.563965,4557.563965,4437.948730,4333.205078,4415.128418,0.000000,4.000000,76.000000,,,,0.000000,4.000000,4.000000,4.000000,4.000000,4.000000,4.000000,4.000000,4.000000,4.000000,4.000000,4.000000,4.000000,4.000000,4.000000,100.000000,,,,,,,,,,,,,,,,,6.000000,0.000000,0.672015,0.256348,-0.662903,0.207947,0.987914,0.076670,-0.013674,-16.940304,-38.209419,63.508076
1703495734.769246,1703495734.769816,25.000000,0.000000,4184.615234,4160.128418,4265.641113,4236.666504,4154.102539,4163.333496,4183.205078,4208.205078,4187.820313,4156.410156,4543.077148,4427.179688,4319.102539,4402.051270,0.000000,4.000000,76.000000,,,,0.000000,4.000000,4.000000,4.000000,4.000000,4.000000,4.000000,4.000000,4.000000,4.000000,4.000000,4.000000,4.000000,4.000000,4.000000,100.000000,,,,,,,,,,,,,,,,,,,,,,,,,,,,
1703495734.777054,1703495734.777524,26.000000,0.000000,4170.769043,4158.205078,4255.512695,4227.307617,4154.230957,4170.384766,4177.051270,4199.102539,4183.846191,4139.358887,4519.358887,4408.205078,4303.974121,4378.974121,0.000000,4.000000,76.000000,,,,0.000000,4.000000,4.000000,4.000000,4.000000,4.000000,4.000000,4.000000,4.000000,4.000000,4.000000,4.000000,4.000000,4.000000,4.000000,100.000000,,,,,,,,,,,,,,,,,,,,,,,,,,,,
1703495734.784862,1703495734.785332,27.000000,0.000000,4156.538574,4144.102539,4250.384766,4217.179688,4145.384766,4170.897461,4168.717773,4195.769043,4182.692383,4130.256348,4509.615234,4404.615234,4298.589844,4369.487305,0.000000,4.000000,76.000000,,,,0.000000,4.000000,4.000000,4.000000,4.000000,4.000000,4.000000,4.000000,4.000000,4.000000,4.000000,4.000000,4.000000,4.000000,4.000000,100.000000,,,,,,,,,,,,,,,,,,,,,,,,,,,,
1703495734.792670,1703495734.793040,28.000000,0.000000,4157.051270,4142.820313,4258.461426,4224.487305,4150.512695,4169.615234,4177.051270,4188.974121,4181.794922,4132.436035,4511.282227,4410.000000,4292.820313,4370.384766,0.000000,4.000000,76.000000,,,,0.000000,4.000000,4.000000,4.000000,4.000000,4.000000,4.000000,4.000000,4.000000,4.000000,4.000000,4.000000,4.000000,4.000000,4.000000,100.000000,,,,,,,,,,,,,,,,,7.000000,0.000000,0.671904,0.256165,-0.663086,0.207947,0.995239,0.067879,-0.016115,-16.746275,-38.138477,63.457268
1703495734.800478,1703495734.800848,29.000000,0.000000,4167.692383,4155.000000,4260.769043,4238.461426,4159.230957,4164.615234,4185.641113,4180.897461,4170.256348,4125.256348,4504.358887,4401.666504,4280.897461,4363.717773,0.000000,4.000000,76.000000,,,,0.000000,4.000000,4.000000,4.000000,4.000000,4.000000,4.000000,4.000000,4.000000,4.000000,4.000000,4.000000,4.000000,4.000000,4.000000,100.000000,,,,,,,,,,,,,,,,,,,,,,,,,,,,
1703495734.808286,1703495734.808555,30.000000,0.000000,4174.871582,4160.128418,4265.384766,4239.358887,4153.846191,4156.025879,4181.153809,4184.487305,4166.538574,4118.333496,4506.666504,4407.179688,4290.000000,4371.794922,0.000000,4.000000,76.000000,,,,0.000000,4.000000,4.000000,4.000000,4.000000,4.000000,4.000000,4.000000,4.000000,4.000000,4.000000,4.000000,4.000000,4.000000,4.000000,100.000000,,,,,,,,,,,,,,,,,,,,,,,,,,,,
1703495734.816094,1703495734.816464,31.000000,0.000000,4190.641113,4169.102539,4280.641113,4243.333496,4150.000000,4151.410156,4177.436035,4188.846191,4171.794922,4129.102539,4522.563965,4430.128418,4311.410156,4397.948730,0.000000,4.000000,76.000000,,,,0.000000,4.000000,4.000000,4.000000,4.000000,4.000000,4.000000,4.000000,4.000000,4.000000,4.000000,4.000000,4.000000,4.000000,4.000000,100.000000,,,,,,,,,,,,,,,,,,,,,,,,,,,,
1703495734.823902,1703495734.824272,32.000000,0.000000,4216.922852,4184.615234,4288.589844,4259.615234,4155.769043,4147.948730,4181.538574,4188.205078,4170.512695,4133.846191,4533.205078,4435.769043,4317.051270,4412.948730,0.000000,4.000000,76.000000,,,,0.000000,4.000000,4.000000,4.000000,4.000000,4.000000,4.000000,4.000000,4.000000,4.000000,4.000000,4.000000,4.000000,4.000000,4.000000,100.000000,,,,,,,,,,,,,,,,,8.000000,0.000000,0.671838,0.255981,-0.663147,0.208191,0.991820,0.066903,-0.013674,-16.904980,-38.257965,63.278206
1703495734.831710,1703495734.832180,33.000000,0.000000,4231.794922,4196.538574,4292.948730,4273.333496,4163.333496,4147.307617,4186.794922,4197.820313,4175.128418,4146.153809,4546.282227,4438.077148,4337.563965,4427.563965,0.000000,4.000000,76.000000,,,,0.000000,4.000000,4.000000,4.000000,4.000000,4.000000,4.000000,4.000000,4.000000,4.000000,4.000000,4.000000,4.000000,4.000000,4.000000,100.000000,,,,,,,,,,,,,,,,,,,,,,,,,,,,
1703495734.839518,1703495734.839988,34.000000,0.000000,4235.384766,4206.025879,4300.256348,4278.974121,4165.000000,4153.205078,4187.051270,4205.384766,4184.102539,4169.102539,4560.384766,4450.384766,4365.641113,4446.794922,0.000000,4.000000,76.000000,,,,0.000000,4.000000,4.000000,4.000000,4.000000,4.000000,4.000000,4.000000,4.000000,4.000000,4.000000,4.000000,4.000000,4.000000,4.000000,100.000000,,,,,,,,,,,,,,,,,,,,,,,,,,,,
1703495734.847326,1703495734.847895,35.000000,0.000000,4245.897461,4212.051270,4303.461426,4281.282227,4163.205078,4160.000000,4184.743652,4207.692383,4184.358887,4173.077148,4568.717773,4456.538574,4365.512695,4455.000000,0.000000,4.000000,76.000000,,,,0.000000,4.000000,4.000000,4.000000,4.000000,4.000000,4.000000,4.000000,4.000000,4.000000,4.000000,4.000000,4.000000,4.000000,4.000000,100.000000,,,,,,,,,,,,,,,,,,,,,,,,,,,,
1703495734.855134,1703495734.855703,36.000000,0.000000,4250.256348,4206.538574,4299.358887,4280.512695,4174.615234,4167.948730,4188.461426,4217.051270,4186.282227,4176.153809,4582.563965,4461.922852,4369.230957,4461.025879,0.000000,4.000000,76.000000,,,,0.000000,4.000000,4.000000,4.000000,4.000000,4.000000,4.000000,4.000000,4.000000,4.000000,4.000000,4.000000,4.000000,4.000000,4.000000,100.000000,,,,,,,,,,,,,,,,,9.000000,0.000000,0.671855,0.256104,-0.663025,0.208374,0.996215,0.058113,-0.017580,-16.931149,-38.348835,63.333721
1703495734.862942,1703495734.863611,37.000000,0.000000,4233.461426,4194.487305,4290.897461,4274.487305,4186.666504,4174.871582,4195.641113,4224.615234,4190.769043,4194.230957,4588.974121,4464.230957,4380.128418,4458.077148,0.000000,4.000000,76.000000,,,,0.000000,4.000000,4.000000,4.000000,4.000000,4.000000,4.000000,4.000000,4.000000,4.000000,4.000000,4.000000,4.000000,4.000000,4.000000,100.000000,,,,,,,,,,,,,,,,,,,,,,,,,,,,
1703495734.870751,1703495734.871419,38.000000,0.000000,4209.743652,4186.794922,4276.410156,4262.307617,4176.666504,4177.563965,4193.846191,4220.512695,4188.205078,4188.846191,4574.358887,4444.871582,4364.743652,4431.410156,0.000000,4.000000,76.000000,,,,0.000000,4.000000,4.000000,4.000000,4.000000,4.000000,4.000000,4.000000,4.000000,4.000000,4.000000,4.000000,4.000000,4.000000,4.000000,100.000000,,,,,,,,,,,,,,,,,,,,,,,,,,,,
1703495734.878559,1703495734.879327,39.000000,0.000000,4197.948730,4180.769043,4265.897461,4257.948730,4168.077148,4178.846191,4186.410156,4217.179688,4186.410156,4167.436035,4565.128418,4426.794922,4351.666504,4414.102539,0.000000,4.000000,76.000000,,,,0.000000,4.000000,4.000000,4.000000,4.000000,4.000000,4.000000,4.000000,4.000000,4.000000,4.000000,4.000000,4.000000,4.000000,4.000000,100.000000,,,,,,,,,,,,,,,,,,,,,,,,,,,,
1703495734.886366,1703495734.887135,40.000000,0.000000,4189.871582,4172.563965,4268.974121,4260.256348,4174.871582,4177.692383,4186.410156,4219.615234,4186.794922,4173.333496,4561.410156,4426.922852,4352.692383,4413.846191,0.000000,4.000000,76.000000,,,,0.000000,4.000000,4.000000,4.000000,4.000000,4.000000,4.000000,4.000000,4.000000,4.000000,4.000000,4.000000,4.000000,4.000000,4.000000,100.000000,,,,,,,,,,,,,,,,,10.000000,0.000000,0.671851,0.256165,-0.663025,0.208313,0.994750,0.059578,-0.004395,-17.104700,-38.447285,63.367016
1703495734.894175,1703495734.895043,41.000000,0.000000,4182.436035,4168.461426,4269.102539,4256.794922,4174.102539,4172.179688,4186.410156,4210.512695,4182.820313,4176.922852,4550.641113,4418.846191,4338.717773,4402.948730,0.000000,4.000000,76.000000,,,,0.000000,4.000000,4.000000,4.000000,4.000000,4.000000,4.000000,4.000000,4.000000,4.000000,4.000000,4.000000,4.000000,4.000000,4.000000,100.000000,,,,,,,,,,,,,,,,,,,,,,,,,,,,
1703495734.901983,1703495734.902851,42.000000,0.000000,4187.179688,4171.666504,4269.615234,4254.230957,4167.179688,4169.743652,4183.846191,4201.153809,4180.641113,4155.384766,4547.436035,4414.230957,4328.205078,4397.692383,0.000000,4.000000,76.000000,,,,0.000000,4.000000,4.000000,4.000000,4.000000,4.000000,4.000000,4.000000,4.000000,4.000000,4.000000,4.000000,4.000000,4.000000,4.000000,100.000000,1.000000,75.000000,4.000000,4.000000,3.000000,4.000000,3.000000,3.000000,4.000000,4.000000,4.000000,4.000000,3.000000,4.000000,4.000000,4.000000,,,,,,,,,,,,
1703495734.909791,1703495734.910759,43.000000,0.000000,4199.102539,4177.436035,4285.384766,4263.589844,4170.769043,4169.230957,4184.487305,4206.025879,4182.948730,4158.333496,4551.410156,4436.794922,4340.641113,4413.461426,0.000000,4.000000,76.000000,,,,0.000000,4.000000,4.000000,4.000000,4.000000,4.000000,4.000000,4.000000,4.000000,4.000000,4.000000,4.000000,4.000000,4.000000,4.000000,100.000000,,,,,,,,,,,,,,,,,,,,,,,,,,,,
1703495734.917599,1703495734.918567,44.000000,0.000000,4215.256348,4188.589844,4299.230957,4277.563965,4179.487305,4169.615234,4186.794922,4208.717773,4186.922852,4182.948730,4560.256348,4451.794922,4348.333496,4430.128418,0.000000,4.000000,76.000000,,,,0.000000,4.000000,4.000000,4.000000,4.000000,4.000000,4.000000,4.000000,4.000000,4.000000,4.000000,4.000000,4.000000,4.000000,4.000000,100.000000,,,,,,,,,,,,,,,,,11.000000,0.000000,0.671916,0.256042,-0.663025,0.208252,0.980100,0.060066,-0.005372,-17.110897,-38.269222,63.463646
1703495734.925407,1703495734.926475,45.000000,0.000000,4228.974121,4203.974121,4297.307617,4285.128418,4181.538574,4169.487305,4191.153809,4204.230957,4185.512695,4177.820313,4567.307617,4446.794922,4342.692383,4434.743652,0.000000,4.000000,76.000000,,,,0.000000,4.000000,4.000000,4.000000,4.000000,4.000000,4.000000,4.000000,4.000000,4.000000,4.000000,4.000000,4.000000,4.000000,4.000000,100.000000,,,,,,,,,,,,,,,,,,,,,,,,,,,,
1703495734.933215,1703495734.934283,46.000000,0.000000,4233.717773,4209.102539,4294.615234,4286.282227,4185.384766,4169.615234,4195.512695,4206.794922,4187.307617,4167.436035,4570.641113,4450.256348,4348.333496,4440.769043,0.000000,4.000000,76.000000,,,,0.000000,4.000000,4.000000,4.000000,4.000000,4.000000,4.000000,4.000000,4.000000,4.000000,4.000000,4.000000,4.000000,4.000000,4.000000,100.000000,,,,,,,,,,,,,,,,,,,,,,,,,,,,
1703495734.941023,1703495734.941991,47.000000,0.000000,4236.282227,4208.461426,4298.333496,4283.846191,4187.436035,4176.922852,4195.641113,4218.589844,4195.641113,4186.025879,4580.384766,4459.487305,4364.743652,4451.410156,0.000000,4.000000,76.000000,,,,0.000000,4.000000,4.000000,4.000000,4.000000,4.000000,4.000000,4.000000,4.000000,4.000000,4.000000,4.000000,4.000000,4.000000,4.000000,100.000000,,,,,,,,,,,,,,,,,,,,,,,,,,,,
1703495734.948831,1703495734.949799,48.000000,0.000000,4237.563965,4209.358887,4299.102539,4280.128418,4175.128418,4182.051270,4193.461426,4226.794922,4196.666504,4194.102539,4587.307617,4461.282227,4370.256348,4454.230957,0.000000,4.000000,76.000000,,,,0.000000,4.000000,4.000000,4.000000,4.000000,4.000000,4.000000,4.000000,4.000000,4.000000,4.000000,4.000000,4.000000,4.000000,4.000000,100.000000,,,,,,,,,,,,,,,,,12.000000,0.000000,0.671945,0.256165,-0.663025,0.208008,0.995239,0.080088,-0.021975,-16.916473,-38.242298,63.400616
1703495734.956639,1703495734.957507,49.000000,0.000000,4243.205078,4213.077148,4299.230957,4288.461426,4177.820313,4185.000000,4198.974121,4231.410156,4194.487305,4186.922852,4591.538574,4463.205078,4380.384766,4461.538574,0.000000,4.000000,76.000000,,,,0.000000,4.000000,4.000000,4.000000,4.000000,4.000000,4.000000,4.000000,4.000000,4.000000,4.000000,4.000000,4.000000,4.000000,4.000000,100.000000,,,,,,,,,,,,,,,,,,,,,,,,,,,,
1703495734.964447,1703495734.965315,50.000000,0.000000,4247.692383,4218.846191,4299.743652,4299.743652,4201.282227,4196.410156,4209.102539,4239.102539,4194.358887,4202.820313,4603.333496,4464.871582,4399.230957,4474.230957,0.000000,4.000000,76.000000,,,,0.000000,4.000000,4.000000,4.000000,4.000000,4.000000,4.000000,4.000000,4.000000,4.000000,4.000000,4.000000,4.000000,4.000000,4.000000,100.000000,,,,,,,,,,,,,,,,,,,,,,,,,,,,
1703495734.972255,1703495734.973023,51.000000,0.000000,4241.410156,4217.820313,4295.256348,4294.743652,4206.025879,4200.769043,4206.410156,4242.051270,4188.717773,4215.128418,4606.538574,4457.948730,4399.743652,4469.615234,0.000000,4.000000,76.000000,,,,0.000000,4.000000,4.000000,4.000000,4.000000,4.000000,4.000000,4.000000,4.000000,4.000000,4.000000,4.000000,4.000000,4.000000,4.000000,100.000000,,,,,,,,,,,,,,,,,,,,,,,,,,,,
1703495734.980063,1703495734.980830,52.000000,0.000000,4232.051270,4213.077148,4292.948730,4291.922852,4196.153809,4190.641113,4201.025879,4233.717773,4186.153809,4194.487305,4590.512695,4452.179688,4383.974121,4457.307617,0.000000,4.000000,76.000000,,,,0.000000,4.000000,4.000000,4.000000,4.000000,4.000000,4.000000,4.000000,4.000000,4.000000,4.000000,4.000000,4.000000,4.000000,4.000000,100.000000,,,,,,,,,,,,,,,,,13.000000,0.000000,0.671908,0.256470,-0.662964,0.207947,0.984495,0.067391,-0.013185,-17.074827,-38.284737,63.410553
1703495734.987871,1703495734.988538,53.000000,0.000000,4232.307617,4213.846191,4299.358887,4306.538574,4201.410156,4185.000000,4205.897461,4226.666504,4186.025879,4187.051270,4586.794922,4452.179688,4375.897461,4456.922852,0.000000,4.000000,76.000000,,,,0.000000,4.000000,4.000000,4.000000,4.000000,4.000000,4.000000,4.000000,4.000000,4.000000,4.000000,4.000000,4.000000,4.000000,4.000000,100.000000,,,,,,,,,,,,,,,,,,,,,,,,,,,,
1703495734.995679,1703495734.996446,54.000000,0.000000,4240.384766,4220.256348,4303.461426,4318.461426,4204.743652,4187.179688,4208.974121,4229.230957,4176.282227,4198.589844,4596.025879,4450.128418,4379.358887,4460.000000,0.000000,4.000000,76.000000,,,,0.000000,4.000000,4.000000,4.000000,4.000000,4.000000,4.000000,4.000000,4.000000,4.000000,4.000000,4.000000,4.000000,4.000000,4.000000,100.000000,,,,,,,,,,,,,,,,,,,,,,,,,,,,
1703495735.003487,1703495735.004254,55.000000,0.000000,4245.512695,4218.846191,4305.384766,4312.436035,4195.512695,4182.820313,4201.410156,4222.948730,4172.051270,4185.641113,4589.358887,4453.077148,4377.307617,4457.820313,0.000000,4.000000,76.000000,,,,0.000000,4.000000,4.000000,4.000000,4.000000,4.000000,4.000000,4.000000,4.000000,4.000000,4.000000,4.000000,4.000000,4.000000,4.000000,100.000000,,,,,,,,,,,,,,,,,,,,,,,,,,,,
1703495735.011295,1703495735.012162,56.000000,0.000000,4247.051270,4213.846191,4314.358887,4310.384766,4198.974121,4178.974121,4200.769043,4210.512695,4184.102539,4175.000000,4585.641113,4463.717773,4368.077148,4457.307617,0.000000,4.000000,76.000000,,,,0.000000,4.000000,4.000000,4.000000,4.000000,4.000000,4.000000,4.000000,4.000000,4.000000,4.000000,4.000000,4.000000,4.000000,4.000000,100.000000,,,,,,,,,,,,,,,,,14.000000,0.000000,0.671828,0.256531,-0.662964,0.208130,0.986937,0.059089,-0.016115,-17.067345,-38.172928,63.352833
1703495735.019103,1703495735.019970,57.000000,0.000000,4248.717773,4222.820313,4317.692383,4319.230957,4208.205078,4181.666504,4209.615234,4218.846191,4194.487305,4203.589844,4605.000000,4469.230957,4376.666504,4465.000000,0.000000,4.000000,76.000000,,,,0.000000,4.000000,4.000000,4.000000,4.000000,4.000000,4.000000,4.000000,4.000000,4.000000,4.000000,4.000000,4.000000,4.000000,4.000000,100.000000,,,,,,,,,,,,,,,,,,,,,,,,,,,,
1703495735.026911,1703495735.027878,58.000000,0.000000,4251.153809,4230.641113,4314.871582,4317.563965,4210.384766,4185.384766,4214.871582,4238.205078,4199.615234,4227.051270,4622.692383,4473.333496,4400.512695,4476.282227,0.000000,4.000000,76.000000,,,,0.000000,4.000000,4.000000,4.000000,4.000000,4.000000,4.000000,4.000000,4.000000,4.000000,4.000000,4.000000,4.000000,4.000000,4.000000,100.000000,,,,,,,,,,,,,,,,,,,,,,,,,,,,
1703495735.034719,1703495735.035686,59.000000,0.000000,4248.846191,4220.769043,4311.153809,4307.820313,4213.461426,4193.333496,4215.000000,4241.922852,4202.820313,4221.025879,4619.871582,4477.179688,4403.333496,4477.051270,0.000000,4.000000,76.000000,,,,0.000000,4.000000,4.000000,4.000000,4.000000,4.000000,4.000000,4.000000,4.000000,4.000000,4.000000,4.000000,4.000000,4.000000,4.000000,100.000000,,,,,,,,,,,,,,,,,,,,,,,,,,,,
1703495735.042527,1703495735.043594,60.000000,0.000000,4244.102539,4212.307617,4305.128418,4302.820313,4215.769043,4207.307617,4215.256348,4232.692383,4198.589844,4214.358887,4610.897461,4472.307617,4390.769043,4472.563965,0.000000,4.000000,76.000000,,,,0.000000,4.000000,4.000000,4.000000,4.000000,4.000000,4.000000,4.000000,4.000000,4.000000,4.000000,4.000000,4.000000,4.000000,4.000000,100.000000,,,,,,,,,,,,,,,,,15.000000,0.000000,0.671804,0.256653,-0.662903,0.208252,0.988402,0.063484,-0.001953,-17.060610,-38.038971,63.434216
1703495735.050335,1703495735.051402,61.000000,0.000000,4245.384766,4215.000000,4303.846191,4296.153809,4207.948730,4217.692383,4218.333496,4232.307617,4194.230957,4208.077148,4608.205078,4466.922852,4393.077148,4476.282227,0.000000,4.000000,76.000000,,,,0.000000,4.000000,4.000000,4.000000,4.000000,4.000000,4.000000,4.000000,4.000000,4.000000,4.000000,4.000000,4.000000,4.000000,4.000000,100.000000,,,,,,,,,,,,,,,,,,,,,,,,,,,,
1703495735.058144,1703495735.059310,62.000000,0.000000,4245.128418,4215.384766,4307.307617,4293.461426,4198.846191,4218.846191,4217.692383,4233.205078,4197.436035,4197.051270,4602.820313,4470.641113,4392.436035,4477.820313,0.000000,4.000000,76.000000,,,,0.000000,4.000000,4.000000,4.000000,4.000000,4.000000,4.000000,4.000000,4.000000,4.000000,4.000000,4.000000,4.000000,4.000000,4.000000,100.000000,,,,,,,,,,,,,,,,,,,,,,,,,,,,
1703495735.065951,1703495735.067118,63.000000,0.000000,4248.974121,4218.974121,4312.051270,4304.102539,4206.922852,4217.692383,4216.282227,4231.666504,4201.025879,4202.563965,4601.025879,4476.666504,4383.974121,4473.077148,0.000000,4.000000,76.000000,,,,0.000000,4.000000,4.000000,4.000000,4.000000,4.000000,4.000000,4.000000,4.000000,4.000000,4.000000,4.000000,4.000000,4.000000,4.000000,100.000000,,,,,,,,,,,,,,,,,,,,,,,,,,,,
1703495735.073759,1703495735.075026,64.000000,0.000000,4261.410156,4235.000000,4315.897461,4315.897461,4220.000000,4219.743652,4220.000000,4240.512695,4200.897461,4215.769043,4611.025879,4478.974121,4390.641113,4481.025879,4457.000000,4.000000,76.000000,,,,0.000000,4.000000,4.000000,4.000000,4.000000,4.000000,4.000000,4.000000,4.000000,4.000000,4.000000,4.000000,4.000000,4.000000,4.000000,100.000000,,,,,,,,,,,,,,,,,16.000000,0.000000,0.671850,0.256531,-0.662903,0.208252,0.986937,0.070321,-0.011232,-17.154549,-37.935074,63.524128
1703495735.081567,1703495735.082834,65.000000,0.000000,4268.205078,4246.922852,4316.153809,4320.128418,4215.128418,4214.871582,4220.000000,4250.000000,4195.256348,4218.974121,4622.436035,4479.230957,4399.487305,4491.922852,5699.000000,4.000000,76.000000,,,,0.000000,4.000000,4.000000,4.000000,4.000000,4.000000,4.000000,4.000000,4.000000,4.000000,4.000000,4.000000,4.000000,4.000000,4.000000,100.000000,,,,,,,,,,,,,,,,,,,,,,,,,,,,
1703495735.089376,1703495735.090741,66.000000,0.000000,4266.410156,4248.461426,4316.538574,4326.794922,4208.333496,4203.717773,4217.563965,4248.077148,4190.384766,4224.615234,4631.922852,4483.077148,4405.897461,4494.230957,5544.000000,4.000000,76.000000,,,,0.000000,4.000000,4.000000,4.000000,4.000000,4.000000,4.000000,4.000000,4.000000,4.000000,4.000000,4.000000,4.000000,4.000000,4.000000,100.000000,,,,,,,,,,,,,,,,,,,,,,,,,,,,
1703495735.097184,1703495735.098549,67.000000,0.000000,4266.410156,4249.102539,4317.692383,4331.410156,4215.384766,4200.128418,4218.717773,4243.205078,4189.615234,4235.128418,4635.897461,4485.256348,4417.563965,4498.974121,5527.000000,4.000000,76.000000,,,,0.000000,4.000000,4.000000,4.000000,4.000000,4.000000,4.000000,4.000000,4.000000,4.000000,4.000000,4.000000,4.000000,4.000000,4.000000,100.000000,,,,,,,,,,,,,,,,,,,,,,,,,,,,
1703495735.104992,1703495735.106457,68.000000,0.000000,4265.512695,4247.692383,4316.153809,4327.692383,4213.205078,4198.846191,4217.563965,4239.871582,4186.282227,4226.025879,4626.282227,4477.051270,4408.589844,4493.205078,5365.000000,4.000000,76.000000,,,,0.000000,4.000000,4.000000,4.000000,4.000000,4.000000,4.000000,4.000000,4.000000,4.000000,4.000000,4.000000,4.000000,4.000000,4.000000,100.000000,,,,,,,,,,,,,,,,,17.000000,0.000000,0.671897,0.256409,-0.662903,0.208252,0.989379,0.059089,-0.016115,-17.272427,-37.824898,63.505047
1703495735.112800,1703495735.114265,69.000000,0.000000,4261.538574,4245.384766,4311.410156,4328.717773,4209.871582,4196.153809,4216.538574,4239.230957,4184.487305,4210.128418,4626.410156,4475.128418,4394.743652,4485.128418,4879.000000,4.000000,76.000000,,,,0.000000,4.000000,4.000000,4.000000,4.000000,4.000000,4.000000,4.000000,4.000000,4.000000,4.000000,4.000000,4.000000,4.000000,4.000000,100.000000,,,,,,,,,,,,,,,,,,,,,,,,,,,,
1703495735.120608,1703495735.121973,70.000000,0.000000,4261.410156,4247.436035,4310.128418,4334.102539,4223.461426,4198.846191,4224.487305,4243.974121,4191.922852,4217.307617,4642.948730,4483.205078,4406.538574,4493.974121,3517.000000,4.000000,76.000000,,,,0.000000,4.000000,4.000000,4.000000,4.000000,4.000000,4.000000,4.000000,4.000000,4.000000,4.000000,4.000000,4.000000,4.000000,4.000000,100.000000,,,,,,,,,,,,,,,,,,,,,,,,,,,,
1703495735.128416,1703495735.129881,71.000000,0.000000,4266.794922,4248.717773,4316.666504,4332.179688,4228.077148,4204.871582,4230.512695,4249.102539,4200.128418,4231.410156,4643.461426,4490.256348,4410.897461,4500.256348,3535.000000,4.000000,76.000000,,,,0.000000,4.000000,4.000000,4.000000,4.000000,4.000000,4.000000,4.000000,4.000000,4.000000,4.000000,4.000000,4.000000,4.000000,4.000000,100.000000,,,,,,,,,,,,,,,,,,,,,,,,,,,,
1703495735.136224,1703495735.137690,72.000000,0.000000,4265.641113,4241.538574,4321.153809,4326.794922,4222.563965,4208.974121,4227.948730,4247.692383,4200.897461,4221.794922,4633.333496,4490.384766,4398.589844,4492.820313,2363.000000,4.000000,76.000000,,,,0.000000,4.000000,4.000000,4.000000,4.000000,4.000000,4.000000,4.000000,4.000000,4.000000,4.000000,4.000000,4.000000,4.000000,4.000000,100.000000,,,,,,,,,,,,,,,,,18.000000,0.000000,0.671813,0.256470,-0.662964,0.208252,0.977658,0.065926,-0.007813,-17.261850,-37.825741,63.454544
1703495735.144032,1703495735.145598,73.000000,0.000000,4256.282227,4233.717773,4317.307617,4327.820313,4229.487305,4215.641113,4229.743652,4245.641113,4202.179688,4201.666504,4631.794922,4486.666504,4394.871582,4490.384766,5799.000000,4.000000,76.000000,,,,0.000000,4.000000,4.000000,4.000000,4.000000,4.000000,4.000000,4.000000,4.000000,4.000000,4.000000,4.000000,4.000000,4.000000,4.000000,100.000000,,,,,,,,,,,,,,,,,,,,,,,,,,,,
1703495735.151840,1703495735.153406,74.000000,0.000000,4246.282227,4230.897461,4312.563965,4322.436035,4230.384766,4222.307617,4233.077148,4247.051270,4203.461426,4205.512695,4618.717773,4486.410156,4385.769043,4486.666504,5980.000000,4.000000,76.000000,,,,0.000000,4.000000,4.000000,4.000000,4.000000,4.000000,4.000000,4.000000,4.000000,4.000000,4.000000,4.000000,4.000000,4.000000,4.000000,100.000000,,,,,,,,,,,,,,,,,,,,,,,,,,,,
1703495735.159648,1703495735.161214,75.000000,0.000000,4238.461426,4227.692383,4309.230957,4307.563965,4213.333496,4220.897461,4228.461426,4248.461426,4201.922852,4222.179688,4607.307617,4482.179688,4373.205078,4473.974121,6250.000000,4.000000,76.000000,,,,0.000000,4.000000,4.000000,4.000000,4.000000,4.000000,4.000000,4.000000,4.000000,4.000000,4.000000,4.000000,4.000000,4.000000,4.000000,100.000000,,,,,,,,,,,,,,,,,,,,,,,,,,,,
1703495735.167456,1703495735.168922,76.000000,0.000000,4242.436035,4226.025879,4314.102539,4306.538574,4211.922852,4219.615234,4227.820313,4247.307617,4201.922852,4216.538574,4615.641113,4481.922852,4382.436035,4479.102539,6661.000000,4.000000,76.000000,,,,0.000000,4.000000,4.000000,4.000000,4.000000,4.000000,4.000000,4.000000,4.000000,4.000000,4.000000,4.000000,4.000000,4.000000,4.000000,100.000000,,,,,,,,,,,,,,,,,19.000000,0.000000,0.671906,0.256592,-0.662842,0.208191,0.994750,0.062019,-0.008790,-17.385666,-37.743168,63.542423
1703495735.175264,1703495735.176730,77.000000,0.000000,4256.410156,4230.512695,4323.077148,4309.871582,4225.128418,4219.230957,4233.717773,4244.358887,4201.794922,4206.282227,4617.051270,4491.794922,4394.487305,4496.282227,5970.000000,4.000000,76.000000,,,,0.000000,4.000000,4.000000,4.000000,4.000000,4.000000,4.000000,4.000000,4.000000,4.000000,4.000000,4.000000,4.000000,4.000000,4.000000,100.000000,,,,,,,,,,,,,,,,,,,,,,,,,,,,
1703495735.183072,1703495735.184438,78.000000,0.000000,4267.563965,4238.589844,4323.333496,4307.820313,4221.666504,4216.025879,4233.333496,4240.641113,4199.743652,4212.692383,4611.025879,4494.615234,4391.282227,4498.717773,5980.000000,4.000000,76.000000,,,,0.000000,4.000000,4.000000,4.000000,4.000000,4.000000,4.000000,4.000000,4.000000,4.000000,4.000000,4.000000,4.000000,4.000000,4.000000,100.000000,,,,,,,,,,,,,,,,,,,,,,,,,,,,
1703495735.190880,1703495735.192245,79.000000,0.000000,4274.743652,4246.410156,4326.794922,4316.025879,4213.333496,4213.461426,4228.974121,4243.205078,4197.820313,4221.538574,4616.282227,4491.922852,4395.769043,4497.692383,6250.000000,4.000000,76.000000,,,,0.000000,4.000000,4.000000,4.000000,4.000000,4.000000,4.000000,4.000000,4.000000,4.000000,4.000000,4.000000,4.000000,4.000000,4.000000,100.000000,,,,,,,,,,,,,,,,,,,,,,,,,,,,
1703495735.198688,1703495735.199953,80.000000,0.000000,4280.384766,4253.717773,4332.692383,4330.000000,4225.000000,4213.846191,4231.922852,4249.358887,4198.461426,4228.974121,4633.333496,4497.179688,4419.615234,4513.846191,6661.000000,4.000000,76.000000,,,,0.000000,4.000000,4.000000,4.000000,4.000000,4.000000,4.000000,4.000000,4.000000,4.000000,4.000000,4.000000,4.000000,4.000000,4.000000,100.000000,,,,,,,,,,,,,,,,,20.000000,0.000000,0.671674,0.256836,-0.662964,0.208252,0.983518,0.067879,-0.011720,-17.280434,-37.918850,63.488178
1703495735.206496,1703495735.207761,81.000000,0.000000,4280.769043,4257.051270,4327.307617,4328.717773,4236.410156,4215.000000,4236.666504,4250.128418,4202.051270,4237.307617,4643.333496,4501.538574,4431.794922,4525.256348,5970.000000,4.000000,76.000000,,,,0.000000,4.000000,4.000000,4.000000,4.000000,4.000000,4.000000,4.000000,4.000000,4.000000,4.000000,4.000000,4.000000,4.000000,4.000000,100.000000,,,,,,,,,,,,,,,,,,,,,,,,,,,,
1703495735.214304,1703495735.215469,82.000000,0.000000,4277.820313,4257.820313,4317.820313,4323.589844,4231.666504,4215.512695,4233.717773,4247.563965,4203.205078,4232.563965,4639.615234,4492.051270,4423.461426,4514.743652,5980.000000,4.000000,76.000000,,,,0.000000,4.000000,4.000000,4.000000,4.000000,4.000000,4.000000,4.000000,4.000000,4.000000,4.000000,4.000000,4.000000,4.000000,4.000000,100.000000,,,,,,,,,,,,,,,,,,,,,,,,,,,,
1703495735.222112,1703495735.223276,83.000000,0.000000,4274.102539,4259.358887,4314.615234,4334.487305,4238.589844,4217.307617,4237.179688,4247.179688,4202.179688,4228.589844,4635.641113,4486.153809,4420.512695,4504.487305,6250.000000,4.000000,76.000000,,,,0.000000,4.000000,4.000000,4.000000,4.000000,4.000000,4.000000,4.000000,4.000000,4.000000,4.000000,4.000000,4.000000,4.000000,4.000000,100.000000,,,,,,,,,,,,,,,,,,,,,,,,,,,,
1703495735.229920,1703495735.230984,84.000000,0.000000,4266.922852,4259.615234,4315.897461,4340.128418,4249.743652,4217.948730,4244.615234,4247.307617,4201.538574,4232.820313,4634.615234,4486.153809,4426.666504,4501.666504,6661.000000,4.000000,76.000000,,,,0.000000,4.000000,4.000000,4.000000,4.000000,4.000000,4.000000,4.000000,4.000000,4.000000,4.000000,4.000000,4.000000,4.000000,4.000000,100.000000,,,,,,,,,,,,,,,,,21.000000,0.000000,0.671664,0.257019,-0.662903,0.208252,0.988890,0.066903,-0.004883,-17.035723,-37.976967,63.422695
1703495735.237728,1703495735.238892,85.000000,0.000000,4262.820313,4257.436035,4314.615234,4330.000000,4243.077148,4217.436035,4240.000000,4248.461426,4200.769043,4233.205078,4638.333496,4481.666504,4427.051270,4499.230957,5970.000000,4.000000,76.000000,,,,0.000000,4.000000,4.000000,4.000000,4.000000,4.000000,4.000000,4.000000,4.000000,4.000000,4.000000,4.000000,4.000000,4.000000,4.000000,100.000000,,,,,,,,,,,,,,,,,,,,,,,,,,,,
1703495735.245536,1703495735.246700,86.000000,0.000000,4259.230957,4255.256348,4310.641113,4326.025879,4237.948730,4217.436035,4234.358887,4249.615234,4200.000000,4235.769043,4636.282227,4482.692383,4415.641113,4492.820313,5980.000000,4.000000,76.000000,,,,0.000000,4.000000,4.000000,4.000000,4.000000,4.000000,4.000000,4.000000,4.000000,4.000000,4.000000,4.000000,4.000000,4.000000,4.000000,100.000000,,,,,,,,,,,,,,,,,,,,,,,,,,,,
1703495735.253344,1703495735.254608,87.000000,0.000000,4245.769043,4245.256348,4305.128418,4322.692383,4231.538574,4213.717773,4232.563965,4245.384766,4201.153809,4231.282227,4623.333496,4483.077148,4403.461426,4482.563965,6250.000000,4.000000,76.000000,,,,0.000000,4.000000,4.000000,4.000000,4.000000,4.000000,4.000000,4.000000,4.000000,4.000000,4.000000,4.000000,4.000000,4.000000,4.000000,100.000000,,,,,,,,,,,,,,,,,,,,,,,,,,,,
1703495735.261152,1703495735.262416,88.000000,0.000000,4237.179688,4231.666504,4305.256348,4310.128418,4217.051270,4210.128418,4227.051270,4242.051270,4199.358887,4217.820313,4614.358887,4476.282227,4401.794922,4474.358887,6661.000000,4.000000,76.000000,,,,0.000000,4.000000,4.000000,4.000000,4.000000,4.000000,4.000000,4.000000,4.000000,4.000000,4.000000,4.000000,4.000000,4.000000,4.000000,100.000000,,,,,,,,,,,,,,,,,22.000000,0.000000,0.671808,0.256958,-0.662781,0.208252,0.990355,0.061043,-0.002442,-16.832151,-37.845936,63.463760
1703495735.268960,1703495735.270324,89.000000,0.000000,4243.846191,4237.179688,4313.846191,4314.487305,4220.384766,4213.589844,4227.563965,4245.384766,4200.000000,4220.769043,4617.948730,4480.256348,4403.077148,4476.153809,5970.000000,4.000000,76.000000,,,,0.000000,4.000000,4.000000,4.000000,4.000000,4.000000,4.000000,4.000000,4.000000,4.000000,4.000000,4.000000,4.000000,4.000000,4.000000,100.000000,,,,,,,,,,,,,,,,,,,,,,,,,,,,
1703495735.276769,1703495735.278132,90.000000,0.000000,4249.487305,4251.282227,4314.743652,4329.230957,4231.794922,4219.743652,4234.615234,4249.871582,4207.692383,4233.589844,4625.000000,4488.846191,4401.025879,4482.692383,5980.000000,4.000000,76.000000,,,,0.000000,4.000000,4.000000,4.000000,4.000000,4.000000,4.000000,4.000000,4.000000,4.000000,4.000000,4.000000,4.000000,4.000000,4.000000,100.000000,,,,,,,,,,,,,,,,,,,,,,,,,,,,
1703495735.284577,1703495735.285840,91.000000,0.000000,4245.384766,4244.743652,4314.358887,4322.179688,4225.641113,4220.000000,4235.384766,4249.487305,4210.641113,4231.922852,4627.563965,4485.512695,4405.256348,4487.692383,6250.000000,4.000000,76.000000,,,,0.000000,4.000000,4.000000,4.000000,4.000000,4.000000,4.000000,4.000000,4.000000,4.000000,4.000000,4.000000,4.000000,4.000000,4.000000,100.000000,,,,,,,,,,,,,,,,,,,,,,,,,,,,
1703495735.292385,1703495735.293648,92.000000,0.000000,4246.410156,4233.333496,4322.179688,4314.743652,4216.538574,4218.205078,4233.205078,4248.717773,4210.641113,4237.692383,4630.769043,4485.897461,4417.820313,4497.179688,6661.000000,4.000000,76.000000,,,,0.000000,4.000000,4.000000,4.000000,4.000000,4.000000,4.000000,4.000000,4.000000,4.000000,4.000000,4.000000,4.000000,4.000000,4.000000,100.000000,,,,,,,,,,,,,,,,,23.000000,0.000000,0.671747,0.256653,-0.662903,0.208435,0.988890,0.066903,-0.007813,-16.798935,-37.778008,63.400715
1703495735.300193,1703495735.301556,93.000000,0.000000,4258.717773,4239.615234,4322.948730,4324.102539,4217.820313,4218.461426,4232.307617,4251.282227,4213.205078,4254.487305,4633.461426,4493.461426,4424.230957,4507.820313,5970.000000,4.000000,76.000000,,,,0.000000,4.000000,4.000000,4.000000,4.000000,4.000000,4.000000,4.000000,4.000000,4.000000,4.000000,4.000000,4.000000,4.000000,4.000000,100.000000,,,,,,,,,,,,,,,,,,,,,,,,,,,,
1703495735.308001,1703495735.309364,94.000000,0.000000,4266.025879,4251.282227,4319.615234,4328.077148,4224.615234,4219.487305,4233.461426,4251.025879,4213.974121,4251.282227,4635.641113,4497.179688,4426.153809,4511.410156,5980.000000,4.000000,76.000000,,,,0.000000,4.000000,4.000000,4.000000,4.000000,4.000000,4.000000,4.000000,4.000000,4.000000,4.000000,4.000000,4.000000,4.000000,4.000000,100.000000,,,,,,,,,,,,,,,,,,,,,,,,,,,,
1703495735.315809,1703495735.317072,95.000000,0.000000,4265.641113,4258.589844,4318.974121,4326.282227,4234.615234,4223.589844,4243.589844,4251.410156,4215.256348,4250.512695,4634.358887,4494.102539,4429.230957,4509.487305,6250.000000,4.000000,76.000000,,,,0.000000,4.000000,4.000000,4.000000,4.000000,4.000000,4.000000,4.000000,4.000000,4.000000,4.000000,4.000000,4.000000,4.000000,4.000000,100.000000,,,,,,,,,,,,,,,,,,,,,,,,,,,,
1703495735.323617,1703495735.324880,96.000000,0.000000,4266.025879,4260.512695,4314.230957,4327.307617,4238.205078,4230.000000,4247.436035,4255.641113,4213.589844,4252.820313,4625.512695,4485.641113,4424.743652,4506.922852,6661.000000,4.000000,76.000000,,,,0.000000,4.000000,4.000000,4.000000,4.000000,4.000000,4.000000,4.000000,4.000000,4.000000,4.000000,4.000000,4.000000,4.000000,4.000000,100.000000,,,,,,,,,,,,,,,,,24.000000,0.000000,0.671720,0.256409,-0.663025,0.208435,0.971798,0.067391,-0.012209,-16.885708,-37.750210,63.360645
1703495735.331425,1703495735.332588,97.000000,0.000000,4258.333496,4251.922852,4309.358887,4324.230957,4231.794922,4229.487305,4236.538574,4255.512695,4206.922852,4230.769043,4610.128418,4480.128418,4407.051270,4498.846191,5970.000000,4.000000,76.000000,,,,0.000000,4.000000,4.000000,4.000000,4.000000,4.000000,4.000000,4.000000,4.000000,4.000000,4.000000,4.000000,4.000000,4.000000,4.000000,100.000000,,,,,,,,,,,,,,,,,,,,,,,,,,,,
1703495735.339233,1703495735.340396,98.000000,0.000000,4245.641113,4241.794922,4306.794922,4316.666504,4228.846191,4219.743652,4229.358887,4250.512695,4203.333496,4217.948730,4597.692383,4477.948730,4394.615234,4485.641113,5980.000000,4.000000,76.000000,,,,0.000000,4.000000,4.000000,4.000000,4.000000,4.000000,4.000000,4.000000,4.000000,4.000000,4.000000,4.000000,4.000000,4.000000,4.000000,100.000000,,,,,,,,,,,,,,,,,,,,,,,,,,,,
1703495735.347041,1703495735.348104,99.000000,0.000000,4240.256348,4240.128418,4306.153809,4311.538574,4226.025879,4217.563965,4232.051270,4248.077148,4206.410156,4224.102539,4599.743652,4472.692383,4393.077148,4478.333496,6250.000000,4.000000,76.000000,,,,0.000000,4.000000,4.000000,4.000000,4.000000,4.000000,4.000000,4.000000,4.000000,4.000000,4.000000,4.000000,4.000000,4.000000,4.000000,100.000000,,,,,,,,,,,,,,,,,,,,,,,,,,,,
1703495735.354849,1703495735.355912,100.000000,0.000000,4237.436035,4240.512695,4306.025879,4311.666504,4225.769043,4225.769043,4233.205078,4250.000000,4206.153809,4220.256348,4603.077148,4468.717773,4387.692383,4474.871582,6661.000000,4.000000,76.000000,,,,0.000000,4.000000,4.000000,4.000000,4.000000,4.000000,4.000000,4.000000,4.000000,4.000000,4.000000,4.000000,4.000000,4.000000,4.000000,100.000000,,,,,,,,,,,,,,,,,25.000000,0.000000,0.671625,0.256409,-0.663025,0.208740,0.995727,0.062996,-0.008790,-16.830471,-37.725189,63.457912
1703495735.362657,1703495735.363620,101.000000,0.000000,4228.461426,4234.615234,4303.077148,4312.436035,4231.410156,4224.230957,4231.282227,4248.077148,4203.077148,4213.077148,4591.922852,4467.051270,4379.487305,4471.666504,5970.000000,4.000000,76.000000,,,,0.000000,4.000000,4.000000,4.000000,4.000000,4.000000,4.000000,4.000000,4.000000,4.000000,4.000000,4.000000,4.000000,4.000000,4.000000,100.000000,,,,,,,,,,,,,,,,,,,,,,,,,,,,
1703495735.370465,1703495735.371427,102.000000,0.000000,4223.589844,4225.897461,4305.897461,4307.307617,4226.282227,4212.563965,4228.974121,4237.820313,4200.641113,4211.794922,4577.436035,4468.589844,4374.358887,4467.179688,5980.000000,4.000000,76.000000,,,,0.000000,4.000000,4.000000,4.000000,4.000000,4.000000,4.000000,4.000000,4.000000,4.000000,4.000000,4.000000,4.000000,4.000000,4.000000,100.000000,,,,,,,,,,,,,,,,,,,,,,,,,,,,
1703495735.378273,1703495735.379135,103.000000,0.000000,4230.128418,4231.153809,4315.769043,4308.077148,4218.846191,4212.436035,4228.077148,4231.794922,4201.025879,4209.743652,4583.333496,4473.205078,4374.358887,4470.256348,6250.000000,4.000000,76.000000,,,,0.000000,4.000000,4.000000,4.000000,4.000000,4.000000,4.000000,4.000000,4.000000,4.000000,4.000000,4.000000,4.000000,4.000000,4.000000,100.000000,,,,,,,,,,,,,,,,,,,,,,,,,,,,
1703495735.386081,1703495735.386943,104.000000,0.000000,4235.384766,4242.307617,4321.025879,4315.256348,4217.179688,4213.205078,4229.230957,4240.000000,4201.922852,4209.230957,4599.871582,4481.025879,4381.282227,4482.948730,6661.000000,4.000000,76.000000,,,,0.000000,4.000000,4.000000,4.000000,4.000000,4.000000,4.000000,4.000000,4.000000,4.000000,4.000000,4.000000,4.000000,4.000000,4.000000,100.000000,,,,,,,,,,,,,,,,,26.000000,0.000000,0.671624,0.256470,-0.662964,0.208862,0.985960,0.057624,-0.003418,-16.780758,-37.819336,63.495457
1703495735.393889,1703495735.394651,105.000000,0.000000,4232.307617,4237.051270,4324.358887,4315.769043,4217.436035,4206.410156,4230.000000,4248.077148,4198.205078,4214.871582,4604.487305,4491.666504,4387.820313,4492.307617,5970.000000,4.000000,76.000000,,,,0.000000,4.000000,4.000000,4.000000,4.000000,4.000000,4.000000,4.000000,4.000000,4.000000,4.000000,4.000000,4.000000,4.000000,4.000000,100.000000,,,,,,,,,,,,,,,,,,,,,,,,,,,,
1703495735.401697,1703495735.402458,106.000000,0.000000,4236.282227,4240.897461,4329.230957,4317.820313,4222.948730,4207.179688,4230.641113,4245.769043,4196.282227,4227.307617,4611.666504,4495.128418,4394.615234,4498.077148,5980.000000,4.000000,76.000000,,,,0.000000,4.000000,4.000000,4.000000,4.000000,4.000000,4.000000,4.000000,4.000000,4.000000,4.000000,4.000000,4.000000,4.000000,4.000000,100.000000,1.000000,58.333332,4.000000,3.000000,4.000000,3.000000,1.000000,3.000000,4.000000,4.000000,4.000000,3.000000,3.000000,4.000000,4.000000,4.000000,,,,,,,,,,,,
1703495735.409505,1703495735.410166,107.000000,0.000000,4251.282227,4260.256348,4329.358887,4330.000000,4224.743652,4207.563965,4232.692383,4247.307617,4198.461426,4233.974121,4627.179688,4497.307617,4406.410156,4510.384766,6250.000000,4.000000,76.000000,,,,0.000000,4.000000,4.000000,4.000000,4.000000,4.000000,4.000000,4.000000,4.000000,4.000000,4.000000,4.000000,4.000000,4.000000,4.000000,100.000000,,,,,,,,,,,,,,,,,,,,,,,,,,,,
1703495735.417313,1703495735.418074,108.000000,0.000000,4253.461426,4262.179688,4323.205078,4334.615234,4219.615234,4204.871582,4231.666504,4253.077148,4199.743652,4223.333496,4626.025879,4500.256348,4409.615234,4517.563965,6661.000000,4.000000,76.000000,,,,0.000000,4.000000,4.000000,4.000000,4.000000,4.000000,4.000000,4.000000,4.000000,4.000000,4.000000,4.000000,4.000000,4.000000,4.000000,100.000000,,,,,,,,,,,,,,,,,27.000000,0.000000,0.671619,0.256592,-0.662903,0.208923,0.981077,0.050787,-0.017580,-16.886015,-38.104069,63.479244
1703495735.425121,1703495735.425882,109.000000,0.000000,4235.000000,4245.128418,4314.871582,4318.974121,4218.077148,4209.487305,4228.974121,4251.538574,4200.641113,4215.384766,4608.077148,4488.717773,4395.641113,4502.820313,5970.000000,4.000000,76.000000,,,,0.000000,4.000000,4.000000,4.000000,4.000000,4.000000,4.000000,4.000000,4.000000,4.000000,4.000000,4.000000,4.000000,4.000000,4.000000,100.000000,,,,,,,,,,,,,,,,,,,,,,,,,,,,
1703495735.432929,1703495735.433790,110.000000,0.000000,4219.743652,4236.153809,4308.846191,4306.794922,4217.948730,4214.871582,4228.333496,4246.025879,4199.102539,4219.487305,4597.948730,4472.307617,4385.769043,4486.794922,5980.000000,4.000000,76.000000,,,,0.000000,4.000000,4.000000,4.000000,4.000000,4.000000,4.000000,4.000000,4.000000,4.000000,4.000000,4.000000,4.000000,4.000000,4.000000,100.000000,,,,,,,,,,,,,,,,,,,,,,,,,,,,
1703495735.440737,1703495735.441598,111.000000,0.000000,4215.641113,4236.282227,4301.666504,4308.205078,4216.794922,4216.538574,4228.333496,4242.820313,4199.487305,4223.974121,4598.717773,4470.641113,4391.025879,4487.436035,6250.000000,4.000000,76.000000,,,,0.000000,4.000000,4.000000,4.000000,4.000000,4.000000,4.000000,4.000000,4.000000,4.000000,4.000000,4.000000,4.000000,4.000000,4.000000,100.000000,,,,,,,,,,,,,,,,,,,,,,,,,,,,
1703495735.448545,1703495735.449506,112.000000,0.000000,4215.897461,4238.974121,4300.128418,4304.743652,4226.153809,4220.512695,4230.128418,4245.128418,4203.846191,4231.025879,4606.025879,4478.205078,4396.922852,4492.051270,6661.000000,4.000000,76.000000,,,,0.000000,4.000000,4.000000,4.000000,4.000000,4.000000,4.000000,4.000000,4.000000,4.000000,4.000000,4.000000,4.000000,4.000000,4.000000,100.000000,,,,,,,,,,,,,,,,,28.000000,0.000000,0.671754,0.256653,-0.662781,0.208801,0.999634,0.053717,-0.008302,-16.714081,-38.060329,63.581318
1703495735.456353,1703495735.457314,113.000000,0.000000,4218.205078,4239.230957,4305.128418,4304.230957,4233.205078,4222.051270,4232.820313,4251.282227,4205.384766,4238.205078,4613.974121,4481.153809,4402.051270,4498.461426,5970.000000,4.000000,76.000000,,,,0.000000,4.000000,4.000000,4.000000,4.000000,4.000000,4.000000,4.000000,4.000000,4.000000,4.000000,4.000000,4.000000,4.000000,4.000000,100.000000,,,,,,,,,,,,,,,,,,,,,,,,,,,,
1703495735.464162,1703495735.465222,114.000000,0.000000,4212.692383,4232.051270,4304.102539,4309.743652,4221.538574,4217.820313,4231.922852,4251.025879,4202.436035,4229.615234,4604.743652,4475.769043,4396.666504,4494.743652,5980.000000,4.000000,76.000000,,,,0.000000,4.000000,4.000000,4.000000,4.000000,4.000000,4.000000,4.000000,4.000000,4.000000,4.000000,4.000000,4.000000,4.000000,4.000000,100.000000,,,,,,,,,,,,,,,,,,,,,,,,,,,,
1703495735.471969,1703495735.473030,115.000000,0.000000,4208.589844,4233.846191,4302.948730,4307.436035,4215.000000,4216.282227,4229.487305,4246.666504,4198.333496,4221.153809,4591.794922,4470.769043,4374.615234,4479.743652,6250.000000,4.000000,76.000000,,,,0.000000,4.000000,4.000000,4.000000,4.000000,4.000000,4.000000,4.000000,4.000000,4.000000,4.000000,4.000000,4.000000,4.000000,4.000000,100.000000,,,,,,,,,,,,,,,,,,,,,,,,,,,,
1703495735.479777,1703495735.480938,116.000000,0.000000,4212.307617,4236.153809,4302.820313,4303.077148,4216.025879,4208.461426,4226.666504,4246.666504,4196.153809,4223.589844,4590.256348,4471.410156,4353.589844,4472.436035,6661.000000,4.000000,76.000000,,,,0.000000,4.000000,4.000000,4.000000,4.000000,4.000000,4.000000,4.000000,4.000000,4.000000,4.000000,4.000000,4.000000,4.000000,4.000000,100.000000,,,,,,,,,,,,,,,,,29.000000,0.000000,0.671839,0.256836,-0.662720,0.208496,0.992797,0.078135,-0.013185,-16.726006,-37.954296,63.489853
1703495735.487585,1703495735.488745,117.000000,0.000000,4212.563965,4234.102539,4304.871582,4308.333496,4215.256348,4202.820313,4226.410156,4247.051270,4196.666504,4221.794922,4594.230957,4478.589844,4349.487305,4481.153809,5970.000000,4.000000,76.000000,,,,0.000000,4.000000,4.000000,4.000000,4.000000,4.000000,4.000000,4.000000,4.000000,4.000000,4.000000,4.000000,4.000000,4.000000,4.000000,100.000000,,,,,,,,,,,,,,,,,,,,,,,,,,,,
1703495735.495394,1703495735.496454,118.000000,0.000000,4216.410156,4242.948730,4313.461426,4315.000000,4222.948730,4208.077148,4230.512695,4247.820313,4198.077148,4217.051270,4609.358887,4488.333496,4364.358887,4497.692383,5980.000000,4.000000,76.000000,,,,0.000000,4.000000,4.000000,4.000000,4.000000,4.000000,4.000000,4.000000,4.000000,4.000000,4.000000,4.000000,4.000000,4.000000,4.000000,100.000000,,,,,,,,,,,,,,,,,,,,,,,,,,,,
1703495735.503202,1703495735.504262,119.000000,0.000000,4228.589844,4251.922852,4317.820313,4313.846191,4223.461426,4206.410156,4231.025879,4250.384766,4197.051270,4213.205078,4623.846191,4491.282227,4377.563965,4506.153809,6250.000000,4.000000,76.000000,,,,0.000000,4.000000,4.000000,4.000000,4.000000,4.000000,4.000000,4.000000,4.000000,4.000000,4.000000,4.000000,4.000000,4.000000,4.000000,100.000000,,,,,,,,,,,,,,,,,,,,,,,,,,,,
1703495735.511010,1703495735.511970,120.000000,0.000000,4230.641113,4248.974121,4315.897461,4313.974121,4216.922852,4198.717773,4229.230957,4251.153809,4195.897461,4211.922852,4618.333496,4492.051270,4374.615234,4502.820313,6661.000000,4.000000,76.000000,,,,0.000000,4.000000,4.000000,4.000000,4.000000,4.000000,4.000000,4.000000,4.000000,4.000000,4.000000,4.000000,4.000000,4.000000,4.000000,100.000000,,,,,,,,,,,,,,,,,30.000000,0.000000,0.671881,0.257080,-0.662659,0.208252,0.972775,0.069833,-0.012697,-16.853405,-37.992199,63.407536
1703495735.518818,1703495735.519778,121.000000,0.000000,4220.897461,4247.307617,4312.436035,4316.666504,4224.743652,4203.461426,4230.769043,4255.256348,4198.589844,4219.871582,4614.102539,4494.871582,4371.922852,4502.436035,5970.000000,4.000000,76.000000,,,,0.000000,4.000000,4.000000,4.000000,4.000000,4.000000,4.000000,4.000000,4.000000,4.000000,4.000000,4.000000,4.000000,4.000000,4.000000,100.000000,,,,,,,,,,,,,,,,,,,,,,,,,,,,
1703495735.526626,1703495735.527486,122.000000,0.000000,4216.538574,4248.077148,4307.307617,4313.077148,4231.666504,4216.538574,4231.794922,4273.461426,4201.538574,4242.692383,4623.717773,4494.871582,4382.820313,4507.563965,5980.000000,4.000000,76.000000,,,,0.000000,4.000000,4.000000,4.000000,4.000000,4.000000,4.000000,4.000000,4.000000,4.000000,4.000000,4.000000,4.000000,4.000000,4.000000,100.000000,,,,,,,,,,,,,,,,,,,,,,,,,,,,
1703495735.534434,1703495735.535294,123.000000,0.000000,4209.743652,4236.666504,4297.820313,4304.743652,4222.436035,4223.205078,4230.512695,4285.128418,4208.077148,4255.256348,4623.461426,4487.563965,4388.077148,4499.743652,6250.000000,4.000000,76.000000,,,,0.000000,4.000000,4.000000,4.000000,4.000000,4.000000,4.000000,4.000000,4.000000,4.000000,4.000000,4.000000,4.000000,4.000000,4.000000,100.000000,,,,,,,,,,,,,,,,,,,,,,,,,,,,
1703495735.542242,1703495735.543002,124.000000,0.000000,4196.666504,4231.282227,4287.563965,4304.871582,4224.230957,4228.974121,4232.307617,4273.717773,4216.666504,4243.846191,4611.282227,4478.333496,4382.563965,4485.769043,6661.000000,4.000000,76.000000,,,,0.000000,4.000000,4.000000,4.000000,4.000000,4.000000,4.000000,4.000000,4.000000,4.000000,4.000000,4.000000,4.000000,4.000000,4.000000,100.000000,,,,,,,,,,,,,,,,,31.000000,0.000000,0.671928,0.257263,-0.662598,0.208069,0.996704,0.077158,-0.014162,-16.734732,-38.126312,63.350117
1703495735.550050,1703495735.550810,125.000000,0.000000,4198.333496,4239.871582,4286.794922,4308.333496,4235.512695,4234.615234,4234.358887,4262.307617,4214.615234,4232.307617,4606.666504,4478.077148,4382.948730,4483.846191,5970.000000,4.000000,76.000000,,,,0.000000,4.000000,4.000000,4.000000,4.000000,4.000000,4.000000,4.000000,4.000000,4.000000,4.000000,4.000000,4.000000,4.000000,4.000000,100.000000,,,,,,,,,,,,,,,,,,,,,,,,,,,,
1703495735.557858,1703495735.558518,126.000000,0.000000,4209.871582,4243.589844,4295.256348,4305.256348,4230.384766,4228.717773,4232.179688,4262.307617,4205.256348,4230.641113,4607.307617,4480.128418,4388.846191,4490.897461,5980.000000,4.000000,76.000000,,,,0.000000,4.000000,4.000000,4.000000,4.000000,4.000000,4.000000,4.000000,4.000000,4.000000,4.000000,4.000000,4.000000,4.000000,4.000000,100.000000,,,,,,,,,,,,,,,,,,,,,,,,,,,,
1703495735.565666,1703495735.566426,127.000000,0.000000,4218.846191,4246.025879,4303.846191,4315.000000,4227.692383,4220.641113,4234.871582,4265.384766,4200.000000,4237.692383,4608.333496,4484.871582,4398.333496,4504.358887,76.000000,4.000000,76.000000,,,,0.000000,4.000000,4.000000,4.000000,4.000000,4.000000,4.000000,4.000000,4.000000,4.000000,4.000000,4.000000,4.000000,4.000000,4.000000,100.000000,,,,,,,,,,,,,,,,,,,,,,,,,,,,
1703495735.573474,1703495735.574234,0.000000,0.000000,4226.025879,4255.256348,4309.615234,4330.384766,4235.769043,4219.230957,4239.358887,4265.512695,4199.487305,4235.512695,4614.230957,4492.051270,4399.487305,4508.461426,4462.000000,4.000000,76.000000,,,,0.000000,4.000000,4.000000,4.000000,4.000000,4.000000,4.000000,4.000000,4.000000,4.000000,4.000000,4.000000,4.000000,4.000000,4.000000,100.000000,,,,,,,,,,,,,,,,,0.000000,0.000000,0.671849,0.257263,-0.662659,0.208130,0.993774,0.068856,-0.011232,-16.844591,-37.947014,63.265102
1703495735.581282,1703495735.582142,1.000000,0.000000,4233.461426,4259.743652,4313.205078,4327.948730,4234.102539,4218.461426,4235.897461,4263.717773,4198.333496,4223.333496,4626.666504,4494.615234,4399.871582,4507.179688,5694.000000,4.000000,76.000000,,,,0.000000,4.000000,4.000000,4.000000,4.000000,4.000000,4.000000,4.000000,4.000000,4.000000,4.000000,4.000000,4.000000,4.000000,4.000000,100.000000,,,,,,,,,,,,,,,,,,,,,,,,,,,,
1703495735.589090,1703495735.589950,2.000000,0.000000,4236.025879,4250.512695,4313.205078,4321.282227,4223.717773,4210.897461,4232.307617,4262.179688,4191.538574,4215.256348,4631.025879,4495.256348,4411.153809,4513.333496,5544.000000,4.000000,76.000000,,,,0.000000,4.000000,4.000000,4.000000,4.000000,4.000000,4.000000,4.000000,4.000000,4.000000,4.000000,4.000000,4.000000,4.000000,4.000000,100.000000,,,,,,,,,,,,,,,,,,,,,,,,,,,,
1703495735.596898,1703495735.597858,3.000000,0.000000,4233.205078,4245.897461,4311.282227,4323.717773,4221.794922,4201.025879,4233.333496,4260.128418,4185.256348,4220.384766,4624.743652,4499.487305,4416.922852,4517.563965,5534.000000,4.000000,76.000000,,,,0.000000,4.000000,4.000000,4.000000,4.000000,4.000000,4.000000,4.000000,4.000000,4.000000,4.000000,4.000000,4.000000,4.000000,4.000000,100.000000,,,,,,,,,,,,,,,,,,,,,,,,,,,,
1703495735.604706,1703495735.605666,4.000000,0.000000,4225.897461,4245.897461,4305.256348,4320.512695,4221.666504,4194.743652,4230.512695,4259.230957,4191.410156,4225.384766,4617.820313,4496.538574,4405.000000,4505.897461,5384.000000,4.000000,76.000000,,,,0.000000,4.000000,4.000000,4.000000,4.000000,4.000000,4.000000,4.000000,4.000000,4.000000,4.000000,4.000000,4.000000,4.000000,4.000000,100.000000,,,,,,,,,,,,,,,,,1.000000,0.000000,0.671849,0.257263,-0.662659,0.208130,0.990844,0.065438,-0.005860,-16.776798,-37.918980,63.305260
1703495735.612514,1703495735.613474,5.000000,0.000000,4214.102539,4236.282227,4299.487305,4307.179688,4214.358887,4194.743652,4227.436035,4259.358887,4201.025879,4216.282227,4604.487305,4483.205078,4389.487305,4484.743652,4879.000000,4.000000,76.000000,,,,0.000000,4.000000,4.000000,4.000000,4.000000,4.000000,4.000000,4.000000,4.000000,4.000000,4.000000,4.000000,4.000000,4.000000,4.000000,100.000000,,,,,,,,,,,,,,,,,,,,,,,,,,,,
1703495735.620322,1703495735.621182,6.000000,0.000000,4206.794922,4230.128418,4297.307617,4304.743652,4220.512695,4207.436035,4231.282227,4263.846191,4201.282227,4217.948730,4595.384766,4477.179688,4390.512695,4478.846191,3522.000000,4.000000,76.000000,,,,0.000000,4.000000,4.000000,4.000000,4.000000,4.000000,4.000000,4.000000,4.000000,4.000000,4.000000,4.000000,4.000000,4.000000,4.000000,100.000000,,,,,,,,,,,,,,,,,,,,,,,,,,,,
1703495735.628130,1703495735.629090,7.000000,0.000000,4204.230957,4227.948730,4293.205078,4303.717773,4229.615234,4218.333496,4232.563965,4267.948730,4202.820313,4225.256348,4597.179688,4477.563965,4392.179688,4481.410156,3537.000000,4.000000,76.000000,,,,0.000000,4.000000,4.000000,4.000000,4.000000,4.000000,4.000000,4.000000,4.000000,4.000000,4.000000,4.000000,4.000000,4.000000,4.000000,100.000000,,,,,,,,,,,,,,,,,,,,,,,,,,,,
1703495735.635938,1703495735.636898,8.000000,0.000000,4197.179688,4218.974121,4287.051270,4290.897461,4219.102539,4217.820313,4229.102539,4266.025879,4212.051270,4221.153809,4598.717773,4473.589844,4386.922852,4474.743652,2348.000000,4.000000,76.000000,,,,0.000000,4.000000,4.000000,4.000000,4.000000,4.000000,4.000000,4.000000,4.000000,4.000000,4.000000,4.000000,4.000000,4.000000,4.000000,100.000000,,,,,,,,,,,,,,,,,2.000000,0.000000,0.671779,0.257141,-0.662720,0.208313,0.986937,0.065926,-0.011232,-16.815786,-37.960415,63.191399
1703495735.643746,1703495735.644805,9.000000,0.000000,4196.025879,4217.051270,4287.436035,4292.436035,4217.051270,4223.333496,4231.025879,4267.051270,4217.563965,4219.615234,4598.333496,4473.205078,4391.282227,4474.871582,5786.000000,4.000000,76.000000,,,,0.000000,4.000000,4.000000,4.000000,4.000000,4.000000,4.000000,4.000000,4.000000,4.000000,4.000000,4.000000,4.000000,4.000000,4.000000,100.000000,,,,,,,,,,,,,,,,,,,,,,,,,,,,
1703495735.651554,1703495735.652613,10.000000,0.000000,4212.307617,4231.153809,4298.846191,4310.641113,4235.000000,4235.128418,4233.974121,4273.077148,4211.794922,4233.974121,4601.666504,4488.077148,4404.230957,4489.743652,5985.000000,4.000000,76.000000,,,,0.000000,4.000000,4.000000,4.000000,4.000000,4.000000,4.000000,4.000000,4.000000,4.000000,4.000000,4.000000,4.000000,4.000000,4.000000,100.000000,,,,,,,,,,,,,,,,,,,,,,,,,,,,
1703495735.659362,1703495735.660521,11.000000,0.000000,4227.820313,4243.461426,4305.512695,4315.000000,4238.974121,4234.102539,4234.487305,4270.512695,4203.461426,4244.487305,4611.538574,4498.589844,4410.897461,4500.641113,6247.000000,4.000000,76.000000,,,,0.000000,4.000000,4.000000,4.000000,4.000000,4.000000,4.000000,4.000000,4.000000,4.000000,4.000000,4.000000,4.000000,4.000000,4.000000,100.000000,,,,,,,,,,,,,,,,,,,,,,,,,,,,
1703495735.667170,1703495735.668329,12.000000,0.000000,4231.922852,4246.922852,4308.205078,4312.948730,4231.410156,4223.974121,4239.102539,4262.307617,4202.051270,4235.769043,4618.461426,4495.256348,4412.179688,4505.256348,6674.000000,4.000000,76.000000,,,,0.000000,4.000000,4.000000,4.000000,4.000000,4.000000,4.000000,4.000000,4.000000,4.000000,4.000000,4.000000,4.000000,4.000000,4.000000,100.000000,,,,,,,,,,,,,,,,,3.000000,0.000000,0.671759,0.257202,-0.662659,0.208496,0.986937,0.070321,-0.014162,-16.934208,-37.997707,63.222260
1703495735.674978,1703495735.676237,13.000000,0.000000,4240.384766,4250.256348,4315.769043,4322.948730,4232.563965,4219.743652,4240.769043,4259.871582,4202.307617,4224.487305,4618.974121,4494.871582,4417.692383,4515.769043,5965.000000,4.000000,76.000000,,,,0.000000,4.000000,4.000000,4.000000,4.000000,4.000000,4.000000,4.000000,4.000000,4.000000,4.000000,4.000000,4.000000,4.000000,4.000000,100.000000,,,,,,,,,,,,,,,,,,,,,,,,,,,,
1703495735.682787,1703495735.684045,14.000000,0.000000,4250.256348,4256.794922,4318.333496,4330.256348,4233.205078,4216.922852,4236.025879,4258.974121,4199.743652,4224.615234,4622.692383,4496.538574,4422.692383,4523.589844,5985.000000,4.000000,76.000000,,,,0.000000,4.000000,4.000000,4.000000,4.000000,4.000000,4.000000,4.000000,4.000000,4.000000,4.000000,4.000000,4.000000,4.000000,4.000000,100.000000,,,,,,,,,,,,,,,,,,,,,,,,,,,,
1703495735.690595,1703495735.691753,15.000000,0.000000,4254.358887,4264.743652,4321.025879,4326.794922,4230.769043,4213.205078,4236.282227,4261.538574,4201.794922,4239.358887,4635.897461,4507.948730,4434.102539,4533.461426,6247.000000,4.000000,76.000000,,,,0.000000,4.000000,4.000000,4.000000,4.000000,4.000000,4.000000,4.000000,4.000000,4.000000,4.000000,4.000000,4.000000,4.000000,4.000000,100.000000,,,,,,,,,,,,,,,,,,,,,,,,,,,,
1703495735.698403,1703495735.699661,16.000000,0.000000,4262.948730,4268.589844,4328.846191,4328.077148,4234.230957,4214.230957,4239.102539,4267.307617,4204.743652,4250.256348,4647.820313,4521.410156,4450.897461,4551.922852,0.000000,4.000000,76.000000,,,,0.000000,4.000000,4.000000,4.000000,4.000000,4.000000,4.000000,4.000000,4.000000,4.000000,4.000000,4.000000,4.000000,4.000000,4.000000,100.000000,,,,,,,,,,,,,,,,,4.000000,0.000000,0.671778,0.257202,-0.662659,0.208435,0.996704,0.058601,-0.012697,-17.090786,-37.981270,63.200035
1703495735.706210,1703495735.707470,17.000000,0.000000,4269.871582,4268.333496,4326.538574,4331.410156,4235.641113,4215.769043,4237.179688,4273.333496,4201.410156,4248.333496,4651.153809,4518.077148,4452.051270,4558.974121,0.000000,4.000000,76.000000,,,,0.000000,4.000000,4.000000,4.000000,4.000000,4.000000,4.000000,4.000000,4.000000,4.000000,4.000000,4.000000,4.000000,4.000000,4.000000,100.000000,,,,,,,,,,,,,,,,,,,,,,,,,,,,
1703495735.714019,1703495735.715278,18.000000,0.000000,4252.563965,4260.384766,4311.282227,4319.871582,4224.102539,4211.282227,4232.820313,4275.512695,4199.102539,4237.563965,4641.025879,4502.820313,4432.307617,4539.487305,0.000000,4.000000,76.000000,,,,0.000000,4.000000,4.000000,4.000000,4.000000,4.000000,4.000000,4.000000,4.000000,4.000000,4.000000,4.000000,4.000000,4.000000,4.000000,100.000000,,,,,,,,,,,,,,,,,,,,,,,,,,,,
1703495735.721827,1703495735.722986,19.000000,0.000000,4226.282227,4245.512695,4297.692383,4302.820313,4216.794922,4211.538574,4231.410156,4269.230957,4202.563965,4219.102539,4618.205078,4488.846191,4412.948730,4512.051270,0.000000,4.000000,76.000000,,,,0.000000,4.000000,4.000000,4.000000,4.000000,4.000000,4.000000,4.000000,4.000000,4.000000,4.000000,4.000000,4.000000,4.000000,4.000000,100.000000,,,,,,,,,,,,,,,,,,,,,,,,,,,,
1703495735.729635,1703495735.730794,20.000000,0.000000,4210.256348,4231.794922,4287.948730,4292.051270,4220.769043,4220.641113,4231.922852,4263.461426,4204.871582,4212.179688,4595.769043,4480.128418,4403.205078,4493.461426,0.000000,4.000000,76.000000,,,,0.000000,4.000000,4.000000,4.000000,4.000000,4.000000,4.000000,4.000000,4.000000,4.000000,4.000000,4.000000,4.000000,4.000000,4.000000,100.000000,,,,,,,,,,,,,,,,,5.000000,0.000000,0.671788,0.257019,-0.662720,0.208435,0.992797,0.071298,-0.013185,-17.015041,-37.883144,63.146698
1703495735.737443,1703495735.738502,21.000000,0.000000,4193.846191,4220.256348,4280.128418,4281.410156,4221.025879,4222.563965,4232.563965,4265.512695,4203.846191,4216.153809,4582.563965,4475.384766,4398.205078,4482.436035,0.000000,4.000000,76.000000,,,,0.000000,4.000000,4.000000,4.000000,4.000000,4.000000,4.000000,4.000000,4.000000,4.000000,4.000000,4.000000,4.000000,4.000000,4.000000,100.000000,,,,,,,,,,,,,,,,,,,,,,,,,,,,
1703495735.745251,1703495735.746309,22.000000,0.000000,4180.384766,4210.256348,4278.974121,4272.179688,4216.666504,4218.717773,4231.410156,4266.153809,4203.974121,4208.205078,4582.436035,4470.641113,4389.743652,4472.948730,0.000000,4.000000,76.000000,,,,0.000000,4.000000,4.000000,4.000000,4.000000,4.000000,4.000000,4.000000,4.000000,4.000000,4.000000,4.000000,4.000000,4.000000,4.000000,100.000000,,,,,,,,,,,,,,,,,,,,,,,,,,,,
1703495735.753059,1703495735.754017,23.000000,0.000000,4182.563965,4212.563965,4282.051270,4277.692383,4216.666504,4218.461426,4229.743652,4257.436035,4204.230957,4188.589844,4579.871582,4466.666504,4375.384766,4458.974121,0.000000,4.000000,76.000000,,,,0.000000,4.000000,4.000000,4.000000,4.000000,4.000000,4.000000,4.000000,4.000000,4.000000,4.000000,4.000000,4.000000,4.000000,4.000000,100.000000,,,,,,,,,,,,,,,,,,,,,,,,,,,,
1703495735.760867,1703495735.761825,24.000000,0.000000,4197.692383,4225.897461,4286.282227,4291.666504,4217.307617,4217.692383,4230.128418,4251.153809,4202.563965,4188.205078,4577.436035,4472.307617,4377.692383,4459.615234,0.000000,4.000000,76.000000,,,,0.000000,4.000000,4.000000,4.000000,4.000000,4.000000,4.000000,4.000000,4.000000,4.000000,4.000000,4.000000,4.000000,4.000000,4.000000,100.000000,,,,,,,,,,,,,,,,,6.000000,0.000000,0.671746,0.257019,-0.662781,0.208374,0.984007,0.061531,-0.011232,-16.896870,-37.794830,63.215363
1703495735.768675,1703495735.769533,25.000000,0.000000,4211.410156,4234.230957,4292.563965,4294.615234,4216.410156,4214.615234,4231.282227,4254.230957,4200.512695,4208.589844,4585.897461,4482.179688,4394.102539,4480.256348,0.000000,4.000000,76.000000,,,,0.000000,4.000000,4.000000,4.000000,4.000000,4.000000,4.000000,4.000000,4.000000,4.000000,4.000000,4.000000,4.000000,4.000000,4.000000,100.000000,,,,,,,,,,,,,,,,,,,,,,,,,,,,
1703495735.776483,1703495735.777340,26.000000,0.000000,4221.410156,4239.615234,4301.794922,4294.615234,4223.333496,4214.230957,4233.589844,4253.846191,4200.897461,4221.025879,4591.666504,4488.974121,4401.410156,4495.641113,0.000000,4.000000,76.000000,,,,0.000000,4.000000,4.000000,4.000000,4.000000,4.000000,4.000000,4.000000,4.000000,4.000000,4.000000,4.000000,4.000000,4.000000,4.000000,100.000000,,,,,,,,,,,,,,,,,,,,,,,,,,,,
1703495735.784291,1703495735.785048,27.000000,0.000000,4231.922852,4248.205078,4310.769043,4303.846191,4231.538574,4213.205078,4235.641113,4248.077148,4203.205078,4218.333496,4592.563965,4494.487305,4407.436035,4502.179688,0.000000,4.000000,76.000000,,,,0.000000,4.000000,4.000000,4.000000,4.000000,4.000000,4.000000,4.000000,4.000000,4.000000,4.000000,4.000000,4.000000,4.000000,4.000000,100.000000,,,,,,,,,,,,,,,,,,,,,,,,,,,,
1703495735.792099,1703495735.792956,28.000000,0.000000,4238.077148,4254.102539,4316.153809,4309.487305,4231.794922,4212.692383,4234.743652,4253.077148,4202.820313,4215.641113,4601.666504,4500.128418,4419.743652,4513.077148,0.000000,4.000000,76.000000,,,,0.000000,4.000000,4.000000,4.000000,4.000000,4.000000,4.000000,4.000000,4.000000,4.000000,4.000000,4.000000,4.000000,4.000000,4.000000,100.000000,,,,,,,,,,,,,,,,,7.000000,0.000000,0.671643,0.257141,-0.662781,0.208557,0.988890,0.056159,-0.026370,-16.973850,-37.848679,63.243824
1703495735.799907,1703495735.800764,29.000000,0.000000,4238.974121,4251.666504,4313.846191,4300.641113,4228.974121,4213.717773,4233.461426,4264.358887,4201.153809,4224.230957,4611.025879,4502.692383,4426.410156,4521.922852,0.000000,4.000000,76.000000,,,,0.000000,4.000000,4.000000,4.000000,4.000000,4.000000,4.000000,4.000000,4.000000,4.000000,4.000000,4.000000,4.000000,4.000000,4.000000,100.000000,,,,,,,,,,,,,,,,,,,,,,,,,,,,
1703495735.807715,1703495735.808672,30.000000,0.000000,4238.589844,4248.077148,4305.384766,4293.974121,4230.256348,4216.282227,4240.000000,4267.051270,4206.922852,4230.000000,4614.487305,4501.025879,4429.487305,4524.487305,0.000000,4.000000,76.000000,,,,0.000000,4.000000,4.000000,4.000000,4.000000,4.000000,4.000000,4.000000,4.000000,4.000000,4.000000,4.000000,4.000000,4.000000,4.000000,100.000000,,,,,,,,,,,,,,,,,,,,,,,,,,,,
1703495735.815523,1703495735.816480,31.000000,0.000000,4239.487305,4250.641113,4303.461426,4299.487305,4235.128418,4225.897461,4245.256348,4266.153809,4214.743652,4227.948730,4617.692383,4501.922852,4432.948730,4527.179688,0.000000,4.000000,76.000000,,,,0.000000,4.000000,4.000000,4.000000,4.000000,4.000000,4.000000,4.000000,4.000000,4.000000,4.000000,4.000000,4.000000,4.000000,4.000000,100.000000,,,,,,,,,,,,,,,,,,,,,,,,,,,,
1703495735.823331,1703495735.824388,32.000000,0.000000,4236.410156,4249.615234,4301.153809,4296.666504,4230.512695,4232.436035,4237.820313,4269.230957,4215.769043,4224.358887,4610.384766,4499.102539,4431.666504,4523.333496,0.000000,4.000000,76.000000,,,,0.000000,4.000000,4.000000,4.000000,4.000000,4.000000,4.000000,4.000000,4.000000,4.000000,4.000000,4.000000,4.000000,4.000000,4.000000,100.000000,,,,,,,,,,,,,,,,,8.000000,0.000000,0.671577,0.257263,-0.662781,0.208618,0.992797,0.060554,-0.015627,-16.859798,-37.847145,63.269444
1703495735.831139,1703495735.832196,33.000000,0.000000,4229.743652,4244.743652,4294.871582,4287.436035,4223.333496,4229.743652,4231.794922,4271.282227,4214.230957,4221.410156,4596.922852,4491.666504,4428.846191,4511.153809,0.000000,4.000000,76.000000,,,,0.000000,4.000000,4.000000,4.000000,4.000000,4.000000,4.000000,4.000000,4.000000,4.000000,4.000000,4.000000,4.000000,4.000000,4.000000,100.000000,,,,,,,,,,,,,,,,,,,,,,,,,,,,
1703495735.838947,1703495735.840104,34.000000,0.000000,4228.077148,4245.897461,4290.897461,4292.563965,4228.589844,4230.512695,4236.410156,4269.743652,4215.000000,4224.871582,4601.025879,4487.436035,4428.205078,4505.897461,0.000000,4.000000,76.000000,,,,0.000000,4.000000,4.000000,4.000000,4.000000,4.000000,4.000000,4.000000,4.000000,4.000000,4.000000,4.000000,4.000000,4.000000,4.000000,100.000000,,,,,,,,,,,,,,,,,,,,,,,,,,,,
1703495735.846755,1703495735.847912,35.000000,0.000000,4228.589844,4249.615234,4291.410156,4299.871582,4236.153809,4230.384766,4237.820313,4264.487305,4215.512695,4230.641113,4611.666504,4487.692383,4429.487305,4507.307617,0.000000,4.000000,76.000000,,,,0.000000,4.000000,4.000000,4.000000,4.000000,4.000000,4.000000,4.000000,4.000000,4.000000,4.000000,4.000000,4.000000,4.000000,4.000000,100.000000,,,,,,,,,,,,,,,,,,,,,,,,,,,,
1703495735.854563,1703495735.855820,36.000000,0.000000,4229.102539,4247.563965,4299.230957,4296.025879,4232.692383,4219.743652,4233.333496,4261.538574,4214.102539,4239.358887,4610.641113,4491.666504,4428.974121,4505.256348,0.000000,4.000000,76.000000,,,,0.000000,4.000000,4.000000,4.000000,4.000000,4.000000,4.000000,4.000000,4.000000,4.000000,4.000000,4.000000,4.000000,4.000000,4.000000,100.000000,,,,,,,,,,,,,,,,,9.000000,0.000000,0.671632,0.257385,-0.662659,0.208679,0.983030,0.061043,-0.008790,-17.157152,-37.812431,63.242496
1703495735.862371,1703495735.863627,37.000000,0.000000,4229.615234,4247.948730,4304.358887,4297.692383,4229.230957,4215.769043,4233.077148,4264.615234,4214.871582,4251.410156,4609.743652,4496.922852,4434.743652,4509.358887,0.000000,4.000000,76.000000,,,,0.000000,4.000000,4.000000,4.000000,4.000000,4.000000,4.000000,4.000000,4.000000,4.000000,4.000000,4.000000,4.000000,4.000000,4.000000,100.000000,,,,,,,,,,,,,,,,,,,,,,,,,,,,
1703495735.870179,1703495735.871336,38.000000,0.000000,4232.307617,4251.538574,4305.128418,4302.436035,4233.077148,4218.205078,4235.769043,4266.922852,4213.333496,4248.846191,4618.717773,4503.077148,4445.384766,4524.358887,0.000000,4.000000,76.000000,,,,0.000000,4.000000,4.000000,4.000000,4.000000,4.000000,4.000000,4.000000,4.000000,4.000000,4.000000,4.000000,4.000000,4.000000,4.000000,100.000000,,,,,,,,,,,,,,,,,,,,,,,,,,,,
1703495735.877988,1703495735.879144,39.000000,0.000000,4240.128418,4248.333496,4308.461426,4297.051270,4230.897461,4215.641113,4233.461426,4265.641113,4205.897461,4234.743652,4616.538574,4507.563965,4441.153809,4524.358887,0.000000,4.000000,76.000000,,,,0.000000,4.000000,4.000000,4.000000,4.000000,4.000000,4.000000,4.000000,4.000000,4.000000,4.000000,4.000000,4.000000,4.000000,4.000000,100.000000,,,,,,,,,,,,,,,,,,,,,,,,,,,,
1703495735.885795,1703495735.886852,40.000000,0.000000,4243.333496,4245.256348,4309.871582,4296.538574,4226.153809,4219.871582,4233.589844,4263.077148,4201.282227,4235.000000,4603.589844,4505.512695,4429.102539,4510.641113,0.000000,4.000000,76.000000,,,,0.000000,4.000000,4.000000,4.000000,4.000000,4.000000,4.000000,4.000000,4.000000,4.000000,4.000000,4.000000,4.000000,4.000000,4.000000,100.000000,,,,,,,,,,,,,,,,,10.000000,0.000000,0.671651,0.257385,-0.662659,0.208618,1.002075,0.068856,-0.013674,-17.208103,-37.814522,63.384914
1703495735.893603,1703495735.894660,41.000000,0.000000,4237.692383,4248.974121,4306.282227,4303.205078,4233.077148,4231.410156,4241.282227,4260.384766,4207.307617,4240.000000,4600.641113,4502.051270,4428.205078,4508.333496,0.000000,4.000000,76.000000,,,,0.000000,4.000000,4.000000,4.000000,4.000000,4.000000,4.000000,4.000000,4.000000,4.000000,4.000000,4.000000,4.000000,4.000000,4.000000,100.000000,,,,,,,,,,,,,,,,,,,,,,,,,,,,
1703495735.901412,1703495735.902368,42.000000,0.000000,4229.743652,4248.717773,4298.205078,4299.871582,4240.769043,4241.153809,4246.538574,4257.948730,4215.512695,4226.153809,4601.666504,4496.282227,4429.743652,4511.410156,0.000000,4.000000,76.000000,,,,0.000000,4.000000,4.000000,4.000000,4.000000,4.000000,4.000000,4.000000,4.000000,4.000000,4.000000,4.000000,4.000000,4.000000,4.000000,100.000000,1.000000,75.000000,4.000000,4.000000,4.000000,4.000000,3.000000,3.000000,4.000000,4.000000,4.000000,4.000000,3.000000,4.000000,4.000000,3.000000,,,,,,,,,,,,
1703495735.909220,1703495735.910176,43.000000,0.000000,4229.743652,4240.769043,4293.589844,4288.974121,4234.743652,4245.384766,4245.256348,4257.820313,4215.897461,4218.717773,4597.307617,4492.051270,4422.436035,4506.282227,0.000000,4.000000,76.000000,,,,0.000000,4.000000,4.000000,4.000000,4.000000,4.000000,4.000000,4.000000,4.000000,4.000000,4.000000,4.000000,4.000000,4.000000,4.000000,100.000000,,,,,,,,,,,,,,,,,,,,,,,,,,,,
1703495735.917028,1703495735.917884,44.000000,0.000000,4231.538574,4238.077148,4296.922852,4286.025879,4231.794922,4241.538574,4241.538574,4261.153809,4214.102539,4227.563965,4596.282227,4496.025879,4419.615234,4505.512695,0.000000,4.000000,76.000000,,,,0.000000,4.000000,4.000000,4.000000,4.000000,4.000000,4.000000,4.000000,4.000000,4.000000,4.000000,4.000000,4.000000,4.000000,4.000000,100.000000,,,,,,,,,,,,,,,,,11.000000,0.000000,0.671768,0.257385,-0.662598,0.208435,0.987914,0.061531,-0.017580,-17.287292,-37.866402,63.429756
1703495735.924836,1703495735.925692,45.000000,0.000000,4223.589844,4241.794922,4298.077148,4287.948730,4238.717773,4234.358887,4238.846191,4255.897461,4214.230957,4226.282227,4593.974121,4496.922852,4417.820313,4504.487305,0.000000,4.000000,76.000000,,,,0.000000,4.000000,4.000000,4.000000,4.000000,4.000000,4.000000,4.000000,4.000000,4.000000,4.000000,4.000000,4.000000,4.000000,4.000000,100.000000,,,,,,,,,,,,,,,,,,,,,,,,,,,,
1703495735.932644,1703495735.933399,46.000000,0.000000,4221.538574,4243.589844,4298.205078,4293.974121,4234.743652,4235.512695,4241.282227,4243.461426,4214.102539,4212.307617,4580.769043,4489.743652,4405.769043,4493.589844,0.000000,4.000000,76.000000,,,,0.000000,4.000000,4.000000,4.000000,4.000000,4.000000,4.000000,4.000000,4.000000,4.000000,4.000000,4.000000,4.000000,4.000000,4.000000,100.000000,,,,,,,,,,,,,,,,,,,,,,,,,,,,
1703495735.940452,1703495735.941207,47.000000,0.000000,4237.820313,4253.717773,4307.436035,4307.436035,4232.692383,4240.897461,4247.179688,4244.487305,4213.205078,4214.230957,4580.897461,4491.025879,4407.051270,4496.538574,0.000000,4.000000,76.000000,,,,0.000000,4.000000,4.000000,4.000000,4.000000,4.000000,4.000000,4.000000,4.000000,4.000000,4.000000,4.000000,4.000000,4.000000,4.000000,100.000000,,,,,,,,,,,,,,,,,,,,,,,,,,,,
1703495735.948260,1703495735.948915,48.000000,0.000000,4254.102539,4265.769043,4318.077148,4315.512695,4244.230957,4235.897461,4248.717773,4256.410156,4212.563965,4230.256348,4603.974121,4506.666504,4425.897461,4520.897461,0.000000,4.000000,76.000000,,,,0.000000,4.000000,4.000000,4.000000,4.000000,4.000000,4.000000,4.000000,4.000000,4.000000,4.000000,4.000000,4.000000,4.000000,4.000000,100.000000,,,,,,,,,,,,,,,,,12.000000,0.000000,0.671815,0.257263,-0.662598,0.208435,0.986449,0.069833,-0.013185,-17.358564,-38.113094,63.303448
1703495735.956068,1703495735.956823,49.000000,0.000000,4254.871582,4264.743652,4321.282227,4314.615234,4248.077148,4227.692383,4248.333496,4261.922852,4205.769043,4234.743652,4615.512695,4519.871582,4434.615234,4538.077148,0.000000,4.000000,76.000000,,,,0.000000,4.000000,4.000000,4.000000,4.000000,4.000000,4.000000,4.000000,4.000000,4.000000,4.000000,4.000000,4.000000,4.000000,4.000000,100.000000,,,,,,,,,,,,,,,,,,,,,,,,,,,,
1703495735.963876,1703495735.964631,50.000000,0.000000,4260.128418,4269.230957,4318.974121,4319.102539,4245.897461,4228.333496,4250.897461,4259.871582,4198.974121,4230.641113,4606.282227,4517.948730,4428.717773,4532.563965,0.000000,4.000000,76.000000,,,,0.000000,4.000000,4.000000,4.000000,4.000000,4.000000,4.000000,4.000000,4.000000,4.000000,4.000000,4.000000,4.000000,4.000000,4.000000,100.000000,,,,,,,,,,,,,,,,,,,,,,,,,,,,
1703495735.971684,1703495735.972539,51.000000,0.000000,4263.333496,4276.538574,4321.025879,4323.846191,4246.410156,4233.205078,4248.846191,4259.487305,4205.769043,4235.000000,4608.589844,4513.717773,4428.717773,4523.461426,0.000000,4.000000,76.000000,,,,0.000000,4.000000,4.000000,4.000000,4.000000,4.000000,4.000000,4.000000,4.000000,4.000000,4.000000,4.000000,4.000000,4.000000,4.000000,100.000000,,,,,,,,,,,,,,,,,,,,,,,,,,,,
1703495735.979492,1703495735.980347,52.000000,0.000000,4254.358887,4269.615234,4323.589844,4323.974121,4248.205078,4237.692383,4249.230957,4268.974121,4220.897461,4249.743652,4627.051270,4520.641113,4438.205078,4531.794922,0.000000,4.000000,76.000000,,,,0.000000,4.000000,4.000000,4.000000,4.000000,4.000000,4.000000,4.000000,4.000000,4.000000,4.000000,4.000000,4.000000,4.000000,4.000000,100.000000,,,,,,,,,,,,,,,,,13.000000,0.000000,0.671829,0.257324,-0.662598,0.208313,0.987914,0.064949,-0.014650,-17.522707,-38.251785,63.239769
1703495735.987300,1703495735.988255,53.000000,0.000000,4252.820313,4267.820313,4322.563965,4329.230957,4255.769043,4247.820313,4261.025879,4281.538574,4223.846191,4264.743652,4632.179688,4528.205078,4443.846191,4537.820313,0.000000,4.000000,76.000000,,,,0.000000,4.000000,4.000000,4.000000,4.000000,4.000000,4.000000,4.000000,4.000000,4.000000,4.000000,4.000000,4.000000,4.000000,4.000000,100.000000,,,,,,,,,,,,,,,,,,,,,,,,,,,,
1703495735.995108,1703495735.996063,54.000000,0.000000,4257.307617,4276.153809,4320.769043,4333.205078,4267.436035,4260.512695,4267.051270,4283.077148,4220.897461,4263.333496,4625.641113,4527.051270,4446.538574,4530.384766,0.000000,4.000000,76.000000,,,,0.000000,4.000000,4.000000,4.000000,4.000000,4.000000,4.000000,4.000000,4.000000,4.000000,4.000000,4.000000,4.000000,4.000000,4.000000,100.000000,,,,,,,,,,,,,,,,,,,,,,,,,,,,
1703495736.002916,1703495736.003971,55.000000,0.000000,4257.820313,4276.922852,4319.358887,4331.025879,4272.820313,4270.000000,4265.256348,4278.333496,4226.922852,4259.615234,4628.974121,4525.000000,4446.794922,4526.025879,0.000000,4.000000,76.000000,,,,0.000000,4.000000,4.000000,4.000000,4.000000,4.000000,4.000000,4.000000,4.000000,4.000000,4.000000,4.000000,4.000000,4.000000,4.000000,100.000000,,,,,,,,,,,,,,,,,,,,,,,,,,,,
1703495736.010724,1703495736.011779,56.000000,0.000000,4257.692383,4275.384766,4320.641113,4334.615234,4276.922852,4282.563965,4273.846191,4276.922852,4232.563965,4267.948730,4628.717773,4525.512695,4441.282227,4523.333496,0.000000,4.000000,76.000000,,,,0.000000,4.000000,4.000000,4.000000,4.000000,4.000000,4.000000,4.000000,4.000000,4.000000,4.000000,4.000000,4.000000,4.000000,4.000000,100.000000,,,,,,,,,,,,,,,,,14.000000,0.000000,0.671857,0.257507,-0.662537,0.208191,0.995727,0.063973,-0.010255,-17.520437,-38.193272,63.332458
1703495736.018532,1703495736.019687,57.000000,0.000000,4261.025879,4282.948730,4324.358887,4341.025879,4281.794922,4294.358887,4278.846191,4279.358887,4232.948730,4278.974121,4630.000000,4531.666504,4447.820313,4527.179688,0.000000,4.000000,76.000000,,,,0.000000,4.000000,4.000000,4.000000,4.000000,4.000000,4.000000,4.000000,4.000000,4.000000,4.000000,4.000000,4.000000,4.000000,4.000000,100.000000,,,,,,,,,,,,,,,,,,,,,,,,,,,,
1703495736.026340,1703495736.027495,58.000000,0.000000,4267.307617,4289.615234,4325.769043,4341.922852,4278.717773,4291.153809,4272.051270,4287.051270,4227.820313,4280.897461,4644.102539,4537.051270,4468.333496,4545.128418,0.000000,4.000000,76.000000,,,,0.000000,4.000000,4.000000,4.000000,4.000000,4.000000,4.000000,4.000000,4.000000,4.000000,4.000000,4.000000,4.000000,4.000000,4.000000,100.000000,,,,,,,,,,,,,,,,,,,,,,,,,,,,
1703495736.034148,1703495736.035403,59.000000,0.000000,4275.128418,4290.256348,4326.538574,4340.769043,4274.487305,4283.461426,4272.563965,4291.410156,4220.256348,4272.563965,4639.615234,4537.436035,4467.692383,4549.871582,0.000000,4.000000,76.000000,,,,0.000000,4.000000,4.000000,4.000000,4.000000,4.000000,4.000000,4.000000,4.000000,4.000000,4.000000,4.000000,4.000000,4.000000,4.000000,100.000000,,,,,,,,,,,,,,,,,,,,,,,,,,,,
1703495736.041956,1703495736.043211,60.000000,0.000000,4284.615234,4295.641113,4331.153809,4349.102539,4284.743652,4288.846191,4281.410156,4285.256348,4216.410156,4269.743652,4631.153809,4539.358887,4458.717773,4546.538574,0.000000,4.000000,76.000000,,,,0.000000,4.000000,4.000000,4.000000,4.000000,4.000000,4.000000,4.000000,4.000000,4.000000,4.000000,4.000000,4.000000,4.000000,4.000000,100.000000,,,,,,,,,,,,,,,,,15.000000,0.000000,0.671894,0.257568,-0.662476,0.208191,0.995727,0.066414,-0.021975,-17.535059,-38.240612,63.465881
1703495736.049764,1703495736.051118,61.000000,0.000000,4296.282227,4309.487305,4338.846191,4363.846191,4297.948730,4293.205078,4284.358887,4287.436035,4218.589844,4277.051270,4654.743652,4547.820313,4479.102539,4567.436035,0.000000,4.000000,76.000000,,,,0.000000,4.000000,4.000000,4.000000,4.000000,4.000000,4.000000,4.000000,4.000000,4.000000,4.000000,4.000000,4.000000,4.000000,4.000000,100.000000,,,,,,,,,,,,,,,,,,,,,,,,,,,,
1703495736.057572,1703495736.058926,62.000000,0.000000,4301.282227,4315.641113,4344.102539,4367.563965,4296.410156,4283.077148,4282.820313,4295.000000,4226.025879,4280.769043,4674.358887,4554.230957,4495.897461,4586.922852,0.000000,4.000000,76.000000,,,,0.000000,4.000000,4.000000,4.000000,4.000000,4.000000,4.000000,4.000000,4.000000,4.000000,4.000000,4.000000,4.000000,4.000000,4.000000,100.000000,,,,,,,,,,,,,,,,,,,,,,,,,,,,
1703495736.065380,1703495736.066634,63.000000,0.000000,4300.641113,4314.230957,4345.384766,4364.358887,4293.461426,4278.077148,4281.666504,4292.051270,4226.282227,4282.948730,4665.128418,4551.794922,4492.692383,4581.922852,0.000000,4.000000,76.000000,,,,0.000000,4.000000,4.000000,4.000000,4.000000,4.000000,4.000000,4.000000,4.000000,4.000000,4.000000,4.000000,4.000000,4.000000,4.000000,100.000000,,,,,,,,,,,,,,,,,,,,,,,,,,,,
1703495736.073188,1703495736.074442,64.000000,0.000000,4307.692383,4322.307617,4348.589844,4372.307617,4296.666504,4277.051270,4281.538574,4288.077148,4218.974121,4286.410156,4660.256348,4550.512695,4491.410156,4576.666504,4460.000000,4.000000,76.000000,,,,0.000000,4.000000,4.000000,4.000000,4.000000,4.000000,4.000000,4.000000,4.000000,4.000000,4.000000,4.000000,4.000000,4.000000,4.000000,100.000000,,,,,,,,,,,,,,,,,16.000000,0.000000,0.672051,0.257629,-0.662292,0.208191,0.977658,0.072274,-0.009278,-17.498220,-38.333218,63.335960
1703495736.080996,1703495736.082151,65.000000,0.000000,4302.051270,4321.538574,4344.487305,4370.384766,4287.307617,4265.256348,4279.487305,4286.538574,4213.974121,4275.641113,4651.282227,4545.000000,4480.641113,4566.794922,5698.000000,4.000000,76.000000,,,,0.000000,4.000000,4.000000,4.000000,4.000000,4.000000,4.000000,4.000000,4.000000,4.000000,4.000000,4.000000,4.000000,4.000000,4.000000,100.000000,,,,,,,,,,,,,,,,,,,,,,,,,,,,
1703495736.088804,1703495736.089958,66.000000,0.000000,4282.307617,4308.333496,4330.128418,4356.794922,4273.589844,4261.922852,4274.487305,4280.000000,4214.487305,4259.230957,4632.179688,4531.922852,4467.436035,4553.589844,5542.000000,4.000000,76.000000,,,,0.000000,4.000000,4.000000,4.000000,4.000000,4.000000,4.000000,4.000000,4.000000,4.000000,4.000000,4.000000,4.000000,4.000000,4.000000,100.000000,,,,,,,,,,,,,,,,,,,,,,,,,,,,
1703495736.096613,1703495736.097667,67.000000,0.000000,4277.179688,4303.461426,4329.358887,4356.538574,4278.974121,4276.153809,4276.153809,4274.743652,4217.692383,4259.358887,4633.205078,4528.974121,4471.666504,4553.846191,5524.000000,4.000000,76.000000,,,,0.000000,4.000000,4.000000,4.000000,4.000000,4.000000,4.000000,4.000000,4.000000,4.000000,4.000000,4.000000,4.000000,4.000000,4.000000,100.000000,,,,,,,,,,,,,,,,,,,,,,,,,,,,
1703495736.104421,1703495736.105475,68.000000,0.000000,4274.358887,4301.538574,4333.846191,4360.512695,4292.307617,4288.461426,4281.282227,4280.512695,4225.897461,4269.871582,4643.333496,4535.384766,4473.589844,4554.487305,5382.000000,4.000000,76.000000,,,,0.000000,4.000000,4.000000,4.000000,4.000000,4.000000,4.000000,4.000000,4.000000,4.000000,4.000000,4.000000,4.000000,4.000000,4.000000,100.000000,,,,,,,,,,,,,,,,,17.000000,0.000000,0.671994,0.257629,-0.662292,0.208374,0.990844,0.065438,-0.015627,-17.365065,-38.299896,63.335697
1703495736.112229,1703495736.113183,69.000000,0.000000,4263.846191,4296.410156,4329.102539,4355.897461,4298.717773,4295.769043,4281.794922,4295.256348,4234.102539,4285.128418,4647.692383,4542.692383,4478.077148,4553.589844,4878.000000,4.000000,76.000000,,,,0.000000,4.000000,4.000000,4.000000,4.000000,4.000000,4.000000,4.000000,4.000000,4.000000,4.000000,4.000000,4.000000,4.000000,4.000000,100.000000,,,,,,,,,,,,,,,,,,,,,,,,,,,,
1703495736.120037,1703495736.120991,70.000000,0.000000,4260.769043,4295.000000,4324.743652,4353.333496,4292.820313,4297.307617,4280.000000,4302.692383,4232.307617,4294.743652,4653.717773,4543.717773,4492.051270,4559.487305,3520.000000,4.000000,76.000000,,,,0.000000,4.000000,4.000000,4.000000,4.000000,4.000000,4.000000,4.000000,4.000000,4.000000,4.000000,4.000000,4.000000,4.000000,4.000000,100.000000,,,,,,,,,,,,,,,,,,,,,,,,,,,,
1703495736.127845,1703495736.128698,71.000000,0.000000,4263.589844,4294.102539,4326.794922,4354.230957,4280.128418,4291.538574,4277.436035,4293.333496,4230.641113,4291.282227,4657.948730,4540.256348,4491.538574,4567.051270,3540.000000,4.000000,76.000000,,,,0.000000,4.000000,4.000000,4.000000,4.000000,4.000000,4.000000,4.000000,4.000000,4.000000,4.000000,4.000000,4.000000,4.000000,4.000000,100.000000,,,,,,,,,,,,,,,,,,,,,,,,,,,,
1703495736.135653,1703495736.136607,72.000000,0.000000,4269.102539,4297.692383,4333.077148,4355.256348,4281.794922,4291.025879,4279.871582,4289.871582,4231.282227,4299.487305,4665.128418,4547.051270,4493.846191,4574.743652,2336.000000,4.000000,76.000000,,,,0.000000,4.000000,4.000000,4.000000,4.000000,4.000000,4.000000,4.000000,4.000000,4.000000,4.000000,4.000000,4.000000,4.000000,4.000000,100.000000,,,,,,,,,,,,,,,,,18.000000,0.000000,0.672004,0.257446,-0.662354,0.208374,0.986937,0.054694,-0.006837,-17.428558,-38.169907,63.468792
1703495736.143461,1703495736.144415,73.000000,0.000000,4279.230957,4304.615234,4337.563965,4358.077148,4291.666504,4297.307617,4283.205078,4298.077148,4229.615234,4315.000000,4674.615234,4554.871582,4507.948730,4585.641113,5811.000000,4.000000,76.000000,,,,0.000000,4.000000,4.000000,4.000000,4.000000,4.000000,4.000000,4.000000,4.000000,4.000000,4.000000,4.000000,4.000000,4.000000,4.000000,100.000000,,,,,,,,,,,,,,,,,,,,,,,,,,,,
1703495736.151269,1703495736.152323,74.000000,0.000000,4282.179688,4300.769043,4337.436035,4358.461426,4287.563965,4294.358887,4280.256348,4295.769043,4227.820313,4301.794922,4669.230957,4552.436035,4502.179688,4588.205078,6010.000000,4.000000,76.000000,,,,0.000000,4.000000,4.000000,4.000000,4.000000,4.000000,4.000000,4.000000,4.000000,4.000000,4.000000,4.000000,4.000000,4.000000,4.000000,100.000000,,,,,,,,,,,,,,,,,,,,,,,,,,,,
1703495736.159077,1703495736.160131,75.000000,0.000000,4279.102539,4295.128418,4336.153809,4356.794922,4277.436035,4283.589844,4278.717773,4290.256348,4226.025879,4278.589844,4661.922852,4548.589844,4489.487305,4586.282227,6250.000000,4.000000,76.000000,,,,0.000000,4.000000,4.000000,4.000000,4.000000,4.000000,4.000000,4.000000,4.000000,4.000000,4.000000,4.000000,4.000000,4.000000,4.000000,100.000000,,,,,,,,,,,,,,,,,,,,,,,,,,,,
1703495736.166885,1703495736.168038,76.000000,0.000000,4281.282227,4295.769043,4337.051270,4357.563965,4279.743652,4278.333496,4281.794922,4293.717773,4221.410156,4277.948730,4662.307617,4547.051270,4493.974121,4587.692383,6680.000000,4.000000,76.000000,,,,0.000000,4.000000,4.000000,4.000000,4.000000,4.000000,4.000000,4.000000,4.000000,4.000000,4.000000,4.000000,4.000000,4.000000,4.000000,100.000000,,,,,,,,,,,,,,,,,19.000000,0.000000,0.671855,0.257324,-0.662476,0.208618,0.994750,0.073251,-0.008790,-17.435703,-38.236248,63.371914
1703495736.174693,1703495736.175846,77.000000,0.000000,4282.051270,4296.282227,4338.974121,4358.717773,4283.077148,4278.717773,4280.769043,4296.410156,4217.307617,4280.384766,4650.512695,4547.051270,4491.282227,4581.794922,5960.000000,4.000000,76.000000,,,,0.000000,4.000000,4.000000,4.000000,4.000000,4.000000,4.000000,4.000000,4.000000,4.000000,4.000000,4.000000,4.000000,4.000000,4.000000,100.000000,,,,,,,,,,,,,,,,,,,,,,,,,,,,
1703495736.182501,1703495736.183754,78.000000,0.000000,4281.025879,4299.743652,4337.179688,4358.205078,4280.256348,4277.948730,4277.563965,4295.000000,4221.538574,4274.615234,4644.615234,4544.871582,4482.820313,4576.538574,6010.000000,4.000000,76.000000,,,,0.000000,4.000000,4.000000,4.000000,4.000000,4.000000,4.000000,4.000000,4.000000,4.000000,4.000000,4.000000,4.000000,4.000000,4.000000,100.000000,,,,,,,,,,,,,,,,,,,,,,,,,,,,
1703495736.190309,1703495736.191562,79.000000,0.000000,4283.717773,4302.563965,4333.589844,4359.230957,4283.205078,4277.051270,4280.769043,4296.666504,4228.717773,4271.794922,4653.846191,4537.436035,4482.436035,4576.410156,6250.000000,4.000000,76.000000,,,,0.000000,4.000000,4.000000,4.000000,4.000000,4.000000,4.000000,4.000000,4.000000,4.000000,4.000000,4.000000,4.000000,4.000000,4.000000,100.000000,,,,,,,,,,,,,,,,,,,,,,,,,,,,
1703495736.198117,1703495736.199370,80.000000,0.000000,4278.333496,4299.358887,4329.871582,4358.846191,4286.538574,4278.077148,4279.743652,4303.205078,4230.128418,4278.589844,4654.871582,4537.692383,4484.615234,4572.820313,6680.000000,4.000000,76.000000,,,,0.000000,4.000000,4.000000,4.000000,4.000000,4.000000,4.000000,4.000000,4.000000,4.000000,4.000000,4.000000,4.000000,4.000000,4.000000,100.000000,,,,,,,,,,,,,,,,,20.000000,0.000000,0.671775,0.257385,-0.662476,0.208801,0.991332,0.062019,-0.016115,-17.558800,-38.129292,63.484722
1703495736.205925,1703495736.207078,81.000000,0.000000,4266.538574,4292.179688,4322.436035,4353.077148,4281.025879,4279.871582,4276.922852,4307.179688,4230.384766,4287.820313,4652.692383,4543.717773,4486.282227,4571.794922,5960.000000,4.000000,76.000000,,,,0.000000,4.000000,4.000000,4.000000,4.000000,4.000000,4.000000,4.000000,4.000000,4.000000,4.000000,4.000000,4.000000,4.000000,4.000000,100.000000,,,,,,,,,,,,,,,,,,,,,,,,,,,,
1703495736.213733,1703495736.214986,82.000000,0.000000,4259.743652,4283.461426,4320.384766,4344.487305,4272.436035,4280.769043,4276.666504,4305.384766,4231.794922,4283.589844,4650.256348,4538.589844,4480.128418,4564.487305,6010.000000,4.000000,76.000000,,,,0.000000,4.000000,4.000000,4.000000,4.000000,4.000000,4.000000,4.000000,4.000000,4.000000,4.000000,4.000000,4.000000,4.000000,4.000000,100.000000,,,,,,,,,,,,,,,,,,,,,,,,,,,,
1703495736.221541,1703495736.222794,83.000000,0.000000,4259.487305,4277.307617,4326.666504,4341.538574,4276.666504,4280.897461,4272.820313,4305.128418,4232.436035,4276.025879,4645.256348,4535.128418,4475.256348,4551.666504,6250.000000,4.000000,76.000000,,,,0.000000,4.000000,4.000000,4.000000,4.000000,4.000000,4.000000,4.000000,4.000000,4.000000,4.000000,4.000000,4.000000,4.000000,4.000000,100.000000,,,,,,,,,,,,,,,,,,,,,,,,,,,,
1703495736.229349,1703495736.230702,84.000000,0.000000,4260.000000,4278.589844,4324.487305,4341.794922,4277.179688,4277.436035,4270.128418,4308.205078,4230.000000,4283.717773,4650.000000,4540.769043,4476.282227,4550.000000,6680.000000,4.000000,76.000000,,,,0.000000,4.000000,4.000000,4.000000,4.000000,4.000000,4.000000,4.000000,4.000000,4.000000,4.000000,4.000000,4.000000,4.000000,4.000000,100.000000,,,,,,,,,,,,,,,,,21.000000,0.000000,0.671713,0.257446,-0.662476,0.208923,1.000610,0.052741,-0.008790,-17.436253,-38.149696,63.486252
1703495736.237157,1703495736.238510,85.000000,0.000000,4260.512695,4280.384766,4321.922852,4339.615234,4266.538574,4275.384766,4272.179688,4309.615234,4227.436035,4294.487305,4661.282227,4546.025879,4461.282227,4554.487305,5960.000000,4.000000,76.000000,,,,0.000000,4.000000,4.000000,4.000000,4.000000,4.000000,4.000000,4.000000,4.000000,4.000000,4.000000,4.000000,4.000000,4.000000,4.000000,100.000000,,,,,,,,,,,,,,,,,,,,,,,,,,,,
1703495736.244965,1703495736.246418,86.000000,0.000000,4265.384766,4285.000000,4329.358887,4346.025879,4271.282227,4279.358887,4274.743652,4308.461426,4229.358887,4294.102539,4669.230957,4552.436035,4441.538574,4559.487305,6010.000000,4.000000,76.000000,,,,0.000000,4.000000,4.000000,4.000000,4.000000,4.000000,4.000000,4.000000,4.000000,4.000000,4.000000,4.000000,4.000000,4.000000,4.000000,100.000000,,,,,,,,,,,,,,,,,,,,,,,,,,,,
1703495736.252773,1703495736.254226,87.000000,0.000000,4276.282227,4295.384766,4333.846191,4355.641113,4284.615234,4281.794922,4278.974121,4302.948730,4233.461426,4294.615234,4668.846191,4557.692383,4443.333496,4569.871582,6250.000000,4.000000,76.000000,,,,0.000000,4.000000,4.000000,4.000000,4.000000,4.000000,4.000000,4.000000,4.000000,4.000000,4.000000,4.000000,4.000000,4.000000,4.000000,100.000000,,,,,,,,,,,,,,,,,,,,,,,,,,,,
1703495736.260581,1703495736.261934,88.000000,0.000000,4282.179688,4301.153809,4332.051270,4355.897461,4282.820313,4279.230957,4277.692383,4295.769043,4229.487305,4296.153809,4665.384766,4554.487305,4448.974121,4575.256348,6680.000000,4.000000,76.000000,,,,0.000000,4.000000,4.000000,4.000000,4.000000,4.000000,4.000000,4.000000,4.000000,4.000000,4.000000,4.000000,4.000000,4.000000,4.000000,100.000000,,,,,,,,,,,,,,,,,22.000000,0.000000,0.671635,0.257385,-0.662598,0.208862,1.005494,0.062996,-0.015139,-17.625961,-38.084724,63.487625
1703495736.268389,1703495736.269742,89.000000,0.000000,4273.333496,4294.871582,4330.897461,4348.205078,4274.743652,4272.948730,4267.692383,4291.922852,4219.358887,4286.410156,4665.769043,4544.487305,4438.846191,4570.000000,5960.000000,4.000000,76.000000,,,,0.000000,4.000000,4.000000,4.000000,4.000000,4.000000,4.000000,4.000000,4.000000,4.000000,4.000000,4.000000,4.000000,4.000000,4.000000,100.000000,,,,,,,,,,,,,,,,,,,,,,,,,,,,
1703495736.276197,1703495736.277450,90.000000,0.000000,4264.615234,4284.230957,4330.512695,4345.000000,4271.282227,4267.307617,4265.641113,4291.794922,4217.436035,4277.692383,4660.256348,4537.051270,4431.538574,4562.307617,6010.000000,4.000000,76.000000,,,,0.000000,4.000000,4.000000,4.000000,4.000000,4.000000,4.000000,4.000000,4.000000,4.000000,4.000000,4.000000,4.000000,4.000000,4.000000,100.000000,,,,,,,,,,,,,,,,,,,,,,,,,,,,
1703495736.284006,1703495736.285358,91.000000,0.000000,4262.179688,4280.256348,4322.820313,4346.666504,4267.563965,4262.948730,4269.615234,4292.692383,4225.769043,4281.922852,4646.794922,4528.077148,4430.128418,4552.179688,6250.000000,4.000000,76.000000,,,,0.000000,4.000000,4.000000,4.000000,4.000000,4.000000,4.000000,4.000000,4.000000,4.000000,4.000000,4.000000,4.000000,4.000000,4.000000,100.000000,,,,,,,,,,,,,,,,,,,,,,,,,,,,
1703495736.291813,1703495736.293166,92.000000,0.000000,4254.358887,4278.077148,4315.256348,4338.077148,4262.179688,4262.692383,4264.615234,4292.179688,4233.461426,4282.563965,4640.128418,4520.256348,4425.641113,4539.358887,6680.000000,4.000000,76.000000,,,,0.000000,4.000000,4.000000,4.000000,4.000000,4.000000,4.000000,4.000000,4.000000,4.000000,4.000000,4.000000,4.000000,4.000000,4.000000,100.000000,,,,,,,,,,,,,,,,,23.000000,0.000000,0.671613,0.257385,-0.662659,0.208740,0.989379,0.059578,-0.018069,-17.346697,-38.076252,63.555531
1703495736.299621,1703495736.300974,93.000000,0.000000,4247.436035,4274.102539,4317.307617,4334.487305,4263.333496,4272.820313,4264.102539,4291.153809,4233.717773,4278.846191,4644.230957,4524.871582,4430.897461,4537.051270,5960.000000,4.000000,76.000000,,,,0.000000,4.000000,4.000000,4.000000,4.000000,4.000000,4.000000,4.000000,4.000000,4.000000,4.000000,4.000000,4.000000,4.000000,4.000000,100.000000,,,,,,,,,,,,,,,,,,,,,,,,,,,,
1703495736.307429,1703495736.308682,94.000000,0.000000,4249.358887,4274.871582,4319.615234,4339.743652,4269.230957,4282.692383,4269.487305,4294.615234,4232.179688,4283.846191,4643.461426,4528.333496,4437.820313,4537.948730,6010.000000,4.000000,76.000000,,,,0.000000,4.000000,4.000000,4.000000,4.000000,4.000000,4.000000,4.000000,4.000000,4.000000,4.000000,4.000000,4.000000,4.000000,4.000000,100.000000,,,,,,,,,,,,,,,,,,,,,,,,,,,,
1703495736.315238,1703495736.316490,95.000000,0.000000,4248.846191,4271.282227,4318.717773,4336.282227,4270.897461,4279.358887,4266.922852,4292.692383,4232.692383,4280.256348,4635.897461,4521.153809,4428.077148,4528.333496,6250.000000,4.000000,76.000000,,,,0.000000,4.000000,4.000000,4.000000,4.000000,4.000000,4.000000,4.000000,4.000000,4.000000,4.000000,4.000000,4.000000,4.000000,4.000000,100.000000,,,,,,,,,,,,,,,,,,,,,,,,,,,,
1703495736.323046,1703495736.324198,96.000000,0.000000,4248.205078,4263.974121,4316.922852,4330.000000,4263.717773,4274.230957,4262.307617,4285.769043,4231.666504,4271.025879,4632.307617,4518.077148,4418.974121,4525.512695,6680.000000,4.000000,76.000000,,,,0.000000,4.000000,4.000000,4.000000,4.000000,4.000000,4.000000,4.000000,4.000000,4.000000,4.000000,4.000000,4.000000,4.000000,4.000000,100.000000,,,,,,,,,,,,,,,,,24.000000,0.000000,0.671604,0.257507,-0.662659,0.208618,0.975217,0.077646,-0.014650,-17.412027,-38.218628,63.583309
1703495736.330854,1703495736.332006,97.000000,0.000000,4255.769043,4267.307617,4319.743652,4332.563965,4259.871582,4274.871582,4267.563965,4286.922852,4230.641113,4277.051270,4639.102539,4527.179688,4427.051270,4534.487305,5960.000000,4.000000,76.000000,,,,0.000000,4.000000,4.000000,4.000000,4.000000,4.000000,4.000000,4.000000,4.000000,4.000000,4.000000,4.000000,4.000000,4.000000,4.000000,100.000000,,,,,,,,,,,,,,,,,,,,,,,,,,,,
1703495736.338662,1703495736.339714,98.000000,0.000000,4263.333496,4278.077148,4325.897461,4339.487305,4268.333496,4273.461426,4271.794922,4287.436035,4233.205078,4286.410156,4648.589844,4537.307617,4440.769043,4543.077148,6010.000000,4.000000,76.000000,,,,0.000000,4.000000,4.000000,4.000000,4.000000,4.000000,4.000000,4.000000,4.000000,4.000000,4.000000,4.000000,4.000000,4.000000,4.000000,100.000000,,,,,,,,,,,,,,,,,,,,,,,,,,,,
1703495736.346470,1703495736.347621,99.000000,0.000000,4266.922852,4280.897461,4324.230957,4342.179688,4266.538574,4264.871582,4266.153809,4280.897461,4229.871582,4285.128418,4647.820313,4535.384766,4443.846191,4550.256348,6250.000000,4.000000,76.000000,,,,0.000000,4.000000,4.000000,4.000000,4.000000,4.000000,4.000000,4.000000,4.000000,4.000000,4.000000,4.000000,4.000000,4.000000,4.000000,100.000000,,,,,,,,,,,,,,,,,,,,,,,,,,,,
1703495736.354278,1703495736.355429,100.000000,0.000000,4266.922852,4276.538574,4320.000000,4336.794922,4250.000000,4250.897461,4259.871582,4272.692383,4220.641113,4266.410156,4635.897461,4524.102539,4432.820313,4549.230957,6680.000000,4.000000,76.000000,,,,0.000000,4.000000,4.000000,4.000000,4.000000,4.000000,4.000000,4.000000,4.000000,4.000000,4.000000,4.000000,4.000000,4.000000,4.000000,100.000000,,,,,,,,,,,,,,,,,25.000000,0.000000,0.671738,0.257935,-0.662415,0.208435,1.006959,0.077646,-0.014162,-17.370825,-38.080097,63.674980
1703495736.362086,1703495736.363337,101.000000,0.000000,4263.461426,4275.769043,4321.025879,4332.051270,4254.743652,4245.512695,4263.846191,4265.641113,4215.256348,4253.077148,4627.948730,4516.538574,4428.333496,4538.333496,5960.000000,4.000000,76.000000,,,,0.000000,4.000000,4.000000,4.000000,4.000000,4.000000,4.000000,4.000000,4.000000,4.000000,4.000000,4.000000,4.000000,4.000000,4.000000,100.000000,,,,,,,,,,,,,,,,,,,,,,,,,,,,
1703495736.369894,1703495736.371145,102.000000,0.000000,4263.846191,4278.461426,4319.230957,4337.692383,4273.846191,4255.641113,4268.461426,4267.179688,4216.410156,4260.512695,4627.436035,4518.205078,4439.358887,4537.436035,6010.000000,4.000000,76.000000,,,,0.000000,4.000000,4.000000,4.000000,4.000000,4.000000,4.000000,4.000000,4.000000,4.000000,4.000000,4.000000,4.000000,4.000000,4.000000,100.000000,,,,,,,,,,,,,,,,,,,,,,,,,,,,
1703495736.377702,1703495736.379053,103.000000,0.000000,4264.230957,4274.102539,4316.666504,4337.820313,4270.512695,4262.563965,4266.153809,4275.769043,4223.205078,4257.948730,4619.615234,4518.461426,4437.820313,4544.358887,6250.000000,4.000000,76.000000,,,,0.000000,4.000000,4.000000,4.000000,4.000000,4.000000,4.000000,4.000000,4.000000,4.000000,4.000000,4.000000,4.000000,4.000000,4.000000,100.000000,,,,,,,,,,,,,,,,,,,,,,,,,,,,
1703495736.385510,1703495736.386861,104.000000,0.000000,4256.153809,4265.256348,4313.974121,4324.871582,4257.436035,4258.974121,4263.717773,4279.358887,4230.897461,4244.615234,4611.538574,4510.256348,4423.717773,4538.205078,6680.000000,4.000000,76.000000,,,,0.000000,4.000000,4.000000,4.000000,4.000000,4.000000,4.000000,4.000000,4.000000,4.000000,4.000000,4.000000,4.000000,4.000000,4.000000,100.000000,,,,,,,,,,,,,,,,,26.000000,0.000000,0.671667,0.258118,-0.662415,0.208435,0.996215,0.062019,-0.013185,-17.550409,-38.205421,63.590813
1703495736.393318,1703495736.394769,105.000000,0.000000,4246.794922,4263.846191,4309.487305,4321.153809,4264.487305,4262.563965,4265.641113,4287.692383,4235.641113,4262.307617,4622.436035,4510.512695,4430.512695,4533.333496,5960.000000,4.000000,76.000000,,,,0.000000,4.000000,4.000000,4.000000,4.000000,4.000000,4.000000,4.000000,4.000000,4.000000,4.000000,4.000000,4.000000,4.000000,4.000000,100.000000,,,,,,,,,,,,,,,,,,,,,,,,,,,,
1703495736.401126,1703495736.402677,106.000000,0.000000,4247.307617,4265.128418,4311.794922,4324.743652,4267.948730,4272.307617,4265.769043,4302.820313,4241.282227,4290.384766,4642.307617,4523.974121,4450.897461,4543.461426,6010.000000,4.000000,76.000000,,,,0.000000,4.000000,4.000000,4.000000,4.000000,4.000000,4.000000,4.000000,4.000000,4.000000,4.000000,4.000000,4.000000,4.000000,4.000000,100.000000,1.000000,100.000000,4.000000,4.000000,4.000000,4.000000,4.000000,4.000000,4.000000,4.000000,4.000000,4.000000,4.000000,4.000000,4.000000,4.000000,,,,,,,,,,,,
1703495736.408934,1703495736.410485,107.000000,0.000000,4255.128418,4261.410156,4316.794922,4323.974121,4250.897461,4270.256348,4261.538574,4302.307617,4243.461426,4285.384766,4649.615234,4534.615234,4460.256348,4553.974121,6250.000000,4.000000,76.000000,,,,0.000000,4.000000,4.000000,4.000000,4.000000,4.000000,4.000000,4.000000,4.000000,4.000000,4.000000,4.000000,4.000000,4.000000,4.000000,100.000000,,,,,,,,,,,,,,,,,,,,,,,,,,,,
