title:عمار مسافة, start timestamp:1703503300.126127, stop timestamp:1703503311.041783, headset type:EPOCX, headset serial:E50206EF, headset firmware:720, channels:67, sampling rate:eeg_128;mot_32, samples:1399      , version:2.2, 
Timestamp,OriginalTimestamp,EEG.Counter,EEG.Interpolated,EEG.AF3,EEG.F7,EEG.F3,EEG.FC5,EEG.T7,EEG.P7,EEG.O1,EEG.O2,EEG.P8,EEG.T8,EEG.FC6,EEG.F4,EEG.F8,EEG.AF4,EEG.RawCq,EEG.Battery,EEG.BatteryPercent,MarkerIndex,MarkerType,MarkerValueInt,EEG.MarkerHardware,CQ.AF3,CQ.F7,CQ.F3,CQ.FC5,CQ.T7,CQ.P7,CQ.O1,CQ.O2,CQ.P8,CQ.T8,CQ.FC6,CQ.F4,CQ.F8,CQ.AF4,CQ.Overall,EQ.SampleRateQuality,EQ.OVERALL,EQ.AF3,EQ.F7,EQ.F3,EQ.FC5,EQ.T7,EQ.P7,EQ.O1,EQ.O2,EQ.P8,EQ.T8,EQ.FC6,EQ.F4,EQ.F8,EQ.AF4,MOT.CounterMems,MOT.InterpolatedMems,MOT.Q0,MOT.Q1,MOT.Q2,MOT.Q3,MOT.AccX,MOT.AccY,MOT.AccZ,MOT.MagX,MOT.MagY,MOT.MagZ
1703503300.126127,1703503300.127007,86.000000,0.000000,4291.153809,4276.410156,4301.410156,4273.589844,4277.436035,4277.436035,4295.256348,4210.897461,4287.051270,4299.871582,4460.769043,4455.641113,4394.487305,4423.717773,6162.000000,3.000000,63.000000,,,,0.000000,4.000000,4.000000,4.000000,4.000000,4.000000,4.000000,4.000000,4.000000,4.000000,4.000000,4.000000,4.000000,4.000000,4.000000,100.000000,,,,,,,,,,,,,,,,,,,,,,,,,,,,
1703503300.133935,1703503300.134715,87.000000,0.000000,4293.461426,4282.563965,4292.051270,4275.256348,4278.717773,4279.102539,4295.641113,4213.974121,4278.205078,4281.922852,4442.563965,4437.563965,4374.358887,4405.641113,6406.000000,3.000000,63.000000,,,,0.000000,4.000000,4.000000,4.000000,4.000000,4.000000,4.000000,4.000000,4.000000,4.000000,4.000000,4.000000,4.000000,4.000000,4.000000,100.000000,,,,,,,,,,,,,,,,,,,,,,,,,,,,
1703503300.141743,1703503300.142523,88.000000,0.000000,4294.102539,4281.282227,4295.256348,4272.051270,4274.615234,4278.846191,4296.922852,4220.128418,4286.538574,4290.000000,4452.820313,4451.922852,4377.820313,4420.512695,6967.000000,3.000000,63.000000,,,,0.000000,4.000000,4.000000,4.000000,4.000000,4.000000,4.000000,4.000000,4.000000,4.000000,4.000000,4.000000,4.000000,4.000000,4.000000,100.000000,,,,,,,,,,,,,,,,,22.000000,0.000000,0.459814,0.509216,-0.458679,0.564697,0.987914,-0.044439,0.053717,-16.053843,-37.116795,61.305984
1703503300.149551,1703503300.150231,89.000000,0.000000,4297.563965,4274.615234,4305.000000,4263.333496,4263.461426,4271.282227,4293.461426,4223.077148,4291.153809,4302.692383,4467.179688,4471.538574,4392.563965,4438.717773,7327.000000,3.000000,63.000000,,,,0.000000,4.000000,4.000000,4.000000,4.000000,4.000000,4.000000,4.000000,4.000000,4.000000,4.000000,4.000000,4.000000,4.000000,4.000000,100.000000,,,,,,,,,,,,,,,,,,,,,,,,,,,,
1703503300.157359,1703503300.158039,90.000000,0.000000,4303.077148,4273.077148,4310.384766,4263.333496,4258.846191,4263.589844,4285.641113,4220.384766,4285.000000,4295.128418,4460.641113,4465.769043,4390.769043,4433.333496,6162.000000,3.000000,63.000000,,,,0.000000,4.000000,4.000000,4.000000,4.000000,4.000000,4.000000,4.000000,4.000000,4.000000,4.000000,4.000000,4.000000,4.000000,4.000000,100.000000,,,,,,,,,,,,,,,,,,,,,,,,,,,,
1703503300.165167,1703503300.165747,91.000000,0.000000,4307.692383,4279.102539,4311.153809,4269.487305,4263.974121,4262.436035,4280.128418,4219.487305,4282.692383,4287.563965,4448.589844,4457.563965,4387.179688,4427.820313,6406.000000,3.000000,63.000000,,,,0.000000,4.000000,4.000000,4.000000,4.000000,4.000000,4.000000,4.000000,4.000000,4.000000,4.000000,4.000000,4.000000,4.000000,4.000000,100.000000,,,,,,,,,,,,,,,,,,,,,,,,,,,,
1703503300.172975,1703503300.173655,92.000000,0.000000,4313.461426,4287.692383,4310.128418,4267.563965,4261.538574,4261.922852,4276.282227,4216.922852,4281.410156,4288.333496,4450.384766,4461.025879,4391.282227,4435.897461,6967.000000,3.000000,63.000000,,,,0.000000,4.000000,4.000000,4.000000,4.000000,4.000000,4.000000,4.000000,4.000000,4.000000,4.000000,4.000000,4.000000,4.000000,4.000000,100.000000,,,,,,,,,,,,,,,,,23.000000,0.000000,0.459753,0.509216,-0.458740,0.564697,0.994750,-0.052741,0.066414,-15.881791,-37.121780,61.342052
1703503300.180783,1703503300.181463,93.000000,0.000000,4321.025879,4292.563965,4316.922852,4257.820313,4252.820313,4259.871582,4276.410156,4208.974121,4276.922852,4287.820313,4463.589844,4472.436035,4400.384766,4446.922852,7327.000000,3.000000,63.000000,,,,0.000000,4.000000,4.000000,4.000000,4.000000,4.000000,4.000000,4.000000,4.000000,4.000000,4.000000,4.000000,4.000000,4.000000,4.000000,100.000000,,,,,,,,,,,,,,,,,,,,,,,,,,,,
1703503300.188591,1703503300.189371,94.000000,0.000000,4323.077148,4292.051270,4322.179688,4245.384766,4251.794922,4262.179688,4279.102539,4203.974121,4270.641113,4284.615234,4459.615234,4471.794922,4397.051270,4438.974121,6162.000000,3.000000,63.000000,,,,0.000000,4.000000,4.000000,4.000000,4.000000,4.000000,4.000000,4.000000,4.000000,4.000000,4.000000,4.000000,4.000000,4.000000,4.000000,100.000000,,,,,,,,,,,,,,,,,,,,,,,,,,,,
1703503300.196399,1703503300.197179,95.000000,0.000000,4310.256348,4284.487305,4305.000000,4210.256348,4249.102539,4260.384766,4275.512695,4198.333496,4262.051270,4269.871582,4431.538574,4443.077148,4375.512695,4406.282227,6406.000000,3.000000,63.000000,,,,0.000000,4.000000,4.000000,4.000000,4.000000,4.000000,4.000000,4.000000,4.000000,4.000000,4.000000,4.000000,4.000000,4.000000,4.000000,100.000000,,,,,,,,,,,,,,,,,,,,,,,,,,,,
1703503300.204207,1703503300.205087,96.000000,0.000000,4296.025879,4271.282227,4281.153809,4130.384766,4228.846191,4255.128418,4270.897461,4187.436035,4248.077148,4244.230957,4405.000000,4411.922852,4348.333496,4380.384766,6967.000000,3.000000,63.000000,,,,0.000000,4.000000,4.000000,4.000000,4.000000,4.000000,4.000000,4.000000,4.000000,4.000000,4.000000,4.000000,4.000000,4.000000,4.000000,100.000000,,,,,,,,,,,,,,,,,24.000000,0.000000,0.459624,0.509155,-0.458862,0.564758,0.987914,-0.057136,0.064949,-15.710279,-37.159603,61.391182
1703503300.212015,1703503300.212895,97.000000,0.000000,4294.487305,4265.897461,4277.563965,4055.000000,4212.820313,4259.487305,4273.589844,4176.153809,4237.820313,4228.461426,4390.000000,4403.461426,4328.589844,4376.282227,7327.000000,3.000000,63.000000,,,,0.000000,4.000000,4.000000,4.000000,4.000000,4.000000,4.000000,4.000000,4.000000,4.000000,4.000000,4.000000,4.000000,4.000000,4.000000,100.000000,1.000000,25.000000,4.000000,1.000000,4.000000,1.000000,1.000000,4.000000,4.000000,3.000000,3.000000,3.000000,3.000000,3.000000,4.000000,4.000000,,,,,,,,,,,,
1703503300.219823,1703503300.220803,98.000000,0.000000,4292.307617,4266.153809,4275.897461,4035.769287,4214.743652,4265.512695,4275.897461,4169.102539,4236.666504,4227.948730,4377.692383,4397.051270,4320.769043,4366.025879,6162.000000,3.000000,63.000000,,,,0.000000,4.000000,4.000000,4.000000,4.000000,4.000000,4.000000,4.000000,4.000000,4.000000,4.000000,4.000000,4.000000,4.000000,4.000000,100.000000,,,,,,,,,,,,,,,,,,,,,,,,,,,,
1703503300.227631,1703503300.228611,99.000000,0.000000,4287.179688,4263.333496,4264.615234,4046.025635,4217.179688,4263.333496,4275.512695,4170.256348,4234.102539,4227.179688,4374.615234,4383.077148,4321.538574,4347.436035,6406.000000,3.000000,63.000000,,,,0.000000,4.000000,4.000000,4.000000,4.000000,4.000000,4.000000,4.000000,4.000000,4.000000,4.000000,4.000000,4.000000,4.000000,4.000000,100.000000,,,,,,,,,,,,,,,,,,,,,,,,,,,,
1703503300.235439,1703503300.236419,100.000000,0.000000,4292.563965,4268.974121,4265.128418,4055.256348,4222.692383,4262.179688,4277.948730,4182.948730,4240.256348,4232.179688,4394.487305,4392.436035,4334.743652,4358.846191,6967.000000,3.000000,63.000000,,,,0.000000,4.000000,4.000000,4.000000,4.000000,4.000000,4.000000,4.000000,4.000000,4.000000,4.000000,4.000000,4.000000,4.000000,4.000000,100.000000,,,,,,,,,,,,,,,,,25.000000,0.000000,0.459366,0.509155,-0.459045,0.564819,0.991332,-0.062508,0.055183,-15.755918,-37.043644,61.418728
1703503300.243247,1703503300.244227,101.000000,0.000000,4303.846191,4279.743652,4280.641113,4071.923096,4230.769043,4264.871582,4279.358887,4187.051270,4248.077148,4242.436035,4410.384766,4413.077148,4348.333496,4381.666504,7327.000000,3.000000,63.000000,,,,0.000000,4.000000,4.000000,4.000000,4.000000,4.000000,4.000000,4.000000,4.000000,4.000000,4.000000,4.000000,4.000000,4.000000,4.000000,100.000000,,,,,,,,,,,,,,,,,,,,,,,,,,,,
1703503300.251056,1703503300.251935,102.000000,0.000000,4307.948730,4279.871582,4290.384766,4097.307617,4231.153809,4262.436035,4277.692383,4172.563965,4241.794922,4238.333496,4399.230957,4409.743652,4345.000000,4375.384766,6162.000000,3.000000,63.000000,,,,0.000000,4.000000,4.000000,4.000000,4.000000,4.000000,4.000000,4.000000,4.000000,4.000000,4.000000,4.000000,4.000000,4.000000,4.000000,100.000000,,,,,,,,,,,,,,,,,,,,,,,,,,,,
1703503300.258864,1703503300.259743,103.000000,0.000000,4308.205078,4279.102539,4292.436035,4116.025879,4236.282227,4262.820313,4277.820313,4165.384766,4234.230957,4228.974121,4395.512695,4407.563965,4347.436035,4372.051270,6406.000000,3.000000,63.000000,,,,0.000000,4.000000,4.000000,4.000000,4.000000,4.000000,4.000000,4.000000,4.000000,4.000000,4.000000,4.000000,4.000000,4.000000,4.000000,100.000000,,,,,,,,,,,,,,,,,,,,,,,,,,,,
1703503300.266672,1703503300.267451,104.000000,0.000000,4316.410156,4291.410156,4299.743652,4135.000000,4246.922852,4267.307617,4280.641113,4171.410156,4237.563965,4232.179688,4417.179688,4428.717773,4365.000000,4395.641113,6967.000000,3.000000,63.000000,,,,0.000000,4.000000,4.000000,4.000000,4.000000,4.000000,4.000000,4.000000,4.000000,4.000000,4.000000,4.000000,4.000000,4.000000,4.000000,100.000000,,,,,,,,,,,,,,,,,26.000000,0.000000,0.459305,0.509155,-0.459106,0.564819,0.986449,-0.051764,0.059578,-15.763659,-37.089279,61.376858
1703503300.274480,1703503300.275259,105.000000,0.000000,4327.307617,4303.333496,4308.333496,4157.179688,4250.128418,4266.153809,4279.102539,4172.820313,4241.282227,4246.410156,4427.307617,4438.846191,4376.025879,4410.000000,7327.000000,3.000000,63.000000,,,,0.000000,4.000000,4.000000,4.000000,4.000000,4.000000,4.000000,4.000000,4.000000,4.000000,4.000000,4.000000,4.000000,4.000000,4.000000,100.000000,,,,,,,,,,,,,,,,,,,,,,,,,,,,
1703503300.282288,1703503300.282967,106.000000,0.000000,4330.384766,4300.128418,4311.666504,4171.922852,4247.820313,4261.922852,4273.846191,4167.948730,4236.794922,4250.769043,4415.512695,4427.820313,4370.128418,4398.333496,6162.000000,3.000000,63.000000,,,,0.000000,4.000000,4.000000,4.000000,4.000000,4.000000,4.000000,4.000000,4.000000,4.000000,4.000000,4.000000,4.000000,4.000000,4.000000,100.000000,,,,,,,,,,,,,,,,,,,,,,,,,,,,
1703503300.290096,1703503300.290775,107.000000,0.000000,4326.153809,4292.948730,4309.615234,4182.948730,4249.102539,4261.538574,4271.538574,4165.384766,4230.000000,4238.717773,4411.410156,4423.589844,4364.487305,4391.666504,6406.000000,3.000000,63.000000,,,,0.000000,4.000000,4.000000,4.000000,4.000000,4.000000,4.000000,4.000000,4.000000,4.000000,4.000000,4.000000,4.000000,4.000000,4.000000,100.000000,,,,,,,,,,,,,,,,,,,,,,,,,,,,
1703503300.297904,1703503300.298483,108.000000,0.000000,4322.436035,4297.307617,4307.563965,4198.974121,4256.666504,4263.333496,4274.358887,4175.384766,4233.974121,4239.230957,4430.512695,4436.153809,4373.846191,4407.820313,6967.000000,3.000000,63.000000,,,,0.000000,4.000000,4.000000,4.000000,4.000000,4.000000,4.000000,4.000000,4.000000,4.000000,4.000000,4.000000,4.000000,4.000000,4.000000,100.000000,,,,,,,,,,,,,,,,,27.000000,0.000000,0.459258,0.509155,-0.459229,0.564758,0.987425,-0.054206,0.058113,-15.687293,-37.130352,61.339172
1703503300.305712,1703503300.306291,109.000000,0.000000,4323.846191,4302.436035,4312.436035,4214.487305,4264.487305,4262.563965,4278.333496,4197.179688,4251.538574,4259.871582,4446.922852,4448.846191,4383.333496,4415.000000,7327.000000,3.000000,63.000000,,,,0.000000,4.000000,4.000000,4.000000,4.000000,4.000000,4.000000,4.000000,4.000000,4.000000,4.000000,4.000000,4.000000,4.000000,4.000000,100.000000,,,,,,,,,,,,,,,,,,,,,,,,,,,,
1703503300.313520,1703503300.313999,110.000000,0.000000,4322.948730,4298.333496,4309.102539,4222.179688,4267.307617,4264.487305,4278.974121,4211.794922,4263.333496,4267.179688,4444.487305,4447.307617,4385.256348,4403.205078,6162.000000,3.000000,63.000000,,,,0.000000,4.000000,4.000000,4.000000,4.000000,4.000000,4.000000,4.000000,4.000000,4.000000,4.000000,4.000000,4.000000,4.000000,4.000000,100.000000,,,,,,,,,,,,,,,,,,,,,,,,,,,,
1703503300.321328,1703503300.321807,111.000000,0.000000,4314.615234,4291.666504,4298.846191,4227.692383,4270.641113,4272.051270,4282.179688,4215.769043,4263.077148,4261.025879,4447.051270,4440.897461,4387.051270,4401.410156,6406.000000,3.000000,63.000000,,,,0.000000,4.000000,4.000000,4.000000,4.000000,4.000000,4.000000,4.000000,4.000000,4.000000,4.000000,4.000000,4.000000,4.000000,4.000000,100.000000,,,,,,,,,,,,,,,,,,,,,,,,,,,,
1703503300.329136,1703503300.329515,112.000000,0.000000,4310.000000,4293.077148,4300.897461,4236.666504,4276.282227,4278.846191,4291.153809,4220.256348,4267.179688,4267.692383,4459.487305,4447.179688,4389.743652,4411.538574,6967.000000,3.000000,63.000000,,,,0.000000,4.000000,4.000000,4.000000,4.000000,4.000000,4.000000,4.000000,4.000000,4.000000,4.000000,4.000000,4.000000,4.000000,4.000000,100.000000,,,,,,,,,,,,,,,,,28.000000,0.000000,0.459190,0.509094,-0.459290,0.564819,0.993774,-0.037602,0.062996,-15.751897,-37.200649,61.421921
1703503300.336944,1703503300.337323,113.000000,0.000000,4321.153809,4302.436035,4312.563965,4248.974121,4279.102539,4279.358887,4297.948730,4233.461426,4284.743652,4287.179688,4470.384766,4469.102539,4401.538574,4421.153809,7327.000000,3.000000,63.000000,,,,0.000000,4.000000,4.000000,4.000000,4.000000,4.000000,4.000000,4.000000,4.000000,4.000000,4.000000,4.000000,4.000000,4.000000,4.000000,100.000000,,,,,,,,,,,,,,,,,,,,,,,,,,,,
1703503300.344752,1703503300.345031,114.000000,0.000000,4331.794922,4307.307617,4318.974121,4261.538574,4278.205078,4279.230957,4296.410156,4247.436035,4298.846191,4298.333496,4479.230957,4485.256348,4414.743652,4430.512695,6162.000000,3.000000,63.000000,,,,0.000000,4.000000,4.000000,4.000000,4.000000,4.000000,4.000000,4.000000,4.000000,4.000000,4.000000,4.000000,4.000000,4.000000,4.000000,100.000000,,,,,,,,,,,,,,,,,,,,,,,,,,,,
1703503300.352560,1703503300.352939,115.000000,0.000000,4325.128418,4308.077148,4321.666504,4272.436035,4277.179688,4276.922852,4288.205078,4245.000000,4288.974121,4287.563965,4479.230957,4479.358887,4410.769043,4430.512695,6406.000000,3.000000,63.000000,,,,0.000000,4.000000,4.000000,4.000000,4.000000,4.000000,4.000000,4.000000,4.000000,4.000000,4.000000,4.000000,4.000000,4.000000,4.000000,100.000000,,,,,,,,,,,,,,,,,,,,,,,,,,,,
1703503300.360368,1703503300.360747,116.000000,0.000000,4311.153809,4308.846191,4322.436035,4280.128418,4275.897461,4269.615234,4282.692383,4235.256348,4277.692383,4277.179688,4474.358887,4471.538574,4405.512695,4426.153809,6967.000000,3.000000,63.000000,,,,0.000000,4.000000,4.000000,4.000000,4.000000,4.000000,4.000000,4.000000,4.000000,4.000000,4.000000,4.000000,4.000000,4.000000,4.000000,100.000000,,,,,,,,,,,,,,,,,29.000000,0.000000,0.459182,0.509033,-0.459290,0.564880,0.988402,-0.049322,0.055671,-15.543374,-37.347252,61.296394
1703503300.368176,1703503300.368655,117.000000,0.000000,4305.256348,4308.333496,4322.692383,4281.153809,4273.077148,4268.461426,4281.538574,4231.538574,4280.000000,4284.871582,4473.974121,4475.128418,4412.051270,4430.128418,7327.000000,3.000000,63.000000,,,,0.000000,4.000000,4.000000,4.000000,4.000000,4.000000,4.000000,4.000000,4.000000,4.000000,4.000000,4.000000,4.000000,4.000000,4.000000,100.000000,,,,,,,,,,,,,,,,,,,,,,,,,,,,
1703503300.375984,1703503300.376463,118.000000,0.000000,4304.358887,4312.563965,4323.461426,4287.692383,4275.128418,4274.230957,4282.563965,4235.769043,4285.256348,4295.641113,4485.128418,4478.717773,4419.102539,4435.384766,6162.000000,3.000000,63.000000,,,,0.000000,4.000000,4.000000,4.000000,4.000000,4.000000,4.000000,4.000000,4.000000,4.000000,4.000000,4.000000,4.000000,4.000000,4.000000,100.000000,,,,,,,,,,,,,,,,,,,,,,,,,,,,
1703503300.383793,1703503300.384371,119.000000,0.000000,4304.487305,4321.538574,4325.384766,4303.461426,4282.436035,4277.948730,4290.256348,4243.461426,4286.666504,4295.000000,4499.102539,4484.871582,4426.410156,4440.000000,6406.000000,3.000000,63.000000,,,,0.000000,4.000000,4.000000,4.000000,4.000000,4.000000,4.000000,4.000000,4.000000,4.000000,4.000000,4.000000,4.000000,4.000000,4.000000,100.000000,,,,,,,,,,,,,,,,,,,,,,,,,,,,
1703503300.391600,1703503300.392179,120.000000,0.000000,4310.512695,4325.384766,4333.205078,4312.820313,4283.589844,4273.461426,4293.077148,4242.436035,4281.410156,4292.948730,4506.666504,4497.692383,4432.948730,4452.051270,6967.000000,3.000000,63.000000,,,,0.000000,4.000000,4.000000,4.000000,4.000000,4.000000,4.000000,4.000000,4.000000,4.000000,4.000000,4.000000,4.000000,4.000000,4.000000,100.000000,,,,,,,,,,,,,,,,,30.000000,0.000000,0.459161,0.508972,-0.459229,0.565002,0.992309,-0.050787,0.063484,-15.289037,-37.329193,61.283421
1703503300.399408,1703503300.400086,121.000000,0.000000,4310.000000,4324.230957,4336.025879,4313.205078,4279.487305,4265.000000,4282.692383,4237.692383,4279.871582,4296.025879,4507.051270,4501.025879,4433.077148,4458.717773,7327.000000,3.000000,63.000000,,,,0.000000,4.000000,4.000000,4.000000,4.000000,4.000000,4.000000,4.000000,4.000000,4.000000,4.000000,4.000000,4.000000,4.000000,4.000000,100.000000,,,,,,,,,,,,,,,,,,,,,,,,,,,,
1703503300.407217,1703503300.407894,122.000000,0.000000,4296.922852,4322.692383,4326.410156,4311.025879,4279.230957,4265.897461,4280.641113,4239.615234,4276.282227,4285.512695,4495.128418,4487.307617,4421.282227,4442.436035,6162.000000,3.000000,63.000000,,,,0.000000,4.000000,4.000000,4.000000,4.000000,4.000000,4.000000,4.000000,4.000000,4.000000,4.000000,4.000000,4.000000,4.000000,4.000000,100.000000,,,,,,,,,,,,,,,,,,,,,,,,,,,,
1703503300.415025,1703503300.415802,123.000000,0.000000,4291.794922,4316.666504,4324.102539,4310.769043,4287.179688,4277.179688,4293.077148,4244.743652,4266.538574,4271.794922,4483.461426,4473.717773,4405.897461,4422.820313,6406.000000,3.000000,63.000000,,,,0.000000,4.000000,4.000000,4.000000,4.000000,4.000000,4.000000,4.000000,4.000000,4.000000,4.000000,4.000000,4.000000,4.000000,4.000000,100.000000,,,,,,,,,,,,,,,,,,,,,,,,,,,,
1703503300.422833,1703503300.423610,124.000000,0.000000,4292.436035,4310.384766,4326.666504,4311.922852,4294.743652,4285.641113,4301.794922,4249.102539,4268.461426,4277.436035,4485.128418,4474.487305,4404.743652,4423.846191,6967.000000,3.000000,63.000000,,,,0.000000,4.000000,4.000000,4.000000,4.000000,4.000000,4.000000,4.000000,4.000000,4.000000,4.000000,4.000000,4.000000,4.000000,4.000000,100.000000,,,,,,,,,,,,,,,,,31.000000,0.000000,0.459079,0.509033,-0.459167,0.565063,0.989867,-0.066903,0.057136,-15.126800,-37.429607,61.255081
1703503300.430641,1703503300.431318,125.000000,0.000000,4289.102539,4309.487305,4321.666504,4311.153809,4293.461426,4289.743652,4306.282227,4258.077148,4280.641113,4285.256348,4489.743652,4484.358887,4410.769043,4429.871582,7327.000000,3.000000,63.000000,,,,0.000000,4.000000,4.000000,4.000000,4.000000,4.000000,4.000000,4.000000,4.000000,4.000000,4.000000,4.000000,4.000000,4.000000,4.000000,100.000000,,,,,,,,,,,,,,,,,,,,,,,,,,,,
1703503300.438449,1703503300.439126,126.000000,0.000000,4291.538574,4313.717773,4319.487305,4312.563965,4296.410156,4296.025879,4307.820313,4271.794922,4293.717773,4292.563965,4500.000000,4491.666504,4417.436035,4434.743652,6162.000000,3.000000,63.000000,,,,0.000000,4.000000,4.000000,4.000000,4.000000,4.000000,4.000000,4.000000,4.000000,4.000000,4.000000,4.000000,4.000000,4.000000,4.000000,100.000000,,,,,,,,,,,,,,,,,,,,,,,,,,,,
1703503300.446257,1703503300.446834,127.000000,0.000000,4295.512695,4318.077148,4325.512695,4318.461426,4303.461426,4293.077148,4299.487305,4276.025879,4305.128418,4302.820313,4508.077148,4488.333496,4423.077148,4436.666504,63.000000,3.000000,63.000000,,,,0.000000,4.000000,4.000000,4.000000,4.000000,4.000000,4.000000,4.000000,4.000000,4.000000,4.000000,4.000000,4.000000,4.000000,4.000000,100.000000,,,,,,,,,,,,,,,,,,,,,,,,,,,,
1703503300.454065,1703503300.454642,0.000000,0.000000,4296.282227,4320.641113,4328.717773,4324.615234,4299.871582,4282.307617,4293.846191,4269.487305,4305.128418,4302.948730,4504.358887,4482.307617,4422.436035,4430.128418,5327.000000,3.000000,63.000000,,,,0.000000,4.000000,4.000000,4.000000,4.000000,4.000000,4.000000,4.000000,4.000000,4.000000,4.000000,4.000000,4.000000,4.000000,4.000000,100.000000,,,,,,,,,,,,,,,,,0.000000,0.000000,0.458922,0.509094,-0.459106,0.565186,1.003052,-0.052741,0.061531,-15.097453,-37.453312,61.379574
1703503300.461873,1703503300.462350,1.000000,0.000000,4299.615234,4323.333496,4327.307617,4326.666504,4293.461426,4277.563965,4294.615234,4263.461426,4298.205078,4297.436035,4508.461426,4489.102539,4426.025879,4436.025879,5581.000000,3.000000,63.000000,,,,0.000000,4.000000,4.000000,4.000000,4.000000,4.000000,4.000000,4.000000,4.000000,4.000000,4.000000,4.000000,4.000000,4.000000,4.000000,100.000000,,,,,,,,,,,,,,,,,,,,,,,,,,,,
1703503300.469681,1703503300.470158,2.000000,0.000000,4304.358887,4326.922852,4328.846191,4325.128418,4295.512695,4277.051270,4289.358887,4258.974121,4292.307617,4295.256348,4517.820313,4497.692383,4432.563965,4450.128418,5465.000000,3.000000,63.000000,,,,0.000000,4.000000,4.000000,4.000000,4.000000,4.000000,4.000000,4.000000,4.000000,4.000000,4.000000,4.000000,4.000000,4.000000,4.000000,100.000000,,,,,,,,,,,,,,,,,,,,,,,,,,,,
1703503300.477489,1703503300.477866,3.000000,0.000000,4308.461426,4332.051270,4334.358887,4326.025879,4298.333496,4276.153809,4282.563965,4254.871582,4289.487305,4296.666504,4515.256348,4494.102539,4431.025879,4447.307617,5459.000000,3.000000,63.000000,,,,0.000000,4.000000,4.000000,4.000000,4.000000,4.000000,4.000000,4.000000,4.000000,4.000000,4.000000,4.000000,4.000000,4.000000,4.000000,100.000000,,,,,,,,,,,,,,,,,,,,,,,,,,,,
1703503300.485297,1703503300.485674,4.000000,0.000000,4308.589844,4331.282227,4338.974121,4327.179688,4296.282227,4273.717773,4283.717773,4256.794922,4291.282227,4297.820313,4513.846191,4486.538574,4426.794922,4439.487305,5349.000000,3.000000,63.000000,,,,0.000000,4.000000,4.000000,4.000000,4.000000,4.000000,4.000000,4.000000,4.000000,4.000000,4.000000,4.000000,4.000000,4.000000,4.000000,100.000000,,,,,,,,,,,,,,,,,1.000000,0.000000,0.458855,0.509155,-0.459106,0.565186,0.975217,-0.055671,0.067879,-15.204374,-37.307980,61.324947
1703503300.493105,1703503300.493383,5.000000,0.000000,4305.256348,4327.820313,4335.512695,4325.641113,4294.743652,4274.102539,4288.846191,4262.307617,4293.333496,4299.487305,4520.897461,4488.974121,4429.487305,4442.307617,4934.000000,3.000000,63.000000,,,,0.000000,4.000000,4.000000,4.000000,4.000000,4.000000,4.000000,4.000000,4.000000,4.000000,4.000000,4.000000,4.000000,4.000000,4.000000,100.000000,,,,,,,,,,,,,,,,,,,,,,,,,,,,
1703503300.500913,1703503300.501291,6.000000,0.000000,4306.282227,4330.000000,4327.948730,4324.871582,4295.128418,4277.563965,4289.358887,4264.743652,4296.153809,4308.461426,4528.205078,4502.692383,4437.436035,4452.948730,4200.000000,3.000000,63.000000,,,,0.000000,4.000000,4.000000,4.000000,4.000000,4.000000,4.000000,4.000000,4.000000,4.000000,4.000000,4.000000,4.000000,4.000000,4.000000,100.000000,,,,,,,,,,,,,,,,,,,,,,,,,,,,
1703503300.508721,1703503300.509099,7.000000,0.000000,4308.974121,4335.000000,4329.358887,4327.563965,4294.358887,4277.051270,4290.000000,4263.333496,4293.589844,4305.641113,4525.897461,4503.333496,4435.000000,4452.179688,5048.000000,3.000000,63.000000,,,,0.000000,4.000000,4.000000,4.000000,4.000000,4.000000,4.000000,4.000000,4.000000,4.000000,4.000000,4.000000,4.000000,4.000000,4.000000,100.000000,,,,,,,,,,,,,,,,,,,,,,,,,,,,
1703503300.516529,1703503300.517007,8.000000,0.000000,4312.436035,4338.333496,4335.000000,4334.230957,4300.769043,4278.974121,4295.256348,4265.512695,4288.974121,4292.051270,4518.333496,4491.794922,4426.153809,4444.230957,4944.000000,3.000000,63.000000,,,,0.000000,4.000000,4.000000,4.000000,4.000000,4.000000,4.000000,4.000000,4.000000,4.000000,4.000000,4.000000,4.000000,4.000000,4.000000,100.000000,,,,,,,,,,,,,,,,,2.000000,0.000000,0.458801,0.509216,-0.459167,0.565125,0.985960,-0.055671,0.058601,-15.433937,-37.377182,61.192451
1703503300.524337,1703503300.524815,9.000000,0.000000,4316.410156,4340.000000,4336.538574,4340.384766,4309.358887,4290.128418,4297.820313,4275.641113,4295.128418,4297.436035,4524.487305,4498.205078,4432.692383,4451.922852,5569.000000,3.000000,63.000000,,,,0.000000,4.000000,4.000000,4.000000,4.000000,4.000000,4.000000,4.000000,4.000000,4.000000,4.000000,4.000000,4.000000,4.000000,4.000000,100.000000,,,,,,,,,,,,,,,,,,,,,,,,,,,,
1703503300.532145,1703503300.532723,10.000000,0.000000,4314.743652,4342.436035,4337.179688,4342.307617,4310.000000,4296.410156,4297.820313,4283.077148,4301.410156,4308.717773,4533.974121,4508.205078,4439.487305,4458.461426,6160.000000,3.000000,63.000000,,,,0.000000,4.000000,4.000000,4.000000,4.000000,4.000000,4.000000,4.000000,4.000000,4.000000,4.000000,4.000000,4.000000,4.000000,4.000000,100.000000,,,,,,,,,,,,,,,,,,,,,,,,,,,,
1703503300.539953,1703503300.540531,11.000000,0.000000,4310.641113,4341.282227,4333.205078,4339.743652,4305.897461,4288.333496,4296.410156,4278.974121,4298.974121,4303.589844,4523.333496,4498.974121,4428.974121,4451.538574,6407.000000,3.000000,63.000000,,,,0.000000,4.000000,4.000000,4.000000,4.000000,4.000000,4.000000,4.000000,4.000000,4.000000,4.000000,4.000000,4.000000,4.000000,4.000000,100.000000,,,,,,,,,,,,,,,,,,,,,,,,,,,,
1703503300.547762,1703503300.548439,12.000000,0.000000,4308.717773,4331.025879,4327.051270,4333.589844,4300.641113,4278.974121,4292.820313,4277.820313,4298.077148,4298.461426,4516.794922,4491.666504,4423.974121,4449.102539,6962.000000,3.000000,63.000000,,,,0.000000,4.000000,4.000000,4.000000,4.000000,4.000000,4.000000,4.000000,4.000000,4.000000,4.000000,4.000000,4.000000,4.000000,4.000000,100.000000,,,,,,,,,,,,,,,,,3.000000,0.000000,0.458878,0.509583,-0.458984,0.564880,0.988402,-0.048346,0.051764,-15.540544,-37.439465,61.189877
1703503300.555570,1703503300.556247,13.000000,0.000000,4313.205078,4330.256348,4331.922852,4333.717773,4298.846191,4278.461426,4291.666504,4280.512695,4302.563965,4304.102539,4531.410156,4498.846191,4433.077148,4456.282227,7321.000000,3.000000,63.000000,,,,0.000000,4.000000,4.000000,4.000000,4.000000,4.000000,4.000000,4.000000,4.000000,4.000000,4.000000,4.000000,4.000000,4.000000,4.000000,100.000000,,,,,,,,,,,,,,,,,,,,,,,,,,,,
1703503300.563378,1703503300.564155,14.000000,0.000000,4323.205078,4345.384766,4343.333496,4343.846191,4307.948730,4279.743652,4292.307617,4279.487305,4305.384766,4306.794922,4543.846191,4513.077148,4437.307617,4466.538574,6160.000000,3.000000,63.000000,,,,0.000000,4.000000,4.000000,4.000000,4.000000,4.000000,4.000000,4.000000,4.000000,4.000000,4.000000,4.000000,4.000000,4.000000,4.000000,100.000000,,,,,,,,,,,,,,,,,,,,,,,,,,,,
1703503300.571186,1703503300.571963,15.000000,0.000000,4331.538574,4350.000000,4354.102539,4352.820313,4312.692383,4279.102539,4293.461426,4277.436035,4301.794922,4300.769043,4540.256348,4522.563965,4428.589844,4475.769043,6407.000000,3.000000,63.000000,,,,0.000000,4.000000,4.000000,4.000000,4.000000,4.000000,4.000000,4.000000,4.000000,4.000000,4.000000,4.000000,4.000000,4.000000,4.000000,100.000000,,,,,,,,,,,,,,,,,,,,,,,,,,,,
1703503300.578994,1703503300.579871,16.000000,0.000000,4337.948730,4350.128418,4361.922852,4359.743652,4307.563965,4279.230957,4292.948730,4275.256348,4293.717773,4296.153809,4539.615234,4523.077148,4422.051270,4482.307617,0.000000,3.000000,63.000000,,,,0.000000,4.000000,4.000000,4.000000,4.000000,4.000000,4.000000,4.000000,4.000000,4.000000,4.000000,4.000000,4.000000,4.000000,4.000000,100.000000,,,,,,,,,,,,,,,,,4.000000,0.000000,0.459108,0.509583,-0.458679,0.564941,0.990844,-0.059578,0.056159,-15.353155,-37.362186,61.170887
1703503300.586802,1703503300.587678,17.000000,0.000000,4344.102539,4358.205078,4365.769043,4366.282227,4309.871582,4281.410156,4292.179688,4279.743652,4293.205078,4308.717773,4555.384766,4531.666504,4428.589844,4492.179688,0.000000,3.000000,63.000000,,,,0.000000,4.000000,4.000000,4.000000,4.000000,4.000000,4.000000,4.000000,4.000000,4.000000,4.000000,4.000000,4.000000,4.000000,4.000000,100.000000,,,,,,,,,,,,,,,,,,,,,,,,,,,,
1703503300.594610,1703503300.595586,18.000000,0.000000,4340.128418,4356.794922,4367.436035,4363.846191,4313.461426,4281.410156,4294.487305,4287.820313,4298.846191,4314.615234,4561.666504,4541.666504,4424.230957,4490.641113,0.000000,3.000000,63.000000,,,,0.000000,4.000000,4.000000,4.000000,4.000000,4.000000,4.000000,4.000000,4.000000,4.000000,4.000000,4.000000,4.000000,4.000000,4.000000,100.000000,,,,,,,,,,,,,,,,,,,,,,,,,,,,
1703503300.602418,1703503300.603394,19.000000,0.000000,4330.128418,4350.641113,4364.487305,4359.615234,4311.282227,4281.025879,4296.538574,4288.717773,4293.077148,4297.563965,4552.179688,4536.794922,4409.615234,4481.025879,0.000000,3.000000,63.000000,,,,0.000000,4.000000,4.000000,4.000000,4.000000,4.000000,4.000000,4.000000,4.000000,4.000000,4.000000,4.000000,4.000000,4.000000,4.000000,100.000000,,,,,,,,,,,,,,,,,,,,,,,,,,,,
1703503300.610226,1703503300.611102,20.000000,0.000000,4333.589844,4353.205078,4360.256348,4359.358887,4308.717773,4286.922852,4296.538574,4286.410156,4285.256348,4294.102539,4551.410156,4534.743652,4412.179688,4486.153809,0.000000,3.000000,63.000000,,,,0.000000,4.000000,4.000000,4.000000,4.000000,4.000000,4.000000,4.000000,4.000000,4.000000,4.000000,4.000000,4.000000,4.000000,4.000000,100.000000,,,,,,,,,,,,,,,,,5.000000,0.000000,0.459215,0.509338,-0.458618,0.565125,0.998169,-0.046392,0.051764,-15.367840,-37.242634,61.270466
1703503300.618034,1703503300.618910,21.000000,0.000000,4338.333496,4353.461426,4356.666504,4351.666504,4305.641113,4293.974121,4298.846191,4283.974121,4286.153809,4303.974121,4553.589844,4533.717773,4413.589844,4486.794922,0.000000,3.000000,63.000000,,,,0.000000,4.000000,4.000000,4.000000,4.000000,4.000000,4.000000,4.000000,4.000000,4.000000,4.000000,4.000000,4.000000,4.000000,4.000000,100.000000,,,,,,,,,,,,,,,,,,,,,,,,,,,,
1703503300.625842,1703503300.626618,22.000000,0.000000,4328.846191,4349.743652,4350.897461,4341.794922,4306.410156,4294.743652,4308.333496,4285.128418,4290.769043,4300.128418,4546.538574,4522.436035,4400.256348,4474.102539,0.000000,3.000000,63.000000,,,,0.000000,4.000000,4.000000,4.000000,4.000000,4.000000,4.000000,4.000000,4.000000,4.000000,4.000000,4.000000,4.000000,4.000000,4.000000,100.000000,,,,,,,,,,,,,,,,,,,,,,,,,,,,
1703503300.633650,1703503300.634527,23.000000,0.000000,4324.358887,4348.589844,4348.461426,4342.948730,4309.487305,4296.538574,4312.436035,4294.102539,4298.846191,4295.769043,4541.282227,4517.820313,4396.153809,4468.333496,0.000000,3.000000,63.000000,,,,0.000000,4.000000,4.000000,4.000000,4.000000,4.000000,4.000000,4.000000,4.000000,4.000000,4.000000,4.000000,4.000000,4.000000,4.000000,100.000000,,,,,,,,,,,,,,,,,,,,,,,,,,,,
1703503300.641458,1703503300.642335,24.000000,0.000000,4331.410156,4351.282227,4350.641113,4347.692383,4310.256348,4296.410156,4303.077148,4302.692383,4310.384766,4307.179688,4548.077148,4522.948730,4403.205078,4472.563965,0.000000,3.000000,63.000000,,,,0.000000,4.000000,4.000000,4.000000,4.000000,4.000000,4.000000,4.000000,4.000000,4.000000,4.000000,4.000000,4.000000,4.000000,4.000000,100.000000,,,,,,,,,,,,,,,,,6.000000,0.000000,0.459282,0.509277,-0.458618,0.565125,0.995239,-0.055671,0.075693,-15.347723,-37.201702,61.176750
1703503300.649266,1703503300.650243,25.000000,0.000000,4331.794922,4350.897461,4350.256348,4345.384766,4308.077148,4285.256348,4294.743652,4299.230957,4310.769043,4313.717773,4550.128418,4519.615234,4400.769043,4470.769043,0.000000,3.000000,63.000000,,,,0.000000,4.000000,4.000000,4.000000,4.000000,4.000000,4.000000,4.000000,4.000000,4.000000,4.000000,4.000000,4.000000,4.000000,4.000000,100.000000,,,,,,,,,,,,,,,,,,,,,,,,,,,,
1703503300.657074,1703503300.658051,26.000000,0.000000,4324.487305,4341.153809,4350.384766,4338.077148,4306.153809,4277.307617,4291.538574,4289.871582,4298.717773,4301.666504,4540.256348,4513.333496,4391.922852,4462.563965,0.000000,3.000000,63.000000,,,,0.000000,4.000000,4.000000,4.000000,4.000000,4.000000,4.000000,4.000000,4.000000,4.000000,4.000000,4.000000,4.000000,4.000000,4.000000,100.000000,,,,,,,,,,,,,,,,,,,,,,,,,,,,
1703503300.664882,1703503300.665859,27.000000,0.000000,4325.000000,4342.307617,4353.333496,4337.051270,4307.436035,4278.077148,4284.871582,4280.000000,4292.179688,4292.820313,4537.051270,4513.333496,4386.666504,4461.666504,0.000000,3.000000,63.000000,,,,0.000000,4.000000,4.000000,4.000000,4.000000,4.000000,4.000000,4.000000,4.000000,4.000000,4.000000,4.000000,4.000000,4.000000,4.000000,100.000000,,,,,,,,,,,,,,,,,,,,,,,,,,,,
1703503300.672690,1703503300.673567,28.000000,0.000000,4328.846191,4353.974121,4357.948730,4342.307617,4303.589844,4271.410156,4277.948730,4267.948730,4287.948730,4289.871582,4534.358887,4510.512695,4379.358887,4466.282227,0.000000,3.000000,63.000000,,,,0.000000,4.000000,4.000000,4.000000,4.000000,4.000000,4.000000,4.000000,4.000000,4.000000,4.000000,4.000000,4.000000,4.000000,4.000000,100.000000,,,,,,,,,,,,,,,,,7.000000,0.000000,0.459302,0.509094,-0.458801,0.565125,0.984984,-0.061043,0.062508,-15.379617,-37.164867,61.175743
1703503300.680498,1703503300.681375,29.000000,0.000000,4329.871582,4349.358887,4358.717773,4340.897461,4297.179688,4263.205078,4277.051270,4263.717773,4276.538574,4278.205078,4532.051270,4505.384766,4376.538574,4465.897461,0.000000,3.000000,63.000000,,,,0.000000,4.000000,4.000000,4.000000,4.000000,4.000000,4.000000,4.000000,4.000000,4.000000,4.000000,4.000000,4.000000,4.000000,4.000000,100.000000,,,,,,,,,,,,,,,,,,,,,,,,,,,,
1703503300.688306,1703503300.689083,30.000000,0.000000,4324.743652,4338.205078,4348.717773,4330.512695,4295.769043,4265.384766,4278.589844,4271.538574,4274.230957,4274.102539,4533.205078,4505.000000,4378.461426,4460.512695,0.000000,3.000000,63.000000,,,,0.000000,4.000000,4.000000,4.000000,4.000000,4.000000,4.000000,4.000000,4.000000,4.000000,4.000000,4.000000,4.000000,4.000000,4.000000,100.000000,,,,,,,,,,,,,,,,,,,,,,,,,,,,
1703503300.696114,1703503300.696891,31.000000,0.000000,4315.256348,4338.333496,4340.769043,4324.615234,4297.179688,4269.230957,4278.974121,4280.256348,4284.871582,4287.948730,4529.743652,4506.025879,4374.487305,4458.974121,0.000000,3.000000,63.000000,,,,0.000000,4.000000,4.000000,4.000000,4.000000,4.000000,4.000000,4.000000,4.000000,4.000000,4.000000,4.000000,4.000000,4.000000,4.000000,100.000000,,,,,,,,,,,,,,,,,,,,,,,,,,,,
1703503300.703923,1703503300.704599,32.000000,0.000000,4312.307617,4338.589844,4342.307617,4325.641113,4300.000000,4274.102539,4281.538574,4291.538574,4298.333496,4298.461426,4534.871582,4509.487305,4379.358887,4466.410156,0.000000,3.000000,63.000000,,,,0.000000,4.000000,4.000000,4.000000,4.000000,4.000000,4.000000,4.000000,4.000000,4.000000,4.000000,4.000000,4.000000,4.000000,4.000000,100.000000,,,,,,,,,,,,,,,,,8.000000,0.000000,0.459412,0.508911,-0.459045,0.565002,0.988890,-0.039067,0.068856,-15.191655,-37.165047,61.308170
1703503300.711731,1703503300.712407,33.000000,0.000000,4310.641113,4327.692383,4336.922852,4318.717773,4298.589844,4274.743652,4286.025879,4306.025879,4303.461426,4294.743652,4546.153809,4506.666504,4386.410156,4466.538574,0.000000,3.000000,63.000000,,,,0.000000,4.000000,4.000000,4.000000,4.000000,4.000000,4.000000,4.000000,4.000000,4.000000,4.000000,4.000000,4.000000,4.000000,4.000000,100.000000,1.000000,25.000000,4.000000,1.000000,4.000000,1.000000,1.000000,4.000000,4.000000,1.000000,3.000000,3.000000,3.000000,3.000000,4.000000,4.000000,,,,,,,,,,,,
1703503300.719539,1703503300.720115,34.000000,0.000000,4305.512695,4319.358887,4325.641113,4310.000000,4293.461426,4269.358887,4292.820313,4312.436035,4304.230957,4294.358887,4540.384766,4498.077148,4377.436035,4453.461426,0.000000,3.000000,63.000000,,,,0.000000,4.000000,4.000000,4.000000,4.000000,4.000000,4.000000,4.000000,4.000000,4.000000,4.000000,4.000000,4.000000,4.000000,4.000000,100.000000,,,,,,,,,,,,,,,,,,,,,,,,,,,,
1703503300.727347,1703503300.728023,35.000000,0.000000,4305.897461,4321.922852,4324.743652,4315.000000,4293.077148,4269.871582,4294.487305,4313.974121,4311.538574,4304.743652,4534.743652,4503.333496,4373.205078,4452.051270,0.000000,3.000000,63.000000,,,,0.000000,4.000000,4.000000,4.000000,4.000000,4.000000,4.000000,4.000000,4.000000,4.000000,4.000000,4.000000,4.000000,4.000000,4.000000,100.000000,,,,,,,,,,,,,,,,,,,,,,,,,,,,
1703503300.735155,1703503300.735831,36.000000,0.000000,4309.743652,4325.384766,4328.461426,4320.128418,4293.077148,4270.128418,4286.153809,4310.128418,4309.102539,4303.333496,4537.307617,4509.102539,4377.563965,4457.051270,0.000000,3.000000,63.000000,,,,0.000000,4.000000,4.000000,4.000000,4.000000,4.000000,4.000000,4.000000,4.000000,4.000000,4.000000,4.000000,4.000000,4.000000,4.000000,100.000000,,,,,,,,,,,,,,,,,9.000000,0.000000,0.459282,0.508850,-0.459167,0.565063,0.989867,-0.047857,0.066414,-15.189157,-37.048542,61.427353
1703503300.742963,1703503300.743739,37.000000,0.000000,4307.436035,4323.333496,4325.512695,4316.153809,4290.000000,4262.948730,4275.769043,4297.820313,4298.717773,4290.641113,4532.948730,4498.589844,4375.897461,4450.384766,0.000000,3.000000,63.000000,,,,0.000000,4.000000,4.000000,4.000000,4.000000,4.000000,4.000000,4.000000,4.000000,4.000000,4.000000,4.000000,4.000000,4.000000,4.000000,100.000000,,,,,,,,,,,,,,,,,,,,,,,,,,,,
1703503300.750771,1703503300.751547,38.000000,0.000000,4309.871582,4324.615234,4331.666504,4319.871582,4291.410156,4261.025879,4274.102539,4291.794922,4300.897461,4291.025879,4536.922852,4504.230957,4380.256348,4452.051270,0.000000,3.000000,63.000000,,,,0.000000,4.000000,4.000000,4.000000,4.000000,4.000000,4.000000,4.000000,4.000000,4.000000,4.000000,4.000000,4.000000,4.000000,4.000000,100.000000,,,,,,,,,,,,,,,,,,,,,,,,,,,,
1703503300.758579,1703503300.759455,39.000000,0.000000,4324.102539,4332.436035,4349.358887,4336.538574,4297.436035,4263.461426,4273.717773,4289.102539,4303.589844,4300.000000,4546.922852,4523.846191,4391.538574,4469.743652,0.000000,3.000000,63.000000,,,,0.000000,4.000000,4.000000,4.000000,4.000000,4.000000,4.000000,4.000000,4.000000,4.000000,4.000000,4.000000,4.000000,4.000000,4.000000,100.000000,,,,,,,,,,,,,,,,,,,,,,,,,,,,
1703503300.766387,1703503300.767263,40.000000,0.000000,4329.487305,4337.307617,4351.922852,4343.846191,4299.487305,4260.641113,4266.025879,4280.384766,4294.743652,4297.179688,4542.692383,4520.769043,4391.410156,4475.000000,0.000000,3.000000,63.000000,,,,0.000000,4.000000,4.000000,4.000000,4.000000,4.000000,4.000000,4.000000,4.000000,4.000000,4.000000,4.000000,4.000000,4.000000,4.000000,100.000000,,,,,,,,,,,,,,,,,10.000000,0.000000,0.459119,0.508972,-0.459045,0.565186,1.001587,-0.050787,0.065926,-15.186908,-37.143688,61.451283
1703503300.774195,1703503300.775171,41.000000,0.000000,4323.717773,4335.512695,4343.077148,4338.333496,4299.230957,4260.641113,4264.102539,4275.512695,4283.589844,4281.922852,4532.051270,4507.051270,4377.692383,4461.794922,0.000000,3.000000,63.000000,,,,0.000000,4.000000,4.000000,4.000000,4.000000,4.000000,4.000000,4.000000,4.000000,4.000000,4.000000,4.000000,4.000000,4.000000,4.000000,100.000000,,,,,,,,,,,,,,,,,,,,,,,,,,,,
1703503300.782003,1703503300.782979,42.000000,0.000000,4318.974121,4331.025879,4341.666504,4335.256348,4298.333496,4264.743652,4266.282227,4276.538574,4278.461426,4276.538574,4528.461426,4503.717773,4371.666504,4454.358887,0.000000,3.000000,63.000000,,,,0.000000,4.000000,4.000000,4.000000,4.000000,4.000000,4.000000,4.000000,4.000000,4.000000,4.000000,4.000000,4.000000,4.000000,4.000000,100.000000,,,,,,,,,,,,,,,,,,,,,,,,,,,,
1703503300.789811,1703503300.790887,43.000000,0.000000,4311.794922,4323.333496,4334.615234,4328.205078,4294.358887,4259.615234,4262.563965,4274.743652,4277.179688,4282.179688,4523.846191,4497.179688,4371.922852,4453.077148,0.000000,3.000000,63.000000,,,,0.000000,4.000000,4.000000,4.000000,4.000000,4.000000,4.000000,4.000000,4.000000,4.000000,4.000000,4.000000,4.000000,4.000000,4.000000,100.000000,,,,,,,,,,,,,,,,,,,,,,,,,,,,
1703503300.797619,1703503300.798695,44.000000,0.000000,4304.487305,4317.436035,4322.436035,4316.025879,4291.282227,4257.820313,4266.153809,4277.436035,4277.179688,4280.000000,4509.743652,4482.051270,4361.282227,4440.512695,0.000000,3.000000,63.000000,,,,0.000000,4.000000,4.000000,4.000000,4.000000,4.000000,4.000000,4.000000,4.000000,4.000000,4.000000,4.000000,4.000000,4.000000,4.000000,100.000000,,,,,,,,,,,,,,,,,11.000000,0.000000,0.458874,0.509277,-0.458801,0.565308,1.003052,-0.048346,0.066903,-15.284883,-37.029320,61.422821
1703503300.805427,1703503300.806403,45.000000,0.000000,4304.743652,4320.000000,4323.461426,4318.333496,4295.000000,4270.128418,4283.077148,4289.743652,4285.256348,4277.563965,4512.179688,4480.256348,4358.974121,4433.461426,0.000000,3.000000,63.000000,,,,0.000000,4.000000,4.000000,4.000000,4.000000,4.000000,4.000000,4.000000,4.000000,4.000000,4.000000,4.000000,4.000000,4.000000,4.000000,100.000000,,,,,,,,,,,,,,,,,,,,,,,,,,,,
1703503300.813235,1703503300.814211,46.000000,0.000000,4304.743652,4319.102539,4325.769043,4327.051270,4298.717773,4282.307617,4295.769043,4299.102539,4292.692383,4276.538574,4529.743652,4493.333496,4370.897461,4446.794922,0.000000,3.000000,63.000000,,,,0.000000,4.000000,4.000000,4.000000,4.000000,4.000000,4.000000,4.000000,4.000000,4.000000,4.000000,4.000000,4.000000,4.000000,4.000000,100.000000,,,,,,,,,,,,,,,,,,,,,,,,,,,,
1703503300.821043,1703503300.821919,47.000000,0.000000,4302.051270,4313.077148,4318.974121,4324.102539,4298.589844,4280.128418,4294.743652,4297.820313,4289.102539,4272.820313,4529.230957,4497.820313,4371.025879,4451.025879,0.000000,3.000000,63.000000,,,,0.000000,4.000000,4.000000,4.000000,4.000000,4.000000,4.000000,4.000000,4.000000,4.000000,4.000000,4.000000,4.000000,4.000000,4.000000,100.000000,,,,,,,,,,,,,,,,,,,,,,,,,,,,
1703503300.828851,1703503300.829727,48.000000,0.000000,4304.871582,4317.307617,4316.794922,4324.487305,4305.897461,4275.769043,4292.948730,4294.743652,4288.589844,4277.820313,4525.384766,4493.205078,4369.743652,4446.666504,0.000000,3.000000,63.000000,,,,0.000000,4.000000,4.000000,4.000000,4.000000,4.000000,4.000000,4.000000,4.000000,4.000000,4.000000,4.000000,4.000000,4.000000,4.000000,100.000000,,,,,,,,,,,,,,,,,12.000000,0.000000,0.458997,0.509521,-0.458557,0.565186,0.984984,-0.041509,0.065438,-15.206395,-37.026386,61.380539
1703503300.836659,1703503300.837435,49.000000,0.000000,4318.461426,4331.794922,4328.589844,4338.333496,4312.948730,4280.256348,4294.487305,4297.820313,4299.615234,4290.769043,4543.717773,4502.179688,4383.333496,4461.922852,0.000000,3.000000,63.000000,,,,0.000000,4.000000,4.000000,4.000000,4.000000,4.000000,4.000000,4.000000,4.000000,4.000000,4.000000,4.000000,4.000000,4.000000,4.000000,100.000000,,,,,,,,,,,,,,,,,,,,,,,,,,,,
1703503300.844468,1703503300.845243,50.000000,0.000000,4335.384766,4342.179688,4344.102539,4349.743652,4313.205078,4280.384766,4288.846191,4299.743652,4309.487305,4307.563965,4564.743652,4521.025879,4394.871582,4480.256348,0.000000,3.000000,63.000000,,,,0.000000,4.000000,4.000000,4.000000,4.000000,4.000000,4.000000,4.000000,4.000000,4.000000,4.000000,4.000000,4.000000,4.000000,4.000000,100.000000,,,,,,,,,,,,,,,,,,,,,,,,,,,,
1703503300.852275,1703503300.852951,51.000000,0.000000,4340.384766,4344.102539,4346.922852,4349.871582,4310.769043,4270.769043,4280.128418,4298.461426,4310.000000,4318.077148,4569.102539,4526.666504,4396.410156,4480.897461,0.000000,3.000000,63.000000,,,,0.000000,4.000000,4.000000,4.000000,4.000000,4.000000,4.000000,4.000000,4.000000,4.000000,4.000000,4.000000,4.000000,4.000000,4.000000,100.000000,,,,,,,,,,,,,,,,,,,,,,,,,,,,
1703503300.860083,1703503300.860759,52.000000,0.000000,4335.256348,4343.974121,4341.025879,4339.358887,4301.153809,4261.794922,4273.333496,4292.179688,4300.000000,4304.615234,4560.641113,4518.333496,4385.641113,4475.000000,0.000000,3.000000,63.000000,,,,0.000000,4.000000,4.000000,4.000000,4.000000,4.000000,4.000000,4.000000,4.000000,4.000000,4.000000,4.000000,4.000000,4.000000,4.000000,100.000000,,,,,,,,,,,,,,,,,13.000000,0.000000,0.459066,0.509705,-0.458435,0.565063,0.984495,-0.042974,0.076181,-15.335755,-37.040413,61.442486
1703503300.867892,1703503300.868467,53.000000,0.000000,4333.461426,4342.948730,4342.948730,4323.589844,4294.102539,4258.974121,4265.512695,4283.589844,4293.205078,4294.871582,4554.102539,4513.077148,4373.717773,4477.051270,0.000000,3.000000,63.000000,,,,0.000000,4.000000,4.000000,4.000000,4.000000,4.000000,4.000000,4.000000,4.000000,4.000000,4.000000,4.000000,4.000000,4.000000,4.000000,100.000000,,,,,,,,,,,,,,,,,,,,,,,,,,,,
1703503300.875700,1703503300.876275,54.000000,0.000000,4329.358887,4337.179688,4346.794922,4313.589844,4295.384766,4258.205078,4263.333496,4281.025879,4292.051270,4295.641113,4552.307617,4513.846191,4366.282227,4471.666504,0.000000,3.000000,63.000000,,,,0.000000,4.000000,4.000000,4.000000,4.000000,4.000000,4.000000,4.000000,4.000000,4.000000,4.000000,4.000000,4.000000,4.000000,4.000000,100.000000,,,,,,,,,,,,,,,,,,,,,,,,,,,,
1703503300.883508,1703503300.883983,55.000000,0.000000,4316.538574,4328.589844,4336.666504,4304.743652,4292.820313,4257.051270,4269.743652,4280.000000,4279.615234,4272.436035,4540.512695,4504.102539,4350.128418,4450.897461,0.000000,3.000000,63.000000,,,,0.000000,4.000000,4.000000,4.000000,4.000000,4.000000,4.000000,4.000000,4.000000,4.000000,4.000000,4.000000,4.000000,4.000000,4.000000,100.000000,,,,,,,,,,,,,,,,,,,,,,,,,,,,
1703503300.891316,1703503300.891791,56.000000,0.000000,4304.743652,4318.846191,4321.538574,4293.461426,4290.512695,4259.230957,4275.384766,4277.692383,4269.102539,4254.102539,4524.871582,4487.436035,4337.051270,4439.743652,0.000000,3.000000,63.000000,,,,0.000000,4.000000,4.000000,4.000000,4.000000,4.000000,4.000000,4.000000,4.000000,4.000000,4.000000,4.000000,4.000000,4.000000,4.000000,100.000000,,,,,,,,,,,,,,,,,14.000000,0.000000,0.459435,0.509766,-0.458374,0.564758,0.982053,-0.036626,0.072763,-15.385513,-37.003040,61.314903
1703503300.899124,1703503300.899499,57.000000,0.000000,4306.153809,4313.846191,4318.205078,4289.230957,4294.487305,4261.922852,4278.846191,4281.538574,4273.974121,4267.179688,4520.769043,4483.589844,4339.871582,4441.794922,0.000000,3.000000,63.000000,,,,0.000000,4.000000,4.000000,4.000000,4.000000,4.000000,4.000000,4.000000,4.000000,4.000000,4.000000,4.000000,4.000000,4.000000,4.000000,100.000000,,,,,,,,,,,,,,,,,,,,,,,,,,,,
1703503300.906932,1703503300.907407,58.000000,0.000000,4314.102539,4316.153809,4320.641113,4292.179688,4296.282227,4262.820313,4281.410156,4291.538574,4282.563965,4278.589844,4529.358887,4489.487305,4350.384766,4443.077148,0.000000,3.000000,63.000000,,,,0.000000,4.000000,4.000000,4.000000,4.000000,4.000000,4.000000,4.000000,4.000000,4.000000,4.000000,4.000000,4.000000,4.000000,4.000000,100.000000,,,,,,,,,,,,,,,,,,,,,,,,,,,,
1703503300.914740,1703503300.915215,59.000000,0.000000,4314.743652,4315.256348,4320.641113,4297.820313,4294.615234,4262.307617,4281.153809,4295.000000,4285.512695,4274.358887,4533.846191,4488.974121,4354.743652,4441.538574,0.000000,3.000000,63.000000,,,,0.000000,4.000000,4.000000,4.000000,4.000000,4.000000,4.000000,4.000000,4.000000,4.000000,4.000000,4.000000,4.000000,4.000000,4.000000,100.000000,,,,,,,,,,,,,,,,,,,,,,,,,,,,
1703503300.922548,1703503300.923123,60.000000,0.000000,4317.179688,4313.333496,4324.871582,4303.846191,4294.871582,4262.051270,4279.615234,4285.641113,4283.077148,4267.051270,4526.666504,4486.153809,4351.025879,4441.410156,0.000000,3.000000,63.000000,,,,0.000000,4.000000,4.000000,4.000000,4.000000,4.000000,4.000000,4.000000,4.000000,4.000000,4.000000,4.000000,4.000000,4.000000,4.000000,100.000000,,,,,,,,,,,,,,,,,15.000000,0.000000,0.459571,0.509766,-0.458313,0.564697,0.991820,-0.040532,0.059089,-15.363628,-37.019402,61.350079
1703503300.930356,1703503300.930931,61.000000,0.000000,4330.000000,4320.897461,4336.153809,4310.641113,4296.153809,4263.589844,4281.410156,4280.512695,4285.641113,4268.589844,4532.307617,4503.589844,4360.000000,4457.692383,0.000000,3.000000,63.000000,,,,0.000000,4.000000,4.000000,4.000000,4.000000,4.000000,4.000000,4.000000,4.000000,4.000000,4.000000,4.000000,4.000000,4.000000,4.000000,100.000000,,,,,,,,,,,,,,,,,,,,,,,,,,,,
1703503300.938164,1703503300.938839,62.000000,0.000000,4341.922852,4325.769043,4351.410156,4319.102539,4295.769043,4262.307617,4280.256348,4282.692383,4288.461426,4276.794922,4553.205078,4529.102539,4381.153809,4480.384766,0.000000,3.000000,63.000000,,,,0.000000,4.000000,4.000000,4.000000,4.000000,4.000000,4.000000,4.000000,4.000000,4.000000,4.000000,4.000000,4.000000,4.000000,4.000000,100.000000,,,,,,,,,,,,,,,,,,,,,,,,,,,,
1703503300.945972,1703503300.946647,63.000000,0.000000,4349.615234,4329.487305,4361.282227,4332.820313,4298.205078,4259.358887,4271.666504,4274.871582,4283.205078,4279.358887,4559.871582,4534.230957,4390.128418,4483.461426,0.000000,3.000000,63.000000,,,,0.000000,4.000000,4.000000,4.000000,4.000000,4.000000,4.000000,4.000000,4.000000,4.000000,4.000000,4.000000,4.000000,4.000000,4.000000,100.000000,,,,,,,,,,,,,,,,,,,,,,,,,,,,
1703503300.953780,1703503300.954554,64.000000,0.000000,4354.743652,4340.384766,4360.384766,4344.615234,4301.025879,4260.897461,4262.948730,4257.563965,4279.358887,4276.025879,4546.666504,4523.077148,4384.871582,4475.641113,5327.000000,3.000000,63.000000,,,,0.000000,4.000000,4.000000,4.000000,4.000000,4.000000,4.000000,4.000000,4.000000,4.000000,4.000000,4.000000,4.000000,4.000000,4.000000,100.000000,,,,,,,,,,,,,,,,,16.000000,0.000000,0.459538,0.509766,-0.458496,0.564575,0.985472,-0.043462,0.060066,-15.677266,-36.934128,61.315071
1703503300.961588,1703503300.962362,65.000000,0.000000,4355.128418,4342.051270,4361.538574,4344.743652,4300.256348,4263.461426,4262.307617,4254.615234,4279.102539,4278.205078,4546.794922,4522.820313,4387.051270,4478.205078,5572.000000,3.000000,63.000000,,,,0.000000,4.000000,4.000000,4.000000,4.000000,4.000000,4.000000,4.000000,4.000000,4.000000,4.000000,4.000000,4.000000,4.000000,4.000000,100.000000,,,,,,,,,,,,,,,,,,,,,,,,,,,,
1703503300.969396,1703503300.970270,66.000000,0.000000,4348.461426,4330.641113,4361.410156,4338.589844,4300.384766,4260.256348,4259.358887,4262.436035,4279.358887,4281.153809,4563.974121,4535.000000,4402.820313,4483.717773,5465.000000,3.000000,63.000000,,,,0.000000,4.000000,4.000000,4.000000,4.000000,4.000000,4.000000,4.000000,4.000000,4.000000,4.000000,4.000000,4.000000,4.000000,4.000000,100.000000,,,,,,,,,,,,,,,,,,,,,,,,,,,,
1703503300.977204,1703503300.978078,67.000000,0.000000,4334.102539,4316.282227,4345.512695,4328.846191,4299.102539,4256.794922,4255.256348,4263.077148,4276.922852,4270.641113,4556.282227,4526.922852,4399.102539,4469.743652,5452.000000,3.000000,63.000000,,,,0.000000,4.000000,4.000000,4.000000,4.000000,4.000000,4.000000,4.000000,4.000000,4.000000,4.000000,4.000000,4.000000,4.000000,4.000000,100.000000,,,,,,,,,,,,,,,,,,,,,,,,,,,,
1703503300.985012,1703503300.985986,68.000000,0.000000,4315.256348,4303.205078,4324.871582,4318.717773,4297.179688,4259.615234,4264.615234,4270.512695,4275.641113,4263.461426,4526.410156,4493.077148,4367.563965,4441.410156,5349.000000,3.000000,63.000000,,,,0.000000,4.000000,4.000000,4.000000,4.000000,4.000000,4.000000,4.000000,4.000000,4.000000,4.000000,4.000000,4.000000,4.000000,4.000000,100.000000,,,,,,,,,,,,,,,,,17.000000,0.000000,0.459252,0.509766,-0.458557,0.564758,0.992309,-0.052741,0.056648,-15.792872,-37.074051,61.233566
1703503300.992820,1703503300.993794,69.000000,0.000000,4298.589844,4291.538574,4308.846191,4306.282227,4292.563965,4262.436035,4278.717773,4289.487305,4284.102539,4270.512695,4513.846191,4472.948730,4351.410156,4421.794922,4934.000000,3.000000,63.000000,,,,0.000000,4.000000,4.000000,4.000000,4.000000,4.000000,4.000000,4.000000,4.000000,4.000000,4.000000,4.000000,4.000000,4.000000,4.000000,100.000000,,,,,,,,,,,,,,,,,,,,,,,,,,,,
1703503301.000629,1703503301.001502,70.000000,0.000000,4290.641113,4279.358887,4297.563965,4293.974121,4285.384766,4263.461426,4282.307617,4300.256348,4289.102539,4271.025879,4512.692383,4479.615234,4357.820313,4415.256348,4200.000000,3.000000,63.000000,,,,0.000000,4.000000,4.000000,4.000000,4.000000,4.000000,4.000000,4.000000,4.000000,4.000000,4.000000,4.000000,4.000000,4.000000,4.000000,100.000000,,,,,,,,,,,,,,,,,,,,,,,,,,,,
1703503301.008437,1703503301.009310,71.000000,0.000000,4291.794922,4271.794922,4292.307617,4290.897461,4287.692383,4266.153809,4279.743652,4302.820313,4286.666504,4261.794922,4509.615234,4480.128418,4360.384766,4412.051270,5048.000000,3.000000,63.000000,,,,0.000000,4.000000,4.000000,4.000000,4.000000,4.000000,4.000000,4.000000,4.000000,4.000000,4.000000,4.000000,4.000000,4.000000,4.000000,100.000000,,,,,,,,,,,,,,,,,,,,,,,,,,,,
1703503301.016245,1703503301.017018,72.000000,0.000000,4292.820313,4276.153809,4292.436035,4296.794922,4294.230957,4265.897461,4280.769043,4303.717773,4288.077148,4258.846191,4513.205078,4470.000000,4360.000000,4410.512695,4944.000000,3.000000,63.000000,,,,0.000000,4.000000,4.000000,4.000000,4.000000,4.000000,4.000000,4.000000,4.000000,4.000000,4.000000,4.000000,4.000000,4.000000,4.000000,100.000000,,,,,,,,,,,,,,,,,18.000000,0.000000,0.458926,0.509827,-0.458740,0.564819,0.997680,-0.045904,0.063973,-15.763585,-37.199978,61.210209
1703503301.024053,1703503301.024826,73.000000,0.000000,4296.538574,4278.717773,4296.538574,4303.205078,4292.563965,4263.846191,4278.205078,4298.077148,4288.974121,4256.794922,4517.436035,4475.256348,4367.051270,4419.615234,5569.000000,3.000000,63.000000,,,,0.000000,4.000000,4.000000,4.000000,4.000000,4.000000,4.000000,4.000000,4.000000,4.000000,4.000000,4.000000,4.000000,4.000000,4.000000,100.000000,,,,,,,,,,,,,,,,,,,,,,,,,,,,
1703503301.031861,1703503301.032534,74.000000,0.000000,4306.153809,4276.282227,4305.897461,4305.897461,4286.922852,4261.282227,4265.769043,4293.717773,4290.256348,4260.384766,4524.230957,4490.897461,4381.538574,4439.487305,6158.000000,3.000000,63.000000,,,,0.000000,4.000000,4.000000,4.000000,4.000000,4.000000,4.000000,4.000000,4.000000,4.000000,4.000000,4.000000,4.000000,4.000000,4.000000,100.000000,,,,,,,,,,,,,,,,,,,,,,,,,,,,
1703503301.039669,1703503301.040442,75.000000,0.000000,4316.025879,4284.871582,4318.974121,4311.153809,4285.641113,4256.794922,4261.410156,4292.692383,4294.871582,4273.333496,4534.230957,4497.948730,4394.871582,4450.769043,6402.000000,3.000000,63.000000,,,,0.000000,4.000000,4.000000,4.000000,4.000000,4.000000,4.000000,4.000000,4.000000,4.000000,4.000000,4.000000,4.000000,4.000000,4.000000,100.000000,,,,,,,,,,,,,,,,,,,,,,,,,,,,
1703503301.047477,1703503301.048250,76.000000,0.000000,4323.717773,4296.410156,4327.051270,4321.922852,4285.897461,4251.282227,4260.641113,4285.512695,4295.384766,4280.000000,4538.589844,4499.102539,4400.384766,4449.230957,6952.000000,3.000000,63.000000,,,,0.000000,4.000000,4.000000,4.000000,4.000000,4.000000,4.000000,4.000000,4.000000,4.000000,4.000000,4.000000,4.000000,4.000000,4.000000,100.000000,,,,,,,,,,,,,,,,,19.000000,0.000000,0.458621,0.509827,-0.459045,0.564819,0.998657,-0.048834,0.061043,-15.537227,-37.279980,61.255856
1703503301.055285,1703503301.056059,77.000000,0.000000,4329.743652,4296.410156,4331.922852,4329.743652,4284.230957,4246.538574,4251.025879,4282.051270,4296.153809,4287.820313,4547.948730,4506.153809,4408.846191,4456.666504,7306.000000,3.000000,63.000000,,,,0.000000,4.000000,4.000000,4.000000,4.000000,4.000000,4.000000,4.000000,4.000000,4.000000,4.000000,4.000000,4.000000,4.000000,4.000000,100.000000,,,,,,,,,,,,,,,,,,,,,,,,,,,,
1703503301.063093,1703503301.063767,78.000000,0.000000,4333.846191,4297.179688,4336.922852,4328.461426,4284.230957,4248.589844,4246.922852,4281.025879,4295.512695,4287.820313,4555.512695,4510.897461,4415.641113,4468.205078,6158.000000,3.000000,63.000000,,,,0.000000,4.000000,4.000000,4.000000,4.000000,4.000000,4.000000,4.000000,4.000000,4.000000,4.000000,4.000000,4.000000,4.000000,4.000000,100.000000,,,,,,,,,,,,,,,,,,,,,,,,,,,,
1703503301.070901,1703503301.071675,79.000000,0.000000,4335.384766,4300.769043,4338.333496,4326.794922,4288.205078,4254.487305,4249.871582,4270.769043,4282.051270,4268.846191,4540.000000,4504.871582,4406.282227,4461.282227,6402.000000,3.000000,63.000000,,,,0.000000,4.000000,4.000000,4.000000,4.000000,4.000000,4.000000,4.000000,4.000000,4.000000,4.000000,4.000000,4.000000,4.000000,4.000000,100.000000,,,,,,,,,,,,,,,,,,,,,,,,,,,,
1703503301.078709,1703503301.079483,80.000000,0.000000,4327.436035,4290.897461,4328.205078,4328.077148,4288.717773,4252.563965,4251.282227,4265.769043,4270.641113,4256.922852,4522.051270,4492.563965,4391.922852,4446.794922,6952.000000,3.000000,63.000000,,,,0.000000,4.000000,4.000000,4.000000,4.000000,4.000000,4.000000,4.000000,4.000000,4.000000,4.000000,4.000000,4.000000,4.000000,4.000000,100.000000,,,,,,,,,,,,,,,,,20.000000,0.000000,0.458391,0.509949,-0.459290,0.564697,0.988402,-0.060554,0.066903,-15.383504,-37.268650,61.413601
1703503301.086517,1703503301.087391,81.000000,0.000000,4314.871582,4276.282227,4312.820313,4321.282227,4280.897461,4247.948730,4255.000000,4278.717773,4275.512695,4260.256348,4524.615234,4486.410156,4387.436035,4441.538574,7306.000000,3.000000,63.000000,,,,0.000000,4.000000,4.000000,4.000000,4.000000,4.000000,4.000000,4.000000,4.000000,4.000000,4.000000,4.000000,4.000000,4.000000,4.000000,100.000000,,,,,,,,,,,,,,,,,,,,,,,,,,,,
1703503301.094325,1703503301.095199,82.000000,0.000000,4308.461426,4270.641113,4309.358887,4308.974121,4277.563965,4255.128418,4261.794922,4301.153809,4287.179688,4265.000000,4538.589844,4496.666504,4393.077148,4444.487305,6158.000000,3.000000,63.000000,,,,0.000000,4.000000,4.000000,4.000000,4.000000,4.000000,4.000000,4.000000,4.000000,4.000000,4.000000,4.000000,4.000000,4.000000,4.000000,100.000000,,,,,,,,,,,,,,,,,,,,,,,,,,,,
1703503301.102133,1703503301.103107,83.000000,0.000000,4305.128418,4266.538574,4309.102539,4303.077148,4279.871582,4265.384766,4268.589844,4317.051270,4294.743652,4269.230957,4537.179688,4498.461426,4394.615234,4438.589844,6402.000000,3.000000,63.000000,,,,0.000000,4.000000,4.000000,4.000000,4.000000,4.000000,4.000000,4.000000,4.000000,4.000000,4.000000,4.000000,4.000000,4.000000,4.000000,100.000000,,,,,,,,,,,,,,,,,,,,,,,,,,,,
1703503301.109941,1703503301.110915,84.000000,0.000000,4301.794922,4267.436035,4302.051270,4309.743652,4284.102539,4264.743652,4273.717773,4320.641113,4299.102539,4272.179688,4523.589844,4481.922852,4387.692383,4428.461426,6952.000000,3.000000,63.000000,,,,0.000000,4.000000,4.000000,4.000000,4.000000,4.000000,4.000000,4.000000,4.000000,4.000000,4.000000,4.000000,4.000000,4.000000,4.000000,100.000000,,,,,,,,,,,,,,,,,21.000000,0.000000,0.458330,0.509949,-0.459351,0.564697,0.985960,-0.051276,0.061531,-15.428487,-37.325119,61.455574
1703503301.117749,1703503301.118823,85.000000,0.000000,4303.205078,4274.487305,4301.153809,4320.641113,4290.128418,4265.641113,4274.615234,4322.179688,4306.025879,4269.743652,4524.615234,4478.846191,4386.794922,4431.153809,7306.000000,3.000000,63.000000,,,,0.000000,4.000000,4.000000,4.000000,4.000000,4.000000,4.000000,4.000000,4.000000,4.000000,4.000000,4.000000,4.000000,4.000000,4.000000,100.000000,,,,,,,,,,,,,,,,,,,,,,,,,,,,
1703503301.125557,1703503301.126631,86.000000,0.000000,4315.128418,4283.717773,4314.230957,4328.846191,4295.000000,4274.871582,4275.384766,4324.743652,4313.461426,4277.563965,4542.692383,4498.205078,4401.282227,4446.922852,6158.000000,3.000000,63.000000,,,,0.000000,4.000000,4.000000,4.000000,4.000000,4.000000,4.000000,4.000000,4.000000,4.000000,4.000000,4.000000,4.000000,4.000000,4.000000,100.000000,,,,,,,,,,,,,,,,,,,,,,,,,,,,
1703503301.133365,1703503301.134538,87.000000,0.000000,4332.563965,4296.282227,4324.871582,4334.615234,4303.717773,4281.666504,4274.358887,4320.128418,4319.102539,4299.487305,4563.205078,4516.794922,4423.717773,4469.615234,6402.000000,3.000000,63.000000,,,,0.000000,4.000000,4.000000,4.000000,4.000000,4.000000,4.000000,4.000000,4.000000,4.000000,4.000000,4.000000,4.000000,4.000000,4.000000,100.000000,,,,,,,,,,,,,,,,,,,,,,,,,,,,
1703503301.141173,1703503301.142346,88.000000,0.000000,4342.692383,4308.077148,4331.282227,4340.769043,4306.666504,4280.512695,4267.051270,4312.307617,4319.615234,4306.538574,4569.102539,4522.563965,4432.820313,4475.512695,6952.000000,3.000000,63.000000,,,,0.000000,4.000000,4.000000,4.000000,4.000000,4.000000,4.000000,4.000000,4.000000,4.000000,4.000000,4.000000,4.000000,4.000000,4.000000,100.000000,,,,,,,,,,,,,,,,,22.000000,0.000000,0.458201,0.510010,-0.459412,0.564697,0.982542,-0.059089,0.046881,-15.568972,-37.342606,61.493351
1703503301.148981,1703503301.150254,89.000000,0.000000,4347.179688,4312.307617,4341.410156,4347.692383,4302.179688,4277.563965,4263.077148,4308.333496,4313.205078,4296.666504,4565.256348,4519.358887,4428.846191,4467.692383,7306.000000,3.000000,63.000000,,,,0.000000,4.000000,4.000000,4.000000,4.000000,4.000000,4.000000,4.000000,4.000000,4.000000,4.000000,4.000000,4.000000,4.000000,4.000000,100.000000,,,,,,,,,,,,,,,,,,,,,,,,,,,,
1703503301.156789,1703503301.158062,90.000000,0.000000,4351.666504,4312.820313,4346.538574,4350.128418,4300.512695,4277.948730,4264.743652,4308.077148,4308.974121,4295.512695,4571.538574,4518.589844,4436.922852,4477.307617,6158.000000,3.000000,63.000000,,,,0.000000,4.000000,4.000000,4.000000,4.000000,4.000000,4.000000,4.000000,4.000000,4.000000,4.000000,4.000000,4.000000,4.000000,4.000000,100.000000,,,,,,,,,,,,,,,,,,,,,,,,,,,,
1703503301.164598,1703503301.165770,91.000000,0.000000,4355.512695,4313.846191,4345.512695,4349.871582,4301.794922,4278.205078,4263.461426,4308.589844,4308.846191,4300.384766,4576.025879,4524.102539,4445.512695,4487.563965,6402.000000,3.000000,63.000000,,,,0.000000,4.000000,4.000000,4.000000,4.000000,4.000000,4.000000,4.000000,4.000000,4.000000,4.000000,4.000000,4.000000,4.000000,4.000000,100.000000,,,,,,,,,,,,,,,,,,,,,,,,,,,,
1703503301.172406,1703503301.173578,92.000000,0.000000,4350.256348,4311.410156,4338.846191,4348.333496,4303.846191,4278.333496,4263.717773,4308.717773,4308.205078,4294.615234,4570.641113,4524.615234,4436.025879,4479.230957,6952.000000,3.000000,63.000000,,,,0.000000,4.000000,4.000000,4.000000,4.000000,4.000000,4.000000,4.000000,4.000000,4.000000,4.000000,4.000000,4.000000,4.000000,4.000000,100.000000,,,,,,,,,,,,,,,,,23.000000,0.000000,0.458194,0.510071,-0.459351,0.564697,0.999145,-0.048834,0.065926,-15.695408,-37.225010,61.444016
1703503301.180214,1703503301.181286,93.000000,0.000000,4335.897461,4301.922852,4327.948730,4340.769043,4300.384766,4277.051270,4268.461426,4307.563965,4300.256348,4279.871582,4561.922852,4516.922852,4425.128418,4467.948730,7306.000000,3.000000,63.000000,,,,0.000000,4.000000,4.000000,4.000000,4.000000,4.000000,4.000000,4.000000,4.000000,4.000000,4.000000,4.000000,4.000000,4.000000,4.000000,100.000000,,,,,,,,,,,,,,,,,,,,,,,,,,,,
1703503301.188022,1703503301.189194,94.000000,0.000000,4329.871582,4294.487305,4324.743652,4335.769043,4298.333496,4278.077148,4275.512695,4307.436035,4286.282227,4265.000000,4555.000000,4512.307617,4423.461426,4465.000000,6158.000000,3.000000,63.000000,,,,0.000000,4.000000,4.000000,4.000000,4.000000,4.000000,4.000000,4.000000,4.000000,4.000000,4.000000,4.000000,4.000000,4.000000,4.000000,100.000000,,,,,,,,,,,,,,,,,,,,,,,,,,,,
1703503301.195830,1703503301.197003,95.000000,0.000000,4333.974121,4297.820313,4327.436035,4341.922852,4306.538574,4284.230957,4282.051270,4317.563965,4286.025879,4269.615234,4558.717773,4519.871582,4427.179688,4467.692383,6402.000000,3.000000,63.000000,,,,0.000000,4.000000,4.000000,4.000000,4.000000,4.000000,4.000000,4.000000,4.000000,4.000000,4.000000,4.000000,4.000000,4.000000,4.000000,100.000000,,,,,,,,,,,,,,,,,,,,,,,,,,,,
1703503301.203638,1703503301.204911,96.000000,0.000000,4328.717773,4298.846191,4325.128418,4344.487305,4304.743652,4284.102539,4282.692383,4328.717773,4295.897461,4280.384766,4560.384766,4521.922852,4426.410156,4466.025879,6952.000000,3.000000,63.000000,,,,0.000000,4.000000,4.000000,4.000000,4.000000,4.000000,4.000000,4.000000,4.000000,4.000000,4.000000,4.000000,4.000000,4.000000,4.000000,100.000000,,,,,,,,,,,,,,,,,24.000000,0.000000,0.458173,0.510132,-0.459229,0.564758,0.996704,-0.062996,0.056159,-15.609200,-37.185844,61.416283
1703503301.211446,1703503301.212719,97.000000,0.000000,4320.769043,4293.974121,4321.153809,4340.641113,4294.358887,4278.205078,4279.743652,4328.333496,4300.641113,4278.717773,4557.692383,4510.641113,4423.205078,4457.307617,7306.000000,3.000000,63.000000,,,,0.000000,4.000000,4.000000,4.000000,4.000000,4.000000,4.000000,4.000000,4.000000,4.000000,4.000000,4.000000,4.000000,4.000000,4.000000,100.000000,1.000000,25.000000,4.000000,1.000000,4.000000,1.000000,3.000000,4.000000,4.000000,1.000000,4.000000,3.000000,3.000000,3.000000,4.000000,4.000000,,,,,,,,,,,,
1703503301.219254,1703503301.220627,98.000000,0.000000,4322.948730,4294.487305,4320.641113,4339.871582,4296.282227,4278.077148,4278.846191,4327.307617,4307.179688,4285.256348,4563.974121,4511.025879,4427.563965,4456.922852,6158.000000,3.000000,63.000000,,,,0.000000,4.000000,4.000000,4.000000,4.000000,4.000000,4.000000,4.000000,4.000000,4.000000,4.000000,4.000000,4.000000,4.000000,4.000000,100.000000,,,,,,,,,,,,,,,,,,,,,,,,,,,,
1703503301.227062,1703503301.228435,99.000000,0.000000,4327.051270,4298.589844,4323.205078,4339.358887,4297.820313,4278.974121,4278.589844,4324.615234,4309.487305,4291.025879,4565.769043,4518.717773,4431.410156,4460.128418,6402.000000,3.000000,63.000000,,,,0.000000,4.000000,4.000000,4.000000,4.000000,4.000000,4.000000,4.000000,4.000000,4.000000,4.000000,4.000000,4.000000,4.000000,4.000000,100.000000,,,,,,,,,,,,,,,,,,,,,,,,,,,,
1703503301.234870,1703503301.236244,100.000000,0.000000,4331.282227,4307.692383,4330.769043,4343.717773,4300.769043,4280.512695,4276.922852,4314.871582,4306.922852,4280.641113,4562.179688,4520.384766,4434.871582,4463.717773,6952.000000,3.000000,63.000000,,,,0.000000,4.000000,4.000000,4.000000,4.000000,4.000000,4.000000,4.000000,4.000000,4.000000,4.000000,4.000000,4.000000,4.000000,4.000000,100.000000,,,,,,,,,,,,,,,,,25.000000,0.000000,0.457921,0.510071,-0.459473,0.564819,0.984495,-0.056648,0.054206,-15.398280,-37.183926,61.357986
1703503301.242678,1703503301.243952,101.000000,0.000000,4341.794922,4318.589844,4340.512695,4359.487305,4311.153809,4288.589844,4278.974121,4310.256348,4307.179688,4278.077148,4570.128418,4531.538574,4442.948730,4476.922852,7306.000000,3.000000,63.000000,,,,0.000000,4.000000,4.000000,4.000000,4.000000,4.000000,4.000000,4.000000,4.000000,4.000000,4.000000,4.000000,4.000000,4.000000,4.000000,100.000000,,,,,,,,,,,,,,,,,,,,,,,,,,,,
1703503301.250486,1703503301.251760,102.000000,0.000000,4349.871582,4324.358887,4345.128418,4371.410156,4310.256348,4290.641113,4281.153809,4311.153809,4304.487305,4283.589844,4576.922852,4541.922852,4445.769043,4482.436035,6158.000000,3.000000,63.000000,,,,0.000000,4.000000,4.000000,4.000000,4.000000,4.000000,4.000000,4.000000,4.000000,4.000000,4.000000,4.000000,4.000000,4.000000,4.000000,100.000000,,,,,,,,,,,,,,,,,,,,,,,,,,,,
1703503301.258294,1703503301.259468,103.000000,0.000000,4346.794922,4321.282227,4343.461426,4365.128418,4302.563965,4281.538574,4276.282227,4308.205078,4300.256348,4280.128418,4568.846191,4530.000000,4438.717773,4475.000000,6402.000000,3.000000,63.000000,,,,0.000000,4.000000,4.000000,4.000000,4.000000,4.000000,4.000000,4.000000,4.000000,4.000000,4.000000,4.000000,4.000000,4.000000,4.000000,100.000000,,,,,,,,,,,,,,,,,,,,,,,,,,,,
1703503301.266102,1703503301.267276,104.000000,0.000000,4342.692383,4314.871582,4341.282227,4359.102539,4301.153809,4277.307617,4275.128418,4311.410156,4302.692383,4275.512695,4560.256348,4521.153809,4431.922852,4472.563965,6952.000000,3.000000,63.000000,,,,0.000000,4.000000,4.000000,4.000000,4.000000,4.000000,4.000000,4.000000,4.000000,4.000000,4.000000,4.000000,4.000000,4.000000,4.000000,100.000000,,,,,,,,,,,,,,,,,26.000000,0.000000,0.457921,0.510071,-0.459473,0.564819,0.995727,-0.047857,0.056648,-15.658452,-37.332199,61.438854
1703503301.273910,1703503301.274984,105.000000,0.000000,4341.153809,4311.538574,4333.205078,4358.589844,4298.846191,4279.358887,4279.230957,4323.846191,4308.461426,4281.410156,4564.487305,4528.846191,4433.205078,4470.512695,7306.000000,3.000000,63.000000,,,,0.000000,4.000000,4.000000,4.000000,4.000000,4.000000,4.000000,4.000000,4.000000,4.000000,4.000000,4.000000,4.000000,4.000000,4.000000,100.000000,,,,,,,,,,,,,,,,,,,,,,,,,,,,
1703503301.281718,1703503301.282792,106.000000,0.000000,4330.769043,4302.820313,4318.333496,4349.358887,4295.512695,4276.794922,4277.563965,4329.615234,4310.256348,4286.282227,4566.666504,4520.128418,4429.743652,4457.948730,6158.000000,3.000000,63.000000,,,,0.000000,4.000000,4.000000,4.000000,4.000000,4.000000,4.000000,4.000000,4.000000,4.000000,4.000000,4.000000,4.000000,4.000000,4.000000,100.000000,,,,,,,,,,,,,,,,,,,,,,,,,,,,
1703503301.289526,1703503301.290500,107.000000,0.000000,4323.589844,4298.077148,4313.333496,4339.871582,4295.384766,4276.153809,4274.743652,4327.179688,4308.077148,4285.128418,4557.179688,4502.692383,4418.333496,4447.820313,6402.000000,3.000000,63.000000,,,,0.000000,4.000000,4.000000,4.000000,4.000000,4.000000,4.000000,4.000000,4.000000,4.000000,4.000000,4.000000,4.000000,4.000000,4.000000,100.000000,,,,,,,,,,,,,,,,,,,,,,,,,,,,
1703503301.297335,1703503301.298308,108.000000,0.000000,4328.461426,4303.589844,4318.461426,4342.051270,4295.128418,4278.333496,4278.717773,4328.077148,4307.948730,4281.538574,4555.769043,4511.538574,4418.717773,4454.871582,6952.000000,3.000000,63.000000,,,,0.000000,4.000000,4.000000,4.000000,4.000000,4.000000,4.000000,4.000000,4.000000,4.000000,4.000000,4.000000,4.000000,4.000000,4.000000,100.000000,,,,,,,,,,,,,,,,,27.000000,0.000000,0.457867,0.510132,-0.459534,0.564758,0.995239,-0.056159,0.067391,-15.675941,-37.382313,61.311634
1703503301.305143,1703503301.306016,109.000000,0.000000,4331.153809,4301.666504,4322.692383,4345.128418,4293.205078,4270.512695,4280.769043,4326.538574,4302.948730,4272.820313,4560.000000,4522.563965,4424.743652,4461.153809,7306.000000,3.000000,63.000000,,,,0.000000,4.000000,4.000000,4.000000,4.000000,4.000000,4.000000,4.000000,4.000000,4.000000,4.000000,4.000000,4.000000,4.000000,4.000000,100.000000,,,,,,,,,,,,,,,,,,,,,,,,,,,,
1703503301.312950,1703503301.313924,110.000000,0.000000,4329.102539,4296.153809,4322.820313,4341.410156,4292.179688,4263.589844,4276.410156,4318.077148,4287.563965,4262.948730,4550.256348,4510.128418,4415.000000,4455.256348,6158.000000,3.000000,63.000000,,,,0.000000,4.000000,4.000000,4.000000,4.000000,4.000000,4.000000,4.000000,4.000000,4.000000,4.000000,4.000000,4.000000,4.000000,4.000000,100.000000,,,,,,,,,,,,,,,,,,,,,,,,,,,,
1703503301.320759,1703503301.321732,111.000000,0.000000,4329.615234,4300.384766,4319.743652,4342.307617,4294.487305,4272.563965,4276.025879,4309.615234,4277.820313,4256.282227,4547.563965,4504.102539,4409.230957,4455.641113,6402.000000,3.000000,63.000000,,,,0.000000,4.000000,4.000000,4.000000,4.000000,4.000000,4.000000,4.000000,4.000000,4.000000,4.000000,4.000000,4.000000,4.000000,4.000000,100.000000,,,,,,,,,,,,,,,,,,,,,,,,,,,,
1703503301.328567,1703503301.329639,112.000000,0.000000,4329.358887,4306.410156,4323.333496,4349.743652,4293.974121,4281.153809,4277.820313,4301.794922,4279.871582,4254.871582,4556.282227,4511.282227,4414.871582,4459.102539,6952.000000,3.000000,63.000000,,,,0.000000,4.000000,4.000000,4.000000,4.000000,4.000000,4.000000,4.000000,4.000000,4.000000,4.000000,4.000000,4.000000,4.000000,4.000000,100.000000,,,,,,,,,,,,,,,,,28.000000,0.000000,0.457935,0.510071,-0.459534,0.564758,0.991820,-0.043462,0.058113,-15.675013,-37.277416,61.263805
1703503301.336375,1703503301.337447,113.000000,0.000000,4327.563965,4305.384766,4326.282227,4352.179688,4292.179688,4277.692383,4275.000000,4295.384766,4280.512695,4259.230957,4552.948730,4505.897461,4413.461426,4451.282227,7306.000000,3.000000,63.000000,,,,0.000000,4.000000,4.000000,4.000000,4.000000,4.000000,4.000000,4.000000,4.000000,4.000000,4.000000,4.000000,4.000000,4.000000,4.000000,100.000000,,,,,,,,,,,,,,,,,,,,,,,,,,,,
1703503301.344183,1703503301.345355,114.000000,0.000000,4325.512695,4301.922852,4316.794922,4345.641113,4293.846191,4277.307617,4276.538574,4292.948730,4280.000000,4259.358887,4540.384766,4493.974121,4406.666504,4444.743652,6158.000000,3.000000,63.000000,,,,0.000000,4.000000,4.000000,4.000000,4.000000,4.000000,4.000000,4.000000,4.000000,4.000000,4.000000,4.000000,4.000000,4.000000,4.000000,100.000000,,,,,,,,,,,,,,,,,,,,,,,,,,,,
1703503301.351991,1703503301.353163,115.000000,0.000000,4324.487305,4299.230957,4310.256348,4340.641113,4292.692383,4276.666504,4274.743652,4291.922852,4280.512695,4254.615234,4532.179688,4489.358887,4401.410156,4443.846191,6402.000000,3.000000,63.000000,,,,0.000000,4.000000,4.000000,4.000000,4.000000,4.000000,4.000000,4.000000,4.000000,4.000000,4.000000,4.000000,4.000000,4.000000,4.000000,100.000000,,,,,,,,,,,,,,,,,,,,,,,,,,,,
1703503301.359799,1703503301.361071,116.000000,0.000000,4325.256348,4301.538574,4317.179688,4343.077148,4286.538574,4266.666504,4265.769043,4297.820313,4286.922852,4257.820313,4532.692383,4492.948730,4403.589844,4441.922852,6952.000000,3.000000,63.000000,,,,0.000000,4.000000,4.000000,4.000000,4.000000,4.000000,4.000000,4.000000,4.000000,4.000000,4.000000,4.000000,4.000000,4.000000,4.000000,100.000000,,,,,,,,,,,,,,,,,29.000000,0.000000,0.458079,0.510254,-0.459412,0.564575,0.985472,-0.045416,0.057136,-15.740845,-37.249676,61.237423
1703503301.367607,1703503301.368879,117.000000,0.000000,4329.615234,4303.077148,4322.692383,4343.846191,4282.948730,4261.922852,4266.282227,4309.102539,4297.307617,4264.487305,4539.487305,4501.666504,4409.743652,4442.563965,7306.000000,3.000000,63.000000,,,,0.000000,4.000000,4.000000,4.000000,4.000000,4.000000,4.000000,4.000000,4.000000,4.000000,4.000000,4.000000,4.000000,4.000000,4.000000,100.000000,,,,,,,,,,,,,,,,,,,,,,,,,,,,
1703503301.375415,1703503301.376587,118.000000,0.000000,4335.897461,4300.128418,4322.692383,4344.487305,4286.153809,4268.205078,4275.641113,4319.743652,4300.000000,4269.358887,4550.769043,4510.384766,4420.512695,4453.205078,6158.000000,3.000000,63.000000,,,,0.000000,4.000000,4.000000,4.000000,4.000000,4.000000,4.000000,4.000000,4.000000,4.000000,4.000000,4.000000,4.000000,4.000000,4.000000,100.000000,,,,,,,,,,,,,,,,,,,,,,,,,,,,
1703503301.383223,1703503301.384395,119.000000,0.000000,4331.153809,4294.487305,4322.820313,4341.153809,4286.025879,4271.794922,4279.102539,4322.436035,4296.922852,4275.128418,4554.743652,4514.487305,4425.256348,4459.487305,6402.000000,3.000000,63.000000,,,,0.000000,4.000000,4.000000,4.000000,4.000000,4.000000,4.000000,4.000000,4.000000,4.000000,4.000000,4.000000,4.000000,4.000000,4.000000,100.000000,,,,,,,,,,,,,,,,,,,,,,,,,,,,
1703503301.391031,1703503301.392103,120.000000,0.000000,4319.615234,4289.743652,4319.871582,4335.641113,4282.307617,4271.282227,4276.410156,4317.179688,4294.615234,4269.487305,4542.051270,4509.743652,4413.205078,4448.461426,6952.000000,3.000000,63.000000,,,,0.000000,4.000000,4.000000,4.000000,4.000000,4.000000,4.000000,4.000000,4.000000,4.000000,4.000000,4.000000,4.000000,4.000000,4.000000,100.000000,,,,,,,,,,,,,,,,,30.000000,0.000000,0.458507,0.510132,-0.459045,0.564636,0.997680,-0.038579,0.057624,-15.566761,-37.208038,61.197014
1703503301.398839,1703503301.399911,121.000000,0.000000,4323.205078,4295.897461,4319.871582,4340.128418,4286.025879,4274.871582,4280.384766,4315.256348,4295.000000,4260.897461,4536.025879,4502.820313,4406.538574,4442.820313,7306.000000,3.000000,63.000000,,,,0.000000,4.000000,4.000000,4.000000,4.000000,4.000000,4.000000,4.000000,4.000000,4.000000,4.000000,4.000000,4.000000,4.000000,4.000000,100.000000,,,,,,,,,,,,,,,,,,,,,,,,,,,,
1703503301.406647,1703503301.407619,122.000000,0.000000,4329.615234,4299.871582,4327.436035,4345.000000,4291.922852,4277.820313,4290.128418,4319.615234,4296.538574,4264.487305,4542.179688,4507.820313,4410.769043,4448.205078,6158.000000,3.000000,63.000000,,,,0.000000,4.000000,4.000000,4.000000,4.000000,4.000000,4.000000,4.000000,4.000000,4.000000,4.000000,4.000000,4.000000,4.000000,4.000000,100.000000,,,,,,,,,,,,,,,,,,,,,,,,,,,,
1703503301.414455,1703503301.415427,123.000000,0.000000,4321.794922,4293.205078,4323.589844,4342.307617,4291.922852,4279.615234,4295.769043,4313.846191,4293.461426,4262.692383,4538.333496,4505.897461,4408.333496,4445.769043,6402.000000,3.000000,63.000000,,,,0.000000,4.000000,4.000000,4.000000,4.000000,4.000000,4.000000,4.000000,4.000000,4.000000,4.000000,4.000000,4.000000,4.000000,4.000000,100.000000,,,,,,,,,,,,,,,,,,,,,,,,,,,,
1703503301.422263,1703503301.423135,124.000000,0.000000,4316.282227,4295.897461,4310.256348,4340.512695,4294.230957,4283.717773,4295.384766,4305.512695,4289.358887,4257.820313,4531.794922,4491.025879,4408.461426,4440.641113,6952.000000,3.000000,63.000000,,,,0.000000,4.000000,4.000000,4.000000,4.000000,4.000000,4.000000,4.000000,4.000000,4.000000,4.000000,4.000000,4.000000,4.000000,4.000000,100.000000,,,,,,,,,,,,,,,,,31.000000,0.000000,0.458683,0.509949,-0.458923,0.564758,0.995727,-0.052741,0.065438,-15.576751,-37.203903,61.277313
1703503301.430071,1703503301.430943,125.000000,0.000000,4324.743652,4306.153809,4314.230957,4343.589844,4297.436035,4286.025879,4290.641113,4307.563965,4290.769043,4259.743652,4535.769043,4491.153809,4418.846191,4443.077148,7306.000000,3.000000,63.000000,,,,0.000000,4.000000,4.000000,4.000000,4.000000,4.000000,4.000000,4.000000,4.000000,4.000000,4.000000,4.000000,4.000000,4.000000,4.000000,100.000000,,,,,,,,,,,,,,,,,,,,,,,,,,,,
1703503301.437879,1703503301.438651,126.000000,0.000000,4334.358887,4310.000000,4327.436035,4347.692383,4296.153809,4281.282227,4285.256348,4303.974121,4296.794922,4265.641113,4548.461426,4508.333496,4429.487305,4454.358887,6158.000000,3.000000,63.000000,,,,0.000000,4.000000,4.000000,4.000000,4.000000,4.000000,4.000000,4.000000,4.000000,4.000000,4.000000,4.000000,4.000000,4.000000,4.000000,100.000000,,,,,,,,,,,,,,,,,,,,,,,,,,,,
1703503301.445687,1703503301.446459,127.000000,0.000000,4336.666504,4311.282227,4325.000000,4347.820313,4292.436035,4272.179688,4276.282227,4293.717773,4295.512695,4264.487305,4553.077148,4511.922852,4433.333496,4462.179688,63.000000,3.000000,63.000000,,,,0.000000,4.000000,4.000000,4.000000,4.000000,4.000000,4.000000,4.000000,4.000000,4.000000,4.000000,4.000000,4.000000,4.000000,4.000000,100.000000,,,,,,,,,,,,,,,,,,,,,,,,,,,,
1703503301.453495,1703503301.454167,0.000000,0.000000,4334.102539,4311.282227,4318.974121,4342.307617,4284.871582,4263.077148,4265.641113,4287.948730,4282.051270,4254.102539,4541.282227,4503.333496,4426.538574,4458.717773,5323.000000,3.000000,63.000000,,,,0.000000,4.000000,4.000000,4.000000,4.000000,4.000000,4.000000,4.000000,4.000000,4.000000,4.000000,4.000000,4.000000,4.000000,4.000000,100.000000,,,,,,,,,,,,,,,,,0.000000,0.000000,0.458682,0.509827,-0.458984,0.564819,0.989867,-0.053229,0.063973,-15.452410,-37.333511,61.349583
1703503301.461304,1703503301.461975,1.000000,0.000000,4333.077148,4304.102539,4323.589844,4336.538574,4279.743652,4257.563965,4260.128418,4289.358887,4277.563965,4256.794922,4543.077148,4510.641113,4427.436035,4464.230957,5571.000000,3.000000,63.000000,,,,0.000000,4.000000,4.000000,4.000000,4.000000,4.000000,4.000000,4.000000,4.000000,4.000000,4.000000,4.000000,4.000000,4.000000,4.000000,100.000000,,,,,,,,,,,,,,,,,,,,,,,,,,,,
1703503301.469112,1703503301.469683,2.000000,0.000000,4338.461426,4296.794922,4326.922852,4330.897461,4279.615234,4258.333496,4262.179688,4292.948730,4280.897461,4255.256348,4549.487305,4517.820313,4431.666504,4471.025879,5462.000000,3.000000,63.000000,,,,0.000000,4.000000,4.000000,4.000000,4.000000,4.000000,4.000000,4.000000,4.000000,4.000000,4.000000,4.000000,4.000000,4.000000,4.000000,100.000000,,,,,,,,,,,,,,,,,,,,,,,,,,,,
1703503301.476920,1703503301.477591,3.000000,0.000000,4340.128418,4297.820313,4319.230957,4325.384766,4280.384766,4258.846191,4266.410156,4290.769043,4275.897461,4236.538574,4528.589844,4502.307617,4411.922852,4453.205078,5450.000000,3.000000,63.000000,,,,0.000000,4.000000,4.000000,4.000000,4.000000,4.000000,4.000000,4.000000,4.000000,4.000000,4.000000,4.000000,4.000000,4.000000,4.000000,100.000000,,,,,,,,,,,,,,,,,,,,,,,,,,,,
1703503301.484728,1703503301.485399,4.000000,0.000000,4330.897461,4294.871582,4311.282227,4321.538574,4275.769043,4257.948730,4267.692383,4288.974121,4272.307617,4230.641113,4514.102539,4486.410156,4395.512695,4437.692383,5349.000000,3.000000,63.000000,,,,0.000000,4.000000,4.000000,4.000000,4.000000,4.000000,4.000000,4.000000,4.000000,4.000000,4.000000,4.000000,4.000000,4.000000,4.000000,100.000000,,,,,,,,,,,,,,,,,1.000000,0.000000,0.458981,0.509583,-0.459106,0.564697,0.993774,-0.038091,0.073251,-15.323835,-37.383495,61.231293
1703503301.492536,1703503301.493207,5.000000,0.000000,4322.307617,4282.692383,4308.846191,4317.179688,4270.256348,4260.256348,4271.282227,4295.769043,4278.846191,4238.717773,4522.051270,4486.794922,4399.102539,4438.717773,4934.000000,3.000000,63.000000,,,,0.000000,4.000000,4.000000,4.000000,4.000000,4.000000,4.000000,4.000000,4.000000,4.000000,4.000000,4.000000,4.000000,4.000000,4.000000,100.000000,,,,,,,,,,,,,,,,,,,,,,,,,,,,
1703503301.500344,1703503301.500915,6.000000,0.000000,4315.128418,4275.641113,4301.410156,4308.077148,4271.538574,4263.205078,4275.256348,4307.692383,4287.436035,4245.256348,4521.153809,4489.102539,4399.743652,4435.384766,4200.000000,3.000000,63.000000,,,,0.000000,4.000000,4.000000,4.000000,4.000000,4.000000,4.000000,4.000000,4.000000,4.000000,4.000000,4.000000,4.000000,4.000000,4.000000,100.000000,,,,,,,,,,,,,,,,,,,,,,,,,,,,
1703503301.508152,1703503301.508823,7.000000,0.000000,4309.230957,4276.025879,4293.974121,4302.436035,4270.000000,4265.256348,4277.692383,4315.897461,4294.487305,4251.794922,4518.717773,4482.820313,4398.077148,4431.153809,5048.000000,3.000000,63.000000,,,,0.000000,4.000000,4.000000,4.000000,4.000000,4.000000,4.000000,4.000000,4.000000,4.000000,4.000000,4.000000,4.000000,4.000000,4.000000,100.000000,,,,,,,,,,,,,,,,,,,,,,,,,,,,
1703503301.515960,1703503301.516631,8.000000,0.000000,4315.641113,4280.000000,4299.102539,4306.538574,4269.487305,4266.538574,4276.282227,4313.077148,4295.769043,4255.384766,4525.256348,4480.384766,4404.487305,4433.717773,4946.000000,3.000000,63.000000,,,,0.000000,4.000000,4.000000,4.000000,4.000000,4.000000,4.000000,4.000000,4.000000,4.000000,4.000000,4.000000,4.000000,4.000000,4.000000,100.000000,,,,,,,,,,,,,,,,,2.000000,0.000000,0.459009,0.509460,-0.459290,0.564636,0.989867,-0.045904,0.062996,-15.308118,-37.411812,61.191494
1703503301.523768,1703503301.524539,9.000000,0.000000,4328.077148,4289.871582,4308.846191,4310.897461,4275.128418,4262.051270,4263.717773,4297.948730,4289.615234,4251.794922,4520.641113,4485.897461,4407.179688,4438.846191,5576.000000,3.000000,63.000000,,,,0.000000,4.000000,4.000000,4.000000,4.000000,4.000000,4.000000,4.000000,4.000000,4.000000,4.000000,4.000000,4.000000,4.000000,4.000000,100.000000,,,,,,,,,,,,,,,,,,,,,,,,,,,,
1703503301.531576,1703503301.532347,10.000000,0.000000,4331.666504,4295.128418,4315.128418,4308.077148,4271.538574,4252.948730,4252.692383,4281.282227,4278.461426,4244.615234,4512.563965,4490.256348,4408.846191,4444.615234,6158.000000,3.000000,63.000000,,,,0.000000,4.000000,4.000000,4.000000,4.000000,4.000000,4.000000,4.000000,4.000000,4.000000,4.000000,4.000000,4.000000,4.000000,4.000000,100.000000,,,,,,,,,,,,,,,,,,,,,,,,,,,,
1703503301.539384,1703503301.540255,11.000000,0.000000,4335.384766,4293.077148,4316.025879,4308.717773,4262.820313,4247.179688,4248.846191,4269.615234,4267.179688,4236.282227,4515.641113,4486.025879,4415.384766,4445.128418,6406.000000,3.000000,63.000000,,,,0.000000,4.000000,4.000000,4.000000,4.000000,4.000000,4.000000,4.000000,4.000000,4.000000,4.000000,4.000000,4.000000,4.000000,4.000000,100.000000,,,,,,,,,,,,,,,,,,,,,,,,,,,,
1703503301.547192,1703503301.548063,12.000000,0.000000,4340.769043,4295.769043,4312.948730,4310.641113,4263.974121,4246.538574,4244.871582,4259.102539,4255.769043,4226.922852,4508.461426,4477.051270,4407.436035,4441.025879,6953.000000,3.000000,63.000000,,,,0.000000,4.000000,4.000000,4.000000,4.000000,4.000000,4.000000,4.000000,4.000000,4.000000,4.000000,4.000000,4.000000,4.000000,4.000000,100.000000,,,,,,,,,,,,,,,,,3.000000,0.000000,0.458941,0.509521,-0.459290,0.564636,0.992797,-0.040532,0.059578,-15.327307,-37.337296,61.205681
1703503301.555000,1703503301.555970,13.000000,0.000000,4336.025879,4293.717773,4315.128418,4302.436035,4263.717773,4244.871582,4241.538574,4251.025879,4245.000000,4217.692383,4494.743652,4471.025879,4392.307617,4440.897461,7307.000000,3.000000,63.000000,,,,0.000000,4.000000,4.000000,4.000000,4.000000,4.000000,4.000000,4.000000,4.000000,4.000000,4.000000,4.000000,4.000000,4.000000,4.000000,100.000000,,,,,,,,,,,,,,,,,,,,,,,,,,,,
1703503301.562808,1703503301.563778,14.000000,0.000000,4327.179688,4279.743652,4320.641113,4292.948730,4261.410156,4243.974121,4244.487305,4260.641113,4247.948730,4220.641113,4505.256348,4478.077148,4401.410156,4446.538574,6158.000000,3.000000,63.000000,,,,0.000000,4.000000,4.000000,4.000000,4.000000,4.000000,4.000000,4.000000,4.000000,4.000000,4.000000,4.000000,4.000000,4.000000,4.000000,100.000000,,,,,,,,,,,,,,,,,,,,,,,,,,,,
1703503301.570616,1703503301.571686,15.000000,0.000000,4323.461426,4275.641113,4322.179688,4292.948730,4260.512695,4247.051270,4251.538574,4275.256348,4255.769043,4229.871582,4515.128418,4490.512695,4411.282227,4444.358887,6406.000000,3.000000,63.000000,,,,0.000000,4.000000,4.000000,4.000000,4.000000,4.000000,4.000000,4.000000,4.000000,4.000000,4.000000,4.000000,4.000000,4.000000,4.000000,100.000000,,,,,,,,,,,,,,,,,,,,,,,,,,,,
1703503301.578424,1703503301.579494,16.000000,0.000000,4323.974121,4286.025879,4322.051270,4295.512695,4253.205078,4248.717773,4250.897461,4269.615234,4247.692383,4220.000000,4498.205078,4485.256348,4394.743652,4436.794922,0.000000,3.000000,63.000000,,,,0.000000,4.000000,4.000000,4.000000,4.000000,4.000000,4.000000,4.000000,4.000000,4.000000,4.000000,4.000000,4.000000,4.000000,4.000000,100.000000,,,,,,,,,,,,,,,,,4.000000,0.000000,0.458920,0.509583,-0.459167,0.564697,0.987914,-0.054206,0.062019,-15.161242,-37.303566,61.218445
1703503301.586232,1703503301.587202,17.000000,0.000000,4327.563965,4290.512695,4324.871582,4299.871582,4251.153809,4246.922852,4251.282227,4268.333496,4244.615234,4216.282227,4493.333496,4479.871582,4386.025879,4438.461426,0.000000,3.000000,63.000000,,,,0.000000,4.000000,4.000000,4.000000,4.000000,4.000000,4.000000,4.000000,4.000000,4.000000,4.000000,4.000000,4.000000,4.000000,4.000000,100.000000,,,,,,,,,,,,,,,,,,,,,,,,,,,,
1703503301.594041,1703503301.595010,18.000000,0.000000,4336.666504,4292.307617,4330.897461,4308.205078,4260.512695,4248.589844,4259.230957,4293.717773,4266.922852,4244.230957,4518.974121,4500.512695,4406.794922,4451.410156,0.000000,3.000000,63.000000,,,,0.000000,4.000000,4.000000,4.000000,4.000000,4.000000,4.000000,4.000000,4.000000,4.000000,4.000000,4.000000,4.000000,4.000000,4.000000,100.000000,,,,,,,,,,,,,,,,,,,,,,,,,,,,
1703503301.601848,1703503301.602718,19.000000,0.000000,4339.743652,4293.077148,4332.051270,4308.589844,4265.256348,4251.025879,4255.769043,4305.256348,4286.282227,4259.487305,4531.025879,4513.974121,4423.205078,4459.487305,0.000000,3.000000,63.000000,,,,0.000000,4.000000,4.000000,4.000000,4.000000,4.000000,4.000000,4.000000,4.000000,4.000000,4.000000,4.000000,4.000000,4.000000,4.000000,100.000000,,,,,,,,,,,,,,,,,,,,,,,,,,,,
1703503301.609656,1703503301.610526,20.000000,0.000000,4327.307617,4282.179688,4323.974121,4296.410156,4259.871582,4245.641113,4243.077148,4279.102539,4273.333496,4236.538574,4509.615234,4493.077148,4409.358887,4446.025879,0.000000,3.000000,63.000000,,,,0.000000,4.000000,4.000000,4.000000,4.000000,4.000000,4.000000,4.000000,4.000000,4.000000,4.000000,4.000000,4.000000,4.000000,4.000000,100.000000,,,,,,,,,,,,,,,,,5.000000,0.000000,0.458743,0.509827,-0.458923,0.564819,0.988402,-0.055183,0.061531,-15.161785,-37.173210,61.213268
1703503301.617465,1703503301.618234,21.000000,0.000000,4319.230957,4276.794922,4317.692383,4293.717773,4265.128418,4246.538574,4242.436035,4261.025879,4264.230957,4228.974121,4496.410156,4474.615234,4394.615234,4432.820313,0.000000,3.000000,63.000000,,,,0.000000,4.000000,4.000000,4.000000,4.000000,4.000000,4.000000,4.000000,4.000000,4.000000,4.000000,4.000000,4.000000,4.000000,4.000000,100.000000,,,,,,,,,,,,,,,,,,,,,,,,,,,,
1703503301.625273,1703503301.626042,22.000000,0.000000,4321.282227,4285.256348,4315.128418,4307.692383,4276.025879,4259.615234,4252.179688,4269.102539,4274.487305,4244.102539,4507.948730,4479.487305,4401.282227,4438.077148,0.000000,3.000000,63.000000,,,,0.000000,4.000000,4.000000,4.000000,4.000000,4.000000,4.000000,4.000000,4.000000,4.000000,4.000000,4.000000,4.000000,4.000000,4.000000,100.000000,,,,,,,,,,,,,,,,,,,,,,,,,,,,
1703503301.633081,1703503301.633750,23.000000,0.000000,4322.179688,4284.871582,4314.102539,4313.461426,4269.487305,4262.436035,4254.615234,4263.205078,4264.358887,4231.410156,4498.974121,4476.025879,4397.307617,4435.641113,0.000000,3.000000,63.000000,,,,0.000000,4.000000,4.000000,4.000000,4.000000,4.000000,4.000000,4.000000,4.000000,4.000000,4.000000,4.000000,4.000000,4.000000,4.000000,100.000000,,,,,,,,,,,,,,,,,,,,,,,,,,,,
1703503301.640889,1703503301.641659,24.000000,0.000000,4322.820313,4282.948730,4317.051270,4309.871582,4266.794922,4258.205078,4254.102539,4246.025879,4246.282227,4211.282227,4475.000000,4464.358887,4383.333496,4425.000000,0.000000,3.000000,63.000000,,,,0.000000,4.000000,4.000000,4.000000,4.000000,4.000000,4.000000,4.000000,4.000000,4.000000,4.000000,4.000000,4.000000,4.000000,4.000000,100.000000,,,,,,,,,,,,,,,,,6.000000,0.000000,0.458742,0.510132,-0.458435,0.564941,0.993285,-0.056159,0.069344,-15.262273,-37.222557,61.125275
1703503301.648697,1703503301.649467,25.000000,0.000000,4326.666504,4290.384766,4321.538574,4315.897461,4276.410156,4261.666504,4258.846191,4252.179688,4259.871582,4223.717773,4488.333496,4473.461426,4392.563965,4436.410156,0.000000,3.000000,63.000000,,,,0.000000,4.000000,4.000000,4.000000,4.000000,4.000000,4.000000,4.000000,4.000000,4.000000,4.000000,4.000000,4.000000,4.000000,4.000000,100.000000,,,,,,,,,,,,,,,,,,,,,,,,,,,,
1703503301.656505,1703503301.657375,26.000000,0.000000,4331.666504,4289.102539,4325.384766,4324.230957,4273.974121,4262.820313,4263.589844,4271.153809,4277.436035,4234.871582,4510.000000,4488.846191,4405.512695,4450.897461,0.000000,3.000000,63.000000,,,,0.000000,4.000000,4.000000,4.000000,4.000000,4.000000,4.000000,4.000000,4.000000,4.000000,4.000000,4.000000,4.000000,4.000000,4.000000,100.000000,,,,,,,,,,,,,,,,,,,,,,,,,,,,
1703503301.664313,1703503301.665183,27.000000,0.000000,4334.615234,4282.692383,4328.974121,4323.974121,4266.794922,4258.077148,4264.358887,4283.077148,4276.282227,4234.230957,4506.025879,4493.205078,4405.512695,4448.077148,0.000000,3.000000,63.000000,,,,0.000000,4.000000,4.000000,4.000000,4.000000,4.000000,4.000000,4.000000,4.000000,4.000000,4.000000,4.000000,4.000000,4.000000,4.000000,100.000000,,,,,,,,,,,,,,,,,,,,,,,,,,,,
1703503301.672121,1703503301.672991,28.000000,0.000000,4330.128418,4282.307617,4328.205078,4321.666504,4271.922852,4256.153809,4263.333496,4293.077148,4277.948730,4243.846191,4503.846191,4491.538574,4404.871582,4441.410156,0.000000,3.000000,63.000000,,,,0.000000,4.000000,4.000000,4.000000,4.000000,4.000000,4.000000,4.000000,4.000000,4.000000,4.000000,4.000000,4.000000,4.000000,4.000000,100.000000,,,,,,,,,,,,,,,,,7.000000,0.000000,0.458953,0.510132,-0.458374,0.564819,0.992309,-0.046881,0.062019,-15.302712,-37.133633,61.179413
1703503301.679929,1703503301.680699,29.000000,0.000000,4324.102539,4282.948730,4322.307617,4322.307617,4273.589844,4253.077148,4263.846191,4299.230957,4283.589844,4250.256348,4511.282227,4484.615234,4401.410156,4437.692383,0.000000,3.000000,63.000000,,,,0.000000,4.000000,4.000000,4.000000,4.000000,4.000000,4.000000,4.000000,4.000000,4.000000,4.000000,4.000000,4.000000,4.000000,4.000000,100.000000,,,,,,,,,,,,,,,,,,,,,,,,,,,,
1703503301.687737,1703503301.688507,30.000000,0.000000,4323.077148,4283.205078,4316.153809,4309.743652,4268.333496,4248.846191,4262.948730,4301.282227,4286.666504,4246.282227,4511.025879,4479.743652,4397.820313,4438.717773,0.000000,3.000000,63.000000,,,,0.000000,4.000000,4.000000,4.000000,4.000000,4.000000,4.000000,4.000000,4.000000,4.000000,4.000000,4.000000,4.000000,4.000000,4.000000,100.000000,,,,,,,,,,,,,,,,,,,,,,,,,,,,
1703503301.695545,1703503301.696215,31.000000,0.000000,4318.589844,4280.897461,4308.461426,4284.230957,4264.230957,4248.974121,4262.051270,4297.051270,4282.436035,4240.769043,4496.282227,4475.512695,4393.077148,4432.563965,0.000000,3.000000,63.000000,,,,0.000000,4.000000,4.000000,4.000000,4.000000,4.000000,4.000000,4.000000,4.000000,4.000000,4.000000,4.000000,4.000000,4.000000,4.000000,100.000000,,,,,,,,,,,,,,,,,,,,,,,,,,,,
1703503301.703353,1703503301.704123,32.000000,0.000000,4311.153809,4277.820313,4297.307617,4263.846191,4257.307617,4250.641113,4261.794922,4285.256348,4271.410156,4236.410156,4481.153809,4464.615234,4386.666504,4417.563965,0.000000,3.000000,63.000000,,,,0.000000,4.000000,4.000000,4.000000,4.000000,4.000000,4.000000,4.000000,4.000000,4.000000,4.000000,4.000000,4.000000,4.000000,4.000000,100.000000,,,,,,,,,,,,,,,,,8.000000,0.000000,0.459110,0.510193,-0.458374,0.564636,0.990355,-0.044927,0.061043,-15.422441,-37.136936,61.228138
1703503301.711161,1703503301.711931,33.000000,0.000000,4310.512695,4276.153809,4287.563965,4243.974121,4249.358887,4251.922852,4263.333496,4276.794922,4262.948730,4225.512695,4475.128418,4456.538574,4381.794922,4413.461426,0.000000,3.000000,63.000000,,,,0.000000,4.000000,4.000000,4.000000,4.000000,4.000000,4.000000,4.000000,4.000000,4.000000,4.000000,4.000000,4.000000,4.000000,4.000000,100.000000,1.000000,75.000000,4.000000,4.000000,4.000000,1.000000,4.000000,4.000000,4.000000,4.000000,4.000000,4.000000,4.000000,4.000000,4.000000,4.000000,,,,,,,,,,,,
1703503301.718969,1703503301.719839,34.000000,0.000000,4313.077148,4271.794922,4285.000000,4213.846191,4241.666504,4251.410156,4261.922852,4269.487305,4254.230957,4204.487305,4463.589844,4452.179688,4368.333496,4409.487305,0.000000,3.000000,63.000000,,,,0.000000,4.000000,4.000000,4.000000,4.000000,4.000000,4.000000,4.000000,4.000000,4.000000,4.000000,4.000000,4.000000,4.000000,4.000000,100.000000,,,,,,,,,,,,,,,,,,,,,,,,,,,,
1703503301.726777,1703503301.727647,35.000000,0.000000,4310.256348,4254.615234,4276.666504,4175.897461,4231.666504,4247.436035,4253.333496,4255.897461,4247.692383,4196.153809,4445.512695,4434.871582,4353.717773,4392.692383,0.000000,3.000000,63.000000,,,,0.000000,4.000000,4.000000,4.000000,4.000000,4.000000,4.000000,4.000000,4.000000,4.000000,4.000000,4.000000,4.000000,4.000000,4.000000,100.000000,,,,,,,,,,,,,,,,,,,,,,,,,,,,
1703503301.734585,1703503301.735555,36.000000,0.000000,4304.230957,4234.230957,4261.153809,4143.461426,4220.000000,4245.256348,4247.436035,4242.692383,4239.230957,4193.077148,4430.000000,4413.846191,4348.333496,4373.974121,0.000000,3.000000,63.000000,,,,0.000000,4.000000,4.000000,4.000000,4.000000,4.000000,4.000000,4.000000,4.000000,4.000000,4.000000,4.000000,4.000000,4.000000,4.000000,100.000000,,,,,,,,,,,,,,,,,9.000000,0.000000,0.459071,0.510132,-0.458557,0.564575,0.982053,-0.028324,0.060066,-15.313530,-37.106575,60.971992
1703503301.742393,1703503301.743363,37.000000,0.000000,4305.897461,4236.410156,4261.922852,4133.461426,4213.205078,4244.615234,4245.512695,4226.922852,4218.846191,4171.666504,4414.743652,4399.615234,4338.077148,4367.563965,0.000000,3.000000,63.000000,,,,0.000000,4.000000,4.000000,4.000000,4.000000,4.000000,4.000000,4.000000,4.000000,4.000000,4.000000,4.000000,4.000000,4.000000,4.000000,100.000000,,,,,,,,,,,,,,,,,,,,,,,,,,,,
1703503301.750201,1703503301.751271,38.000000,0.000000,4312.820313,4244.743652,4275.641113,4144.871582,4216.153809,4240.641113,4242.563965,4212.563965,4205.256348,4159.487305,4411.922852,4383.974121,4330.769043,4376.153809,0.000000,3.000000,63.000000,,,,0.000000,4.000000,4.000000,4.000000,4.000000,4.000000,4.000000,4.000000,4.000000,4.000000,4.000000,4.000000,4.000000,4.000000,4.000000,100.000000,,,,,,,,,,,,,,,,,,,,,,,,,,,,
1703503301.758010,1703503301.759079,39.000000,0.000000,4313.717773,4235.384766,4281.025879,4151.410156,4217.307617,4240.128418,4243.846191,4214.743652,4211.025879,4166.410156,4423.589844,4373.077148,4342.051270,4387.307617,0.000000,3.000000,63.000000,,,,0.000000,4.000000,4.000000,4.000000,4.000000,4.000000,4.000000,4.000000,4.000000,4.000000,4.000000,4.000000,4.000000,4.000000,4.000000,100.000000,,,,,,,,,,,,,,,,,,,,,,,,,,,,
1703503301.765818,1703503301.766787,40.000000,0.000000,4310.384766,4233.846191,4277.051270,4150.512695,4217.179688,4243.717773,4248.333496,4226.282227,4213.333496,4164.358887,4426.153809,4370.128418,4348.717773,4389.743652,0.000000,3.000000,63.000000,,,,0.000000,4.000000,4.000000,4.000000,4.000000,4.000000,4.000000,4.000000,4.000000,4.000000,4.000000,4.000000,4.000000,4.000000,4.000000,100.000000,,,,,,,,,,,,,,,,,10.000000,0.000000,0.458995,0.510132,-0.458557,0.564636,0.989867,-0.050299,0.057136,-15.548844,-36.929253,61.008125
1703503301.773625,1703503301.774595,41.000000,0.000000,4311.025879,4247.179688,4276.538574,4159.871582,4218.077148,4241.282227,4248.077148,4228.333496,4203.974121,4151.410156,4409.358887,4356.794922,4331.922852,4380.000000,0.000000,3.000000,63.000000,,,,0.000000,4.000000,4.000000,4.000000,4.000000,4.000000,4.000000,4.000000,4.000000,4.000000,4.000000,4.000000,4.000000,4.000000,4.000000,100.000000,,,,,,,,,,,,,,,,,,,,,,,,,,,,
1703503301.781434,1703503301.782303,42.000000,0.000000,4308.077148,4242.563965,4273.846191,4168.589844,4216.794922,4235.256348,4244.102539,4225.641113,4204.871582,4149.743652,4398.077148,4341.025879,4319.615234,4367.307617,0.000000,3.000000,63.000000,,,,0.000000,4.000000,4.000000,4.000000,4.000000,4.000000,4.000000,4.000000,4.000000,4.000000,4.000000,4.000000,4.000000,4.000000,4.000000,100.000000,,,,,,,,,,,,,,,,,,,,,,,,,,,,
1703503301.789242,1703503301.790211,43.000000,0.000000,4297.692383,4229.615234,4266.666504,4168.589844,4214.743652,4232.436035,4243.461426,4236.666504,4226.794922,4169.743652,4411.666504,4352.051270,4337.948730,4373.205078,0.000000,3.000000,63.000000,,,,0.000000,4.000000,4.000000,4.000000,4.000000,4.000000,4.000000,4.000000,4.000000,4.000000,4.000000,4.000000,4.000000,4.000000,4.000000,100.000000,,,,,,,,,,,,,,,,,,,,,,,,,,,,
1703503301.797050,1703503301.798019,44.000000,0.000000,4302.051270,4238.846191,4270.256348,4174.743652,4215.384766,4233.461426,4242.820313,4252.179688,4249.102539,4189.358887,4429.487305,4368.333496,4356.538574,4388.205078,0.000000,3.000000,63.000000,,,,0.000000,4.000000,4.000000,4.000000,4.000000,4.000000,4.000000,4.000000,4.000000,4.000000,4.000000,4.000000,4.000000,4.000000,4.000000,100.000000,,,,,,,,,,,,,,,,,11.000000,0.000000,0.458913,0.510193,-0.458496,0.564697,0.999634,-0.055183,0.064949,-15.760626,-37.069660,60.957314
1703503301.804858,1703503301.805827,45.000000,0.000000,4317.307617,4252.692383,4279.871582,4191.153809,4222.563965,4239.743652,4236.794922,4250.641113,4251.282227,4190.512695,4429.358887,4361.666504,4352.436035,4389.102539,0.000000,3.000000,63.000000,,,,0.000000,4.000000,4.000000,4.000000,4.000000,4.000000,4.000000,4.000000,4.000000,4.000000,4.000000,4.000000,4.000000,4.000000,4.000000,100.000000,,,,,,,,,,,,,,,,,,,,,,,,,,,,
1703503301.812666,1703503301.813536,46.000000,0.000000,4317.307617,4252.179688,4284.102539,4201.922852,4227.051270,4247.179688,4232.692383,4245.897461,4247.692383,4187.307617,4422.436035,4355.769043,4350.897461,4384.487305,0.000000,3.000000,63.000000,,,,0.000000,4.000000,4.000000,4.000000,4.000000,4.000000,4.000000,4.000000,4.000000,4.000000,4.000000,4.000000,4.000000,4.000000,4.000000,100.000000,,,,,,,,,,,,,,,,,,,,,,,,,,,,
1703503301.820474,1703503301.821343,47.000000,0.000000,4309.230957,4249.615234,4288.205078,4200.769043,4224.358887,4246.538574,4237.948730,4246.410156,4248.974121,4190.256348,4428.717773,4367.436035,4361.025879,4391.153809,0.000000,3.000000,63.000000,,,,0.000000,4.000000,4.000000,4.000000,4.000000,4.000000,4.000000,4.000000,4.000000,4.000000,4.000000,4.000000,4.000000,4.000000,4.000000,100.000000,,,,,,,,,,,,,,,,,,,,,,,,,,,,
1703503301.828282,1703503301.829052,48.000000,0.000000,4312.051270,4255.512695,4293.205078,4199.102539,4224.615234,4244.743652,4244.102539,4239.102539,4247.051270,4194.230957,4442.179688,4382.307617,4374.102539,4404.230957,0.000000,3.000000,63.000000,,,,0.000000,4.000000,4.000000,4.000000,4.000000,4.000000,4.000000,4.000000,4.000000,4.000000,4.000000,4.000000,4.000000,4.000000,4.000000,100.000000,,,,,,,,,,,,,,,,,12.000000,0.000000,0.458492,0.510437,-0.458496,0.564819,0.993285,-0.044927,0.062019,-15.684564,-37.112694,60.911583
1703503301.836090,1703503301.836860,49.000000,0.000000,4316.538574,4260.256348,4294.102539,4199.743652,4230.512695,4247.820313,4245.000000,4231.153809,4241.666504,4198.717773,4448.205078,4383.205078,4384.743652,4412.692383,0.000000,3.000000,63.000000,,,,0.000000,4.000000,4.000000,4.000000,4.000000,4.000000,4.000000,4.000000,4.000000,4.000000,4.000000,4.000000,4.000000,4.000000,4.000000,100.000000,,,,,,,,,,,,,,,,,,,,,,,,,,,,
1703503301.843898,1703503301.844568,50.000000,0.000000,4316.025879,4259.871582,4293.205078,4203.077148,4240.256348,4249.358887,4246.282227,4231.538574,4236.794922,4196.538574,4446.538574,4373.461426,4387.051270,4412.051270,0.000000,3.000000,63.000000,,,,0.000000,4.000000,4.000000,4.000000,4.000000,4.000000,4.000000,4.000000,4.000000,4.000000,4.000000,4.000000,4.000000,4.000000,4.000000,100.000000,,,,,,,,,,,,,,,,,,,,,,,,,,,,
1703503301.851706,1703503301.852376,51.000000,0.000000,4320.000000,4265.128418,4298.205078,4211.794922,4243.333496,4247.948730,4246.153809,4228.205078,4229.230957,4184.230957,4443.077148,4375.000000,4381.794922,4410.128418,0.000000,3.000000,63.000000,,,,0.000000,4.000000,4.000000,4.000000,4.000000,4.000000,4.000000,4.000000,4.000000,4.000000,4.000000,4.000000,4.000000,4.000000,4.000000,100.000000,,,,,,,,,,,,,,,,,,,,,,,,,,,,
1703503301.859514,1703503301.860084,52.000000,0.000000,4328.333496,4269.487305,4307.948730,4222.563965,4236.410156,4246.410156,4246.922852,4227.820313,4222.692383,4181.025879,4447.692383,4394.615234,4383.974121,4417.563965,0.000000,3.000000,63.000000,,,,0.000000,4.000000,4.000000,4.000000,4.000000,4.000000,4.000000,4.000000,4.000000,4.000000,4.000000,4.000000,4.000000,4.000000,4.000000,100.000000,,,,,,,,,,,,,,,,,13.000000,0.000000,0.458233,0.510437,-0.458679,0.564880,0.985472,-0.049322,0.064461,-15.766108,-37.034760,60.903755
1703503301.867322,1703503301.867892,53.000000,0.000000,4327.692383,4265.000000,4308.077148,4228.333496,4235.128418,4248.589844,4254.615234,4245.897461,4232.820313,4198.205078,4464.230957,4407.820313,4399.743652,4431.025879,0.000000,3.000000,63.000000,,,,0.000000,4.000000,4.000000,4.000000,4.000000,4.000000,4.000000,4.000000,4.000000,4.000000,4.000000,4.000000,4.000000,4.000000,4.000000,100.000000,,,,,,,,,,,,,,,,,,,,,,,,,,,,
1703503301.875130,1703503301.875600,54.000000,0.000000,4313.205078,4261.025879,4292.051270,4228.974121,4243.846191,4258.461426,4262.948730,4258.077148,4238.461426,4208.333496,4461.922852,4395.256348,4398.589844,4423.717773,0.000000,3.000000,63.000000,,,,0.000000,4.000000,4.000000,4.000000,4.000000,4.000000,4.000000,4.000000,4.000000,4.000000,4.000000,4.000000,4.000000,4.000000,4.000000,100.000000,,,,,,,,,,,,,,,,,,,,,,,,,,,,
1703503301.882938,1703503301.883508,55.000000,0.000000,4305.641113,4265.256348,4284.358887,4236.410156,4246.922852,4261.025879,4264.102539,4250.000000,4221.666504,4189.615234,4438.205078,4378.717773,4373.846191,4401.922852,0.000000,3.000000,63.000000,,,,0.000000,4.000000,4.000000,4.000000,4.000000,4.000000,4.000000,4.000000,4.000000,4.000000,4.000000,4.000000,4.000000,4.000000,4.000000,100.000000,,,,,,,,,,,,,,,,,,,,,,,,,,,,
1703503301.890746,1703503301.891316,56.000000,0.000000,4309.743652,4266.794922,4291.282227,4247.179688,4243.461426,4252.820313,4262.051270,4251.922852,4215.256348,4173.461426,4438.333496,4384.487305,4366.282227,4403.333496,0.000000,3.000000,63.000000,,,,0.000000,4.000000,4.000000,4.000000,4.000000,4.000000,4.000000,4.000000,4.000000,4.000000,4.000000,4.000000,4.000000,4.000000,4.000000,100.000000,,,,,,,,,,,,,,,,,14.000000,0.000000,0.457956,0.510437,-0.459106,0.564758,0.992309,-0.065926,0.060066,-15.622829,-37.014614,61.013382
1703503301.898554,1703503301.899223,57.000000,0.000000,4310.512695,4261.666504,4295.384766,4248.461426,4244.487305,4254.102539,4261.410156,4272.820313,4237.948730,4190.384766,4458.974121,4400.641113,4386.153809,4418.077148,0.000000,3.000000,63.000000,,,,0.000000,4.000000,4.000000,4.000000,4.000000,4.000000,4.000000,4.000000,4.000000,4.000000,4.000000,4.000000,4.000000,4.000000,4.000000,100.000000,,,,,,,,,,,,,,,,,,,,,,,,,,,,
1703503301.906362,1703503301.907031,58.000000,0.000000,4313.717773,4266.025879,4296.666504,4255.641113,4252.820313,4263.846191,4264.487305,4287.820313,4261.794922,4212.436035,4472.692383,4409.102539,4402.820313,4421.922852,0.000000,3.000000,63.000000,,,,0.000000,4.000000,4.000000,4.000000,4.000000,4.000000,4.000000,4.000000,4.000000,4.000000,4.000000,4.000000,4.000000,4.000000,4.000000,100.000000,,,,,,,,,,,,,,,,,,,,,,,,,,,,
1703503301.914171,1703503301.914939,59.000000,0.000000,4323.717773,4280.128418,4303.589844,4278.077148,4262.436035,4264.358887,4265.256348,4286.666504,4266.538574,4217.948730,4475.256348,4413.205078,4398.717773,4424.615234,0.000000,3.000000,63.000000,,,,0.000000,4.000000,4.000000,4.000000,4.000000,4.000000,4.000000,4.000000,4.000000,4.000000,4.000000,4.000000,4.000000,4.000000,4.000000,100.000000,,,,,,,,,,,,,,,,,,,,,,,,,,,,
1703503301.921979,1703503301.922747,60.000000,0.000000,4332.051270,4289.487305,4313.974121,4296.282227,4262.948730,4262.692383,4256.538574,4276.410156,4260.769043,4215.897461,4465.897461,4413.589844,4384.358887,4426.410156,0.000000,3.000000,63.000000,,,,0.000000,4.000000,4.000000,4.000000,4.000000,4.000000,4.000000,4.000000,4.000000,4.000000,4.000000,4.000000,4.000000,4.000000,4.000000,100.000000,,,,,,,,,,,,,,,,,15.000000,0.000000,0.457922,0.510315,-0.459351,0.564697,0.990355,-0.056648,0.055671,-15.760547,-36.996487,61.195377
1703503301.929787,1703503301.930655,61.000000,0.000000,4336.666504,4291.410156,4323.077148,4297.179688,4263.077148,4262.692383,4247.307617,4266.922852,4262.307617,4218.461426,4463.589844,4416.282227,4390.256348,4430.128418,0.000000,3.000000,63.000000,,,,0.000000,4.000000,4.000000,4.000000,4.000000,4.000000,4.000000,4.000000,4.000000,4.000000,4.000000,4.000000,4.000000,4.000000,4.000000,100.000000,,,,,,,,,,,,,,,,,,,,,,,,,,,,
1703503301.937595,1703503301.938463,62.000000,0.000000,4342.307617,4289.615234,4330.384766,4296.153809,4265.000000,4254.615234,4246.410156,4262.563965,4262.563965,4220.000000,4477.820313,4429.230957,4413.461426,4443.717773,0.000000,3.000000,63.000000,,,,0.000000,4.000000,4.000000,4.000000,4.000000,4.000000,4.000000,4.000000,4.000000,4.000000,4.000000,4.000000,4.000000,4.000000,4.000000,100.000000,,,,,,,,,,,,,,,,,,,,,,,,,,,,
1703503301.945403,1703503301.946271,63.000000,0.000000,4345.384766,4291.538574,4339.230957,4305.128418,4260.769043,4246.282227,4243.974121,4258.077148,4253.205078,4216.410156,4486.794922,4442.436035,4418.461426,4453.589844,0.000000,3.000000,63.000000,,,,0.000000,4.000000,4.000000,4.000000,4.000000,4.000000,4.000000,4.000000,4.000000,4.000000,4.000000,4.000000,4.000000,4.000000,4.000000,100.000000,,,,,,,,,,,,,,,,,,,,,,,,,,,,
1703503301.953211,1703503301.954079,64.000000,0.000000,4337.820313,4295.769043,4341.666504,4314.487305,4261.025879,4247.692383,4241.282227,4256.025879,4254.102539,4225.512695,4488.077148,4445.128418,4411.922852,4452.051270,5323.000000,3.000000,63.000000,,,,0.000000,4.000000,4.000000,4.000000,4.000000,4.000000,4.000000,4.000000,4.000000,4.000000,4.000000,4.000000,4.000000,4.000000,4.000000,100.000000,,,,,,,,,,,,,,,,,16.000000,0.000000,0.457847,0.510315,-0.459351,0.564758,0.990355,-0.046392,0.061043,-15.751159,-37.013504,61.109173
1703503301.961019,1703503301.961787,65.000000,0.000000,4325.897461,4296.922852,4331.282227,4313.846191,4264.743652,4248.205078,4243.589844,4262.179688,4264.230957,4236.025879,4492.051270,4438.717773,4413.333496,4445.769043,5584.000000,3.000000,63.000000,,,,0.000000,4.000000,4.000000,4.000000,4.000000,4.000000,4.000000,4.000000,4.000000,4.000000,4.000000,4.000000,4.000000,4.000000,4.000000,100.000000,,,,,,,,,,,,,,,,,,,,,,,,,,,,
1703503301.968827,1703503301.969595,66.000000,0.000000,4325.769043,4294.230957,4322.820313,4308.846191,4263.205078,4248.589844,4249.615234,4275.641113,4265.128418,4233.717773,4495.000000,4438.077148,4422.436035,4442.692383,5462.000000,3.000000,63.000000,,,,0.000000,4.000000,4.000000,4.000000,4.000000,4.000000,4.000000,4.000000,4.000000,4.000000,4.000000,4.000000,4.000000,4.000000,4.000000,100.000000,,,,,,,,,,,,,,,,,,,,,,,,,,,,
1703503301.976635,1703503301.977303,67.000000,0.000000,4327.692383,4287.563965,4325.512695,4309.230957,4261.153809,4256.666504,4260.000000,4292.307617,4262.692383,4229.743652,4495.128418,4445.641113,4424.615234,4445.641113,5450.000000,3.000000,63.000000,,,,0.000000,4.000000,4.000000,4.000000,4.000000,4.000000,4.000000,4.000000,4.000000,4.000000,4.000000,4.000000,4.000000,4.000000,4.000000,100.000000,,,,,,,,,,,,,,,,,,,,,,,,,,,,
1703503301.984443,1703503301.985111,68.000000,0.000000,4314.487305,4278.333496,4316.922852,4311.794922,4262.051270,4263.717773,4266.282227,4297.563965,4262.436035,4226.025879,4483.974121,4435.128418,4400.000000,4430.512695,5347.000000,3.000000,63.000000,,,,0.000000,4.000000,4.000000,4.000000,4.000000,4.000000,4.000000,4.000000,4.000000,4.000000,4.000000,4.000000,4.000000,4.000000,4.000000,100.000000,,,,,,,,,,,,,,,,,17.000000,0.000000,0.457567,0.510376,-0.459412,0.564880,0.982542,-0.065438,0.050787,-15.592710,-37.062157,61.048256
1703503301.992251,1703503301.992819,69.000000,0.000000,4302.051270,4274.743652,4294.487305,4310.000000,4265.512695,4264.102539,4267.179688,4296.025879,4269.487305,4228.333496,4468.333496,4412.179688,4380.897461,4404.102539,4934.000000,3.000000,63.000000,,,,0.000000,4.000000,4.000000,4.000000,4.000000,4.000000,4.000000,4.000000,4.000000,4.000000,4.000000,4.000000,4.000000,4.000000,4.000000,100.000000,,,,,,,,,,,,,,,,,,,,,,,,,,,,
1703503302.000059,1703503302.000627,70.000000,0.000000,4305.128418,4277.179688,4287.051270,4306.666504,4271.794922,4264.743652,4271.410156,4297.307617,4273.846191,4230.384766,4464.615234,4408.205078,4393.333496,4398.974121,4201.000000,3.000000,63.000000,,,,0.000000,4.000000,4.000000,4.000000,4.000000,4.000000,4.000000,4.000000,4.000000,4.000000,4.000000,4.000000,4.000000,4.000000,4.000000,100.000000,,,,,,,,,,,,,,,,,,,,,,,,,,,,
1703503302.007867,1703503302.008335,71.000000,0.000000,4314.487305,4283.974121,4296.538574,4311.025879,4276.922852,4265.769043,4270.384766,4291.922852,4266.922852,4224.743652,4467.692383,4416.538574,4400.000000,4412.563965,5050.000000,3.000000,63.000000,,,,0.000000,4.000000,4.000000,4.000000,4.000000,4.000000,4.000000,4.000000,4.000000,4.000000,4.000000,4.000000,4.000000,4.000000,4.000000,100.000000,,,,,,,,,,,,,,,,,,,,,,,,,,,,
1703503302.015675,1703503302.016143,72.000000,0.000000,4322.307617,4291.153809,4309.230957,4322.692383,4276.794922,4263.589844,4262.820313,4285.384766,4267.692383,4227.051270,4481.410156,4433.589844,4400.897461,4431.794922,4946.000000,3.000000,63.000000,,,,0.000000,4.000000,4.000000,4.000000,4.000000,4.000000,4.000000,4.000000,4.000000,4.000000,4.000000,4.000000,4.000000,4.000000,4.000000,100.000000,,,,,,,,,,,,,,,,,18.000000,0.000000,0.457689,0.510376,-0.459290,0.564880,0.993774,-0.053229,0.055671,-15.450106,-37.055939,61.043430
1703503302.023483,1703503302.023851,73.000000,0.000000,4328.974121,4292.948730,4322.179688,4331.922852,4274.743652,4260.641113,4258.846191,4289.743652,4281.410156,4236.666504,4498.589844,4455.769043,4423.077148,4449.102539,5579.000000,3.000000,63.000000,,,,0.000000,4.000000,4.000000,4.000000,4.000000,4.000000,4.000000,4.000000,4.000000,4.000000,4.000000,4.000000,4.000000,4.000000,4.000000,100.000000,,,,,,,,,,,,,,,,,,,,,,,,,,,,
1703503302.031291,1703503302.031659,74.000000,0.000000,4330.000000,4297.563965,4326.153809,4338.589844,4277.179688,4259.743652,4257.436035,4292.692383,4283.333496,4236.282227,4500.897461,4450.512695,4435.512695,4450.000000,6150.000000,3.000000,63.000000,,,,0.000000,4.000000,4.000000,4.000000,4.000000,4.000000,4.000000,4.000000,4.000000,4.000000,4.000000,4.000000,4.000000,4.000000,4.000000,100.000000,,,,,,,,,,,,,,,,,,,,,,,,,,,,
1703503302.039099,1703503302.039367,75.000000,0.000000,4327.179688,4306.922852,4325.512695,4345.897461,4280.641113,4260.000000,4256.794922,4286.538574,4269.871582,4231.794922,4491.538574,4429.615234,4417.436035,4435.641113,6404.000000,3.000000,63.000000,,,,0.000000,4.000000,4.000000,4.000000,4.000000,4.000000,4.000000,4.000000,4.000000,4.000000,4.000000,4.000000,4.000000,4.000000,4.000000,100.000000,,,,,,,,,,,,,,,,,,,,,,,,,,,,
1703503302.046907,1703503302.047175,76.000000,0.000000,4330.384766,4310.512695,4331.153809,4350.128418,4279.743652,4258.461426,4252.948730,4276.025879,4260.000000,4234.487305,4481.538574,4427.692383,4402.307617,4429.102539,6957.000000,3.000000,63.000000,,,,0.000000,4.000000,4.000000,4.000000,4.000000,4.000000,4.000000,4.000000,4.000000,4.000000,4.000000,4.000000,4.000000,4.000000,4.000000,100.000000,,,,,,,,,,,,,,,,,19.000000,0.000000,0.457689,0.510376,-0.459290,0.564880,0.988402,-0.047369,0.057136,-15.355095,-37.183678,61.039085
1703503302.054716,1703503302.054883,77.000000,0.000000,4333.205078,4312.948730,4331.922852,4346.282227,4277.307617,4255.128418,4248.846191,4268.974121,4259.358887,4230.897461,4476.922852,4434.487305,4404.615234,4433.589844,7317.000000,3.000000,63.000000,,,,0.000000,4.000000,4.000000,4.000000,4.000000,4.000000,4.000000,4.000000,4.000000,4.000000,4.000000,4.000000,4.000000,4.000000,4.000000,100.000000,,,,,,,,,,,,,,,,,,,,,,,,,,,,
1703503302.062523,1703503302.062791,78.000000,0.000000,4328.333496,4310.769043,4321.025879,4338.461426,4279.743652,4263.461426,4262.692383,4278.974121,4260.256348,4219.615234,4477.948730,4431.538574,4403.333496,4431.794922,6150.000000,3.000000,63.000000,,,,0.000000,4.000000,4.000000,4.000000,4.000000,4.000000,4.000000,4.000000,4.000000,4.000000,4.000000,4.000000,4.000000,4.000000,4.000000,100.000000,,,,,,,,,,,,,,,,,,,,,,,,,,,,
1703503302.070331,1703503302.070599,79.000000,0.000000,4318.717773,4298.974121,4310.641113,4335.512695,4286.538574,4274.615234,4282.436035,4299.871582,4264.102539,4226.538574,4483.974121,4426.153809,4400.128418,4426.538574,6404.000000,3.000000,63.000000,,,,0.000000,4.000000,4.000000,4.000000,4.000000,4.000000,4.000000,4.000000,4.000000,4.000000,4.000000,4.000000,4.000000,4.000000,4.000000,100.000000,,,,,,,,,,,,,,,,,,,,,,,,,,,,
1703503302.078140,1703503302.078507,80.000000,0.000000,4310.769043,4292.307617,4309.487305,4337.051270,4282.820313,4267.948730,4282.692383,4309.871582,4272.307617,4241.282227,4491.025879,4431.794922,4406.538574,4422.820313,6957.000000,3.000000,63.000000,,,,0.000000,4.000000,4.000000,4.000000,4.000000,4.000000,4.000000,4.000000,4.000000,4.000000,4.000000,4.000000,4.000000,4.000000,4.000000,100.000000,,,,,,,,,,,,,,,,,20.000000,0.000000,0.457758,0.510315,-0.459290,0.564880,0.991332,-0.054694,0.059578,-15.252918,-37.065311,61.051846
1703503302.085948,1703503302.086315,81.000000,0.000000,4316.538574,4300.256348,4315.000000,4341.794922,4277.307617,4263.717773,4276.922852,4315.384766,4279.871582,4243.333496,4506.410156,4453.846191,4424.871582,4430.512695,7317.000000,3.000000,63.000000,,,,0.000000,4.000000,4.000000,4.000000,4.000000,4.000000,4.000000,4.000000,4.000000,4.000000,4.000000,4.000000,4.000000,4.000000,4.000000,100.000000,,,,,,,,,,,,,,,,,,,,,,,,,,,,
1703503302.093756,1703503302.094223,82.000000,0.000000,4330.641113,4308.589844,4321.410156,4344.871582,4287.692383,4276.153809,4282.307617,4327.692383,4288.974121,4255.641113,4536.922852,4481.794922,4455.000000,4458.205078,6150.000000,3.000000,63.000000,,,,0.000000,4.000000,4.000000,4.000000,4.000000,4.000000,4.000000,4.000000,4.000000,4.000000,4.000000,4.000000,4.000000,4.000000,4.000000,100.000000,,,,,,,,,,,,,,,,,,,,,,,,,,,,
1703503302.101564,1703503302.102031,83.000000,0.000000,4339.358887,4309.743652,4329.358887,4343.461426,4291.282227,4276.282227,4283.717773,4324.871582,4292.436035,4268.974121,4540.256348,4481.794922,4461.922852,4475.128418,6404.000000,3.000000,63.000000,,,,0.000000,4.000000,4.000000,4.000000,4.000000,4.000000,4.000000,4.000000,4.000000,4.000000,4.000000,4.000000,4.000000,4.000000,4.000000,100.000000,,,,,,,,,,,,,,,,,,,,,,,,,,,,
1703503302.109372,1703503302.109939,84.000000,0.000000,4344.102539,4314.358887,4338.205078,4349.743652,4278.846191,4261.410156,4271.922852,4303.846191,4283.077148,4256.282227,4510.384766,4461.410156,4441.153809,4463.333496,6957.000000,3.000000,63.000000,,,,0.000000,4.000000,4.000000,4.000000,4.000000,4.000000,4.000000,4.000000,4.000000,4.000000,4.000000,4.000000,4.000000,4.000000,4.000000,100.000000,,,,,,,,,,,,,,,,,21.000000,0.000000,0.457962,0.510254,-0.459229,0.564819,0.993285,-0.050299,0.049811,-15.244293,-37.158779,60.896660
1703503302.117180,1703503302.117747,85.000000,0.000000,4344.102539,4316.410156,4340.000000,4358.333496,4279.230957,4259.358887,4261.794922,4294.358887,4280.384766,4249.871582,4505.512695,4461.410156,4437.563965,4456.538574,7317.000000,3.000000,63.000000,,,,0.000000,4.000000,4.000000,4.000000,4.000000,4.000000,4.000000,4.000000,4.000000,4.000000,4.000000,4.000000,4.000000,4.000000,4.000000,100.000000,,,,,,,,,,,,,,,,,,,,,,,,,,,,
1703503302.124988,1703503302.125655,86.000000,0.000000,4342.820313,4317.051270,4338.974121,4359.487305,4292.820313,4265.384766,4262.179688,4298.077148,4286.922852,4266.025879,4526.794922,4470.897461,4453.974121,4464.871582,6150.000000,3.000000,63.000000,,,,0.000000,4.000000,4.000000,4.000000,4.000000,4.000000,4.000000,4.000000,4.000000,4.000000,4.000000,4.000000,4.000000,4.000000,4.000000,100.000000,,,,,,,,,,,,,,,,,,,,,,,,,,,,
1703503302.132796,1703503302.133462,87.000000,0.000000,4347.692383,4328.846191,4340.769043,4364.743652,4297.436035,4264.615234,4263.461426,4297.051270,4285.769043,4265.897461,4526.025879,4465.897461,4451.153809,4464.871582,6404.000000,3.000000,63.000000,,,,0.000000,4.000000,4.000000,4.000000,4.000000,4.000000,4.000000,4.000000,4.000000,4.000000,4.000000,4.000000,4.000000,4.000000,4.000000,100.000000,,,,,,,,,,,,,,,,,,,,,,,,,,,,
1703503302.140604,1703503302.141171,88.000000,0.000000,4350.256348,4336.666504,4343.974121,4372.307617,4294.102539,4262.179688,4261.794922,4288.717773,4276.666504,4250.128418,4506.153809,4456.025879,4431.153809,4453.205078,6957.000000,3.000000,63.000000,,,,0.000000,4.000000,4.000000,4.000000,4.000000,4.000000,4.000000,4.000000,4.000000,4.000000,4.000000,4.000000,4.000000,4.000000,4.000000,100.000000,,,,,,,,,,,,,,,,,22.000000,0.000000,0.458037,0.510254,-0.459229,0.564758,0.981077,-0.044927,0.069833,-15.203197,-37.242901,60.973660
1703503302.148412,1703503302.148979,89.000000,0.000000,4348.846191,4331.410156,4344.615234,4369.358887,4293.077148,4262.948730,4260.384766,4282.820313,4270.384766,4242.948730,4502.179688,4455.512695,4430.769043,4449.230957,7317.000000,3.000000,63.000000,,,,0.000000,4.000000,4.000000,4.000000,4.000000,4.000000,4.000000,4.000000,4.000000,4.000000,4.000000,4.000000,4.000000,4.000000,4.000000,100.000000,,,,,,,,,,,,,,,,,,,,,,,,,,,,
