title:نوار مسافة, start timestamp:1703161309.669421, stop timestamp:1703161321.053559, headset type:EPOCX, headset serial:E50206EF, headset firmware:720, channels:67, sampling rate:eeg_128;mot_32, samples:1459      , version:2.2, 
Timestamp,OriginalTimestamp,EEG.Counter,EEG.Interpolated,EEG.AF3,EEG.F7,EEG.F3,EEG.FC5,EEG.T7,EEG.P7,EEG.O1,EEG.O2,EEG.P8,EEG.T8,EEG.FC6,EEG.F4,EEG.F8,EEG.AF4,EEG.RawCq,EEG.Battery,EEG.BatteryPercent,MarkerIndex,MarkerType,MarkerValueInt,EEG.MarkerHardware,CQ.AF3,CQ.F7,CQ.F3,CQ.FC5,CQ.T7,CQ.P7,CQ.O1,CQ.O2,CQ.P8,CQ.T8,CQ.FC6,CQ.F4,CQ.F8,CQ.AF4,CQ.Overall,EQ.SampleRateQuality,EQ.OVERALL,EQ.AF3,EQ.F7,EQ.F3,EQ.FC5,EQ.T7,EQ.P7,EQ.O1,EQ.O2,EQ.P8,EQ.T8,EQ.FC6,EQ.F4,EQ.F8,EQ.AF4,MOT.CounterMems,MOT.InterpolatedMems,MOT.Q0,MOT.Q1,MOT.Q2,MOT.Q3,MOT.AccX,MOT.AccY,MOT.AccZ,MOT.MagX,MOT.MagY,MOT.MagZ
1703161309.669421,1703161309.669094,27.000000,0.000000,4162.948730,4125.897461,4253.717773,4209.358887,4124.230957,4104.615234,4092.692383,4108.589844,4111.153809,4138.717773,4606.666504,4391.282227,4356.025879,4478.846191,0.000000,4.000000,80.000000,,,,0.000000,4.000000,4.000000,4.000000,4.000000,4.000000,4.000000,4.000000,4.000000,4.000000,4.000000,4.000000,4.000000,4.000000,4.000000,100.000000,,,,,,,,,,,,,,,,,,,,,,,,,,,,
1703161309.677229,1703161309.676802,28.000000,0.000000,4155.256348,4119.615234,4249.230957,4205.384766,4122.051270,4103.461426,4094.615479,4096.153809,4098.461426,4126.922852,4601.025879,4385.128418,4348.974121,4475.256348,0.000000,4.000000,80.000000,,,,0.000000,4.000000,4.000000,4.000000,4.000000,4.000000,4.000000,4.000000,4.000000,4.000000,4.000000,4.000000,4.000000,4.000000,4.000000,100.000000,,,,,,,,,,,,,,,,,7.000000,0.000000,0.447948,0.517761,-0.393799,0.613342,0.984007,0.024417,0.147479,-16.906553,-33.705326,65.367950
1703161309.685037,1703161309.684610,29.000000,0.000000,4153.333496,4111.538574,4250.000000,4202.307617,4116.794922,4101.922852,4097.436035,4089.487061,4081.923096,4113.205078,4592.820313,4381.794922,4339.102539,4469.358887,0.000000,4.000000,80.000000,,,,0.000000,4.000000,4.000000,4.000000,4.000000,4.000000,4.000000,4.000000,4.000000,4.000000,4.000000,4.000000,4.000000,4.000000,4.000000,100.000000,,,,,,,,,,,,,,,,,,,,,,,,,,,,
1703161309.692845,1703161309.692318,30.000000,0.000000,4149.743652,4104.743652,4247.820313,4196.153809,4107.179688,4091.153809,4094.358887,4088.718018,4074.487061,4103.974121,4582.820313,4376.153809,4330.641113,4460.512695,0.000000,4.000000,80.000000,,,,0.000000,4.000000,4.000000,4.000000,4.000000,4.000000,4.000000,4.000000,4.000000,4.000000,4.000000,4.000000,4.000000,4.000000,4.000000,100.000000,,,,,,,,,,,,,,,,,,,,,,,,,,,,
1703161309.700653,1703161309.700226,31.000000,0.000000,4140.769043,4104.487305,4247.307617,4196.025879,4104.743652,4082.564209,4091.281982,4092.948730,4081.025635,4109.743652,4585.641113,4377.436035,4335.256348,4459.871582,0.000000,4.000000,80.000000,,,,0.000000,4.000000,4.000000,4.000000,4.000000,4.000000,4.000000,4.000000,4.000000,4.000000,4.000000,4.000000,4.000000,4.000000,4.000000,100.000000,,,,,,,,,,,,,,,,,,,,,,,,,,,,
1703161309.708461,1703161309.708035,32.000000,0.000000,4139.487305,4108.205078,4246.410156,4200.384766,4106.025879,4085.128174,4092.179443,4102.692383,4089.102539,4117.820313,4592.948730,4381.794922,4342.436035,4465.256348,0.000000,4.000000,80.000000,,,,0.000000,4.000000,4.000000,4.000000,4.000000,4.000000,4.000000,4.000000,4.000000,4.000000,4.000000,4.000000,4.000000,4.000000,4.000000,100.000000,,,,,,,,,,,,,,,,,8.000000,0.000000,0.448020,0.517822,-0.393921,0.613159,0.980100,0.036137,0.136735,-17.049231,-33.718128,65.331154
1703161309.716269,1703161309.715943,33.000000,0.000000,4139.743652,4106.794922,4236.153809,4192.948730,4106.410156,4092.179443,4092.564209,4106.025879,4087.820557,4110.641113,4588.717773,4377.692383,4337.563965,4460.769043,0.000000,4.000000,80.000000,,,,0.000000,4.000000,4.000000,4.000000,4.000000,4.000000,4.000000,4.000000,4.000000,4.000000,4.000000,4.000000,4.000000,4.000000,4.000000,100.000000,,,,,,,,,,,,,,,,,,,,,,,,,,,,
1703161309.724077,1703161309.723751,34.000000,0.000000,4134.871582,4098.717773,4230.512695,4183.974121,4110.256348,4100.769043,4093.974365,4108.333496,4093.589844,4108.589844,4590.769043,4377.307617,4335.256348,4456.794922,0.000000,4.000000,80.000000,,,,0.000000,4.000000,4.000000,4.000000,4.000000,4.000000,4.000000,4.000000,4.000000,4.000000,4.000000,4.000000,4.000000,4.000000,4.000000,100.000000,,,,,,,,,,,,,,,,,,,,,,,,,,,,
1703161309.731885,1703161309.731659,35.000000,0.000000,4135.769043,4098.461426,4239.743652,4187.307617,4113.717773,4104.102539,4095.000000,4119.358887,4106.794922,4121.025879,4604.487305,4383.717773,4345.256348,4462.948730,0.000000,4.000000,80.000000,,,,0.000000,4.000000,4.000000,4.000000,4.000000,4.000000,4.000000,4.000000,4.000000,4.000000,4.000000,4.000000,4.000000,4.000000,4.000000,100.000000,,,,,,,,,,,,,,,,,,,,,,,,,,,,
1703161309.739694,1703161309.739467,36.000000,0.000000,4138.589844,4105.897461,4247.436035,4194.871582,4110.256348,4096.666504,4091.538574,4125.769043,4108.461426,4124.615234,4605.256348,4386.153809,4350.000000,4466.025879,0.000000,4.000000,80.000000,,,,0.000000,4.000000,4.000000,4.000000,4.000000,4.000000,4.000000,4.000000,4.000000,4.000000,4.000000,4.000000,4.000000,4.000000,4.000000,100.000000,,,,,,,,,,,,,,,,,9.000000,0.000000,0.448104,0.517822,-0.393921,0.613098,0.983518,0.028324,0.140642,-16.994308,-33.729649,65.381371
1703161309.747501,1703161309.747375,37.000000,0.000000,4141.922852,4109.102539,4245.769043,4198.333496,4107.051270,4095.769287,4089.743652,4122.436035,4111.153809,4124.743652,4600.384766,4391.025879,4344.487305,4467.692383,0.000000,4.000000,80.000000,,,,0.000000,4.000000,4.000000,4.000000,4.000000,4.000000,4.000000,4.000000,4.000000,4.000000,4.000000,4.000000,4.000000,4.000000,4.000000,100.000000,,,,,,,,,,,,,,,,,,,,,,,,,,,,
1703161309.755309,1703161309.755183,38.000000,0.000000,4150.641113,4108.846191,4250.128418,4200.512695,4113.846191,4104.487305,4092.307617,4123.461426,4124.358887,4137.051270,4609.487305,4399.487305,4351.153809,4475.384766,0.000000,4.000000,80.000000,,,,0.000000,4.000000,4.000000,4.000000,4.000000,4.000000,4.000000,4.000000,4.000000,4.000000,4.000000,4.000000,4.000000,4.000000,4.000000,100.000000,,,,,,,,,,,,,,,,,,,,,,,,,,,,
1703161309.763118,1703161309.763091,39.000000,0.000000,4155.641113,4114.743652,4257.436035,4205.000000,4123.846191,4102.436035,4091.538574,4122.307617,4121.794922,4139.871582,4616.282227,4400.000000,4363.333496,4482.820313,0.000000,4.000000,80.000000,,,,0.000000,4.000000,4.000000,4.000000,4.000000,4.000000,4.000000,4.000000,4.000000,4.000000,4.000000,4.000000,4.000000,4.000000,4.000000,100.000000,,,,,,,,,,,,,,,,,,,,,,,,,,,,
1703161309.770926,1703161309.770899,40.000000,0.000000,4154.615234,4123.846191,4254.871582,4208.846191,4123.077148,4092.820557,4086.923096,4110.000000,4103.974121,4124.358887,4603.846191,4390.256348,4353.205078,4477.948730,0.000000,4.000000,80.000000,,,,0.000000,4.000000,4.000000,4.000000,4.000000,4.000000,4.000000,4.000000,4.000000,4.000000,4.000000,4.000000,4.000000,4.000000,4.000000,100.000000,,,,,,,,,,,,,,,,,10.000000,0.000000,0.448158,0.517822,-0.393860,0.613098,0.983030,0.041021,0.137712,-16.994877,-33.573349,65.293236
1703161309.778734,1703161309.778807,41.000000,0.000000,4153.846191,4129.615234,4248.077148,4208.461426,4116.538574,4092.179443,4087.051270,4097.307617,4096.922852,4117.307617,4587.563965,4380.384766,4332.563965,4465.769043,0.000000,4.000000,80.000000,,,,0.000000,4.000000,4.000000,4.000000,4.000000,4.000000,4.000000,4.000000,4.000000,4.000000,4.000000,4.000000,4.000000,4.000000,4.000000,100.000000,,,,,,,,,,,,,,,,,,,,,,,,,,,,
1703161309.786542,1703161309.786615,42.000000,0.000000,4149.615234,4123.846191,4246.410156,4201.794922,4117.436035,4093.333252,4090.000000,4091.025635,4093.461426,4117.692383,4586.538574,4377.692383,4333.333496,4462.179688,0.000000,4.000000,80.000000,,,,0.000000,4.000000,4.000000,4.000000,4.000000,4.000000,4.000000,4.000000,4.000000,4.000000,4.000000,4.000000,4.000000,4.000000,4.000000,100.000000,,,,,,,,,,,,,,,,,,,,,,,,,,,,
1703161309.794350,1703161309.794523,43.000000,0.000000,4150.769043,4112.436035,4249.871582,4197.948730,4115.641113,4091.538574,4092.948730,4091.025635,4081.666748,4112.820313,4598.974121,4381.538574,4352.436035,4474.487305,0.000000,4.000000,80.000000,,,,0.000000,4.000000,4.000000,4.000000,4.000000,4.000000,4.000000,4.000000,4.000000,4.000000,4.000000,4.000000,4.000000,4.000000,4.000000,100.000000,,,,,,,,,,,,,,,,,,,,,,,,,,,,
1703161309.802158,1703161309.802331,44.000000,0.000000,4154.743652,4115.897461,4246.922852,4200.000000,4107.563965,4092.307617,4094.358887,4090.000000,4075.256348,4106.153809,4598.589844,4381.538574,4355.256348,4480.256348,0.000000,4.000000,80.000000,,,,0.000000,4.000000,4.000000,4.000000,4.000000,4.000000,4.000000,4.000000,4.000000,4.000000,4.000000,4.000000,4.000000,4.000000,4.000000,100.000000,,,,,,,,,,,,,,,,,11.000000,0.000000,0.448324,0.517822,-0.393860,0.612976,0.985960,0.035161,0.150409,-16.878723,-33.582680,65.313911
1703161309.809966,1703161309.810039,45.000000,0.000000,4143.205078,4122.563965,4237.820313,4198.846191,4108.205078,4090.512939,4094.230713,4088.333252,4080.769287,4104.102539,4588.461426,4376.153809,4338.589844,4466.153809,0.000000,4.000000,80.000000,,,,0.000000,4.000000,4.000000,4.000000,4.000000,4.000000,4.000000,4.000000,4.000000,4.000000,4.000000,4.000000,4.000000,4.000000,4.000000,100.000000,,,,,,,,,,,,,,,,,,,,,,,,,,,,
1703161309.817774,1703161309.817847,46.000000,0.000000,4137.820313,4118.077148,4237.436035,4196.666504,4112.307617,4087.564209,4093.718018,4097.436035,4089.230713,4110.384766,4591.922852,4378.461426,4338.461426,4463.974121,0.000000,4.000000,80.000000,,,,0.000000,4.000000,4.000000,4.000000,4.000000,4.000000,4.000000,4.000000,4.000000,4.000000,4.000000,4.000000,4.000000,4.000000,4.000000,100.000000,,,,,,,,,,,,,,,,,,,,,,,,,,,,
1703161309.825582,1703161309.825555,47.000000,0.000000,4152.692383,4115.641113,4245.000000,4198.461426,4107.436035,4090.512939,4097.051270,4110.000000,4098.077148,4118.717773,4602.179688,4384.230957,4351.794922,4477.820313,0.000000,4.000000,80.000000,,,,0.000000,4.000000,4.000000,4.000000,4.000000,4.000000,4.000000,4.000000,4.000000,4.000000,4.000000,4.000000,4.000000,4.000000,4.000000,100.000000,,,,,,,,,,,,,,,,,,,,,,,,,,,,
1703161309.833390,1703161309.833463,48.000000,0.000000,4153.333496,4120.384766,4245.641113,4200.641113,4104.358887,4093.974365,4100.641113,4109.102539,4102.436035,4119.358887,4599.743652,4382.436035,4349.615234,4478.846191,0.000000,4.000000,80.000000,,,,0.000000,4.000000,4.000000,4.000000,4.000000,4.000000,4.000000,4.000000,4.000000,4.000000,4.000000,4.000000,4.000000,4.000000,4.000000,100.000000,,,,,,,,,,,,,,,,,12.000000,0.000000,0.448521,0.517822,-0.393921,0.612793,0.981077,0.041997,0.145526,-16.824184,-33.541080,65.382523
1703161309.841198,1703161309.841271,49.000000,0.000000,4139.358887,4123.077148,4242.307617,4200.128418,4115.384766,4091.923096,4093.718018,4099.615234,4100.512695,4120.000000,4592.820313,4380.128418,4340.384766,4472.179688,0.000000,4.000000,80.000000,,,,0.000000,4.000000,4.000000,4.000000,4.000000,4.000000,4.000000,4.000000,4.000000,4.000000,4.000000,4.000000,4.000000,4.000000,4.000000,100.000000,,,,,,,,,,,,,,,,,,,,,,,,,,,,
1703161309.849006,1703161309.849179,50.000000,0.000000,4143.333496,4123.333496,4246.025879,4199.743652,4122.179688,4095.000000,4090.897461,4097.307617,4098.974121,4123.205078,4596.794922,4382.948730,4342.563965,4473.205078,0.000000,4.000000,80.000000,,,,0.000000,4.000000,4.000000,4.000000,4.000000,4.000000,4.000000,4.000000,4.000000,4.000000,4.000000,4.000000,4.000000,4.000000,4.000000,100.000000,,,,,,,,,,,,,,,,,,,,,,,,,,,,
1703161309.856814,1703161309.856987,51.000000,0.000000,4148.717773,4124.615234,4247.051270,4201.410156,4116.538574,4100.641113,4100.897461,4096.922852,4094.615479,4114.102539,4597.051270,4382.563965,4341.666504,4472.436035,0.000000,4.000000,80.000000,,,,0.000000,4.000000,4.000000,4.000000,4.000000,4.000000,4.000000,4.000000,4.000000,4.000000,4.000000,4.000000,4.000000,4.000000,4.000000,100.000000,,,,,,,,,,,,,,,,,,,,,,,,,,,,
1703161309.864622,1703161309.864795,52.000000,0.000000,4143.077148,4124.615234,4245.897461,4200.897461,4113.846191,4100.897461,4102.307617,4095.128174,4090.384521,4108.205078,4589.487305,4378.333496,4339.743652,4470.897461,0.000000,4.000000,80.000000,,,,0.000000,4.000000,4.000000,4.000000,4.000000,4.000000,4.000000,4.000000,4.000000,4.000000,4.000000,4.000000,4.000000,4.000000,4.000000,100.000000,,,,,,,,,,,,,,,,,13.000000,0.000000,0.448725,0.517883,-0.393799,0.612671,0.978147,0.043951,0.130875,-16.891766,-33.620304,65.344269
1703161309.872430,1703161309.872504,53.000000,0.000000,4144.358887,4125.000000,4248.461426,4199.487305,4120.256348,4099.230957,4092.307617,4100.512695,4098.461426,4120.000000,4593.205078,4379.102539,4346.153809,4474.743652,0.000000,4.000000,80.000000,,,,0.000000,4.000000,4.000000,4.000000,4.000000,4.000000,4.000000,4.000000,4.000000,4.000000,4.000000,4.000000,4.000000,4.000000,4.000000,100.000000,,,,,,,,,,,,,,,,,,,,,,,,,,,,
1703161309.880238,1703161309.880312,54.000000,0.000000,4149.230957,4126.922852,4250.128418,4200.897461,4123.846191,4096.538574,4092.307617,4106.025879,4103.333496,4126.666504,4601.666504,4384.743652,4349.743652,4475.000000,0.000000,4.000000,80.000000,,,,0.000000,4.000000,4.000000,4.000000,4.000000,4.000000,4.000000,4.000000,4.000000,4.000000,4.000000,4.000000,4.000000,4.000000,4.000000,100.000000,,,,,,,,,,,,,,,,,,,,,,,,,,,,
1703161309.888046,1703161309.888020,55.000000,0.000000,4158.717773,4136.025879,4250.769043,4209.102539,4122.051270,4094.102539,4093.846191,4100.384766,4092.435791,4120.256348,4601.666504,4388.974121,4355.256348,4482.436035,0.000000,4.000000,80.000000,,,,0.000000,4.000000,4.000000,4.000000,4.000000,4.000000,4.000000,4.000000,4.000000,4.000000,4.000000,4.000000,4.000000,4.000000,4.000000,100.000000,,,,,,,,,,,,,,,,,,,,,,,,,,,,
1703161309.895854,1703161309.895928,56.000000,0.000000,4164.871582,4141.794922,4250.897461,4215.256348,4123.717773,4093.974365,4084.230713,4090.512939,4085.128174,4114.487305,4599.102539,4388.461426,4361.666504,4491.922852,0.000000,4.000000,80.000000,,,,0.000000,4.000000,4.000000,4.000000,4.000000,4.000000,4.000000,4.000000,4.000000,4.000000,4.000000,4.000000,4.000000,4.000000,4.000000,100.000000,,,,,,,,,,,,,,,,,14.000000,0.000000,0.448893,0.517639,-0.393738,0.612793,0.987914,0.029789,0.147479,-16.835922,-33.624943,65.326508
1703161309.903663,1703161309.903736,57.000000,0.000000,4164.615234,4140.897461,4251.282227,4215.897461,4124.615234,4093.205078,4081.666748,4093.205078,4088.461426,4116.153809,4602.436035,4385.769043,4362.436035,4492.307617,0.000000,4.000000,80.000000,,,,0.000000,4.000000,4.000000,4.000000,4.000000,4.000000,4.000000,4.000000,4.000000,4.000000,4.000000,4.000000,4.000000,4.000000,4.000000,100.000000,1.000000,100.000000,4.000000,4.000000,4.000000,4.000000,4.000000,4.000000,4.000000,4.000000,4.000000,4.000000,4.000000,4.000000,4.000000,4.000000,,,,,,,,,,,,
1703161309.911471,1703161309.911644,58.000000,0.000000,4166.410156,4146.153809,4250.769043,4218.333496,4121.666504,4092.564209,4088.589844,4103.589844,4096.282227,4121.922852,4608.077148,4389.230957,4365.641113,4494.230957,0.000000,4.000000,80.000000,,,,0.000000,4.000000,4.000000,4.000000,4.000000,4.000000,4.000000,4.000000,4.000000,4.000000,4.000000,4.000000,4.000000,4.000000,4.000000,100.000000,,,,,,,,,,,,,,,,,,,,,,,,,,,,
1703161309.919279,1703161309.919452,59.000000,0.000000,4165.384766,4146.153809,4248.589844,4213.846191,4121.410156,4095.641113,4092.948730,4109.358887,4105.641113,4124.230957,4607.692383,4394.230957,4367.692383,4497.692383,0.000000,4.000000,80.000000,,,,0.000000,4.000000,4.000000,4.000000,4.000000,4.000000,4.000000,4.000000,4.000000,4.000000,4.000000,4.000000,4.000000,4.000000,4.000000,100.000000,,,,,,,,,,,,,,,,,,,,,,,,,,,,
1703161309.927087,1703161309.927360,60.000000,0.000000,4156.025879,4136.025879,4246.794922,4204.358887,4121.025879,4098.205078,4098.717773,4110.128418,4109.487305,4120.000000,4602.307617,4390.897461,4358.846191,4490.256348,0.000000,4.000000,80.000000,,,,0.000000,4.000000,4.000000,4.000000,4.000000,4.000000,4.000000,4.000000,4.000000,4.000000,4.000000,4.000000,4.000000,4.000000,4.000000,100.000000,,,,,,,,,,,,,,,,,15.000000,0.000000,0.449206,0.517517,-0.393921,0.612549,0.996215,0.034184,0.144549,-16.935663,-33.695782,65.327187
1703161309.934895,1703161309.935168,61.000000,0.000000,4150.512695,4134.487305,4247.179688,4207.179688,4121.153809,4098.974121,4107.051270,4111.025879,4112.948730,4121.025879,4604.358887,4388.589844,4352.051270,4484.230957,0.000000,4.000000,80.000000,,,,0.000000,4.000000,4.000000,4.000000,4.000000,4.000000,4.000000,4.000000,4.000000,4.000000,4.000000,4.000000,4.000000,4.000000,4.000000,100.000000,,,,,,,,,,,,,,,,,,,,,,,,,,,,
1703161309.942703,1703161309.943076,62.000000,0.000000,4155.256348,4141.666504,4247.820313,4217.051270,4123.333496,4102.948730,4107.436035,4112.179688,4119.230957,4123.974121,4611.538574,4389.615234,4358.846191,4491.666504,0.000000,4.000000,80.000000,,,,0.000000,4.000000,4.000000,4.000000,4.000000,4.000000,4.000000,4.000000,4.000000,4.000000,4.000000,4.000000,4.000000,4.000000,4.000000,100.000000,,,,,,,,,,,,,,,,,,,,,,,,,,,,
1703161309.950511,1703161309.950884,63.000000,0.000000,4160.641113,4142.436035,4249.102539,4217.563965,4125.769043,4104.358887,4101.666504,4103.974121,4113.974121,4120.256348,4608.461426,4386.153809,4363.077148,4492.820313,0.000000,4.000000,80.000000,,,,0.000000,4.000000,4.000000,4.000000,4.000000,4.000000,4.000000,4.000000,4.000000,4.000000,4.000000,4.000000,4.000000,4.000000,4.000000,100.000000,,,,,,,,,,,,,,,,,,,,,,,,,,,,
1703161309.958319,1703161309.958792,64.000000,0.000000,4167.692383,4140.897461,4255.384766,4213.717773,4125.128418,4100.897461,4097.948730,4095.128174,4105.384766,4119.871582,4606.666504,4386.922852,4363.974121,4488.846191,5220.000000,4.000000,80.000000,,,,0.000000,4.000000,4.000000,4.000000,4.000000,4.000000,4.000000,4.000000,4.000000,4.000000,4.000000,4.000000,4.000000,4.000000,4.000000,100.000000,,,,,,,,,,,,,,,,,16.000000,0.000000,0.449159,0.517517,-0.394165,0.612427,0.989379,0.024905,0.140642,-16.992096,-33.676201,65.411140
1703161309.966127,1703161309.966700,65.000000,0.000000,4169.743652,4144.102539,4260.641113,4214.743652,4123.717773,4097.436035,4094.487061,4099.871582,4110.000000,4124.487305,4614.871582,4397.179688,4369.871582,4499.487305,5338.000000,4.000000,80.000000,,,,0.000000,4.000000,4.000000,4.000000,4.000000,4.000000,4.000000,4.000000,4.000000,4.000000,4.000000,4.000000,4.000000,4.000000,4.000000,100.000000,,,,,,,,,,,,,,,,,,,,,,,,,,,,
1703161309.973935,1703161309.974508,66.000000,0.000000,4168.974121,4150.512695,4261.538574,4217.307617,4123.461426,4096.282227,4091.794922,4105.641113,4112.051270,4129.230957,4617.820313,4402.820313,4375.641113,4509.615234,5275.000000,4.000000,80.000000,,,,0.000000,4.000000,4.000000,4.000000,4.000000,4.000000,4.000000,4.000000,4.000000,4.000000,4.000000,4.000000,4.000000,4.000000,4.000000,100.000000,,,,,,,,,,,,,,,,,,,,,,,,,,,,
1703161309.981743,1703161309.982316,67.000000,0.000000,4173.974121,4151.794922,4259.102539,4217.948730,4123.333496,4094.743652,4090.769287,4098.077148,4101.153809,4123.974121,4608.974121,4393.333496,4370.769043,4499.871582,5250.000000,4.000000,80.000000,,,,0.000000,4.000000,4.000000,4.000000,4.000000,4.000000,4.000000,4.000000,4.000000,4.000000,4.000000,4.000000,4.000000,4.000000,4.000000,100.000000,,,,,,,,,,,,,,,,,,,,,,,,,,,,
1703161309.989551,1703161309.990024,68.000000,0.000000,4169.871582,4144.102539,4251.153809,4214.230957,4123.717773,4097.563965,4088.333252,4084.102539,4088.718018,4112.179688,4595.000000,4379.102539,4357.820313,4489.358887,5098.000000,4.000000,80.000000,,,,0.000000,4.000000,4.000000,4.000000,4.000000,4.000000,4.000000,4.000000,4.000000,4.000000,4.000000,4.000000,4.000000,4.000000,4.000000,100.000000,,,,,,,,,,,,,,,,,17.000000,0.000000,0.449148,0.517578,-0.394287,0.612305,0.982542,0.039067,0.138689,-16.992887,-33.691914,65.370026
1703161309.997359,1703161309.997832,69.000000,0.000000,4158.461426,4139.102539,4245.384766,4210.000000,4123.717773,4104.743652,4086.666748,4076.923096,4080.897461,4103.589844,4584.487305,4374.615234,4348.205078,4487.436035,5155.000000,4.000000,80.000000,,,,0.000000,4.000000,4.000000,4.000000,4.000000,4.000000,4.000000,4.000000,4.000000,4.000000,4.000000,4.000000,4.000000,4.000000,4.000000,100.000000,,,,,,,,,,,,,,,,,,,,,,,,,,,,
1703161310.005167,1703161310.005540,70.000000,0.000000,4151.922852,4138.333496,4245.128418,4204.871582,4124.615234,4102.051270,4089.230713,4077.820557,4078.333252,4098.461426,4579.743652,4375.000000,4342.179688,4478.974121,5050.000000,4.000000,80.000000,,,,0.000000,4.000000,4.000000,4.000000,4.000000,4.000000,4.000000,4.000000,4.000000,4.000000,4.000000,4.000000,4.000000,4.000000,4.000000,100.000000,,,,,,,,,,,,,,,,,,,,,,,,,,,,
1703161310.012975,1703161310.013348,71.000000,0.000000,4153.077148,4135.384766,4245.128418,4199.102539,4122.179688,4092.051270,4090.000000,4087.435791,4083.846191,4097.563965,4578.077148,4375.128418,4343.717773,4479.102539,5248.000000,4.000000,80.000000,,,,0.000000,4.000000,4.000000,4.000000,4.000000,4.000000,4.000000,4.000000,4.000000,4.000000,4.000000,4.000000,4.000000,4.000000,4.000000,100.000000,,,,,,,,,,,,,,,,,,,,,,,,,,,,
1703161310.020783,1703161310.021056,72.000000,0.000000,4152.563965,4130.512695,4244.487305,4195.769043,4116.794922,4091.410156,4089.871826,4098.205078,4094.230713,4105.000000,4580.641113,4380.769043,4347.692383,4488.717773,4989.000000,4.000000,80.000000,,,,0.000000,4.000000,4.000000,4.000000,4.000000,4.000000,4.000000,4.000000,4.000000,4.000000,4.000000,4.000000,4.000000,4.000000,4.000000,100.000000,,,,,,,,,,,,,,,,,18.000000,0.000000,0.448898,0.517578,-0.394287,0.612488,0.985960,0.039067,0.141131,-16.843599,-33.739391,65.349686
1703161310.028591,1703161310.028864,73.000000,0.000000,4154.615234,4132.692383,4246.922852,4198.974121,4116.538574,4101.025879,4100.384766,4106.282227,4104.102539,4120.769043,4590.641113,4391.538574,4350.512695,4489.358887,5237.000000,4.000000,80.000000,,,,0.000000,4.000000,4.000000,4.000000,4.000000,4.000000,4.000000,4.000000,4.000000,4.000000,4.000000,4.000000,4.000000,4.000000,4.000000,100.000000,,,,,,,,,,,,,,,,,,,,,,,,,,,,
1703161310.036399,1703161310.036573,74.000000,0.000000,4166.282227,4147.051270,4254.487305,4209.487305,4123.205078,4107.051270,4110.000000,4118.333496,4116.538574,4136.153809,4607.563965,4402.692383,4362.692383,4497.563965,5819.000000,4.000000,80.000000,,,,0.000000,4.000000,4.000000,4.000000,4.000000,4.000000,4.000000,4.000000,4.000000,4.000000,4.000000,4.000000,4.000000,4.000000,4.000000,100.000000,,,,,,,,,,,,,,,,,,,,,,,,,,,,
1703161310.044207,1703161310.044481,75.000000,0.000000,4173.974121,4155.769043,4261.410156,4216.153809,4126.025879,4103.333496,4102.307617,4124.358887,4124.230957,4143.205078,4619.230957,4410.256348,4378.846191,4512.948730,6153.000000,4.000000,80.000000,,,,0.000000,4.000000,4.000000,4.000000,4.000000,4.000000,4.000000,4.000000,4.000000,4.000000,4.000000,4.000000,4.000000,4.000000,4.000000,100.000000,,,,,,,,,,,,,,,,,,,,,,,,,,,,
1703161310.052015,1703161310.052289,76.000000,0.000000,4173.589844,4150.000000,4262.179688,4214.487305,4121.922852,4096.538574,4091.666748,4116.410156,4118.589844,4142.051270,4615.897461,4409.615234,4378.333496,4513.974121,6558.000000,4.000000,80.000000,,,,0.000000,4.000000,4.000000,4.000000,4.000000,4.000000,4.000000,4.000000,4.000000,4.000000,4.000000,4.000000,4.000000,4.000000,4.000000,100.000000,,,,,,,,,,,,,,,,,19.000000,0.000000,0.448915,0.517517,-0.394348,0.612488,0.996704,0.020999,0.149432,-16.859238,-33.798786,65.314720
1703161310.059823,1703161310.060097,77.000000,0.000000,4172.436035,4150.000000,4261.538574,4215.384766,4120.384766,4093.974365,4092.179443,4105.512695,4108.077148,4137.692383,4604.615234,4405.641113,4364.615234,4509.102539,6740.000000,4.000000,80.000000,,,,0.000000,4.000000,4.000000,4.000000,4.000000,4.000000,4.000000,4.000000,4.000000,4.000000,4.000000,4.000000,4.000000,4.000000,4.000000,100.000000,,,,,,,,,,,,,,,,,,,,,,,,,,,,
1703161310.067632,1703161310.067805,78.000000,0.000000,4174.230957,4155.769043,4261.922852,4217.692383,4123.077148,4094.615479,4093.974365,4098.846191,4100.000000,4130.769043,4605.256348,4404.743652,4363.717773,4510.512695,5819.000000,4.000000,80.000000,,,,0.000000,4.000000,4.000000,4.000000,4.000000,4.000000,4.000000,4.000000,4.000000,4.000000,4.000000,4.000000,4.000000,4.000000,4.000000,100.000000,,,,,,,,,,,,,,,,,,,,,,,,,,,,
1703161310.075440,1703161310.075713,79.000000,0.000000,4179.358887,4152.948730,4261.794922,4214.871582,4123.461426,4092.435791,4090.897461,4093.461426,4091.538574,4123.846191,4611.282227,4399.743652,4372.307617,4511.282227,6153.000000,4.000000,80.000000,,,,0.000000,4.000000,4.000000,4.000000,4.000000,4.000000,4.000000,4.000000,4.000000,4.000000,4.000000,4.000000,4.000000,4.000000,4.000000,100.000000,,,,,,,,,,,,,,,,,,,,,,,,,,,,
1703161310.083248,1703161310.083521,80.000000,0.000000,4184.487305,4152.179688,4261.666504,4216.025879,4121.538574,4093.461426,4091.538574,4089.871826,4084.487061,4123.974121,4608.589844,4396.410156,4370.769043,4509.615234,6558.000000,4.000000,80.000000,,,,0.000000,4.000000,4.000000,4.000000,4.000000,4.000000,4.000000,4.000000,4.000000,4.000000,4.000000,4.000000,4.000000,4.000000,4.000000,100.000000,,,,,,,,,,,,,,,,,20.000000,0.000000,0.449127,0.517456,-0.394470,0.612305,0.985960,0.027835,0.140642,-16.806648,-33.785572,65.166580
1703161310.091056,1703161310.091430,81.000000,0.000000,4183.333496,4154.743652,4257.436035,4219.871582,4123.077148,4098.461426,4094.358887,4090.128174,4079.743652,4124.358887,4603.333496,4397.563965,4363.846191,4509.230957,6740.000000,4.000000,80.000000,,,,0.000000,4.000000,4.000000,4.000000,4.000000,4.000000,4.000000,4.000000,4.000000,4.000000,4.000000,4.000000,4.000000,4.000000,4.000000,100.000000,,,,,,,,,,,,,,,,,,,,,,,,,,,,
1703161310.098864,1703161310.099238,82.000000,0.000000,4175.384766,4147.051270,4250.000000,4213.333496,4126.410156,4099.871582,4094.871826,4086.281982,4077.307617,4122.692383,4597.692383,4389.743652,4363.717773,4503.077148,5819.000000,4.000000,80.000000,,,,0.000000,4.000000,4.000000,4.000000,4.000000,4.000000,4.000000,4.000000,4.000000,4.000000,4.000000,4.000000,4.000000,4.000000,4.000000,100.000000,,,,,,,,,,,,,,,,,,,,,,,,,,,,
1703161310.106672,1703161310.107146,83.000000,0.000000,4164.487305,4134.230957,4243.589844,4203.717773,4125.512695,4097.948730,4094.871826,4081.538574,4084.358887,4120.512695,4592.051270,4377.820313,4358.461426,4490.641113,6153.000000,4.000000,80.000000,,,,0.000000,4.000000,4.000000,4.000000,4.000000,4.000000,4.000000,4.000000,4.000000,4.000000,4.000000,4.000000,4.000000,4.000000,4.000000,100.000000,,,,,,,,,,,,,,,,,,,,,,,,,,,,
1703161310.114480,1703161310.115054,84.000000,0.000000,4153.717773,4124.102539,4234.487305,4195.128418,4117.692383,4095.512939,4092.179443,4082.692383,4091.025635,4115.769043,4583.717773,4371.794922,4341.794922,4475.384766,6558.000000,4.000000,80.000000,,,,0.000000,4.000000,4.000000,4.000000,4.000000,4.000000,4.000000,4.000000,4.000000,4.000000,4.000000,4.000000,4.000000,4.000000,4.000000,100.000000,,,,,,,,,,,,,,,,,21.000000,0.000000,0.449370,0.517395,-0.394653,0.612061,0.983518,0.040044,0.146014,-16.709316,-33.857018,65.166588
1703161310.122288,1703161310.122862,85.000000,0.000000,4144.487305,4116.666504,4228.333496,4189.743652,4106.410156,4092.820557,4089.358887,4088.333252,4088.718018,4110.769043,4572.948730,4366.538574,4333.461426,4463.077148,6740.000000,4.000000,80.000000,,,,0.000000,4.000000,4.000000,4.000000,4.000000,4.000000,4.000000,4.000000,4.000000,4.000000,4.000000,4.000000,4.000000,4.000000,4.000000,100.000000,,,,,,,,,,,,,,,,,,,,,,,,,,,,
1703161310.130096,1703161310.130670,86.000000,0.000000,4142.563965,4114.743652,4230.512695,4190.000000,4104.230957,4091.410156,4092.051270,4098.974121,4095.769287,4109.871582,4576.282227,4366.410156,4339.230957,4462.692383,5819.000000,4.000000,80.000000,,,,0.000000,4.000000,4.000000,4.000000,4.000000,4.000000,4.000000,4.000000,4.000000,4.000000,4.000000,4.000000,4.000000,4.000000,4.000000,100.000000,,,,,,,,,,,,,,,,,,,,,,,,,,,,
1703161310.137904,1703161310.138578,87.000000,0.000000,4147.563965,4110.897461,4232.820313,4188.846191,4107.307617,4091.281982,4092.948730,4102.692383,4104.871582,4110.512695,4584.230957,4373.205078,4342.948730,4469.871582,6153.000000,4.000000,80.000000,,,,0.000000,4.000000,4.000000,4.000000,4.000000,4.000000,4.000000,4.000000,4.000000,4.000000,4.000000,4.000000,4.000000,4.000000,4.000000,100.000000,,,,,,,,,,,,,,,,,,,,,,,,,,,,
1703161310.145712,1703161310.146386,88.000000,0.000000,4153.974121,4109.487305,4236.794922,4190.000000,4104.615234,4091.153809,4089.615479,4099.358887,4101.410156,4114.230957,4583.974121,4377.948730,4342.820313,4479.358887,6558.000000,4.000000,80.000000,,,,0.000000,4.000000,4.000000,4.000000,4.000000,4.000000,4.000000,4.000000,4.000000,4.000000,4.000000,4.000000,4.000000,4.000000,4.000000,100.000000,,,,,,,,,,,,,,,,,22.000000,0.000000,0.449571,0.517334,-0.394409,0.612122,0.996704,0.033207,0.138200,-16.671719,-33.837982,65.283264
1703161310.153520,1703161310.154094,89.000000,0.000000,4161.153809,4120.512695,4246.794922,4204.358887,4103.974121,4089.358887,4091.538574,4103.589844,4102.179688,4122.692383,4592.948730,4385.769043,4354.487305,4487.692383,6740.000000,4.000000,80.000000,,,,0.000000,4.000000,4.000000,4.000000,4.000000,4.000000,4.000000,4.000000,4.000000,4.000000,4.000000,4.000000,4.000000,4.000000,4.000000,100.000000,,,,,,,,,,,,,,,,,,,,,,,,,,,,
1703161310.161328,1703161310.161902,90.000000,0.000000,4170.256348,4128.077148,4254.358887,4216.410156,4108.205078,4086.794922,4090.128174,4110.256348,4109.487305,4126.025879,4607.307617,4397.692383,4367.948730,4494.358887,5819.000000,4.000000,80.000000,,,,0.000000,4.000000,4.000000,4.000000,4.000000,4.000000,4.000000,4.000000,4.000000,4.000000,4.000000,4.000000,4.000000,4.000000,4.000000,100.000000,,,,,,,,,,,,,,,,,,,,,,,,,,,,
1703161310.169136,1703161310.169610,91.000000,0.000000,4180.512695,4127.692383,4261.025879,4213.333496,4113.717773,4086.923096,4081.153809,4109.743652,4106.666504,4125.512695,4610.512695,4402.179688,4370.256348,4502.051270,6153.000000,4.000000,80.000000,,,,0.000000,4.000000,4.000000,4.000000,4.000000,4.000000,4.000000,4.000000,4.000000,4.000000,4.000000,4.000000,4.000000,4.000000,4.000000,100.000000,,,,,,,,,,,,,,,,,,,,,,,,,,,,
1703161310.176944,1703161310.177418,92.000000,0.000000,4184.102539,4132.436035,4263.077148,4209.487305,4116.282227,4091.410156,4081.794922,4109.871582,4106.153809,4133.461426,4612.563965,4401.538574,4372.051270,4510.769043,6558.000000,4.000000,80.000000,,,,0.000000,4.000000,4.000000,4.000000,4.000000,4.000000,4.000000,4.000000,4.000000,4.000000,4.000000,4.000000,4.000000,4.000000,4.000000,100.000000,,,,,,,,,,,,,,,,,23.000000,0.000000,0.449724,0.517273,-0.394409,0.612061,0.998169,0.035649,0.143084,-16.654547,-33.887516,65.204941
1703161310.184752,1703161310.185126,93.000000,0.000000,4180.256348,4139.871582,4253.717773,4213.589844,4116.922852,4094.871826,4087.051270,4112.179688,4110.384766,4142.307617,4612.051270,4400.512695,4373.205078,4509.230957,6740.000000,4.000000,80.000000,,,,0.000000,4.000000,4.000000,4.000000,4.000000,4.000000,4.000000,4.000000,4.000000,4.000000,4.000000,4.000000,4.000000,4.000000,4.000000,100.000000,,,,,,,,,,,,,,,,,,,,,,,,,,,,
1703161310.192560,1703161310.192934,94.000000,0.000000,4173.461426,4135.897461,4248.846191,4215.000000,4117.563965,4094.871826,4086.410156,4105.128418,4101.410156,4136.282227,4600.641113,4393.974121,4365.897461,4496.794922,5819.000000,4.000000,80.000000,,,,0.000000,4.000000,4.000000,4.000000,4.000000,4.000000,4.000000,4.000000,4.000000,4.000000,4.000000,4.000000,4.000000,4.000000,4.000000,100.000000,,,,,,,,,,,,,,,,,,,,,,,,,,,,
1703161310.200369,1703161310.200642,95.000000,0.000000,4169.871582,4127.307617,4248.846191,4209.102539,4117.179688,4095.512939,4086.923096,4095.384521,4089.743652,4119.871582,4593.974121,4382.051270,4354.358887,4488.205078,6153.000000,4.000000,80.000000,,,,0.000000,4.000000,4.000000,4.000000,4.000000,4.000000,4.000000,4.000000,4.000000,4.000000,4.000000,4.000000,4.000000,4.000000,4.000000,100.000000,,,,,,,,,,,,,,,,,,,,,,,,,,,,
1703161310.208176,1703161310.208450,96.000000,0.000000,4169.230957,4123.077148,4240.384766,4201.153809,4117.179688,4100.000000,4090.512939,4088.974365,4087.179443,4109.487305,4588.974121,4375.128418,4345.769043,4483.589844,6558.000000,4.000000,80.000000,,,,0.000000,4.000000,4.000000,4.000000,4.000000,4.000000,4.000000,4.000000,4.000000,4.000000,4.000000,4.000000,4.000000,4.000000,4.000000,100.000000,,,,,,,,,,,,,,,,,24.000000,0.000000,0.449920,0.517273,-0.394470,0.611877,0.981565,0.043462,0.143084,-16.739092,-33.798763,65.101112
1703161310.215984,1703161310.216158,97.000000,0.000000,4163.333496,4121.794922,4234.743652,4201.153809,4115.000000,4105.769043,4093.718018,4090.641113,4090.641113,4107.436035,4582.692383,4375.128418,4341.282227,4478.461426,6740.000000,4.000000,80.000000,,,,0.000000,4.000000,4.000000,4.000000,4.000000,4.000000,4.000000,4.000000,4.000000,4.000000,4.000000,4.000000,4.000000,4.000000,4.000000,100.000000,,,,,,,,,,,,,,,,,,,,,,,,,,,,
1703161310.223793,1703161310.223966,98.000000,0.000000,4159.871582,4121.922852,4240.769043,4204.358887,4113.589844,4107.436035,4098.077148,4102.051270,4100.769043,4109.487305,4585.000000,4379.358887,4343.461426,4477.563965,5819.000000,4.000000,80.000000,,,,0.000000,4.000000,4.000000,4.000000,4.000000,4.000000,4.000000,4.000000,4.000000,4.000000,4.000000,4.000000,4.000000,4.000000,4.000000,100.000000,,,,,,,,,,,,,,,,,,,,,,,,,,,,
1703161310.231601,1703161310.231674,99.000000,0.000000,4163.077148,4120.641113,4245.641113,4201.666504,4114.230957,4103.974121,4097.692383,4107.307617,4107.051270,4115.384766,4586.282227,4382.307617,4346.922852,4483.717773,6153.000000,4.000000,80.000000,,,,0.000000,4.000000,4.000000,4.000000,4.000000,4.000000,4.000000,4.000000,4.000000,4.000000,4.000000,4.000000,4.000000,4.000000,4.000000,100.000000,,,,,,,,,,,,,,,,,,,,,,,,,,,,
1703161310.239409,1703161310.239482,100.000000,0.000000,4168.333496,4120.897461,4243.974121,4201.922852,4113.461426,4098.974121,4092.307617,4101.153809,4104.102539,4117.436035,4591.153809,4384.487305,4347.820313,4489.615234,6558.000000,4.000000,80.000000,,,,0.000000,4.000000,4.000000,4.000000,4.000000,4.000000,4.000000,4.000000,4.000000,4.000000,4.000000,4.000000,4.000000,4.000000,4.000000,100.000000,,,,,,,,,,,,,,,,,25.000000,0.000000,0.449983,0.517151,-0.394653,0.611816,0.984495,0.041021,0.136247,-16.781849,-33.735554,65.107666
1703161310.247217,1703161310.247191,101.000000,0.000000,4168.461426,4122.436035,4245.384766,4203.461426,4110.256348,4092.948730,4090.512939,4097.692383,4100.512695,4114.230957,4600.384766,4389.358887,4353.205078,4491.794922,6740.000000,4.000000,80.000000,,,,0.000000,4.000000,4.000000,4.000000,4.000000,4.000000,4.000000,4.000000,4.000000,4.000000,4.000000,4.000000,4.000000,4.000000,4.000000,100.000000,,,,,,,,,,,,,,,,,,,,,,,,,,,,
1703161310.255025,1703161310.255099,102.000000,0.000000,4169.743652,4121.282227,4252.692383,4202.307617,4103.846191,4089.743652,4090.256348,4101.794922,4099.102539,4115.384766,4602.179688,4392.820313,4360.897461,4496.025879,5819.000000,4.000000,80.000000,,,,0.000000,4.000000,4.000000,4.000000,4.000000,4.000000,4.000000,4.000000,4.000000,4.000000,4.000000,4.000000,4.000000,4.000000,4.000000,100.000000,,,,,,,,,,,,,,,,,,,,,,,,,,,,
1703161310.262833,1703161310.262907,103.000000,0.000000,4181.794922,4125.000000,4261.538574,4208.333496,4104.230957,4091.666748,4090.641113,4106.025879,4100.256348,4122.436035,4606.025879,4400.384766,4370.128418,4507.692383,6153.000000,4.000000,80.000000,,,,0.000000,4.000000,4.000000,4.000000,4.000000,4.000000,4.000000,4.000000,4.000000,4.000000,4.000000,4.000000,4.000000,4.000000,4.000000,100.000000,,,,,,,,,,,,,,,,,,,,,,,,,,,,
1703161310.270641,1703161310.270815,104.000000,0.000000,4191.153809,4137.179688,4266.922852,4220.769043,4112.051270,4094.487061,4092.435791,4108.717773,4106.666504,4130.128418,4616.153809,4415.256348,4378.461426,4518.205078,6558.000000,4.000000,80.000000,,,,0.000000,4.000000,4.000000,4.000000,4.000000,4.000000,4.000000,4.000000,4.000000,4.000000,4.000000,4.000000,4.000000,4.000000,4.000000,100.000000,,,,,,,,,,,,,,,,,26.000000,0.000000,0.449949,0.516968,-0.394836,0.611877,0.985472,0.021487,0.152851,-16.670332,-33.795334,64.930229
1703161310.278449,1703161310.278623,105.000000,0.000000,4186.666504,4138.333496,4264.615234,4218.846191,4115.769043,4093.461426,4092.948730,4113.077148,4109.230957,4134.615234,4619.487305,4417.436035,4375.512695,4515.384766,6740.000000,4.000000,80.000000,,,,0.000000,4.000000,4.000000,4.000000,4.000000,4.000000,4.000000,4.000000,4.000000,4.000000,4.000000,4.000000,4.000000,4.000000,4.000000,100.000000,,,,,,,,,,,,,,,,,,,,,,,,,,,,
1703161310.286257,1703161310.286531,106.000000,0.000000,4182.051270,4125.897461,4255.897461,4208.461426,4111.794922,4092.564209,4092.435791,4115.128418,4106.922852,4138.589844,4617.051270,4400.897461,4372.692383,4510.641113,5819.000000,4.000000,80.000000,,,,0.000000,4.000000,4.000000,4.000000,4.000000,4.000000,4.000000,4.000000,4.000000,4.000000,4.000000,4.000000,4.000000,4.000000,4.000000,100.000000,,,,,,,,,,,,,,,,,,,,,,,,,,,,
1703161310.294065,1703161310.294339,107.000000,0.000000,4181.666504,4124.871582,4247.692383,4209.358887,4115.000000,4096.794922,4091.025635,4111.153809,4107.563965,4137.436035,4613.461426,4387.692383,4374.230957,4507.436035,6153.000000,4.000000,80.000000,,,,0.000000,4.000000,4.000000,4.000000,4.000000,4.000000,4.000000,4.000000,4.000000,4.000000,4.000000,4.000000,4.000000,4.000000,4.000000,100.000000,,,,,,,,,,,,,,,,,,,,,,,,,,,,
1703161310.301873,1703161310.302247,108.000000,0.000000,4174.230957,4129.615234,4244.743652,4209.615234,4124.358887,4099.615234,4091.666748,4107.436035,4107.820313,4128.717773,4604.487305,4384.871582,4364.743652,4497.948730,6558.000000,4.000000,80.000000,,,,0.000000,4.000000,4.000000,4.000000,4.000000,4.000000,4.000000,4.000000,4.000000,4.000000,4.000000,4.000000,4.000000,4.000000,4.000000,100.000000,,,,,,,,,,,,,,,,,27.000000,0.000000,0.449870,0.516846,-0.394897,0.612000,0.991332,0.019534,0.155781,-16.786631,-33.765800,65.053879
1703161310.309681,1703161310.310055,109.000000,0.000000,4164.230957,4122.436035,4243.589844,4201.153809,4118.333496,4097.948730,4089.487061,4104.487305,4105.512695,4122.820313,4597.820313,4382.179688,4354.358887,4488.205078,6740.000000,4.000000,80.000000,,,,0.000000,4.000000,4.000000,4.000000,4.000000,4.000000,4.000000,4.000000,4.000000,4.000000,4.000000,4.000000,4.000000,4.000000,4.000000,100.000000,,,,,,,,,,,,,,,,,,,,,,,,,,,,
1703161310.317489,1703161310.317963,110.000000,0.000000,4165.000000,4113.461426,4242.179688,4198.333496,4104.615234,4097.307617,4083.589844,4097.692383,4106.538574,4123.846191,4597.179688,4379.871582,4357.692383,4488.846191,5819.000000,4.000000,80.000000,,,,0.000000,4.000000,4.000000,4.000000,4.000000,4.000000,4.000000,4.000000,4.000000,4.000000,4.000000,4.000000,4.000000,4.000000,4.000000,100.000000,,,,,,,,,,,,,,,,,,,,,,,,,,,,
1703161310.325297,1703161310.325771,111.000000,0.000000,4168.461426,4114.358887,4241.538574,4200.256348,4107.436035,4099.358887,4084.487061,4098.461426,4107.948730,4124.615234,4596.794922,4377.948730,4359.102539,4492.179688,6153.000000,4.000000,80.000000,,,,0.000000,4.000000,4.000000,4.000000,4.000000,4.000000,4.000000,4.000000,4.000000,4.000000,4.000000,4.000000,4.000000,4.000000,4.000000,100.000000,,,,,,,,,,,,,,,,,,,,,,,,,,,,
1703161310.333105,1703161310.333679,112.000000,0.000000,4166.410156,4116.282227,4240.256348,4200.128418,4115.256348,4102.051270,4090.641113,4105.128418,4108.205078,4120.512695,4594.358887,4375.897461,4348.846191,4489.487305,6558.000000,4.000000,80.000000,,,,0.000000,4.000000,4.000000,4.000000,4.000000,4.000000,4.000000,4.000000,4.000000,4.000000,4.000000,4.000000,4.000000,4.000000,4.000000,100.000000,,,,,,,,,,,,,,,,,28.000000,0.000000,0.449927,0.516724,-0.394897,0.612061,0.978147,0.035649,0.150409,-16.807968,-33.772552,65.081825
1703161310.340913,1703161310.341487,113.000000,0.000000,4167.307617,4118.974121,4243.077148,4205.128418,4114.487305,4105.512695,4092.820557,4107.820313,4109.871582,4121.666504,4593.589844,4382.563965,4349.358887,4490.384766,6740.000000,4.000000,80.000000,,,,0.000000,4.000000,4.000000,4.000000,4.000000,4.000000,4.000000,4.000000,4.000000,4.000000,4.000000,4.000000,4.000000,4.000000,4.000000,100.000000,,,,,,,,,,,,,,,,,,,,,,,,,,,,
1703161310.348721,1703161310.349195,114.000000,0.000000,4175.256348,4128.077148,4254.358887,4216.922852,4117.179688,4105.769043,4094.487061,4113.717773,4115.256348,4130.128418,4606.538574,4397.563965,4364.743652,4501.410156,5819.000000,4.000000,80.000000,,,,0.000000,4.000000,4.000000,4.000000,4.000000,4.000000,4.000000,4.000000,4.000000,4.000000,4.000000,4.000000,4.000000,4.000000,4.000000,100.000000,,,,,,,,,,,,,,,,,,,,,,,,,,,,
1703161310.356529,1703161310.357003,115.000000,0.000000,4187.436035,4139.102539,4264.615234,4221.922852,4121.410156,4100.384766,4097.307617,4119.230957,4117.948730,4138.077148,4628.589844,4409.743652,4380.256348,4518.846191,6153.000000,4.000000,80.000000,,,,0.000000,4.000000,4.000000,4.000000,4.000000,4.000000,4.000000,4.000000,4.000000,4.000000,4.000000,4.000000,4.000000,4.000000,4.000000,100.000000,,,,,,,,,,,,,,,,,,,,,,,,,,,,
1703161310.364338,1703161310.364711,116.000000,0.000000,4198.205078,4143.846191,4269.102539,4222.051270,4114.743652,4094.102539,4095.256348,4111.025879,4113.461426,4140.769043,4632.179688,4413.974121,4387.179688,4527.436035,6558.000000,4.000000,80.000000,,,,0.000000,4.000000,4.000000,4.000000,4.000000,4.000000,4.000000,4.000000,4.000000,4.000000,4.000000,4.000000,4.000000,4.000000,4.000000,100.000000,,,,,,,,,,,,,,,,,29.000000,0.000000,0.450003,0.516663,-0.395081,0.611938,0.980588,0.025882,0.146991,-16.710505,-33.761963,64.873642
1703161310.372146,1703161310.372519,117.000000,0.000000,4202.692383,4142.307617,4269.358887,4225.769043,4112.563965,4089.743652,4090.512939,4103.205078,4108.846191,4137.307617,4619.358887,4415.128418,4384.102539,4525.769043,6740.000000,4.000000,80.000000,,,,0.000000,4.000000,4.000000,4.000000,4.000000,4.000000,4.000000,4.000000,4.000000,4.000000,4.000000,4.000000,4.000000,4.000000,4.000000,100.000000,,,,,,,,,,,,,,,,,,,,,,,,,,,,
1703161310.379954,1703161310.380227,118.000000,0.000000,4198.846191,4142.436035,4268.461426,4230.256348,4120.256348,4090.000000,4090.641113,4105.897461,4104.487305,4131.666504,4616.153809,4412.051270,4379.743652,4522.820313,5819.000000,4.000000,80.000000,,,,0.000000,4.000000,4.000000,4.000000,4.000000,4.000000,4.000000,4.000000,4.000000,4.000000,4.000000,4.000000,4.000000,4.000000,4.000000,100.000000,,,,,,,,,,,,,,,,,,,,,,,,,,,,
1703161310.387762,1703161310.388135,119.000000,0.000000,4189.230957,4141.282227,4262.051270,4228.461426,4122.948730,4096.025879,4095.128174,4103.333496,4094.230713,4123.589844,4616.410156,4399.230957,4373.205078,4516.794922,6153.000000,4.000000,80.000000,,,,0.000000,4.000000,4.000000,4.000000,4.000000,4.000000,4.000000,4.000000,4.000000,4.000000,4.000000,4.000000,4.000000,4.000000,4.000000,100.000000,,,,,,,,,,,,,,,,,,,,,,,,,,,,
1703161310.395570,1703161310.395943,120.000000,0.000000,4180.256348,4134.871582,4252.436035,4221.410156,4121.922852,4103.205078,4100.897461,4097.948730,4088.974365,4120.256348,4608.974121,4388.333496,4367.436035,4506.922852,6558.000000,4.000000,80.000000,,,,0.000000,4.000000,4.000000,4.000000,4.000000,4.000000,4.000000,4.000000,4.000000,4.000000,4.000000,4.000000,4.000000,4.000000,4.000000,100.000000,,,,,,,,,,,,,,,,,30.000000,0.000000,0.450172,0.516541,-0.395142,0.611877,0.982542,0.024417,0.140154,-16.756121,-33.802433,64.936279
1703161310.403378,1703161310.403852,121.000000,0.000000,4173.461426,4125.000000,4243.461426,4210.769043,4118.333496,4107.307617,4099.102539,4099.102539,4093.076904,4123.589844,4602.820313,4384.743652,4366.538574,4498.077148,6740.000000,4.000000,80.000000,,,,0.000000,4.000000,4.000000,4.000000,4.000000,4.000000,4.000000,4.000000,4.000000,4.000000,4.000000,4.000000,4.000000,4.000000,4.000000,100.000000,1.000000,91.666664,4.000000,4.000000,3.000000,4.000000,4.000000,4.000000,4.000000,4.000000,4.000000,4.000000,4.000000,4.000000,4.000000,4.000000,,,,,,,,,,,,
1703161310.411186,1703161310.411660,122.000000,0.000000,4161.282227,4112.692383,4234.743652,4201.153809,4107.820313,4103.717773,4093.589844,4101.922852,4093.205078,4120.384766,4597.051270,4380.384766,4359.487305,4488.205078,5819.000000,4.000000,80.000000,,,,0.000000,4.000000,4.000000,4.000000,4.000000,4.000000,4.000000,4.000000,4.000000,4.000000,4.000000,4.000000,4.000000,4.000000,4.000000,100.000000,,,,,,,,,,,,,,,,,,,,,,,,,,,,
1703161310.418994,1703161310.419568,123.000000,0.000000,4156.794922,4108.717773,4237.051270,4198.846191,4108.333496,4101.282227,4098.077148,4107.820313,4097.820313,4118.333496,4599.871582,4379.230957,4354.487305,4486.666504,6153.000000,4.000000,80.000000,,,,0.000000,4.000000,4.000000,4.000000,4.000000,4.000000,4.000000,4.000000,4.000000,4.000000,4.000000,4.000000,4.000000,4.000000,4.000000,100.000000,,,,,,,,,,,,,,,,,,,,,,,,,,,,
1703161310.426802,1703161310.427376,124.000000,0.000000,4164.487305,4115.128418,4245.000000,4203.205078,4119.487305,4103.333496,4099.871582,4112.051270,4110.256348,4128.205078,4611.025879,4382.307617,4360.897461,4493.974121,6558.000000,4.000000,80.000000,,,,0.000000,4.000000,4.000000,4.000000,4.000000,4.000000,4.000000,4.000000,4.000000,4.000000,4.000000,4.000000,4.000000,4.000000,4.000000,100.000000,,,,,,,,,,,,,,,,,31.000000,0.000000,0.450172,0.516541,-0.395142,0.611877,0.977658,0.021975,0.145526,-16.847176,-33.838856,64.992645
1703161310.434610,1703161310.435184,125.000000,0.000000,4168.333496,4118.333496,4247.563965,4205.256348,4116.282227,4103.077148,4090.769287,4111.410156,4115.000000,4136.410156,4614.102539,4387.179688,4371.282227,4500.000000,6740.000000,4.000000,80.000000,,,,0.000000,4.000000,4.000000,4.000000,4.000000,4.000000,4.000000,4.000000,4.000000,4.000000,4.000000,4.000000,4.000000,4.000000,4.000000,100.000000,,,,,,,,,,,,,,,,,,,,,,,,,,,,
1703161310.442418,1703161310.442892,126.000000,0.000000,4175.512695,4119.102539,4253.077148,4210.384766,4108.974121,4102.436035,4090.128174,4117.307617,4118.974121,4138.589844,4621.025879,4399.871582,4383.205078,4513.846191,5819.000000,4.000000,80.000000,,,,0.000000,4.000000,4.000000,4.000000,4.000000,4.000000,4.000000,4.000000,4.000000,4.000000,4.000000,4.000000,4.000000,4.000000,4.000000,100.000000,,,,,,,,,,,,,,,,,,,,,,,,,,,,
1703161310.450226,1703161310.450800,127.000000,0.000000,4189.487305,4129.743652,4263.077148,4218.333496,4116.538574,4103.333496,4097.179688,4125.512695,4123.717773,4142.948730,4631.922852,4407.820313,4391.282227,4528.846191,80.000000,4.000000,80.000000,,,,0.000000,4.000000,4.000000,4.000000,4.000000,4.000000,4.000000,4.000000,4.000000,4.000000,4.000000,4.000000,4.000000,4.000000,4.000000,100.000000,,,,,,,,,,,,,,,,,,,,,,,,,,,,
1703161310.458034,1703161310.458609,0.000000,0.000000,4191.025879,4139.358887,4262.820313,4221.025879,4123.974121,4102.948730,4092.179443,4117.051270,4113.461426,4136.410156,4623.461426,4401.922852,4386.282227,4523.461426,5222.000000,4.000000,80.000000,,,,0.000000,4.000000,4.000000,4.000000,4.000000,4.000000,4.000000,4.000000,4.000000,4.000000,4.000000,4.000000,4.000000,4.000000,4.000000,100.000000,,,,,,,,,,,,,,,,,0.000000,0.000000,0.450164,0.516479,-0.395325,0.611816,0.995727,0.046392,0.152362,-16.962458,-33.871639,65.126717
1703161310.465842,1703161310.466517,1.000000,0.000000,4190.512695,4138.461426,4263.589844,4225.000000,4124.102539,4104.871582,4092.948730,4104.871582,4103.589844,4128.974121,4621.666504,4406.025879,4385.512695,4518.717773,5338.000000,4.000000,80.000000,,,,0.000000,4.000000,4.000000,4.000000,4.000000,4.000000,4.000000,4.000000,4.000000,4.000000,4.000000,4.000000,4.000000,4.000000,4.000000,100.000000,,,,,,,,,,,,,,,,,,,,,,,,,,,,
1703161310.473650,1703161310.474325,2.000000,0.000000,4202.563965,4139.487305,4275.000000,4232.436035,4125.769043,4106.666504,4105.384766,4105.384766,4108.077148,4137.051270,4640.000000,4418.717773,4399.743652,4533.974121,5278.000000,4.000000,80.000000,,,,0.000000,4.000000,4.000000,4.000000,4.000000,4.000000,4.000000,4.000000,4.000000,4.000000,4.000000,4.000000,4.000000,4.000000,4.000000,100.000000,,,,,,,,,,,,,,,,,,,,,,,,,,,,
1703161310.481458,1703161310.482233,3.000000,0.000000,4203.205078,4141.922852,4272.692383,4232.179688,4125.128418,4102.307617,4102.563965,4105.641113,4101.153809,4138.717773,4639.102539,4412.692383,4400.641113,4537.179688,5255.000000,4.000000,80.000000,,,,0.000000,4.000000,4.000000,4.000000,4.000000,4.000000,4.000000,4.000000,4.000000,4.000000,4.000000,4.000000,4.000000,4.000000,4.000000,100.000000,,,,,,,,,,,,,,,,,,,,,,,,,,,,
1703161310.489266,1703161310.490041,4.000000,0.000000,4193.077148,4141.922852,4264.615234,4226.153809,4126.025879,4105.256348,4097.948730,4102.820313,4089.743652,4131.538574,4624.230957,4401.153809,4390.384766,4524.871582,5100.000000,4.000000,80.000000,,,,0.000000,4.000000,4.000000,4.000000,4.000000,4.000000,4.000000,4.000000,4.000000,4.000000,4.000000,4.000000,4.000000,4.000000,4.000000,100.000000,,,,,,,,,,,,,,,,,1.000000,0.000000,0.450144,0.516357,-0.395508,0.611816,0.981077,0.026859,0.146014,-16.982880,-33.901142,65.164047
1703161310.497074,1703161310.497949,5.000000,0.000000,4185.897461,4138.717773,4262.563965,4222.307617,4131.282227,4115.000000,4107.179688,4105.000000,4098.846191,4133.205078,4620.897461,4399.871582,4386.794922,4520.256348,5155.000000,4.000000,80.000000,,,,0.000000,4.000000,4.000000,4.000000,4.000000,4.000000,4.000000,4.000000,4.000000,4.000000,4.000000,4.000000,4.000000,4.000000,4.000000,100.000000,,,,,,,,,,,,,,,,,,,,,,,,,,,,
1703161310.504882,1703161310.505757,6.000000,0.000000,4175.256348,4127.051270,4255.384766,4215.512695,4126.666504,4116.794922,4111.666504,4107.436035,4109.358887,4133.846191,4617.820313,4396.282227,4383.461426,4513.205078,5048.000000,4.000000,80.000000,,,,0.000000,4.000000,4.000000,4.000000,4.000000,4.000000,4.000000,4.000000,4.000000,4.000000,4.000000,4.000000,4.000000,4.000000,4.000000,100.000000,,,,,,,,,,,,,,,,,,,,,,,,,,,,
1703161310.512690,1703161310.513665,7.000000,0.000000,4163.717773,4111.666504,4246.025879,4205.384766,4117.051270,4113.974121,4107.436035,4110.641113,4107.820313,4124.743652,4613.717773,4389.615234,4375.897461,4503.461426,5250.000000,4.000000,80.000000,,,,0.000000,4.000000,4.000000,4.000000,4.000000,4.000000,4.000000,4.000000,4.000000,4.000000,4.000000,4.000000,4.000000,4.000000,4.000000,100.000000,,,,,,,,,,,,,,,,,,,,,,,,,,,,
1703161310.520498,1703161310.521473,8.000000,0.000000,4157.051270,4108.589844,4245.256348,4200.384766,4118.461426,4112.051270,4106.666504,4117.307617,4112.436035,4124.230957,4616.025879,4391.282227,4372.820313,4500.769043,4993.000000,4.000000,80.000000,,,,0.000000,4.000000,4.000000,4.000000,4.000000,4.000000,4.000000,4.000000,4.000000,4.000000,4.000000,4.000000,4.000000,4.000000,4.000000,100.000000,,,,,,,,,,,,,,,,,2.000000,0.000000,0.450186,0.516418,-0.395569,0.611694,0.979612,0.025394,0.146991,-17.067924,-33.894360,65.264305
1703161310.528307,1703161310.529380,9.000000,0.000000,4157.436035,4114.871582,4249.102539,4204.230957,4125.128418,4112.307617,4105.641113,4121.922852,4123.205078,4133.846191,4615.769043,4397.179688,4373.077148,4503.205078,5240.000000,4.000000,80.000000,,,,0.000000,4.000000,4.000000,4.000000,4.000000,4.000000,4.000000,4.000000,4.000000,4.000000,4.000000,4.000000,4.000000,4.000000,4.000000,100.000000,,,,,,,,,,,,,,,,,,,,,,,,,,,,
1703161310.536115,1703161310.537288,10.000000,0.000000,4163.205078,4112.563965,4247.179688,4208.846191,4121.410156,4112.820313,4104.230957,4122.307617,4125.641113,4136.025879,4611.538574,4396.282227,4373.333496,4502.820313,5818.000000,4.000000,80.000000,,,,0.000000,4.000000,4.000000,4.000000,4.000000,4.000000,4.000000,4.000000,4.000000,4.000000,4.000000,4.000000,4.000000,4.000000,4.000000,100.000000,,,,,,,,,,,,,,,,,,,,,,,,,,,,
1703161310.543923,1703161310.545097,11.000000,0.000000,4166.666504,4110.000000,4248.461426,4209.358887,4113.717773,4110.769043,4103.461426,4123.974121,4125.769043,4135.000000,4618.589844,4398.846191,4380.769043,4505.769043,6147.000000,4.000000,80.000000,,,,0.000000,4.000000,4.000000,4.000000,4.000000,4.000000,4.000000,4.000000,4.000000,4.000000,4.000000,4.000000,4.000000,4.000000,4.000000,100.000000,,,,,,,,,,,,,,,,,,,,,,,,,,,,
1703161310.551731,1703161310.552905,12.000000,0.000000,4170.641113,4117.563965,4258.846191,4212.820313,4115.897461,4108.077148,4100.384766,4128.333496,4128.974121,4144.358887,4636.794922,4412.563965,4393.461426,4516.025879,6573.000000,4.000000,80.000000,,,,0.000000,4.000000,4.000000,4.000000,4.000000,4.000000,4.000000,4.000000,4.000000,4.000000,4.000000,4.000000,4.000000,4.000000,4.000000,100.000000,,,,,,,,,,,,,,,,,3.000000,0.000000,0.450215,0.516418,-0.395630,0.611633,0.991820,0.025882,0.155781,-16.994465,-33.788258,65.254539
1703161310.559539,1703161310.560613,13.000000,0.000000,4181.538574,4125.256348,4268.717773,4218.974121,4123.717773,4105.256348,4098.974121,4127.948730,4128.461426,4152.948730,4644.102539,4423.461426,4400.769043,4527.820313,6735.000000,4.000000,80.000000,,,,0.000000,4.000000,4.000000,4.000000,4.000000,4.000000,4.000000,4.000000,4.000000,4.000000,4.000000,4.000000,4.000000,4.000000,4.000000,100.000000,,,,,,,,,,,,,,,,,,,,,,,,,,,,
1703161310.567347,1703161310.568421,14.000000,0.000000,4186.922852,4128.717773,4268.077148,4219.743652,4122.563965,4101.153809,4098.077148,4118.974121,4121.922852,4146.025879,4636.025879,4417.307617,4398.846191,4528.461426,5818.000000,4.000000,80.000000,,,,0.000000,4.000000,4.000000,4.000000,4.000000,4.000000,4.000000,4.000000,4.000000,4.000000,4.000000,4.000000,4.000000,4.000000,4.000000,100.000000,,,,,,,,,,,,,,,,,,,,,,,,,,,,
1703161310.575155,1703161310.576129,15.000000,0.000000,4184.487305,4135.256348,4266.025879,4221.410156,4120.256348,4103.589844,4098.589844,4107.307617,4108.461426,4133.205078,4630.000000,4406.794922,4392.692383,4521.922852,6147.000000,4.000000,80.000000,,,,0.000000,4.000000,4.000000,4.000000,4.000000,4.000000,4.000000,4.000000,4.000000,4.000000,4.000000,4.000000,4.000000,4.000000,4.000000,100.000000,,,,,,,,,,,,,,,,,,,,,,,,,,,,
1703161310.582963,1703161310.583937,16.000000,0.000000,4187.307617,4141.025879,4268.333496,4231.025879,4128.589844,4108.974121,4096.922852,4087.948730,4086.281982,4118.205078,4622.820313,4402.179688,4385.128418,4523.333496,0.000000,4.000000,80.000000,,,,0.000000,4.000000,4.000000,4.000000,4.000000,4.000000,4.000000,4.000000,4.000000,4.000000,4.000000,4.000000,4.000000,4.000000,4.000000,100.000000,,,,,,,,,,,,,,,,,4.000000,0.000000,0.450241,0.516541,-0.395630,0.611511,0.978635,0.028812,0.152362,-16.928352,-33.776100,65.329086
1703161310.590771,1703161310.591645,17.000000,0.000000,4187.307617,4140.769043,4265.256348,4233.077148,4136.666504,4108.461426,4090.256348,4063.461426,4066.794922,4107.563965,4608.077148,4397.563965,4378.974121,4521.794922,0.000000,4.000000,80.000000,,,,0.000000,4.000000,4.000000,4.000000,4.000000,4.000000,4.000000,4.000000,4.000000,4.000000,4.000000,4.000000,4.000000,4.000000,4.000000,100.000000,,,,,,,,,,,,,,,,,,,,,,,,,,,,
1703161310.598579,1703161310.599553,18.000000,0.000000,4179.487305,4138.974121,4265.384766,4224.487305,4138.461426,4112.179688,4093.846191,4062.179443,4071.666748,4115.000000,4609.358887,4395.897461,4382.820313,4512.307617,0.000000,4.000000,80.000000,,,,0.000000,4.000000,4.000000,4.000000,4.000000,4.000000,4.000000,4.000000,4.000000,4.000000,4.000000,4.000000,4.000000,4.000000,4.000000,100.000000,,,,,,,,,,,,,,,,,,,,,,,,,,,,
1703161310.606387,1703161310.607361,19.000000,0.000000,4170.641113,4131.794922,4263.205078,4218.333496,4132.820313,4119.487305,4105.897461,4082.179443,4094.615479,4128.974121,4617.563965,4393.717773,4383.333496,4508.205078,0.000000,4.000000,80.000000,,,,0.000000,4.000000,4.000000,4.000000,4.000000,4.000000,4.000000,4.000000,4.000000,4.000000,4.000000,4.000000,4.000000,4.000000,4.000000,100.000000,,,,,,,,,,,,,,,,,,,,,,,,,,,,
1703161310.614195,1703161310.615269,20.000000,0.000000,4160.512695,4120.641113,4251.282227,4214.615234,4123.846191,4121.025879,4108.205078,4099.358887,4110.512695,4134.358887,4612.820313,4388.974121,4373.589844,4505.897461,0.000000,4.000000,80.000000,,,,0.000000,4.000000,4.000000,4.000000,4.000000,4.000000,4.000000,4.000000,4.000000,4.000000,4.000000,4.000000,4.000000,4.000000,4.000000,100.000000,,,,,,,,,,,,,,,,,5.000000,0.000000,0.450267,0.516663,-0.395630,0.611389,0.983518,0.032230,0.138200,-17.068850,-33.748489,65.212845
1703161310.622003,1703161310.623078,21.000000,0.000000,4152.692383,4113.974121,4245.641113,4206.666504,4120.384766,4119.102539,4106.538574,4112.563965,4119.358887,4137.051270,4611.153809,4391.153809,4370.256348,4501.922852,0.000000,4.000000,80.000000,,,,0.000000,4.000000,4.000000,4.000000,4.000000,4.000000,4.000000,4.000000,4.000000,4.000000,4.000000,4.000000,4.000000,4.000000,4.000000,100.000000,,,,,,,,,,,,,,,,,,,,,,,,,,,,
1703161310.629811,1703161310.630986,22.000000,0.000000,4154.487305,4111.282227,4249.615234,4198.846191,4122.307617,4122.692383,4111.538574,4125.897461,4132.436035,4138.974121,4616.538574,4399.871582,4374.230957,4503.974121,0.000000,4.000000,80.000000,,,,0.000000,4.000000,4.000000,4.000000,4.000000,4.000000,4.000000,4.000000,4.000000,4.000000,4.000000,4.000000,4.000000,4.000000,4.000000,100.000000,,,,,,,,,,,,,,,,,,,,,,,,,,,,
1703161310.637619,1703161310.638794,23.000000,0.000000,4150.256348,4105.897461,4248.461426,4198.846191,4121.538574,4122.179688,4110.512695,4133.717773,4139.230957,4137.179688,4614.102539,4398.589844,4366.794922,4501.410156,0.000000,4.000000,80.000000,,,,0.000000,4.000000,4.000000,4.000000,4.000000,4.000000,4.000000,4.000000,4.000000,4.000000,4.000000,4.000000,4.000000,4.000000,4.000000,100.000000,,,,,,,,,,,,,,,,,,,,,,,,,,,,
1703161310.645427,1703161310.646702,24.000000,0.000000,4141.153809,4098.461426,4243.589844,4196.922852,4112.563965,4110.512695,4103.717773,4137.436035,4137.820313,4138.974121,4610.769043,4395.641113,4358.717773,4494.230957,0.000000,4.000000,80.000000,,,,0.000000,4.000000,4.000000,4.000000,4.000000,4.000000,4.000000,4.000000,4.000000,4.000000,4.000000,4.000000,4.000000,4.000000,4.000000,100.000000,,,,,,,,,,,,,,,,,6.000000,0.000000,0.450390,0.516602,-0.395569,0.611389,0.989379,0.041997,0.136247,-16.861965,-33.740307,65.324898
1703161310.653235,1703161310.654510,25.000000,0.000000,4154.487305,4105.641113,4252.692383,4197.692383,4109.743652,4105.384766,4106.538574,4142.563965,4137.179688,4141.666504,4627.307617,4410.512695,4377.692383,4507.820313,0.000000,4.000000,80.000000,,,,0.000000,4.000000,4.000000,4.000000,4.000000,4.000000,4.000000,4.000000,4.000000,4.000000,4.000000,4.000000,4.000000,4.000000,4.000000,100.000000,,,,,,,,,,,,,,,,,,,,,,,,,,,,
1703161310.661044,1703161310.662418,26.000000,0.000000,4174.102539,4121.922852,4268.461426,4210.512695,4119.230957,4110.256348,4114.102539,4144.358887,4129.615234,4141.410156,4645.769043,4426.025879,4400.641113,4529.487305,0.000000,4.000000,80.000000,,,,0.000000,4.000000,4.000000,4.000000,4.000000,4.000000,4.000000,4.000000,4.000000,4.000000,4.000000,4.000000,4.000000,4.000000,4.000000,100.000000,,,,,,,,,,,,,,,,,,,,,,,,,,,,
1703161310.668852,1703161310.670227,27.000000,0.000000,4172.948730,4125.641113,4270.641113,4217.179688,4125.128418,4109.743652,4113.205078,4131.666504,4113.205078,4141.153809,4640.512695,4422.692383,4395.384766,4529.871582,0.000000,4.000000,80.000000,,,,0.000000,4.000000,4.000000,4.000000,4.000000,4.000000,4.000000,4.000000,4.000000,4.000000,4.000000,4.000000,4.000000,4.000000,4.000000,100.000000,,,,,,,,,,,,,,,,,,,,,,,,,,,,
1703161310.676659,1703161310.678135,28.000000,0.000000,4166.922852,4121.153809,4263.846191,4212.307617,4122.436035,4105.512695,4106.025879,4111.025879,4099.487305,4134.871582,4622.307617,4406.922852,4375.641113,4519.358887,0.000000,4.000000,80.000000,,,,0.000000,4.000000,4.000000,4.000000,4.000000,4.000000,4.000000,4.000000,4.000000,4.000000,4.000000,4.000000,4.000000,4.000000,4.000000,100.000000,,,,,,,,,,,,,,,,,7.000000,0.000000,0.450709,0.516541,-0.395569,0.611206,0.988890,0.028812,0.153827,-16.759102,-33.949608,65.259071
1703161310.684468,1703161310.685943,29.000000,0.000000,4169.615234,4124.230957,4262.436035,4211.410156,4123.333496,4106.538574,4103.461426,4104.230957,4092.179443,4127.307617,4618.974121,4399.871582,4377.051270,4519.615234,0.000000,4.000000,80.000000,,,,0.000000,4.000000,4.000000,4.000000,4.000000,4.000000,4.000000,4.000000,4.000000,4.000000,4.000000,4.000000,4.000000,4.000000,4.000000,100.000000,,,,,,,,,,,,,,,,,,,,,,,,,,,,
1703161310.692276,1703161310.693851,30.000000,0.000000,4175.641113,4131.666504,4268.846191,4217.948730,4127.051270,4108.333496,4105.897461,4104.102539,4088.718018,4129.487305,4632.307617,4407.179688,4396.153809,4531.410156,0.000000,4.000000,80.000000,,,,0.000000,4.000000,4.000000,4.000000,4.000000,4.000000,4.000000,4.000000,4.000000,4.000000,4.000000,4.000000,4.000000,4.000000,4.000000,100.000000,,,,,,,,,,,,,,,,,,,,,,,,,,,,
1703161310.700084,1703161310.701659,31.000000,0.000000,4185.512695,4139.871582,4271.153809,4221.922852,4125.641113,4109.487305,4107.051270,4093.974365,4088.846191,4131.025879,4634.102539,4411.922852,4399.358887,4539.102539,0.000000,4.000000,80.000000,,,,0.000000,4.000000,4.000000,4.000000,4.000000,4.000000,4.000000,4.000000,4.000000,4.000000,4.000000,4.000000,4.000000,4.000000,4.000000,100.000000,,,,,,,,,,,,,,,,,,,,,,,,,,,,
1703161310.707892,1703161310.709367,32.000000,0.000000,4190.128418,4147.051270,4267.179688,4221.410156,4123.717773,4109.487305,4103.333496,4085.512939,4088.205078,4122.436035,4621.794922,4405.128418,4387.436035,4530.641113,0.000000,4.000000,80.000000,,,,0.000000,4.000000,4.000000,4.000000,4.000000,4.000000,4.000000,4.000000,4.000000,4.000000,4.000000,4.000000,4.000000,4.000000,4.000000,100.000000,,,,,,,,,,,,,,,,,8.000000,0.000000,0.450775,0.516602,-0.395508,0.611145,0.984007,0.041997,0.131364,-16.866526,-33.854649,65.266495
1703161310.715700,1703161310.717175,33.000000,0.000000,4180.128418,4140.000000,4264.487305,4218.589844,4123.333496,4109.230957,4100.641113,4087.564209,4087.179443,4119.102539,4611.922852,4396.666504,4382.692383,4520.769043,0.000000,4.000000,80.000000,,,,0.000000,4.000000,4.000000,4.000000,4.000000,4.000000,4.000000,4.000000,4.000000,4.000000,4.000000,4.000000,4.000000,4.000000,4.000000,100.000000,,,,,,,,,,,,,,,,,,,,,,,,,,,,
1703161310.723508,1703161310.724883,34.000000,0.000000,4169.871582,4126.794922,4259.743652,4215.641113,4125.769043,4117.563965,4104.102539,4095.897461,4094.102539,4125.897461,4613.846191,4392.820313,4386.794922,4523.333496,0.000000,4.000000,80.000000,,,,0.000000,4.000000,4.000000,4.000000,4.000000,4.000000,4.000000,4.000000,4.000000,4.000000,4.000000,4.000000,4.000000,4.000000,4.000000,100.000000,,,,,,,,,,,,,,,,,,,,,,,,,,,,
1703161310.731316,1703161310.732691,35.000000,0.000000,4167.051270,4128.205078,4251.666504,4215.256348,4127.051270,4123.974121,4106.922852,4104.615234,4106.025879,4126.410156,4621.153809,4393.205078,4386.025879,4523.461426,0.000000,4.000000,80.000000,,,,0.000000,4.000000,4.000000,4.000000,4.000000,4.000000,4.000000,4.000000,4.000000,4.000000,4.000000,4.000000,4.000000,4.000000,4.000000,100.000000,,,,,,,,,,,,,,,,,,,,,,,,,,,,
1703161310.739124,1703161310.740399,36.000000,0.000000,4169.615234,4136.922852,4251.666504,4214.230957,4122.820313,4120.897461,4111.025879,4115.769043,4118.077148,4126.922852,4626.153809,4397.948730,4385.128418,4523.846191,0.000000,4.000000,80.000000,,,,0.000000,4.000000,4.000000,4.000000,4.000000,4.000000,4.000000,4.000000,4.000000,4.000000,4.000000,4.000000,4.000000,4.000000,4.000000,100.000000,,,,,,,,,,,,,,,,,9.000000,0.000000,0.450867,0.516785,-0.395447,0.610962,0.968380,0.039067,0.136735,-16.946539,-33.885849,65.373184
1703161310.746932,1703161310.748207,37.000000,0.000000,4172.179688,4139.615234,4259.871582,4217.436035,4123.077148,4121.410156,4118.846191,4130.897461,4127.563965,4135.512695,4630.000000,4405.000000,4386.666504,4529.102539,0.000000,4.000000,80.000000,,,,0.000000,4.000000,4.000000,4.000000,4.000000,4.000000,4.000000,4.000000,4.000000,4.000000,4.000000,4.000000,4.000000,4.000000,4.000000,100.000000,,,,,,,,,,,,,,,,,,,,,,,,,,,,
1703161310.754740,1703161310.755915,38.000000,0.000000,4166.666504,4136.794922,4262.948730,4217.948730,4127.948730,4123.205078,4119.102539,4142.051270,4131.794922,4140.000000,4629.230957,4411.025879,4381.410156,4525.769043,0.000000,4.000000,80.000000,,,,0.000000,4.000000,4.000000,4.000000,4.000000,4.000000,4.000000,4.000000,4.000000,4.000000,4.000000,4.000000,4.000000,4.000000,4.000000,100.000000,,,,,,,,,,,,,,,,,,,,,,,,,,,,
1703161310.762548,1703161310.763723,39.000000,0.000000,4156.282227,4127.820313,4254.871582,4207.692383,4124.743652,4113.974121,4111.153809,4142.051270,4131.666504,4133.461426,4623.077148,4411.025879,4373.461426,4519.358887,0.000000,4.000000,80.000000,,,,0.000000,4.000000,4.000000,4.000000,4.000000,4.000000,4.000000,4.000000,4.000000,4.000000,4.000000,4.000000,4.000000,4.000000,4.000000,100.000000,,,,,,,,,,,,,,,,,,,,,,,,,,,,
1703161310.770356,1703161310.771431,40.000000,0.000000,4150.256348,4117.436035,4246.666504,4198.846191,4119.358887,4104.230957,4107.948730,4134.615234,4123.589844,4123.846191,4617.307617,4403.974121,4371.538574,4518.205078,0.000000,4.000000,80.000000,,,,0.000000,4.000000,4.000000,4.000000,4.000000,4.000000,4.000000,4.000000,4.000000,4.000000,4.000000,4.000000,4.000000,4.000000,4.000000,100.000000,,,,,,,,,,,,,,,,,10.000000,0.000000,0.451080,0.516663,-0.395081,0.611145,0.994262,0.028324,0.145526,-16.935219,-33.813931,65.469200
1703161310.778164,1703161310.779239,41.000000,0.000000,4153.205078,4120.769043,4252.307617,4199.615234,4121.282227,4104.615234,4107.948730,4123.974121,4109.102539,4117.563965,4617.179688,4400.897461,4373.077148,4519.230957,0.000000,4.000000,80.000000,,,,0.000000,4.000000,4.000000,4.000000,4.000000,4.000000,4.000000,4.000000,4.000000,4.000000,4.000000,4.000000,4.000000,4.000000,4.000000,100.000000,,,,,,,,,,,,,,,,,,,,,,,,,,,,
1703161310.785972,1703161310.786947,42.000000,0.000000,4155.000000,4129.487305,4263.333496,4207.179688,4123.205078,4108.077148,4106.282227,4112.051270,4097.051270,4111.794922,4615.512695,4403.077148,4371.538574,4520.128418,0.000000,4.000000,80.000000,,,,0.000000,4.000000,4.000000,4.000000,4.000000,4.000000,4.000000,4.000000,4.000000,4.000000,4.000000,4.000000,4.000000,4.000000,4.000000,100.000000,,,,,,,,,,,,,,,,,,,,,,,,,,,,
1703161310.793780,1703161310.794755,43.000000,0.000000,4154.487305,4126.153809,4262.051270,4211.025879,4122.820313,4109.230957,4106.794922,4104.871582,4091.666748,4107.692383,4611.153809,4405.000000,4370.128418,4517.820313,0.000000,4.000000,80.000000,,,,0.000000,4.000000,4.000000,4.000000,4.000000,4.000000,4.000000,4.000000,4.000000,4.000000,4.000000,4.000000,4.000000,4.000000,4.000000,100.000000,,,,,,,,,,,,,,,,,,,,,,,,,,,,
1703161310.801588,1703161310.802463,44.000000,0.000000,4156.922852,4123.333496,4261.153809,4210.641113,4122.436035,4109.102539,4107.692383,4104.230957,4096.025879,4107.948730,4614.615234,4408.205078,4373.461426,4516.666504,0.000000,4.000000,80.000000,,,,0.000000,4.000000,4.000000,4.000000,4.000000,4.000000,4.000000,4.000000,4.000000,4.000000,4.000000,4.000000,4.000000,4.000000,4.000000,100.000000,,,,,,,,,,,,,,,,,11.000000,0.000000,0.451210,0.516357,-0.395142,0.611267,0.983030,0.028812,0.148944,-16.958363,-33.882538,65.438942
1703161310.809396,1703161310.810271,45.000000,0.000000,4157.948730,4129.358887,4267.692383,4210.512695,4124.487305,4109.871582,4106.410156,4107.051270,4105.897461,4110.641113,4621.153809,4409.743652,4374.871582,4522.692383,0.000000,4.000000,80.000000,,,,0.000000,4.000000,4.000000,4.000000,4.000000,4.000000,4.000000,4.000000,4.000000,4.000000,4.000000,4.000000,4.000000,4.000000,4.000000,100.000000,,,,,,,,,,,,,,,,,,,,,,,,,,,,
1703161310.817204,1703161310.817979,46.000000,0.000000,4152.307617,4126.410156,4263.846191,4206.025879,4122.948730,4108.333496,4103.974121,4107.436035,4107.051270,4107.692383,4618.974121,4406.410156,4368.846191,4520.384766,0.000000,4.000000,80.000000,,,,0.000000,4.000000,4.000000,4.000000,4.000000,4.000000,4.000000,4.000000,4.000000,4.000000,4.000000,4.000000,4.000000,4.000000,4.000000,100.000000,,,,,,,,,,,,,,,,,,,,,,,,,,,,
1703161310.825013,1703161310.825787,47.000000,0.000000,4150.000000,4117.948730,4259.743652,4201.794922,4116.666504,4107.307617,4104.743652,4112.948730,4109.871582,4106.922852,4617.179688,4409.871582,4368.461426,4511.538574,0.000000,4.000000,80.000000,,,,0.000000,4.000000,4.000000,4.000000,4.000000,4.000000,4.000000,4.000000,4.000000,4.000000,4.000000,4.000000,4.000000,4.000000,4.000000,100.000000,,,,,,,,,,,,,,,,,,,,,,,,,,,,
1703161310.832821,1703161310.833495,48.000000,0.000000,4154.487305,4119.102539,4265.641113,4206.153809,4117.436035,4110.897461,4110.384766,4131.025879,4129.230957,4119.487305,4626.282227,4417.692383,4376.410156,4519.615234,0.000000,4.000000,80.000000,,,,0.000000,4.000000,4.000000,4.000000,4.000000,4.000000,4.000000,4.000000,4.000000,4.000000,4.000000,4.000000,4.000000,4.000000,4.000000,100.000000,,,,,,,,,,,,,,,,,12.000000,0.000000,0.451541,0.516357,-0.395142,0.611023,0.984495,0.031742,0.149432,-16.912527,-33.960953,65.395050
1703161310.840629,1703161310.841403,49.000000,0.000000,4150.128418,4119.102539,4265.897461,4208.717773,4122.820313,4111.153809,4111.153809,4141.410156,4142.692383,4125.769043,4629.615234,4417.436035,4373.974121,4524.743652,0.000000,4.000000,80.000000,,,,0.000000,4.000000,4.000000,4.000000,4.000000,4.000000,4.000000,4.000000,4.000000,4.000000,4.000000,4.000000,4.000000,4.000000,4.000000,100.000000,,,,,,,,,,,,,,,,,,,,,,,,,,,,
1703161310.848437,1703161310.849212,50.000000,0.000000,4139.358887,4109.487305,4260.256348,4201.282227,4120.769043,4106.794922,4107.563965,4137.179688,4137.692383,4116.282227,4620.512695,4412.820313,4363.589844,4512.179688,0.000000,4.000000,80.000000,,,,0.000000,4.000000,4.000000,4.000000,4.000000,4.000000,4.000000,4.000000,4.000000,4.000000,4.000000,4.000000,4.000000,4.000000,4.000000,100.000000,,,,,,,,,,,,,,,,,,,,,,,,,,,,
1703161310.856245,1703161310.857120,51.000000,0.000000,4137.051270,4108.589844,4260.641113,4199.102539,4118.461426,4107.948730,4110.128418,4136.025879,4132.820313,4113.846191,4616.282227,4412.563965,4363.077148,4506.794922,0.000000,4.000000,80.000000,,,,0.000000,4.000000,4.000000,4.000000,4.000000,4.000000,4.000000,4.000000,4.000000,4.000000,4.000000,4.000000,4.000000,4.000000,4.000000,100.000000,,,,,,,,,,,,,,,,,,,,,,,,,,,,
1703161310.864053,1703161310.864928,52.000000,0.000000,4140.512695,4118.461426,4260.256348,4205.000000,4125.512695,4110.769043,4114.487305,4138.077148,4131.538574,4123.333496,4620.512695,4411.153809,4372.436035,4511.794922,0.000000,4.000000,80.000000,,,,0.000000,4.000000,4.000000,4.000000,4.000000,4.000000,4.000000,4.000000,4.000000,4.000000,4.000000,4.000000,4.000000,4.000000,4.000000,100.000000,,,,,,,,,,,,,,,,,13.000000,0.000000,0.451418,0.516418,-0.395203,0.611023,0.970822,0.037602,0.141131,-16.904608,-33.798191,65.488876
1703161310.871861,1703161310.872836,53.000000,0.000000,4140.641113,4121.794922,4254.102539,4206.922852,4125.641113,4107.692383,4112.051270,4133.589844,4128.974121,4122.948730,4619.743652,4405.256348,4375.897461,4509.358887,0.000000,4.000000,80.000000,,,,0.000000,4.000000,4.000000,4.000000,4.000000,4.000000,4.000000,4.000000,4.000000,4.000000,4.000000,4.000000,4.000000,4.000000,4.000000,100.000000,,,,,,,,,,,,,,,,,,,,,,,,,,,,
1703161310.879669,1703161310.880644,54.000000,0.000000,4138.589844,4120.641113,4250.128418,4205.769043,4121.794922,4105.897461,4106.410156,4121.153809,4118.589844,4113.205078,4609.743652,4398.717773,4369.102539,4505.000000,0.000000,4.000000,80.000000,,,,0.000000,4.000000,4.000000,4.000000,4.000000,4.000000,4.000000,4.000000,4.000000,4.000000,4.000000,4.000000,4.000000,4.000000,4.000000,100.000000,,,,,,,,,,,,,,,,,,,,,,,,,,,,
1703161310.887477,1703161310.888552,55.000000,0.000000,4138.333496,4122.563965,4248.974121,4203.077148,4132.563965,4109.743652,4101.410156,4101.410156,4097.436035,4105.384766,4601.153809,4391.025879,4365.000000,4503.846191,0.000000,4.000000,80.000000,,,,0.000000,4.000000,4.000000,4.000000,4.000000,4.000000,4.000000,4.000000,4.000000,4.000000,4.000000,4.000000,4.000000,4.000000,4.000000,100.000000,,,,,,,,,,,,,,,,,,,,,,,,,,,,
1703161310.895285,1703161310.896360,56.000000,0.000000,4138.333496,4123.077148,4247.179688,4200.384766,4139.743652,4113.846191,4102.307617,4086.538574,4084.615479,4103.077148,4599.358887,4383.717773,4369.102539,4499.743652,0.000000,4.000000,80.000000,,,,0.000000,4.000000,4.000000,4.000000,4.000000,4.000000,4.000000,4.000000,4.000000,4.000000,4.000000,4.000000,4.000000,4.000000,4.000000,100.000000,,,,,,,,,,,,,,,,,14.000000,0.000000,0.451602,0.516418,-0.394897,0.611084,0.991332,0.029789,0.148456,-17.064146,-33.701702,65.373322
1703161310.903093,1703161310.904068,57.000000,0.000000,4137.692383,4122.179688,4246.282227,4200.000000,4130.769043,4114.487305,4104.358887,4089.102539,4090.384521,4110.128418,4602.179688,4382.948730,4374.615234,4499.743652,0.000000,4.000000,80.000000,,,,0.000000,4.000000,4.000000,4.000000,4.000000,4.000000,4.000000,4.000000,4.000000,4.000000,4.000000,4.000000,4.000000,4.000000,4.000000,100.000000,1.000000,91.666664,4.000000,4.000000,4.000000,4.000000,4.000000,4.000000,4.000000,4.000000,4.000000,3.000000,4.000000,4.000000,4.000000,4.000000,,,,,,,,,,,,
1703161310.910901,1703161310.911876,58.000000,0.000000,4137.307617,4124.102539,4246.410156,4199.743652,4124.102539,4111.410156,4100.384766,4100.128418,4099.487305,4119.230957,4610.000000,4387.179688,4377.820313,4504.358887,0.000000,4.000000,80.000000,,,,0.000000,4.000000,4.000000,4.000000,4.000000,4.000000,4.000000,4.000000,4.000000,4.000000,4.000000,4.000000,4.000000,4.000000,4.000000,100.000000,,,,,,,,,,,,,,,,,,,,,,,,,,,,
1703161310.918709,1703161310.919584,59.000000,0.000000,4139.230957,4125.512695,4247.436035,4201.666504,4127.051270,4110.897461,4101.410156,4112.692383,4111.410156,4125.897461,4616.410156,4395.769043,4382.179688,4507.563965,0.000000,4.000000,80.000000,,,,0.000000,4.000000,4.000000,4.000000,4.000000,4.000000,4.000000,4.000000,4.000000,4.000000,4.000000,4.000000,4.000000,4.000000,4.000000,100.000000,,,,,,,,,,,,,,,,,,,,,,,,,,,,
1703161310.926517,1703161310.927392,60.000000,0.000000,4142.051270,4123.717773,4247.179688,4202.948730,4125.256348,4114.358887,4107.692383,4122.179688,4124.230957,4132.820313,4618.589844,4400.512695,4384.358887,4509.230957,0.000000,4.000000,80.000000,,,,0.000000,4.000000,4.000000,4.000000,4.000000,4.000000,4.000000,4.000000,4.000000,4.000000,4.000000,4.000000,4.000000,4.000000,4.000000,100.000000,,,,,,,,,,,,,,,,,15.000000,0.000000,0.451733,0.516418,-0.394653,0.611145,0.971310,0.024905,0.153827,-16.974400,-33.548199,65.335991
1703161310.934325,1703161310.935100,61.000000,0.000000,4136.538574,4117.948730,4243.974121,4195.000000,4121.153809,4113.846191,4106.794922,4128.205078,4126.794922,4137.307617,4618.205078,4400.384766,4379.871582,4506.794922,0.000000,4.000000,80.000000,,,,0.000000,4.000000,4.000000,4.000000,4.000000,4.000000,4.000000,4.000000,4.000000,4.000000,4.000000,4.000000,4.000000,4.000000,4.000000,100.000000,,,,,,,,,,,,,,,,,,,,,,,,,,,,
1703161310.942133,1703161310.942908,62.000000,0.000000,4132.179688,4112.692383,4245.256348,4190.128418,4122.820313,4115.256348,4108.717773,4139.358887,4133.333496,4139.358887,4622.948730,4409.871582,4381.410156,4508.589844,0.000000,4.000000,80.000000,,,,0.000000,4.000000,4.000000,4.000000,4.000000,4.000000,4.000000,4.000000,4.000000,4.000000,4.000000,4.000000,4.000000,4.000000,4.000000,100.000000,,,,,,,,,,,,,,,,,,,,,,,,,,,,
1703161310.949941,1703161310.950616,63.000000,0.000000,4142.948730,4117.692383,4252.436035,4197.179688,4122.820313,4117.307617,4116.282227,4146.538574,4143.205078,4139.230957,4629.487305,4417.692383,4388.589844,4517.563965,0.000000,4.000000,80.000000,,,,0.000000,4.000000,4.000000,4.000000,4.000000,4.000000,4.000000,4.000000,4.000000,4.000000,4.000000,4.000000,4.000000,4.000000,4.000000,100.000000,,,,,,,,,,,,,,,,,,,,,,,,,,,,
1703161310.957749,1703161310.958424,64.000000,0.000000,4148.846191,4127.307617,4251.794922,4202.563965,4121.410156,4109.871582,4111.153809,4133.205078,4129.743652,4131.025879,4620.000000,4403.461426,4377.179688,4514.487305,5222.000000,4.000000,80.000000,,,,0.000000,4.000000,4.000000,4.000000,4.000000,4.000000,4.000000,4.000000,4.000000,4.000000,4.000000,4.000000,4.000000,4.000000,4.000000,100.000000,,,,,,,,,,,,,,,,,16.000000,0.000000,0.452235,0.516479,-0.394470,0.610840,0.984007,0.032230,0.153339,-16.926958,-33.710049,65.219055
1703161310.965557,1703161310.966132,65.000000,0.000000,4137.820313,4126.282227,4245.256348,4199.358887,4122.436035,4103.974121,4104.358887,4113.077148,4106.922852,4120.512695,4600.128418,4387.436035,4362.179688,4501.538574,5338.000000,4.000000,80.000000,,,,0.000000,4.000000,4.000000,4.000000,4.000000,4.000000,4.000000,4.000000,4.000000,4.000000,4.000000,4.000000,4.000000,4.000000,4.000000,100.000000,,,,,,,,,,,,,,,,,,,,,,,,,,,,
1703161310.973365,1703161310.974040,66.000000,0.000000,4137.179688,4120.641113,4244.487305,4197.692383,4119.487305,4106.153809,4107.820313,4105.256348,4103.077148,4118.461426,4598.077148,4386.410156,4369.871582,4505.256348,5275.000000,4.000000,80.000000,,,,0.000000,4.000000,4.000000,4.000000,4.000000,4.000000,4.000000,4.000000,4.000000,4.000000,4.000000,4.000000,4.000000,4.000000,4.000000,100.000000,,,,,,,,,,,,,,,,,,,,,,,,,,,,
1703161310.981173,1703161310.981849,67.000000,0.000000,4150.769043,4129.102539,4246.153809,4201.538574,4114.358887,4101.538574,4102.820313,4099.871582,4100.897461,4112.948730,4603.846191,4383.461426,4369.230957,4511.025879,5252.000000,4.000000,80.000000,,,,0.000000,4.000000,4.000000,4.000000,4.000000,4.000000,4.000000,4.000000,4.000000,4.000000,4.000000,4.000000,4.000000,4.000000,4.000000,100.000000,,,,,,,,,,,,,,,,,,,,,,,,,,,,
1703161310.988982,1703161310.989757,68.000000,0.000000,4155.512695,4141.282227,4249.615234,4206.538574,4115.000000,4089.102539,4093.333252,4089.871826,4086.025635,4102.307617,4595.897461,4381.922852,4352.692383,4503.589844,5086.000000,4.000000,80.000000,,,,0.000000,4.000000,4.000000,4.000000,4.000000,4.000000,4.000000,4.000000,4.000000,4.000000,4.000000,4.000000,4.000000,4.000000,4.000000,100.000000,,,,,,,,,,,,,,,,,17.000000,0.000000,0.452655,0.516541,-0.394287,0.610596,0.996215,0.025394,0.142596,-16.934263,-33.772377,65.063820
1703161310.996790,1703161310.997565,69.000000,0.000000,4158.205078,4140.000000,4258.333496,4210.897461,4118.333496,4089.102539,4098.589844,4086.281982,4078.076904,4103.461426,4596.794922,4392.948730,4360.641113,4508.077148,5155.000000,4.000000,80.000000,,,,0.000000,4.000000,4.000000,4.000000,4.000000,4.000000,4.000000,4.000000,4.000000,4.000000,4.000000,4.000000,4.000000,4.000000,4.000000,100.000000,,,,,,,,,,,,,,,,,,,,,,,,,,,,
1703161311.004598,1703161311.005373,70.000000,0.000000,4169.743652,4136.282227,4264.615234,4215.512695,4121.153809,4101.538574,4107.307617,4088.846191,4077.564209,4108.717773,4613.077148,4403.974121,4386.153809,4528.077148,5043.000000,4.000000,80.000000,,,,0.000000,4.000000,4.000000,4.000000,4.000000,4.000000,4.000000,4.000000,4.000000,4.000000,4.000000,4.000000,4.000000,4.000000,4.000000,100.000000,,,,,,,,,,,,,,,,,,,,,,,,,,,,
1703161311.012406,1703161311.013081,71.000000,0.000000,4175.512695,4141.794922,4266.666504,4218.974121,4123.461426,4109.487305,4105.769043,4087.051270,4076.281982,4107.692383,4618.974121,4403.974121,4392.051270,4534.615234,5245.000000,4.000000,80.000000,,,,0.000000,4.000000,4.000000,4.000000,4.000000,4.000000,4.000000,4.000000,4.000000,4.000000,4.000000,4.000000,4.000000,4.000000,4.000000,100.000000,,,,,,,,,,,,,,,,,,,,,,,,,,,,
1703161311.020214,1703161311.020889,72.000000,0.000000,4167.692383,4144.230957,4263.205078,4214.615234,4123.205078,4107.692383,4104.230957,4087.564209,4082.948730,4108.589844,4613.333496,4396.922852,4380.000000,4524.102539,4993.000000,4.000000,80.000000,,,,0.000000,4.000000,4.000000,4.000000,4.000000,4.000000,4.000000,4.000000,4.000000,4.000000,4.000000,4.000000,4.000000,4.000000,4.000000,100.000000,,,,,,,,,,,,,,,,,18.000000,0.000000,0.453074,0.516602,-0.394104,0.610352,0.994262,0.036626,0.147967,-16.990837,-33.661804,65.207436
1703161311.028022,1703161311.028597,73.000000,0.000000,4157.563965,4135.512695,4252.948730,4206.794922,4122.820313,4109.358887,4106.922852,4100.897461,4101.025879,4118.333496,4612.307617,4395.769043,4375.384766,4517.692383,5242.000000,4.000000,80.000000,,,,0.000000,4.000000,4.000000,4.000000,4.000000,4.000000,4.000000,4.000000,4.000000,4.000000,4.000000,4.000000,4.000000,4.000000,4.000000,100.000000,,,,,,,,,,,,,,,,,,,,,,,,,,,,
1703161311.035830,1703161311.036505,74.000000,0.000000,4156.666504,4128.846191,4250.128418,4208.077148,4124.358887,4119.102539,4108.461426,4119.743652,4120.256348,4131.922852,4622.948730,4404.487305,4390.128418,4523.461426,5806.000000,4.000000,80.000000,,,,0.000000,4.000000,4.000000,4.000000,4.000000,4.000000,4.000000,4.000000,4.000000,4.000000,4.000000,4.000000,4.000000,4.000000,4.000000,100.000000,,,,,,,,,,,,,,,,,,,,,,,,,,,,
1703161311.043638,1703161311.044313,75.000000,0.000000,4160.000000,4132.436035,4255.512695,4210.512695,4124.102539,4120.128418,4107.307617,4133.974121,4134.743652,4140.256348,4631.922852,4411.922852,4400.641113,4528.846191,6140.000000,4.000000,80.000000,,,,0.000000,4.000000,4.000000,4.000000,4.000000,4.000000,4.000000,4.000000,4.000000,4.000000,4.000000,4.000000,4.000000,4.000000,4.000000,100.000000,,,,,,,,,,,,,,,,,,,,,,,,,,,,
1703161311.051446,1703161311.052221,76.000000,0.000000,4158.461426,4133.333496,4255.000000,4206.025879,4124.102539,4112.436035,4108.205078,4143.717773,4146.794922,4145.512695,4634.230957,4415.512695,4396.410156,4527.179688,6564.000000,4.000000,80.000000,,,,0.000000,4.000000,4.000000,4.000000,4.000000,4.000000,4.000000,4.000000,4.000000,4.000000,4.000000,4.000000,4.000000,4.000000,4.000000,100.000000,,,,,,,,,,,,,,,,,19.000000,0.000000,0.453454,0.516479,-0.393921,0.610291,0.996704,0.031254,0.155292,-17.008419,-33.612289,65.203362
1703161311.059254,1703161311.060029,77.000000,0.000000,4150.384766,4124.102539,4249.487305,4200.769043,4120.128418,4107.179688,4106.794922,4145.512695,4145.897461,4141.666504,4633.205078,4412.307617,4389.358887,4518.205078,6735.000000,4.000000,80.000000,,,,0.000000,4.000000,4.000000,4.000000,4.000000,4.000000,4.000000,4.000000,4.000000,4.000000,4.000000,4.000000,4.000000,4.000000,4.000000,100.000000,,,,,,,,,,,,,,,,,,,,,,,,,,,,
1703161311.067062,1703161311.067937,78.000000,0.000000,4145.769043,4117.692383,4242.436035,4198.333496,4109.358887,4103.846191,4100.384766,4134.871582,4131.025879,4127.692383,4620.256348,4398.846191,4378.589844,4506.794922,5806.000000,4.000000,80.000000,,,,0.000000,4.000000,4.000000,4.000000,4.000000,4.000000,4.000000,4.000000,4.000000,4.000000,4.000000,4.000000,4.000000,4.000000,4.000000,100.000000,,,,,,,,,,,,,,,,,,,,,,,,,,,,
1703161311.074870,1703161311.075745,79.000000,0.000000,4145.769043,4121.922852,4236.025879,4198.077148,4110.512695,4102.436035,4096.538574,4120.897461,4119.615234,4120.512695,4602.948730,4387.307617,4368.461426,4502.563965,6140.000000,4.000000,80.000000,,,,0.000000,4.000000,4.000000,4.000000,4.000000,4.000000,4.000000,4.000000,4.000000,4.000000,4.000000,4.000000,4.000000,4.000000,4.000000,100.000000,,,,,,,,,,,,,,,,,,,,,,,,,,,,
1703161311.082678,1703161311.083653,80.000000,0.000000,4148.974121,4123.077148,4238.974121,4198.974121,4122.051270,4102.692383,4097.436035,4108.846191,4111.153809,4116.922852,4597.436035,4383.846191,4366.282227,4504.230957,6564.000000,4.000000,80.000000,,,,0.000000,4.000000,4.000000,4.000000,4.000000,4.000000,4.000000,4.000000,4.000000,4.000000,4.000000,4.000000,4.000000,4.000000,4.000000,100.000000,,,,,,,,,,,,,,,,,20.000000,0.000000,0.453839,0.516357,-0.393921,0.610107,0.979612,0.044927,0.151874,-16.990911,-33.534393,65.066360
1703161311.090486,1703161311.091461,81.000000,0.000000,4150.128418,4119.358887,4247.307617,4200.256348,4121.666504,4097.820313,4096.153809,4096.666504,4097.179688,4105.384766,4596.410156,4385.000000,4365.512695,4502.820313,6735.000000,4.000000,80.000000,,,,0.000000,4.000000,4.000000,4.000000,4.000000,4.000000,4.000000,4.000000,4.000000,4.000000,4.000000,4.000000,4.000000,4.000000,4.000000,100.000000,,,,,,,,,,,,,,,,,,,,,,,,,,,,
1703161311.098294,1703161311.099369,82.000000,0.000000,4152.563965,4122.179688,4248.589844,4203.077148,4113.974121,4092.051270,4092.948730,4089.102539,4086.410156,4101.410156,4600.512695,4390.769043,4368.461426,4506.282227,5806.000000,4.000000,80.000000,,,,0.000000,4.000000,4.000000,4.000000,4.000000,4.000000,4.000000,4.000000,4.000000,4.000000,4.000000,4.000000,4.000000,4.000000,4.000000,100.000000,,,,,,,,,,,,,,,,,,,,,,,,,,,,
1703161311.106102,1703161311.107277,83.000000,0.000000,4162.692383,4126.025879,4250.256348,4204.358887,4111.153809,4090.256348,4092.435791,4089.615479,4085.512939,4114.615234,4611.538574,4393.205078,4378.589844,4516.794922,6140.000000,4.000000,80.000000,,,,0.000000,4.000000,4.000000,4.000000,4.000000,4.000000,4.000000,4.000000,4.000000,4.000000,4.000000,4.000000,4.000000,4.000000,4.000000,100.000000,,,,,,,,,,,,,,,,,,,,,,,,,,,,
1703161311.113910,1703161311.115085,84.000000,0.000000,4167.948730,4125.641113,4257.436035,4203.461426,4112.051270,4091.538574,4094.102539,4096.410156,4094.230713,4123.077148,4617.436035,4397.563965,4386.025879,4523.077148,6564.000000,4.000000,80.000000,,,,0.000000,4.000000,4.000000,4.000000,4.000000,4.000000,4.000000,4.000000,4.000000,4.000000,4.000000,4.000000,4.000000,4.000000,4.000000,100.000000,,,,,,,,,,,,,,,,,21.000000,0.000000,0.454102,0.516296,-0.393982,0.609924,0.987425,0.042486,0.146502,-16.858486,-33.564289,65.009720
1703161311.121719,1703161311.122893,85.000000,0.000000,4161.153809,4123.846191,4260.769043,4201.666504,4111.025879,4099.871582,4100.512695,4109.230957,4109.358887,4122.820313,4618.077148,4407.307617,4384.487305,4523.461426,6735.000000,4.000000,80.000000,,,,0.000000,4.000000,4.000000,4.000000,4.000000,4.000000,4.000000,4.000000,4.000000,4.000000,4.000000,4.000000,4.000000,4.000000,4.000000,100.000000,,,,,,,,,,,,,,,,,,,,,,,,,,,,
1703161311.129527,1703161311.130601,86.000000,0.000000,4157.307617,4123.461426,4261.666504,4202.179688,4107.563965,4107.563965,4108.846191,4126.538574,4119.743652,4125.384766,4617.692383,4410.384766,4380.769043,4521.922852,5806.000000,4.000000,80.000000,,,,0.000000,4.000000,4.000000,4.000000,4.000000,4.000000,4.000000,4.000000,4.000000,4.000000,4.000000,4.000000,4.000000,4.000000,4.000000,100.000000,,,,,,,,,,,,,,,,,,,,,,,,,,,,
1703161311.137334,1703161311.138409,87.000000,0.000000,4160.384766,4125.769043,4261.666504,4205.128418,4107.563965,4108.974121,4109.358887,4137.563965,4126.922852,4127.436035,4619.230957,4408.846191,4381.666504,4522.307617,6140.000000,4.000000,80.000000,,,,0.000000,4.000000,4.000000,4.000000,4.000000,4.000000,4.000000,4.000000,4.000000,4.000000,4.000000,4.000000,4.000000,4.000000,4.000000,100.000000,,,,,,,,,,,,,,,,,,,,,,,,,,,,
1703161311.145143,1703161311.146117,88.000000,0.000000,4157.307617,4126.538574,4258.589844,4206.410156,4113.333496,4110.641113,4107.820313,4143.077148,4138.461426,4129.230957,4627.051270,4412.307617,4382.948730,4521.538574,6564.000000,4.000000,80.000000,,,,0.000000,4.000000,4.000000,4.000000,4.000000,4.000000,4.000000,4.000000,4.000000,4.000000,4.000000,4.000000,4.000000,4.000000,4.000000,100.000000,,,,,,,,,,,,,,,,,22.000000,0.000000,0.454355,0.516052,-0.394104,0.609863,0.971310,0.039067,0.158711,-16.822638,-33.474525,65.042084
1703161311.152951,1703161311.153925,89.000000,0.000000,4157.692383,4123.589844,4257.563965,4202.051270,4112.948730,4111.025879,4107.563965,4149.230957,4142.692383,4131.538574,4631.153809,4417.692383,4383.589844,4520.769043,6735.000000,4.000000,80.000000,,,,0.000000,4.000000,4.000000,4.000000,4.000000,4.000000,4.000000,4.000000,4.000000,4.000000,4.000000,4.000000,4.000000,4.000000,4.000000,100.000000,,,,,,,,,,,,,,,,,,,,,,,,,,,,
1703161311.160759,1703161311.161634,90.000000,0.000000,4167.563965,4122.436035,4261.922852,4201.153809,4108.846191,4106.922852,4107.820313,4155.512695,4141.153809,4137.179688,4629.230957,4425.256348,4390.512695,4530.384766,5806.000000,4.000000,80.000000,,,,0.000000,4.000000,4.000000,4.000000,4.000000,4.000000,4.000000,4.000000,4.000000,4.000000,4.000000,4.000000,4.000000,4.000000,4.000000,100.000000,,,,,,,,,,,,,,,,,,,,,,,,,,,,
1703161311.168567,1703161311.169442,91.000000,0.000000,4171.666504,4125.897461,4265.641113,4205.897461,4110.641113,4106.282227,4106.282227,4152.563965,4143.077148,4142.179688,4633.205078,4428.461426,4396.666504,4539.358887,6140.000000,4.000000,80.000000,,,,0.000000,4.000000,4.000000,4.000000,4.000000,4.000000,4.000000,4.000000,4.000000,4.000000,4.000000,4.000000,4.000000,4.000000,4.000000,100.000000,,,,,,,,,,,,,,,,,,,,,,,,,,,,
1703161311.176375,1703161311.177150,92.000000,0.000000,4164.615234,4126.794922,4260.000000,4206.410156,4110.000000,4107.563965,4101.666504,4138.077148,4135.897461,4137.051270,4631.282227,4415.384766,4390.256348,4531.282227,6564.000000,4.000000,80.000000,,,,0.000000,4.000000,4.000000,4.000000,4.000000,4.000000,4.000000,4.000000,4.000000,4.000000,4.000000,4.000000,4.000000,4.000000,4.000000,100.000000,,,,,,,,,,,,,,,,,23.000000,0.000000,0.454563,0.515869,-0.394104,0.609863,0.985960,0.035161,0.129899,-16.623707,-33.393742,65.037872
1703161311.184183,1703161311.184958,93.000000,0.000000,4159.230957,4123.846191,4250.256348,4202.051270,4108.589844,4102.692383,4095.897461,4124.358887,4121.922852,4124.871582,4616.025879,4401.410156,4377.692383,4520.897461,6735.000000,4.000000,80.000000,,,,0.000000,4.000000,4.000000,4.000000,4.000000,4.000000,4.000000,4.000000,4.000000,4.000000,4.000000,4.000000,4.000000,4.000000,4.000000,100.000000,,,,,,,,,,,,,,,,,,,,,,,,,,,,
1703161311.191991,1703161311.192666,94.000000,0.000000,4162.179688,4120.769043,4249.615234,4199.230957,4110.128418,4096.025879,4092.820557,4114.102539,4113.333496,4117.948730,4604.615234,4401.153809,4367.820313,4517.307617,5806.000000,4.000000,80.000000,,,,0.000000,4.000000,4.000000,4.000000,4.000000,4.000000,4.000000,4.000000,4.000000,4.000000,4.000000,4.000000,4.000000,4.000000,4.000000,100.000000,,,,,,,,,,,,,,,,,,,,,,,,,,,,
1703161311.199799,1703161311.200474,95.000000,0.000000,4168.589844,4122.436035,4259.615234,4206.794922,4108.974121,4092.307617,4091.153809,4111.538574,4109.358887,4123.077148,4612.051270,4410.769043,4373.205078,4520.769043,6140.000000,4.000000,80.000000,,,,0.000000,4.000000,4.000000,4.000000,4.000000,4.000000,4.000000,4.000000,4.000000,4.000000,4.000000,4.000000,4.000000,4.000000,4.000000,100.000000,,,,,,,,,,,,,,,,,,,,,,,,,,,,
1703161311.207607,1703161311.208182,96.000000,0.000000,4173.205078,4127.436035,4266.794922,4216.922852,4113.461426,4090.512939,4091.153809,4115.256348,4108.077148,4128.461426,4627.563965,4421.025879,4391.153809,4533.461426,6564.000000,4.000000,80.000000,,,,0.000000,4.000000,4.000000,4.000000,4.000000,4.000000,4.000000,4.000000,4.000000,4.000000,4.000000,4.000000,4.000000,4.000000,4.000000,100.000000,,,,,,,,,,,,,,,,,24.000000,0.000000,0.454689,0.515686,-0.394104,0.609924,0.975217,0.042974,0.139665,-16.828003,-33.354366,64.984085
1703161311.215415,1703161311.216090,97.000000,0.000000,4171.153809,4121.282227,4264.487305,4208.589844,4115.769043,4093.589844,4092.435791,4112.692383,4107.692383,4126.025879,4630.897461,4419.615234,4398.461426,4538.846191,6735.000000,4.000000,80.000000,,,,0.000000,4.000000,4.000000,4.000000,4.000000,4.000000,4.000000,4.000000,4.000000,4.000000,4.000000,4.000000,4.000000,4.000000,4.000000,100.000000,,,,,,,,,,,,,,,,,,,,,,,,,,,,
1703161311.223223,1703161311.223898,98.000000,0.000000,4168.974121,4111.410156,4259.743652,4196.282227,4108.077148,4101.922852,4094.358887,4105.769043,4105.128418,4122.436035,4628.333496,4410.641113,4398.846191,4535.000000,5806.000000,4.000000,80.000000,,,,0.000000,4.000000,4.000000,4.000000,4.000000,4.000000,4.000000,4.000000,4.000000,4.000000,4.000000,4.000000,4.000000,4.000000,4.000000,100.000000,,,,,,,,,,,,,,,,,,,,,,,,,,,,
1703161311.231031,1703161311.231806,99.000000,0.000000,4171.282227,4118.333496,4257.563965,4203.077148,4110.897461,4109.102539,4100.512695,4105.256348,4103.461426,4120.769043,4626.282227,4407.051270,4396.153809,4534.487305,6140.000000,4.000000,80.000000,,,,0.000000,4.000000,4.000000,4.000000,4.000000,4.000000,4.000000,4.000000,4.000000,4.000000,4.000000,4.000000,4.000000,4.000000,4.000000,100.000000,,,,,,,,,,,,,,,,,,,,,,,,,,,,
1703161311.238839,1703161311.239614,100.000000,0.000000,4172.948730,4128.717773,4257.436035,4209.743652,4125.256348,4113.461426,4107.692383,4111.025879,4109.358887,4121.922852,4619.743652,4408.846191,4384.230957,4529.871582,6564.000000,4.000000,80.000000,,,,0.000000,4.000000,4.000000,4.000000,4.000000,4.000000,4.000000,4.000000,4.000000,4.000000,4.000000,4.000000,4.000000,4.000000,4.000000,100.000000,,,,,,,,,,,,,,,,,25.000000,0.000000,0.455110,0.515625,-0.393982,0.609741,0.983030,0.040044,0.153827,-16.978537,-33.318932,65.019012
1703161311.246647,1703161311.247522,101.000000,0.000000,4175.897461,4132.948730,4259.102539,4207.563965,4125.256348,4119.743652,4109.487305,4118.461426,4118.717773,4124.102539,4616.282227,4411.282227,4381.666504,4526.282227,6735.000000,4.000000,80.000000,,,,0.000000,4.000000,4.000000,4.000000,4.000000,4.000000,4.000000,4.000000,4.000000,4.000000,4.000000,4.000000,4.000000,4.000000,4.000000,100.000000,,,,,,,,,,,,,,,,,,,,,,,,,,,,
1703161311.254455,1703161311.255330,102.000000,0.000000,4177.563965,4134.615234,4260.128418,4211.666504,4120.641113,4124.487305,4111.282227,4125.256348,4125.128418,4124.871582,4623.846191,4412.307617,4392.051270,4533.974121,5806.000000,4.000000,80.000000,,,,0.000000,4.000000,4.000000,4.000000,4.000000,4.000000,4.000000,4.000000,4.000000,4.000000,4.000000,4.000000,4.000000,4.000000,4.000000,100.000000,,,,,,,,,,,,,,,,,,,,,,,,,,,,
1703161311.262263,1703161311.263238,103.000000,0.000000,4176.922852,4132.051270,4262.692383,4216.153809,4124.487305,4120.512695,4113.974121,4127.436035,4124.358887,4126.282227,4628.461426,4413.589844,4392.436035,4540.256348,6140.000000,4.000000,80.000000,,,,0.000000,4.000000,4.000000,4.000000,4.000000,4.000000,4.000000,4.000000,4.000000,4.000000,4.000000,4.000000,4.000000,4.000000,4.000000,100.000000,,,,,,,,,,,,,,,,,,,,,,,,,,,,
1703161311.270071,1703161311.271046,104.000000,0.000000,4174.358887,4128.717773,4264.743652,4214.230957,4123.205078,4118.974121,4111.922852,4126.922852,4116.922852,4125.512695,4623.717773,4415.512695,4385.641113,4535.641113,6564.000000,4.000000,80.000000,,,,0.000000,4.000000,4.000000,4.000000,4.000000,4.000000,4.000000,4.000000,4.000000,4.000000,4.000000,4.000000,4.000000,4.000000,4.000000,100.000000,,,,,,,,,,,,,,,,,26.000000,0.000000,0.455371,0.515564,-0.394043,0.609558,0.991332,0.035649,0.150897,-16.980682,-33.420372,64.967110
1703161311.277879,1703161311.278754,105.000000,0.000000,4173.077148,4130.512695,4262.692383,4216.153809,4121.282227,4120.512695,4107.692383,4117.948730,4110.512695,4117.563965,4616.025879,4408.717773,4380.897461,4528.589844,6735.000000,4.000000,80.000000,,,,0.000000,4.000000,4.000000,4.000000,4.000000,4.000000,4.000000,4.000000,4.000000,4.000000,4.000000,4.000000,4.000000,4.000000,4.000000,100.000000,,,,,,,,,,,,,,,,,,,,,,,,,,,,
1703161311.285688,1703161311.286562,106.000000,0.000000,4175.384766,4126.666504,4262.179688,4218.205078,4122.948730,4112.948730,4106.025879,4104.615234,4106.666504,4111.666504,4609.358887,4400.000000,4377.436035,4524.487305,5806.000000,4.000000,80.000000,,,,0.000000,4.000000,4.000000,4.000000,4.000000,4.000000,4.000000,4.000000,4.000000,4.000000,4.000000,4.000000,4.000000,4.000000,4.000000,100.000000,,,,,,,,,,,,,,,,,,,,,,,,,,,,
1703161311.293496,1703161311.294470,107.000000,0.000000,4183.333496,4125.000000,4265.128418,4216.025879,4124.487305,4105.512695,4103.589844,4103.974121,4106.282227,4119.743652,4615.769043,4405.641113,4388.077148,4535.512695,6140.000000,4.000000,80.000000,,,,0.000000,4.000000,4.000000,4.000000,4.000000,4.000000,4.000000,4.000000,4.000000,4.000000,4.000000,4.000000,4.000000,4.000000,4.000000,100.000000,,,,,,,,,,,,,,,,,,,,,,,,,,,,
1703161311.301304,1703161311.302278,108.000000,0.000000,4192.051270,4138.974121,4266.538574,4218.077148,4123.846191,4104.871582,4097.307617,4108.205078,4108.974121,4127.948730,4630.128418,4416.794922,4403.461426,4551.666504,6564.000000,4.000000,80.000000,,,,0.000000,4.000000,4.000000,4.000000,4.000000,4.000000,4.000000,4.000000,4.000000,4.000000,4.000000,4.000000,4.000000,4.000000,4.000000,100.000000,,,,,,,,,,,,,,,,,27.000000,0.000000,0.455587,0.515564,-0.393982,0.609436,0.986937,0.049811,0.143572,-17.032614,-33.428333,64.920403
1703161311.309112,1703161311.309986,109.000000,0.000000,4188.333496,4138.205078,4265.897461,4217.307617,4116.922852,4097.820313,4090.000000,4106.025879,4104.230957,4124.487305,4633.589844,4416.794922,4402.948730,4547.948730,6735.000000,4.000000,80.000000,,,,0.000000,4.000000,4.000000,4.000000,4.000000,4.000000,4.000000,4.000000,4.000000,4.000000,4.000000,4.000000,4.000000,4.000000,4.000000,100.000000,,,,,,,,,,,,,,,,,,,,,,,,,,,,
1703161311.316920,1703161311.317794,110.000000,0.000000,4182.692383,4123.717773,4266.410156,4212.179688,4106.025879,4087.564209,4088.846191,4104.102539,4094.358887,4117.563965,4625.384766,4413.589844,4393.205078,4538.205078,5806.000000,4.000000,80.000000,,,,0.000000,4.000000,4.000000,4.000000,4.000000,4.000000,4.000000,4.000000,4.000000,4.000000,4.000000,4.000000,4.000000,4.000000,4.000000,100.000000,,,,,,,,,,,,,,,,,,,,,,,,,,,,
1703161311.324728,1703161311.325502,111.000000,0.000000,4184.102539,4125.256348,4265.897461,4214.230957,4106.922852,4093.974365,4091.410156,4105.897461,4088.718018,4109.102539,4613.077148,4412.436035,4383.717773,4537.692383,6140.000000,4.000000,80.000000,,,,0.000000,4.000000,4.000000,4.000000,4.000000,4.000000,4.000000,4.000000,4.000000,4.000000,4.000000,4.000000,4.000000,4.000000,4.000000,100.000000,,,,,,,,,,,,,,,,,,,,,,,,,,,,
1703161311.332536,1703161311.333310,112.000000,0.000000,4181.794922,4132.179688,4261.922852,4213.846191,4116.410156,4105.000000,4091.538574,4104.230957,4088.974365,4103.846191,4606.410156,4405.641113,4377.692383,4535.897461,6564.000000,4.000000,80.000000,,,,0.000000,4.000000,4.000000,4.000000,4.000000,4.000000,4.000000,4.000000,4.000000,4.000000,4.000000,4.000000,4.000000,4.000000,4.000000,100.000000,,,,,,,,,,,,,,,,,28.000000,0.000000,0.455722,0.515564,-0.393921,0.609375,0.973263,0.054694,0.147967,-17.129353,-33.452168,64.978363
1703161311.340344,1703161311.341018,113.000000,0.000000,4173.846191,4125.128418,4259.102539,4202.692383,4115.641113,4107.051270,4095.512939,4103.461426,4093.718018,4103.846191,4609.615234,4398.589844,4383.461426,4530.384766,6735.000000,4.000000,80.000000,,,,0.000000,4.000000,4.000000,4.000000,4.000000,4.000000,4.000000,4.000000,4.000000,4.000000,4.000000,4.000000,4.000000,4.000000,4.000000,100.000000,,,,,,,,,,,,,,,,,,,,,,,,,,,,
1703161311.348152,1703161311.348826,114.000000,0.000000,4173.717773,4124.871582,4257.948730,4202.948730,4113.077148,4114.615234,4105.128418,4112.307617,4102.948730,4103.974121,4613.461426,4400.897461,4386.538574,4529.615234,5806.000000,4.000000,80.000000,,,,0.000000,4.000000,4.000000,4.000000,4.000000,4.000000,4.000000,4.000000,4.000000,4.000000,4.000000,4.000000,4.000000,4.000000,4.000000,100.000000,,,,,,,,,,,,,,,,,,,,,,,,,,,,
1703161311.355960,1703161311.356534,115.000000,0.000000,4180.769043,4139.358887,4259.230957,4217.436035,4117.692383,4124.230957,4109.230957,4123.461426,4114.743652,4110.256348,4610.000000,4408.461426,4370.384766,4527.051270,6140.000000,4.000000,80.000000,,,,0.000000,4.000000,4.000000,4.000000,4.000000,4.000000,4.000000,4.000000,4.000000,4.000000,4.000000,4.000000,4.000000,4.000000,4.000000,100.000000,,,,,,,,,,,,,,,,,,,,,,,,,,,,
1703161311.363768,1703161311.364442,116.000000,0.000000,4180.000000,4137.307617,4261.025879,4216.922852,4119.615234,4119.358887,4106.666504,4127.692383,4125.512695,4124.230957,4610.641113,4413.077148,4368.717773,4523.589844,6564.000000,4.000000,80.000000,,,,0.000000,4.000000,4.000000,4.000000,4.000000,4.000000,4.000000,4.000000,4.000000,4.000000,4.000000,4.000000,4.000000,4.000000,4.000000,100.000000,,,,,,,,,,,,,,,,,29.000000,0.000000,0.455843,0.515503,-0.393860,0.609375,0.983518,0.030765,0.150897,-17.349751,-33.473618,64.913857
1703161311.371576,1703161311.372250,117.000000,0.000000,4181.025879,4129.871582,4261.282227,4211.282227,4119.102539,4108.974121,4105.384766,4121.666504,4127.307617,4129.358887,4618.333496,4411.794922,4391.922852,4532.948730,6735.000000,4.000000,80.000000,,,,0.000000,4.000000,4.000000,4.000000,4.000000,4.000000,4.000000,4.000000,4.000000,4.000000,4.000000,4.000000,4.000000,4.000000,4.000000,100.000000,,,,,,,,,,,,,,,,,,,,,,,,,,,,
1703161311.379384,1703161311.380059,118.000000,0.000000,4182.948730,4135.128418,4260.512695,4215.897461,4123.333496,4109.230957,4105.512695,4108.589844,4116.538574,4122.179688,4616.025879,4402.692383,4393.461426,4537.563965,5806.000000,4.000000,80.000000,,,,0.000000,4.000000,4.000000,4.000000,4.000000,4.000000,4.000000,4.000000,4.000000,4.000000,4.000000,4.000000,4.000000,4.000000,4.000000,100.000000,,,,,,,,,,,,,,,,,,,,,,,,,,,,
1703161311.387192,1703161311.387767,119.000000,0.000000,4181.153809,4137.820313,4260.000000,4218.717773,4126.410156,4110.000000,4103.205078,4096.666504,4106.025879,4119.871582,4613.333496,4396.922852,4382.948730,4534.487305,6140.000000,4.000000,80.000000,,,,0.000000,4.000000,4.000000,4.000000,4.000000,4.000000,4.000000,4.000000,4.000000,4.000000,4.000000,4.000000,4.000000,4.000000,4.000000,100.000000,,,,,,,,,,,,,,,,,,,,,,,,,,,,
1703161311.395000,1703161311.395675,120.000000,0.000000,4192.179688,4143.077148,4267.692383,4223.461426,4123.205078,4106.538574,4098.974121,4091.538574,4100.384766,4117.820313,4619.871582,4404.358887,4392.820313,4539.358887,6564.000000,4.000000,80.000000,,,,0.000000,4.000000,4.000000,4.000000,4.000000,4.000000,4.000000,4.000000,4.000000,4.000000,4.000000,4.000000,4.000000,4.000000,4.000000,100.000000,,,,,,,,,,,,,,,,,30.000000,0.000000,0.455916,0.515320,-0.393921,0.609436,0.977658,0.041997,0.156757,-17.298109,-33.542923,64.972473
1703161311.402808,1703161311.403483,121.000000,0.000000,4200.384766,4152.436035,4278.717773,4231.794922,4124.230957,4104.487305,4095.000000,4088.076904,4088.846191,4111.794922,4620.000000,4411.794922,4394.871582,4541.666504,6735.000000,4.000000,80.000000,,,,0.000000,4.000000,4.000000,4.000000,4.000000,4.000000,4.000000,4.000000,4.000000,4.000000,4.000000,4.000000,4.000000,4.000000,4.000000,100.000000,1.000000,91.666664,4.000000,4.000000,3.000000,4.000000,4.000000,4.000000,4.000000,4.000000,4.000000,4.000000,4.000000,4.000000,4.000000,4.000000,,,,,,,,,,,,
1703161311.410616,1703161311.411391,122.000000,0.000000,4195.256348,4153.846191,4281.410156,4233.333496,4127.948730,4106.153809,4094.230713,4090.769287,4085.641113,4117.563965,4623.333496,4417.692383,4392.307617,4542.179688,5806.000000,4.000000,80.000000,,,,0.000000,4.000000,4.000000,4.000000,4.000000,4.000000,4.000000,4.000000,4.000000,4.000000,4.000000,4.000000,4.000000,4.000000,4.000000,100.000000,,,,,,,,,,,,,,,,,,,,,,,,,,,,
1703161311.418424,1703161311.419199,123.000000,0.000000,4199.871582,4153.205078,4281.025879,4234.743652,4127.692383,4106.410156,4096.794922,4102.051270,4098.077148,4129.230957,4638.589844,4426.538574,4407.820313,4555.512695,6140.000000,4.000000,80.000000,,,,0.000000,4.000000,4.000000,4.000000,4.000000,4.000000,4.000000,4.000000,4.000000,4.000000,4.000000,4.000000,4.000000,4.000000,4.000000,100.000000,,,,,,,,,,,,,,,,,,,,,,,,,,,,
1703161311.426232,1703161311.427107,124.000000,0.000000,4204.102539,4151.922852,4277.436035,4231.410156,4124.615234,4101.666504,4097.692383,4110.769043,4107.179688,4126.410156,4640.000000,4425.512695,4408.589844,4556.666504,6564.000000,4.000000,80.000000,,,,0.000000,4.000000,4.000000,4.000000,4.000000,4.000000,4.000000,4.000000,4.000000,4.000000,4.000000,4.000000,4.000000,4.000000,4.000000,100.000000,,,,,,,,,,,,,,,,,31.000000,0.000000,0.456286,0.515137,-0.393921,0.609314,0.982053,0.043951,0.154316,-17.084965,-33.655296,65.058556
1703161311.434040,1703161311.434916,125.000000,0.000000,4190.897461,4141.538574,4268.974121,4220.000000,4120.256348,4100.641113,4096.794922,4118.077148,4112.820313,4119.615234,4624.358887,4418.077148,4389.102539,4543.077148,6735.000000,4.000000,80.000000,,,,0.000000,4.000000,4.000000,4.000000,4.000000,4.000000,4.000000,4.000000,4.000000,4.000000,4.000000,4.000000,4.000000,4.000000,4.000000,100.000000,,,,,,,,,,,,,,,,,,,,,,,,,,,,
1703161311.441848,1703161311.442823,126.000000,0.000000,4179.230957,4131.282227,4263.205078,4215.000000,4118.205078,4106.153809,4096.538574,4125.384766,4121.153809,4121.922852,4616.666504,4416.153809,4378.974121,4534.358887,5806.000000,4.000000,80.000000,,,,0.000000,4.000000,4.000000,4.000000,4.000000,4.000000,4.000000,4.000000,4.000000,4.000000,4.000000,4.000000,4.000000,4.000000,4.000000,100.000000,,,,,,,,,,,,,,,,,,,,,,,,,,,,
1703161311.449657,1703161311.450631,127.000000,0.000000,4171.666504,4126.538574,4258.974121,4211.153809,4118.974121,4109.358887,4097.563965,4124.871582,4124.102539,4121.153809,4615.000000,4407.948730,4375.128418,4525.384766,80.000000,4.000000,80.000000,,,,0.000000,4.000000,4.000000,4.000000,4.000000,4.000000,4.000000,4.000000,4.000000,4.000000,4.000000,4.000000,4.000000,4.000000,4.000000,100.000000,,,,,,,,,,,,,,,,,,,,,,,,,,,,
1703161311.457465,1703161311.458539,0.000000,0.000000,4166.410156,4127.820313,4254.615234,4206.538574,4122.948730,4111.794922,4102.948730,4122.820313,4124.743652,4120.897461,4615.897461,4400.512695,4379.358887,4525.384766,5218.000000,4.000000,80.000000,,,,0.000000,4.000000,4.000000,4.000000,4.000000,4.000000,4.000000,4.000000,4.000000,4.000000,4.000000,4.000000,4.000000,4.000000,4.000000,100.000000,,,,,,,,,,,,,,,,,0.000000,0.000000,0.456205,0.515137,-0.393921,0.609375,0.971798,0.051276,0.147967,-17.093136,-33.523098,64.986038
1703161311.465273,1703161311.466447,1.000000,0.000000,4176.282227,4138.717773,4257.436035,4213.077148,4125.000000,4116.153809,4106.922852,4124.487305,4126.025879,4121.025879,4615.384766,4404.871582,4382.179688,4532.692383,5333.000000,4.000000,80.000000,,,,0.000000,4.000000,4.000000,4.000000,4.000000,4.000000,4.000000,4.000000,4.000000,4.000000,4.000000,4.000000,4.000000,4.000000,4.000000,100.000000,,,,,,,,,,,,,,,,,,,,,,,,,,,,
1703161311.473081,1703161311.474256,2.000000,0.000000,4181.666504,4144.487305,4262.692383,4219.871582,4121.666504,4113.205078,4100.897461,4116.282227,4114.358887,4110.897461,4603.205078,4405.128418,4364.358887,4522.563965,5272.000000,4.000000,80.000000,,,,0.000000,4.000000,4.000000,4.000000,4.000000,4.000000,4.000000,4.000000,4.000000,4.000000,4.000000,4.000000,4.000000,4.000000,4.000000,100.000000,,,,,,,,,,,,,,,,,,,,,,,,,,,,
1703161311.480889,1703161311.482064,3.000000,0.000000,4174.102539,4137.563965,4258.974121,4215.128418,4118.461426,4105.769043,4092.820557,4104.871582,4102.179688,4108.846191,4603.589844,4402.436035,4361.153809,4519.230957,5252.000000,4.000000,80.000000,,,,0.000000,4.000000,4.000000,4.000000,4.000000,4.000000,4.000000,4.000000,4.000000,4.000000,4.000000,4.000000,4.000000,4.000000,4.000000,100.000000,,,,,,,,,,,,,,,,,,,,,,,,,,,,
1703161311.488697,1703161311.489772,4.000000,0.000000,4180.000000,4135.641113,4262.820313,4215.641113,4122.307617,4105.769043,4093.718018,4108.077148,4114.358887,4129.615234,4629.743652,4410.384766,4394.230957,4545.128418,5085.000000,4.000000,80.000000,,,,0.000000,4.000000,4.000000,4.000000,4.000000,4.000000,4.000000,4.000000,4.000000,4.000000,4.000000,4.000000,4.000000,4.000000,4.000000,100.000000,,,,,,,,,,,,,,,,,1.000000,0.000000,0.456323,0.515198,-0.393799,0.609314,0.978635,0.034672,0.162618,-17.167154,-33.387455,64.937431
1703161311.496505,1703161311.497580,5.000000,0.000000,4198.461426,4146.538574,4276.922852,4226.922852,4129.230957,4105.128418,4093.461426,4111.538574,4122.051270,4145.128418,4645.641113,4421.282227,4417.692383,4562.307617,5145.000000,4.000000,80.000000,,,,0.000000,4.000000,4.000000,4.000000,4.000000,4.000000,4.000000,4.000000,4.000000,4.000000,4.000000,4.000000,4.000000,4.000000,4.000000,100.000000,,,,,,,,,,,,,,,,,,,,,,,,,,,,
1703161311.504313,1703161311.505288,6.000000,0.000000,4204.230957,4160.769043,4279.102539,4236.025879,4127.563965,4099.615234,4086.025635,4104.871582,4109.358887,4140.769043,4636.282227,4422.179688,4408.333496,4554.871582,5043.000000,4.000000,80.000000,,,,0.000000,4.000000,4.000000,4.000000,4.000000,4.000000,4.000000,4.000000,4.000000,4.000000,4.000000,4.000000,4.000000,4.000000,4.000000,100.000000,,,,,,,,,,,,,,,,,,,,,,,,,,,,
1703161311.512121,1703161311.513196,7.000000,0.000000,4192.179688,4156.025879,4276.922852,4230.769043,4123.846191,4097.820313,4085.384521,4102.436035,4103.077148,4135.512695,4629.102539,4419.230957,4394.743652,4549.230957,5237.000000,4.000000,80.000000,,,,0.000000,4.000000,4.000000,4.000000,4.000000,4.000000,4.000000,4.000000,4.000000,4.000000,4.000000,4.000000,4.000000,4.000000,4.000000,100.000000,,,,,,,,,,,,,,,,,,,,,,,,,,,,
1703161311.519929,1703161311.521004,8.000000,0.000000,4184.615234,4142.436035,4276.410156,4216.922852,4127.307617,4103.589844,4090.512939,4106.666504,4109.102539,4137.051270,4633.589844,4417.692383,4397.563965,4550.128418,4983.000000,4.000000,80.000000,,,,0.000000,4.000000,4.000000,4.000000,4.000000,4.000000,4.000000,4.000000,4.000000,4.000000,4.000000,4.000000,4.000000,4.000000,4.000000,100.000000,,,,,,,,,,,,,,,,,2.000000,0.000000,0.456364,0.515259,-0.393860,0.609192,0.982542,0.057624,0.147967,-17.000439,-33.282043,65.043686
1703161311.527737,1703161311.528812,9.000000,0.000000,4195.000000,4153.461426,4271.410156,4223.205078,4129.102539,4107.179688,4094.743652,4107.948730,4113.717773,4138.077148,4631.922852,4415.641113,4403.205078,4554.743652,5242.000000,4.000000,80.000000,,,,0.000000,4.000000,4.000000,4.000000,4.000000,4.000000,4.000000,4.000000,4.000000,4.000000,4.000000,4.000000,4.000000,4.000000,4.000000,100.000000,,,,,,,,,,,,,,,,,,,,,,,,,,,,
1703161311.535545,1703161311.536521,10.000000,0.000000,4199.871582,4162.307617,4271.410156,4231.794922,4128.589844,4107.563965,4100.256348,4114.230957,4118.974121,4133.846191,4624.487305,4417.307617,4395.641113,4555.256348,5808.000000,4.000000,80.000000,,,,0.000000,4.000000,4.000000,4.000000,4.000000,4.000000,4.000000,4.000000,4.000000,4.000000,4.000000,4.000000,4.000000,4.000000,4.000000,100.000000,,,,,,,,,,,,,,,,,,,,,,,,,,,,
1703161311.543353,1703161311.544429,11.000000,0.000000,4189.230957,4151.922852,4276.922852,4222.692383,4132.820313,4112.820313,4107.307617,4129.743652,4128.717773,4132.179688,4625.384766,4423.205078,4382.307617,4546.153809,6137.000000,4.000000,80.000000,,,,0.000000,4.000000,4.000000,4.000000,4.000000,4.000000,4.000000,4.000000,4.000000,4.000000,4.000000,4.000000,4.000000,4.000000,4.000000,100.000000,,,,,,,,,,,,,,,,,,,,,,,,,,,,
1703161311.551161,1703161311.552237,12.000000,0.000000,4178.717773,4150.256348,4272.179688,4218.974121,4134.615234,4121.538574,4111.666504,4140.512695,4132.436035,4133.974121,4626.282227,4423.077148,4372.307617,4537.436035,6558.000000,4.000000,80.000000,,,,0.000000,4.000000,4.000000,4.000000,4.000000,4.000000,4.000000,4.000000,4.000000,4.000000,4.000000,4.000000,4.000000,4.000000,4.000000,100.000000,,,,,,,,,,,,,,,,,3.000000,0.000000,0.456511,0.515320,-0.393799,0.609070,0.979612,0.040532,0.146991,-17.083729,-33.137173,65.155983
1703161311.558969,1703161311.560145,13.000000,0.000000,4168.589844,4146.282227,4261.922852,4220.256348,4129.102539,4125.128418,4112.051270,4137.820313,4129.871582,4130.897461,4619.871582,4415.384766,4369.487305,4533.717773,6731.000000,4.000000,80.000000,,,,0.000000,4.000000,4.000000,4.000000,4.000000,4.000000,4.000000,4.000000,4.000000,4.000000,4.000000,4.000000,4.000000,4.000000,4.000000,100.000000,,,,,,,,,,,,,,,,,,,,,,,,,,,,
1703161311.566777,1703161311.567953,14.000000,0.000000,4170.384766,4139.102539,4264.230957,4215.384766,4125.512695,4124.102539,4113.846191,4130.897461,4127.692383,4126.794922,4622.436035,4417.179688,4378.717773,4537.179688,5808.000000,4.000000,80.000000,,,,0.000000,4.000000,4.000000,4.000000,4.000000,4.000000,4.000000,4.000000,4.000000,4.000000,4.000000,4.000000,4.000000,4.000000,4.000000,100.000000,,,,,,,,,,,,,,,,,,,,,,,,,,,,
1703161311.574585,1703161311.575861,15.000000,0.000000,4181.153809,4145.641113,4270.128418,4214.487305,4126.282227,4123.461426,4113.974121,4128.333496,4124.487305,4125.769043,4626.666504,4422.820313,4384.102539,4542.051270,6137.000000,4.000000,80.000000,,,,0.000000,4.000000,4.000000,4.000000,4.000000,4.000000,4.000000,4.000000,4.000000,4.000000,4.000000,4.000000,4.000000,4.000000,4.000000,100.000000,,,,,,,,,,,,,,,,,,,,,,,,,,,,
1703161311.582394,1703161311.583669,16.000000,0.000000,4176.282227,4146.538574,4266.794922,4216.922852,4126.538574,4117.692383,4108.846191,4120.256348,4115.512695,4120.384766,4617.436035,4414.358887,4376.410156,4536.538574,0.000000,4.000000,80.000000,,,,0.000000,4.000000,4.000000,4.000000,4.000000,4.000000,4.000000,4.000000,4.000000,4.000000,4.000000,4.000000,4.000000,4.000000,4.000000,100.000000,,,,,,,,,,,,,,,,,4.000000,0.000000,0.456701,0.515198,-0.393738,0.609070,0.987425,0.052252,0.150409,-17.208689,-33.040123,65.223724
1703161311.590202,1703161311.591478,17.000000,0.000000,4166.282227,4139.487305,4262.563965,4213.333496,4124.615234,4111.025879,4106.410156,4107.563965,4106.025879,4114.615234,4608.846191,4403.974121,4371.153809,4529.487305,0.000000,4.000000,80.000000,,,,0.000000,4.000000,4.000000,4.000000,4.000000,4.000000,4.000000,4.000000,4.000000,4.000000,4.000000,4.000000,4.000000,4.000000,4.000000,100.000000,,,,,,,,,,,,,,,,,,,,,,,,,,,,
1703161311.598009,1703161311.599186,18.000000,0.000000,4176.666504,4147.820313,4268.333496,4214.487305,4122.436035,4111.282227,4107.307617,4103.717773,4103.333496,4116.538574,4615.512695,4406.538574,4379.358887,4535.769043,0.000000,4.000000,80.000000,,,,0.000000,4.000000,4.000000,4.000000,4.000000,4.000000,4.000000,4.000000,4.000000,4.000000,4.000000,4.000000,4.000000,4.000000,4.000000,100.000000,,,,,,,,,,,,,,,,,,,,,,,,,,,,
1703161311.605818,1703161311.607094,19.000000,0.000000,4187.563965,4155.000000,4279.230957,4223.846191,4127.179688,4109.358887,4101.538574,4106.410156,4104.102539,4127.692383,4627.179688,4420.256348,4392.948730,4549.487305,0.000000,4.000000,80.000000,,,,0.000000,4.000000,4.000000,4.000000,4.000000,4.000000,4.000000,4.000000,4.000000,4.000000,4.000000,4.000000,4.000000,4.000000,4.000000,100.000000,,,,,,,,,,,,,,,,,,,,,,,,,,,,
1703161311.613626,1703161311.614902,20.000000,0.000000,4186.794922,4151.794922,4283.333496,4228.077148,4132.820313,4102.820313,4097.051270,4105.641113,4103.589844,4139.102539,4634.871582,4431.282227,4400.000000,4556.666504,0.000000,4.000000,80.000000,,,,0.000000,4.000000,4.000000,4.000000,4.000000,4.000000,4.000000,4.000000,4.000000,4.000000,4.000000,4.000000,4.000000,4.000000,4.000000,100.000000,,,,,,,,,,,,,,,,,5.000000,0.000000,0.457110,0.514954,-0.393677,0.609009,0.982053,0.047369,0.150409,-17.321154,-33.086109,65.201347
1703161311.621434,1703161311.622810,21.000000,0.000000,4189.487305,4157.820313,4278.461426,4225.256348,4130.769043,4106.922852,4102.692383,4107.051270,4104.358887,4134.358887,4633.846191,4428.717773,4395.897461,4553.717773,0.000000,4.000000,80.000000,,,,0.000000,4.000000,4.000000,4.000000,4.000000,4.000000,4.000000,4.000000,4.000000,4.000000,4.000000,4.000000,4.000000,4.000000,4.000000,100.000000,,,,,,,,,,,,,,,,,,,,,,,,,,,,
1703161311.629242,1703161311.630618,22.000000,0.000000,4183.589844,4155.000000,4270.128418,4216.794922,4132.563965,4119.358887,4108.589844,4117.692383,4110.769043,4126.410156,4625.256348,4417.563965,4385.897461,4544.615234,0.000000,4.000000,80.000000,,,,0.000000,4.000000,4.000000,4.000000,4.000000,4.000000,4.000000,4.000000,4.000000,4.000000,4.000000,4.000000,4.000000,4.000000,4.000000,100.000000,,,,,,,,,,,,,,,,,,,,,,,,,,,,
1703161311.637050,1703161311.638526,23.000000,0.000000,4168.589844,4142.563965,4260.769043,4211.922852,4137.436035,4125.384766,4114.358887,4131.153809,4125.256348,4130.512695,4613.846191,4411.282227,4371.922852,4531.410156,0.000000,4.000000,80.000000,,,,0.000000,4.000000,4.000000,4.000000,4.000000,4.000000,4.000000,4.000000,4.000000,4.000000,4.000000,4.000000,4.000000,4.000000,4.000000,100.000000,,,,,,,,,,,,,,,,,,,,,,,,,,,,
1703161311.644858,1703161311.646334,24.000000,0.000000,4161.794922,4141.794922,4252.692383,4212.692383,4137.948730,4128.974121,4123.846191,4141.666504,4139.615234,4135.256348,4609.615234,4413.974121,4361.410156,4524.230957,0.000000,4.000000,80.000000,,,,0.000000,4.000000,4.000000,4.000000,4.000000,4.000000,4.000000,4.000000,4.000000,4.000000,4.000000,4.000000,4.000000,4.000000,4.000000,100.000000,,,,,,,,,,,,,,,,,6.000000,0.000000,0.457233,0.515015,-0.393738,0.608826,0.971310,0.050299,0.137224,-17.305704,-33.194164,65.197884
1703161311.652666,1703161311.654042,25.000000,0.000000,4159.487305,4142.051270,4250.769043,4207.563965,4136.282227,4130.512695,4121.410156,4143.461426,4138.461426,4128.717773,4613.717773,4413.589844,4364.102539,4524.743652,0.000000,4.000000,80.000000,,,,0.000000,4.000000,4.000000,4.000000,4.000000,4.000000,4.000000,4.000000,4.000000,4.000000,4.000000,4.000000,4.000000,4.000000,4.000000,100.000000,,,,,,,,,,,,,,,,,,,,,,,,,,,,
1703161311.660474,1703161311.661850,26.000000,0.000000,4156.666504,4135.512695,4252.179688,4200.897461,4131.153809,4126.538574,4109.487305,4134.230957,4128.461426,4118.974121,4609.743652,4406.410156,4366.025879,4526.153809,0.000000,4.000000,80.000000,,,,0.000000,4.000000,4.000000,4.000000,4.000000,4.000000,4.000000,4.000000,4.000000,4.000000,4.000000,4.000000,4.000000,4.000000,4.000000,100.000000,,,,,,,,,,,,,,,,,,,,,,,,,,,,
1703161311.668282,1703161311.669558,27.000000,0.000000,4161.282227,4136.153809,4253.077148,4206.410156,4131.538574,4123.846191,4109.102539,4125.384766,4121.538574,4118.461426,4601.025879,4403.717773,4363.205078,4528.205078,0.000000,4.000000,80.000000,,,,0.000000,4.000000,4.000000,4.000000,4.000000,4.000000,4.000000,4.000000,4.000000,4.000000,4.000000,4.000000,4.000000,4.000000,4.000000,100.000000,,,,,,,,,,,,,,,,,,,,,,,,,,,,
1703161311.676090,1703161311.677366,28.000000,0.000000,4162.820313,4142.563965,4255.256348,4213.717773,4138.077148,4124.358887,4112.563965,4118.333496,4113.333496,4118.333496,4598.846191,4402.436035,4360.641113,4525.512695,0.000000,4.000000,80.000000,,,,0.000000,4.000000,4.000000,4.000000,4.000000,4.000000,4.000000,4.000000,4.000000,4.000000,4.000000,4.000000,4.000000,4.000000,4.000000,100.000000,,,,,,,,,,,,,,,,,7.000000,0.000000,0.457124,0.515137,-0.393799,0.608765,0.983518,0.039067,0.155781,-17.491800,-33.224751,65.261429
1703161311.683898,1703161311.685074,29.000000,0.000000,4159.487305,4139.102539,4260.512695,4211.922852,4136.025879,4118.974121,4108.974121,4108.333496,4105.384766,4114.102539,4600.769043,4396.538574,4359.230957,4520.897461,0.000000,4.000000,80.000000,,,,0.000000,4.000000,4.000000,4.000000,4.000000,4.000000,4.000000,4.000000,4.000000,4.000000,4.000000,4.000000,4.000000,4.000000,4.000000,100.000000,,,,,,,,,,,,,,,,,,,,,,,,,,,,
1703161311.691706,1703161311.692982,30.000000,0.000000,4166.410156,4140.000000,4263.846191,4211.794922,4129.358887,4109.102539,4103.717773,4102.307617,4100.256348,4113.974121,4605.769043,4398.461426,4367.820313,4528.846191,0.000000,4.000000,80.000000,,,,0.000000,4.000000,4.000000,4.000000,4.000000,4.000000,4.000000,4.000000,4.000000,4.000000,4.000000,4.000000,4.000000,4.000000,4.000000,100.000000,,,,,,,,,,,,,,,,,,,,,,,,,,,,
