title:حازم يسار, start timestamp:1703493988.739448, stop timestamp:1703493999.420858, headset type:EPOCX, headset serial:E50206EF, headset firmware:720, channels:67, sampling rate:eeg_128;mot_32, samples:1369      , version:2.2, 
Timestamp,OriginalTimestamp,EEG.Counter,EEG.Interpolated,EEG.AF3,EEG.F7,EEG.F3,EEG.FC5,EEG.T7,EEG.P7,EEG.O1,EEG.O2,EEG.P8,EEG.T8,EEG.FC6,EEG.F4,EEG.F8,EEG.AF4,EEG.RawCq,EEG.Battery,EEG.BatteryPercent,MarkerIndex,MarkerType,MarkerValueInt,EEG.MarkerHardware,CQ.AF3,CQ.F7,CQ.F3,CQ.FC5,CQ.T7,CQ.P7,CQ.O1,CQ.O2,CQ.P8,CQ.T8,CQ.FC6,CQ.F4,CQ.F8,CQ.AF4,CQ.Overall,EQ.SampleRateQuality,EQ.OVERALL,EQ.AF3,EQ.F7,EQ.F3,EQ.FC5,EQ.T7,EQ.P7,EQ.O1,EQ.O2,EQ.P8,EQ.T8,EQ.FC6,EQ.F4,EQ.F8,EQ.AF4,MOT.CounterMems,MOT.InterpolatedMems,MOT.Q0,MOT.Q1,MOT.Q2,MOT.Q3,MOT.AccX,MOT.AccY,MOT.AccZ,MOT.MagX,MOT.MagY,MOT.MagZ
1703493988.739448,1703493988.739765,90.000000,0.000000,4260.512695,4268.717773,4309.743652,4292.179688,4247.563965,4244.487305,4241.922852,4229.487305,4221.666504,4202.051270,4504.230957,4453.589844,4383.333496,4439.871582,5953.000000,4.000000,82.000000,,,,0.000000,4.000000,4.000000,4.000000,4.000000,4.000000,4.000000,4.000000,4.000000,4.000000,4.000000,4.000000,4.000000,4.000000,4.000000,100.000000,,,,,,,,,,,,,,,,,,,,,,,,,,,,
1703493988.747256,1703493988.747473,91.000000,0.000000,4252.692383,4263.974121,4307.692383,4293.333496,4247.179688,4238.333496,4237.820313,4218.077148,4216.410156,4197.692383,4504.743652,4448.333496,4370.000000,4429.743652,6200.000000,4.000000,82.000000,,,,0.000000,4.000000,4.000000,4.000000,4.000000,4.000000,4.000000,4.000000,4.000000,4.000000,4.000000,4.000000,4.000000,4.000000,4.000000,100.000000,,,,,,,,,,,,,,,,,,,,,,,,,,,,
1703493988.755064,1703493988.755281,92.000000,0.000000,4256.794922,4265.128418,4312.051270,4293.205078,4245.641113,4231.410156,4233.589844,4214.230957,4212.563965,4198.974121,4506.538574,4450.512695,4369.102539,4434.871582,6457.000000,4.000000,82.000000,,,,0.000000,4.000000,4.000000,4.000000,4.000000,4.000000,4.000000,4.000000,4.000000,4.000000,4.000000,4.000000,4.000000,4.000000,4.000000,100.000000,,,,,,,,,,,,,,,,,23.000000,0.000000,0.370395,0.520935,-0.475342,0.604553,0.971798,-0.199243,0.054694,-12.477958,-48.559029,67.613571
1703493988.762872,1703493988.762989,93.000000,0.000000,4266.666504,4268.461426,4315.128418,4292.051270,4244.871582,4231.025879,4230.897461,4218.205078,4212.820313,4203.205078,4508.333496,4457.948730,4383.974121,4446.025879,6411.000000,4.000000,82.000000,,,,0.000000,4.000000,4.000000,4.000000,4.000000,4.000000,4.000000,4.000000,4.000000,4.000000,4.000000,4.000000,4.000000,4.000000,4.000000,100.000000,,,,,,,,,,,,,,,,,,,,,,,,,,,,
1703493988.770680,1703493988.770797,94.000000,0.000000,4264.358887,4267.692383,4315.000000,4293.974121,4254.230957,4233.974121,4230.769043,4217.692383,4209.615234,4207.051270,4515.000000,4459.743652,4383.717773,4446.538574,5953.000000,4.000000,82.000000,,,,0.000000,4.000000,4.000000,4.000000,4.000000,4.000000,4.000000,4.000000,4.000000,4.000000,4.000000,4.000000,4.000000,4.000000,4.000000,100.000000,1.000000,100.000000,4.000000,4.000000,4.000000,4.000000,4.000000,4.000000,4.000000,4.000000,4.000000,4.000000,4.000000,4.000000,4.000000,4.000000,,,,,,,,,,,,
1703493988.778488,1703493988.778505,95.000000,0.000000,4264.615234,4264.615234,4316.410156,4295.384766,4266.410156,4238.333496,4233.717773,4221.282227,4213.333496,4215.384766,4523.461426,4463.205078,4380.641113,4455.000000,6200.000000,4.000000,82.000000,,,,0.000000,4.000000,4.000000,4.000000,4.000000,4.000000,4.000000,4.000000,4.000000,4.000000,4.000000,4.000000,4.000000,4.000000,4.000000,100.000000,,,,,,,,,,,,,,,,,,,,,,,,,,,,
1703493988.786296,1703493988.786413,96.000000,0.000000,4270.641113,4268.077148,4319.487305,4294.230957,4264.615234,4240.769043,4236.666504,4231.153809,4224.615234,4220.000000,4524.102539,4467.820313,4375.769043,4464.102539,6457.000000,4.000000,82.000000,,,,0.000000,4.000000,4.000000,4.000000,4.000000,4.000000,4.000000,4.000000,4.000000,4.000000,4.000000,4.000000,4.000000,4.000000,4.000000,100.000000,,,,,,,,,,,,,,,,,24.000000,0.000000,0.370072,0.521301,-0.475037,0.604675,0.964962,-0.205103,0.062019,-12.496828,-48.386459,67.552216
1703493988.794104,1703493988.794221,97.000000,0.000000,4268.974121,4278.717773,4320.641113,4297.051270,4251.794922,4240.256348,4234.615234,4231.794922,4232.307617,4216.410156,4520.641113,4467.563965,4365.256348,4458.846191,6411.000000,4.000000,82.000000,,,,0.000000,4.000000,4.000000,4.000000,4.000000,4.000000,4.000000,4.000000,4.000000,4.000000,4.000000,4.000000,4.000000,4.000000,4.000000,100.000000,,,,,,,,,,,,,,,,,,,,,,,,,,,,
1703493988.801912,1703493988.802129,98.000000,0.000000,4268.461426,4278.846191,4317.820313,4299.743652,4248.461426,4241.922852,4233.846191,4231.794922,4240.384766,4222.436035,4525.000000,4468.461426,4368.846191,4460.128418,5953.000000,4.000000,82.000000,,,,0.000000,4.000000,4.000000,4.000000,4.000000,4.000000,4.000000,4.000000,4.000000,4.000000,4.000000,4.000000,4.000000,4.000000,4.000000,100.000000,,,,,,,,,,,,,,,,,,,,,,,,,,,,
1703493988.809720,1703493988.809938,99.000000,0.000000,4265.897461,4264.743652,4313.846191,4292.436035,4258.461426,4245.000000,4241.282227,4241.666504,4248.333496,4235.512695,4527.436035,4468.333496,4370.256348,4459.871582,6200.000000,4.000000,82.000000,,,,0.000000,4.000000,4.000000,4.000000,4.000000,4.000000,4.000000,4.000000,4.000000,4.000000,4.000000,4.000000,4.000000,4.000000,4.000000,100.000000,,,,,,,,,,,,,,,,,,,,,,,,,,,,
1703493988.817528,1703493988.817846,100.000000,0.000000,4259.102539,4259.358887,4312.179688,4287.820313,4264.487305,4245.897461,4248.589844,4246.922852,4250.384766,4236.410156,4526.538574,4466.282227,4365.512695,4450.000000,6457.000000,4.000000,82.000000,,,,0.000000,4.000000,4.000000,4.000000,4.000000,4.000000,4.000000,4.000000,4.000000,4.000000,4.000000,4.000000,4.000000,4.000000,4.000000,100.000000,,,,,,,,,,,,,,,,,25.000000,0.000000,0.369769,0.521667,-0.474792,0.604736,0.971798,-0.209010,0.061531,-12.647145,-48.397812,67.496994
1703493988.825337,1703493988.825654,101.000000,0.000000,4261.666504,4263.589844,4316.922852,4294.743652,4263.846191,4247.820313,4249.230957,4246.153809,4251.922852,4238.205078,4538.589844,4474.487305,4378.333496,4457.307617,6411.000000,4.000000,82.000000,,,,0.000000,4.000000,4.000000,4.000000,4.000000,4.000000,4.000000,4.000000,4.000000,4.000000,4.000000,4.000000,4.000000,4.000000,4.000000,100.000000,,,,,,,,,,,,,,,,,,,,,,,,,,,,
1703493988.833145,1703493988.833562,102.000000,0.000000,4264.102539,4260.769043,4319.230957,4299.487305,4266.025879,4249.871582,4248.974121,4243.846191,4251.538574,4242.563965,4544.871582,4480.512695,4381.153809,4464.102539,5953.000000,4.000000,82.000000,,,,0.000000,4.000000,4.000000,4.000000,4.000000,4.000000,4.000000,4.000000,4.000000,4.000000,4.000000,4.000000,4.000000,4.000000,4.000000,100.000000,,,,,,,,,,,,,,,,,,,,,,,,,,,,
1703493988.840953,1703493988.841370,103.000000,0.000000,4260.128418,4264.487305,4315.384766,4296.538574,4267.179688,4247.436035,4248.589844,4234.230957,4237.051270,4235.512695,4528.717773,4468.205078,4362.692383,4452.436035,6200.000000,4.000000,82.000000,,,,0.000000,4.000000,4.000000,4.000000,4.000000,4.000000,4.000000,4.000000,4.000000,4.000000,4.000000,4.000000,4.000000,4.000000,4.000000,100.000000,,,,,,,,,,,,,,,,,,,,,,,,,,,,
1703493988.848761,1703493988.849278,104.000000,0.000000,4259.487305,4272.820313,4314.230957,4298.717773,4263.077148,4245.256348,4244.871582,4227.051270,4225.128418,4226.922852,4519.230957,4457.051270,4357.948730,4449.487305,6457.000000,4.000000,82.000000,,,,0.000000,4.000000,4.000000,4.000000,4.000000,4.000000,4.000000,4.000000,4.000000,4.000000,4.000000,4.000000,4.000000,4.000000,4.000000,100.000000,,,,,,,,,,,,,,,,,26.000000,0.000000,0.369689,0.521851,-0.474731,0.604675,0.951776,-0.214870,0.063973,-12.815764,-48.291363,67.480629
1703493988.856569,1703493988.857086,105.000000,0.000000,4265.128418,4271.153809,4320.128418,4309.102539,4264.743652,4246.922852,4244.743652,4229.102539,4228.974121,4227.179688,4529.358887,4464.358887,4367.051270,4458.589844,6411.000000,4.000000,82.000000,,,,0.000000,4.000000,4.000000,4.000000,4.000000,4.000000,4.000000,4.000000,4.000000,4.000000,4.000000,4.000000,4.000000,4.000000,4.000000,100.000000,,,,,,,,,,,,,,,,,,,,,,,,,,,,
1703493988.864377,1703493988.864994,106.000000,0.000000,4273.461426,4270.256348,4322.179688,4314.743652,4266.282227,4250.000000,4246.794922,4233.717773,4231.922852,4232.820313,4538.717773,4472.436035,4369.743652,4462.948730,5953.000000,4.000000,82.000000,,,,0.000000,4.000000,4.000000,4.000000,4.000000,4.000000,4.000000,4.000000,4.000000,4.000000,4.000000,4.000000,4.000000,4.000000,4.000000,100.000000,,,,,,,,,,,,,,,,,,,,,,,,,,,,
1703493988.872185,1703493988.872802,107.000000,0.000000,4278.974121,4276.794922,4320.256348,4313.333496,4264.615234,4250.256348,4246.153809,4241.153809,4235.512695,4242.436035,4546.794922,4473.333496,4371.666504,4467.948730,6200.000000,4.000000,82.000000,,,,0.000000,4.000000,4.000000,4.000000,4.000000,4.000000,4.000000,4.000000,4.000000,4.000000,4.000000,4.000000,4.000000,4.000000,4.000000,100.000000,,,,,,,,,,,,,,,,,,,,,,,,,,,,
1703493988.879993,1703493988.880710,108.000000,0.000000,4273.717773,4279.358887,4320.128418,4313.205078,4271.794922,4251.025879,4245.384766,4249.487305,4246.282227,4250.897461,4550.769043,4476.794922,4375.897461,4470.512695,6457.000000,4.000000,82.000000,,,,0.000000,4.000000,4.000000,4.000000,4.000000,4.000000,4.000000,4.000000,4.000000,4.000000,4.000000,4.000000,4.000000,4.000000,4.000000,100.000000,,,,,,,,,,,,,,,,,27.000000,0.000000,0.369638,0.521912,-0.474548,0.604797,0.966427,-0.195825,0.053717,-12.684188,-48.178894,67.499229
1703493988.887801,1703493988.888518,109.000000,0.000000,4262.820313,4271.410156,4317.051270,4312.179688,4275.769043,4251.794922,4246.538574,4247.820313,4248.333496,4246.922852,4540.897461,4476.410156,4368.205078,4457.820313,6411.000000,4.000000,82.000000,,,,0.000000,4.000000,4.000000,4.000000,4.000000,4.000000,4.000000,4.000000,4.000000,4.000000,4.000000,4.000000,4.000000,4.000000,4.000000,100.000000,,,,,,,,,,,,,,,,,,,,,,,,,,,,
1703493988.895609,1703493988.896226,110.000000,0.000000,4260.384766,4267.436035,4316.282227,4310.769043,4267.436035,4249.743652,4251.410156,4247.051270,4248.974121,4245.000000,4536.025879,4471.666504,4359.487305,4451.794922,5953.000000,4.000000,82.000000,,,,0.000000,4.000000,4.000000,4.000000,4.000000,4.000000,4.000000,4.000000,4.000000,4.000000,4.000000,4.000000,4.000000,4.000000,4.000000,100.000000,,,,,,,,,,,,,,,,,,,,,,,,,,,,
1703493988.903417,1703493988.904034,111.000000,0.000000,4265.000000,4273.333496,4315.897461,4308.205078,4263.461426,4250.128418,4254.743652,4251.666504,4258.205078,4252.820313,4542.692383,4472.179688,4366.538574,4461.794922,6200.000000,4.000000,82.000000,,,,0.000000,4.000000,4.000000,4.000000,4.000000,4.000000,4.000000,4.000000,4.000000,4.000000,4.000000,4.000000,4.000000,4.000000,4.000000,100.000000,,,,,,,,,,,,,,,,,,,,,,,,,,,,
1703493988.911225,1703493988.911742,112.000000,0.000000,4262.051270,4276.922852,4310.128418,4301.025879,4266.410156,4251.025879,4251.666504,4249.358887,4255.256348,4248.846191,4540.384766,4471.538574,4368.333496,4459.743652,6457.000000,4.000000,82.000000,,,,0.000000,4.000000,4.000000,4.000000,4.000000,4.000000,4.000000,4.000000,4.000000,4.000000,4.000000,4.000000,4.000000,4.000000,4.000000,100.000000,,,,,,,,,,,,,,,,,28.000000,0.000000,0.369579,0.522095,-0.474548,0.604675,0.980588,-0.214870,0.060554,-12.782435,-48.194340,67.599312
1703493988.919033,1703493988.919550,113.000000,0.000000,4255.256348,4271.922852,4308.717773,4294.358887,4262.563965,4246.794922,4247.563965,4243.589844,4244.871582,4238.717773,4534.615234,4467.436035,4358.077148,4451.025879,6411.000000,4.000000,82.000000,,,,0.000000,4.000000,4.000000,4.000000,4.000000,4.000000,4.000000,4.000000,4.000000,4.000000,4.000000,4.000000,4.000000,4.000000,4.000000,100.000000,,,,,,,,,,,,,,,,,,,,,,,,,,,,
1703493988.926841,1703493988.927258,114.000000,0.000000,4254.871582,4257.179688,4313.846191,4291.922852,4256.538574,4243.846191,4248.205078,4240.128418,4243.205078,4241.538574,4540.256348,4472.179688,4362.563965,4455.256348,5953.000000,4.000000,82.000000,,,,0.000000,4.000000,4.000000,4.000000,4.000000,4.000000,4.000000,4.000000,4.000000,4.000000,4.000000,4.000000,4.000000,4.000000,4.000000,100.000000,,,,,,,,,,,,,,,,,,,,,,,,,,,,
1703493988.934649,1703493988.935166,115.000000,0.000000,4260.641113,4252.307617,4318.846191,4294.871582,4259.358887,4246.153809,4248.077148,4236.410156,4238.846191,4244.487305,4545.128418,4478.974121,4378.205078,4463.717773,6200.000000,4.000000,82.000000,,,,0.000000,4.000000,4.000000,4.000000,4.000000,4.000000,4.000000,4.000000,4.000000,4.000000,4.000000,4.000000,4.000000,4.000000,4.000000,100.000000,,,,,,,,,,,,,,,,,,,,,,,,,,,,
1703493988.942457,1703493988.942975,116.000000,0.000000,4263.333496,4270.641113,4317.563965,4305.000000,4265.000000,4247.948730,4244.871582,4233.717773,4229.871582,4234.358887,4540.256348,4470.000000,4367.307617,4457.948730,6457.000000,4.000000,82.000000,,,,0.000000,4.000000,4.000000,4.000000,4.000000,4.000000,4.000000,4.000000,4.000000,4.000000,4.000000,4.000000,4.000000,4.000000,4.000000,100.000000,,,,,,,,,,,,,,,,,29.000000,0.000000,0.369544,0.522034,-0.474487,0.604797,0.955683,-0.212428,0.058113,-12.570859,-48.174904,67.522713
1703493988.950265,1703493988.950883,117.000000,0.000000,4263.077148,4282.820313,4313.717773,4313.461426,4266.794922,4248.461426,4243.205078,4232.179688,4229.358887,4228.974121,4532.948730,4459.358887,4345.000000,4447.692383,6411.000000,4.000000,82.000000,,,,0.000000,4.000000,4.000000,4.000000,4.000000,4.000000,4.000000,4.000000,4.000000,4.000000,4.000000,4.000000,4.000000,4.000000,4.000000,100.000000,,,,,,,,,,,,,,,,,,,,,,,,,,,,
1703493988.958073,1703493988.958691,118.000000,0.000000,4263.974121,4272.563965,4314.615234,4311.410156,4262.692383,4249.230957,4243.077148,4231.025879,4232.436035,4234.871582,4534.102539,4466.410156,4350.128418,4450.641113,5953.000000,4.000000,82.000000,,,,0.000000,4.000000,4.000000,4.000000,4.000000,4.000000,4.000000,4.000000,4.000000,4.000000,4.000000,4.000000,4.000000,4.000000,4.000000,100.000000,,,,,,,,,,,,,,,,,,,,,,,,,,,,
1703493988.965881,1703493988.966499,119.000000,0.000000,4265.000000,4268.461426,4316.922852,4308.333496,4261.666504,4249.102539,4244.615234,4232.179688,4232.436035,4236.794922,4539.102539,4475.769043,4367.051270,4459.615234,6200.000000,4.000000,82.000000,,,,0.000000,4.000000,4.000000,4.000000,4.000000,4.000000,4.000000,4.000000,4.000000,4.000000,4.000000,4.000000,4.000000,4.000000,4.000000,100.000000,,,,,,,,,,,,,,,,,,,,,,,,,,,,
1703493988.973689,1703493988.974207,120.000000,0.000000,4265.256348,4272.307617,4317.563965,4310.769043,4267.820313,4248.461426,4244.743652,4234.230957,4230.769043,4233.077148,4537.436035,4473.205078,4367.820313,4461.666504,6457.000000,4.000000,82.000000,,,,0.000000,4.000000,4.000000,4.000000,4.000000,4.000000,4.000000,4.000000,4.000000,4.000000,4.000000,4.000000,4.000000,4.000000,4.000000,100.000000,,,,,,,,,,,,,,,,,30.000000,0.000000,0.369393,0.522095,-0.474304,0.604980,0.970822,-0.210475,0.066903,-12.763773,-48.157413,67.537109
1703493988.981497,1703493988.982015,121.000000,0.000000,4263.077148,4263.846191,4318.461426,4308.717773,4263.846191,4248.077148,4246.025879,4232.563965,4229.230957,4230.000000,4534.487305,4468.717773,4354.615234,4456.025879,6411.000000,4.000000,82.000000,,,,0.000000,4.000000,4.000000,4.000000,4.000000,4.000000,4.000000,4.000000,4.000000,4.000000,4.000000,4.000000,4.000000,4.000000,4.000000,100.000000,,,,,,,,,,,,,,,,,,,,,,,,,,,,
1703493988.989306,1703493988.989723,122.000000,0.000000,4259.230957,4261.153809,4318.077148,4305.897461,4250.000000,4248.461426,4247.436035,4235.128418,4236.922852,4233.461426,4537.051270,4467.948730,4354.615234,4456.282227,5953.000000,4.000000,82.000000,,,,0.000000,4.000000,4.000000,4.000000,4.000000,4.000000,4.000000,4.000000,4.000000,4.000000,4.000000,4.000000,4.000000,4.000000,4.000000,100.000000,,,,,,,,,,,,,,,,,,,,,,,,,,,,
1703493988.997114,1703493988.997631,123.000000,0.000000,4253.717773,4263.461426,4314.871582,4305.641113,4252.692383,4249.871582,4246.922852,4241.794922,4247.051270,4236.538574,4538.589844,4469.487305,4361.794922,4457.820313,6200.000000,4.000000,82.000000,,,,0.000000,4.000000,4.000000,4.000000,4.000000,4.000000,4.000000,4.000000,4.000000,4.000000,4.000000,4.000000,4.000000,4.000000,4.000000,100.000000,,,,,,,,,,,,,,,,,,,,,,,,,,,,
1703493989.004922,1703493989.005439,124.000000,0.000000,4248.717773,4260.128418,4310.256348,4307.179688,4267.179688,4248.974121,4248.205078,4241.410156,4248.846191,4233.589844,4536.153809,4468.589844,4356.538574,4450.256348,6457.000000,4.000000,82.000000,,,,0.000000,4.000000,4.000000,4.000000,4.000000,4.000000,4.000000,4.000000,4.000000,4.000000,4.000000,4.000000,4.000000,4.000000,4.000000,100.000000,,,,,,,,,,,,,,,,,31.000000,0.000000,0.369191,0.522278,-0.474182,0.605042,0.956171,-0.209010,0.053229,-12.754063,-48.191673,67.566727
1703493989.012730,1703493989.013347,125.000000,0.000000,4249.230957,4264.358887,4308.589844,4311.794922,4266.282227,4247.820313,4249.102539,4235.384766,4249.615234,4237.436035,4535.641113,4466.794922,4351.410156,4447.820313,6411.000000,4.000000,82.000000,,,,0.000000,4.000000,4.000000,4.000000,4.000000,4.000000,4.000000,4.000000,4.000000,4.000000,4.000000,4.000000,4.000000,4.000000,4.000000,100.000000,,,,,,,,,,,,,,,,,,,,,,,,,,,,
1703493989.020538,1703493989.021155,126.000000,0.000000,4250.769043,4265.384766,4310.512695,4307.948730,4259.743652,4249.230957,4247.820313,4233.974121,4246.922852,4242.436035,4537.051270,4468.589844,4355.769043,4454.230957,5953.000000,4.000000,82.000000,,,,0.000000,4.000000,4.000000,4.000000,4.000000,4.000000,4.000000,4.000000,4.000000,4.000000,4.000000,4.000000,4.000000,4.000000,4.000000,100.000000,,,,,,,,,,,,,,,,,,,,,,,,,,,,
1703493989.028346,1703493989.029063,127.000000,0.000000,4249.615234,4258.717773,4309.487305,4299.487305,4261.025879,4249.743652,4245.128418,4234.615234,4237.436035,4238.333496,4538.717773,4467.563965,4356.794922,4459.358887,82.000000,4.000000,82.000000,,,,0.000000,4.000000,4.000000,4.000000,4.000000,4.000000,4.000000,4.000000,4.000000,4.000000,4.000000,4.000000,4.000000,4.000000,4.000000,100.000000,,,,,,,,,,,,,,,,,,,,,,,,,,,,
1703493989.036154,1703493989.036871,0.000000,0.000000,4249.871582,4262.051270,4307.820313,4300.384766,4260.000000,4248.077148,4241.538574,4230.000000,4232.436035,4232.436035,4538.333496,4458.974121,4349.102539,4456.794922,4505.000000,4.000000,82.000000,,,,0.000000,4.000000,4.000000,4.000000,4.000000,4.000000,4.000000,4.000000,4.000000,4.000000,4.000000,4.000000,4.000000,4.000000,4.000000,100.000000,,,,,,,,,,,,,,,,,0.000000,0.000000,0.369059,0.522522,-0.473938,0.605103,0.961543,-0.201685,0.062508,-12.745322,-48.139172,67.593391
1703493989.043962,1703493989.044779,1.000000,0.000000,4250.256348,4266.153809,4308.461426,4300.128418,4255.512695,4247.820313,4236.666504,4221.922852,4229.743652,4227.307617,4530.641113,4453.077148,4339.102539,4449.358887,5462.000000,4.000000,82.000000,,,,0.000000,4.000000,4.000000,4.000000,4.000000,4.000000,4.000000,4.000000,4.000000,4.000000,4.000000,4.000000,4.000000,4.000000,4.000000,100.000000,,,,,,,,,,,,,,,,,,,,,,,,,,,,
1703493989.051770,1703493989.052587,2.000000,0.000000,4249.102539,4259.615234,4307.179688,4293.589844,4252.820313,4246.922852,4233.205078,4217.692383,4218.077148,4215.512695,4515.769043,4452.307617,4327.307617,4440.769043,5505.000000,4.000000,82.000000,,,,0.000000,4.000000,4.000000,4.000000,4.000000,4.000000,4.000000,4.000000,4.000000,4.000000,4.000000,4.000000,4.000000,4.000000,4.000000,100.000000,,,,,,,,,,,,,,,,,,,,,,,,,,,,
1703493989.059578,1703493989.060495,3.000000,0.000000,4257.948730,4265.641113,4312.179688,4300.897461,4249.230957,4246.025879,4235.512695,4223.205078,4214.871582,4213.205078,4519.615234,4460.128418,4336.153809,4449.230957,5529.000000,4.000000,82.000000,,,,0.000000,4.000000,4.000000,4.000000,4.000000,4.000000,4.000000,4.000000,4.000000,4.000000,4.000000,4.000000,4.000000,4.000000,4.000000,100.000000,,,,,,,,,,,,,,,,,,,,,,,,,,,,
1703493989.067386,1703493989.068404,4.000000,0.000000,4274.871582,4284.230957,4320.897461,4311.794922,4246.282227,4242.307617,4235.897461,4229.230957,4228.205078,4228.717773,4546.025879,4476.153809,4366.538574,4475.512695,5325.000000,4.000000,82.000000,,,,0.000000,4.000000,4.000000,4.000000,4.000000,4.000000,4.000000,4.000000,4.000000,4.000000,4.000000,4.000000,4.000000,4.000000,4.000000,100.000000,,,,,,,,,,,,,,,,,1.000000,0.000000,0.368972,0.522522,-0.473694,0.605347,0.983518,-0.202661,0.056648,-12.670791,-48.241920,67.467384
1703493989.075194,1703493989.076212,5.000000,0.000000,4276.025879,4271.922852,4319.487305,4300.256348,4246.282227,4234.743652,4233.205078,4229.487305,4232.436035,4236.538574,4554.743652,4480.641113,4375.000000,4484.358887,4749.000000,4.000000,82.000000,,,,0.000000,4.000000,4.000000,4.000000,4.000000,4.000000,4.000000,4.000000,4.000000,4.000000,4.000000,4.000000,4.000000,4.000000,4.000000,100.000000,,,,,,,,,,,,,,,,,,,,,,,,,,,,
1703493989.083002,1703493989.084020,6.000000,0.000000,4263.333496,4245.641113,4314.358887,4287.692383,4247.436035,4232.051270,4239.358887,4229.487305,4222.436035,4228.461426,4541.922852,4475.256348,4358.461426,4471.282227,4482.000000,4.000000,82.000000,,,,0.000000,4.000000,4.000000,4.000000,4.000000,4.000000,4.000000,4.000000,4.000000,4.000000,4.000000,4.000000,4.000000,4.000000,4.000000,100.000000,,,,,,,,,,,,,,,,,,,,,,,,,,,,
1703493989.090810,1703493989.091728,7.000000,0.000000,4257.179688,4252.179688,4314.102539,4291.794922,4246.794922,4236.282227,4248.077148,4224.871582,4216.410156,4217.307617,4533.333496,4473.205078,4345.128418,4463.717773,3999.000000,4.000000,82.000000,,,,0.000000,4.000000,4.000000,4.000000,4.000000,4.000000,4.000000,4.000000,4.000000,4.000000,4.000000,4.000000,4.000000,4.000000,4.000000,100.000000,,,,,,,,,,,,,,,,,,,,,,,,,,,,
1703493989.098618,1703493989.099536,8.000000,0.000000,4255.384766,4262.948730,4312.692383,4290.128418,4244.871582,4235.128418,4242.436035,4216.025879,4216.153809,4212.051270,4527.692383,4469.487305,4340.641113,4459.358887,5026.000000,4.000000,82.000000,,,,0.000000,4.000000,4.000000,4.000000,4.000000,4.000000,4.000000,4.000000,4.000000,4.000000,4.000000,4.000000,4.000000,4.000000,4.000000,100.000000,,,,,,,,,,,,,,,,,2.000000,0.000000,0.368877,0.522644,-0.473633,0.605347,0.965938,-0.202661,0.063484,-12.537045,-48.317730,67.420647
1703493989.106426,1703493989.107245,9.000000,0.000000,4245.512695,4249.615234,4307.051270,4280.256348,4245.384766,4234.102539,4230.769043,4215.000000,4216.153809,4213.333496,4521.153809,4458.974121,4333.461426,4447.179688,5599.000000,4.000000,82.000000,,,,0.000000,4.000000,4.000000,4.000000,4.000000,4.000000,4.000000,4.000000,4.000000,4.000000,4.000000,4.000000,4.000000,4.000000,4.000000,100.000000,,,,,,,,,,,,,,,,,,,,,,,,,,,,
1703493989.114234,1703493989.115053,10.000000,0.000000,4234.871582,4246.282227,4306.410156,4280.128418,4247.051270,4241.153809,4230.512695,4217.051270,4216.922852,4217.051270,4521.025879,4453.589844,4334.871582,4439.743652,5955.000000,4.000000,82.000000,,,,0.000000,4.000000,4.000000,4.000000,4.000000,4.000000,4.000000,4.000000,4.000000,4.000000,4.000000,4.000000,4.000000,4.000000,4.000000,100.000000,,,,,,,,,,,,,,,,,,,,,,,,,,,,
1703493989.122042,1703493989.122761,11.000000,0.000000,4231.794922,4248.077148,4304.871582,4281.025879,4247.179688,4243.461426,4231.922852,4215.897461,4224.358887,4217.820313,4523.461426,4452.563965,4348.333496,4441.666504,6200.000000,4.000000,82.000000,,,,0.000000,4.000000,4.000000,4.000000,4.000000,4.000000,4.000000,4.000000,4.000000,4.000000,4.000000,4.000000,4.000000,4.000000,4.000000,100.000000,,,,,,,,,,,,,,,,,,,,,,,,,,,,
1703493989.129851,1703493989.130569,12.000000,0.000000,4230.897461,4235.384766,4294.230957,4275.128418,4248.205078,4241.794922,4231.666504,4221.794922,4236.153809,4216.922852,4520.256348,4444.743652,4344.102539,4436.666504,6457.000000,4.000000,82.000000,,,,0.000000,4.000000,4.000000,4.000000,4.000000,4.000000,4.000000,4.000000,4.000000,4.000000,4.000000,4.000000,4.000000,4.000000,4.000000,100.000000,,,,,,,,,,,,,,,,,3.000000,0.000000,0.368593,0.522522,-0.473755,0.605530,0.964962,-0.214382,0.067879,-12.700006,-48.319290,67.478584
1703493989.137658,1703493989.138277,13.000000,0.000000,4228.205078,4240.000000,4287.436035,4275.512695,4248.974121,4246.153809,4238.461426,4231.025879,4244.358887,4222.563965,4517.436035,4437.307617,4326.153809,4424.615234,6411.000000,4.000000,82.000000,,,,0.000000,4.000000,4.000000,4.000000,4.000000,4.000000,4.000000,4.000000,4.000000,4.000000,4.000000,4.000000,4.000000,4.000000,4.000000,100.000000,,,,,,,,,,,,,,,,,,,,,,,,,,,,
1703493989.145466,1703493989.146085,14.000000,0.000000,4231.666504,4264.102539,4289.230957,4280.384766,4249.230957,4248.461426,4246.410156,4234.487305,4253.717773,4233.077148,4522.820313,4439.743652,4340.384766,4431.538574,5955.000000,4.000000,82.000000,,,,0.000000,4.000000,4.000000,4.000000,4.000000,4.000000,4.000000,4.000000,4.000000,4.000000,4.000000,4.000000,4.000000,4.000000,4.000000,100.000000,,,,,,,,,,,,,,,,,,,,,,,,,,,,
1703493989.153275,1703493989.153792,15.000000,0.000000,4242.948730,4266.410156,4294.230957,4278.974121,4249.487305,4246.666504,4246.666504,4239.743652,4259.487305,4240.000000,4537.436035,4454.230957,4368.077148,4453.846191,6200.000000,4.000000,82.000000,,,,0.000000,4.000000,4.000000,4.000000,4.000000,4.000000,4.000000,4.000000,4.000000,4.000000,4.000000,4.000000,4.000000,4.000000,4.000000,100.000000,,,,,,,,,,,,,,,,,,,,,,,,,,,,
1703493989.161083,1703493989.161600,16.000000,0.000000,4252.307617,4255.256348,4305.000000,4278.589844,4250.769043,4245.641113,4245.256348,4244.487305,4254.871582,4243.461426,4550.384766,4472.307617,4367.692383,4464.615234,0.000000,4.000000,82.000000,,,,0.000000,4.000000,4.000000,4.000000,4.000000,4.000000,4.000000,4.000000,4.000000,4.000000,4.000000,4.000000,4.000000,4.000000,4.000000,100.000000,,,,,,,,,,,,,,,,,4.000000,0.000000,0.368216,0.522339,-0.473938,0.605774,0.971798,-0.209987,0.063973,-12.763340,-48.320694,67.364059
1703493989.168891,1703493989.169308,17.000000,0.000000,4260.256348,4256.153809,4320.641113,4281.666504,4246.282227,4239.743652,4247.563965,4240.897461,4250.897461,4250.256348,4555.384766,4485.512695,4372.563965,4468.974121,0.000000,4.000000,82.000000,,,,0.000000,4.000000,4.000000,4.000000,4.000000,4.000000,4.000000,4.000000,4.000000,4.000000,4.000000,4.000000,4.000000,4.000000,4.000000,100.000000,,,,,,,,,,,,,,,,,,,,,,,,,,,,
1703493989.176699,1703493989.177116,18.000000,0.000000,4266.410156,4252.692383,4326.153809,4277.051270,4232.307617,4230.128418,4242.051270,4234.743652,4246.025879,4249.358887,4559.871582,4489.230957,4385.897461,4480.000000,0.000000,4.000000,82.000000,,,,0.000000,4.000000,4.000000,4.000000,4.000000,4.000000,4.000000,4.000000,4.000000,4.000000,4.000000,4.000000,4.000000,4.000000,4.000000,100.000000,,,,,,,,,,,,,,,,,,,,,,,,,,,,
1703493989.184507,1703493989.184824,19.000000,0.000000,4265.641113,4245.128418,4321.025879,4277.307617,4226.666504,4227.948730,4234.487305,4233.205078,4234.871582,4236.794922,4556.794922,4485.641113,4372.179688,4479.871582,0.000000,4.000000,82.000000,,,,0.000000,4.000000,4.000000,4.000000,4.000000,4.000000,4.000000,4.000000,4.000000,4.000000,4.000000,4.000000,4.000000,4.000000,4.000000,100.000000,,,,,,,,,,,,,,,,,,,,,,,,,,,,
1703493989.192315,1703493989.192732,20.000000,0.000000,4260.641113,4256.153809,4317.563965,4291.282227,4240.000000,4232.051270,4238.717773,4231.153809,4230.128418,4230.512695,4544.871582,4479.102539,4358.077148,4463.461426,0.000000,4.000000,82.000000,,,,0.000000,4.000000,4.000000,4.000000,4.000000,4.000000,4.000000,4.000000,4.000000,4.000000,4.000000,4.000000,4.000000,4.000000,4.000000,100.000000,,,,,,,,,,,,,,,,,5.000000,0.000000,0.368037,0.522339,-0.473999,0.605835,0.975705,-0.215847,0.075693,-12.587006,-48.155293,67.260986
1703493989.200123,1703493989.200540,21.000000,0.000000,4254.871582,4268.717773,4313.717773,4297.179688,4250.256348,4239.358887,4243.846191,4229.358887,4234.358887,4235.128418,4540.897461,4473.461426,4368.846191,4458.205078,0.000000,4.000000,82.000000,,,,0.000000,4.000000,4.000000,4.000000,4.000000,4.000000,4.000000,4.000000,4.000000,4.000000,4.000000,4.000000,4.000000,4.000000,4.000000,100.000000,,,,,,,,,,,,,,,,,,,,,,,,,,,,
1703493989.207931,1703493989.208448,22.000000,0.000000,4250.256348,4260.769043,4307.179688,4291.025879,4244.743652,4243.461426,4241.282227,4228.077148,4231.025879,4230.641113,4540.641113,4471.666504,4365.897461,4461.153809,0.000000,4.000000,82.000000,,,,0.000000,4.000000,4.000000,4.000000,4.000000,4.000000,4.000000,4.000000,4.000000,4.000000,4.000000,4.000000,4.000000,4.000000,4.000000,100.000000,,,,,,,,,,,,,,,,,,,,,,,,,,,,
1703493989.215739,1703493989.216256,23.000000,0.000000,4248.461426,4255.769043,4305.000000,4289.102539,4242.051270,4242.051270,4242.051270,4227.436035,4226.922852,4217.051270,4535.641113,4470.384766,4344.871582,4452.179688,0.000000,4.000000,82.000000,,,,0.000000,4.000000,4.000000,4.000000,4.000000,4.000000,4.000000,4.000000,4.000000,4.000000,4.000000,4.000000,4.000000,4.000000,4.000000,100.000000,,,,,,,,,,,,,,,,,,,,,,,,,,,,
1703493989.223547,1703493989.224164,24.000000,0.000000,4244.871582,4263.333496,4304.358887,4289.230957,4244.615234,4242.820313,4245.897461,4230.000000,4230.641113,4214.743652,4535.384766,4471.282227,4344.358887,4442.948730,0.000000,4.000000,82.000000,,,,0.000000,4.000000,4.000000,4.000000,4.000000,4.000000,4.000000,4.000000,4.000000,4.000000,4.000000,4.000000,4.000000,4.000000,4.000000,100.000000,,,,,,,,,,,,,,,,,6.000000,0.000000,0.367737,0.522156,-0.474121,0.606079,0.976193,-0.208522,0.076181,-12.728305,-48.239761,67.318222
1703493989.231355,1703493989.231973,25.000000,0.000000,4235.256348,4251.410156,4297.948730,4275.897461,4239.487305,4244.230957,4243.205078,4232.563965,4228.974121,4216.282227,4534.487305,4466.282227,4351.922852,4445.000000,0.000000,4.000000,82.000000,,,,0.000000,4.000000,4.000000,4.000000,4.000000,4.000000,4.000000,4.000000,4.000000,4.000000,4.000000,4.000000,4.000000,4.000000,4.000000,100.000000,,,,,,,,,,,,,,,,,,,,,,,,,,,,
1703493989.239163,1703493989.239881,26.000000,0.000000,4226.538574,4232.307617,4293.717773,4264.615234,4238.974121,4244.358887,4243.974121,4230.128418,4229.230957,4210.512695,4519.102539,4453.846191,4339.743652,4441.282227,0.000000,4.000000,82.000000,,,,0.000000,4.000000,4.000000,4.000000,4.000000,4.000000,4.000000,4.000000,4.000000,4.000000,4.000000,4.000000,4.000000,4.000000,4.000000,100.000000,,,,,,,,,,,,,,,,,,,,,,,,,,,,
1703493989.246971,1703493989.247689,27.000000,0.000000,4226.538574,4235.384766,4295.128418,4269.871582,4245.769043,4248.717773,4247.692383,4230.384766,4241.410156,4211.153809,4516.538574,4453.974121,4335.897461,4437.179688,0.000000,4.000000,82.000000,,,,0.000000,4.000000,4.000000,4.000000,4.000000,4.000000,4.000000,4.000000,4.000000,4.000000,4.000000,4.000000,4.000000,4.000000,4.000000,100.000000,,,,,,,,,,,,,,,,,,,,,,,,,,,,
1703493989.254779,1703493989.255597,28.000000,0.000000,4232.692383,4238.333496,4294.871582,4272.179688,4243.205078,4251.922852,4246.282227,4240.897461,4250.128418,4224.358887,4536.666504,4466.538574,4353.077148,4446.666504,0.000000,4.000000,82.000000,,,,0.000000,4.000000,4.000000,4.000000,4.000000,4.000000,4.000000,4.000000,4.000000,4.000000,4.000000,4.000000,4.000000,4.000000,4.000000,100.000000,,,,,,,,,,,,,,,,,7.000000,0.000000,0.367270,0.522217,-0.474182,0.606262,0.970822,-0.216823,0.066414,-12.688807,-48.299118,67.353065
1703493989.262587,1703493989.263405,29.000000,0.000000,4229.871582,4226.153809,4292.948730,4262.563965,4241.538574,4248.333496,4247.692383,4246.282227,4248.333496,4231.666504,4543.717773,4468.717773,4357.563965,4447.948730,0.000000,4.000000,82.000000,,,,0.000000,4.000000,4.000000,4.000000,4.000000,4.000000,4.000000,4.000000,4.000000,4.000000,4.000000,4.000000,4.000000,4.000000,4.000000,100.000000,,,,,,,,,,,,,,,,,,,,,,,,,,,,
1703493989.270395,1703493989.271113,30.000000,0.000000,4228.333496,4233.461426,4293.846191,4259.871582,4242.692383,4247.692383,4246.666504,4244.102539,4245.128418,4230.128418,4543.717773,4465.128418,4359.871582,4446.922852,0.000000,4.000000,82.000000,,,,0.000000,4.000000,4.000000,4.000000,4.000000,4.000000,4.000000,4.000000,4.000000,4.000000,4.000000,4.000000,4.000000,4.000000,4.000000,100.000000,1.000000,100.000000,4.000000,4.000000,4.000000,4.000000,4.000000,4.000000,4.000000,4.000000,4.000000,4.000000,4.000000,4.000000,4.000000,4.000000,,,,,,,,,,,,
1703493989.278203,1703493989.278921,31.000000,0.000000,4243.974121,4259.487305,4299.230957,4267.948730,4240.000000,4249.487305,4236.153809,4244.102539,4242.436035,4235.000000,4558.077148,4469.615234,4381.922852,4460.897461,0.000000,4.000000,82.000000,,,,0.000000,4.000000,4.000000,4.000000,4.000000,4.000000,4.000000,4.000000,4.000000,4.000000,4.000000,4.000000,4.000000,4.000000,4.000000,100.000000,,,,,,,,,,,,,,,,,,,,,,,,,,,,
1703493989.286011,1703493989.286629,32.000000,0.000000,4250.769043,4257.436035,4300.769043,4268.589844,4242.820313,4244.358887,4229.102539,4242.307617,4233.846191,4239.615234,4562.307617,4470.641113,4386.666504,4467.692383,0.000000,4.000000,82.000000,,,,0.000000,4.000000,4.000000,4.000000,4.000000,4.000000,4.000000,4.000000,4.000000,4.000000,4.000000,4.000000,4.000000,4.000000,4.000000,100.000000,,,,,,,,,,,,,,,,,8.000000,0.000000,0.366908,0.522400,-0.474182,0.606323,0.963985,-0.209987,0.060066,-12.636594,-48.319206,67.201088
1703493989.293820,1703493989.294437,33.000000,0.000000,4236.922852,4246.538574,4294.615234,4264.487305,4252.692383,4243.717773,4230.769043,4232.563965,4219.871582,4227.692383,4545.641113,4463.461426,4363.717773,4452.051270,0.000000,4.000000,82.000000,,,,0.000000,4.000000,4.000000,4.000000,4.000000,4.000000,4.000000,4.000000,4.000000,4.000000,4.000000,4.000000,4.000000,4.000000,4.000000,100.000000,,,,,,,,,,,,,,,,,,,,,,,,,,,,
1703493989.301628,1703493989.302145,34.000000,0.000000,4232.051270,4261.922852,4298.333496,4266.538574,4252.436035,4244.743652,4228.717773,4222.179688,4209.615234,4212.692383,4536.025879,4458.846191,4353.974121,4441.410156,0.000000,4.000000,82.000000,,,,0.000000,4.000000,4.000000,4.000000,4.000000,4.000000,4.000000,4.000000,4.000000,4.000000,4.000000,4.000000,4.000000,4.000000,4.000000,100.000000,,,,,,,,,,,,,,,,,,,,,,,,,,,,
1703493989.309435,1703493989.309953,35.000000,0.000000,4236.025879,4268.205078,4304.615234,4266.794922,4245.256348,4236.794922,4227.307617,4224.358887,4212.051270,4213.589844,4541.410156,4462.563965,4361.025879,4446.410156,0.000000,4.000000,82.000000,,,,0.000000,4.000000,4.000000,4.000000,4.000000,4.000000,4.000000,4.000000,4.000000,4.000000,4.000000,4.000000,4.000000,4.000000,4.000000,100.000000,,,,,,,,,,,,,,,,,,,,,,,,,,,,
1703493989.317244,1703493989.317661,36.000000,0.000000,4233.589844,4251.922852,4299.743652,4265.769043,4245.000000,4234.743652,4229.102539,4230.769043,4216.153809,4216.410156,4540.512695,4466.538574,4360.000000,4447.051270,0.000000,4.000000,82.000000,,,,0.000000,4.000000,4.000000,4.000000,4.000000,4.000000,4.000000,4.000000,4.000000,4.000000,4.000000,4.000000,4.000000,4.000000,4.000000,100.000000,,,,,,,,,,,,,,,,,9.000000,0.000000,0.366813,0.522522,-0.474121,0.606323,0.965450,-0.225613,0.067879,-12.506268,-48.303955,67.347649
1703493989.325052,1703493989.325469,37.000000,0.000000,4239.743652,4247.692383,4298.077148,4266.153809,4242.820313,4244.615234,4230.128418,4234.871582,4216.410156,4214.230957,4539.615234,4469.487305,4358.333496,4449.743652,0.000000,4.000000,82.000000,,,,0.000000,4.000000,4.000000,4.000000,4.000000,4.000000,4.000000,4.000000,4.000000,4.000000,4.000000,4.000000,4.000000,4.000000,4.000000,100.000000,,,,,,,,,,,,,,,,,,,,,,,,,,,,
1703493989.332860,1703493989.333177,38.000000,0.000000,4245.512695,4255.128418,4300.000000,4266.025879,4237.563965,4247.051270,4238.717773,4242.179688,4224.230957,4216.153809,4546.410156,4471.410156,4364.871582,4454.358887,0.000000,4.000000,82.000000,,,,0.000000,4.000000,4.000000,4.000000,4.000000,4.000000,4.000000,4.000000,4.000000,4.000000,4.000000,4.000000,4.000000,4.000000,4.000000,100.000000,,,,,,,,,,,,,,,,,,,,,,,,,,,,
1703493989.340668,1703493989.340984,39.000000,0.000000,4238.974121,4243.974121,4300.256348,4265.000000,4231.538574,4242.692383,4249.615234,4251.153809,4239.230957,4218.205078,4550.128418,4473.205078,4364.230957,4456.538574,0.000000,4.000000,82.000000,,,,0.000000,4.000000,4.000000,4.000000,4.000000,4.000000,4.000000,4.000000,4.000000,4.000000,4.000000,4.000000,4.000000,4.000000,4.000000,100.000000,,,,,,,,,,,,,,,,,,,,,,,,,,,,
1703493989.348476,1703493989.348692,40.000000,0.000000,4235.256348,4230.128418,4301.153809,4262.307617,4222.948730,4242.179688,4248.974121,4255.000000,4248.974121,4218.461426,4548.461426,4478.205078,4350.384766,4454.743652,0.000000,4.000000,82.000000,,,,0.000000,4.000000,4.000000,4.000000,4.000000,4.000000,4.000000,4.000000,4.000000,4.000000,4.000000,4.000000,4.000000,4.000000,4.000000,100.000000,,,,,,,,,,,,,,,,,10.000000,0.000000,0.366803,0.522766,-0.473938,0.606262,0.953730,-0.211452,0.073251,-12.455641,-48.190224,67.379547
1703493989.356284,1703493989.356600,41.000000,0.000000,4243.846191,4238.974121,4303.205078,4262.948730,4220.641113,4241.282227,4244.871582,4253.205078,4250.256348,4223.974121,4551.794922,4481.538574,4355.769043,4457.436035,0.000000,4.000000,82.000000,,,,0.000000,4.000000,4.000000,4.000000,4.000000,4.000000,4.000000,4.000000,4.000000,4.000000,4.000000,4.000000,4.000000,4.000000,4.000000,100.000000,,,,,,,,,,,,,,,,,,,,,,,,,,,,
1703493989.364092,1703493989.364409,42.000000,0.000000,4258.846191,4251.794922,4312.307617,4272.436035,4227.563965,4244.871582,4248.846191,4252.820313,4250.256348,4231.282227,4561.794922,4489.871582,4382.179688,4472.051270,0.000000,4.000000,82.000000,,,,0.000000,4.000000,4.000000,4.000000,4.000000,4.000000,4.000000,4.000000,4.000000,4.000000,4.000000,4.000000,4.000000,4.000000,4.000000,100.000000,,,,,,,,,,,,,,,,,,,,,,,,,,,,
1703493989.371900,1703493989.372317,43.000000,0.000000,4265.769043,4252.179688,4322.051270,4280.641113,4234.358887,4246.666504,4250.512695,4252.948730,4249.615234,4235.641113,4566.410156,4496.666504,4387.436035,4478.333496,0.000000,4.000000,82.000000,,,,0.000000,4.000000,4.000000,4.000000,4.000000,4.000000,4.000000,4.000000,4.000000,4.000000,4.000000,4.000000,4.000000,4.000000,4.000000,100.000000,,,,,,,,,,,,,,,,,,,,,,,,,,,,
1703493989.379708,1703493989.380125,44.000000,0.000000,4261.666504,4261.025879,4317.948730,4280.641113,4232.948730,4237.179688,4244.230957,4245.128418,4240.512695,4230.384766,4553.333496,4486.025879,4370.128418,4467.179688,0.000000,4.000000,82.000000,,,,0.000000,4.000000,4.000000,4.000000,4.000000,4.000000,4.000000,4.000000,4.000000,4.000000,4.000000,4.000000,4.000000,4.000000,4.000000,100.000000,,,,,,,,,,,,,,,,,11.000000,0.000000,0.366548,0.523071,-0.473877,0.606201,0.969357,-0.213893,0.045904,-12.560077,-48.271202,67.341599
1703493989.387516,1703493989.388033,45.000000,0.000000,4261.538574,4279.487305,4307.307617,4280.512695,4233.461426,4235.897461,4239.743652,4233.974121,4229.743652,4220.512695,4540.384766,4472.563965,4363.333496,4456.794922,0.000000,4.000000,82.000000,,,,0.000000,4.000000,4.000000,4.000000,4.000000,4.000000,4.000000,4.000000,4.000000,4.000000,4.000000,4.000000,4.000000,4.000000,4.000000,100.000000,,,,,,,,,,,,,,,,,,,,,,,,,,,,
1703493989.395324,1703493989.395841,46.000000,0.000000,4262.436035,4277.179688,4303.589844,4279.871582,4236.153809,4246.153809,4241.794922,4233.333496,4229.615234,4221.922852,4549.487305,4473.077148,4371.025879,4461.538574,0.000000,4.000000,82.000000,,,,0.000000,4.000000,4.000000,4.000000,4.000000,4.000000,4.000000,4.000000,4.000000,4.000000,4.000000,4.000000,4.000000,4.000000,4.000000,100.000000,,,,,,,,,,,,,,,,,,,,,,,,,,,,
1703493989.403132,1703493989.403749,47.000000,0.000000,4251.794922,4260.641113,4304.487305,4275.512695,4234.358887,4243.205078,4245.512695,4239.102539,4232.820313,4225.897461,4556.025879,4477.051270,4375.000000,4465.128418,0.000000,4.000000,82.000000,,,,0.000000,4.000000,4.000000,4.000000,4.000000,4.000000,4.000000,4.000000,4.000000,4.000000,4.000000,4.000000,4.000000,4.000000,4.000000,100.000000,,,,,,,,,,,,,,,,,,,,,,,,,,,,
1703493989.410940,1703493989.411557,48.000000,0.000000,4243.974121,4258.461426,4303.846191,4275.256348,4234.102539,4233.461426,4247.051270,4238.974121,4230.769043,4222.179688,4545.000000,4474.743652,4370.512695,4458.333496,0.000000,4.000000,82.000000,,,,0.000000,4.000000,4.000000,4.000000,4.000000,4.000000,4.000000,4.000000,4.000000,4.000000,4.000000,4.000000,4.000000,4.000000,4.000000,100.000000,,,,,,,,,,,,,,,,,12.000000,0.000000,0.366430,0.523193,-0.473755,0.606262,0.964473,-0.204126,0.062508,-12.454069,-48.277416,67.290771
1703493989.418748,1703493989.419466,49.000000,0.000000,4251.666504,4267.948730,4304.102539,4278.461426,4233.461426,4239.871582,4244.871582,4244.615234,4238.205078,4225.256348,4546.794922,4478.589844,4371.410156,4458.846191,0.000000,4.000000,82.000000,,,,0.000000,4.000000,4.000000,4.000000,4.000000,4.000000,4.000000,4.000000,4.000000,4.000000,4.000000,4.000000,4.000000,4.000000,4.000000,100.000000,,,,,,,,,,,,,,,,,,,,,,,,,,,,
1703493989.426556,1703493989.427274,50.000000,0.000000,4248.461426,4262.436035,4303.461426,4273.717773,4234.358887,4250.128418,4244.615234,4260.128418,4256.922852,4236.025879,4559.230957,4483.846191,4379.230957,4462.820313,0.000000,4.000000,82.000000,,,,0.000000,4.000000,4.000000,4.000000,4.000000,4.000000,4.000000,4.000000,4.000000,4.000000,4.000000,4.000000,4.000000,4.000000,4.000000,100.000000,,,,,,,,,,,,,,,,,,,,,,,,,,,,
1703493989.434364,1703493989.435182,51.000000,0.000000,4232.307617,4245.384766,4295.641113,4264.487305,4239.358887,4249.102539,4255.512695,4266.410156,4266.410156,4235.897461,4557.692383,4480.128418,4376.282227,4457.436035,0.000000,4.000000,82.000000,,,,0.000000,4.000000,4.000000,4.000000,4.000000,4.000000,4.000000,4.000000,4.000000,4.000000,4.000000,4.000000,4.000000,4.000000,4.000000,100.000000,,,,,,,,,,,,,,,,,,,,,,,,,,,,
1703493989.442172,1703493989.442990,52.000000,0.000000,4228.717773,4248.589844,4290.000000,4262.307617,4237.820313,4244.743652,4263.205078,4260.000000,4262.436035,4228.974121,4547.051270,4474.230957,4362.436035,4444.358887,0.000000,4.000000,82.000000,,,,0.000000,4.000000,4.000000,4.000000,4.000000,4.000000,4.000000,4.000000,4.000000,4.000000,4.000000,4.000000,4.000000,4.000000,4.000000,100.000000,,,,,,,,,,,,,,,,,13.000000,0.000000,0.366059,0.523438,-0.473694,0.606323,0.970333,-0.212917,0.050787,-12.375329,-48.433006,67.378357
1703493989.449980,1703493989.450898,53.000000,0.000000,4234.230957,4261.410156,4297.820313,4269.358887,4232.436035,4246.794922,4256.153809,4257.307617,4263.717773,4232.179688,4548.846191,4475.897461,4364.230957,4440.769043,0.000000,4.000000,82.000000,,,,0.000000,4.000000,4.000000,4.000000,4.000000,4.000000,4.000000,4.000000,4.000000,4.000000,4.000000,4.000000,4.000000,4.000000,4.000000,100.000000,,,,,,,,,,,,,,,,,,,,,,,,,,,,
1703493989.457788,1703493989.458706,54.000000,0.000000,4235.256348,4252.948730,4304.358887,4272.948730,4232.563965,4248.846191,4250.512695,4261.666504,4266.922852,4236.666504,4557.820313,4479.230957,4375.256348,4446.153809,0.000000,4.000000,82.000000,,,,0.000000,4.000000,4.000000,4.000000,4.000000,4.000000,4.000000,4.000000,4.000000,4.000000,4.000000,4.000000,4.000000,4.000000,4.000000,100.000000,,,,,,,,,,,,,,,,,,,,,,,,,,,,
1703493989.465597,1703493989.466514,55.000000,0.000000,4238.077148,4246.538574,4300.512695,4272.692383,4235.000000,4242.051270,4248.461426,4255.128418,4251.025879,4228.589844,4547.563965,4470.897461,4366.538574,4445.384766,0.000000,4.000000,82.000000,,,,0.000000,4.000000,4.000000,4.000000,4.000000,4.000000,4.000000,4.000000,4.000000,4.000000,4.000000,4.000000,4.000000,4.000000,4.000000,100.000000,,,,,,,,,,,,,,,,,,,,,,,,,,,,
1703493989.473405,1703493989.474322,56.000000,0.000000,4247.948730,4271.282227,4303.846191,4281.025879,4238.205078,4236.666504,4237.563965,4235.000000,4228.333496,4212.179688,4526.922852,4465.384766,4354.230957,4442.692383,0.000000,4.000000,82.000000,,,,0.000000,4.000000,4.000000,4.000000,4.000000,4.000000,4.000000,4.000000,4.000000,4.000000,4.000000,4.000000,4.000000,4.000000,4.000000,100.000000,,,,,,,,,,,,,,,,,14.000000,0.000000,0.365955,0.523621,-0.473572,0.606323,0.973263,-0.203638,0.064949,-12.404463,-48.489708,67.340523
1703493989.481213,1703493989.482030,57.000000,0.000000,4254.487305,4291.410156,4310.512695,4290.641113,4247.051270,4243.333496,4228.846191,4226.282227,4225.384766,4203.846191,4526.666504,4467.051270,4358.717773,4444.230957,0.000000,4.000000,82.000000,,,,0.000000,4.000000,4.000000,4.000000,4.000000,4.000000,4.000000,4.000000,4.000000,4.000000,4.000000,4.000000,4.000000,4.000000,4.000000,100.000000,,,,,,,,,,,,,,,,,,,,,,,,,,,,
1703493989.489021,1703493989.489838,58.000000,0.000000,4249.487305,4279.487305,4304.487305,4283.846191,4248.846191,4247.692383,4231.794922,4232.820313,4231.410156,4206.410156,4535.897461,4462.179688,4366.282227,4445.384766,0.000000,4.000000,82.000000,,,,0.000000,4.000000,4.000000,4.000000,4.000000,4.000000,4.000000,4.000000,4.000000,4.000000,4.000000,4.000000,4.000000,4.000000,4.000000,100.000000,,,,,,,,,,,,,,,,,,,,,,,,,,,,
1703493989.496829,1703493989.497546,59.000000,0.000000,4239.871582,4262.820313,4296.282227,4268.077148,4236.794922,4238.333496,4232.563965,4230.769043,4223.077148,4206.794922,4530.769043,4453.077148,4360.769043,4439.615234,0.000000,4.000000,82.000000,,,,0.000000,4.000000,4.000000,4.000000,4.000000,4.000000,4.000000,4.000000,4.000000,4.000000,4.000000,4.000000,4.000000,4.000000,4.000000,100.000000,,,,,,,,,,,,,,,,,,,,,,,,,,,,
1703493989.504637,1703493989.505454,60.000000,0.000000,4232.820313,4258.717773,4298.333496,4262.948730,4230.641113,4233.077148,4232.563965,4219.487305,4210.256348,4194.743652,4514.615234,4448.589844,4343.974121,4427.436035,0.000000,4.000000,82.000000,,,,0.000000,4.000000,4.000000,4.000000,4.000000,4.000000,4.000000,4.000000,4.000000,4.000000,4.000000,4.000000,4.000000,4.000000,4.000000,100.000000,,,,,,,,,,,,,,,,,15.000000,0.000000,0.365860,0.523743,-0.473511,0.606323,0.965450,-0.214382,0.059089,-12.330683,-48.574070,67.423134
1703493989.512445,1703493989.513262,61.000000,0.000000,4232.948730,4260.000000,4305.897461,4269.358887,4238.077148,4235.512695,4239.487305,4221.666504,4214.615234,4187.948730,4510.897461,4455.256348,4335.769043,4423.205078,0.000000,4.000000,82.000000,,,,0.000000,4.000000,4.000000,4.000000,4.000000,4.000000,4.000000,4.000000,4.000000,4.000000,4.000000,4.000000,4.000000,4.000000,4.000000,100.000000,,,,,,,,,,,,,,,,,,,,,,,,,,,,
1703493989.520253,1703493989.521170,62.000000,0.000000,4238.589844,4261.666504,4309.487305,4272.563965,4242.436035,4235.641113,4246.410156,4240.512695,4234.615234,4205.384766,4531.922852,4474.615234,4350.384766,4435.000000,0.000000,4.000000,82.000000,,,,0.000000,4.000000,4.000000,4.000000,4.000000,4.000000,4.000000,4.000000,4.000000,4.000000,4.000000,4.000000,4.000000,4.000000,4.000000,100.000000,,,,,,,,,,,,,,,,,,,,,,,,,,,,
1703493989.528061,1703493989.528979,63.000000,0.000000,4242.563965,4257.820313,4308.717773,4268.077148,4235.897461,4238.717773,4247.820313,4258.205078,4255.512695,4228.461426,4556.153809,4490.897461,4368.077148,4445.897461,0.000000,4.000000,82.000000,,,,0.000000,4.000000,4.000000,4.000000,4.000000,4.000000,4.000000,4.000000,4.000000,4.000000,4.000000,4.000000,4.000000,4.000000,4.000000,100.000000,,,,,,,,,,,,,,,,,,,,,,,,,,,,
1703493989.535869,1703493989.536787,64.000000,0.000000,4241.538574,4249.487305,4308.974121,4265.000000,4231.794922,4244.102539,4248.077148,4261.794922,4264.743652,4235.256348,4557.948730,4490.000000,4365.256348,4443.461426,4507.000000,4.000000,82.000000,,,,0.000000,4.000000,4.000000,4.000000,4.000000,4.000000,4.000000,4.000000,4.000000,4.000000,4.000000,4.000000,4.000000,4.000000,4.000000,100.000000,,,,,,,,,,,,,,,,,16.000000,0.000000,0.365838,0.523743,-0.473450,0.606384,0.967403,-0.214870,0.057624,-12.380948,-48.849995,67.397491
1703493989.543677,1703493989.544495,65.000000,0.000000,4242.948730,4251.025879,4310.769043,4265.256348,4237.307617,4244.615234,4250.000000,4256.410156,4262.563965,4233.717773,4552.692383,4484.743652,4365.512695,4444.358887,5462.000000,4.000000,82.000000,,,,0.000000,4.000000,4.000000,4.000000,4.000000,4.000000,4.000000,4.000000,4.000000,4.000000,4.000000,4.000000,4.000000,4.000000,4.000000,100.000000,,,,,,,,,,,,,,,,,,,,,,,,,,,,
1703493989.551485,1703493989.552403,66.000000,0.000000,4248.205078,4260.641113,4310.512695,4267.436035,4234.230957,4243.461426,4250.128418,4252.179688,4257.820313,4234.743652,4557.307617,4486.666504,4383.333496,4456.025879,5507.000000,4.000000,82.000000,,,,0.000000,4.000000,4.000000,4.000000,4.000000,4.000000,4.000000,4.000000,4.000000,4.000000,4.000000,4.000000,4.000000,4.000000,4.000000,100.000000,,,,,,,,,,,,,,,,,,,,,,,,,,,,
1703493989.559293,1703493989.560211,67.000000,0.000000,4250.000000,4261.153809,4309.743652,4274.615234,4228.846191,4244.358887,4247.692383,4250.641113,4253.846191,4234.487305,4558.846191,4487.563965,4387.820313,4463.077148,5522.000000,4.000000,82.000000,,,,0.000000,4.000000,4.000000,4.000000,4.000000,4.000000,4.000000,4.000000,4.000000,4.000000,4.000000,4.000000,4.000000,4.000000,4.000000,100.000000,,,,,,,,,,,,,,,,,,,,,,,,,,,,
1703493989.567101,1703493989.568119,68.000000,0.000000,4255.256348,4261.025879,4310.256348,4279.487305,4241.153809,4245.000000,4246.666504,4248.333496,4248.589844,4232.692383,4556.153809,4480.641113,4380.512695,4460.512695,5323.000000,4.000000,82.000000,,,,0.000000,4.000000,4.000000,4.000000,4.000000,4.000000,4.000000,4.000000,4.000000,4.000000,4.000000,4.000000,4.000000,4.000000,4.000000,100.000000,,,,,,,,,,,,,,,,,17.000000,0.000000,0.365815,0.523743,-0.473389,0.606445,0.954706,-0.207545,0.054694,-12.426187,-48.714996,67.341072
1703493989.574909,1703493989.575927,69.000000,0.000000,4263.717773,4275.000000,4305.641113,4280.512695,4254.871582,4247.436035,4245.128418,4245.897461,4245.641113,4232.948730,4555.897461,4472.051270,4386.410156,4462.948730,4749.000000,4.000000,82.000000,,,,0.000000,4.000000,4.000000,4.000000,4.000000,4.000000,4.000000,4.000000,4.000000,4.000000,4.000000,4.000000,4.000000,4.000000,4.000000,100.000000,,,,,,,,,,,,,,,,,,,,,,,,,,,,
1703493989.582717,1703493989.583736,70.000000,0.000000,4257.307617,4283.205078,4300.256348,4278.589844,4251.025879,4250.128418,4242.820313,4245.641113,4246.025879,4226.794922,4547.563965,4466.410156,4384.358887,4460.256348,4478.000000,4.000000,82.000000,,,,0.000000,4.000000,4.000000,4.000000,4.000000,4.000000,4.000000,4.000000,4.000000,4.000000,4.000000,4.000000,4.000000,4.000000,4.000000,100.000000,,,,,,,,,,,,,,,,,,,,,,,,,,,,
1703493989.590525,1703493989.591443,71.000000,0.000000,4243.333496,4272.820313,4300.256348,4270.769043,4246.410156,4248.974121,4245.128418,4245.897461,4247.436035,4216.922852,4531.922852,4459.615234,4365.897461,4444.487305,3999.000000,4.000000,82.000000,,,,0.000000,4.000000,4.000000,4.000000,4.000000,4.000000,4.000000,4.000000,4.000000,4.000000,4.000000,4.000000,4.000000,4.000000,4.000000,100.000000,,,,,,,,,,,,,,,,,,,,,,,,,,,,
1703493989.598333,1703493989.599351,72.000000,0.000000,4241.794922,4262.563965,4298.846191,4262.051270,4247.948730,4246.153809,4247.948730,4245.897461,4249.102539,4213.589844,4530.641113,4455.897461,4363.974121,4439.102539,5026.000000,4.000000,82.000000,,,,0.000000,4.000000,4.000000,4.000000,4.000000,4.000000,4.000000,4.000000,4.000000,4.000000,4.000000,4.000000,4.000000,4.000000,4.000000,100.000000,,,,,,,,,,,,,,,,,18.000000,0.000000,0.365883,0.523987,-0.473145,0.606384,0.967892,-0.205591,0.060554,-12.450234,-48.660164,67.306969
1703493989.606141,1703493989.607160,73.000000,0.000000,4244.487305,4262.307617,4295.384766,4261.538574,4246.538574,4246.538574,4247.948730,4242.948730,4247.179688,4214.487305,4535.512695,4457.563965,4367.051270,4439.615234,5599.000000,4.000000,82.000000,,,,0.000000,4.000000,4.000000,4.000000,4.000000,4.000000,4.000000,4.000000,4.000000,4.000000,4.000000,4.000000,4.000000,4.000000,4.000000,100.000000,,,,,,,,,,,,,,,,,,,,,,,,,,,,
1703493989.613949,1703493989.615068,74.000000,0.000000,4241.666504,4265.769043,4295.256348,4264.102539,4244.615234,4247.307617,4249.102539,4240.897461,4245.641113,4212.051270,4524.487305,4455.769043,4356.153809,4431.025879,5941.000000,4.000000,82.000000,,,,0.000000,4.000000,4.000000,4.000000,4.000000,4.000000,4.000000,4.000000,4.000000,4.000000,4.000000,4.000000,4.000000,4.000000,4.000000,100.000000,,,,,,,,,,,,,,,,,,,,,,,,,,,,
1703493989.621757,1703493989.622876,75.000000,0.000000,4243.333496,4275.384766,4298.333496,4264.358887,4240.897461,4245.000000,4249.871582,4243.974121,4250.000000,4211.922852,4518.333496,4454.230957,4354.743652,4428.205078,6194.000000,4.000000,82.000000,,,,0.000000,4.000000,4.000000,4.000000,4.000000,4.000000,4.000000,4.000000,4.000000,4.000000,4.000000,4.000000,4.000000,4.000000,4.000000,100.000000,,,,,,,,,,,,,,,,,,,,,,,,,,,,
1703493989.629566,1703493989.630783,76.000000,0.000000,4244.615234,4279.871582,4301.153809,4262.948730,4237.436035,4246.282227,4249.615234,4246.794922,4252.307617,4216.666504,4531.410156,4461.794922,4360.384766,4433.461426,6474.000000,4.000000,82.000000,,,,0.000000,4.000000,4.000000,4.000000,4.000000,4.000000,4.000000,4.000000,4.000000,4.000000,4.000000,4.000000,4.000000,4.000000,4.000000,100.000000,,,,,,,,,,,,,,,,,19.000000,0.000000,0.365857,0.524170,-0.472961,0.606384,0.979612,-0.219265,0.060554,-12.405211,-48.677479,67.209602
1703493989.637374,1703493989.638591,77.000000,0.000000,4243.846191,4269.743652,4303.846191,4264.871582,4244.871582,4250.384766,4251.153809,4245.641113,4251.538574,4218.205078,4540.641113,4470.128418,4361.538574,4436.025879,6417.000000,4.000000,82.000000,,,,0.000000,4.000000,4.000000,4.000000,4.000000,4.000000,4.000000,4.000000,4.000000,4.000000,4.000000,4.000000,4.000000,4.000000,4.000000,100.000000,,,,,,,,,,,,,,,,,,,,,,,,,,,,
1703493989.645182,1703493989.646299,78.000000,0.000000,4250.769043,4269.230957,4307.692383,4273.846191,4250.897461,4248.974121,4250.000000,4244.615234,4250.256348,4220.897461,4539.871582,4471.025879,4374.615234,4443.333496,5941.000000,4.000000,82.000000,,,,0.000000,4.000000,4.000000,4.000000,4.000000,4.000000,4.000000,4.000000,4.000000,4.000000,4.000000,4.000000,4.000000,4.000000,4.000000,100.000000,,,,,,,,,,,,,,,,,,,,,,,,,,,,
1703493989.652990,1703493989.654107,79.000000,0.000000,4258.205078,4280.384766,4311.794922,4280.128418,4244.743652,4246.666504,4245.641113,4244.615234,4250.384766,4227.563965,4541.538574,4469.615234,4388.205078,4455.512695,6194.000000,4.000000,82.000000,,,,0.000000,4.000000,4.000000,4.000000,4.000000,4.000000,4.000000,4.000000,4.000000,4.000000,4.000000,4.000000,4.000000,4.000000,4.000000,100.000000,,,,,,,,,,,,,,,,,,,,,,,,,,,,
1703493989.660798,1703493989.661815,80.000000,0.000000,4258.589844,4283.974121,4311.794922,4277.563965,4242.563965,4249.358887,4245.641113,4245.769043,4254.871582,4232.307617,4545.769043,4469.871582,4380.769043,4457.563965,6474.000000,4.000000,82.000000,,,,0.000000,4.000000,4.000000,4.000000,4.000000,4.000000,4.000000,4.000000,4.000000,4.000000,4.000000,4.000000,4.000000,4.000000,4.000000,100.000000,,,,,,,,,,,,,,,,,20.000000,0.000000,0.365861,0.524231,-0.472656,0.606567,0.980100,-0.215847,0.059578,-12.298023,-48.543064,67.221977
1703493989.668606,1703493989.669623,81.000000,0.000000,4260.897461,4283.589844,4310.769043,4277.563965,4249.487305,4250.897461,4248.717773,4249.487305,4262.692383,4234.487305,4553.974121,4476.922852,4383.589844,4458.717773,6417.000000,4.000000,82.000000,,,,0.000000,4.000000,4.000000,4.000000,4.000000,4.000000,4.000000,4.000000,4.000000,4.000000,4.000000,4.000000,4.000000,4.000000,4.000000,100.000000,,,,,,,,,,,,,,,,,,,,,,,,,,,,
1703493989.676414,1703493989.677331,82.000000,0.000000,4266.794922,4283.846191,4311.153809,4280.897461,4253.205078,4250.128418,4248.589844,4251.410156,4266.538574,4237.820313,4562.179688,4484.871582,4403.333496,4466.282227,5941.000000,4.000000,82.000000,,,,0.000000,4.000000,4.000000,4.000000,4.000000,4.000000,4.000000,4.000000,4.000000,4.000000,4.000000,4.000000,4.000000,4.000000,4.000000,100.000000,,,,,,,,,,,,,,,,,,,,,,,,,,,,
1703493989.684222,1703493989.685139,83.000000,0.000000,4262.820313,4283.205078,4307.948730,4281.025879,4250.256348,4250.256348,4248.589844,4247.820313,4258.333496,4234.871582,4554.487305,4478.333496,4396.794922,4464.615234,6194.000000,4.000000,82.000000,,,,0.000000,4.000000,4.000000,4.000000,4.000000,4.000000,4.000000,4.000000,4.000000,4.000000,4.000000,4.000000,4.000000,4.000000,4.000000,100.000000,,,,,,,,,,,,,,,,,,,,,,,,,,,,
1703493989.692030,1703493989.692848,84.000000,0.000000,4252.563965,4279.743652,4302.948730,4280.256348,4248.333496,4250.384766,4255.641113,4243.589844,4248.461426,4222.051270,4539.871582,4465.384766,4374.487305,4451.025879,6474.000000,4.000000,82.000000,,,,0.000000,4.000000,4.000000,4.000000,4.000000,4.000000,4.000000,4.000000,4.000000,4.000000,4.000000,4.000000,4.000000,4.000000,4.000000,100.000000,,,,,,,,,,,,,,,,,21.000000,0.000000,0.365831,0.524048,-0.472412,0.606934,0.964962,-0.203638,0.064949,-12.218221,-48.488758,67.266449
1703493989.699838,1703493989.700656,85.000000,0.000000,4246.025879,4270.641113,4299.615234,4280.128418,4254.615234,4249.743652,4263.205078,4244.871582,4245.897461,4216.666504,4537.948730,4466.410156,4372.179688,4443.077148,6417.000000,4.000000,82.000000,,,,0.000000,4.000000,4.000000,4.000000,4.000000,4.000000,4.000000,4.000000,4.000000,4.000000,4.000000,4.000000,4.000000,4.000000,4.000000,100.000000,,,,,,,,,,,,,,,,,,,,,,,,,,,,
1703493989.707646,1703493989.708364,86.000000,0.000000,4246.410156,4262.820313,4302.948730,4280.641113,4261.794922,4250.000000,4262.307617,4248.333496,4249.358887,4221.666504,4541.282227,4476.025879,4375.128418,4446.282227,5941.000000,4.000000,82.000000,,,,0.000000,4.000000,4.000000,4.000000,4.000000,4.000000,4.000000,4.000000,4.000000,4.000000,4.000000,4.000000,4.000000,4.000000,4.000000,100.000000,,,,,,,,,,,,,,,,,,,,,,,,,,,,
1703493989.715454,1703493989.716172,87.000000,0.000000,4247.436035,4263.333496,4306.410156,4279.615234,4261.922852,4251.025879,4261.025879,4249.358887,4254.615234,4228.205078,4541.794922,4477.179688,4371.794922,4444.743652,6194.000000,4.000000,82.000000,,,,0.000000,4.000000,4.000000,4.000000,4.000000,4.000000,4.000000,4.000000,4.000000,4.000000,4.000000,4.000000,4.000000,4.000000,4.000000,100.000000,,,,,,,,,,,,,,,,,,,,,,,,,,,,
1703493989.723262,1703493989.723880,88.000000,0.000000,4243.077148,4262.307617,4303.717773,4276.153809,4259.743652,4251.794922,4264.230957,4251.410156,4258.461426,4233.589844,4545.769043,4472.051270,4376.410156,4441.282227,6474.000000,4.000000,82.000000,,,,0.000000,4.000000,4.000000,4.000000,4.000000,4.000000,4.000000,4.000000,4.000000,4.000000,4.000000,4.000000,4.000000,4.000000,4.000000,100.000000,,,,,,,,,,,,,,,,,22.000000,0.000000,0.365863,0.523743,-0.472412,0.607178,0.958613,-0.212428,0.051764,-12.213065,-48.456551,67.273132
1703493989.731070,1703493989.731688,89.000000,0.000000,4241.922852,4261.025879,4304.358887,4282.307617,4261.666504,4252.307617,4264.230957,4249.871582,4259.743652,4235.000000,4550.384766,4471.538574,4380.256348,4440.641113,6417.000000,4.000000,82.000000,,,,0.000000,4.000000,4.000000,4.000000,4.000000,4.000000,4.000000,4.000000,4.000000,4.000000,4.000000,4.000000,4.000000,4.000000,4.000000,100.000000,,,,,,,,,,,,,,,,,,,,,,,,,,,,
1703493989.738878,1703493989.739395,90.000000,0.000000,4246.666504,4264.487305,4306.282227,4290.000000,4264.230957,4250.512695,4258.717773,4247.692383,4257.948730,4237.436035,4550.384766,4478.974121,4376.538574,4440.897461,5941.000000,4.000000,82.000000,,,,0.000000,4.000000,4.000000,4.000000,4.000000,4.000000,4.000000,4.000000,4.000000,4.000000,4.000000,4.000000,4.000000,4.000000,4.000000,100.000000,,,,,,,,,,,,,,,,,,,,,,,,,,,,
1703493989.746686,1703493989.747203,91.000000,0.000000,4249.871582,4262.948730,4305.512695,4284.743652,4264.743652,4248.333496,4257.307617,4255.769043,4262.948730,4246.410156,4555.512695,4486.410156,4379.615234,4450.128418,6194.000000,4.000000,82.000000,,,,0.000000,4.000000,4.000000,4.000000,4.000000,4.000000,4.000000,4.000000,4.000000,4.000000,4.000000,4.000000,4.000000,4.000000,4.000000,100.000000,,,,,,,,,,,,,,,,,,,,,,,,,,,,
1703493989.754494,1703493989.754911,92.000000,0.000000,4250.384766,4260.000000,4308.461426,4282.436035,4265.000000,4253.717773,4261.282227,4267.179688,4276.922852,4254.230957,4566.410156,4488.461426,4392.436035,4463.461426,6474.000000,4.000000,82.000000,,,,0.000000,4.000000,4.000000,4.000000,4.000000,4.000000,4.000000,4.000000,4.000000,4.000000,4.000000,4.000000,4.000000,4.000000,4.000000,100.000000,,,,,,,,,,,,,,,,,23.000000,0.000000,0.366105,0.523376,-0.472473,0.607300,0.959590,-0.196801,0.064461,-12.291759,-48.344227,67.195824
1703493989.762302,1703493989.762819,93.000000,0.000000,4254.871582,4261.410156,4311.410156,4289.102539,4262.692383,4257.692383,4261.794922,4266.410156,4279.615234,4252.051270,4570.384766,4488.589844,4397.307617,4464.743652,6417.000000,4.000000,82.000000,,,,0.000000,4.000000,4.000000,4.000000,4.000000,4.000000,4.000000,4.000000,4.000000,4.000000,4.000000,4.000000,4.000000,4.000000,4.000000,100.000000,,,,,,,,,,,,,,,,,,,,,,,,,,,,
1703493989.770110,1703493989.770627,94.000000,0.000000,4263.974121,4262.692383,4310.641113,4292.307617,4261.666504,4252.179688,4261.282227,4263.205078,4269.230957,4250.128418,4565.641113,4491.282227,4394.487305,4463.205078,5941.000000,4.000000,82.000000,,,,0.000000,4.000000,4.000000,4.000000,4.000000,4.000000,4.000000,4.000000,4.000000,4.000000,4.000000,4.000000,4.000000,4.000000,4.000000,100.000000,1.000000,100.000000,4.000000,4.000000,4.000000,4.000000,4.000000,4.000000,4.000000,4.000000,4.000000,4.000000,4.000000,4.000000,4.000000,4.000000,,,,,,,,,,,,
1703493989.777918,1703493989.778535,95.000000,0.000000,4265.128418,4264.358887,4311.538574,4290.641113,4260.897461,4248.333496,4261.794922,4265.897461,4265.512695,4249.102539,4560.641113,4491.538574,4391.538574,4469.230957,6194.000000,4.000000,82.000000,,,,0.000000,4.000000,4.000000,4.000000,4.000000,4.000000,4.000000,4.000000,4.000000,4.000000,4.000000,4.000000,4.000000,4.000000,4.000000,100.000000,,,,,,,,,,,,,,,,,,,,,,,,,,,,
1703493989.785726,1703493989.786344,96.000000,0.000000,4255.512695,4262.948730,4309.230957,4286.794922,4253.205078,4249.358887,4256.025879,4259.615234,4262.563965,4236.922852,4553.461426,4481.794922,4382.051270,4469.102539,6474.000000,4.000000,82.000000,,,,0.000000,4.000000,4.000000,4.000000,4.000000,4.000000,4.000000,4.000000,4.000000,4.000000,4.000000,4.000000,4.000000,4.000000,4.000000,100.000000,,,,,,,,,,,,,,,,,24.000000,0.000000,0.366145,0.523010,-0.472534,0.607544,0.978635,-0.212428,0.059578,-12.395917,-48.393139,67.192909
1703493989.793535,1703493989.794252,97.000000,0.000000,4248.333496,4254.743652,4304.358887,4283.717773,4248.589844,4247.436035,4248.333496,4247.820313,4249.615234,4220.769043,4541.666504,4470.384766,4371.410156,4456.025879,6417.000000,4.000000,82.000000,,,,0.000000,4.000000,4.000000,4.000000,4.000000,4.000000,4.000000,4.000000,4.000000,4.000000,4.000000,4.000000,4.000000,4.000000,4.000000,100.000000,,,,,,,,,,,,,,,,,,,,,,,,,,,,
1703493989.801343,1703493989.802060,98.000000,0.000000,4248.717773,4246.282227,4306.153809,4287.948730,4253.974121,4246.025879,4248.077148,4245.512695,4242.692383,4216.025879,4535.256348,4469.358887,4372.436035,4446.538574,5941.000000,4.000000,82.000000,,,,0.000000,4.000000,4.000000,4.000000,4.000000,4.000000,4.000000,4.000000,4.000000,4.000000,4.000000,4.000000,4.000000,4.000000,4.000000,100.000000,,,,,,,,,,,,,,,,,,,,,,,,,,,,
1703493989.809151,1703493989.809968,99.000000,0.000000,4249.615234,4252.563965,4309.358887,4292.179688,4253.077148,4247.436035,4247.307617,4246.025879,4241.282227,4221.794922,4537.307617,4475.641113,4378.974121,4451.410156,6194.000000,4.000000,82.000000,,,,0.000000,4.000000,4.000000,4.000000,4.000000,4.000000,4.000000,4.000000,4.000000,4.000000,4.000000,4.000000,4.000000,4.000000,4.000000,100.000000,,,,,,,,,,,,,,,,,,,,,,,,,,,,
1703493989.816959,1703493989.817776,100.000000,0.000000,4250.897461,4260.512695,4309.743652,4288.333496,4248.077148,4245.769043,4243.333496,4244.358887,4237.692383,4228.461426,4545.000000,4480.000000,4383.077148,4462.436035,6474.000000,4.000000,82.000000,,,,0.000000,4.000000,4.000000,4.000000,4.000000,4.000000,4.000000,4.000000,4.000000,4.000000,4.000000,4.000000,4.000000,4.000000,4.000000,100.000000,,,,,,,,,,,,,,,,,25.000000,0.000000,0.366080,0.522827,-0.472473,0.607788,0.967403,-0.209010,0.072274,-12.222992,-48.353825,67.190285
1703493989.824767,1703493989.825684,101.000000,0.000000,4248.205078,4250.769043,4308.461426,4286.922852,4254.230957,4246.922852,4246.794922,4248.205078,4244.102539,4233.589844,4555.128418,4478.461426,4387.563965,4457.563965,6417.000000,4.000000,82.000000,,,,0.000000,4.000000,4.000000,4.000000,4.000000,4.000000,4.000000,4.000000,4.000000,4.000000,4.000000,4.000000,4.000000,4.000000,4.000000,100.000000,,,,,,,,,,,,,,,,,,,,,,,,,,,,
1703493989.832575,1703493989.833492,102.000000,0.000000,4241.282227,4245.897461,4302.692383,4289.230957,4258.589844,4250.641113,4251.410156,4252.051270,4251.153809,4233.461426,4550.897461,4470.384766,4383.461426,4442.179688,5941.000000,4.000000,82.000000,,,,0.000000,4.000000,4.000000,4.000000,4.000000,4.000000,4.000000,4.000000,4.000000,4.000000,4.000000,4.000000,4.000000,4.000000,4.000000,100.000000,,,,,,,,,,,,,,,,,,,,,,,,,,,,
1703493989.840383,1703493989.841200,103.000000,0.000000,4245.000000,4265.769043,4300.000000,4293.589844,4256.282227,4248.589844,4248.974121,4247.563965,4245.384766,4232.179688,4541.922852,4467.051270,4381.282227,4445.384766,6194.000000,4.000000,82.000000,,,,0.000000,4.000000,4.000000,4.000000,4.000000,4.000000,4.000000,4.000000,4.000000,4.000000,4.000000,4.000000,4.000000,4.000000,4.000000,100.000000,,,,,,,,,,,,,,,,,,,,,,,,,,,,
1703493989.848191,1703493989.849008,104.000000,0.000000,4257.179688,4278.461426,4305.128418,4301.794922,4261.410156,4251.410156,4250.256348,4249.358887,4247.563965,4236.025879,4551.538574,4474.615234,4392.563965,4459.230957,6474.000000,4.000000,82.000000,,,,0.000000,4.000000,4.000000,4.000000,4.000000,4.000000,4.000000,4.000000,4.000000,4.000000,4.000000,4.000000,4.000000,4.000000,4.000000,100.000000,,,,,,,,,,,,,,,,,26.000000,0.000000,0.366023,0.522583,-0.472473,0.608032,0.972287,-0.212428,0.066903,-12.300693,-48.501774,67.004585
1703493989.855999,1703493989.856716,105.000000,0.000000,4260.641113,4267.692383,4310.128418,4302.307617,4263.974121,4260.128418,4258.205078,4259.487305,4259.230957,4234.615234,4558.205078,4482.307617,4394.743652,4461.922852,6417.000000,4.000000,82.000000,,,,0.000000,4.000000,4.000000,4.000000,4.000000,4.000000,4.000000,4.000000,4.000000,4.000000,4.000000,4.000000,4.000000,4.000000,4.000000,100.000000,,,,,,,,,,,,,,,,,,,,,,,,,,,,
1703493989.863807,1703493989.864524,106.000000,0.000000,4260.769043,4262.820313,4311.410156,4296.538574,4257.820313,4257.307617,4261.538574,4263.846191,4262.563965,4234.743652,4552.692383,4488.205078,4390.512695,4465.000000,5941.000000,4.000000,82.000000,,,,0.000000,4.000000,4.000000,4.000000,4.000000,4.000000,4.000000,4.000000,4.000000,4.000000,4.000000,4.000000,4.000000,4.000000,4.000000,100.000000,,,,,,,,,,,,,,,,,,,,,,,,,,,,
1703493989.871615,1703493989.872432,107.000000,0.000000,4267.179688,4267.563965,4316.922852,4295.641113,4256.666504,4248.333496,4259.615234,4263.717773,4262.692383,4241.410156,4561.282227,4495.128418,4398.205078,4477.307617,6194.000000,4.000000,82.000000,,,,0.000000,4.000000,4.000000,4.000000,4.000000,4.000000,4.000000,4.000000,4.000000,4.000000,4.000000,4.000000,4.000000,4.000000,4.000000,100.000000,,,,,,,,,,,,,,,,,,,,,,,,,,,,
1703493989.879423,1703493989.880240,108.000000,0.000000,4272.436035,4267.948730,4318.974121,4299.358887,4256.282227,4249.743652,4257.307617,4262.436035,4263.974121,4243.589844,4572.820313,4497.051270,4404.871582,4483.077148,6474.000000,4.000000,82.000000,,,,0.000000,4.000000,4.000000,4.000000,4.000000,4.000000,4.000000,4.000000,4.000000,4.000000,4.000000,4.000000,4.000000,4.000000,4.000000,100.000000,,,,,,,,,,,,,,,,,27.000000,0.000000,0.365986,0.522522,-0.472412,0.608154,0.972775,-0.203150,0.075693,-12.303956,-48.451599,67.154129
1703493989.887231,1703493989.887948,109.000000,0.000000,4263.974121,4266.025879,4308.717773,4295.512695,4247.051270,4251.794922,4250.512695,4253.717773,4254.358887,4232.948730,4558.974121,4485.000000,4392.436035,4470.000000,6417.000000,4.000000,82.000000,,,,0.000000,4.000000,4.000000,4.000000,4.000000,4.000000,4.000000,4.000000,4.000000,4.000000,4.000000,4.000000,4.000000,4.000000,4.000000,100.000000,,,,,,,,,,,,,,,,,,,,,,,,,,,,
1703493989.895039,1703493989.895756,110.000000,0.000000,4249.230957,4258.589844,4300.641113,4287.563965,4239.230957,4246.794922,4243.077148,4243.846191,4240.897461,4221.410156,4537.563965,4468.717773,4376.025879,4449.743652,5941.000000,4.000000,82.000000,,,,0.000000,4.000000,4.000000,4.000000,4.000000,4.000000,4.000000,4.000000,4.000000,4.000000,4.000000,4.000000,4.000000,4.000000,4.000000,100.000000,,,,,,,,,,,,,,,,,,,,,,,,,,,,
1703493989.902847,1703493989.903464,111.000000,0.000000,4245.641113,4253.461426,4303.974121,4290.000000,4244.358887,4246.538574,4243.974121,4244.487305,4241.666504,4223.333496,4536.922852,4470.384766,4375.512695,4442.563965,6194.000000,4.000000,82.000000,,,,0.000000,4.000000,4.000000,4.000000,4.000000,4.000000,4.000000,4.000000,4.000000,4.000000,4.000000,4.000000,4.000000,4.000000,4.000000,100.000000,,,,,,,,,,,,,,,,,,,,,,,,,,,,
1703493989.910655,1703493989.911272,112.000000,0.000000,4250.769043,4261.666504,4309.743652,4295.769043,4259.230957,4251.025879,4249.615234,4251.153809,4247.820313,4231.666504,4553.717773,4479.871582,4382.563965,4449.871582,6474.000000,4.000000,82.000000,,,,0.000000,4.000000,4.000000,4.000000,4.000000,4.000000,4.000000,4.000000,4.000000,4.000000,4.000000,4.000000,4.000000,4.000000,4.000000,100.000000,,,,,,,,,,,,,,,,,28.000000,0.000000,0.366042,0.522522,-0.472290,0.608215,0.974728,-0.221707,0.060554,-12.406894,-48.439770,67.038712
1703493989.918463,1703493989.918979,113.000000,0.000000,4248.077148,4263.717773,4308.077148,4295.128418,4262.051270,4252.436035,4249.358887,4252.051270,4245.256348,4231.538574,4555.000000,4475.256348,4376.410156,4446.794922,6417.000000,4.000000,82.000000,,,,0.000000,4.000000,4.000000,4.000000,4.000000,4.000000,4.000000,4.000000,4.000000,4.000000,4.000000,4.000000,4.000000,4.000000,4.000000,100.000000,,,,,,,,,,,,,,,,,,,,,,,,,,,,
1703493989.926271,1703493989.926888,114.000000,0.000000,4242.051270,4251.922852,4302.051270,4293.205078,4250.128418,4251.538574,4245.897461,4250.000000,4244.743652,4227.563965,4539.487305,4468.333496,4370.769043,4437.436035,5941.000000,4.000000,82.000000,,,,0.000000,4.000000,4.000000,4.000000,4.000000,4.000000,4.000000,4.000000,4.000000,4.000000,4.000000,4.000000,4.000000,4.000000,4.000000,100.000000,,,,,,,,,,,,,,,,,,,,,,,,,,,,
1703493989.934079,1703493989.934696,115.000000,0.000000,4245.897461,4246.666504,4304.743652,4295.000000,4249.230957,4251.666504,4252.948730,4256.025879,4254.230957,4233.205078,4545.000000,4477.436035,4389.358887,4446.282227,6194.000000,4.000000,82.000000,,,,0.000000,4.000000,4.000000,4.000000,4.000000,4.000000,4.000000,4.000000,4.000000,4.000000,4.000000,4.000000,4.000000,4.000000,4.000000,100.000000,,,,,,,,,,,,,,,,,,,,,,,,,,,,
1703493989.941888,1703493989.942504,116.000000,0.000000,4247.820313,4250.000000,4311.153809,4296.153809,4261.666504,4252.179688,4261.666504,4264.102539,4263.589844,4238.589844,4562.051270,4483.974121,4398.974121,4457.692383,6474.000000,4.000000,82.000000,,,,0.000000,4.000000,4.000000,4.000000,4.000000,4.000000,4.000000,4.000000,4.000000,4.000000,4.000000,4.000000,4.000000,4.000000,4.000000,100.000000,,,,,,,,,,,,,,,,,29.000000,0.000000,0.366262,0.522644,-0.471985,0.608215,0.961055,-0.193383,0.061043,-12.516205,-48.445793,67.151512
1703493989.949695,1703493989.950212,117.000000,0.000000,4247.692383,4254.230957,4309.230957,4296.794922,4260.641113,4251.025879,4256.538574,4261.794922,4259.230957,4233.077148,4556.666504,4478.205078,4385.128418,4455.769043,6417.000000,4.000000,82.000000,,,,0.000000,4.000000,4.000000,4.000000,4.000000,4.000000,4.000000,4.000000,4.000000,4.000000,4.000000,4.000000,4.000000,4.000000,4.000000,100.000000,,,,,,,,,,,,,,,,,,,,,,,,,,,,
1703493989.957503,1703493989.958120,118.000000,0.000000,4254.102539,4256.794922,4308.333496,4297.563965,4249.871582,4249.102539,4246.666504,4256.410156,4251.410156,4228.717773,4551.410156,4479.487305,4382.692383,4456.025879,5941.000000,4.000000,82.000000,,,,0.000000,4.000000,4.000000,4.000000,4.000000,4.000000,4.000000,4.000000,4.000000,4.000000,4.000000,4.000000,4.000000,4.000000,4.000000,100.000000,,,,,,,,,,,,,,,,,,,,,,,,,,,,
1703493989.965312,1703493989.965928,119.000000,0.000000,4264.230957,4259.230957,4316.410156,4296.538574,4252.563965,4248.974121,4249.743652,4259.615234,4256.282227,4233.461426,4565.512695,4492.179688,4400.641113,4468.846191,6194.000000,4.000000,82.000000,,,,0.000000,4.000000,4.000000,4.000000,4.000000,4.000000,4.000000,4.000000,4.000000,4.000000,4.000000,4.000000,4.000000,4.000000,4.000000,100.000000,,,,,,,,,,,,,,,,,,,,,,,,,,,,
1703493989.973120,1703493989.973836,120.000000,0.000000,4273.205078,4267.436035,4322.563965,4301.025879,4259.358887,4249.743652,4257.179688,4263.333496,4265.769043,4244.871582,4574.871582,4499.615234,4411.153809,4479.871582,6474.000000,4.000000,82.000000,,,,0.000000,4.000000,4.000000,4.000000,4.000000,4.000000,4.000000,4.000000,4.000000,4.000000,4.000000,4.000000,4.000000,4.000000,4.000000,100.000000,,,,,,,,,,,,,,,,,30.000000,0.000000,0.366568,0.522705,-0.471680,0.608215,0.971798,-0.194360,0.061043,-12.431251,-48.534550,67.086357
1703493989.980928,1703493989.981644,121.000000,0.000000,4275.641113,4273.974121,4323.717773,4306.025879,4258.846191,4249.871582,4252.820313,4261.153809,4265.000000,4249.102539,4570.769043,4497.820313,4408.461426,4481.410156,6417.000000,4.000000,82.000000,,,,0.000000,4.000000,4.000000,4.000000,4.000000,4.000000,4.000000,4.000000,4.000000,4.000000,4.000000,4.000000,4.000000,4.000000,4.000000,100.000000,,,,,,,,,,,,,,,,,,,,,,,,,,,,
1703493989.988736,1703493989.989552,122.000000,0.000000,4269.871582,4269.487305,4320.769043,4301.538574,4260.128418,4250.512695,4247.179688,4260.897461,4262.051270,4246.025879,4571.666504,4495.512695,4400.000000,4474.230957,5941.000000,4.000000,82.000000,,,,0.000000,4.000000,4.000000,4.000000,4.000000,4.000000,4.000000,4.000000,4.000000,4.000000,4.000000,4.000000,4.000000,4.000000,4.000000,100.000000,,,,,,,,,,,,,,,,,,,,,,,,,,,,
1703493989.996544,1703493989.997360,123.000000,0.000000,4256.922852,4258.077148,4312.179688,4292.563965,4257.948730,4250.128418,4248.974121,4263.205078,4261.794922,4247.820313,4569.615234,4490.000000,4388.974121,4463.205078,6194.000000,4.000000,82.000000,,,,0.000000,4.000000,4.000000,4.000000,4.000000,4.000000,4.000000,4.000000,4.000000,4.000000,4.000000,4.000000,4.000000,4.000000,4.000000,100.000000,,,,,,,,,,,,,,,,,,,,,,,,,,,,
1703493990.004352,1703493990.005268,124.000000,0.000000,4248.717773,4255.256348,4303.717773,4289.102539,4252.436035,4248.846191,4252.179688,4259.743652,4255.256348,4246.153809,4556.794922,4478.461426,4390.769043,4455.128418,6474.000000,4.000000,82.000000,,,,0.000000,4.000000,4.000000,4.000000,4.000000,4.000000,4.000000,4.000000,4.000000,4.000000,4.000000,4.000000,4.000000,4.000000,4.000000,100.000000,,,,,,,,,,,,,,,,,31.000000,0.000000,0.366652,0.522827,-0.471558,0.608154,0.965450,-0.198266,0.059089,-12.554792,-48.564426,67.144394
1703493990.012160,1703493990.013076,125.000000,0.000000,4248.205078,4259.230957,4305.256348,4290.641113,4251.153809,4249.358887,4253.846191,4256.538574,4245.641113,4234.102539,4548.461426,4472.820313,4394.102539,4448.333496,6417.000000,4.000000,82.000000,,,,0.000000,4.000000,4.000000,4.000000,4.000000,4.000000,4.000000,4.000000,4.000000,4.000000,4.000000,4.000000,4.000000,4.000000,4.000000,100.000000,,,,,,,,,,,,,,,,,,,,,,,,,,,,
1703493990.019968,1703493990.020784,126.000000,0.000000,4245.641113,4256.922852,4310.384766,4291.153809,4252.692383,4251.282227,4254.487305,4263.333496,4247.948730,4235.128418,4557.948730,4478.846191,4388.589844,4448.205078,5941.000000,4.000000,82.000000,,,,0.000000,4.000000,4.000000,4.000000,4.000000,4.000000,4.000000,4.000000,4.000000,4.000000,4.000000,4.000000,4.000000,4.000000,4.000000,100.000000,,,,,,,,,,,,,,,,,,,,,,,,,,,,
1703493990.027776,1703493990.028592,127.000000,0.000000,4247.307617,4256.410156,4310.641113,4292.051270,4257.948730,4251.025879,4251.922852,4268.717773,4256.153809,4249.358887,4569.871582,4482.948730,4393.333496,4456.282227,82.000000,4.000000,82.000000,,,,0.000000,4.000000,4.000000,4.000000,4.000000,4.000000,4.000000,4.000000,4.000000,4.000000,4.000000,4.000000,4.000000,4.000000,4.000000,100.000000,,,,,,,,,,,,,,,,,,,,,,,,,,,,
1703493990.035584,1703493990.036500,0.000000,0.000000,4254.871582,4269.743652,4311.538574,4296.794922,4259.102539,4249.487305,4247.051270,4262.820313,4257.307617,4243.974121,4563.205078,4481.025879,4398.974121,4458.461426,4503.000000,4.000000,82.000000,,,,0.000000,4.000000,4.000000,4.000000,4.000000,4.000000,4.000000,4.000000,4.000000,4.000000,4.000000,4.000000,4.000000,4.000000,4.000000,100.000000,,,,,,,,,,,,,,,,,0.000000,0.000000,0.366609,0.522644,-0.471558,0.608337,0.974240,-0.212428,0.054694,-12.565980,-48.557983,67.246620
1703493990.043392,1703493990.044308,1.000000,0.000000,4261.666504,4275.897461,4316.666504,4298.717773,4252.436035,4250.128418,4247.051270,4260.641113,4259.102539,4234.358887,4557.820313,4483.589844,4395.384766,4459.358887,5460.000000,4.000000,82.000000,,,,0.000000,4.000000,4.000000,4.000000,4.000000,4.000000,4.000000,4.000000,4.000000,4.000000,4.000000,4.000000,4.000000,4.000000,4.000000,100.000000,,,,,,,,,,,,,,,,,,,,,,,,,,,,
1703493990.051200,1703493990.052016,2.000000,0.000000,4269.230957,4262.051270,4323.846191,4295.384766,4255.384766,4250.897461,4248.717773,4266.025879,4267.051270,4245.512695,4575.256348,4494.615234,4403.077148,4472.692383,5505.000000,4.000000,82.000000,,,,0.000000,4.000000,4.000000,4.000000,4.000000,4.000000,4.000000,4.000000,4.000000,4.000000,4.000000,4.000000,4.000000,4.000000,4.000000,100.000000,,,,,,,,,,,,,,,,,,,,,,,,,,,,
1703493990.059008,1703493990.059924,3.000000,0.000000,4281.410156,4263.205078,4328.461426,4299.871582,4261.922852,4248.974121,4248.205078,4265.641113,4269.358887,4254.871582,4588.077148,4503.077148,4417.307617,4483.846191,5522.000000,4.000000,82.000000,,,,0.000000,4.000000,4.000000,4.000000,4.000000,4.000000,4.000000,4.000000,4.000000,4.000000,4.000000,4.000000,4.000000,4.000000,4.000000,100.000000,,,,,,,,,,,,,,,,,,,,,,,,,,,,
1703493990.066816,1703493990.067733,4.000000,0.000000,4285.128418,4277.563965,4324.230957,4306.282227,4252.307617,4247.820313,4248.461426,4262.948730,4265.769043,4251.025879,4578.717773,4497.179688,4416.922852,4482.436035,5320.000000,4.000000,82.000000,,,,0.000000,4.000000,4.000000,4.000000,4.000000,4.000000,4.000000,4.000000,4.000000,4.000000,4.000000,4.000000,4.000000,4.000000,4.000000,100.000000,,,,,,,,,,,,,,,,,1.000000,0.000000,0.366471,0.522583,-0.471497,0.608521,0.967892,-0.207545,0.058601,-12.459382,-48.585518,67.238625
1703493990.074624,1703493990.075641,5.000000,0.000000,4277.436035,4272.820313,4315.641113,4297.820313,4248.974121,4250.128418,4248.846191,4262.692383,4262.051270,4246.153809,4569.615234,4486.153809,4408.461426,4477.436035,4751.000000,4.000000,82.000000,,,,0.000000,4.000000,4.000000,4.000000,4.000000,4.000000,4.000000,4.000000,4.000000,4.000000,4.000000,4.000000,4.000000,4.000000,4.000000,100.000000,,,,,,,,,,,,,,,,,,,,,,,,,,,,
1703493990.082432,1703493990.083449,6.000000,0.000000,4273.974121,4262.179688,4314.102539,4287.307617,4261.922852,4249.102539,4248.077148,4259.743652,4257.948730,4243.205078,4568.717773,4481.666504,4401.282227,4473.205078,4478.000000,4.000000,82.000000,,,,0.000000,4.000000,4.000000,4.000000,4.000000,4.000000,4.000000,4.000000,4.000000,4.000000,4.000000,4.000000,4.000000,4.000000,4.000000,100.000000,,,,,,,,,,,,,,,,,,,,,,,,,,,,
1703493990.090240,1703493990.091257,7.000000,0.000000,4275.512695,4264.615234,4317.179688,4291.282227,4264.102539,4250.000000,4252.948730,4258.333496,4256.922852,4245.897461,4570.384766,4485.000000,4402.820313,4474.358887,3999.000000,4.000000,82.000000,,,,0.000000,4.000000,4.000000,4.000000,4.000000,4.000000,4.000000,4.000000,4.000000,4.000000,4.000000,4.000000,4.000000,4.000000,4.000000,100.000000,,,,,,,,,,,,,,,,,,,,,,,,,,,,
1703493990.098048,1703493990.098965,8.000000,0.000000,4272.307617,4268.333496,4315.769043,4295.769043,4262.179688,4256.666504,4260.384766,4264.743652,4263.077148,4252.948730,4577.692383,4488.846191,4415.000000,4476.794922,5026.000000,4.000000,82.000000,,,,0.000000,4.000000,4.000000,4.000000,4.000000,4.000000,4.000000,4.000000,4.000000,4.000000,4.000000,4.000000,4.000000,4.000000,4.000000,100.000000,,,,,,,,,,,,,,,,,2.000000,0.000000,0.366448,0.522583,-0.471436,0.608582,0.966915,-0.203638,0.058113,-12.380111,-48.660301,67.098091
1703493990.105857,1703493990.106773,9.000000,0.000000,4263.974121,4264.102539,4309.871582,4291.025879,4262.436035,4255.512695,4256.153809,4262.692383,4263.589844,4250.897461,4579.230957,4485.384766,4412.563965,4468.846191,5599.000000,4.000000,82.000000,,,,0.000000,4.000000,4.000000,4.000000,4.000000,4.000000,4.000000,4.000000,4.000000,4.000000,4.000000,4.000000,4.000000,4.000000,4.000000,100.000000,,,,,,,,,,,,,,,,,,,,,,,,,,,,
1703493990.113665,1703493990.114481,10.000000,0.000000,4259.871582,4262.563965,4309.230957,4289.487305,4258.077148,4249.230957,4249.615234,4251.410156,4254.871582,4245.384766,4567.692383,4481.153809,4397.307617,4457.307617,5945.000000,4.000000,82.000000,,,,0.000000,4.000000,4.000000,4.000000,4.000000,4.000000,4.000000,4.000000,4.000000,4.000000,4.000000,4.000000,4.000000,4.000000,4.000000,100.000000,,,,,,,,,,,,,,,,,,,,,,,,,,,,
1703493990.121472,1703493990.122289,11.000000,0.000000,4263.846191,4266.666504,4315.000000,4294.358887,4259.871582,4250.897461,4252.307617,4249.102539,4254.102539,4248.333496,4571.025879,4483.461426,4396.153809,4460.256348,6194.000000,4.000000,82.000000,,,,0.000000,4.000000,4.000000,4.000000,4.000000,4.000000,4.000000,4.000000,4.000000,4.000000,4.000000,4.000000,4.000000,4.000000,4.000000,100.000000,,,,,,,,,,,,,,,,,,,,,,,,,,,,
1703493990.129281,1703493990.129997,12.000000,0.000000,4264.615234,4266.025879,4313.717773,4294.871582,4260.641113,4250.897461,4250.512695,4253.333496,4259.871582,4249.743652,4582.051270,4483.717773,4399.487305,4466.538574,6464.000000,4.000000,82.000000,,,,0.000000,4.000000,4.000000,4.000000,4.000000,4.000000,4.000000,4.000000,4.000000,4.000000,4.000000,4.000000,4.000000,4.000000,4.000000,100.000000,,,,,,,,,,,,,,,,,3.000000,0.000000,0.366312,0.522339,-0.471497,0.608826,0.949823,-0.219265,0.046881,-12.425433,-48.627605,67.104950
1703493990.137089,1703493990.137905,13.000000,0.000000,4262.692383,4269.871582,4310.128418,4290.512695,4250.000000,4243.846191,4243.589844,4257.051270,4260.641113,4246.153809,4577.179688,4481.153809,4396.538574,4463.077148,6412.000000,4.000000,82.000000,,,,0.000000,4.000000,4.000000,4.000000,4.000000,4.000000,4.000000,4.000000,4.000000,4.000000,4.000000,4.000000,4.000000,4.000000,4.000000,100.000000,,,,,,,,,,,,,,,,,,,,,,,,,,,,
1703493990.144897,1703493990.145714,14.000000,0.000000,4264.743652,4279.230957,4313.077148,4291.922852,4244.102539,4243.974121,4244.102539,4261.666504,4262.051270,4247.307617,4574.871582,4486.794922,4398.589844,4463.974121,5945.000000,4.000000,82.000000,,,,0.000000,4.000000,4.000000,4.000000,4.000000,4.000000,4.000000,4.000000,4.000000,4.000000,4.000000,4.000000,4.000000,4.000000,4.000000,100.000000,,,,,,,,,,,,,,,,,,,,,,,,,,,,
1703493990.152705,1703493990.153622,15.000000,0.000000,4267.436035,4274.871582,4315.000000,4296.025879,4248.461426,4248.974121,4246.922852,4263.717773,4266.794922,4251.282227,4584.230957,4492.307617,4403.077148,4473.717773,6194.000000,4.000000,82.000000,,,,0.000000,4.000000,4.000000,4.000000,4.000000,4.000000,4.000000,4.000000,4.000000,4.000000,4.000000,4.000000,4.000000,4.000000,4.000000,100.000000,,,,,,,,,,,,,,,,,,,,,,,,,,,,
1703493990.160513,1703493990.161430,16.000000,0.000000,4267.307617,4260.641113,4312.692383,4291.922852,4249.871582,4248.717773,4247.051270,4264.743652,4268.205078,4252.179688,4586.538574,4490.256348,4399.102539,4476.282227,0.000000,4.000000,82.000000,,,,0.000000,4.000000,4.000000,4.000000,4.000000,4.000000,4.000000,4.000000,4.000000,4.000000,4.000000,4.000000,4.000000,4.000000,4.000000,100.000000,,,,,,,,,,,,,,,,,4.000000,0.000000,0.366277,0.522095,-0.471558,0.609009,0.975217,-0.205103,0.068368,-12.382890,-48.381512,67.027786
1703493990.168321,1703493990.169338,17.000000,0.000000,4265.897461,4261.025879,4308.077148,4283.333496,4246.153809,4247.436035,4246.153809,4265.000000,4262.051270,4248.846191,4578.461426,4484.487305,4395.769043,4469.358887,0.000000,4.000000,82.000000,,,,0.000000,4.000000,4.000000,4.000000,4.000000,4.000000,4.000000,4.000000,4.000000,4.000000,4.000000,4.000000,4.000000,4.000000,4.000000,100.000000,,,,,,,,,,,,,,,,,,,,,,,,,,,,
1703493990.176129,1703493990.177146,18.000000,0.000000,4264.358887,4268.461426,4301.282227,4281.153809,4240.641113,4246.410156,4245.128418,4257.948730,4251.538574,4240.256348,4567.563965,4477.307617,4394.871582,4466.282227,0.000000,4.000000,82.000000,,,,0.000000,4.000000,4.000000,4.000000,4.000000,4.000000,4.000000,4.000000,4.000000,4.000000,4.000000,4.000000,4.000000,4.000000,4.000000,100.000000,,,,,,,,,,,,,,,,,,,,,,,,,,,,
1703493990.183937,1703493990.185054,19.000000,0.000000,4263.333496,4264.615234,4299.230957,4284.358887,4241.025879,4247.436035,4245.128418,4248.333496,4243.974121,4232.051270,4558.333496,4471.025879,4386.410156,4462.051270,0.000000,4.000000,82.000000,,,,0.000000,4.000000,4.000000,4.000000,4.000000,4.000000,4.000000,4.000000,4.000000,4.000000,4.000000,4.000000,4.000000,4.000000,4.000000,100.000000,,,,,,,,,,,,,,,,,,,,,,,,,,,,
1703493990.191745,1703493990.192863,20.000000,0.000000,4264.487305,4261.794922,4302.948730,4288.205078,4249.487305,4250.128418,4246.025879,4248.461426,4246.922852,4236.025879,4561.666504,4467.692383,4385.641113,4461.410156,0.000000,4.000000,82.000000,,,,0.000000,4.000000,4.000000,4.000000,4.000000,4.000000,4.000000,4.000000,4.000000,4.000000,4.000000,4.000000,4.000000,4.000000,4.000000,100.000000,,,,,,,,,,,,,,,,,5.000000,0.000000,0.366335,0.521912,-0.471558,0.609131,0.969357,-0.214870,0.056159,-12.277934,-48.310024,67.025009
1703493990.199553,1703493990.200771,21.000000,0.000000,4265.641113,4266.922852,4307.051270,4293.974121,4252.692383,4250.641113,4247.948730,4256.282227,4252.948730,4248.461426,4570.512695,4471.153809,4398.461426,4470.000000,0.000000,4.000000,82.000000,,,,0.000000,4.000000,4.000000,4.000000,4.000000,4.000000,4.000000,4.000000,4.000000,4.000000,4.000000,4.000000,4.000000,4.000000,4.000000,100.000000,,,,,,,,,,,,,,,,,,,,,,,,,,,,
1703493990.207361,1703493990.208579,22.000000,0.000000,4264.230957,4268.077148,4306.794922,4295.897461,4250.897461,4249.102539,4247.563965,4262.563965,4250.000000,4246.666504,4568.461426,4478.974121,4398.205078,4468.589844,0.000000,4.000000,82.000000,,,,0.000000,4.000000,4.000000,4.000000,4.000000,4.000000,4.000000,4.000000,4.000000,4.000000,4.000000,4.000000,4.000000,4.000000,4.000000,100.000000,,,,,,,,,,,,,,,,,,,,,,,,,,,,
1703493990.215169,1703493990.216487,23.000000,0.000000,4261.410156,4263.333496,4303.461426,4286.922852,4248.589844,4248.461426,4245.256348,4261.282227,4247.692383,4234.743652,4562.692383,4475.128418,4382.692383,4457.692383,0.000000,4.000000,82.000000,,,,0.000000,4.000000,4.000000,4.000000,4.000000,4.000000,4.000000,4.000000,4.000000,4.000000,4.000000,4.000000,4.000000,4.000000,4.000000,100.000000,,,,,,,,,,,,,,,,,,,,,,,,,,,,
1703493990.222977,1703493990.224295,24.000000,0.000000,4254.871582,4257.307617,4304.615234,4278.205078,4243.589844,4249.230957,4247.051270,4262.692383,4258.077148,4235.769043,4557.307617,4471.282227,4378.717773,4456.666504,0.000000,4.000000,82.000000,,,,0.000000,4.000000,4.000000,4.000000,4.000000,4.000000,4.000000,4.000000,4.000000,4.000000,4.000000,4.000000,4.000000,4.000000,4.000000,100.000000,,,,,,,,,,,,,,,,,6.000000,0.000000,0.366448,0.521729,-0.471436,0.609314,0.972287,-0.210963,0.058601,-12.383473,-48.395691,67.005844
1703493990.230785,1703493990.232003,25.000000,0.000000,4249.871582,4256.153809,4307.307617,4284.615234,4244.487305,4248.846191,4250.641113,4264.871582,4264.358887,4240.256348,4555.897461,4479.615234,4374.102539,4458.205078,0.000000,4.000000,82.000000,,,,0.000000,4.000000,4.000000,4.000000,4.000000,4.000000,4.000000,4.000000,4.000000,4.000000,4.000000,4.000000,4.000000,4.000000,4.000000,100.000000,,,,,,,,,,,,,,,,,,,,,,,,,,,,
1703493990.238593,1703493990.239811,26.000000,0.000000,4252.692383,4262.179688,4305.769043,4294.358887,4248.846191,4248.974121,4249.487305,4254.487305,4250.769043,4229.743652,4552.692383,4477.948730,4356.410156,4446.538574,0.000000,4.000000,82.000000,,,,0.000000,4.000000,4.000000,4.000000,4.000000,4.000000,4.000000,4.000000,4.000000,4.000000,4.000000,4.000000,4.000000,4.000000,4.000000,100.000000,,,,,,,,,,,,,,,,,,,,,,,,,,,,
1703493990.246401,1703493990.247519,27.000000,0.000000,4258.077148,4270.256348,4303.077148,4293.077148,4248.974121,4253.589844,4247.179688,4246.666504,4241.538574,4226.025879,4549.358887,4469.230957,4364.487305,4445.641113,0.000000,4.000000,82.000000,,,,0.000000,4.000000,4.000000,4.000000,4.000000,4.000000,4.000000,4.000000,4.000000,4.000000,4.000000,4.000000,4.000000,4.000000,4.000000,100.000000,,,,,,,,,,,,,,,,,,,,,,,,,,,,
1703493990.254209,1703493990.255327,28.000000,0.000000,4265.641113,4273.974121,4309.102539,4292.820313,4253.077148,4258.974121,4248.974121,4260.000000,4256.794922,4248.333496,4563.205078,4478.974121,4396.538574,4466.282227,0.000000,4.000000,82.000000,,,,0.000000,4.000000,4.000000,4.000000,4.000000,4.000000,4.000000,4.000000,4.000000,4.000000,4.000000,4.000000,4.000000,4.000000,4.000000,100.000000,,,,,,,,,,,,,,,,,7.000000,0.000000,0.366324,0.521729,-0.471375,0.609436,0.963008,-0.204615,0.066903,-12.278460,-48.372787,67.038589
1703493990.262017,1703493990.263035,29.000000,0.000000,4276.666504,4277.820313,4318.589844,4300.128418,4264.358887,4263.846191,4252.563965,4270.641113,4272.179688,4263.974121,4586.025879,4494.615234,4409.615234,4480.512695,0.000000,4.000000,82.000000,,,,0.000000,4.000000,4.000000,4.000000,4.000000,4.000000,4.000000,4.000000,4.000000,4.000000,4.000000,4.000000,4.000000,4.000000,4.000000,100.000000,,,,,,,,,,,,,,,,,,,,,,,,,,,,
1703493990.269826,1703493990.270843,30.000000,0.000000,4280.897461,4279.871582,4314.743652,4300.384766,4265.128418,4263.461426,4252.051270,4265.128418,4266.410156,4256.538574,4586.794922,4492.436035,4405.384766,4478.846191,0.000000,4.000000,82.000000,,,,0.000000,4.000000,4.000000,4.000000,4.000000,4.000000,4.000000,4.000000,4.000000,4.000000,4.000000,4.000000,4.000000,4.000000,4.000000,100.000000,1.000000,100.000000,4.000000,4.000000,4.000000,4.000000,4.000000,4.000000,4.000000,4.000000,4.000000,4.000000,4.000000,4.000000,4.000000,4.000000,,,,,,,,,,,,
1703493990.277634,1703493990.278551,31.000000,0.000000,4277.692383,4273.589844,4308.846191,4292.692383,4252.820313,4255.512695,4248.846191,4257.436035,4251.153809,4244.871582,4572.820313,4484.230957,4401.922852,4475.000000,0.000000,4.000000,82.000000,,,,0.000000,4.000000,4.000000,4.000000,4.000000,4.000000,4.000000,4.000000,4.000000,4.000000,4.000000,4.000000,4.000000,4.000000,4.000000,100.000000,,,,,,,,,,,,,,,,,,,,,,,,,,,,
1703493990.285442,1703493990.286359,32.000000,0.000000,4278.846191,4273.974121,4316.410156,4295.384766,4244.743652,4248.846191,4247.820313,4251.794922,4244.102539,4237.307617,4570.384766,4486.666504,4400.897461,4476.538574,0.000000,4.000000,82.000000,,,,0.000000,4.000000,4.000000,4.000000,4.000000,4.000000,4.000000,4.000000,4.000000,4.000000,4.000000,4.000000,4.000000,4.000000,4.000000,100.000000,,,,,,,,,,,,,,,,,8.000000,0.000000,0.366452,0.521606,-0.471252,0.609558,0.965450,-0.205103,0.058601,-12.217280,-48.385509,67.118065
1703493990.293250,1703493990.294067,33.000000,0.000000,4280.769043,4277.051270,4322.820313,4307.051270,4246.410156,4249.230957,4250.512695,4253.589844,4245.256348,4233.205078,4571.922852,4490.128418,4399.615234,4477.692383,0.000000,4.000000,82.000000,,,,0.000000,4.000000,4.000000,4.000000,4.000000,4.000000,4.000000,4.000000,4.000000,4.000000,4.000000,4.000000,4.000000,4.000000,4.000000,100.000000,,,,,,,,,,,,,,,,,,,,,,,,,,,,
1703493990.301058,1703493990.301875,34.000000,0.000000,4279.615234,4272.179688,4319.615234,4312.179688,4249.358887,4251.794922,4254.230957,4258.461426,4245.256348,4231.025879,4570.256348,4491.410156,4397.051270,4476.282227,0.000000,4.000000,82.000000,,,,0.000000,4.000000,4.000000,4.000000,4.000000,4.000000,4.000000,4.000000,4.000000,4.000000,4.000000,4.000000,4.000000,4.000000,4.000000,100.000000,,,,,,,,,,,,,,,,,,,,,,,,,,,,
1703493990.308866,1703493990.309583,35.000000,0.000000,4280.000000,4271.025879,4318.461426,4309.871582,4247.692383,4248.717773,4258.333496,4253.077148,4242.179688,4228.333496,4568.461426,4492.692383,4394.102539,4475.897461,0.000000,4.000000,82.000000,,,,0.000000,4.000000,4.000000,4.000000,4.000000,4.000000,4.000000,4.000000,4.000000,4.000000,4.000000,4.000000,4.000000,4.000000,4.000000,100.000000,,,,,,,,,,,,,,,,,,,,,,,,,,,,
1703493990.316674,1703493990.317390,36.000000,0.000000,4278.846191,4269.487305,4322.692383,4308.974121,4247.563965,4250.384766,4261.282227,4252.563965,4245.256348,4227.436035,4566.025879,4493.333496,4389.615234,4474.358887,0.000000,4.000000,82.000000,,,,0.000000,4.000000,4.000000,4.000000,4.000000,4.000000,4.000000,4.000000,4.000000,4.000000,4.000000,4.000000,4.000000,4.000000,4.000000,100.000000,,,,,,,,,,,,,,,,,9.000000,0.000000,0.366397,0.521667,-0.471069,0.609680,0.955195,-0.206080,0.058113,-12.328886,-48.346958,67.089592
1703493990.324482,1703493990.325098,37.000000,0.000000,4280.769043,4268.846191,4324.487305,4312.436035,4251.153809,4257.436035,4263.461426,4264.102539,4257.307617,4233.333496,4570.897461,4495.897461,4392.692383,4477.179688,0.000000,4.000000,82.000000,,,,0.000000,4.000000,4.000000,4.000000,4.000000,4.000000,4.000000,4.000000,4.000000,4.000000,4.000000,4.000000,4.000000,4.000000,4.000000,100.000000,,,,,,,,,,,,,,,,,,,,,,,,,,,,
1703493990.332290,1703493990.333006,38.000000,0.000000,4281.282227,4272.820313,4319.102539,4313.974121,4252.948730,4255.512695,4260.384766,4260.641113,4260.128418,4237.307617,4574.358887,4489.871582,4392.948730,4476.282227,0.000000,4.000000,82.000000,,,,0.000000,4.000000,4.000000,4.000000,4.000000,4.000000,4.000000,4.000000,4.000000,4.000000,4.000000,4.000000,4.000000,4.000000,4.000000,100.000000,,,,,,,,,,,,,,,,,,,,,,,,,,,,
1703493990.340098,1703493990.340815,39.000000,0.000000,4271.153809,4271.538574,4312.307617,4309.102539,4249.615234,4247.820313,4250.256348,4244.743652,4246.153809,4228.974121,4558.974121,4474.743652,4377.436035,4463.846191,0.000000,4.000000,82.000000,,,,0.000000,4.000000,4.000000,4.000000,4.000000,4.000000,4.000000,4.000000,4.000000,4.000000,4.000000,4.000000,4.000000,4.000000,4.000000,100.000000,,,,,,,,,,,,,,,,,,,,,,,,,,,,
1703493990.347906,1703493990.348723,40.000000,0.000000,4268.589844,4270.384766,4310.641113,4306.794922,4246.794922,4245.128418,4244.487305,4244.487305,4239.615234,4224.743652,4548.205078,4472.051270,4374.743652,4458.205078,0.000000,4.000000,82.000000,,,,0.000000,4.000000,4.000000,4.000000,4.000000,4.000000,4.000000,4.000000,4.000000,4.000000,4.000000,4.000000,4.000000,4.000000,4.000000,100.000000,,,,,,,,,,,,,,,,,10.000000,0.000000,0.366351,0.521667,-0.470947,0.609802,0.968868,-0.219753,0.059089,-12.329330,-48.262260,67.063965
1703493990.355714,1703493990.356531,41.000000,0.000000,4274.358887,4274.358887,4310.384766,4306.922852,4249.743652,4247.179688,4245.512695,4251.794922,4249.230957,4232.051270,4559.487305,4479.102539,4392.563965,4463.974121,0.000000,4.000000,82.000000,,,,0.000000,4.000000,4.000000,4.000000,4.000000,4.000000,4.000000,4.000000,4.000000,4.000000,4.000000,4.000000,4.000000,4.000000,4.000000,100.000000,,,,,,,,,,,,,,,,,,,,,,,,,,,,
1703493990.363522,1703493990.364439,42.000000,0.000000,4271.025879,4269.358887,4308.717773,4301.282227,4250.769043,4246.794922,4246.538574,4250.512695,4254.871582,4237.436035,4562.948730,4474.871582,4394.615234,4464.230957,0.000000,4.000000,82.000000,,,,0.000000,4.000000,4.000000,4.000000,4.000000,4.000000,4.000000,4.000000,4.000000,4.000000,4.000000,4.000000,4.000000,4.000000,4.000000,100.000000,,,,,,,,,,,,,,,,,,,,,,,,,,,,
1703493990.371330,1703493990.372247,43.000000,0.000000,4260.000000,4258.974121,4306.025879,4292.307617,4246.538574,4247.179688,4244.102539,4246.922852,4248.974121,4231.282227,4549.871582,4466.282227,4376.666504,4456.282227,0.000000,4.000000,82.000000,,,,0.000000,4.000000,4.000000,4.000000,4.000000,4.000000,4.000000,4.000000,4.000000,4.000000,4.000000,4.000000,4.000000,4.000000,4.000000,100.000000,,,,,,,,,,,,,,,,,,,,,,,,,,,,
1703493990.379138,1703493990.380155,44.000000,0.000000,4261.666504,4262.436035,4307.948730,4293.717773,4245.641113,4248.589844,4245.769043,4247.307617,4247.436035,4227.563965,4553.205078,4467.948730,4380.512695,4456.922852,0.000000,4.000000,82.000000,,,,0.000000,4.000000,4.000000,4.000000,4.000000,4.000000,4.000000,4.000000,4.000000,4.000000,4.000000,4.000000,4.000000,4.000000,4.000000,100.000000,,,,,,,,,,,,,,,,,11.000000,0.000000,0.366550,0.521423,-0.470825,0.609985,0.969357,-0.210963,0.065438,-12.163064,-48.186035,67.157570
1703493990.386946,1703493990.387964,45.000000,0.000000,4275.641113,4265.641113,4316.410156,4302.948730,4253.974121,4250.897461,4257.563965,4251.025879,4255.512695,4236.410156,4573.717773,4476.922852,4404.743652,4471.666504,0.000000,4.000000,82.000000,,,,0.000000,4.000000,4.000000,4.000000,4.000000,4.000000,4.000000,4.000000,4.000000,4.000000,4.000000,4.000000,4.000000,4.000000,4.000000,100.000000,,,,,,,,,,,,,,,,,,,,,,,,,,,,
1703493990.394754,1703493990.395871,46.000000,0.000000,4283.333496,4263.717773,4322.051270,4307.179688,4258.077148,4253.974121,4262.820313,4252.436035,4258.717773,4246.282227,4582.179688,4488.846191,4416.025879,4484.102539,0.000000,4.000000,82.000000,,,,0.000000,4.000000,4.000000,4.000000,4.000000,4.000000,4.000000,4.000000,4.000000,4.000000,4.000000,4.000000,4.000000,4.000000,4.000000,100.000000,,,,,,,,,,,,,,,,,,,,,,,,,,,,
1703493990.402562,1703493990.403679,47.000000,0.000000,4280.384766,4269.102539,4321.410156,4305.512695,4251.153809,4249.871582,4251.666504,4250.128418,4250.769043,4245.897461,4577.051270,4491.025879,4407.692383,4481.666504,0.000000,4.000000,82.000000,,,,0.000000,4.000000,4.000000,4.000000,4.000000,4.000000,4.000000,4.000000,4.000000,4.000000,4.000000,4.000000,4.000000,4.000000,4.000000,100.000000,,,,,,,,,,,,,,,,,,,,,,,,,,,,
1703493990.410370,1703493990.411487,48.000000,0.000000,4275.384766,4272.307617,4317.820313,4305.512695,4246.282227,4246.025879,4244.743652,4250.128418,4245.384766,4234.102539,4568.589844,4481.025879,4392.051270,4470.512695,0.000000,4.000000,82.000000,,,,0.000000,4.000000,4.000000,4.000000,4.000000,4.000000,4.000000,4.000000,4.000000,4.000000,4.000000,4.000000,4.000000,4.000000,4.000000,100.000000,,,,,,,,,,,,,,,,,12.000000,0.000000,0.366648,0.521179,-0.470703,0.610229,0.973752,-0.215358,0.058601,-11.996758,-48.300766,67.341812
1703493990.418178,1703493990.419295,49.000000,0.000000,4279.871582,4273.077148,4315.512695,4309.102539,4250.256348,4249.358887,4250.512695,4254.871582,4246.794922,4230.897461,4568.846191,4481.282227,4397.436035,4472.563965,0.000000,4.000000,82.000000,,,,0.000000,4.000000,4.000000,4.000000,4.000000,4.000000,4.000000,4.000000,4.000000,4.000000,4.000000,4.000000,4.000000,4.000000,4.000000,100.000000,,,,,,,,,,,,,,,,,,,,,,,,,,,,
1703493990.425986,1703493990.427003,50.000000,0.000000,4282.820313,4268.205078,4318.333496,4305.384766,4250.128418,4251.025879,4250.769043,4258.717773,4246.538574,4241.153809,4579.615234,4493.461426,4411.153809,4479.871582,0.000000,4.000000,82.000000,,,,0.000000,4.000000,4.000000,4.000000,4.000000,4.000000,4.000000,4.000000,4.000000,4.000000,4.000000,4.000000,4.000000,4.000000,4.000000,100.000000,,,,,,,,,,,,,,,,,,,,,,,,,,,,
1703493990.433794,1703493990.434811,51.000000,0.000000,4278.846191,4263.717773,4320.769043,4300.769043,4245.384766,4247.692383,4246.410156,4256.025879,4245.512695,4239.358887,4583.846191,4495.256348,4408.717773,4477.307617,0.000000,4.000000,82.000000,,,,0.000000,4.000000,4.000000,4.000000,4.000000,4.000000,4.000000,4.000000,4.000000,4.000000,4.000000,4.000000,4.000000,4.000000,4.000000,100.000000,,,,,,,,,,,,,,,,,,,,,,,,,,,,
1703493990.441603,1703493990.442519,52.000000,0.000000,4279.487305,4273.717773,4321.025879,4308.333496,4247.179688,4247.051270,4247.692383,4250.512695,4246.153809,4233.461426,4582.307617,4490.641113,4401.794922,4475.128418,0.000000,4.000000,82.000000,,,,0.000000,4.000000,4.000000,4.000000,4.000000,4.000000,4.000000,4.000000,4.000000,4.000000,4.000000,4.000000,4.000000,4.000000,4.000000,100.000000,,,,,,,,,,,,,,,,,13.000000,0.000000,0.366980,0.520874,-0.470703,0.610291,0.973752,-0.211452,0.064949,-12.030416,-48.187355,67.457634
1703493990.449411,1703493990.450327,53.000000,0.000000,4282.179688,4277.307617,4321.410156,4311.794922,4250.897461,4248.974121,4248.589844,4251.538574,4247.307617,4239.871582,4581.153809,4491.922852,4399.358887,4476.794922,0.000000,4.000000,82.000000,,,,0.000000,4.000000,4.000000,4.000000,4.000000,4.000000,4.000000,4.000000,4.000000,4.000000,4.000000,4.000000,4.000000,4.000000,4.000000,100.000000,,,,,,,,,,,,,,,,,,,,,,,,,,,,
1703493990.457219,1703493990.458036,54.000000,0.000000,4281.282227,4266.538574,4319.230957,4303.974121,4249.487305,4247.179688,4247.820313,4255.641113,4249.871582,4244.487305,4575.769043,4492.563965,4400.000000,4475.128418,0.000000,4.000000,82.000000,,,,0.000000,4.000000,4.000000,4.000000,4.000000,4.000000,4.000000,4.000000,4.000000,4.000000,4.000000,4.000000,4.000000,4.000000,4.000000,100.000000,,,,,,,,,,,,,,,,,,,,,,,,,,,,
1703493990.465027,1703493990.465843,55.000000,0.000000,4278.974121,4267.436035,4317.307617,4303.333496,4246.666504,4246.282227,4247.436035,4254.615234,4249.358887,4238.205078,4574.230957,4487.692383,4395.384766,4472.692383,0.000000,4.000000,82.000000,,,,0.000000,4.000000,4.000000,4.000000,4.000000,4.000000,4.000000,4.000000,4.000000,4.000000,4.000000,4.000000,4.000000,4.000000,4.000000,100.000000,,,,,,,,,,,,,,,,,,,,,,,,,,,,
1703493990.472835,1703493990.473552,56.000000,0.000000,4281.282227,4275.641113,4320.641113,4309.487305,4247.692383,4248.205078,4249.615234,4250.256348,4249.871582,4238.974121,4580.769043,4490.897461,4394.487305,4478.333496,0.000000,4.000000,82.000000,,,,0.000000,4.000000,4.000000,4.000000,4.000000,4.000000,4.000000,4.000000,4.000000,4.000000,4.000000,4.000000,4.000000,4.000000,4.000000,100.000000,,,,,,,,,,,,,,,,,14.000000,0.000000,0.367187,0.520569,-0.470642,0.610474,0.976193,-0.205103,0.059578,-12.127374,-48.301952,67.495201
1703493990.480643,1703493990.481360,57.000000,0.000000,4280.769043,4264.743652,4322.307617,4304.102539,4246.410156,4247.051270,4252.563965,4248.974121,4252.051270,4243.589844,4580.512695,4498.589844,4401.666504,4481.153809,0.000000,4.000000,82.000000,,,,0.000000,4.000000,4.000000,4.000000,4.000000,4.000000,4.000000,4.000000,4.000000,4.000000,4.000000,4.000000,4.000000,4.000000,4.000000,100.000000,,,,,,,,,,,,,,,,,,,,,,,,,,,,
1703493990.488451,1703493990.489067,58.000000,0.000000,4276.410156,4255.897461,4319.615234,4295.897461,4239.743652,4243.461426,4250.000000,4249.743652,4249.230957,4236.666504,4568.717773,4494.743652,4398.846191,4475.641113,0.000000,4.000000,82.000000,,,,0.000000,4.000000,4.000000,4.000000,4.000000,4.000000,4.000000,4.000000,4.000000,4.000000,4.000000,4.000000,4.000000,4.000000,4.000000,100.000000,,,,,,,,,,,,,,,,,,,,,,,,,,,,
1703493990.496259,1703493990.496875,59.000000,0.000000,4278.461426,4268.205078,4316.794922,4295.769043,4232.692383,4241.282227,4245.000000,4249.487305,4246.410156,4230.512695,4560.256348,4484.615234,4386.153809,4475.769043,0.000000,4.000000,82.000000,,,,0.000000,4.000000,4.000000,4.000000,4.000000,4.000000,4.000000,4.000000,4.000000,4.000000,4.000000,4.000000,4.000000,4.000000,4.000000,100.000000,,,,,,,,,,,,,,,,,,,,,,,,,,,,
1703493990.504067,1703493990.504583,60.000000,0.000000,4278.846191,4276.666504,4313.846191,4295.769043,4231.538574,4242.307617,4245.000000,4249.102539,4246.666504,4230.512695,4555.000000,4477.436035,4383.717773,4475.641113,0.000000,4.000000,82.000000,,,,0.000000,4.000000,4.000000,4.000000,4.000000,4.000000,4.000000,4.000000,4.000000,4.000000,4.000000,4.000000,4.000000,4.000000,4.000000,100.000000,,,,,,,,,,,,,,,,,15.000000,0.000000,0.367163,0.520569,-0.470581,0.610535,0.964473,-0.208033,0.069833,-12.147969,-48.521759,67.629013
1703493990.511875,1703493990.512391,61.000000,0.000000,4276.538574,4277.179688,4314.743652,4292.692383,4240.512695,4245.897461,4247.179688,4246.153809,4246.794922,4232.563965,4553.846191,4478.846191,4394.871582,4472.051270,0.000000,4.000000,82.000000,,,,0.000000,4.000000,4.000000,4.000000,4.000000,4.000000,4.000000,4.000000,4.000000,4.000000,4.000000,4.000000,4.000000,4.000000,4.000000,100.000000,,,,,,,,,,,,,,,,,,,,,,,,,,,,
1703493990.519683,1703493990.520098,62.000000,0.000000,4282.179688,4280.641113,4321.538574,4296.410156,4251.025879,4249.871582,4246.410156,4244.487305,4246.794922,4234.487305,4559.358887,4486.153809,4398.333496,4473.205078,0.000000,4.000000,82.000000,,,,0.000000,4.000000,4.000000,4.000000,4.000000,4.000000,4.000000,4.000000,4.000000,4.000000,4.000000,4.000000,4.000000,4.000000,4.000000,100.000000,,,,,,,,,,,,,,,,,,,,,,,,,,,,
1703493990.527491,1703493990.528007,63.000000,0.000000,4288.846191,4285.256348,4327.820313,4305.128418,4251.538574,4251.410156,4246.410156,4247.436035,4247.948730,4237.179688,4567.436035,4490.384766,4398.974121,4479.358887,0.000000,4.000000,82.000000,,,,0.000000,4.000000,4.000000,4.000000,4.000000,4.000000,4.000000,4.000000,4.000000,4.000000,4.000000,4.000000,4.000000,4.000000,4.000000,100.000000,,,,,,,,,,,,,,,,,,,,,,,,,,,,
1703493990.535299,1703493990.535815,64.000000,0.000000,4284.743652,4281.538574,4328.846191,4303.974121,4247.692383,4250.128418,4249.615234,4251.025879,4249.615234,4246.922852,4571.153809,4490.897461,4405.512695,4482.179688,4503.000000,4.000000,82.000000,,,,0.000000,4.000000,4.000000,4.000000,4.000000,4.000000,4.000000,4.000000,4.000000,4.000000,4.000000,4.000000,4.000000,4.000000,4.000000,100.000000,,,,,,,,,,,,,,,,,16.000000,0.000000,0.367117,0.520569,-0.470459,0.610657,0.974240,-0.219753,0.062508,-12.033173,-48.669582,67.549446
1703493990.543107,1703493990.543723,65.000000,0.000000,4277.820313,4274.615234,4324.358887,4295.128418,4248.077148,4247.307617,4249.102539,4246.794922,4248.205078,4248.205078,4561.666504,4485.641113,4403.077148,4476.282227,5460.000000,4.000000,82.000000,,,,0.000000,4.000000,4.000000,4.000000,4.000000,4.000000,4.000000,4.000000,4.000000,4.000000,4.000000,4.000000,4.000000,4.000000,4.000000,100.000000,,,,,,,,,,,,,,,,,,,,,,,,,,,,
1703493990.550915,1703493990.551531,66.000000,0.000000,4278.461426,4279.230957,4318.717773,4291.794922,4247.692383,4246.025879,4245.128418,4238.846191,4242.820313,4237.820313,4555.256348,4479.230957,4399.743652,4475.897461,5507.000000,4.000000,82.000000,,,,0.000000,4.000000,4.000000,4.000000,4.000000,4.000000,4.000000,4.000000,4.000000,4.000000,4.000000,4.000000,4.000000,4.000000,4.000000,100.000000,,,,,,,,,,,,,,,,,,,,,,,,,,,,
1703493990.558723,1703493990.559439,67.000000,0.000000,4281.794922,4280.128418,4314.743652,4294.230957,4246.025879,4247.051270,4244.487305,4236.922852,4236.538574,4230.000000,4558.077148,4474.487305,4396.922852,4476.538574,5522.000000,4.000000,82.000000,,,,0.000000,4.000000,4.000000,4.000000,4.000000,4.000000,4.000000,4.000000,4.000000,4.000000,4.000000,4.000000,4.000000,4.000000,4.000000,100.000000,,,,,,,,,,,,,,,,,,,,,,,,,,,,
1703493990.566531,1703493990.567247,68.000000,0.000000,4277.179688,4265.384766,4311.666504,4292.563965,4246.025879,4246.922852,4246.282227,4235.769043,4232.948730,4228.974121,4550.384766,4468.589844,4388.461426,4465.769043,5307.000000,4.000000,82.000000,,,,0.000000,4.000000,4.000000,4.000000,4.000000,4.000000,4.000000,4.000000,4.000000,4.000000,4.000000,4.000000,4.000000,4.000000,4.000000,100.000000,,,,,,,,,,,,,,,,,17.000000,0.000000,0.367118,0.520447,-0.470276,0.610901,0.968380,-0.208522,0.057136,-12.096522,-48.535957,67.494499
1703493990.574339,1703493990.575155,69.000000,0.000000,4267.179688,4256.410156,4308.461426,4289.102539,4247.179688,4246.025879,4247.948730,4233.333496,4235.512695,4229.102539,4539.230957,4464.230957,4379.487305,4457.563965,4751.000000,4.000000,82.000000,,,,0.000000,4.000000,4.000000,4.000000,4.000000,4.000000,4.000000,4.000000,4.000000,4.000000,4.000000,4.000000,4.000000,4.000000,4.000000,100.000000,,,,,,,,,,,,,,,,,,,,,,,,,,,,
1703493990.582147,1703493990.582963,70.000000,0.000000,4267.436035,4266.794922,4308.846191,4292.307617,4250.641113,4246.666504,4250.128418,4235.384766,4244.743652,4227.948730,4540.512695,4466.538574,4371.410156,4460.512695,4478.000000,4.000000,82.000000,,,,0.000000,4.000000,4.000000,4.000000,4.000000,4.000000,4.000000,4.000000,4.000000,4.000000,4.000000,4.000000,4.000000,4.000000,4.000000,100.000000,,,,,,,,,,,,,,,,,,,,,,,,,,,,
1703493990.589955,1703493990.590871,71.000000,0.000000,4276.922852,4276.666504,4312.179688,4295.256348,4250.384766,4247.692383,4249.358887,4242.307617,4249.615234,4232.051270,4545.897461,4470.384766,4371.922852,4462.692383,3999.000000,4.000000,82.000000,,,,0.000000,4.000000,4.000000,4.000000,4.000000,4.000000,4.000000,4.000000,4.000000,4.000000,4.000000,4.000000,4.000000,4.000000,4.000000,100.000000,,,,,,,,,,,,,,,,,,,,,,,,,,,,
1703493990.597763,1703493990.598679,72.000000,0.000000,4276.666504,4268.717773,4312.436035,4292.563965,4245.641113,4247.307617,4247.307617,4246.666504,4249.871582,4242.051270,4551.025879,4472.179688,4375.512695,4461.410156,5026.000000,4.000000,82.000000,,,,0.000000,4.000000,4.000000,4.000000,4.000000,4.000000,4.000000,4.000000,4.000000,4.000000,4.000000,4.000000,4.000000,4.000000,4.000000,100.000000,,,,,,,,,,,,,,,,,18.000000,0.000000,0.366978,0.520386,-0.470215,0.611084,0.959101,-0.221707,0.065926,-12.120203,-48.515694,67.378387
1703493990.605572,1703493990.606487,73.000000,0.000000,4273.846191,4253.333496,4314.743652,4287.948730,4247.051270,4246.538574,4249.102539,4247.948730,4258.846191,4251.282227,4563.205078,4477.436035,4379.230957,4464.615234,5599.000000,4.000000,82.000000,,,,0.000000,4.000000,4.000000,4.000000,4.000000,4.000000,4.000000,4.000000,4.000000,4.000000,4.000000,4.000000,4.000000,4.000000,4.000000,100.000000,,,,,,,,,,,,,,,,,,,,,,,,,,,,
1703493990.613380,1703493990.614295,74.000000,0.000000,4272.436035,4245.641113,4315.769043,4282.820313,4250.256348,4246.282227,4250.384766,4249.358887,4262.820313,4252.563965,4567.436035,4482.948730,4388.333496,4464.615234,5953.000000,4.000000,82.000000,,,,0.000000,4.000000,4.000000,4.000000,4.000000,4.000000,4.000000,4.000000,4.000000,4.000000,4.000000,4.000000,4.000000,4.000000,4.000000,100.000000,,,,,,,,,,,,,,,,,,,,,,,,,,,,
1703493990.621188,1703493990.622003,75.000000,0.000000,4269.487305,4248.974121,4312.307617,4280.512695,4247.948730,4246.666504,4247.820313,4248.974121,4252.051270,4247.051270,4558.333496,4482.307617,4387.307617,4461.538574,6197.000000,4.000000,82.000000,,,,0.000000,4.000000,4.000000,4.000000,4.000000,4.000000,4.000000,4.000000,4.000000,4.000000,4.000000,4.000000,4.000000,4.000000,4.000000,100.000000,,,,,,,,,,,,,,,,,,,,,,,,,,,,
1703493990.628996,1703493990.629811,76.000000,0.000000,4270.897461,4251.153809,4313.717773,4286.025879,4246.666504,4246.282227,4245.384766,4248.077148,4245.512695,4245.769043,4553.077148,4480.384766,4373.846191,4461.794922,6467.000000,4.000000,82.000000,,,,0.000000,4.000000,4.000000,4.000000,4.000000,4.000000,4.000000,4.000000,4.000000,4.000000,4.000000,4.000000,4.000000,4.000000,4.000000,100.000000,,,,,,,,,,,,,,,,,19.000000,0.000000,0.366946,0.520447,-0.470093,0.611145,0.971310,-0.218777,0.071298,-12.058183,-48.664127,67.490547
1703493990.636804,1703493990.637519,77.000000,0.000000,4275.512695,4247.563965,4315.641113,4288.974121,4245.256348,4246.153809,4245.512695,4249.230957,4251.153809,4244.743652,4557.051270,4480.128418,4375.128418,4464.743652,6412.000000,4.000000,82.000000,,,,0.000000,4.000000,4.000000,4.000000,4.000000,4.000000,4.000000,4.000000,4.000000,4.000000,4.000000,4.000000,4.000000,4.000000,4.000000,100.000000,,,,,,,,,,,,,,,,,,,,,,,,,,,,
1703493990.644612,1703493990.645427,78.000000,0.000000,4277.051270,4247.436035,4312.692383,4288.205078,4242.436035,4248.205078,4247.692383,4249.230957,4251.666504,4239.743652,4554.871582,4481.153809,4387.948730,4466.922852,5953.000000,4.000000,82.000000,,,,0.000000,4.000000,4.000000,4.000000,4.000000,4.000000,4.000000,4.000000,4.000000,4.000000,4.000000,4.000000,4.000000,4.000000,4.000000,100.000000,,,,,,,,,,,,,,,,,,,,,,,,,,,,
1703493990.652420,1703493990.653235,79.000000,0.000000,4271.794922,4245.512695,4309.358887,4286.538574,4243.589844,4247.692383,4247.563965,4241.410156,4241.153809,4231.025879,4543.974121,4479.743652,4378.333496,4464.615234,6197.000000,4.000000,82.000000,,,,0.000000,4.000000,4.000000,4.000000,4.000000,4.000000,4.000000,4.000000,4.000000,4.000000,4.000000,4.000000,4.000000,4.000000,4.000000,100.000000,,,,,,,,,,,,,,,,,,,,,,,,,,,,
1703493990.660228,1703493990.661144,80.000000,0.000000,4263.589844,4238.205078,4306.025879,4282.051270,4245.384766,4244.230957,4245.000000,4233.589844,4233.589844,4222.563965,4538.846191,4471.666504,4360.128418,4456.410156,6467.000000,4.000000,82.000000,,,,0.000000,4.000000,4.000000,4.000000,4.000000,4.000000,4.000000,4.000000,4.000000,4.000000,4.000000,4.000000,4.000000,4.000000,4.000000,100.000000,,,,,,,,,,,,,,,,,20.000000,0.000000,0.367159,0.520264,-0.469971,0.611267,0.972287,-0.228055,0.059089,-12.069032,-48.647713,67.524826
1703493990.668036,1703493990.668952,81.000000,0.000000,4260.256348,4232.179688,4303.077148,4278.461426,4244.615234,4243.589844,4246.153809,4236.922852,4232.820313,4217.436035,4532.563965,4465.256348,4355.000000,4444.743652,6412.000000,4.000000,82.000000,,,,0.000000,4.000000,4.000000,4.000000,4.000000,4.000000,4.000000,4.000000,4.000000,4.000000,4.000000,4.000000,4.000000,4.000000,4.000000,100.000000,,,,,,,,,,,,,,,,,,,,,,,,,,,,
1703493990.675844,1703493990.676760,82.000000,0.000000,4258.205078,4230.641113,4305.384766,4280.256348,4245.512695,4245.512695,4247.692383,4242.051270,4234.615234,4216.666504,4524.743652,4466.666504,4358.333496,4441.282227,5953.000000,4.000000,82.000000,,,,0.000000,4.000000,4.000000,4.000000,4.000000,4.000000,4.000000,4.000000,4.000000,4.000000,4.000000,4.000000,4.000000,4.000000,4.000000,100.000000,,,,,,,,,,,,,,,,,,,,,,,,,,,,
1703493990.683652,1703493990.684468,83.000000,0.000000,4256.666504,4236.922852,4308.333496,4287.307617,4247.436035,4247.179688,4248.077148,4237.820313,4235.641113,4219.102539,4524.615234,4465.000000,4358.589844,4444.102539,6197.000000,4.000000,82.000000,,,,0.000000,4.000000,4.000000,4.000000,4.000000,4.000000,4.000000,4.000000,4.000000,4.000000,4.000000,4.000000,4.000000,4.000000,4.000000,100.000000,,,,,,,,,,,,,,,,,,,,,,,,,,,,
1703493990.691460,1703493990.692276,84.000000,0.000000,4257.692383,4250.256348,4305.384766,4294.358887,4248.077148,4245.256348,4248.717773,4231.153809,4234.358887,4216.538574,4520.256348,4456.922852,4346.666504,4438.333496,6467.000000,4.000000,82.000000,,,,0.000000,4.000000,4.000000,4.000000,4.000000,4.000000,4.000000,4.000000,4.000000,4.000000,4.000000,4.000000,4.000000,4.000000,4.000000,100.000000,,,,,,,,,,,,,,,,,21.000000,0.000000,0.367019,0.520203,-0.469910,0.611450,0.969357,-0.210963,0.054694,-11.845462,-48.666275,67.572342
1703493990.699268,1703493990.699984,85.000000,0.000000,4254.743652,4253.589844,4300.256348,4294.358887,4247.051270,4242.307617,4241.922852,4227.692383,4231.922852,4211.922852,4512.563965,4451.538574,4340.384766,4430.000000,6412.000000,4.000000,82.000000,,,,0.000000,4.000000,4.000000,4.000000,4.000000,4.000000,4.000000,4.000000,4.000000,4.000000,4.000000,4.000000,4.000000,4.000000,4.000000,100.000000,,,,,,,,,,,,,,,,,,,,,,,,,,,,
1703493990.707076,1703493990.707792,86.000000,0.000000,4252.436035,4244.102539,4302.820313,4288.461426,4243.846191,4242.307617,4233.077148,4226.282227,4230.641113,4213.717773,4516.410156,4454.615234,4347.563965,4433.589844,5953.000000,4.000000,82.000000,,,,0.000000,4.000000,4.000000,4.000000,4.000000,4.000000,4.000000,4.000000,4.000000,4.000000,4.000000,4.000000,4.000000,4.000000,4.000000,100.000000,,,,,,,,,,,,,,,,,,,,,,,,,,,,
1703493990.714884,1703493990.715499,87.000000,0.000000,4260.641113,4245.000000,4310.897461,4289.615234,4240.897461,4240.512695,4232.307617,4227.563965,4231.922852,4221.538574,4523.333496,4462.692383,4355.128418,4440.641113,6197.000000,4.000000,82.000000,,,,0.000000,4.000000,4.000000,4.000000,4.000000,4.000000,4.000000,4.000000,4.000000,4.000000,4.000000,4.000000,4.000000,4.000000,4.000000,100.000000,,,,,,,,,,,,,,,,,,,,,,,,,,,,
1703493990.722692,1703493990.723307,88.000000,0.000000,4268.461426,4253.205078,4311.922852,4294.871582,4238.077148,4236.025879,4234.871582,4230.897461,4238.461426,4231.025879,4528.077148,4470.897461,4362.179688,4444.102539,6467.000000,4.000000,82.000000,,,,0.000000,4.000000,4.000000,4.000000,4.000000,4.000000,4.000000,4.000000,4.000000,4.000000,4.000000,4.000000,4.000000,4.000000,4.000000,100.000000,,,,,,,,,,,,,,,,,22.000000,0.000000,0.366981,0.519958,-0.469971,0.611633,0.975705,-0.204126,0.056159,-11.944248,-48.599648,67.531776
1703493990.730500,1703493990.731015,89.000000,0.000000,4268.846191,4250.769043,4311.153809,4293.077148,4235.000000,4234.230957,4234.871582,4235.897461,4248.461426,4237.307617,4540.769043,4476.282227,4377.820313,4455.256348,6412.000000,4.000000,82.000000,,,,0.000000,4.000000,4.000000,4.000000,4.000000,4.000000,4.000000,4.000000,4.000000,4.000000,4.000000,4.000000,4.000000,4.000000,4.000000,100.000000,,,,,,,,,,,,,,,,,,,,,,,,,,,,
1703493990.738308,1703493990.738923,90.000000,0.000000,4266.538574,4238.717773,4310.897461,4289.871582,4233.205078,4233.974121,4234.743652,4235.256348,4244.743652,4237.692383,4545.769043,4471.794922,4382.436035,4461.538574,5953.000000,4.000000,82.000000,,,,0.000000,4.000000,4.000000,4.000000,4.000000,4.000000,4.000000,4.000000,4.000000,4.000000,4.000000,4.000000,4.000000,4.000000,4.000000,100.000000,,,,,,,,,,,,,,,,,,,,,,,,,,,,
1703493990.746117,1703493990.746731,91.000000,0.000000,4262.436035,4231.282227,4304.743652,4287.948730,4231.794922,4234.487305,4238.077148,4231.922852,4231.410156,4230.000000,4536.153809,4463.717773,4367.179688,4451.538574,6197.000000,4.000000,82.000000,,,,0.000000,4.000000,4.000000,4.000000,4.000000,4.000000,4.000000,4.000000,4.000000,4.000000,4.000000,4.000000,4.000000,4.000000,4.000000,100.000000,,,,,,,,,,,,,,,,,,,,,,,,,,,,
1703493990.753924,1703493990.754639,92.000000,0.000000,4261.794922,4238.974121,4302.307617,4287.051270,4237.179688,4240.000000,4243.333496,4238.717773,4234.871582,4227.436035,4535.256348,4465.384766,4366.922852,4448.846191,6467.000000,4.000000,82.000000,,,,0.000000,4.000000,4.000000,4.000000,4.000000,4.000000,4.000000,4.000000,4.000000,4.000000,4.000000,4.000000,4.000000,4.000000,4.000000,100.000000,,,,,,,,,,,,,,,,,23.000000,0.000000,0.367100,0.519836,-0.470093,0.611572,0.973263,-0.209498,0.065438,-11.966491,-48.506348,67.645264
1703493990.761732,1703493990.762448,93.000000,0.000000,4266.025879,4248.333496,4306.282227,4290.128418,4248.461426,4245.512695,4246.666504,4246.922852,4248.974121,4236.922852,4541.153809,4471.666504,4381.794922,4460.384766,6412.000000,4.000000,82.000000,,,,0.000000,4.000000,4.000000,4.000000,4.000000,4.000000,4.000000,4.000000,4.000000,4.000000,4.000000,4.000000,4.000000,4.000000,4.000000,100.000000,,,,,,,,,,,,,,,,,,,,,,,,,,,,
