title:حمزة يسار, start timestamp:1703409331.283737, stop timestamp:1703409342.058822, headset type:EPOCX, headset serial:E50206EF, headset firmware:720, channels:67, sampling rate:eeg_128;mot_32, samples:1381      , version:2.2, 
Timestamp,OriginalTimestamp,EEG.Counter,EEG.Interpolated,EEG.AF3,EEG.F7,EEG.F3,EEG.FC5,EEG.T7,EEG.P7,EEG.O1,EEG.O2,EEG.P8,EEG.T8,EEG.FC6,EEG.F4,EEG.F8,EEG.AF4,EEG.RawCq,EEG.Battery,EEG.BatteryPercent,MarkerIndex,MarkerType,MarkerValueInt,EEG.MarkerHardware,CQ.AF3,CQ.F7,CQ.F3,CQ.FC5,CQ.T7,CQ.P7,CQ.O1,CQ.O2,CQ.P8,CQ.T8,CQ.FC6,CQ.F4,CQ.F8,CQ.AF4,CQ.Overall,EQ.SampleRateQuality,EQ.OVERALL,EQ.AF3,EQ.F7,EQ.F3,EQ.FC5,EQ.T7,EQ.P7,EQ.O1,EQ.O2,EQ.P8,EQ.T8,EQ.FC6,EQ.F4,EQ.F8,EQ.AF4,MOT.CounterMems,MOT.InterpolatedMems,MOT.Q0,MOT.Q1,MOT.Q2,MOT.Q3,MOT.AccX,MOT.AccY,MOT.AccZ,MOT.MagX,MOT.MagY,MOT.MagZ
1703409331.283737,1703409331.284115,34.000000,0.000000,4195.641113,4186.410156,4265.769043,4246.025879,4173.974121,4157.948730,4183.461426,4200.512695,4191.025879,4180.512695,4568.205078,4443.974121,4374.230957,4461.153809,0.000000,3.000000,70.000000,,,,0.000000,4.000000,4.000000,4.000000,4.000000,4.000000,4.000000,4.000000,4.000000,4.000000,4.000000,4.000000,4.000000,4.000000,4.000000,100.000000,,,,,,,,,,,,,,,,,,,,,,,,,,,,
1703409331.291545,1703409331.291823,35.000000,0.000000,4195.384766,4187.307617,4261.538574,4242.820313,4168.205078,4162.820313,4183.205078,4198.974121,4196.410156,4187.436035,4568.846191,4440.384766,4370.769043,4454.487305,0.000000,3.000000,70.000000,,,,0.000000,4.000000,4.000000,4.000000,4.000000,4.000000,4.000000,4.000000,4.000000,4.000000,4.000000,4.000000,4.000000,4.000000,4.000000,100.000000,,,,,,,,,,,,,,,,,,,,,,,,,,,,
1703409331.299353,1703409331.299630,36.000000,0.000000,4193.461426,4191.794922,4270.769043,4249.358887,4182.820313,4169.230957,4188.205078,4198.974121,4198.077148,4179.871582,4570.769043,4443.205078,4373.333496,4450.128418,0.000000,3.000000,70.000000,,,,0.000000,4.000000,4.000000,4.000000,4.000000,4.000000,4.000000,4.000000,4.000000,4.000000,4.000000,4.000000,4.000000,4.000000,4.000000,100.000000,,,,,,,,,,,,,,,,,9.000000,0.000000,0.599598,0.180115,-0.715210,0.310669,0.958125,-0.244170,-0.030277,-9.581103,-46.186203,61.262341
1703409331.307161,1703409331.307338,37.000000,0.000000,4187.307617,4191.794922,4275.256348,4248.974121,4190.256348,4170.384766,4186.538574,4198.846191,4191.410156,4172.307617,4567.307617,4441.282227,4372.820313,4448.974121,0.000000,3.000000,70.000000,,,,0.000000,4.000000,4.000000,4.000000,4.000000,4.000000,4.000000,4.000000,4.000000,4.000000,4.000000,4.000000,4.000000,4.000000,4.000000,100.000000,,,,,,,,,,,,,,,,,,,,,,,,,,,,
1703409331.314969,1703409331.315246,38.000000,0.000000,4186.153809,4193.461426,4266.282227,4234.102539,4189.230957,4167.820313,4184.743652,4190.897461,4182.179688,4171.153809,4563.974121,4435.256348,4369.615234,4446.153809,0.000000,3.000000,70.000000,,,,0.000000,4.000000,4.000000,4.000000,4.000000,4.000000,4.000000,4.000000,4.000000,4.000000,4.000000,4.000000,4.000000,4.000000,4.000000,100.000000,,,,,,,,,,,,,,,,,,,,,,,,,,,,
1703409331.322777,1703409331.323054,39.000000,0.000000,4187.948730,4193.333496,4260.897461,4235.128418,4188.717773,4164.871582,4185.641113,4182.563965,4176.666504,4169.615234,4565.641113,4438.717773,4369.615234,4446.794922,0.000000,3.000000,70.000000,,,,0.000000,4.000000,4.000000,4.000000,4.000000,4.000000,4.000000,4.000000,4.000000,4.000000,4.000000,4.000000,4.000000,4.000000,4.000000,100.000000,,,,,,,,,,,,,,,,,,,,,,,,,,,,
1703409331.330585,1703409331.330962,40.000000,0.000000,4184.358887,4190.128418,4266.025879,4243.461426,4183.717773,4160.641113,4185.256348,4186.538574,4178.461426,4168.974121,4568.974121,4441.025879,4371.666504,4445.769043,0.000000,3.000000,70.000000,,,,0.000000,4.000000,4.000000,4.000000,4.000000,4.000000,4.000000,4.000000,4.000000,4.000000,4.000000,4.000000,4.000000,4.000000,4.000000,100.000000,,,,,,,,,,,,,,,,,10.000000,0.000000,0.599671,0.180115,-0.715149,0.310669,0.955195,-0.244170,-0.033207,-9.639660,-46.100914,61.236107
1703409331.338393,1703409331.338770,41.000000,0.000000,4187.051270,4194.487305,4274.102539,4237.051270,4182.307617,4155.897461,4183.461426,4191.794922,4182.948730,4171.025879,4569.230957,4437.051270,4375.256348,4442.948730,0.000000,3.000000,70.000000,,,,0.000000,4.000000,4.000000,4.000000,4.000000,4.000000,4.000000,4.000000,4.000000,4.000000,4.000000,4.000000,4.000000,4.000000,4.000000,100.000000,,,,,,,,,,,,,,,,,,,,,,,,,,,,
1703409331.346201,1703409331.346678,42.000000,0.000000,4198.717773,4200.769043,4279.358887,4238.717773,4187.948730,4153.333496,4182.436035,4188.077148,4184.102539,4172.307617,4568.077148,4440.641113,4380.128418,4450.384766,0.000000,3.000000,70.000000,,,,0.000000,4.000000,4.000000,4.000000,4.000000,4.000000,4.000000,4.000000,4.000000,4.000000,4.000000,4.000000,4.000000,4.000000,4.000000,100.000000,,,,,,,,,,,,,,,,,,,,,,,,,,,,
1703409331.354009,1703409331.354486,43.000000,0.000000,4203.717773,4200.641113,4281.282227,4252.307617,4186.666504,4156.666504,4182.820313,4186.922852,4182.179688,4175.897461,4573.717773,4448.846191,4381.153809,4461.794922,0.000000,3.000000,70.000000,,,,0.000000,4.000000,4.000000,4.000000,4.000000,4.000000,4.000000,4.000000,4.000000,4.000000,4.000000,4.000000,4.000000,4.000000,4.000000,100.000000,,,,,,,,,,,,,,,,,,,,,,,,,,,,
1703409331.361817,1703409331.362394,44.000000,0.000000,4200.128418,4202.051270,4279.358887,4248.077148,4183.717773,4166.538574,4184.358887,4190.897461,4184.230957,4184.102539,4581.922852,4449.743652,4383.077148,4462.692383,0.000000,3.000000,70.000000,,,,0.000000,4.000000,4.000000,4.000000,4.000000,4.000000,4.000000,4.000000,4.000000,4.000000,4.000000,4.000000,4.000000,4.000000,4.000000,100.000000,,,,,,,,,,,,,,,,,11.000000,0.000000,0.599548,0.180176,-0.715210,0.310730,0.945916,-0.237822,-0.029300,-9.675694,-46.057491,61.195827
1703409331.369625,1703409331.370202,45.000000,0.000000,4195.256348,4202.563965,4279.615234,4238.974121,4185.128418,4171.922852,4185.512695,4189.871582,4184.487305,4184.230957,4584.230957,4448.205078,4386.666504,4458.974121,0.000000,3.000000,70.000000,,,,0.000000,4.000000,4.000000,4.000000,4.000000,4.000000,4.000000,4.000000,4.000000,4.000000,4.000000,4.000000,4.000000,4.000000,4.000000,100.000000,,,,,,,,,,,,,,,,,,,,,,,,,,,,
1703409331.377433,1703409331.378110,46.000000,0.000000,4191.922852,4200.384766,4281.794922,4242.948730,4182.051270,4166.410156,4185.897461,4187.436035,4176.922852,4173.717773,4580.256348,4450.128418,4384.615234,4461.153809,0.000000,3.000000,70.000000,,,,0.000000,4.000000,4.000000,4.000000,4.000000,4.000000,4.000000,4.000000,4.000000,4.000000,4.000000,4.000000,4.000000,4.000000,4.000000,100.000000,,,,,,,,,,,,,,,,,,,,,,,,,,,,
1703409331.385241,1703409331.385918,47.000000,0.000000,4187.948730,4200.512695,4277.563965,4239.871582,4180.641113,4161.794922,4186.153809,4187.820313,4171.922852,4165.897461,4576.153809,4444.615234,4376.025879,4457.436035,0.000000,3.000000,70.000000,,,,0.000000,4.000000,4.000000,4.000000,4.000000,4.000000,4.000000,4.000000,4.000000,4.000000,4.000000,4.000000,4.000000,4.000000,4.000000,100.000000,,,,,,,,,,,,,,,,,,,,,,,,,,,,
1703409331.393049,1703409331.393626,48.000000,0.000000,4179.743652,4193.205078,4268.461426,4231.538574,4182.436035,4162.051270,4186.282227,4186.282227,4170.769043,4161.153809,4567.436035,4434.102539,4367.563965,4440.769043,0.000000,3.000000,70.000000,,,,0.000000,4.000000,4.000000,4.000000,4.000000,4.000000,4.000000,4.000000,4.000000,4.000000,4.000000,4.000000,4.000000,4.000000,4.000000,100.000000,,,,,,,,,,,,,,,,,12.000000,0.000000,0.599557,0.180420,-0.715088,0.310852,0.962520,-0.237334,-0.034672,-9.574791,-45.935074,61.192913
1703409331.400857,1703409331.401434,49.000000,0.000000,4170.000000,4180.384766,4263.846191,4232.179688,4176.025879,4159.102539,4185.000000,4183.717773,4167.692383,4155.384766,4554.102539,4426.153809,4362.948730,4431.410156,0.000000,3.000000,70.000000,,,,0.000000,4.000000,4.000000,4.000000,4.000000,4.000000,4.000000,4.000000,4.000000,4.000000,4.000000,4.000000,4.000000,4.000000,4.000000,100.000000,,,,,,,,,,,,,,,,,,,,,,,,,,,,
1703409331.408665,1703409331.409142,50.000000,0.000000,4170.897461,4182.051270,4264.230957,4234.871582,4172.179688,4155.256348,4183.077148,4183.205078,4166.538574,4151.794922,4554.487305,4426.153809,4363.205078,4440.000000,0.000000,3.000000,70.000000,,,,0.000000,4.000000,4.000000,4.000000,4.000000,4.000000,4.000000,4.000000,4.000000,4.000000,4.000000,4.000000,4.000000,4.000000,4.000000,100.000000,,,,,,,,,,,,,,,,,,,,,,,,,,,,
1703409331.416473,1703409331.416949,51.000000,0.000000,4173.846191,4190.256348,4268.461426,4231.282227,4177.051270,4155.641113,4181.922852,4184.230957,4170.384766,4152.436035,4565.000000,4435.256348,4368.077148,4450.256348,0.000000,3.000000,70.000000,,,,0.000000,4.000000,4.000000,4.000000,4.000000,4.000000,4.000000,4.000000,4.000000,4.000000,4.000000,4.000000,4.000000,4.000000,4.000000,100.000000,,,,,,,,,,,,,,,,,,,,,,,,,,,,
1703409331.424281,1703409331.424657,52.000000,0.000000,4167.948730,4187.051270,4272.563965,4229.102539,4177.179688,4156.666504,4182.051270,4184.743652,4172.436035,4160.641113,4567.948730,4441.025879,4370.897461,4445.000000,0.000000,3.000000,70.000000,,,,0.000000,4.000000,4.000000,4.000000,4.000000,4.000000,4.000000,4.000000,4.000000,4.000000,4.000000,4.000000,4.000000,4.000000,4.000000,100.000000,,,,,,,,,,,,,,,,,13.000000,0.000000,0.599456,0.180786,-0.715027,0.310974,0.955195,-0.238310,-0.040532,-9.600645,-46.058235,61.373623
1703409331.432089,1703409331.432465,53.000000,0.000000,4168.461426,4186.666504,4270.897461,4239.230957,4176.794922,4155.897461,4184.102539,4183.589844,4172.307617,4168.461426,4563.974121,4433.461426,4368.589844,4436.794922,0.000000,3.000000,70.000000,,,,0.000000,4.000000,4.000000,4.000000,4.000000,4.000000,4.000000,4.000000,4.000000,4.000000,4.000000,4.000000,4.000000,4.000000,4.000000,100.000000,,,,,,,,,,,,,,,,,,,,,,,,,,,,
1703409331.439897,1703409331.440173,54.000000,0.000000,4170.769043,4197.307617,4269.358887,4246.025879,4181.666504,4154.487305,4184.743652,4183.205078,4172.948730,4166.922852,4563.846191,4425.897461,4368.077148,4438.717773,0.000000,3.000000,70.000000,,,,0.000000,4.000000,4.000000,4.000000,4.000000,4.000000,4.000000,4.000000,4.000000,4.000000,4.000000,4.000000,4.000000,4.000000,4.000000,100.000000,,,,,,,,,,,,,,,,,,,,,,,,,,,,
1703409331.447705,1703409331.447980,55.000000,0.000000,4165.384766,4200.256348,4270.512695,4237.051270,4182.692383,4154.871582,4179.615234,4185.000000,4172.692383,4167.692383,4566.922852,4428.717773,4368.205078,4440.512695,0.000000,3.000000,70.000000,,,,0.000000,4.000000,4.000000,4.000000,4.000000,4.000000,4.000000,4.000000,4.000000,4.000000,4.000000,4.000000,4.000000,4.000000,4.000000,100.000000,,,,,,,,,,,,,,,,,,,,,,,,,,,,
1703409331.455513,1703409331.455688,56.000000,0.000000,4163.974121,4195.641113,4265.256348,4228.461426,4180.384766,4156.794922,4179.102539,4185.384766,4171.153809,4166.922852,4566.794922,4430.384766,4365.384766,4439.615234,0.000000,3.000000,70.000000,,,,0.000000,4.000000,4.000000,4.000000,4.000000,4.000000,4.000000,4.000000,4.000000,4.000000,4.000000,4.000000,4.000000,4.000000,4.000000,100.000000,,,,,,,,,,,,,,,,,14.000000,0.000000,0.599229,0.180847,-0.715149,0.311096,0.967892,-0.243682,-0.024417,-9.490581,-45.902412,61.452927
1703409331.463322,1703409331.463496,57.000000,0.000000,4166.666504,4196.922852,4260.384766,4233.974121,4176.922852,4156.922852,4181.025879,4182.820313,4168.205078,4158.589844,4563.717773,4425.384766,4365.769043,4440.128418,0.000000,3.000000,70.000000,,,,0.000000,4.000000,4.000000,4.000000,4.000000,4.000000,4.000000,4.000000,4.000000,4.000000,4.000000,4.000000,4.000000,4.000000,4.000000,100.000000,,,,,,,,,,,,,,,,,,,,,,,,,,,,
1703409331.471130,1703409331.471204,58.000000,0.000000,4168.846191,4200.897461,4264.615234,4234.743652,4171.025879,4155.384766,4174.230957,4184.871582,4169.743652,4159.743652,4564.615234,4425.384766,4370.641113,4443.077148,0.000000,3.000000,70.000000,,,,0.000000,4.000000,4.000000,4.000000,4.000000,4.000000,4.000000,4.000000,4.000000,4.000000,4.000000,4.000000,4.000000,4.000000,4.000000,100.000000,,,,,,,,,,,,,,,,,,,,,,,,,,,,
1703409331.478938,1703409331.479011,59.000000,0.000000,4174.487305,4200.256348,4269.743652,4229.487305,4175.384766,4155.256348,4173.461426,4190.769043,4172.051270,4167.692383,4569.358887,4433.717773,4370.512695,4449.487305,0.000000,3.000000,70.000000,,,,0.000000,4.000000,4.000000,4.000000,4.000000,4.000000,4.000000,4.000000,4.000000,4.000000,4.000000,4.000000,4.000000,4.000000,4.000000,100.000000,,,,,,,,,,,,,,,,,,,,,,,,,,,,
1703409331.486745,1703409331.486719,60.000000,0.000000,4183.077148,4204.615234,4269.743652,4241.282227,4187.436035,4156.025879,4181.666504,4193.717773,4172.563965,4168.333496,4570.128418,4441.794922,4373.846191,4459.615234,0.000000,3.000000,70.000000,,,,0.000000,4.000000,4.000000,4.000000,4.000000,4.000000,4.000000,4.000000,4.000000,4.000000,4.000000,4.000000,4.000000,4.000000,4.000000,100.000000,,,,,,,,,,,,,,,,,15.000000,0.000000,0.599080,0.180786,-0.715210,0.311279,0.955683,-0.242217,-0.030277,-9.541523,-45.995502,61.424301
1703409331.494554,1703409331.494627,61.000000,0.000000,4188.717773,4208.077148,4270.128418,4251.153809,4188.846191,4153.846191,4179.615234,4190.256348,4176.025879,4164.615234,4569.743652,4438.461426,4377.820313,4459.102539,0.000000,3.000000,70.000000,,,,0.000000,4.000000,4.000000,4.000000,4.000000,4.000000,4.000000,4.000000,4.000000,4.000000,4.000000,4.000000,4.000000,4.000000,4.000000,100.000000,,,,,,,,,,,,,,,,,,,,,,,,,,,,
1703409331.502362,1703409331.502435,62.000000,0.000000,4185.641113,4196.922852,4272.179688,4241.794922,4179.487305,4150.128418,4171.410156,4185.000000,4176.410156,4157.436035,4568.205078,4428.717773,4364.487305,4443.974121,0.000000,3.000000,70.000000,,,,0.000000,4.000000,4.000000,4.000000,4.000000,4.000000,4.000000,4.000000,4.000000,4.000000,4.000000,4.000000,4.000000,4.000000,4.000000,100.000000,,,,,,,,,,,,,,,,,,,,,,,,,,,,
1703409331.510170,1703409331.510343,63.000000,0.000000,4172.307617,4184.487305,4270.000000,4226.922852,4173.333496,4150.256348,4170.384766,4183.205078,4171.153809,4151.153809,4564.230957,4425.512695,4357.436035,4442.051270,0.000000,3.000000,70.000000,,,,0.000000,4.000000,4.000000,4.000000,4.000000,4.000000,4.000000,4.000000,4.000000,4.000000,4.000000,4.000000,4.000000,4.000000,4.000000,100.000000,,,,,,,,,,,,,,,,,,,,,,,,,,,,
1703409331.517978,1703409331.518151,64.000000,0.000000,4167.179688,4185.256348,4261.538574,4221.153809,4180.128418,4155.000000,4175.897461,4183.461426,4170.897461,4157.692383,4565.897461,4428.589844,4373.589844,4457.051270,5392.000000,3.000000,70.000000,,,,0.000000,4.000000,4.000000,4.000000,4.000000,4.000000,4.000000,4.000000,4.000000,4.000000,4.000000,4.000000,4.000000,4.000000,4.000000,100.000000,,,,,,,,,,,,,,,,,16.000000,0.000000,0.598898,0.180725,-0.715271,0.311523,0.957636,-0.237334,-0.037602,-9.520703,-45.895954,61.381870
1703409331.525786,1703409331.526059,65.000000,0.000000,4175.384766,4183.589844,4257.179688,4224.743652,4184.615234,4156.794922,4177.307617,4184.230957,4173.717773,4168.077148,4571.025879,4430.641113,4384.487305,4462.820313,5260.000000,3.000000,70.000000,,,,0.000000,4.000000,4.000000,4.000000,4.000000,4.000000,4.000000,4.000000,4.000000,4.000000,4.000000,4.000000,4.000000,4.000000,4.000000,100.000000,,,,,,,,,,,,,,,,,,,,,,,,,,,,
1703409331.533594,1703409331.533867,66.000000,0.000000,4183.333496,4180.512695,4262.051270,4231.153809,4174.871582,4152.436035,4171.922852,4184.743652,4175.769043,4169.743652,4571.410156,4433.077148,4380.256348,4460.512695,5173.000000,3.000000,70.000000,,,,0.000000,4.000000,4.000000,4.000000,4.000000,4.000000,4.000000,4.000000,4.000000,4.000000,4.000000,4.000000,4.000000,4.000000,4.000000,100.000000,,,,,,,,,,,,,,,,,,,,,,,,,,,,
1703409331.541402,1703409331.541775,67.000000,0.000000,4191.410156,4192.179688,4265.512695,4235.641113,4168.717773,4148.717773,4174.871582,4186.538574,4181.025879,4169.102539,4572.948730,4440.897461,4379.102539,4467.307617,5300.000000,3.000000,70.000000,,,,0.000000,4.000000,4.000000,4.000000,4.000000,4.000000,4.000000,4.000000,4.000000,4.000000,4.000000,4.000000,4.000000,4.000000,4.000000,100.000000,,,,,,,,,,,,,,,,,,,,,,,,,,,,
1703409331.549210,1703409331.549583,68.000000,0.000000,4196.666504,4197.179688,4264.102539,4232.692383,4173.717773,4149.230957,4181.025879,4187.563965,4182.307617,4167.307617,4574.102539,4445.641113,4381.794922,4472.051270,4956.000000,3.000000,70.000000,,,,0.000000,4.000000,4.000000,4.000000,4.000000,4.000000,4.000000,4.000000,4.000000,4.000000,4.000000,4.000000,4.000000,4.000000,4.000000,100.000000,1.000000,75.000000,4.000000,4.000000,4.000000,4.000000,4.000000,1.000000,4.000000,4.000000,4.000000,4.000000,4.000000,4.000000,4.000000,4.000000,17.000000,0.000000,0.598890,0.180542,-0.715271,0.311646,0.956171,-0.234892,-0.037114,-9.568633,-45.823025,61.277016
1703409331.557018,1703409331.557491,69.000000,0.000000,4196.025879,4185.641113,4268.461426,4228.717773,4168.846191,4152.051270,4177.051270,4183.589844,4173.333496,4165.256348,4571.025879,4441.666504,4381.153809,4471.282227,4692.000000,3.000000,70.000000,,,,0.000000,4.000000,4.000000,4.000000,4.000000,4.000000,4.000000,4.000000,4.000000,4.000000,4.000000,4.000000,4.000000,4.000000,4.000000,100.000000,,,,,,,,,,,,,,,,,,,,,,,,,,,,
1703409331.564826,1703409331.565299,70.000000,0.000000,4198.974121,4182.820313,4278.717773,4237.307617,4164.230957,4150.000000,4173.717773,4180.384766,4168.974121,4168.846191,4573.589844,4445.641113,4380.769043,4473.717773,3947.000000,3.000000,70.000000,,,,0.000000,4.000000,4.000000,4.000000,4.000000,4.000000,4.000000,4.000000,4.000000,4.000000,4.000000,4.000000,4.000000,4.000000,4.000000,100.000000,,,,,,,,,,,,,,,,,,,,,,,,,,,,
1703409331.572634,1703409331.573207,71.000000,0.000000,4205.512695,4187.820313,4283.461426,4246.153809,4177.820313,4142.692383,4177.179688,4182.948730,4176.538574,4170.769043,4582.692383,4459.871582,4384.871582,4476.025879,5187.000000,3.000000,70.000000,,,,0.000000,4.000000,4.000000,4.000000,4.000000,4.000000,4.000000,4.000000,4.000000,4.000000,4.000000,4.000000,4.000000,4.000000,4.000000,100.000000,,,,,,,,,,,,,,,,,,,,,,,,,,,,
1703409331.580442,1703409331.581015,72.000000,0.000000,4202.436035,4185.641113,4278.461426,4237.179688,4184.871582,4141.025879,4178.589844,4187.436035,4183.974121,4172.436035,4586.794922,4465.384766,4394.102539,4483.333496,4761.000000,3.000000,70.000000,,,,0.000000,4.000000,4.000000,4.000000,4.000000,4.000000,4.000000,4.000000,4.000000,4.000000,4.000000,4.000000,4.000000,4.000000,4.000000,100.000000,,,,,,,,,,,,,,,,,18.000000,0.000000,0.599009,0.180420,-0.715149,0.311768,0.968380,-0.239287,-0.046881,-9.461770,-45.690723,61.282646
1703409331.588250,1703409331.588923,73.000000,0.000000,4196.666504,4183.717773,4276.922852,4230.000000,4175.256348,4143.974121,4177.436035,4185.512695,4182.051270,4182.820313,4584.615234,4460.000000,4397.563965,4488.077148,5031.000000,3.000000,70.000000,,,,0.000000,4.000000,4.000000,4.000000,4.000000,4.000000,4.000000,4.000000,4.000000,4.000000,4.000000,4.000000,4.000000,4.000000,4.000000,100.000000,,,,,,,,,,,,,,,,,,,,,,,,,,,,
1703409331.596058,1703409331.596731,74.000000,0.000000,4200.897461,4188.717773,4279.743652,4236.153809,4171.282227,4142.051270,4174.743652,4181.794922,4180.384766,4186.794922,4587.563965,4459.102539,4394.743652,4483.846191,5773.000000,3.000000,70.000000,,,,0.000000,4.000000,4.000000,4.000000,4.000000,4.000000,4.000000,4.000000,4.000000,4.000000,4.000000,4.000000,4.000000,4.000000,4.000000,100.000000,,,,,,,,,,,,,,,,,,,,,,,,,,,,
1703409331.603866,1703409331.604538,75.000000,0.000000,4206.025879,4191.666504,4279.358887,4238.589844,4171.666504,4142.820313,4168.205078,4185.128418,4181.410156,4175.512695,4588.077148,4462.307617,4396.410156,4483.717773,6072.000000,3.000000,70.000000,,,,0.000000,4.000000,4.000000,4.000000,4.000000,4.000000,4.000000,4.000000,4.000000,4.000000,4.000000,4.000000,4.000000,4.000000,4.000000,100.000000,,,,,,,,,,,,,,,,,,,,,,,,,,,,
1703409331.611674,1703409331.612346,76.000000,0.000000,4203.461426,4188.846191,4279.102539,4234.487305,4168.974121,4150.256348,4170.512695,4185.641113,4174.743652,4167.692383,4577.051270,4455.641113,4394.102539,4484.743652,6446.000000,3.000000,70.000000,,,,0.000000,4.000000,4.000000,4.000000,4.000000,4.000000,4.000000,4.000000,4.000000,4.000000,4.000000,4.000000,4.000000,4.000000,4.000000,100.000000,,,,,,,,,,,,,,,,,19.000000,0.000000,0.598949,0.180481,-0.715210,0.311707,0.963497,-0.234892,-0.027347,-9.615593,-45.654984,61.254383
1703409331.619482,1703409331.620054,77.000000,0.000000,4199.743652,4184.230957,4275.897461,4238.974121,4175.256348,4153.589844,4178.205078,4177.179688,4166.922852,4169.487305,4570.769043,4445.000000,4387.820313,4475.641113,7037.000000,3.000000,70.000000,,,,0.000000,4.000000,4.000000,4.000000,4.000000,4.000000,4.000000,4.000000,4.000000,4.000000,4.000000,4.000000,4.000000,4.000000,4.000000,100.000000,,,,,,,,,,,,,,,,,,,,,,,,,,,,
1703409331.627290,1703409331.627862,78.000000,0.000000,4201.153809,4183.333496,4268.333496,4242.820313,4184.358887,4151.282227,4174.743652,4170.128418,4168.846191,4170.000000,4572.563965,4442.692383,4389.230957,4471.666504,5773.000000,3.000000,70.000000,,,,0.000000,4.000000,4.000000,4.000000,4.000000,4.000000,4.000000,4.000000,4.000000,4.000000,4.000000,4.000000,4.000000,4.000000,4.000000,100.000000,,,,,,,,,,,,,,,,,,,,,,,,,,,,
1703409331.635098,1703409331.635570,79.000000,0.000000,4198.717773,4186.538574,4261.794922,4235.512695,4185.769043,4152.307617,4172.563965,4170.641113,4171.410156,4169.358887,4574.102539,4445.000000,4390.769043,4476.025879,6072.000000,3.000000,70.000000,,,,0.000000,4.000000,4.000000,4.000000,4.000000,4.000000,4.000000,4.000000,4.000000,4.000000,4.000000,4.000000,4.000000,4.000000,4.000000,100.000000,,,,,,,,,,,,,,,,,,,,,,,,,,,,
1703409331.642906,1703409331.643378,80.000000,0.000000,4194.615234,4188.974121,4259.102539,4231.410156,4179.615234,4153.333496,4178.077148,4172.307617,4170.384766,4170.512695,4576.025879,4444.358887,4387.307617,4474.230957,6446.000000,3.000000,70.000000,,,,0.000000,4.000000,4.000000,4.000000,4.000000,4.000000,4.000000,4.000000,4.000000,4.000000,4.000000,4.000000,4.000000,4.000000,4.000000,100.000000,,,,,,,,,,,,,,,,,20.000000,0.000000,0.599040,0.180664,-0.715088,0.311707,0.954706,-0.245147,-0.041509,-9.470700,-45.739483,61.462276
1703409331.650714,1703409331.651085,81.000000,0.000000,4194.615234,4187.051270,4261.025879,4234.487305,4171.794922,4146.794922,4178.717773,4171.025879,4168.589844,4171.025879,4576.794922,4443.846191,4386.538574,4473.717773,7037.000000,3.000000,70.000000,,,,0.000000,4.000000,4.000000,4.000000,4.000000,4.000000,4.000000,4.000000,4.000000,4.000000,4.000000,4.000000,4.000000,4.000000,4.000000,100.000000,,,,,,,,,,,,,,,,,,,,,,,,,,,,
1703409331.658522,1703409331.658893,82.000000,0.000000,4196.922852,4186.282227,4270.641113,4235.384766,4178.205078,4142.563965,4172.436035,4171.025879,4168.077148,4166.794922,4573.461426,4446.282227,4387.563965,4477.436035,5773.000000,3.000000,70.000000,,,,0.000000,4.000000,4.000000,4.000000,4.000000,4.000000,4.000000,4.000000,4.000000,4.000000,4.000000,4.000000,4.000000,4.000000,4.000000,100.000000,,,,,,,,,,,,,,,,,,,,,,,,,,,,
1703409331.666330,1703409331.666601,83.000000,0.000000,4195.897461,4184.743652,4275.641113,4239.743652,4185.769043,4143.846191,4171.666504,4168.205078,4165.897461,4158.589844,4566.153809,4442.051270,4380.256348,4472.051270,6072.000000,3.000000,70.000000,,,,0.000000,4.000000,4.000000,4.000000,4.000000,4.000000,4.000000,4.000000,4.000000,4.000000,4.000000,4.000000,4.000000,4.000000,4.000000,100.000000,,,,,,,,,,,,,,,,,,,,,,,,,,,,
1703409331.674138,1703409331.674409,84.000000,0.000000,4190.128418,4177.692383,4269.743652,4246.153809,4175.384766,4140.769043,4173.077148,4160.000000,4157.051270,4153.589844,4557.179688,4431.153809,4368.333496,4459.615234,6446.000000,3.000000,70.000000,,,,0.000000,4.000000,4.000000,4.000000,4.000000,4.000000,4.000000,4.000000,4.000000,4.000000,4.000000,4.000000,4.000000,4.000000,4.000000,100.000000,,,,,,,,,,,,,,,,,21.000000,0.000000,0.599195,0.180664,-0.714905,0.311829,0.977170,-0.235869,-0.042486,-9.456964,-45.915535,61.449383
1703409331.681946,1703409331.682116,85.000000,0.000000,4187.692383,4181.025879,4267.820313,4237.563965,4167.436035,4140.641113,4171.666504,4159.487305,4151.666504,4153.589844,4552.179688,4427.179688,4364.102539,4455.384766,7037.000000,3.000000,70.000000,,,,0.000000,4.000000,4.000000,4.000000,4.000000,4.000000,4.000000,4.000000,4.000000,4.000000,4.000000,4.000000,4.000000,4.000000,4.000000,100.000000,,,,,,,,,,,,,,,,,,,,,,,,,,,,
1703409331.689754,1703409331.690024,86.000000,0.000000,4186.410156,4183.205078,4267.692383,4227.051270,4173.974121,4144.230957,4171.922852,4165.897461,4157.948730,4152.692383,4551.794922,4431.153809,4363.077148,4457.563965,5773.000000,3.000000,70.000000,,,,0.000000,4.000000,4.000000,4.000000,4.000000,4.000000,4.000000,4.000000,4.000000,4.000000,4.000000,4.000000,4.000000,4.000000,4.000000,100.000000,,,,,,,,,,,,,,,,,,,,,,,,,,,,
1703409331.697562,1703409331.697833,87.000000,0.000000,4183.205078,4170.641113,4263.846191,4232.948730,4170.897461,4142.307617,4172.692383,4167.820313,4164.871582,4150.512695,4552.179688,4436.410156,4363.589844,4455.512695,6072.000000,3.000000,70.000000,,,,0.000000,4.000000,4.000000,4.000000,4.000000,4.000000,4.000000,4.000000,4.000000,4.000000,4.000000,4.000000,4.000000,4.000000,4.000000,100.000000,,,,,,,,,,,,,,,,,,,,,,,,,,,,
1703409331.705371,1703409331.705741,88.000000,0.000000,4189.102539,4172.436035,4270.000000,4234.102539,4164.871582,4145.000000,4175.000000,4170.769043,4168.589844,4153.846191,4560.512695,4444.230957,4374.358887,4464.358887,6446.000000,3.000000,70.000000,,,,0.000000,4.000000,4.000000,4.000000,4.000000,4.000000,4.000000,4.000000,4.000000,4.000000,4.000000,4.000000,4.000000,4.000000,4.000000,100.000000,,,,,,,,,,,,,,,,,22.000000,0.000000,0.599023,0.180603,-0.714905,0.312195,0.957636,-0.249054,-0.032230,-9.527934,-45.857315,61.437778
1703409331.713179,1703409331.713549,89.000000,0.000000,4198.974121,4189.615234,4281.666504,4233.846191,4170.000000,4150.512695,4175.897461,4176.282227,4172.179688,4163.589844,4571.282227,4450.128418,4385.000000,4476.410156,7037.000000,3.000000,70.000000,,,,0.000000,4.000000,4.000000,4.000000,4.000000,4.000000,4.000000,4.000000,4.000000,4.000000,4.000000,4.000000,4.000000,4.000000,4.000000,100.000000,,,,,,,,,,,,,,,,,,,,,,,,,,,,
1703409331.720986,1703409331.721457,90.000000,0.000000,4197.179688,4189.358887,4278.846191,4239.358887,4173.717773,4143.461426,4171.666504,4173.589844,4169.871582,4168.077148,4570.128418,4445.769043,4381.538574,4469.487305,5773.000000,3.000000,70.000000,,,,0.000000,4.000000,4.000000,4.000000,4.000000,4.000000,4.000000,4.000000,4.000000,4.000000,4.000000,4.000000,4.000000,4.000000,4.000000,100.000000,,,,,,,,,,,,,,,,,,,,,,,,,,,,
1703409331.728794,1703409331.729265,91.000000,0.000000,4193.205078,4178.205078,4274.358887,4237.948730,4173.333496,4137.179688,4172.307617,4174.358887,4166.282227,4160.769043,4569.487305,4443.333496,4379.871582,4464.743652,6072.000000,3.000000,70.000000,,,,0.000000,4.000000,4.000000,4.000000,4.000000,4.000000,4.000000,4.000000,4.000000,4.000000,4.000000,4.000000,4.000000,4.000000,4.000000,100.000000,,,,,,,,,,,,,,,,,,,,,,,,,,,,
1703409331.736603,1703409331.737173,92.000000,0.000000,4195.641113,4174.871582,4280.641113,4233.461426,4172.307617,4142.051270,4176.282227,4185.897461,4166.666504,4155.769043,4572.179688,4447.179688,4383.461426,4476.025879,6446.000000,3.000000,70.000000,,,,0.000000,4.000000,4.000000,4.000000,4.000000,4.000000,4.000000,4.000000,4.000000,4.000000,4.000000,4.000000,4.000000,4.000000,4.000000,100.000000,,,,,,,,,,,,,,,,,23.000000,0.000000,0.598764,0.180481,-0.714966,0.312622,0.954218,-0.233427,-0.028812,-9.508474,-45.854919,61.344002
1703409331.744411,1703409331.744981,93.000000,0.000000,4190.384766,4170.000000,4276.153809,4235.256348,4171.410156,4140.512695,4172.563965,4183.974121,4162.051270,4164.615234,4567.692383,4444.743652,4373.846191,4473.077148,7037.000000,3.000000,70.000000,,,,0.000000,4.000000,4.000000,4.000000,4.000000,4.000000,4.000000,4.000000,4.000000,4.000000,4.000000,4.000000,4.000000,4.000000,4.000000,100.000000,,,,,,,,,,,,,,,,,,,,,,,,,,,,
1703409331.752219,1703409331.752888,94.000000,0.000000,4185.512695,4170.256348,4262.307617,4234.743652,4170.256348,4137.692383,4169.487305,4174.358887,4159.615234,4166.410156,4565.000000,4441.538574,4367.948730,4461.025879,5773.000000,3.000000,70.000000,,,,0.000000,4.000000,4.000000,4.000000,4.000000,4.000000,4.000000,4.000000,4.000000,4.000000,4.000000,4.000000,4.000000,4.000000,4.000000,100.000000,,,,,,,,,,,,,,,,,,,,,,,,,,,,
1703409331.760027,1703409331.760696,95.000000,0.000000,4195.769043,4181.282227,4264.487305,4233.333496,4172.436035,4144.102539,4174.871582,4175.256348,4166.794922,4158.077148,4570.641113,4447.051270,4375.897461,4466.282227,6072.000000,3.000000,70.000000,,,,0.000000,4.000000,4.000000,4.000000,4.000000,4.000000,4.000000,4.000000,4.000000,4.000000,4.000000,4.000000,4.000000,4.000000,4.000000,100.000000,,,,,,,,,,,,,,,,,,,,,,,,,,,,
1703409331.767835,1703409331.768604,96.000000,0.000000,4198.333496,4183.077148,4274.230957,4240.128418,4172.820313,4145.641113,4173.846191,4173.461426,4169.102539,4158.717773,4568.974121,4443.589844,4375.897461,4468.077148,6446.000000,3.000000,70.000000,,,,0.000000,4.000000,4.000000,4.000000,4.000000,4.000000,4.000000,4.000000,4.000000,4.000000,4.000000,4.000000,4.000000,4.000000,4.000000,100.000000,,,,,,,,,,,,,,,,,24.000000,0.000000,0.598705,0.180420,-0.714844,0.313049,0.955195,-0.238310,-0.032230,-9.557627,-45.836094,61.576267
1703409331.775643,1703409331.776412,97.000000,0.000000,4191.153809,4179.871582,4275.897461,4246.410156,4168.717773,4140.641113,4166.794922,4165.897461,4166.410156,4167.563965,4564.743652,4435.000000,4372.692383,4462.563965,7037.000000,3.000000,70.000000,,,,0.000000,4.000000,4.000000,4.000000,4.000000,4.000000,4.000000,4.000000,4.000000,4.000000,4.000000,4.000000,4.000000,4.000000,4.000000,100.000000,,,,,,,,,,,,,,,,,,,,,,,,,,,,
1703409331.783451,1703409331.784320,98.000000,0.000000,4205.384766,4194.871582,4282.307617,4248.077148,4177.692383,4141.538574,4174.102539,4167.307617,4172.051270,4180.128418,4577.307617,4448.974121,4394.102539,4479.102539,5773.000000,3.000000,70.000000,,,,0.000000,4.000000,4.000000,4.000000,4.000000,4.000000,4.000000,4.000000,4.000000,4.000000,4.000000,4.000000,4.000000,4.000000,4.000000,100.000000,,,,,,,,,,,,,,,,,,,,,,,,,,,,
1703409331.791259,1703409331.792128,99.000000,0.000000,4223.974121,4212.179688,4288.974121,4250.128418,4187.948730,4146.538574,4184.871582,4171.922852,4175.000000,4184.615234,4592.820313,4466.282227,4419.102539,4498.589844,6072.000000,3.000000,70.000000,,,,0.000000,4.000000,4.000000,4.000000,4.000000,4.000000,4.000000,4.000000,4.000000,4.000000,4.000000,4.000000,4.000000,4.000000,4.000000,100.000000,,,,,,,,,,,,,,,,,,,,,,,,,,,,
1703409331.799067,1703409331.799836,100.000000,0.000000,4213.974121,4197.692383,4283.974121,4250.897461,4177.692383,4143.846191,4181.282227,4169.487305,4165.000000,4176.666504,4586.794922,4460.897461,4412.948730,4495.000000,6446.000000,3.000000,70.000000,,,,0.000000,4.000000,4.000000,4.000000,4.000000,4.000000,4.000000,4.000000,4.000000,4.000000,4.000000,4.000000,4.000000,4.000000,4.000000,100.000000,,,,,,,,,,,,,,,,,25.000000,0.000000,0.598627,0.180359,-0.714844,0.313232,0.960078,-0.242705,-0.022464,-9.401864,-45.919151,61.601974
1703409331.806875,1703409331.807744,101.000000,0.000000,4198.205078,4172.948730,4279.871582,4247.948730,4167.948730,4140.384766,4179.230957,4166.538574,4156.025879,4168.717773,4573.974121,4456.538574,4396.666504,4485.769043,7037.000000,3.000000,70.000000,,,,0.000000,4.000000,4.000000,4.000000,4.000000,4.000000,4.000000,4.000000,4.000000,4.000000,4.000000,4.000000,4.000000,4.000000,4.000000,100.000000,,,,,,,,,,,,,,,,,,,,,,,,,,,,
1703409331.814683,1703409331.815553,102.000000,0.000000,4196.410156,4169.743652,4276.025879,4243.333496,4174.615234,4143.974121,4185.641113,4167.948730,4155.512695,4164.230957,4572.051270,4458.077148,4391.794922,4479.358887,5773.000000,3.000000,70.000000,,,,0.000000,4.000000,4.000000,4.000000,4.000000,4.000000,4.000000,4.000000,4.000000,4.000000,4.000000,4.000000,4.000000,4.000000,4.000000,100.000000,,,,,,,,,,,,,,,,,,,,,,,,,,,,
1703409331.822491,1703409331.823461,103.000000,0.000000,4188.846191,4172.436035,4265.512695,4244.230957,4175.128418,4144.102539,4186.282227,4170.641113,4158.333496,4160.256348,4567.563965,4447.051270,4385.256348,4464.615234,6072.000000,3.000000,70.000000,,,,0.000000,4.000000,4.000000,4.000000,4.000000,4.000000,4.000000,4.000000,4.000000,4.000000,4.000000,4.000000,4.000000,4.000000,4.000000,100.000000,,,,,,,,,,,,,,,,,,,,,,,,,,,,
1703409331.830299,1703409331.831270,104.000000,0.000000,4180.000000,4164.230957,4259.102539,4243.846191,4168.077148,4139.230957,4178.589844,4167.563965,4162.436035,4164.615234,4562.692383,4439.102539,4380.512695,4458.974121,6446.000000,3.000000,70.000000,,,,0.000000,4.000000,4.000000,4.000000,4.000000,4.000000,4.000000,4.000000,4.000000,4.000000,4.000000,4.000000,4.000000,4.000000,4.000000,100.000000,,,,,,,,,,,,,,,,,26.000000,0.000000,0.598609,0.180420,-0.714844,0.313232,0.954706,-0.245635,-0.039556,-9.461678,-45.977234,61.475109
1703409331.838107,1703409331.839078,105.000000,0.000000,4187.692383,4162.307617,4262.179688,4237.563965,4173.461426,4139.358887,4175.641113,4160.512695,4166.025879,4171.538574,4568.974121,4442.436035,4389.230957,4468.077148,7037.000000,3.000000,70.000000,,,,0.000000,4.000000,4.000000,4.000000,4.000000,4.000000,4.000000,4.000000,4.000000,4.000000,4.000000,4.000000,4.000000,4.000000,4.000000,100.000000,,,,,,,,,,,,,,,,,,,,,,,,,,,,
1703409331.845915,1703409331.846786,106.000000,0.000000,4204.871582,4175.512695,4271.025879,4235.000000,4182.307617,4143.589844,4179.230957,4158.333496,4166.025879,4167.307617,4572.051270,4444.358887,4395.256348,4474.358887,5773.000000,3.000000,70.000000,,,,0.000000,4.000000,4.000000,4.000000,4.000000,4.000000,4.000000,4.000000,4.000000,4.000000,4.000000,4.000000,4.000000,4.000000,4.000000,100.000000,,,,,,,,,,,,,,,,,,,,,,,,,,,,
1703409331.853723,1703409331.854594,107.000000,0.000000,4215.897461,4188.077148,4286.666504,4251.025879,4185.512695,4144.102539,4183.461426,4163.717773,4165.897461,4168.589844,4575.000000,4454.743652,4399.871582,4481.794922,6072.000000,3.000000,70.000000,,,,0.000000,4.000000,4.000000,4.000000,4.000000,4.000000,4.000000,4.000000,4.000000,4.000000,4.000000,4.000000,4.000000,4.000000,4.000000,100.000000,,,,,,,,,,,,,,,,,,,,,,,,,,,,
1703409331.861531,1703409331.862301,108.000000,0.000000,4220.384766,4189.102539,4298.077148,4265.897461,4186.922852,4143.846191,4183.077148,4170.256348,4169.871582,4175.641113,4587.563965,4470.512695,4411.410156,4493.333496,6446.000000,3.000000,70.000000,,,,0.000000,4.000000,4.000000,4.000000,4.000000,4.000000,4.000000,4.000000,4.000000,4.000000,4.000000,4.000000,4.000000,4.000000,4.000000,100.000000,,,,,,,,,,,,,,,,,27.000000,0.000000,0.598682,0.180420,-0.714783,0.313232,0.967892,-0.237334,-0.033207,-9.448843,-46.046177,61.427597
1703409331.869339,1703409331.870109,109.000000,0.000000,4221.410156,4185.128418,4294.871582,4258.205078,4183.717773,4145.128418,4178.974121,4173.077148,4170.512695,4172.307617,4587.563965,4470.128418,4408.717773,4493.589844,7037.000000,3.000000,70.000000,,,,0.000000,4.000000,4.000000,4.000000,4.000000,4.000000,4.000000,4.000000,4.000000,4.000000,4.000000,4.000000,4.000000,4.000000,4.000000,100.000000,,,,,,,,,,,,,,,,,,,,,,,,,,,,
1703409331.877147,1703409331.877817,110.000000,0.000000,4219.358887,4182.692383,4286.025879,4245.897461,4175.256348,4143.205078,4174.102539,4172.820313,4167.179688,4168.077148,4571.282227,4461.794922,4394.615234,4486.922852,5773.000000,3.000000,70.000000,,,,0.000000,4.000000,4.000000,4.000000,4.000000,4.000000,4.000000,4.000000,4.000000,4.000000,4.000000,4.000000,4.000000,4.000000,4.000000,100.000000,,,,,,,,,,,,,,,,,,,,,,,,,,,,
1703409331.884955,1703409331.885624,111.000000,0.000000,4214.230957,4182.179688,4280.769043,4246.282227,4169.230957,4139.230957,4170.000000,4171.922852,4168.461426,4170.384766,4570.512695,4459.615234,4393.461426,4487.436035,6072.000000,3.000000,70.000000,,,,0.000000,4.000000,4.000000,4.000000,4.000000,4.000000,4.000000,4.000000,4.000000,4.000000,4.000000,4.000000,4.000000,4.000000,4.000000,100.000000,,,,,,,,,,,,,,,,,,,,,,,,,,,,
1703409331.892763,1703409331.893332,112.000000,0.000000,4214.615234,4177.948730,4280.384766,4250.512695,4170.897461,4142.820313,4168.717773,4172.436035,4171.282227,4171.153809,4577.563965,4454.615234,4398.717773,4490.256348,6446.000000,3.000000,70.000000,,,,0.000000,4.000000,4.000000,4.000000,4.000000,4.000000,4.000000,4.000000,4.000000,4.000000,4.000000,4.000000,4.000000,4.000000,4.000000,100.000000,,,,,,,,,,,,,,,,,28.000000,0.000000,0.598708,0.180786,-0.714722,0.313110,0.965938,-0.228055,-0.041021,-9.520625,-45.858227,61.384838
1703409331.900571,1703409331.901139,113.000000,0.000000,4223.717773,4170.384766,4278.974121,4248.717773,4175.000000,4148.461426,4172.563965,4173.205078,4172.436035,4169.230957,4574.102539,4451.538574,4396.922852,4488.589844,7037.000000,3.000000,70.000000,,,,0.000000,4.000000,4.000000,4.000000,4.000000,4.000000,4.000000,4.000000,4.000000,4.000000,4.000000,4.000000,4.000000,4.000000,4.000000,100.000000,,,,,,,,,,,,,,,,,,,,,,,,,,,,
1703409331.908379,1703409331.908847,114.000000,0.000000,4232.692383,4177.436035,4279.102539,4250.769043,4182.563965,4146.922852,4179.615234,4169.102539,4173.589844,4168.974121,4571.282227,4453.205078,4395.769043,4489.871582,5773.000000,3.000000,70.000000,,,,0.000000,4.000000,4.000000,4.000000,4.000000,4.000000,4.000000,4.000000,4.000000,4.000000,4.000000,4.000000,4.000000,4.000000,4.000000,100.000000,,,,,,,,,,,,,,,,,,,,,,,,,,,,
1703409331.916187,1703409331.916755,115.000000,0.000000,4233.846191,4189.743652,4286.666504,4258.974121,4191.410156,4142.436035,4182.179688,4159.487305,4165.128418,4167.436035,4571.538574,4449.230957,4394.358887,4490.000000,6072.000000,3.000000,70.000000,,,,0.000000,4.000000,4.000000,4.000000,4.000000,4.000000,4.000000,4.000000,4.000000,4.000000,4.000000,4.000000,4.000000,4.000000,4.000000,100.000000,,,,,,,,,,,,,,,,,,,,,,,,,,,,
1703409331.923995,1703409331.924563,116.000000,0.000000,4231.794922,4186.410156,4294.487305,4265.769043,4192.436035,4141.922852,4182.692383,4155.769043,4159.102539,4162.051270,4570.769043,4448.846191,4393.717773,4490.512695,6446.000000,3.000000,70.000000,,,,0.000000,4.000000,4.000000,4.000000,4.000000,4.000000,4.000000,4.000000,4.000000,4.000000,4.000000,4.000000,4.000000,4.000000,4.000000,100.000000,,,,,,,,,,,,,,,,,29.000000,0.000000,0.598938,0.181335,-0.714417,0.313049,0.952265,-0.261751,-0.032230,-9.801896,-45.939072,61.429688
1703409331.931803,1703409331.932471,117.000000,0.000000,4231.282227,4182.820313,4295.128418,4261.794922,4182.948730,4142.563965,4181.410156,4158.846191,4163.846191,4158.333496,4572.692383,4461.153809,4398.717773,4492.948730,7037.000000,3.000000,70.000000,,,,0.000000,4.000000,4.000000,4.000000,4.000000,4.000000,4.000000,4.000000,4.000000,4.000000,4.000000,4.000000,4.000000,4.000000,4.000000,100.000000,,,,,,,,,,,,,,,,,,,,,,,,,,,,
1703409331.939612,1703409331.940279,118.000000,0.000000,4225.000000,4182.948730,4292.051270,4249.487305,4171.410156,4136.538574,4172.563965,4161.025879,4162.820313,4157.307617,4571.282227,4462.563965,4394.102539,4487.051270,5773.000000,3.000000,70.000000,,,,0.000000,4.000000,4.000000,4.000000,4.000000,4.000000,4.000000,4.000000,4.000000,4.000000,4.000000,4.000000,4.000000,4.000000,4.000000,100.000000,,,,,,,,,,,,,,,,,,,,,,,,,,,,
1703409331.947420,1703409331.948186,119.000000,0.000000,4216.666504,4179.102539,4287.948730,4251.153809,4169.871582,4127.436035,4166.794922,4162.179688,4158.077148,4153.205078,4560.384766,4447.820313,4378.205078,4475.384766,6072.000000,3.000000,70.000000,,,,0.000000,4.000000,4.000000,4.000000,4.000000,4.000000,4.000000,4.000000,4.000000,4.000000,4.000000,4.000000,4.000000,4.000000,4.000000,100.000000,,,,,,,,,,,,,,,,,,,,,,,,,,,,
1703409331.955228,1703409331.955994,120.000000,0.000000,4218.589844,4182.436035,4284.487305,4263.589844,4173.205078,4128.717773,4170.512695,4163.717773,4165.512695,4154.743652,4553.205078,4441.410156,4373.717773,4473.205078,6446.000000,3.000000,70.000000,,,,0.000000,4.000000,4.000000,4.000000,4.000000,4.000000,4.000000,4.000000,4.000000,4.000000,4.000000,4.000000,4.000000,4.000000,4.000000,100.000000,,,,,,,,,,,,,,,,,30.000000,0.000000,0.598991,0.181641,-0.714294,0.313049,0.973263,-0.241240,-0.028812,-9.755040,-46.011829,61.420052
1703409331.963035,1703409331.963902,121.000000,0.000000,4219.871582,4183.974121,4281.282227,4260.769043,4172.692383,4136.922852,4171.153809,4166.538574,4173.589844,4166.538574,4558.333496,4443.846191,4382.307617,4476.025879,7037.000000,3.000000,70.000000,,,,0.000000,4.000000,4.000000,4.000000,4.000000,4.000000,4.000000,4.000000,4.000000,4.000000,4.000000,4.000000,4.000000,4.000000,4.000000,100.000000,,,,,,,,,,,,,,,,,,,,,,,,,,,,
1703409331.970844,1703409331.971710,122.000000,0.000000,4214.102539,4175.769043,4278.846191,4248.205078,4177.307617,4138.461426,4169.358887,4171.538574,4173.077148,4172.179688,4569.871582,4445.384766,4384.230957,4474.743652,5773.000000,3.000000,70.000000,,,,0.000000,4.000000,4.000000,4.000000,4.000000,4.000000,4.000000,4.000000,4.000000,4.000000,4.000000,4.000000,4.000000,4.000000,4.000000,100.000000,,,,,,,,,,,,,,,,,,,,,,,,,,,,
1703409331.978652,1703409331.979418,123.000000,0.000000,4212.436035,4175.641113,4280.000000,4248.974121,4186.922852,4137.436035,4172.436035,4168.205078,4171.410156,4163.461426,4571.282227,4447.179688,4382.948730,4477.436035,6072.000000,3.000000,70.000000,,,,0.000000,4.000000,4.000000,4.000000,4.000000,4.000000,4.000000,4.000000,4.000000,4.000000,4.000000,4.000000,4.000000,4.000000,4.000000,100.000000,,,,,,,,,,,,,,,,,,,,,,,,,,,,
1703409331.986460,1703409331.987226,124.000000,0.000000,4211.538574,4175.512695,4280.769043,4254.230957,4182.179688,4137.563965,4172.179688,4158.333496,4163.846191,4153.205078,4560.128418,4446.025879,4379.358887,4476.666504,6446.000000,3.000000,70.000000,,,,0.000000,4.000000,4.000000,4.000000,4.000000,4.000000,4.000000,4.000000,4.000000,4.000000,4.000000,4.000000,4.000000,4.000000,4.000000,100.000000,,,,,,,,,,,,,,,,,31.000000,0.000000,0.598973,0.181702,-0.714294,0.313049,0.953730,-0.242217,-0.030765,-9.712870,-46.077312,61.328049
1703409331.994268,1703409331.994934,125.000000,0.000000,4203.846191,4166.922852,4273.717773,4250.384766,4169.102539,4131.025879,4169.358887,4156.794922,4154.743652,4151.538574,4554.102539,4444.871582,4368.717773,4465.256348,7037.000000,3.000000,70.000000,,,,0.000000,4.000000,4.000000,4.000000,4.000000,4.000000,4.000000,4.000000,4.000000,4.000000,4.000000,4.000000,4.000000,4.000000,4.000000,100.000000,,,,,,,,,,,,,,,,,,,,,,,,,,,,
1703409332.002076,1703409332.002742,126.000000,0.000000,4196.666504,4166.794922,4269.358887,4243.205078,4167.051270,4123.333496,4167.563965,4158.589844,4152.948730,4151.410156,4553.717773,4442.820313,4361.794922,4459.230957,5773.000000,3.000000,70.000000,,,,0.000000,4.000000,4.000000,4.000000,4.000000,4.000000,4.000000,4.000000,4.000000,4.000000,4.000000,4.000000,4.000000,4.000000,4.000000,100.000000,,,,,,,,,,,,,,,,,,,,,,,,,,,,
1703409332.009884,1703409332.010450,127.000000,0.000000,4197.563965,4170.256348,4272.563965,4241.025879,4168.589844,4122.436035,4164.102539,4154.743652,4154.615234,4150.256348,4549.230957,4434.743652,4360.769043,4456.794922,70.000000,3.000000,70.000000,,,,0.000000,4.000000,4.000000,4.000000,4.000000,4.000000,4.000000,4.000000,4.000000,4.000000,4.000000,4.000000,4.000000,4.000000,4.000000,100.000000,,,,,,,,,,,,,,,,,,,,,,,,,,,,
1703409332.017692,1703409332.018257,0.000000,0.000000,4202.948730,4170.641113,4278.846191,4248.205078,4168.974121,4124.358887,4165.000000,4146.794922,4156.153809,4151.794922,4548.077148,4429.743652,4361.538574,4454.743652,5392.000000,3.000000,70.000000,,,,0.000000,4.000000,4.000000,4.000000,4.000000,4.000000,4.000000,4.000000,4.000000,4.000000,4.000000,4.000000,4.000000,4.000000,4.000000,100.000000,,,,,,,,,,,,,,,,,0.000000,0.000000,0.598677,0.181641,-0.714478,0.313232,0.966427,-0.224637,-0.032230,-9.741582,-46.202915,61.228577
1703409332.025500,1703409332.025965,1.000000,0.000000,4204.102539,4174.230957,4282.948730,4252.692383,4167.307617,4122.563965,4163.974121,4138.717773,4153.333496,4149.358887,4549.743652,4430.256348,4365.769043,4457.307617,5280.000000,3.000000,70.000000,,,,0.000000,4.000000,4.000000,4.000000,4.000000,4.000000,4.000000,4.000000,4.000000,4.000000,4.000000,4.000000,4.000000,4.000000,4.000000,100.000000,,,,,,,,,,,,,,,,,,,,,,,,,,,,
1703409332.033308,1703409332.033773,2.000000,0.000000,4196.153809,4173.461426,4277.307617,4249.743652,4166.538574,4120.769043,4155.769043,4134.230957,4151.410156,4143.974121,4542.948730,4424.871582,4364.615234,4454.358887,5173.000000,3.000000,70.000000,,,,0.000000,4.000000,4.000000,4.000000,4.000000,4.000000,4.000000,4.000000,4.000000,4.000000,4.000000,4.000000,4.000000,4.000000,4.000000,100.000000,,,,,,,,,,,,,,,,,,,,,,,,,,,,
1703409332.041116,1703409332.041481,3.000000,0.000000,4191.922852,4171.410156,4272.051270,4248.333496,4173.077148,4129.615234,4160.256348,4136.538574,4155.128418,4145.000000,4538.077148,4422.436035,4358.205078,4445.897461,5308.000000,3.000000,70.000000,,,,0.000000,4.000000,4.000000,4.000000,4.000000,4.000000,4.000000,4.000000,4.000000,4.000000,4.000000,4.000000,4.000000,4.000000,4.000000,100.000000,,,,,,,,,,,,,,,,,,,,,,,,,,,,
1703409332.048924,1703409332.049289,4.000000,0.000000,4196.922852,4176.153809,4274.615234,4251.025879,4181.410156,4137.307617,4173.205078,4140.512695,4158.333496,4147.436035,4542.436035,4429.102539,4358.333496,4445.512695,4961.000000,3.000000,70.000000,,,,0.000000,4.000000,4.000000,4.000000,4.000000,4.000000,4.000000,4.000000,4.000000,4.000000,4.000000,4.000000,4.000000,4.000000,4.000000,100.000000,1.000000,75.000000,4.000000,4.000000,4.000000,4.000000,4.000000,1.000000,4.000000,4.000000,4.000000,4.000000,4.000000,4.000000,4.000000,4.000000,1.000000,0.000000,0.598632,0.181580,-0.714478,0.313354,0.951776,-0.232939,-0.030765,-9.750757,-46.249290,61.072384
1703409332.056732,1703409332.056996,5.000000,0.000000,4199.871582,4175.897461,4277.436035,4255.256348,4173.333496,4131.538574,4165.897461,4140.769043,4157.563965,4142.179688,4540.897461,4428.333496,4359.358887,4446.922852,4694.000000,3.000000,70.000000,,,,0.000000,4.000000,4.000000,4.000000,4.000000,4.000000,4.000000,4.000000,4.000000,4.000000,4.000000,4.000000,4.000000,4.000000,4.000000,100.000000,,,,,,,,,,,,,,,,,,,,,,,,,,,,
1703409332.064540,1703409332.064804,6.000000,0.000000,4198.846191,4171.666504,4276.666504,4254.358887,4156.410156,4124.102539,4151.153809,4140.641113,4155.897461,4144.358887,4535.384766,4426.025879,4356.410156,4443.717773,3947.000000,3.000000,70.000000,,,,0.000000,4.000000,4.000000,4.000000,4.000000,4.000000,4.000000,4.000000,4.000000,4.000000,4.000000,4.000000,4.000000,4.000000,4.000000,100.000000,,,,,,,,,,,,,,,,,,,,,,,,,,,,
1703409332.072348,1703409332.072512,7.000000,0.000000,4198.333496,4170.128418,4273.333496,4248.717773,4158.717773,4124.230957,4153.846191,4140.769043,4153.205078,4151.282227,4539.487305,4427.307617,4356.025879,4444.743652,5193.000000,3.000000,70.000000,,,,0.000000,4.000000,4.000000,4.000000,4.000000,4.000000,4.000000,4.000000,4.000000,4.000000,4.000000,4.000000,4.000000,4.000000,4.000000,100.000000,,,,,,,,,,,,,,,,,,,,,,,,,,,,
1703409332.080156,1703409332.080319,8.000000,0.000000,4196.410156,4169.230957,4266.410156,4248.077148,4171.025879,4125.256348,4157.820313,4139.358887,4151.025879,4144.102539,4542.436035,4417.692383,4354.358887,4444.102539,4761.000000,3.000000,70.000000,,,,0.000000,4.000000,4.000000,4.000000,4.000000,4.000000,4.000000,4.000000,4.000000,4.000000,4.000000,4.000000,4.000000,4.000000,4.000000,100.000000,,,,,,,,,,,,,,,,,2.000000,0.000000,0.598490,0.181519,-0.714478,0.313660,0.957148,-0.246612,-0.038091,-9.775681,-46.224361,61.048481
1703409332.087964,1703409332.088027,9.000000,0.000000,4194.871582,4173.461426,4258.589844,4250.000000,4171.025879,4123.205078,4154.230957,4137.307617,4151.153809,4136.794922,4535.641113,4408.333496,4353.077148,4435.000000,5035.000000,3.000000,70.000000,,,,0.000000,4.000000,4.000000,4.000000,4.000000,4.000000,4.000000,4.000000,4.000000,4.000000,4.000000,4.000000,4.000000,4.000000,4.000000,100.000000,,,,,,,,,,,,,,,,,,,,,,,,,,,,
1703409332.095772,1703409332.095935,10.000000,0.000000,4198.205078,4176.794922,4260.769043,4250.384766,4164.743652,4121.922852,4152.692383,4135.769043,4150.641113,4139.487305,4532.179688,4414.487305,4353.461426,4432.948730,5778.000000,3.000000,70.000000,,,,0.000000,4.000000,4.000000,4.000000,4.000000,4.000000,4.000000,4.000000,4.000000,4.000000,4.000000,4.000000,4.000000,4.000000,4.000000,100.000000,,,,,,,,,,,,,,,,,,,,,,,,,,,,
1703409332.103580,1703409332.103743,11.000000,0.000000,4201.538574,4170.769043,4270.384766,4252.948730,4165.641113,4122.307617,4151.666504,4133.077148,4148.461426,4139.358887,4537.051270,4420.769043,4352.179688,4438.589844,6073.000000,3.000000,70.000000,,,,0.000000,4.000000,4.000000,4.000000,4.000000,4.000000,4.000000,4.000000,4.000000,4.000000,4.000000,4.000000,4.000000,4.000000,4.000000,100.000000,,,,,,,,,,,,,,,,,,,,,,,,,,,,
1703409332.111388,1703409332.111651,12.000000,0.000000,4201.410156,4173.077148,4278.589844,4258.333496,4169.871582,4125.256348,4151.282227,4133.333496,4151.153809,4139.615234,4544.358887,4423.974121,4357.692383,4442.179688,6464.000000,3.000000,70.000000,,,,0.000000,4.000000,4.000000,4.000000,4.000000,4.000000,4.000000,4.000000,4.000000,4.000000,4.000000,4.000000,4.000000,4.000000,4.000000,100.000000,,,,,,,,,,,,,,,,,3.000000,0.000000,0.598435,0.181519,-0.714417,0.313904,0.958613,-0.249054,-0.036626,-9.814780,-46.185261,61.076965
1703409332.119196,1703409332.119458,13.000000,0.000000,4202.820313,4187.948730,4285.769043,4261.794922,4169.615234,4126.538574,4154.102539,4136.922852,4153.717773,4152.179688,4553.846191,4437.563965,4372.948730,4449.743652,7042.000000,3.000000,70.000000,,,,0.000000,4.000000,4.000000,4.000000,4.000000,4.000000,4.000000,4.000000,4.000000,4.000000,4.000000,4.000000,4.000000,4.000000,4.000000,100.000000,,,,,,,,,,,,,,,,,,,,,,,,,,,,
1703409332.127004,1703409332.127366,14.000000,0.000000,4206.153809,4186.794922,4289.871582,4258.974121,4168.333496,4125.897461,4155.128418,4141.538574,4153.974121,4161.538574,4558.333496,4446.282227,4375.641113,4457.436035,5778.000000,3.000000,70.000000,,,,0.000000,4.000000,4.000000,4.000000,4.000000,4.000000,4.000000,4.000000,4.000000,4.000000,4.000000,4.000000,4.000000,4.000000,4.000000,100.000000,,,,,,,,,,,,,,,,,,,,,,,,,,,,
1703409332.134812,1703409332.135174,15.000000,0.000000,4203.589844,4175.000000,4284.487305,4251.410156,4168.333496,4130.384766,4153.846191,4149.743652,4161.025879,4156.282227,4556.538574,4442.563965,4369.743652,4454.230957,6073.000000,3.000000,70.000000,,,,0.000000,4.000000,4.000000,4.000000,4.000000,4.000000,4.000000,4.000000,4.000000,4.000000,4.000000,4.000000,4.000000,4.000000,4.000000,100.000000,,,,,,,,,,,,,,,,,,,,,,,,,,,,
1703409332.142620,1703409332.143082,16.000000,0.000000,4199.358887,4182.692383,4276.410156,4252.692383,4171.666504,4135.512695,4159.487305,4161.922852,4171.410156,4158.461426,4563.846191,4448.717773,4375.897461,4452.179688,0.000000,3.000000,70.000000,,,,0.000000,4.000000,4.000000,4.000000,4.000000,4.000000,4.000000,4.000000,4.000000,4.000000,4.000000,4.000000,4.000000,4.000000,4.000000,100.000000,,,,,,,,,,,,,,,,,4.000000,0.000000,0.598388,0.181702,-0.714355,0.314026,0.963008,-0.257356,-0.028812,-9.683302,-46.150066,61.102604
1703409332.150428,1703409332.150890,17.000000,0.000000,4202.307617,4188.461426,4278.333496,4261.282227,4171.666504,4137.563965,4164.743652,4168.077148,4174.487305,4170.384766,4575.256348,4460.128418,4383.205078,4462.051270,0.000000,3.000000,70.000000,,,,0.000000,4.000000,4.000000,4.000000,4.000000,4.000000,4.000000,4.000000,4.000000,4.000000,4.000000,4.000000,4.000000,4.000000,4.000000,100.000000,,,,,,,,,,,,,,,,,,,,,,,,,,,,
1703409332.158236,1703409332.158798,18.000000,0.000000,4201.025879,4174.102539,4278.077148,4257.820313,4168.077148,4136.410156,4160.384766,4163.974121,4172.948730,4170.000000,4570.769043,4454.871582,4378.846191,4463.205078,0.000000,3.000000,70.000000,,,,0.000000,4.000000,4.000000,4.000000,4.000000,4.000000,4.000000,4.000000,4.000000,4.000000,4.000000,4.000000,4.000000,4.000000,4.000000,100.000000,,,,,,,,,,,,,,,,,,,,,,,,,,,,
1703409332.166044,1703409332.166606,19.000000,0.000000,4191.666504,4165.897461,4268.846191,4248.461426,4167.179688,4130.512695,4153.461426,4156.538574,4167.948730,4155.128418,4555.897461,4437.948730,4366.922852,4446.025879,0.000000,3.000000,70.000000,,,,0.000000,4.000000,4.000000,4.000000,4.000000,4.000000,4.000000,4.000000,4.000000,4.000000,4.000000,4.000000,4.000000,4.000000,4.000000,100.000000,,,,,,,,,,,,,,,,,,,,,,,,,,,,
1703409332.173853,1703409332.174314,20.000000,0.000000,4184.358887,4166.538574,4263.846191,4245.384766,4167.563965,4128.077148,4153.333496,4152.051270,4156.794922,4148.846191,4545.641113,4426.794922,4355.512695,4433.077148,0.000000,3.000000,70.000000,,,,0.000000,4.000000,4.000000,4.000000,4.000000,4.000000,4.000000,4.000000,4.000000,4.000000,4.000000,4.000000,4.000000,4.000000,4.000000,100.000000,,,,,,,,,,,,,,,,,5.000000,0.000000,0.598411,0.181763,-0.714294,0.314087,0.958613,-0.243194,-0.035649,-9.864972,-46.201725,61.175674
1703409332.181661,1703409332.182122,21.000000,0.000000,4187.563965,4166.794922,4269.487305,4245.769043,4169.102539,4133.461426,4160.897461,4150.769043,4150.641113,4152.051270,4546.666504,4424.102539,4354.743652,4434.871582,0.000000,3.000000,70.000000,,,,0.000000,4.000000,4.000000,4.000000,4.000000,4.000000,4.000000,4.000000,4.000000,4.000000,4.000000,4.000000,4.000000,4.000000,4.000000,100.000000,,,,,,,,,,,,,,,,,,,,,,,,,,,,
1703409332.189469,1703409332.189829,22.000000,0.000000,4196.153809,4177.307617,4277.563965,4247.820313,4173.205078,4138.077148,4165.384766,4150.384766,4153.077148,4151.666504,4553.205078,4428.461426,4367.307617,4445.128418,0.000000,3.000000,70.000000,,,,0.000000,4.000000,4.000000,4.000000,4.000000,4.000000,4.000000,4.000000,4.000000,4.000000,4.000000,4.000000,4.000000,4.000000,4.000000,100.000000,,,,,,,,,,,,,,,,,,,,,,,,,,,,
1703409332.197276,1703409332.197637,23.000000,0.000000,4201.282227,4182.820313,4277.563965,4247.179688,4174.615234,4139.487305,4165.897461,4151.153809,4154.358887,4154.615234,4556.538574,4432.948730,4372.948730,4451.410156,0.000000,3.000000,70.000000,,,,0.000000,4.000000,4.000000,4.000000,4.000000,4.000000,4.000000,4.000000,4.000000,4.000000,4.000000,4.000000,4.000000,4.000000,4.000000,100.000000,,,,,,,,,,,,,,,,,,,,,,,,,,,,
1703409332.205085,1703409332.205345,24.000000,0.000000,4196.025879,4170.897461,4273.205078,4246.666504,4171.538574,4140.641113,4165.641113,4153.717773,4159.358887,4160.000000,4556.794922,4430.769043,4368.205078,4447.051270,0.000000,3.000000,70.000000,,,,0.000000,4.000000,4.000000,4.000000,4.000000,4.000000,4.000000,4.000000,4.000000,4.000000,4.000000,4.000000,4.000000,4.000000,4.000000,100.000000,,,,,,,,,,,,,,,,,6.000000,0.000000,0.598387,0.181946,-0.714294,0.314026,0.968868,-0.248077,-0.033696,-9.928474,-46.014889,61.258106
1703409332.212893,1703409332.213153,25.000000,0.000000,4187.563965,4169.358887,4272.820313,4248.077148,4166.666504,4133.974121,4159.871582,4152.948730,4165.512695,4156.922852,4555.641113,4429.871582,4366.794922,4441.538574,0.000000,3.000000,70.000000,,,,0.000000,4.000000,4.000000,4.000000,4.000000,4.000000,4.000000,4.000000,4.000000,4.000000,4.000000,4.000000,4.000000,4.000000,4.000000,100.000000,,,,,,,,,,,,,,,,,,,,,,,,,,,,
1703409332.220701,1703409332.220861,26.000000,0.000000,4192.051270,4175.769043,4275.000000,4247.692383,4164.487305,4127.307617,4152.051270,4153.717773,4167.948730,4154.102539,4557.307617,4436.666504,4367.563965,4447.692383,0.000000,3.000000,70.000000,,,,0.000000,4.000000,4.000000,4.000000,4.000000,4.000000,4.000000,4.000000,4.000000,4.000000,4.000000,4.000000,4.000000,4.000000,4.000000,100.000000,,,,,,,,,,,,,,,,,,,,,,,,,,,,
1703409332.228509,1703409332.228668,27.000000,0.000000,4200.769043,4173.974121,4280.000000,4250.128418,4173.077148,4133.717773,4159.487305,4163.589844,4176.666504,4163.974121,4566.282227,4446.410156,4374.230957,4460.128418,0.000000,3.000000,70.000000,,,,0.000000,4.000000,4.000000,4.000000,4.000000,4.000000,4.000000,4.000000,4.000000,4.000000,4.000000,4.000000,4.000000,4.000000,4.000000,100.000000,,,,,,,,,,,,,,,,,,,,,,,,,,,,
1703409332.236317,1703409332.236376,28.000000,0.000000,4202.948730,4177.051270,4282.179688,4257.820313,4185.256348,4140.512695,4172.179688,4172.948730,4182.563965,4167.820313,4571.282227,4451.410156,4378.589844,4462.692383,0.000000,3.000000,70.000000,,,,0.000000,4.000000,4.000000,4.000000,4.000000,4.000000,4.000000,4.000000,4.000000,4.000000,4.000000,4.000000,4.000000,4.000000,4.000000,100.000000,,,,,,,,,,,,,,,,,7.000000,0.000000,0.598426,0.182190,-0.714172,0.314087,0.972287,-0.245635,-0.040044,-9.935627,-46.230064,61.298965
1703409332.244125,1703409332.244184,29.000000,0.000000,4207.307617,4186.153809,4280.512695,4262.948730,4187.179688,4140.128418,4168.589844,4171.153809,4175.897461,4160.769043,4569.487305,4453.717773,4373.461426,4463.205078,0.000000,3.000000,70.000000,,,,0.000000,4.000000,4.000000,4.000000,4.000000,4.000000,4.000000,4.000000,4.000000,4.000000,4.000000,4.000000,4.000000,4.000000,4.000000,100.000000,,,,,,,,,,,,,,,,,,,,,,,,,,,,
1703409332.251933,1703409332.251891,30.000000,0.000000,4218.589844,4196.922852,4290.000000,4269.102539,4185.000000,4139.871582,4165.384766,4163.846191,4170.769043,4164.358887,4574.230957,4462.563965,4375.769043,4474.487305,0.000000,3.000000,70.000000,,,,0.000000,4.000000,4.000000,4.000000,4.000000,4.000000,4.000000,4.000000,4.000000,4.000000,4.000000,4.000000,4.000000,4.000000,4.000000,100.000000,,,,,,,,,,,,,,,,,,,,,,,,,,,,
1703409332.259741,1703409332.259800,31.000000,0.000000,4224.487305,4208.077148,4298.846191,4277.436035,4186.922852,4139.743652,4169.487305,4159.743652,4166.538574,4169.871582,4579.358887,4465.256348,4386.410156,4478.846191,0.000000,3.000000,70.000000,,,,0.000000,4.000000,4.000000,4.000000,4.000000,4.000000,4.000000,4.000000,4.000000,4.000000,4.000000,4.000000,4.000000,4.000000,4.000000,100.000000,,,,,,,,,,,,,,,,,,,,,,,,,,,,
1703409332.267549,1703409332.267608,32.000000,0.000000,4213.717773,4201.794922,4286.410156,4271.538574,4186.666504,4138.205078,4165.897461,4155.897461,4154.615234,4156.666504,4568.974121,4448.205078,4379.358887,4461.410156,0.000000,3.000000,70.000000,,,,0.000000,4.000000,4.000000,4.000000,4.000000,4.000000,4.000000,4.000000,4.000000,4.000000,4.000000,4.000000,4.000000,4.000000,4.000000,100.000000,,,,,,,,,,,,,,,,,8.000000,0.000000,0.598376,0.182251,-0.714172,0.314148,0.972287,-0.245635,-0.041509,-9.925398,-46.107059,61.219067
1703409332.275357,1703409332.275516,33.000000,0.000000,4201.538574,4185.512695,4275.000000,4258.717773,4186.922852,4137.820313,4163.205078,4151.282227,4146.794922,4143.717773,4554.102539,4431.282227,4359.358887,4441.794922,0.000000,3.000000,70.000000,,,,0.000000,4.000000,4.000000,4.000000,4.000000,4.000000,4.000000,4.000000,4.000000,4.000000,4.000000,4.000000,4.000000,4.000000,4.000000,100.000000,,,,,,,,,,,,,,,,,,,,,,,,,,,,
1703409332.283165,1703409332.283324,34.000000,0.000000,4199.230957,4182.436035,4278.589844,4260.128418,4190.256348,4138.461426,4164.871582,4152.948730,4151.410156,4148.846191,4550.000000,4431.282227,4354.615234,4440.384766,0.000000,3.000000,70.000000,,,,0.000000,4.000000,4.000000,4.000000,4.000000,4.000000,4.000000,4.000000,4.000000,4.000000,4.000000,4.000000,4.000000,4.000000,4.000000,100.000000,,,,,,,,,,,,,,,,,,,,,,,,,,,,
1703409332.290973,1703409332.291232,35.000000,0.000000,4197.563965,4184.615234,4277.692383,4262.051270,4181.282227,4137.948730,4158.461426,4154.615234,4158.333496,4154.487305,4552.179688,4432.307617,4357.820313,4443.589844,0.000000,3.000000,70.000000,,,,0.000000,4.000000,4.000000,4.000000,4.000000,4.000000,4.000000,4.000000,4.000000,4.000000,4.000000,4.000000,4.000000,4.000000,4.000000,100.000000,,,,,,,,,,,,,,,,,,,,,,,,,,,,
1703409332.298781,1703409332.299040,36.000000,0.000000,4193.846191,4180.897461,4273.589844,4250.000000,4171.922852,4136.794922,4150.256348,4151.922852,4165.128418,4151.025879,4551.794922,4432.820313,4357.436035,4440.897461,0.000000,3.000000,70.000000,,,,0.000000,4.000000,4.000000,4.000000,4.000000,4.000000,4.000000,4.000000,4.000000,4.000000,4.000000,4.000000,4.000000,4.000000,4.000000,100.000000,,,,,,,,,,,,,,,,,9.000000,0.000000,0.598352,0.182434,-0.714172,0.314087,0.958613,-0.235380,-0.038579,-9.882858,-46.179688,61.180492
1703409332.306589,1703409332.306948,37.000000,0.000000,4195.256348,4180.000000,4276.282227,4245.769043,4180.769043,4138.846191,4152.692383,4154.871582,4173.846191,4151.410156,4551.025879,4439.230957,4358.205078,4441.410156,0.000000,3.000000,70.000000,,,,0.000000,4.000000,4.000000,4.000000,4.000000,4.000000,4.000000,4.000000,4.000000,4.000000,4.000000,4.000000,4.000000,4.000000,4.000000,100.000000,,,,,,,,,,,,,,,,,,,,,,,,,,,,
1703409332.314397,1703409332.314756,38.000000,0.000000,4200.897461,4188.846191,4278.461426,4257.820313,4190.897461,4147.051270,4159.743652,4166.282227,4181.410156,4162.692383,4560.384766,4444.743652,4369.358887,4450.897461,0.000000,3.000000,70.000000,,,,0.000000,4.000000,4.000000,4.000000,4.000000,4.000000,4.000000,4.000000,4.000000,4.000000,4.000000,4.000000,4.000000,4.000000,4.000000,100.000000,,,,,,,,,,,,,,,,,,,,,,,,,,,,
1703409332.322205,1703409332.322664,39.000000,0.000000,4206.282227,4197.948730,4283.846191,4265.256348,4187.692383,4153.333496,4164.615234,4172.563965,4186.666504,4171.922852,4574.615234,4452.692383,4384.487305,4464.487305,0.000000,3.000000,70.000000,,,,0.000000,4.000000,4.000000,4.000000,4.000000,4.000000,4.000000,4.000000,4.000000,4.000000,4.000000,4.000000,4.000000,4.000000,4.000000,100.000000,,,,,,,,,,,,,,,,,,,,,,,,,,,,
1703409332.330013,1703409332.330472,40.000000,0.000000,4213.461426,4204.230957,4293.333496,4263.589844,4186.282227,4152.692383,4168.717773,4172.820313,4184.487305,4170.769043,4583.846191,4462.051270,4389.102539,4475.512695,0.000000,3.000000,70.000000,,,,0.000000,4.000000,4.000000,4.000000,4.000000,4.000000,4.000000,4.000000,4.000000,4.000000,4.000000,4.000000,4.000000,4.000000,4.000000,100.000000,,,,,,,,,,,,,,,,,10.000000,0.000000,0.598264,0.182617,-0.714172,0.314148,0.962031,-0.247100,-0.023440,-9.894572,-46.245052,61.229111
1703409332.337821,1703409332.338379,41.000000,0.000000,4217.179688,4209.102539,4297.307617,4266.025879,4188.333496,4150.769043,4169.615234,4174.102539,4176.153809,4168.717773,4585.000000,4464.487305,4383.974121,4478.077148,0.000000,3.000000,70.000000,,,,0.000000,4.000000,4.000000,4.000000,4.000000,4.000000,4.000000,4.000000,4.000000,4.000000,4.000000,4.000000,4.000000,4.000000,4.000000,100.000000,,,,,,,,,,,,,,,,,,,,,,,,,,,,
1703409332.345629,1703409332.346187,42.000000,0.000000,4214.358887,4206.666504,4293.717773,4268.333496,4185.128418,4153.205078,4169.230957,4176.538574,4169.615234,4169.102539,4577.948730,4464.358887,4380.512695,4468.974121,0.000000,3.000000,70.000000,,,,0.000000,4.000000,4.000000,4.000000,4.000000,4.000000,4.000000,4.000000,4.000000,4.000000,4.000000,4.000000,4.000000,4.000000,4.000000,100.000000,,,,,,,,,,,,,,,,,,,,,,,,,,,,
1703409332.353437,1703409332.354095,43.000000,0.000000,4206.538574,4197.820313,4290.897461,4259.230957,4187.563965,4156.794922,4170.769043,4183.589844,4170.897461,4170.641113,4579.871582,4469.743652,4384.102539,4466.794922,0.000000,3.000000,70.000000,,,,0.000000,4.000000,4.000000,4.000000,4.000000,4.000000,4.000000,4.000000,4.000000,4.000000,4.000000,4.000000,4.000000,4.000000,4.000000,100.000000,,,,,,,,,,,,,,,,,,,,,,,,,,,,
1703409332.361245,1703409332.361903,44.000000,0.000000,4198.077148,4192.051270,4293.333496,4253.846191,4189.743652,4157.692383,4171.794922,4191.153809,4175.000000,4166.922852,4587.179688,4470.512695,4385.000000,4472.436035,0.000000,3.000000,70.000000,,,,0.000000,4.000000,4.000000,4.000000,4.000000,4.000000,4.000000,4.000000,4.000000,4.000000,4.000000,4.000000,4.000000,4.000000,4.000000,100.000000,,,,,,,,,,,,,,,,,11.000000,0.000000,0.598203,0.182739,-0.714111,0.314331,0.962520,-0.241240,-0.028324,-9.855115,-46.187214,61.106201
1703409332.369053,1703409332.369611,45.000000,0.000000,4203.846191,4201.025879,4296.666504,4259.871582,4187.563965,4154.871582,4171.282227,4183.974121,4167.179688,4160.512695,4580.769043,4458.589844,4381.538574,4467.436035,0.000000,3.000000,70.000000,,,,0.000000,4.000000,4.000000,4.000000,4.000000,4.000000,4.000000,4.000000,4.000000,4.000000,4.000000,4.000000,4.000000,4.000000,4.000000,100.000000,,,,,,,,,,,,,,,,,,,,,,,,,,,,
1703409332.376861,1703409332.377419,46.000000,0.000000,4217.563965,4216.153809,4295.641113,4265.256348,4194.358887,4156.794922,4171.282227,4165.769043,4157.436035,4163.589844,4570.000000,4453.077148,4381.538574,4464.487305,0.000000,3.000000,70.000000,,,,0.000000,4.000000,4.000000,4.000000,4.000000,4.000000,4.000000,4.000000,4.000000,4.000000,4.000000,4.000000,4.000000,4.000000,4.000000,100.000000,,,,,,,,,,,,,,,,,,,,,,,,,,,,
1703409332.384669,1703409332.385127,47.000000,0.000000,4220.000000,4220.000000,4292.948730,4267.820313,4204.615234,4162.307617,4173.461426,4155.000000,4155.641113,4166.282227,4569.358887,4456.153809,4380.769043,4471.282227,0.000000,3.000000,70.000000,,,,0.000000,4.000000,4.000000,4.000000,4.000000,4.000000,4.000000,4.000000,4.000000,4.000000,4.000000,4.000000,4.000000,4.000000,4.000000,100.000000,,,,,,,,,,,,,,,,,,,,,,,,,,,,
1703409332.392477,1703409332.393035,48.000000,0.000000,4214.487305,4215.897461,4291.794922,4271.153809,4201.282227,4160.384766,4170.769043,4152.820313,4154.615234,4155.000000,4569.743652,4450.128418,4375.512695,4468.717773,0.000000,3.000000,70.000000,,,,0.000000,4.000000,4.000000,4.000000,4.000000,4.000000,4.000000,4.000000,4.000000,4.000000,4.000000,4.000000,4.000000,4.000000,4.000000,100.000000,,,,,,,,,,,,,,,,,12.000000,0.000000,0.598230,0.182861,-0.714111,0.314209,0.963008,-0.250031,-0.029789,-9.802937,-46.235157,61.012245
1703409332.400285,1703409332.400843,49.000000,0.000000,4207.179688,4215.256348,4283.846191,4267.436035,4189.487305,4154.615234,4164.871582,4149.743652,4156.410156,4152.179688,4564.230957,4437.179688,4370.512695,4454.615234,0.000000,3.000000,70.000000,,,,0.000000,4.000000,4.000000,4.000000,4.000000,4.000000,4.000000,4.000000,4.000000,4.000000,4.000000,4.000000,4.000000,4.000000,4.000000,100.000000,,,,,,,,,,,,,,,,,,,,,,,,,,,,
1703409332.408093,1703409332.408651,50.000000,0.000000,4201.153809,4216.282227,4273.846191,4257.948730,4186.794922,4154.743652,4165.256348,4154.743652,4166.538574,4167.692383,4566.282227,4443.461426,4372.820313,4456.025879,0.000000,3.000000,70.000000,,,,0.000000,4.000000,4.000000,4.000000,4.000000,4.000000,4.000000,4.000000,4.000000,4.000000,4.000000,4.000000,4.000000,4.000000,4.000000,100.000000,,,,,,,,,,,,,,,,,,,,,,,,,,,,
1703409332.415902,1703409332.416359,51.000000,0.000000,4203.717773,4212.563965,4278.333496,4258.974121,4188.589844,4157.692383,4168.333496,4175.641113,4176.153809,4170.512695,4575.897461,4460.897461,4378.461426,4468.333496,0.000000,3.000000,70.000000,,,,0.000000,4.000000,4.000000,4.000000,4.000000,4.000000,4.000000,4.000000,4.000000,4.000000,4.000000,4.000000,4.000000,4.000000,4.000000,100.000000,,,,,,,,,,,,,,,,,,,,,,,,,,,,
1703409332.423710,1703409332.424167,52.000000,0.000000,4212.563965,4215.000000,4294.102539,4271.922852,4186.794922,4158.974121,4168.333496,4190.128418,4179.487305,4164.615234,4586.538574,4469.487305,4386.666504,4474.871582,0.000000,3.000000,70.000000,,,,0.000000,4.000000,4.000000,4.000000,4.000000,4.000000,4.000000,4.000000,4.000000,4.000000,4.000000,4.000000,4.000000,4.000000,4.000000,100.000000,,,,,,,,,,,,,,,,,13.000000,0.000000,0.598215,0.183044,-0.714050,0.314270,0.963008,-0.250519,-0.024417,-9.572643,-46.328308,61.211021
1703409332.431517,1703409332.431874,53.000000,0.000000,4223.589844,4226.410156,4306.794922,4280.384766,4191.025879,4158.846191,4170.384766,4189.871582,4183.461426,4176.025879,4595.512695,4479.871582,4395.000000,4483.589844,0.000000,3.000000,70.000000,,,,0.000000,4.000000,4.000000,4.000000,4.000000,4.000000,4.000000,4.000000,4.000000,4.000000,4.000000,4.000000,4.000000,4.000000,4.000000,100.000000,,,,,,,,,,,,,,,,,,,,,,,,,,,,
1703409332.439325,1703409332.439682,54.000000,0.000000,4236.410156,4235.384766,4315.512695,4280.641113,4201.666504,4155.897461,4173.846191,4190.128418,4183.077148,4189.871582,4601.410156,4495.256348,4400.000000,4495.000000,0.000000,3.000000,70.000000,,,,0.000000,4.000000,4.000000,4.000000,4.000000,4.000000,4.000000,4.000000,4.000000,4.000000,4.000000,4.000000,4.000000,4.000000,4.000000,100.000000,,,,,,,,,,,,,,,,,,,,,,,,,,,,
1703409332.447134,1703409332.447389,55.000000,0.000000,4239.358887,4230.769043,4316.025879,4281.153809,4201.794922,4153.974121,4168.077148,4186.282227,4175.897461,4189.102539,4599.743652,4496.153809,4401.153809,4495.000000,0.000000,3.000000,70.000000,,,,0.000000,4.000000,4.000000,4.000000,4.000000,4.000000,4.000000,4.000000,4.000000,4.000000,4.000000,4.000000,4.000000,4.000000,4.000000,100.000000,,,,,,,,,,,,,,,,,,,,,,,,,,,,
1703409332.454942,1703409332.455197,56.000000,0.000000,4223.846191,4217.820313,4303.205078,4274.102539,4190.897461,4156.025879,4159.743652,4171.794922,4166.666504,4176.794922,4582.563965,4475.769043,4391.922852,4476.794922,0.000000,3.000000,70.000000,,,,0.000000,4.000000,4.000000,4.000000,4.000000,4.000000,4.000000,4.000000,4.000000,4.000000,4.000000,4.000000,4.000000,4.000000,4.000000,100.000000,,,,,,,,,,,,,,,,,14.000000,0.000000,0.598181,0.183289,-0.713989,0.314331,0.963008,-0.252472,-0.029789,-9.698712,-46.128811,61.206585
1703409332.462750,1703409332.462905,57.000000,0.000000,4214.358887,4213.846191,4297.051270,4263.333496,4186.666504,4155.769043,4157.436035,4163.717773,4162.948730,4166.922852,4570.769043,4458.589844,4381.153809,4465.256348,0.000000,3.000000,70.000000,,,,0.000000,4.000000,4.000000,4.000000,4.000000,4.000000,4.000000,4.000000,4.000000,4.000000,4.000000,4.000000,4.000000,4.000000,4.000000,100.000000,,,,,,,,,,,,,,,,,,,,,,,,,,,,
1703409332.470558,1703409332.470712,58.000000,0.000000,4226.153809,4215.641113,4303.717773,4271.922852,4189.358887,4154.871582,4155.512695,4166.282227,4172.820313,4174.230957,4576.538574,4461.922852,4381.282227,4471.666504,0.000000,3.000000,70.000000,,,,0.000000,4.000000,4.000000,4.000000,4.000000,4.000000,4.000000,4.000000,4.000000,4.000000,4.000000,4.000000,4.000000,4.000000,4.000000,100.000000,,,,,,,,,,,,,,,,,,,,,,,,,,,,
1703409332.478366,1703409332.478420,59.000000,0.000000,4236.922852,4218.717773,4302.820313,4282.692383,4192.051270,4155.128418,4154.871582,4172.948730,4186.410156,4186.794922,4585.128418,4472.307617,4387.436035,4478.333496,0.000000,3.000000,70.000000,,,,0.000000,4.000000,4.000000,4.000000,4.000000,4.000000,4.000000,4.000000,4.000000,4.000000,4.000000,4.000000,4.000000,4.000000,4.000000,100.000000,,,,,,,,,,,,,,,,,,,,,,,,,,,,
1703409332.486174,1703409332.486327,60.000000,0.000000,4230.384766,4222.307617,4289.615234,4270.769043,4191.025879,4155.897461,4155.128418,4178.205078,4188.461426,4186.794922,4585.641113,4466.410156,4389.230957,4474.230957,0.000000,3.000000,70.000000,,,,0.000000,4.000000,4.000000,4.000000,4.000000,4.000000,4.000000,4.000000,4.000000,4.000000,4.000000,4.000000,4.000000,4.000000,4.000000,100.000000,,,,,,,,,,,,,,,,,15.000000,0.000000,0.598357,0.183350,-0.713745,0.314514,0.977658,-0.236845,-0.040044,-9.712174,-46.132595,61.219261
1703409332.493982,1703409332.494135,61.000000,0.000000,4220.128418,4213.461426,4280.641113,4260.384766,4186.666504,4154.487305,4155.641113,4172.820313,4181.922852,4180.897461,4577.051270,4446.794922,4381.025879,4460.256348,0.000000,3.000000,70.000000,,,,0.000000,4.000000,4.000000,4.000000,4.000000,4.000000,4.000000,4.000000,4.000000,4.000000,4.000000,4.000000,4.000000,4.000000,4.000000,100.000000,,,,,,,,,,,,,,,,,,,,,,,,,,,,
1703409332.501790,1703409332.502043,62.000000,0.000000,4212.692383,4202.179688,4278.461426,4259.871582,4189.102539,4155.897461,4161.794922,4164.358887,4182.179688,4183.205078,4570.512695,4439.358887,4373.589844,4450.384766,0.000000,3.000000,70.000000,,,,0.000000,4.000000,4.000000,4.000000,4.000000,4.000000,4.000000,4.000000,4.000000,4.000000,4.000000,4.000000,4.000000,4.000000,4.000000,100.000000,,,,,,,,,,,,,,,,,,,,,,,,,,,,
1703409332.509598,1703409332.509851,63.000000,0.000000,4203.205078,4204.102539,4276.282227,4260.128418,4189.743652,4161.025879,4164.871582,4169.615234,4190.256348,4187.820313,4570.769043,4440.641113,4372.436035,4447.948730,0.000000,3.000000,70.000000,,,,0.000000,4.000000,4.000000,4.000000,4.000000,4.000000,4.000000,4.000000,4.000000,4.000000,4.000000,4.000000,4.000000,4.000000,4.000000,100.000000,,,,,,,,,,,,,,,,,,,,,,,,,,,,
1703409332.517406,1703409332.517759,64.000000,0.000000,4198.077148,4203.974121,4275.897461,4260.769043,4180.641113,4163.717773,4162.692383,4175.128418,4189.487305,4181.410156,4568.589844,4432.948730,4368.589844,4445.384766,5385.000000,3.000000,70.000000,,,,0.000000,4.000000,4.000000,4.000000,4.000000,4.000000,4.000000,4.000000,4.000000,4.000000,4.000000,4.000000,4.000000,4.000000,4.000000,100.000000,,,,,,,,,,,,,,,,,16.000000,0.000000,0.598449,0.183289,-0.713684,0.314514,0.955195,-0.244659,-0.036626,-9.740957,-46.169338,61.347336
1703409332.525214,1703409332.525567,65.000000,0.000000,4195.897461,4196.153809,4274.487305,4253.461426,4180.128418,4168.077148,4167.307617,4171.666504,4185.256348,4174.615234,4563.589844,4429.358887,4361.922852,4443.589844,5272.000000,3.000000,70.000000,,,,0.000000,4.000000,4.000000,4.000000,4.000000,4.000000,4.000000,4.000000,4.000000,4.000000,4.000000,4.000000,4.000000,4.000000,4.000000,100.000000,,,,,,,,,,,,,,,,,,,,,,,,,,,,
1703409332.533022,1703409332.533475,66.000000,0.000000,4198.717773,4195.897461,4277.948730,4249.230957,4191.666504,4169.102539,4172.692383,4177.051270,4190.897461,4180.256348,4569.871582,4446.538574,4368.461426,4452.307617,5171.000000,3.000000,70.000000,,,,0.000000,4.000000,4.000000,4.000000,4.000000,4.000000,4.000000,4.000000,4.000000,4.000000,4.000000,4.000000,4.000000,4.000000,4.000000,100.000000,,,,,,,,,,,,,,,,,,,,,,,,,,,,
1703409332.540830,1703409332.541283,67.000000,0.000000,4210.897461,4199.358887,4290.128418,4262.436035,4191.922852,4162.820313,4168.589844,4190.384766,4194.487305,4190.512695,4585.000000,4464.102539,4380.897461,4467.307617,5277.000000,3.000000,70.000000,,,,0.000000,4.000000,4.000000,4.000000,4.000000,4.000000,4.000000,4.000000,4.000000,4.000000,4.000000,4.000000,4.000000,4.000000,4.000000,100.000000,,,,,,,,,,,,,,,,,,,,,,,,,,,,
1703409332.548638,1703409332.548991,68.000000,0.000000,4218.077148,4199.102539,4299.102539,4270.256348,4184.871582,4159.487305,4167.692383,4189.871582,4184.230957,4187.692383,4586.153809,4465.384766,4380.384766,4472.051270,4948.000000,3.000000,70.000000,,,,0.000000,4.000000,4.000000,4.000000,4.000000,4.000000,4.000000,4.000000,4.000000,4.000000,4.000000,4.000000,4.000000,4.000000,4.000000,100.000000,1.000000,91.666664,4.000000,4.000000,4.000000,4.000000,4.000000,3.000000,4.000000,4.000000,4.000000,4.000000,4.000000,4.000000,4.000000,4.000000,17.000000,0.000000,0.598317,0.183167,-0.713745,0.314697,0.982053,-0.243194,-0.032230,-9.750195,-46.085735,61.229267
1703409332.556446,1703409332.556799,69.000000,0.000000,4223.077148,4206.922852,4305.384766,4271.410156,4194.102539,4161.922852,4168.205078,4176.794922,4178.846191,4183.333496,4585.128418,4468.077148,4381.922852,4476.794922,4692.000000,3.000000,70.000000,,,,0.000000,4.000000,4.000000,4.000000,4.000000,4.000000,4.000000,4.000000,4.000000,4.000000,4.000000,4.000000,4.000000,4.000000,4.000000,100.000000,,,,,,,,,,,,,,,,,,,,,,,,,,,,
1703409332.564254,1703409332.564506,70.000000,0.000000,4239.358887,4218.333496,4314.487305,4284.743652,4200.769043,4158.717773,4159.615234,4168.461426,4183.974121,4193.974121,4597.179688,4483.461426,4394.615234,4494.487305,3947.000000,3.000000,70.000000,,,,0.000000,4.000000,4.000000,4.000000,4.000000,4.000000,4.000000,4.000000,4.000000,4.000000,4.000000,4.000000,4.000000,4.000000,4.000000,100.000000,,,,,,,,,,,,,,,,,,,,,,,,,,,,
1703409332.572062,1703409332.572314,71.000000,0.000000,4252.051270,4221.410156,4318.974121,4293.589844,4187.948730,4153.077148,4152.563965,4169.102539,4186.025879,4203.846191,4607.948730,4495.384766,4401.794922,4508.077148,5193.000000,3.000000,70.000000,,,,0.000000,4.000000,4.000000,4.000000,4.000000,4.000000,4.000000,4.000000,4.000000,4.000000,4.000000,4.000000,4.000000,4.000000,4.000000,100.000000,,,,,,,,,,,,,,,,,,,,,,,,,,,,
1703409332.579870,1703409332.580022,72.000000,0.000000,4251.666504,4220.384766,4320.128418,4290.384766,4185.512695,4152.948730,4152.307617,4176.666504,4189.871582,4203.974121,4610.384766,4495.256348,4399.743652,4508.717773,4761.000000,3.000000,70.000000,,,,0.000000,4.000000,4.000000,4.000000,4.000000,4.000000,4.000000,4.000000,4.000000,4.000000,4.000000,4.000000,4.000000,4.000000,4.000000,100.000000,,,,,,,,,,,,,,,,,18.000000,0.000000,0.597989,0.183105,-0.713928,0.314941,0.957148,-0.231474,-0.037114,-9.775175,-45.993828,61.306343
1703409332.587678,1703409332.587830,73.000000,0.000000,4248.974121,4218.461426,4319.871582,4287.307617,4201.538574,4153.077148,4155.512695,4185.128418,4200.512695,4204.743652,4611.922852,4494.358887,4398.974121,4507.436035,5025.000000,3.000000,70.000000,,,,0.000000,4.000000,4.000000,4.000000,4.000000,4.000000,4.000000,4.000000,4.000000,4.000000,4.000000,4.000000,4.000000,4.000000,4.000000,100.000000,,,,,,,,,,,,,,,,,,,,,,,,,,,,
1703409332.595486,1703409332.595537,74.000000,0.000000,4241.538574,4208.461426,4309.102539,4277.307617,4201.538574,4158.974121,4161.666504,4187.563965,4207.307617,4204.743652,4609.871582,4493.205078,4394.487305,4500.769043,5766.000000,3.000000,70.000000,,,,0.000000,4.000000,4.000000,4.000000,4.000000,4.000000,4.000000,4.000000,4.000000,4.000000,4.000000,4.000000,4.000000,4.000000,4.000000,100.000000,,,,,,,,,,,,,,,,,,,,,,,,,,,,
1703409332.603294,1703409332.603345,75.000000,0.000000,4227.820313,4194.615234,4290.641113,4267.948730,4186.282227,4168.846191,4166.410156,4186.410156,4202.179688,4194.358887,4593.846191,4480.256348,4381.410156,4482.563965,6072.000000,3.000000,70.000000,,,,0.000000,4.000000,4.000000,4.000000,4.000000,4.000000,4.000000,4.000000,4.000000,4.000000,4.000000,4.000000,4.000000,4.000000,4.000000,100.000000,,,,,,,,,,,,,,,,,,,,,,,,,,,,
1703409332.611102,1703409332.611053,76.000000,0.000000,4219.615234,4184.102539,4279.102539,4264.615234,4186.025879,4172.307617,4167.563965,4182.563965,4189.102539,4184.615234,4575.256348,4457.563965,4371.282227,4468.205078,6454.000000,3.000000,70.000000,,,,0.000000,4.000000,4.000000,4.000000,4.000000,4.000000,4.000000,4.000000,4.000000,4.000000,4.000000,4.000000,4.000000,4.000000,4.000000,100.000000,,,,,,,,,,,,,,,,,19.000000,0.000000,0.597799,0.183228,-0.713867,0.315369,0.956660,-0.238310,-0.033696,-9.747658,-45.994446,61.375706
1703409332.618910,1703409332.618861,77.000000,0.000000,4214.358887,4175.897461,4273.589844,4254.358887,4192.820313,4171.410156,4169.487305,4173.717773,4183.205078,4180.256348,4566.410156,4440.897461,4361.538574,4459.743652,7037.000000,3.000000,70.000000,,,,0.000000,4.000000,4.000000,4.000000,4.000000,4.000000,4.000000,4.000000,4.000000,4.000000,4.000000,4.000000,4.000000,4.000000,4.000000,100.000000,,,,,,,,,,,,,,,,,,,,,,,,,,,,
1703409332.626718,1703409332.626568,78.000000,0.000000,4211.666504,4176.153809,4273.077148,4247.179688,4188.717773,4172.179688,4171.538574,4166.410156,4183.717773,4171.025879,4562.307617,4439.230957,4356.410156,4455.000000,5766.000000,3.000000,70.000000,,,,0.000000,4.000000,4.000000,4.000000,4.000000,4.000000,4.000000,4.000000,4.000000,4.000000,4.000000,4.000000,4.000000,4.000000,4.000000,100.000000,,,,,,,,,,,,,,,,,,,,,,,,,,,,
1703409332.634526,1703409332.634476,79.000000,0.000000,4214.487305,4178.717773,4279.358887,4258.589844,4192.307617,4175.769043,4174.487305,4168.974121,4182.820313,4167.948730,4564.871582,4443.333496,4370.000000,4464.487305,6072.000000,3.000000,70.000000,,,,0.000000,4.000000,4.000000,4.000000,4.000000,4.000000,4.000000,4.000000,4.000000,4.000000,4.000000,4.000000,4.000000,4.000000,4.000000,100.000000,,,,,,,,,,,,,,,,,,,,,,,,,,,,
1703409332.642334,1703409332.642285,80.000000,0.000000,4217.051270,4182.051270,4283.974121,4266.538574,4196.282227,4175.641113,4175.000000,4169.230957,4179.358887,4175.000000,4572.051270,4442.563965,4381.282227,4474.358887,6454.000000,3.000000,70.000000,,,,0.000000,4.000000,4.000000,4.000000,4.000000,4.000000,4.000000,4.000000,4.000000,4.000000,4.000000,4.000000,4.000000,4.000000,4.000000,100.000000,,,,,,,,,,,,,,,,,20.000000,0.000000,0.597689,0.183167,-0.713867,0.315613,0.972775,-0.251496,-0.037602,-9.756226,-46.195004,61.421471
1703409332.650143,1703409332.650193,81.000000,0.000000,4223.974121,4193.846191,4288.205078,4264.615234,4185.512695,4170.769043,4173.333496,4167.692383,4180.769043,4181.410156,4580.000000,4447.051270,4380.256348,4475.512695,7037.000000,3.000000,70.000000,,,,0.000000,4.000000,4.000000,4.000000,4.000000,4.000000,4.000000,4.000000,4.000000,4.000000,4.000000,4.000000,4.000000,4.000000,4.000000,100.000000,,,,,,,,,,,,,,,,,,,,,,,,,,,,
1703409332.657951,1703409332.658001,82.000000,0.000000,4237.948730,4207.563965,4297.563965,4274.102539,4187.179688,4175.128418,4179.871582,4178.077148,4187.051270,4186.282227,4588.461426,4460.897461,4386.025879,4479.615234,5766.000000,3.000000,70.000000,,,,0.000000,4.000000,4.000000,4.000000,4.000000,4.000000,4.000000,4.000000,4.000000,4.000000,4.000000,4.000000,4.000000,4.000000,4.000000,100.000000,,,,,,,,,,,,,,,,,,,,,,,,,,,,
1703409332.665758,1703409332.665909,83.000000,0.000000,4239.102539,4207.692383,4302.179688,4279.358887,4206.922852,4186.794922,4190.256348,4184.743652,4183.205078,4183.846191,4587.307617,4464.102539,4388.077148,4479.358887,6072.000000,3.000000,70.000000,,,,0.000000,4.000000,4.000000,4.000000,4.000000,4.000000,4.000000,4.000000,4.000000,4.000000,4.000000,4.000000,4.000000,4.000000,4.000000,100.000000,,,,,,,,,,,,,,,,,,,,,,,,,,,,
1703409332.673566,1703409332.673717,84.000000,0.000000,4220.769043,4196.153809,4297.307617,4267.820313,4205.897461,4184.615234,4187.820313,4171.666504,4169.358887,4173.333496,4572.179688,4449.358887,4375.512695,4466.922852,6454.000000,3.000000,70.000000,,,,0.000000,4.000000,4.000000,4.000000,4.000000,4.000000,4.000000,4.000000,4.000000,4.000000,4.000000,4.000000,4.000000,4.000000,4.000000,100.000000,,,,,,,,,,,,,,,,,21.000000,0.000000,0.597479,0.183167,-0.713989,0.315735,0.965450,-0.246612,-0.035161,-9.647269,-46.142170,61.312656
1703409332.681375,1703409332.681625,85.000000,0.000000,4213.205078,4188.461426,4299.871582,4267.051270,4187.820313,4172.692383,4181.538574,4163.077148,4167.051270,4172.948730,4570.769043,4448.974121,4376.282227,4463.846191,7037.000000,3.000000,70.000000,,,,0.000000,4.000000,4.000000,4.000000,4.000000,4.000000,4.000000,4.000000,4.000000,4.000000,4.000000,4.000000,4.000000,4.000000,4.000000,100.000000,,,,,,,,,,,,,,,,,,,,,,,,,,,,
1703409332.689183,1703409332.689433,86.000000,0.000000,4225.384766,4186.794922,4311.410156,4278.717773,4189.230957,4170.512695,4185.641113,4176.153809,4182.948730,4186.282227,4591.794922,4471.666504,4388.717773,4476.538574,5766.000000,3.000000,70.000000,,,,0.000000,4.000000,4.000000,4.000000,4.000000,4.000000,4.000000,4.000000,4.000000,4.000000,4.000000,4.000000,4.000000,4.000000,4.000000,100.000000,,,,,,,,,,,,,,,,,,,,,,,,,,,,
1703409332.696991,1703409332.697341,87.000000,0.000000,4226.153809,4187.179688,4311.922852,4277.436035,4194.487305,4177.051270,4187.563965,4188.333496,4198.205078,4192.692383,4597.820313,4482.051270,4386.794922,4479.743652,6072.000000,3.000000,70.000000,,,,0.000000,4.000000,4.000000,4.000000,4.000000,4.000000,4.000000,4.000000,4.000000,4.000000,4.000000,4.000000,4.000000,4.000000,4.000000,100.000000,,,,,,,,,,,,,,,,,,,,,,,,,,,,
1703409332.704799,1703409332.705149,88.000000,0.000000,4216.025879,4189.102539,4303.846191,4272.563965,4188.461426,4182.179688,4183.589844,4191.794922,4202.692383,4190.769043,4587.820313,4474.487305,4387.051270,4473.974121,6454.000000,3.000000,70.000000,,,,0.000000,4.000000,4.000000,4.000000,4.000000,4.000000,4.000000,4.000000,4.000000,4.000000,4.000000,4.000000,4.000000,4.000000,4.000000,100.000000,,,,,,,,,,,,,,,,,22.000000,0.000000,0.597474,0.183289,-0.713989,0.315674,0.962520,-0.240264,-0.031254,-9.699209,-46.111286,61.448059
1703409332.712607,1703409332.713057,89.000000,0.000000,4217.563965,4192.051270,4299.102539,4272.307617,4187.820313,4180.512695,4183.974121,4194.871582,4205.000000,4195.769043,4587.820313,4471.922852,4395.128418,4474.615234,7037.000000,3.000000,70.000000,,,,0.000000,4.000000,4.000000,4.000000,4.000000,4.000000,4.000000,4.000000,4.000000,4.000000,4.000000,4.000000,4.000000,4.000000,4.000000,100.000000,,,,,,,,,,,,,,,,,,,,,,,,,,,,
1703409332.720415,1703409332.720865,90.000000,0.000000,4221.025879,4190.000000,4295.512695,4268.205078,4188.717773,4173.717773,4185.384766,4192.051270,4205.128418,4199.487305,4591.666504,4473.717773,4389.615234,4476.153809,5766.000000,3.000000,70.000000,,,,0.000000,4.000000,4.000000,4.000000,4.000000,4.000000,4.000000,4.000000,4.000000,4.000000,4.000000,4.000000,4.000000,4.000000,4.000000,100.000000,,,,,,,,,,,,,,,,,,,,,,,,,,,,
1703409332.728223,1703409332.728773,91.000000,0.000000,4217.051270,4179.871582,4295.128418,4269.358887,4184.230957,4175.641113,4183.846191,4187.179688,4198.461426,4192.692383,4590.128418,4472.436035,4383.077148,4473.461426,6072.000000,3.000000,70.000000,,,,0.000000,4.000000,4.000000,4.000000,4.000000,4.000000,4.000000,4.000000,4.000000,4.000000,4.000000,4.000000,4.000000,4.000000,4.000000,100.000000,,,,,,,,,,,,,,,,,,,,,,,,,,,,
1703409332.736031,1703409332.736581,92.000000,0.000000,4217.436035,4177.179688,4298.846191,4272.692383,4182.948730,4183.333496,4183.589844,4188.974121,4189.871582,4188.205078,4590.769043,4476.282227,4387.051270,4477.051270,6454.000000,3.000000,70.000000,,,,0.000000,4.000000,4.000000,4.000000,4.000000,4.000000,4.000000,4.000000,4.000000,4.000000,4.000000,4.000000,4.000000,4.000000,4.000000,100.000000,,,,,,,,,,,,,,,,,23.000000,0.000000,0.597417,0.183472,-0.713989,0.315674,0.962520,-0.237822,-0.029300,-9.712622,-46.166824,61.436584
1703409332.743839,1703409332.744288,93.000000,0.000000,4217.436035,4180.897461,4297.051270,4267.948730,4186.922852,4178.974121,4187.051270,4183.205078,4180.256348,4185.256348,4587.563965,4472.948730,4383.717773,4479.615234,7037.000000,3.000000,70.000000,,,,0.000000,4.000000,4.000000,4.000000,4.000000,4.000000,4.000000,4.000000,4.000000,4.000000,4.000000,4.000000,4.000000,4.000000,4.000000,100.000000,,,,,,,,,,,,,,,,,,,,,,,,,,,,
1703409332.751647,1703409332.752096,94.000000,0.000000,4212.051270,4185.000000,4292.820313,4263.846191,4186.153809,4169.358887,4183.461426,4161.922852,4166.666504,4173.333496,4574.615234,4454.102539,4372.051270,4470.897461,5766.000000,3.000000,70.000000,,,,0.000000,4.000000,4.000000,4.000000,4.000000,4.000000,4.000000,4.000000,4.000000,4.000000,4.000000,4.000000,4.000000,4.000000,4.000000,100.000000,,,,,,,,,,,,,,,,,,,,,,,,,,,,
1703409332.759455,1703409332.759804,95.000000,0.000000,4213.589844,4182.948730,4292.436035,4262.563965,4183.077148,4170.000000,4176.666504,4143.589844,4154.102539,4164.358887,4566.666504,4442.948730,4370.641113,4467.820313,6072.000000,3.000000,70.000000,,,,0.000000,4.000000,4.000000,4.000000,4.000000,4.000000,4.000000,4.000000,4.000000,4.000000,4.000000,4.000000,4.000000,4.000000,4.000000,100.000000,,,,,,,,,,,,,,,,,,,,,,,,,,,,
1703409332.767263,1703409332.767612,96.000000,0.000000,4213.717773,4172.307617,4292.820313,4266.922852,4186.153809,4173.974121,4178.333496,4140.128418,4153.205078,4168.974121,4569.615234,4443.333496,4376.922852,4470.897461,6454.000000,3.000000,70.000000,,,,0.000000,4.000000,4.000000,4.000000,4.000000,4.000000,4.000000,4.000000,4.000000,4.000000,4.000000,4.000000,4.000000,4.000000,4.000000,100.000000,,,,,,,,,,,,,,,,,24.000000,0.000000,0.597578,0.183899,-0.713745,0.315674,0.961055,-0.235380,-0.028812,-9.808026,-46.050140,61.342926
1703409332.775071,1703409332.775320,97.000000,0.000000,4208.333496,4171.538574,4289.871582,4270.000000,4188.077148,4172.436035,4183.974121,4145.128418,4159.230957,4170.769043,4570.384766,4442.820313,4378.333496,4467.051270,7037.000000,3.000000,70.000000,,,,0.000000,4.000000,4.000000,4.000000,4.000000,4.000000,4.000000,4.000000,4.000000,4.000000,4.000000,4.000000,4.000000,4.000000,4.000000,100.000000,,,,,,,,,,,,,,,,,,,,,,,,,,,,
1703409332.782879,1703409332.783127,98.000000,0.000000,4215.384766,4184.743652,4294.871582,4270.000000,4187.563965,4172.692383,4184.743652,4157.820313,4167.179688,4168.589844,4577.051270,4454.102539,4379.358887,4473.461426,5766.000000,3.000000,70.000000,,,,0.000000,4.000000,4.000000,4.000000,4.000000,4.000000,4.000000,4.000000,4.000000,4.000000,4.000000,4.000000,4.000000,4.000000,4.000000,100.000000,,,,,,,,,,,,,,,,,,,,,,,,,,,,
1703409332.790687,1703409332.790835,99.000000,0.000000,4224.615234,4188.205078,4304.743652,4271.538574,4184.871582,4172.051270,4179.230957,4170.256348,4171.666504,4173.717773,4590.769043,4474.871582,4382.948730,4491.922852,6072.000000,3.000000,70.000000,,,,0.000000,4.000000,4.000000,4.000000,4.000000,4.000000,4.000000,4.000000,4.000000,4.000000,4.000000,4.000000,4.000000,4.000000,4.000000,100.000000,,,,,,,,,,,,,,,,,,,,,,,,,,,,
1703409332.798495,1703409332.798643,100.000000,0.000000,4222.307617,4180.000000,4302.051270,4273.333496,4177.307617,4169.230957,4176.025879,4172.051270,4169.743652,4175.897461,4593.333496,4472.563965,4388.717773,4494.487305,6454.000000,3.000000,70.000000,,,,0.000000,4.000000,4.000000,4.000000,4.000000,4.000000,4.000000,4.000000,4.000000,4.000000,4.000000,4.000000,4.000000,4.000000,4.000000,100.000000,,,,,,,,,,,,,,,,,25.000000,0.000000,0.597416,0.184082,-0.713806,0.315735,0.968868,-0.231962,-0.031254,-9.760557,-46.061794,61.391968
1703409332.806303,1703409332.806351,101.000000,0.000000,4221.153809,4181.666504,4293.717773,4271.666504,4176.153809,4173.974121,4180.000000,4174.871582,4174.487305,4170.512695,4588.461426,4460.000000,4392.436035,4486.025879,7037.000000,3.000000,70.000000,,,,0.000000,4.000000,4.000000,4.000000,4.000000,4.000000,4.000000,4.000000,4.000000,4.000000,4.000000,4.000000,4.000000,4.000000,4.000000,100.000000,,,,,,,,,,,,,,,,,,,,,,,,,,,,
1703409332.814111,1703409332.814259,102.000000,0.000000,4223.333496,4186.666504,4292.820313,4274.230957,4184.871582,4182.820313,4185.000000,4186.282227,4185.769043,4177.179688,4592.820313,4468.461426,4394.743652,4489.615234,5766.000000,3.000000,70.000000,,,,0.000000,4.000000,4.000000,4.000000,4.000000,4.000000,4.000000,4.000000,4.000000,4.000000,4.000000,4.000000,4.000000,4.000000,4.000000,100.000000,,,,,,,,,,,,,,,,,,,,,,,,,,,,
1703409332.821919,1703409332.822067,103.000000,0.000000,4219.871582,4184.615234,4296.153809,4274.487305,4190.384766,4186.794922,4185.384766,4190.512695,4189.102539,4190.000000,4598.589844,4479.230957,4397.179688,4495.512695,6072.000000,3.000000,70.000000,,,,0.000000,4.000000,4.000000,4.000000,4.000000,4.000000,4.000000,4.000000,4.000000,4.000000,4.000000,4.000000,4.000000,4.000000,4.000000,100.000000,,,,,,,,,,,,,,,,,,,,,,,,,,,,
1703409332.829727,1703409332.829975,104.000000,0.000000,4216.410156,4182.820313,4291.666504,4263.589844,4187.820313,4182.563965,4186.025879,4185.384766,4184.743652,4182.436035,4588.974121,4477.179688,4390.512695,4490.256348,6454.000000,3.000000,70.000000,,,,0.000000,4.000000,4.000000,4.000000,4.000000,4.000000,4.000000,4.000000,4.000000,4.000000,4.000000,4.000000,4.000000,4.000000,4.000000,100.000000,,,,,,,,,,,,,,,,,26.000000,0.000000,0.597233,0.184021,-0.713867,0.315979,0.970822,-0.241240,-0.036137,-9.784501,-46.138947,61.286102
1703409332.837535,1703409332.837783,105.000000,0.000000,4214.743652,4180.897461,4282.948730,4260.000000,4184.487305,4178.461426,4185.512695,4184.487305,4183.461426,4171.025879,4570.769043,4469.358887,4381.025879,4476.666504,7037.000000,3.000000,70.000000,,,,0.000000,4.000000,4.000000,4.000000,4.000000,4.000000,4.000000,4.000000,4.000000,4.000000,4.000000,4.000000,4.000000,4.000000,4.000000,100.000000,,,,,,,,,,,,,,,,,,,,,,,,,,,,
1703409332.845343,1703409332.845691,106.000000,0.000000,4215.128418,4183.846191,4281.282227,4266.410156,4186.153809,4182.179688,4183.461426,4186.922852,4187.051270,4182.692383,4574.615234,4461.922852,4388.461426,4471.538574,5766.000000,3.000000,70.000000,,,,0.000000,4.000000,4.000000,4.000000,4.000000,4.000000,4.000000,4.000000,4.000000,4.000000,4.000000,4.000000,4.000000,4.000000,4.000000,100.000000,,,,,,,,,,,,,,,,,,,,,,,,,,,,
1703409332.853151,1703409332.853499,107.000000,0.000000,4213.846191,4184.743652,4282.436035,4265.256348,4189.743652,4184.487305,4187.563965,4189.102539,4188.846191,4192.179688,4596.922852,4459.871582,4406.282227,4481.538574,6072.000000,3.000000,70.000000,,,,0.000000,4.000000,4.000000,4.000000,4.000000,4.000000,4.000000,4.000000,4.000000,4.000000,4.000000,4.000000,4.000000,4.000000,4.000000,100.000000,,,,,,,,,,,,,,,,,,,,,,,,,,,,
1703409332.860959,1703409332.861407,108.000000,0.000000,4205.000000,4171.282227,4281.410156,4259.871582,4180.769043,4175.641113,4184.102539,4188.717773,4186.410156,4178.077148,4592.307617,4459.358887,4398.333496,4482.051270,6454.000000,3.000000,70.000000,,,,0.000000,4.000000,4.000000,4.000000,4.000000,4.000000,4.000000,4.000000,4.000000,4.000000,4.000000,4.000000,4.000000,4.000000,4.000000,100.000000,,,,,,,,,,,,,,,,,27.000000,0.000000,0.596863,0.183777,-0.714050,0.316406,0.956171,-0.236845,-0.025882,-9.806051,-46.175053,61.357494
1703409332.868767,1703409332.869215,109.000000,0.000000,4206.025879,4167.179688,4283.333496,4260.256348,4166.282227,4167.307617,4169.230957,4178.461426,4182.436035,4169.487305,4574.358887,4459.230957,4380.384766,4478.333496,7037.000000,3.000000,70.000000,,,,0.000000,4.000000,4.000000,4.000000,4.000000,4.000000,4.000000,4.000000,4.000000,4.000000,4.000000,4.000000,4.000000,4.000000,4.000000,100.000000,,,,,,,,,,,,,,,,,,,,,,,,,,,,
1703409332.876575,1703409332.877123,110.000000,0.000000,4219.487305,4184.358887,4293.461426,4268.589844,4172.948730,4169.487305,4170.641113,4167.051270,4180.769043,4181.666504,4588.077148,4468.461426,4392.692383,4495.769043,5766.000000,3.000000,70.000000,,,,0.000000,4.000000,4.000000,4.000000,4.000000,4.000000,4.000000,4.000000,4.000000,4.000000,4.000000,4.000000,4.000000,4.000000,4.000000,100.000000,,,,,,,,,,,,,,,,,,,,,,,,,,,,
1703409332.884384,1703409332.884931,111.000000,0.000000,4223.077148,4187.179688,4297.307617,4271.282227,4184.871582,4170.384766,4183.205078,4167.051270,4182.179688,4192.179688,4608.461426,4476.153809,4417.307617,4510.256348,6072.000000,3.000000,70.000000,,,,0.000000,4.000000,4.000000,4.000000,4.000000,4.000000,4.000000,4.000000,4.000000,4.000000,4.000000,4.000000,4.000000,4.000000,4.000000,100.000000,,,,,,,,,,,,,,,,,,,,,,,,,,,,
1703409332.892192,1703409332.892839,112.000000,0.000000,4212.563965,4173.461426,4288.589844,4265.128418,4182.307617,4168.589844,4178.205078,4169.615234,4183.717773,4188.846191,4605.384766,4466.282227,4418.333496,4497.820313,6454.000000,3.000000,70.000000,,,,0.000000,4.000000,4.000000,4.000000,4.000000,4.000000,4.000000,4.000000,4.000000,4.000000,4.000000,4.000000,4.000000,4.000000,4.000000,100.000000,,,,,,,,,,,,,,,,,28.000000,0.000000,0.596760,0.183716,-0.713989,0.316772,0.951288,-0.248077,-0.027347,-9.642113,-46.374214,61.388412
1703409332.900000,1703409332.900647,113.000000,0.000000,4205.512695,4171.922852,4280.641113,4261.922852,4180.641113,4174.230957,4171.282227,4168.589844,4186.410156,4183.333496,4598.717773,4456.794922,4399.102539,4484.230957,7037.000000,3.000000,70.000000,,,,0.000000,4.000000,4.000000,4.000000,4.000000,4.000000,4.000000,4.000000,4.000000,4.000000,4.000000,4.000000,4.000000,4.000000,4.000000,100.000000,,,,,,,,,,,,,,,,,,,,,,,,,,,,
1703409332.907807,1703409332.908555,114.000000,0.000000,4205.256348,4174.615234,4279.358887,4261.153809,4183.589844,4181.922852,4180.641113,4177.563965,4194.871582,4185.256348,4603.846191,4459.743652,4395.512695,4486.794922,5766.000000,3.000000,70.000000,,,,0.000000,4.000000,4.000000,4.000000,4.000000,4.000000,4.000000,4.000000,4.000000,4.000000,4.000000,4.000000,4.000000,4.000000,4.000000,100.000000,,,,,,,,,,,,,,,,,,,,,,,,,,,,
1703409332.915616,1703409332.916363,115.000000,0.000000,4202.820313,4172.563965,4281.794922,4258.974121,4184.358887,4186.282227,4187.820313,4200.128418,4203.974121,4188.333496,4614.487305,4468.077148,4409.230957,4493.589844,6072.000000,3.000000,70.000000,,,,0.000000,4.000000,4.000000,4.000000,4.000000,4.000000,4.000000,4.000000,4.000000,4.000000,4.000000,4.000000,4.000000,4.000000,4.000000,100.000000,,,,,,,,,,,,,,,,,,,,,,,,,,,,
1703409332.923424,1703409332.924070,116.000000,0.000000,4205.384766,4168.974121,4286.153809,4259.615234,4180.000000,4184.230957,4184.871582,4214.487305,4205.769043,4187.051270,4621.025879,4480.000000,4417.051270,4500.000000,6454.000000,3.000000,70.000000,,,,0.000000,4.000000,4.000000,4.000000,4.000000,4.000000,4.000000,4.000000,4.000000,4.000000,4.000000,4.000000,4.000000,4.000000,4.000000,100.000000,,,,,,,,,,,,,,,,,29.000000,0.000000,0.596612,0.183777,-0.713989,0.317017,0.957636,-0.253937,-0.025394,-9.727901,-46.253460,61.416237
1703409332.931232,1703409332.931878,117.000000,0.000000,4214.615234,4168.461426,4292.436035,4266.282227,4171.538574,4177.307617,4183.974121,4211.922852,4205.384766,4185.256348,4620.897461,4486.922852,4415.641113,4506.282227,7037.000000,3.000000,70.000000,,,,0.000000,4.000000,4.000000,4.000000,4.000000,4.000000,4.000000,4.000000,4.000000,4.000000,4.000000,4.000000,4.000000,4.000000,4.000000,100.000000,,,,,,,,,,,,,,,,,,,,,,,,,,,,
1703409332.939040,1703409332.939586,118.000000,0.000000,4218.974121,4177.179688,4294.743652,4272.563965,4168.461426,4173.717773,4184.743652,4202.307617,4199.871582,4185.769043,4617.436035,4484.743652,4409.487305,4509.358887,5766.000000,3.000000,70.000000,,,,0.000000,4.000000,4.000000,4.000000,4.000000,4.000000,4.000000,4.000000,4.000000,4.000000,4.000000,4.000000,4.000000,4.000000,4.000000,100.000000,,,,,,,,,,,,,,,,,,,,,,,,,,,,
1703409332.946848,1703409332.947494,119.000000,0.000000,4216.538574,4188.333496,4293.461426,4267.563965,4170.128418,4176.410156,4178.077148,4191.410156,4188.461426,4185.384766,4613.461426,4477.692383,4400.897461,4503.077148,6072.000000,3.000000,70.000000,,,,0.000000,4.000000,4.000000,4.000000,4.000000,4.000000,4.000000,4.000000,4.000000,4.000000,4.000000,4.000000,4.000000,4.000000,4.000000,100.000000,,,,,,,,,,,,,,,,,,,,,,,,,,,,
1703409332.954656,1703409332.955303,120.000000,0.000000,4217.179688,4188.974121,4295.256348,4263.974121,4169.615234,4181.153809,4171.794922,4185.256348,4184.230957,4182.948730,4611.538574,4469.102539,4396.922852,4491.666504,6454.000000,3.000000,70.000000,,,,0.000000,4.000000,4.000000,4.000000,4.000000,4.000000,4.000000,4.000000,4.000000,4.000000,4.000000,4.000000,4.000000,4.000000,4.000000,100.000000,,,,,,,,,,,,,,,,,30.000000,0.000000,0.596561,0.183838,-0.713989,0.317078,0.964962,-0.247589,-0.040532,-9.555111,-46.161446,61.491280
1703409332.962464,1703409332.963211,121.000000,0.000000,4220.384766,4183.205078,4296.025879,4272.563965,4174.102539,4182.948730,4173.205078,4181.538574,4187.179688,4183.205078,4609.230957,4461.282227,4394.358887,4488.846191,7037.000000,3.000000,70.000000,,,,0.000000,4.000000,4.000000,4.000000,4.000000,4.000000,4.000000,4.000000,4.000000,4.000000,4.000000,4.000000,4.000000,4.000000,4.000000,100.000000,,,,,,,,,,,,,,,,,,,,,,,,,,,,
1703409332.970272,1703409332.971019,122.000000,0.000000,4218.333496,4180.000000,4294.743652,4273.589844,4183.333496,4184.102539,4174.102539,4173.333496,4182.948730,4182.179688,4603.077148,4458.974121,4387.820313,4490.512695,5766.000000,3.000000,70.000000,,,,0.000000,4.000000,4.000000,4.000000,4.000000,4.000000,4.000000,4.000000,4.000000,4.000000,4.000000,4.000000,4.000000,4.000000,4.000000,100.000000,,,,,,,,,,,,,,,,,,,,,,,,,,,,
1703409332.978080,1703409332.978827,123.000000,0.000000,4218.846191,4184.358887,4293.717773,4262.948730,4185.641113,4186.410156,4170.000000,4166.410156,4175.641113,4176.153809,4598.974121,4459.102539,4390.512695,4488.589844,6072.000000,3.000000,70.000000,,,,0.000000,4.000000,4.000000,4.000000,4.000000,4.000000,4.000000,4.000000,4.000000,4.000000,4.000000,4.000000,4.000000,4.000000,4.000000,100.000000,,,,,,,,,,,,,,,,,,,,,,,,,,,,
1703409332.985888,1703409332.986535,124.000000,0.000000,4222.820313,4197.179688,4292.179688,4261.410156,4185.128418,4186.153809,4172.051270,4163.461426,4169.358887,4171.282227,4601.153809,4456.794922,4395.384766,4491.410156,6454.000000,3.000000,70.000000,,,,0.000000,4.000000,4.000000,4.000000,4.000000,4.000000,4.000000,4.000000,4.000000,4.000000,4.000000,4.000000,4.000000,4.000000,4.000000,100.000000,,,,,,,,,,,,,,,,,31.000000,0.000000,0.596469,0.183899,-0.714050,0.317078,0.966427,-0.256867,-0.032719,-9.649600,-46.228634,61.625484
1703409332.993696,1703409332.994343,125.000000,0.000000,4226.410156,4199.871582,4294.487305,4267.692383,4187.948730,4188.205078,4182.179688,4165.000000,4168.333496,4171.410156,4603.205078,4461.410156,4393.461426,4497.948730,7037.000000,3.000000,70.000000,,,,0.000000,4.000000,4.000000,4.000000,4.000000,4.000000,4.000000,4.000000,4.000000,4.000000,4.000000,4.000000,4.000000,4.000000,4.000000,100.000000,,,,,,,,,,,,,,,,,,,,,,,,,,,,
1703409333.001504,1703409333.002050,126.000000,0.000000,4229.230957,4190.641113,4295.256348,4267.179688,4186.538574,4193.077148,4187.307617,4174.358887,4177.307617,4171.282227,4600.769043,4468.974121,4395.897461,4498.205078,5766.000000,3.000000,70.000000,,,,0.000000,4.000000,4.000000,4.000000,4.000000,4.000000,4.000000,4.000000,4.000000,4.000000,4.000000,4.000000,4.000000,4.000000,4.000000,100.000000,,,,,,,,,,,,,,,,,,,,,,,,,,,,
1703409333.009312,1703409333.009858,127.000000,0.000000,4221.666504,4184.487305,4283.461426,4256.922852,4176.538574,4193.589844,4180.769043,4189.615234,4190.128418,4167.436035,4597.563965,4465.128418,4392.692383,4494.487305,70.000000,3.000000,70.000000,,,,0.000000,4.000000,4.000000,4.000000,4.000000,4.000000,4.000000,4.000000,4.000000,4.000000,4.000000,4.000000,4.000000,4.000000,4.000000,100.000000,,,,,,,,,,,,,,,,,,,,,,,,,,,,
1703409333.017120,1703409333.017566,0.000000,0.000000,4208.205078,4182.563965,4271.666504,4243.461426,4168.461426,4188.205078,4177.820313,4203.974121,4199.230957,4171.025879,4598.589844,4458.717773,4383.205078,4490.897461,5387.000000,3.000000,70.000000,,,,0.000000,4.000000,4.000000,4.000000,4.000000,4.000000,4.000000,4.000000,4.000000,4.000000,4.000000,4.000000,4.000000,4.000000,4.000000,100.000000,,,,,,,,,,,,,,,,,0.000000,0.000000,0.596453,0.184082,-0.713989,0.317139,0.958125,-0.243682,-0.028812,-9.751307,-46.272438,61.512936
1703409333.024928,1703409333.025474,1.000000,0.000000,4210.256348,4184.358887,4274.102539,4238.333496,4169.871582,4187.820313,4182.179688,4216.282227,4204.358887,4183.077148,4604.230957,4467.436035,4384.743652,4491.794922,5257.000000,3.000000,70.000000,,,,0.000000,4.000000,4.000000,4.000000,4.000000,4.000000,4.000000,4.000000,4.000000,4.000000,4.000000,4.000000,4.000000,4.000000,4.000000,100.000000,,,,,,,,,,,,,,,,,,,,,,,,,,,,
1703409333.032736,1703409333.033282,2.000000,0.000000,4215.641113,4181.922852,4278.717773,4240.641113,4167.307617,4186.153809,4178.333496,4223.333496,4206.538574,4184.358887,4606.538574,4479.230957,4388.974121,4492.563965,5171.000000,3.000000,70.000000,,,,0.000000,4.000000,4.000000,4.000000,4.000000,4.000000,4.000000,4.000000,4.000000,4.000000,4.000000,4.000000,4.000000,4.000000,4.000000,100.000000,,,,,,,,,,,,,,,,,,,,,,,,,,,,
1703409333.040544,1703409333.041190,3.000000,0.000000,4213.846191,4181.538574,4282.307617,4241.922852,4161.538574,4174.230957,4168.077148,4221.666504,4201.025879,4172.563965,4604.230957,4477.692383,4389.102539,4491.666504,5283.000000,3.000000,70.000000,,,,0.000000,4.000000,4.000000,4.000000,4.000000,4.000000,4.000000,4.000000,4.000000,4.000000,4.000000,4.000000,4.000000,4.000000,4.000000,100.000000,,,,,,,,,,,,,,,,,,,,,,,,,,,,
1703409333.048352,1703409333.048998,4.000000,0.000000,4221.666504,4191.410156,4293.205078,4246.922852,4166.282227,4167.307617,4169.102539,4215.384766,4193.846191,4170.128418,4602.436035,4474.871582,4395.512695,4499.743652,4951.000000,3.000000,70.000000,,,,0.000000,4.000000,4.000000,4.000000,4.000000,4.000000,4.000000,4.000000,4.000000,4.000000,4.000000,4.000000,4.000000,4.000000,4.000000,100.000000,1.000000,100.000000,4.000000,4.000000,4.000000,4.000000,4.000000,4.000000,4.000000,4.000000,4.000000,4.000000,4.000000,4.000000,4.000000,4.000000,1.000000,0.000000,0.596418,0.184326,-0.713928,0.317200,0.961055,-0.245635,-0.031254,-9.876176,-46.228527,61.411644
1703409333.056160,1703409333.056906,5.000000,0.000000,4233.333496,4196.666504,4300.256348,4251.666504,4174.230957,4168.589844,4173.077148,4207.179688,4189.102539,4175.384766,4604.102539,4478.974121,4401.153809,4507.436035,4694.000000,3.000000,70.000000,,,,0.000000,4.000000,4.000000,4.000000,4.000000,4.000000,4.000000,4.000000,4.000000,4.000000,4.000000,4.000000,4.000000,4.000000,4.000000,100.000000,,,,,,,,,,,,,,,,,,,,,,,,,,,,
1703409333.063968,1703409333.064714,6.000000,0.000000,4227.820313,4192.820313,4292.563965,4248.077148,4173.846191,4169.871582,4170.641113,4193.846191,4178.461426,4165.384766,4597.820313,4477.307617,4395.512695,4502.563965,3947.000000,3.000000,70.000000,,,,0.000000,4.000000,4.000000,4.000000,4.000000,4.000000,4.000000,4.000000,4.000000,4.000000,4.000000,4.000000,4.000000,4.000000,4.000000,100.000000,,,,,,,,,,,,,,,,,,,,,,,,,,,,
1703409333.071776,1703409333.072621,7.000000,0.000000,4223.077148,4195.769043,4291.794922,4251.410156,4170.769043,4168.461426,4169.615234,4184.230957,4166.794922,4157.051270,4588.974121,4473.846191,4390.000000,4500.769043,5198.000000,3.000000,70.000000,,,,0.000000,4.000000,4.000000,4.000000,4.000000,4.000000,4.000000,4.000000,4.000000,4.000000,4.000000,4.000000,4.000000,4.000000,4.000000,100.000000,,,,,,,,,,,,,,,,,,,,,,,,,,,,
1703409333.079584,1703409333.080429,8.000000,0.000000,4239.615234,4208.461426,4309.102539,4266.025879,4174.358887,4167.307617,4170.641113,4181.538574,4166.538574,4165.256348,4592.948730,4480.512695,4395.256348,4507.820313,4767.000000,3.000000,70.000000,,,,0.000000,4.000000,4.000000,4.000000,4.000000,4.000000,4.000000,4.000000,4.000000,4.000000,4.000000,4.000000,4.000000,4.000000,4.000000,100.000000,,,,,,,,,,,,,,,,,2.000000,0.000000,0.596351,0.184570,-0.713867,0.317322,0.960078,-0.255402,-0.034184,-9.888558,-46.422340,61.387146
1703409333.087392,1703409333.088337,9.000000,0.000000,4250.641113,4220.641113,4319.871582,4266.282227,4185.897461,4174.230957,4170.512695,4174.743652,4171.153809,4170.512695,4594.358887,4482.051270,4399.230957,4509.871582,5041.000000,3.000000,70.000000,,,,0.000000,4.000000,4.000000,4.000000,4.000000,4.000000,4.000000,4.000000,4.000000,4.000000,4.000000,4.000000,4.000000,4.000000,4.000000,100.000000,,,,,,,,,,,,,,,,,,,,,,,,,,,,
1703409333.095200,1703409333.096145,10.000000,0.000000,4241.153809,4218.846191,4313.974121,4249.871582,4189.230957,4183.974121,4169.743652,4164.487305,4167.179688,4167.307617,4589.743652,4472.307617,4395.512695,4509.230957,5781.000000,3.000000,70.000000,,,,0.000000,4.000000,4.000000,4.000000,4.000000,4.000000,4.000000,4.000000,4.000000,4.000000,4.000000,4.000000,4.000000,4.000000,4.000000,100.000000,,,,,,,,,,,,,,,,,,,,,,,,,,,,
1703409333.103008,1703409333.103853,11.000000,0.000000,4227.692383,4199.743652,4303.461426,4246.153809,4184.358887,4186.922852,4173.589844,4160.769043,4163.974121,4158.205078,4579.487305,4462.563965,4382.051270,4502.179688,6082.000000,3.000000,70.000000,,,,0.000000,4.000000,4.000000,4.000000,4.000000,4.000000,4.000000,4.000000,4.000000,4.000000,4.000000,4.000000,4.000000,4.000000,4.000000,100.000000,,,,,,,,,,,,,,,,,,,,,,,,,,,,
1703409333.110816,1703409333.111661,12.000000,0.000000,4225.641113,4192.051270,4292.948730,4250.256348,4190.000000,4187.307617,4185.256348,4168.717773,4170.512695,4148.717773,4568.589844,4456.282227,4371.666504,4491.666504,6476.000000,3.000000,70.000000,,,,0.000000,4.000000,4.000000,4.000000,4.000000,4.000000,4.000000,4.000000,4.000000,4.000000,4.000000,4.000000,4.000000,4.000000,4.000000,100.000000,,,,,,,,,,,,,,,,,3.000000,0.000000,0.596213,0.184570,-0.713928,0.317444,0.949823,-0.234892,-0.030277,-9.966370,-46.363441,61.548431
1703409333.118624,1703409333.119369,13.000000,0.000000,4232.051270,4204.615234,4288.077148,4237.948730,4186.666504,4189.358887,4190.000000,4187.179688,4183.846191,4155.897461,4581.794922,4462.820313,4386.538574,4499.615234,7062.000000,3.000000,70.000000,,,,0.000000,4.000000,4.000000,4.000000,4.000000,4.000000,4.000000,4.000000,4.000000,4.000000,4.000000,4.000000,4.000000,4.000000,4.000000,100.000000,,,,,,,,,,,,,,,,,,,,,,,,,,,,
1703409333.126433,1703409333.127177,14.000000,0.000000,4230.128418,4202.563965,4291.025879,4228.461426,4171.794922,4184.358887,4187.692383,4208.333496,4196.025879,4169.358887,4603.846191,4477.307617,4400.512695,4514.230957,5781.000000,3.000000,70.000000,,,,0.000000,4.000000,4.000000,4.000000,4.000000,4.000000,4.000000,4.000000,4.000000,4.000000,4.000000,4.000000,4.000000,4.000000,4.000000,100.000000,,,,,,,,,,,,,,,,,,,,,,,,,,,,
1703409333.134241,1703409333.134885,15.000000,0.000000,4229.743652,4194.743652,4295.641113,4241.922852,4172.051270,4173.461426,4193.077148,4216.410156,4200.128418,4170.897461,4600.128418,4484.230957,4389.487305,4517.692383,6082.000000,3.000000,70.000000,,,,0.000000,4.000000,4.000000,4.000000,4.000000,4.000000,4.000000,4.000000,4.000000,4.000000,4.000000,4.000000,4.000000,4.000000,4.000000,100.000000,,,,,,,,,,,,,,,,,,,,,,,,,,,,
1703409333.142048,1703409333.142693,16.000000,0.000000,4243.077148,4210.897461,4304.743652,4252.179688,4174.487305,4169.743652,4199.743652,4219.487305,4200.384766,4172.307617,4596.282227,4495.641113,4390.000000,4523.333496,0.000000,3.000000,70.000000,,,,0.000000,4.000000,4.000000,4.000000,4.000000,4.000000,4.000000,4.000000,4.000000,4.000000,4.000000,4.000000,4.000000,4.000000,4.000000,100.000000,,,,,,,,,,,,,,,,,4.000000,0.000000,0.596105,0.184814,-0.713928,0.317505,0.963497,-0.239287,-0.031742,-9.919732,-46.410431,61.476921
1703409333.149856,1703409333.150401,17.000000,0.000000,4252.307617,4224.358887,4312.563965,4246.794922,4172.948730,4172.307617,4200.128418,4221.666504,4197.307617,4171.025879,4607.179688,4507.436035,4404.871582,4526.922852,0.000000,3.000000,70.000000,,,,0.000000,4.000000,4.000000,4.000000,4.000000,4.000000,4.000000,4.000000,4.000000,4.000000,4.000000,4.000000,4.000000,4.000000,4.000000,100.000000,,,,,,,,,,,,,,,,,,,,,,,,,,,,
1703409333.157665,1703409333.158208,18.000000,0.000000,4250.897461,4217.820313,4313.461426,4250.000000,4188.589844,4166.153809,4201.153809,4211.153809,4188.333496,4164.743652,4603.461426,4503.717773,4401.922852,4525.641113,0.000000,3.000000,70.000000,,,,0.000000,4.000000,4.000000,4.000000,4.000000,4.000000,4.000000,4.000000,4.000000,4.000000,4.000000,4.000000,4.000000,4.000000,4.000000,100.000000,,,,,,,,,,,,,,,,,,,,,,,,,,,,
1703409333.165473,1703409333.165916,19.000000,0.000000,4261.410156,4225.256348,4328.205078,4265.000000,4205.000000,4152.307617,4201.282227,4197.436035,4179.230957,4168.974121,4604.743652,4507.948730,4406.538574,4538.846191,0.000000,3.000000,70.000000,,,,0.000000,4.000000,4.000000,4.000000,4.000000,4.000000,4.000000,4.000000,4.000000,4.000000,4.000000,4.000000,4.000000,4.000000,4.000000,100.000000,,,,,,,,,,,,,,,,,,,,,,,,,,,,
1703409333.173281,1703409333.173724,20.000000,0.000000,4283.589844,4251.410156,4350.128418,4277.563965,4201.153809,4146.282227,4200.769043,4190.769043,4176.538574,4175.384766,4620.000000,4526.025879,4425.512695,4556.025879,0.000000,3.000000,70.000000,,,,0.000000,4.000000,4.000000,4.000000,4.000000,4.000000,4.000000,4.000000,4.000000,4.000000,4.000000,4.000000,4.000000,4.000000,4.000000,100.000000,,,,,,,,,,,,,,,,,5.000000,0.000000,0.596067,0.185303,-0.713806,0.317566,0.962031,-0.251496,-0.037602,-9.844426,-46.536053,61.445896
1703409333.181089,1703409333.181432,21.000000,0.000000,4287.820313,4257.948730,4350.000000,4283.974121,4203.589844,4144.743652,4201.538574,4180.897461,4169.871582,4170.128418,4614.615234,4518.077148,4420.641113,4550.000000,0.000000,3.000000,70.000000,,,,0.000000,4.000000,4.000000,4.000000,4.000000,4.000000,4.000000,4.000000,4.000000,4.000000,4.000000,4.000000,4.000000,4.000000,4.000000,100.000000,,,,,,,,,,,,,,,,,,,,,,,,,,,,
1703409333.188897,1703409333.189240,22.000000,0.000000,4270.000000,4244.102539,4325.000000,4272.948730,4216.025879,4140.769043,4201.666504,4162.820313,4156.153809,4153.717773,4587.563965,4483.205078,4396.153809,4524.615234,0.000000,3.000000,70.000000,,,,0.000000,4.000000,4.000000,4.000000,4.000000,4.000000,4.000000,4.000000,4.000000,4.000000,4.000000,4.000000,4.000000,4.000000,4.000000,100.000000,,,,,,,,,,,,,,,,,,,,,,,,,,,,
1703409333.196705,1703409333.196947,23.000000,0.000000,4247.563965,4231.153809,4299.743652,4254.230957,4217.692383,4140.000000,4204.871582,4152.820313,4150.769043,4135.256348,4565.641113,4455.512695,4376.153809,4498.205078,0.000000,3.000000,70.000000,,,,0.000000,4.000000,4.000000,4.000000,4.000000,4.000000,4.000000,4.000000,4.000000,4.000000,4.000000,4.000000,4.000000,4.000000,4.000000,100.000000,,,,,,,,,,,,,,,,,,,,,,,,,,,,
1703409333.204513,1703409333.204855,24.000000,0.000000,4242.820313,4220.000000,4298.974121,4252.820313,4216.410156,4137.948730,4213.461426,4165.512695,4164.871582,4141.153809,4570.641113,4455.512695,4373.205078,4488.589844,0.000000,3.000000,70.000000,,,,0.000000,4.000000,4.000000,4.000000,4.000000,4.000000,4.000000,4.000000,4.000000,4.000000,4.000000,4.000000,4.000000,4.000000,4.000000,100.000000,,,,,,,,,,,,,,,,,6.000000,0.000000,0.595991,0.185547,-0.713806,0.317566,0.962031,-0.257356,-0.037114,-9.843316,-46.599113,61.484638
1703409333.212321,1703409333.212663,25.000000,0.000000,4245.897461,4213.717773,4305.512695,4252.179688,4217.179688,4135.769043,4217.051270,4186.666504,4183.077148,4166.153809,4584.487305,4469.102539,4382.692383,4495.512695,0.000000,3.000000,70.000000,,,,0.000000,4.000000,4.000000,4.000000,4.000000,4.000000,4.000000,4.000000,4.000000,4.000000,4.000000,4.000000,4.000000,4.000000,4.000000,100.000000,,,,,,,,,,,,,,,,,,,,,,,,,,,,
1703409333.220129,1703409333.220571,26.000000,0.000000,4239.230957,4217.436035,4300.641113,4242.307617,4216.410156,4140.641113,4219.487305,4198.589844,4191.025879,4170.769043,4585.256348,4478.717773,4390.641113,4503.461426,0.000000,3.000000,70.000000,,,,0.000000,4.000000,4.000000,4.000000,4.000000,4.000000,4.000000,4.000000,4.000000,4.000000,4.000000,4.000000,4.000000,4.000000,4.000000,100.000000,,,,,,,,,,,,,,,,,,,,,,,,,,,,
1703409333.227937,1703409333.228379,27.000000,0.000000,4239.487305,4221.410156,4304.615234,4244.358887,4218.077148,4136.282227,4228.846191,4209.230957,4193.974121,4163.846191,4587.179688,4487.179688,4393.846191,4507.436035,0.000000,3.000000,70.000000,,,,0.000000,4.000000,4.000000,4.000000,4.000000,4.000000,4.000000,4.000000,4.000000,4.000000,4.000000,4.000000,4.000000,4.000000,4.000000,100.000000,,,,,,,,,,,,,,,,,,,,,,,,,,,,
1703409333.235745,1703409333.236287,28.000000,0.000000,4243.717773,4209.230957,4309.871582,4248.717773,4218.846191,4123.974121,4231.794922,4215.641113,4191.922852,4163.333496,4596.538574,4493.333496,4394.871582,4509.487305,0.000000,3.000000,70.000000,,,,0.000000,4.000000,4.000000,4.000000,4.000000,4.000000,4.000000,4.000000,4.000000,4.000000,4.000000,4.000000,4.000000,4.000000,4.000000,100.000000,,,,,,,,,,,,,,,,,7.000000,0.000000,0.595917,0.185913,-0.713745,0.317627,0.960078,-0.250519,-0.041021,-9.808985,-46.622536,61.536175
1703409333.243553,1703409333.244095,29.000000,0.000000,4242.307617,4202.820313,4302.051270,4241.410156,4218.333496,4120.897461,4228.717773,4212.820313,4188.717773,4162.051270,4602.051270,4497.307617,4402.948730,4515.897461,0.000000,3.000000,70.000000,,,,0.000000,4.000000,4.000000,4.000000,4.000000,4.000000,4.000000,4.000000,4.000000,4.000000,4.000000,4.000000,4.000000,4.000000,4.000000,100.000000,,,,,,,,,,,,,,,,,,,,,,,,,,,,
1703409333.251361,1703409333.252003,30.000000,0.000000,4249.102539,4222.051270,4302.692383,4242.820313,4225.641113,4119.230957,4232.051270,4206.410156,4182.051270,4157.563965,4594.871582,4502.436035,4410.000000,4522.307617,0.000000,3.000000,70.000000,,,,0.000000,4.000000,4.000000,4.000000,4.000000,4.000000,4.000000,4.000000,4.000000,4.000000,4.000000,4.000000,4.000000,4.000000,4.000000,100.000000,,,,,,,,,,,,,,,,,,,,,,,,,,,,
1703409333.259169,1703409333.259811,31.000000,0.000000,4260.641113,4239.871582,4316.666504,4257.436035,4233.333496,4108.077148,4228.846191,4191.794922,4168.461426,4147.179688,4585.384766,4502.692383,4399.743652,4522.051270,0.000000,3.000000,70.000000,,,,0.000000,4.000000,4.000000,4.000000,4.000000,4.000000,4.000000,4.000000,4.000000,4.000000,4.000000,4.000000,4.000000,4.000000,4.000000,100.000000,,,,,,,,,,,,,,,,,,,,,,,,,,,,
1703409333.266977,1703409333.267719,32.000000,0.000000,4269.487305,4240.769043,4322.820313,4263.077148,4233.333496,4099.230957,4219.358887,4181.410156,4162.563965,4144.102539,4590.512695,4505.000000,4397.307617,4529.102539,0.000000,3.000000,70.000000,,,,0.000000,4.000000,4.000000,4.000000,4.000000,4.000000,4.000000,4.000000,4.000000,4.000000,4.000000,4.000000,4.000000,4.000000,4.000000,100.000000,,,,,,,,,,,,,,,,,8.000000,0.000000,0.595909,0.186279,-0.713684,0.317566,0.955195,-0.248565,-0.028324,-9.778087,-46.610283,61.549225
1703409333.274785,1703409333.275527,33.000000,0.000000,4278.717773,4243.589844,4325.897461,4265.128418,4233.974121,4094.102539,4220.512695,4181.538574,4169.487305,4155.000000,4604.487305,4518.589844,4420.384766,4543.717773,0.000000,3.000000,70.000000,,,,0.000000,4.000000,4.000000,4.000000,4.000000,4.000000,4.000000,4.000000,4.000000,4.000000,4.000000,4.000000,4.000000,4.000000,4.000000,100.000000,,,,,,,,,,,,,,,,,,,,,,,,,,,,
1703409333.282593,1703409333.283435,34.000000,0.000000,4284.102539,4243.077148,4336.666504,4273.589844,4231.538574,4081.410156,4221.666504,4174.743652,4171.282227,4156.794922,4609.102539,4525.641113,4433.333496,4550.000000,0.000000,3.000000,70.000000,,,,0.000000,4.000000,4.000000,4.000000,4.000000,4.000000,4.000000,4.000000,4.000000,4.000000,4.000000,4.000000,4.000000,4.000000,4.000000,100.000000,,,,,,,,,,,,,,,,,,,,,,,,,,,,
1703409333.290401,1703409333.291243,35.000000,0.000000,4283.974121,4235.000000,4342.179688,4274.230957,4226.153809,4071.538574,4214.230957,4165.897461,4167.436035,4156.538574,4612.307617,4519.230957,4428.846191,4549.358887,0.000000,3.000000,70.000000,,,,0.000000,4.000000,4.000000,4.000000,4.000000,4.000000,4.000000,4.000000,4.000000,4.000000,4.000000,4.000000,4.000000,4.000000,4.000000,100.000000,,,,,,,,,,,,,,,,,,,,,,,,,,,,
1703409333.298209,1703409333.299151,36.000000,0.000000,4279.871582,4239.615234,4334.743652,4263.077148,4237.307617,4071.666748,4219.871582,4168.846191,4173.846191,4171.282227,4613.974121,4513.333496,4425.384766,4542.820313,0.000000,3.000000,70.000000,,,,0.000000,4.000000,4.000000,4.000000,4.000000,4.000000,4.000000,4.000000,4.000000,4.000000,4.000000,4.000000,4.000000,4.000000,4.000000,100.000000,,,,,,,,,,,,,,,,,9.000000,0.000000,0.596229,0.186890,-0.713501,0.317017,0.963008,-0.246612,-0.030765,-9.950277,-46.482590,61.444302
1703409333.306017,1703409333.306958,37.000000,0.000000,4270.000000,4246.666504,4325.641113,4259.487305,4251.153809,4073.974365,4230.384766,4171.410156,4175.128418,4169.871582,4600.128418,4504.102539,4417.179688,4527.948730,0.000000,3.000000,70.000000,,,,0.000000,4.000000,4.000000,4.000000,4.000000,4.000000,4.000000,4.000000,4.000000,4.000000,4.000000,4.000000,4.000000,4.000000,4.000000,100.000000,,,,,,,,,,,,,,,,,,,,,,,,,,,,
