title:شاهين يسار, start timestamp:1703488052.773570, stop timestamp:1703488063.556463, headset type:EPOCX, headset serial:E50206EF, headset firmware:720, channels:67, sampling rate:eeg_128;mot_32, samples:1382      , version:2.2, 
Timestamp,OriginalTimestamp,EEG.Counter,EEG.Interpolated,EEG.AF3,EEG.F7,EEG.F3,EEG.FC5,EEG.T7,EEG.P7,EEG.O1,EEG.O2,EEG.P8,EEG.T8,EEG.FC6,EEG.F4,EEG.F8,EEG.AF4,EEG.RawCq,EEG.Battery,EEG.BatteryPercent,MarkerIndex,MarkerType,MarkerValueInt,EEG.MarkerHardware,CQ.AF3,CQ.F7,CQ.F3,CQ.FC5,CQ.T7,CQ.P7,CQ.O1,CQ.O2,CQ.P8,CQ.T8,CQ.FC6,CQ.F4,CQ.F8,CQ.AF4,CQ.Overall,EQ.SampleRateQuality,EQ.OVERALL,EQ.AF3,EQ.F7,EQ.F3,EQ.FC5,EQ.T7,EQ.P7,EQ.O1,EQ.O2,EQ.P8,EQ.T8,EQ.FC6,EQ.F4,EQ.F8,EQ.AF4,MOT.CounterMems,MOT.InterpolatedMems,MOT.Q0,MOT.Q1,MOT.Q2,MOT.Q3,MOT.AccX,MOT.AccY,MOT.AccZ,MOT.MagX,MOT.MagY,MOT.MagZ
1703488052.773570,1703488052.773829,9.000000,0.000000,4395.000000,4356.538574,4401.282227,4399.358887,4351.410156,4328.846191,4329.743652,4327.692383,4333.717773,4353.205078,4635.769043,4606.666504,4473.461426,4533.846191,5315.000000,4.000000,99.000000,,,,0.000000,4.000000,4.000000,4.000000,4.000000,4.000000,4.000000,4.000000,4.000000,4.000000,4.000000,4.000000,4.000000,4.000000,4.000000,100.000000,,,,,,,,,,,,,,,,,,,,,,,,,,,,
1703488052.781379,1703488052.781537,10.000000,0.000000,4396.922852,4361.794922,4412.051270,4400.769043,4338.333496,4324.358887,4326.538574,4336.922852,4344.871582,4360.897461,4646.666504,4621.410156,4478.846191,4544.743652,5878.000000,4.000000,99.000000,,,,0.000000,4.000000,4.000000,4.000000,4.000000,4.000000,4.000000,4.000000,4.000000,4.000000,4.000000,4.000000,4.000000,4.000000,4.000000,100.000000,,,,,,,,,,,,,,,,,,,,,,,,,,,,
1703488052.789187,1703488052.789344,11.000000,0.000000,4391.538574,4362.179688,4413.589844,4403.205078,4346.922852,4329.358887,4328.333496,4337.436035,4338.205078,4368.589844,4647.436035,4627.051270,4481.666504,4545.128418,6219.000000,4.000000,99.000000,,,,0.000000,4.000000,4.000000,4.000000,4.000000,4.000000,4.000000,4.000000,4.000000,4.000000,4.000000,4.000000,4.000000,4.000000,4.000000,100.000000,,,,,,,,,,,,,,,,,,,,,,,,,,,,
1703488052.796995,1703488052.797052,12.000000,0.000000,4392.436035,4355.128418,4411.282227,4402.948730,4355.641113,4336.922852,4335.512695,4326.153809,4318.589844,4353.461426,4631.025879,4619.615234,4475.512695,4538.077148,6613.000000,4.000000,99.000000,,,,0.000000,4.000000,4.000000,4.000000,4.000000,4.000000,4.000000,4.000000,4.000000,4.000000,4.000000,4.000000,4.000000,4.000000,4.000000,100.000000,,,,,,,,,,,,,,,,,3.000000,0.000000,0.709176,-0.075256,-0.691467,0.115234,0.955195,-0.267122,0.026370,-11.345659,-39.903873,60.175232
1703488052.804803,1703488052.804859,13.000000,0.000000,4387.563965,4347.692383,4405.384766,4397.307617,4345.512695,4336.538574,4336.922852,4319.871582,4307.820313,4327.692383,4618.846191,4602.436035,4462.820313,4527.436035,6791.000000,4.000000,99.000000,,,,0.000000,4.000000,4.000000,4.000000,4.000000,4.000000,4.000000,4.000000,4.000000,4.000000,4.000000,4.000000,4.000000,4.000000,4.000000,100.000000,,,,,,,,,,,,,,,,,,,,,,,,,,,,
1703488052.812611,1703488052.812567,14.000000,0.000000,4385.256348,4355.128418,4404.743652,4398.589844,4351.410156,4333.717773,4335.897461,4322.563965,4309.230957,4322.563965,4619.358887,4596.922852,4461.538574,4521.538574,5878.000000,4.000000,99.000000,,,,0.000000,4.000000,4.000000,4.000000,4.000000,4.000000,4.000000,4.000000,4.000000,4.000000,4.000000,4.000000,4.000000,4.000000,4.000000,100.000000,,,,,,,,,,,,,,,,,,,,,,,,,,,,
1703488052.820419,1703488052.820374,15.000000,0.000000,4392.051270,4357.692383,4408.589844,4402.307617,4361.794922,4328.717773,4338.077148,4321.666504,4308.077148,4325.256348,4615.000000,4602.948730,4460.641113,4524.230957,6219.000000,4.000000,99.000000,,,,0.000000,4.000000,4.000000,4.000000,4.000000,4.000000,4.000000,4.000000,4.000000,4.000000,4.000000,4.000000,4.000000,4.000000,4.000000,100.000000,,,,,,,,,,,,,,,,,,,,,,,,,,,,
1703488052.828227,1703488052.828082,16.000000,0.000000,4386.410156,4344.487305,4406.410156,4396.666504,4351.025879,4325.256348,4340.384766,4320.128418,4307.820313,4320.384766,4609.230957,4599.615234,4449.358887,4521.025879,0.000000,4.000000,99.000000,,,,0.000000,4.000000,4.000000,4.000000,4.000000,4.000000,4.000000,4.000000,4.000000,4.000000,4.000000,4.000000,4.000000,4.000000,4.000000,100.000000,,,,,,,,,,,,,,,,,4.000000,0.000000,0.709284,-0.074890,-0.691467,0.114807,0.955683,-0.249542,0.027835,-11.411093,-39.913483,60.291042
1703488052.836035,1703488052.835889,17.000000,0.000000,4379.871582,4346.025879,4405.897461,4396.153809,4348.205078,4325.384766,4338.589844,4330.256348,4318.333496,4337.179688,4620.000000,4597.692383,4458.589844,4519.230957,0.000000,4.000000,99.000000,,,,0.000000,4.000000,4.000000,4.000000,4.000000,4.000000,4.000000,4.000000,4.000000,4.000000,4.000000,4.000000,4.000000,4.000000,4.000000,100.000000,,,,,,,,,,,,,,,,,,,,,,,,,,,,
1703488052.843843,1703488052.843597,18.000000,0.000000,4390.128418,4362.179688,4413.717773,4403.461426,4350.384766,4317.307617,4334.615234,4340.512695,4326.153809,4345.000000,4632.692383,4607.692383,4477.820313,4528.974121,0.000000,4.000000,99.000000,,,,0.000000,4.000000,4.000000,4.000000,4.000000,4.000000,4.000000,4.000000,4.000000,4.000000,4.000000,4.000000,4.000000,4.000000,4.000000,100.000000,,,,,,,,,,,,,,,,,,,,,,,,,,,,
1703488052.851651,1703488052.851505,19.000000,0.000000,4396.410156,4364.615234,4418.333496,4408.077148,4349.743652,4313.589844,4337.692383,4344.102539,4332.692383,4327.051270,4639.487305,4621.410156,4476.922852,4537.051270,0.000000,4.000000,99.000000,,,,0.000000,4.000000,4.000000,4.000000,4.000000,4.000000,4.000000,4.000000,4.000000,4.000000,4.000000,4.000000,4.000000,4.000000,4.000000,100.000000,,,,,,,,,,,,,,,,,,,,,,,,,,,,
1703488052.859459,1703488052.859313,20.000000,0.000000,4394.871582,4363.717773,4419.871582,4412.563965,4358.205078,4319.743652,4344.743652,4348.589844,4348.589844,4350.128418,4652.692383,4631.410156,4484.871582,4547.820313,0.000000,4.000000,99.000000,,,,0.000000,4.000000,4.000000,4.000000,4.000000,4.000000,4.000000,4.000000,4.000000,4.000000,4.000000,4.000000,4.000000,4.000000,4.000000,100.000000,,,,,,,,,,,,,,,,,5.000000,0.000000,0.709148,-0.074768,-0.691589,0.114990,0.974728,-0.246612,0.029300,-11.436650,-39.938805,60.211937
1703488052.867267,1703488052.867220,21.000000,0.000000,4397.948730,4369.871582,4421.410156,4411.410156,4356.153809,4316.025879,4343.846191,4350.256348,4359.871582,4390.384766,4661.666504,4632.179688,4499.615234,4554.615234,0.000000,4.000000,99.000000,,,,0.000000,4.000000,4.000000,4.000000,4.000000,4.000000,4.000000,4.000000,4.000000,4.000000,4.000000,4.000000,4.000000,4.000000,4.000000,100.000000,,,,,,,,,,,,,,,,,,,,,,,,,,,,
1703488052.875075,1703488052.875028,22.000000,0.000000,4390.641113,4365.128418,4413.974121,4399.871582,4348.333496,4312.179688,4341.666504,4347.692383,4358.846191,4378.333496,4661.410156,4630.384766,4495.897461,4546.282227,0.000000,4.000000,99.000000,,,,0.000000,4.000000,4.000000,4.000000,4.000000,4.000000,4.000000,4.000000,4.000000,4.000000,4.000000,4.000000,4.000000,4.000000,4.000000,100.000000,,,,,,,,,,,,,,,,,,,,,,,,,,,,
1703488052.882883,1703488052.882936,23.000000,0.000000,4378.974121,4353.077148,4401.410156,4394.358887,4355.769043,4322.692383,4345.897461,4344.615234,4350.769043,4349.487305,4653.205078,4626.153809,4487.820313,4538.589844,0.000000,4.000000,99.000000,,,,0.000000,4.000000,4.000000,4.000000,4.000000,4.000000,4.000000,4.000000,4.000000,4.000000,4.000000,4.000000,4.000000,4.000000,4.000000,100.000000,1.000000,58.333332,4.000000,4.000000,3.000000,3.000000,4.000000,1.000000,4.000000,4.000000,4.000000,4.000000,4.000000,4.000000,4.000000,4.000000,,,,,,,,,,,,
1703488052.890691,1703488052.890744,24.000000,0.000000,4380.000000,4353.333496,4397.307617,4394.230957,4362.051270,4328.974121,4350.512695,4341.922852,4343.333496,4356.538574,4640.512695,4617.051270,4483.205078,4540.256348,0.000000,4.000000,99.000000,,,,0.000000,4.000000,4.000000,4.000000,4.000000,4.000000,4.000000,4.000000,4.000000,4.000000,4.000000,4.000000,4.000000,4.000000,4.000000,100.000000,,,,,,,,,,,,,,,,,6.000000,0.000000,0.709003,-0.074829,-0.691711,0.115112,0.956171,-0.269564,0.027835,-11.426319,-39.828255,60.190742
1703488052.898499,1703488052.898652,25.000000,0.000000,4380.000000,4359.743652,4398.077148,4390.384766,4361.794922,4325.256348,4351.922852,4339.102539,4342.307617,4363.205078,4638.974121,4611.025879,4476.666504,4539.615234,0.000000,4.000000,99.000000,,,,0.000000,4.000000,4.000000,4.000000,4.000000,4.000000,4.000000,4.000000,4.000000,4.000000,4.000000,4.000000,4.000000,4.000000,4.000000,100.000000,,,,,,,,,,,,,,,,,,,,,,,,,,,,
1703488052.906307,1703488052.906460,26.000000,0.000000,4377.692383,4360.384766,4397.563965,4393.717773,4370.641113,4323.461426,4351.794922,4333.205078,4337.948730,4347.179688,4640.384766,4608.846191,4473.461426,4535.384766,0.000000,4.000000,99.000000,,,,0.000000,4.000000,4.000000,4.000000,4.000000,4.000000,4.000000,4.000000,4.000000,4.000000,4.000000,4.000000,4.000000,4.000000,4.000000,100.000000,,,,,,,,,,,,,,,,,,,,,,,,,,,,
1703488052.914115,1703488052.914368,27.000000,0.000000,4385.000000,4361.538574,4400.769043,4398.333496,4375.128418,4325.769043,4352.820313,4326.410156,4329.358887,4342.179688,4630.641113,4602.692383,4475.769043,4536.538574,0.000000,4.000000,99.000000,,,,0.000000,4.000000,4.000000,4.000000,4.000000,4.000000,4.000000,4.000000,4.000000,4.000000,4.000000,4.000000,4.000000,4.000000,4.000000,100.000000,,,,,,,,,,,,,,,,,,,,,,,,,,,,
1703488052.921923,1703488052.922176,28.000000,0.000000,4397.436035,4368.077148,4411.666504,4399.487305,4372.307617,4327.563965,4357.563965,4326.538574,4323.461426,4340.256348,4628.717773,4600.512695,4475.641113,4541.922852,0.000000,4.000000,99.000000,,,,0.000000,4.000000,4.000000,4.000000,4.000000,4.000000,4.000000,4.000000,4.000000,4.000000,4.000000,4.000000,4.000000,4.000000,4.000000,100.000000,,,,,,,,,,,,,,,,,7.000000,0.000000,0.708676,-0.075012,-0.691956,0.115540,0.946893,-0.267122,0.021975,-11.483686,-39.795429,60.221668
1703488052.929731,1703488052.930084,29.000000,0.000000,4397.179688,4367.179688,4415.897461,4402.436035,4366.666504,4319.102539,4354.615234,4323.717773,4316.538574,4332.179688,4630.384766,4602.563965,4468.717773,4540.897461,0.000000,4.000000,99.000000,,,,0.000000,4.000000,4.000000,4.000000,4.000000,4.000000,4.000000,4.000000,4.000000,4.000000,4.000000,4.000000,4.000000,4.000000,4.000000,100.000000,,,,,,,,,,,,,,,,,,,,,,,,,,,,
1703488052.937539,1703488052.937891,30.000000,0.000000,4380.000000,4352.692383,4407.563965,4398.846191,4356.666504,4306.538574,4347.051270,4314.615234,4310.641113,4329.230957,4618.461426,4593.205078,4455.641113,4524.615234,0.000000,4.000000,99.000000,,,,0.000000,4.000000,4.000000,4.000000,4.000000,4.000000,4.000000,4.000000,4.000000,4.000000,4.000000,4.000000,4.000000,4.000000,4.000000,100.000000,,,,,,,,,,,,,,,,,,,,,,,,,,,,
1703488052.945347,1703488052.945799,31.000000,0.000000,4370.641113,4345.641113,4400.512695,4391.153809,4356.153809,4307.179688,4350.000000,4318.974121,4313.461426,4330.384766,4617.948730,4587.820313,4455.128418,4516.794922,0.000000,4.000000,99.000000,,,,0.000000,4.000000,4.000000,4.000000,4.000000,4.000000,4.000000,4.000000,4.000000,4.000000,4.000000,4.000000,4.000000,4.000000,4.000000,100.000000,,,,,,,,,,,,,,,,,,,,,,,,,,,,
1703488052.953155,1703488052.953607,32.000000,0.000000,4379.102539,4356.794922,4399.615234,4394.487305,4360.641113,4309.230957,4353.077148,4332.051270,4324.615234,4333.333496,4641.025879,4601.282227,4480.769043,4535.641113,0.000000,4.000000,99.000000,,,,0.000000,4.000000,4.000000,4.000000,4.000000,4.000000,4.000000,4.000000,4.000000,4.000000,4.000000,4.000000,4.000000,4.000000,4.000000,100.000000,,,,,,,,,,,,,,,,,8.000000,0.000000,0.708395,-0.075317,-0.692139,0.115967,0.954706,-0.274936,0.019534,-11.501985,-39.832554,60.199501
1703488052.960963,1703488052.961514,33.000000,0.000000,4387.051270,4362.307617,4403.333496,4399.102539,4363.077148,4301.410156,4349.615234,4342.051270,4342.436035,4351.410156,4657.307617,4618.589844,4499.871582,4555.128418,0.000000,4.000000,99.000000,,,,0.000000,4.000000,4.000000,4.000000,4.000000,4.000000,4.000000,4.000000,4.000000,4.000000,4.000000,4.000000,4.000000,4.000000,4.000000,100.000000,,,,,,,,,,,,,,,,,,,,,,,,,,,,
1703488052.968771,1703488052.969322,34.000000,0.000000,4385.384766,4356.025879,4410.897461,4396.153809,4368.333496,4297.051270,4351.282227,4359.615234,4369.487305,4383.974121,4667.820313,4632.179688,4500.512695,4558.589844,0.000000,4.000000,99.000000,,,,0.000000,4.000000,4.000000,4.000000,4.000000,4.000000,4.000000,4.000000,4.000000,4.000000,4.000000,4.000000,4.000000,4.000000,4.000000,100.000000,,,,,,,,,,,,,,,,,,,,,,,,,,,,
1703488052.976579,1703488052.977030,35.000000,0.000000,4379.487305,4350.641113,4410.769043,4395.000000,4366.794922,4299.358887,4355.128418,4373.589844,4382.948730,4388.333496,4675.641113,4636.922852,4499.743652,4556.922852,0.000000,4.000000,99.000000,,,,0.000000,4.000000,4.000000,4.000000,4.000000,4.000000,4.000000,4.000000,4.000000,4.000000,4.000000,4.000000,4.000000,4.000000,4.000000,100.000000,,,,,,,,,,,,,,,,,,,,,,,,,,,,
1703488052.984387,1703488052.984938,36.000000,0.000000,4374.615234,4346.153809,4400.000000,4389.102539,4359.871582,4302.692383,4353.589844,4364.230957,4372.563965,4368.333496,4663.461426,4626.410156,4491.538574,4550.512695,0.000000,4.000000,99.000000,,,,0.000000,4.000000,4.000000,4.000000,4.000000,4.000000,4.000000,4.000000,4.000000,4.000000,4.000000,4.000000,4.000000,4.000000,4.000000,100.000000,,,,,,,,,,,,,,,,,9.000000,0.000000,0.708117,-0.075684,-0.692322,0.116333,0.956171,-0.266634,0.016115,-11.451786,-39.849300,60.196220
1703488052.992195,1703488052.992746,37.000000,0.000000,4371.282227,4340.769043,4391.666504,4378.846191,4356.025879,4307.179688,4352.563965,4347.563965,4358.077148,4359.615234,4643.846191,4608.461426,4477.179688,4540.897461,0.000000,4.000000,99.000000,,,,0.000000,4.000000,4.000000,4.000000,4.000000,4.000000,4.000000,4.000000,4.000000,4.000000,4.000000,4.000000,4.000000,4.000000,4.000000,100.000000,,,,,,,,,,,,,,,,,,,,,,,,,,,,
1703488053.000003,1703488053.000654,38.000000,0.000000,4370.897461,4344.871582,4391.153809,4380.256348,4356.666504,4307.820313,4353.461426,4338.077148,4344.487305,4355.128418,4638.077148,4599.102539,4471.922852,4535.641113,0.000000,4.000000,99.000000,,,,0.000000,4.000000,4.000000,4.000000,4.000000,4.000000,4.000000,4.000000,4.000000,4.000000,4.000000,4.000000,4.000000,4.000000,4.000000,100.000000,,,,,,,,,,,,,,,,,,,,,,,,,,,,
1703488053.007811,1703488053.008462,39.000000,0.000000,4368.717773,4348.077148,4388.461426,4384.871582,4363.974121,4307.692383,4353.717773,4329.102539,4330.641113,4342.692383,4627.820313,4592.820313,4467.179688,4530.384766,0.000000,4.000000,99.000000,,,,0.000000,4.000000,4.000000,4.000000,4.000000,4.000000,4.000000,4.000000,4.000000,4.000000,4.000000,4.000000,4.000000,4.000000,4.000000,100.000000,,,,,,,,,,,,,,,,,,,,,,,,,,,,
1703488053.015619,1703488053.016371,40.000000,0.000000,4365.769043,4342.179688,4385.512695,4380.512695,4369.615234,4310.769043,4354.230957,4320.897461,4323.077148,4336.153809,4612.563965,4580.256348,4456.153809,4521.666504,0.000000,4.000000,99.000000,,,,0.000000,4.000000,4.000000,4.000000,4.000000,4.000000,4.000000,4.000000,4.000000,4.000000,4.000000,4.000000,4.000000,4.000000,4.000000,100.000000,,,,,,,,,,,,,,,,,10.000000,0.000000,0.708040,-0.075745,-0.692383,0.116394,0.943963,-0.267611,0.021487,-11.523274,-39.931034,60.259930
1703488053.023428,1703488053.024179,41.000000,0.000000,4368.717773,4347.051270,4392.051270,4381.410156,4365.641113,4307.820313,4355.128418,4319.102539,4323.717773,4338.333496,4620.512695,4576.025879,4461.538574,4520.897461,0.000000,4.000000,99.000000,,,,0.000000,4.000000,4.000000,4.000000,4.000000,4.000000,4.000000,4.000000,4.000000,4.000000,4.000000,4.000000,4.000000,4.000000,4.000000,100.000000,,,,,,,,,,,,,,,,,,,,,,,,,,,,
1703488053.031236,1703488053.031987,42.000000,0.000000,4373.717773,4355.897461,4400.769043,4388.461426,4367.307617,4299.871582,4354.358887,4320.897461,4322.948730,4341.538574,4632.051270,4591.282227,4473.974121,4532.436035,0.000000,4.000000,99.000000,,,,0.000000,4.000000,4.000000,4.000000,4.000000,4.000000,4.000000,4.000000,4.000000,4.000000,4.000000,4.000000,4.000000,4.000000,4.000000,100.000000,,,,,,,,,,,,,,,,,,,,,,,,,,,,
1703488053.039044,1703488053.039695,43.000000,0.000000,4373.589844,4352.436035,4399.102539,4385.256348,4372.692383,4297.179688,4351.410156,4319.487305,4320.256348,4344.871582,4630.769043,4602.051270,4474.487305,4538.846191,0.000000,4.000000,99.000000,,,,0.000000,4.000000,4.000000,4.000000,4.000000,4.000000,4.000000,4.000000,4.000000,4.000000,4.000000,4.000000,4.000000,4.000000,4.000000,100.000000,,,,,,,,,,,,,,,,,,,,,,,,,,,,
1703488053.046852,1703488053.047502,44.000000,0.000000,4374.102539,4350.641113,4395.769043,4380.256348,4369.743652,4294.230957,4350.256348,4317.307617,4321.538574,4345.641113,4641.025879,4598.974121,4480.256348,4541.153809,0.000000,4.000000,99.000000,,,,0.000000,4.000000,4.000000,4.000000,4.000000,4.000000,4.000000,4.000000,4.000000,4.000000,4.000000,4.000000,4.000000,4.000000,4.000000,100.000000,,,,,,,,,,,,,,,,,11.000000,0.000000,0.708117,-0.075684,-0.692322,0.116333,0.953241,-0.273959,0.016604,-11.537614,-39.954597,60.267269
1703488053.054660,1703488053.055209,45.000000,0.000000,4381.410156,4354.230957,4399.615234,4382.436035,4368.205078,4291.666504,4352.307617,4320.384766,4323.333496,4350.128418,4655.256348,4603.333496,4490.128418,4550.128418,0.000000,4.000000,99.000000,,,,0.000000,4.000000,4.000000,4.000000,4.000000,4.000000,4.000000,4.000000,4.000000,4.000000,4.000000,4.000000,4.000000,4.000000,4.000000,100.000000,,,,,,,,,,,,,,,,,,,,,,,,,,,,
1703488053.062468,1703488053.063017,46.000000,0.000000,4380.897461,4353.461426,4399.230957,4381.410156,4367.436035,4291.410156,4350.256348,4328.333496,4323.589844,4355.256348,4654.487305,4613.589844,4493.205078,4556.538574,0.000000,4.000000,99.000000,,,,0.000000,4.000000,4.000000,4.000000,4.000000,4.000000,4.000000,4.000000,4.000000,4.000000,4.000000,4.000000,4.000000,4.000000,4.000000,100.000000,,,,,,,,,,,,,,,,,,,,,,,,,,,,
1703488053.070276,1703488053.070724,47.000000,0.000000,4374.871582,4352.436035,4396.153809,4380.000000,4360.128418,4284.871582,4344.743652,4339.871582,4326.282227,4351.025879,4653.461426,4617.820313,4494.102539,4553.974121,0.000000,4.000000,99.000000,,,,0.000000,4.000000,4.000000,4.000000,4.000000,4.000000,4.000000,4.000000,4.000000,4.000000,4.000000,4.000000,4.000000,4.000000,4.000000,100.000000,,,,,,,,,,,,,,,,,,,,,,,,,,,,
1703488053.078084,1703488053.078632,48.000000,0.000000,4379.615234,4359.358887,4401.153809,4388.333496,4355.384766,4276.922852,4345.512695,4347.948730,4333.461426,4345.000000,4659.102539,4620.000000,4495.256348,4555.384766,0.000000,4.000000,99.000000,,,,0.000000,4.000000,4.000000,4.000000,4.000000,4.000000,4.000000,4.000000,4.000000,4.000000,4.000000,4.000000,4.000000,4.000000,4.000000,100.000000,,,,,,,,,,,,,,,,,12.000000,0.000000,0.708114,-0.075623,-0.692383,0.116028,0.954218,-0.270541,0.023929,-11.533853,-40.042473,60.257210
1703488053.085892,1703488053.086440,49.000000,0.000000,4384.743652,4363.846191,4403.974121,4394.358887,4357.563965,4278.974121,4349.102539,4347.436035,4337.307617,4339.487305,4655.128418,4620.000000,4490.000000,4557.051270,0.000000,4.000000,99.000000,,,,0.000000,4.000000,4.000000,4.000000,4.000000,4.000000,4.000000,4.000000,4.000000,4.000000,4.000000,4.000000,4.000000,4.000000,4.000000,100.000000,,,,,,,,,,,,,,,,,,,,,,,,,,,,
1703488053.093700,1703488053.094348,50.000000,0.000000,4381.025879,4360.384766,4398.589844,4388.333496,4361.153809,4286.025879,4349.230957,4341.794922,4338.461426,4340.000000,4642.948730,4610.384766,4480.897461,4547.179688,0.000000,4.000000,99.000000,,,,0.000000,4.000000,4.000000,4.000000,4.000000,4.000000,4.000000,4.000000,4.000000,4.000000,4.000000,4.000000,4.000000,4.000000,4.000000,100.000000,,,,,,,,,,,,,,,,,,,,,,,,,,,,
1703488053.101508,1703488053.102156,51.000000,0.000000,4376.922852,4354.871582,4395.256348,4382.692383,4361.794922,4288.974121,4347.436035,4335.897461,4335.769043,4346.410156,4631.538574,4595.512695,4471.153809,4536.410156,0.000000,4.000000,99.000000,,,,0.000000,4.000000,4.000000,4.000000,4.000000,4.000000,4.000000,4.000000,4.000000,4.000000,4.000000,4.000000,4.000000,4.000000,4.000000,100.000000,,,,,,,,,,,,,,,,,,,,,,,,,,,,
1703488053.109316,1703488053.110064,52.000000,0.000000,4372.563965,4353.846191,4391.538574,4383.846191,4360.128418,4291.794922,4346.922852,4328.974121,4327.179688,4340.000000,4621.538574,4581.794922,4460.897461,4527.179688,0.000000,4.000000,99.000000,,,,0.000000,4.000000,4.000000,4.000000,4.000000,4.000000,4.000000,4.000000,4.000000,4.000000,4.000000,4.000000,4.000000,4.000000,4.000000,100.000000,,,,,,,,,,,,,,,,,13.000000,0.000000,0.708057,-0.075684,-0.692444,0.115967,0.953241,-0.274936,0.014162,-11.430467,-39.971558,60.148155
1703488053.117124,1703488053.117872,53.000000,0.000000,4366.666504,4352.436035,4381.410156,4383.077148,4362.179688,4294.871582,4347.436035,4318.974121,4318.205078,4324.230957,4614.743652,4569.615234,4456.025879,4521.025879,0.000000,4.000000,99.000000,,,,0.000000,4.000000,4.000000,4.000000,4.000000,4.000000,4.000000,4.000000,4.000000,4.000000,4.000000,4.000000,4.000000,4.000000,4.000000,100.000000,,,,,,,,,,,,,,,,,,,,,,,,,,,,
1703488053.124932,1703488053.125579,54.000000,0.000000,4366.922852,4344.615234,4379.615234,4375.769043,4361.794922,4287.948730,4345.384766,4310.384766,4313.717773,4327.179688,4612.051270,4564.871582,4456.666504,4526.538574,0.000000,4.000000,99.000000,,,,0.000000,4.000000,4.000000,4.000000,4.000000,4.000000,4.000000,4.000000,4.000000,4.000000,4.000000,4.000000,4.000000,4.000000,4.000000,100.000000,,,,,,,,,,,,,,,,,,,,,,,,,,,,
1703488053.132740,1703488053.133488,55.000000,0.000000,4376.666504,4348.717773,4391.666504,4376.025879,4355.512695,4281.666504,4343.974121,4313.846191,4319.358887,4340.000000,4623.077148,4576.282227,4466.794922,4541.922852,0.000000,4.000000,99.000000,,,,0.000000,4.000000,4.000000,4.000000,4.000000,4.000000,4.000000,4.000000,4.000000,4.000000,4.000000,4.000000,4.000000,4.000000,4.000000,100.000000,,,,,,,,,,,,,,,,,,,,,,,,,,,,
1703488053.140548,1703488053.141296,56.000000,0.000000,4390.384766,4366.538574,4400.128418,4388.333496,4360.512695,4285.769043,4347.820313,4329.487305,4336.666504,4349.743652,4646.282227,4598.205078,4485.897461,4553.589844,0.000000,4.000000,99.000000,,,,0.000000,4.000000,4.000000,4.000000,4.000000,4.000000,4.000000,4.000000,4.000000,4.000000,4.000000,4.000000,4.000000,4.000000,4.000000,100.000000,,,,,,,,,,,,,,,,,14.000000,0.000000,0.707991,-0.075745,-0.692505,0.115967,0.948846,-0.279331,0.025394,-11.387421,-39.974403,60.266674
1703488053.148356,1703488053.149105,57.000000,0.000000,4395.769043,4368.205078,4396.538574,4392.436035,4365.641113,4286.794922,4350.384766,4340.512695,4345.000000,4357.820313,4657.820313,4608.077148,4495.897461,4556.538574,0.000000,4.000000,99.000000,,,,0.000000,4.000000,4.000000,4.000000,4.000000,4.000000,4.000000,4.000000,4.000000,4.000000,4.000000,4.000000,4.000000,4.000000,4.000000,100.000000,,,,,,,,,,,,,,,,,,,,,,,,,,,,
1703488053.156164,1703488053.156812,58.000000,0.000000,4394.743652,4359.230957,4398.974121,4388.333496,4361.922852,4283.205078,4344.743652,4341.025879,4343.717773,4362.051270,4655.256348,4608.077148,4491.666504,4557.948730,0.000000,4.000000,99.000000,,,,0.000000,4.000000,4.000000,4.000000,4.000000,4.000000,4.000000,4.000000,4.000000,4.000000,4.000000,4.000000,4.000000,4.000000,4.000000,100.000000,,,,,,,,,,,,,,,,,,,,,,,,,,,,
1703488053.163972,1703488053.164620,59.000000,0.000000,4396.282227,4364.230957,4410.128418,4392.307617,4367.179688,4285.897461,4343.077148,4342.948730,4351.153809,4366.794922,4655.384766,4617.820313,4492.307617,4558.717773,0.000000,4.000000,99.000000,,,,0.000000,4.000000,4.000000,4.000000,4.000000,4.000000,4.000000,4.000000,4.000000,4.000000,4.000000,4.000000,4.000000,4.000000,4.000000,100.000000,,,,,,,,,,,,,,,,,,,,,,,,,,,,
1703488053.171780,1703488053.172328,60.000000,0.000000,4396.410156,4371.538574,4409.358887,4395.000000,4376.025879,4284.230957,4347.820313,4345.128418,4354.102539,4365.000000,4658.205078,4622.563965,4497.692383,4557.179688,0.000000,4.000000,99.000000,,,,0.000000,4.000000,4.000000,4.000000,4.000000,4.000000,4.000000,4.000000,4.000000,4.000000,4.000000,4.000000,4.000000,4.000000,4.000000,100.000000,,,,,,,,,,,,,,,,,15.000000,0.000000,0.708008,-0.075684,-0.692505,0.115906,0.956660,-0.275913,0.012209,-11.548678,-39.993629,60.273338
1703488053.179588,1703488053.180135,61.000000,0.000000,4388.333496,4361.666504,4399.615234,4386.025879,4365.128418,4276.538574,4342.563965,4342.179688,4342.563965,4350.256348,4655.897461,4610.000000,4496.153809,4553.461426,0.000000,4.000000,99.000000,,,,0.000000,4.000000,4.000000,4.000000,4.000000,4.000000,4.000000,4.000000,4.000000,4.000000,4.000000,4.000000,4.000000,4.000000,4.000000,100.000000,,,,,,,,,,,,,,,,,,,,,,,,,,,,
1703488053.187396,1703488053.187843,62.000000,0.000000,4382.179688,4351.794922,4400.256348,4378.974121,4349.230957,4272.307617,4332.820313,4341.153809,4335.384766,4342.820313,4652.948730,4602.692383,4490.000000,4556.666504,0.000000,4.000000,99.000000,,,,0.000000,4.000000,4.000000,4.000000,4.000000,4.000000,4.000000,4.000000,4.000000,4.000000,4.000000,4.000000,4.000000,4.000000,4.000000,100.000000,,,,,,,,,,,,,,,,,,,,,,,,,,,,
1703488053.195204,1703488053.195650,63.000000,0.000000,4384.358887,4348.846191,4403.461426,4376.922852,4346.666504,4269.230957,4332.051270,4340.384766,4334.358887,4345.384766,4643.461426,4601.538574,4481.282227,4556.153809,0.000000,4.000000,99.000000,,,,0.000000,4.000000,4.000000,4.000000,4.000000,4.000000,4.000000,4.000000,4.000000,4.000000,4.000000,4.000000,4.000000,4.000000,4.000000,100.000000,,,,,,,,,,,,,,,,,,,,,,,,,,,,
1703488053.203012,1703488053.203358,64.000000,0.000000,4381.922852,4346.538574,4394.102539,4370.769043,4346.153809,4269.102539,4334.358887,4331.410156,4329.230957,4342.436035,4629.102539,4589.615234,4470.512695,4543.846191,5474.000000,4.000000,99.000000,,,,0.000000,4.000000,4.000000,4.000000,4.000000,4.000000,4.000000,4.000000,4.000000,4.000000,4.000000,4.000000,4.000000,4.000000,4.000000,100.000000,,,,,,,,,,,,,,,,,16.000000,0.000000,0.708011,-0.075562,-0.692505,0.115967,0.959590,-0.280796,0.024417,-11.593810,-39.994267,60.262672
1703488053.210820,1703488053.211165,65.000000,0.000000,4373.717773,4344.871582,4382.436035,4363.461426,4350.512695,4277.307617,4335.512695,4326.922852,4327.179688,4336.025879,4626.025879,4575.512695,4465.000000,4535.128418,5596.000000,4.000000,99.000000,,,,0.000000,4.000000,4.000000,4.000000,4.000000,4.000000,4.000000,4.000000,4.000000,4.000000,4.000000,4.000000,4.000000,4.000000,4.000000,100.000000,,,,,,,,,,,,,,,,,,,,,,,,,,,,
1703488053.218628,1703488053.218873,66.000000,0.000000,4371.410156,4341.538574,4380.256348,4362.051270,4354.615234,4282.692383,4337.179688,4337.692383,4336.410156,4331.922852,4626.666504,4573.077148,4462.948730,4535.384766,5432.000000,4.000000,99.000000,,,,0.000000,4.000000,4.000000,4.000000,4.000000,4.000000,4.000000,4.000000,4.000000,4.000000,4.000000,4.000000,4.000000,4.000000,4.000000,100.000000,,,,,,,,,,,,,,,,,,,,,,,,,,,,
1703488053.226436,1703488053.226781,67.000000,0.000000,4375.769043,4339.230957,4385.128418,4364.487305,4350.000000,4283.589844,4335.897461,4338.333496,4344.102539,4333.846191,4622.307617,4573.077148,4459.230957,4535.897461,5552.000000,4.000000,99.000000,,,,0.000000,4.000000,4.000000,4.000000,4.000000,4.000000,4.000000,4.000000,4.000000,4.000000,4.000000,4.000000,4.000000,4.000000,4.000000,100.000000,,,,,,,,,,,,,,,,,,,,,,,,,,,,
1703488053.234244,1703488053.234589,68.000000,0.000000,4380.000000,4342.820313,4391.153809,4368.205078,4355.512695,4284.230957,4336.153809,4325.641113,4343.077148,4348.846191,4627.948730,4574.743652,4465.512695,4538.077148,4984.000000,4.000000,99.000000,,,,0.000000,4.000000,4.000000,4.000000,4.000000,4.000000,4.000000,4.000000,4.000000,4.000000,4.000000,4.000000,4.000000,4.000000,4.000000,100.000000,,,,,,,,,,,,,,,,,17.000000,0.000000,0.707998,-0.075867,-0.692444,0.116211,0.945916,-0.266146,0.019534,-11.484429,-40.094841,60.103073
1703488053.242052,1703488053.242397,69.000000,0.000000,4379.615234,4348.205078,4389.871582,4371.282227,4367.436035,4284.358887,4341.410156,4327.179688,4344.487305,4361.666504,4641.410156,4580.384766,4478.333496,4542.563965,4569.000000,4.000000,99.000000,,,,0.000000,4.000000,4.000000,4.000000,4.000000,4.000000,4.000000,4.000000,4.000000,4.000000,4.000000,4.000000,4.000000,4.000000,4.000000,100.000000,,,,,,,,,,,,,,,,,,,,,,,,,,,,
1703488053.249860,1703488053.250104,70.000000,0.000000,4375.256348,4344.871582,4383.846191,4368.589844,4363.077148,4282.051270,4342.051270,4338.333496,4352.179688,4362.436035,4641.025879,4584.230957,4479.358887,4538.461426,2494.000000,4.000000,99.000000,,,,0.000000,4.000000,4.000000,4.000000,4.000000,4.000000,4.000000,4.000000,4.000000,4.000000,4.000000,4.000000,4.000000,4.000000,4.000000,100.000000,,,,,,,,,,,,,,,,,,,,,,,,,,,,
1703488053.257669,1703488053.258012,71.000000,0.000000,4368.205078,4335.384766,4380.512695,4362.436035,4357.820313,4278.717773,4337.436035,4341.282227,4350.384766,4355.000000,4632.307617,4586.922852,4471.282227,4532.692383,4338.000000,4.000000,99.000000,,,,0.000000,4.000000,4.000000,4.000000,4.000000,4.000000,4.000000,4.000000,4.000000,4.000000,4.000000,4.000000,4.000000,4.000000,4.000000,100.000000,,,,,,,,,,,,,,,,,,,,,,,,,,,,
1703488053.265477,1703488053.265820,72.000000,0.000000,4367.692383,4333.589844,4381.794922,4363.846191,4368.077148,4279.358887,4337.820313,4339.102539,4343.717773,4346.922852,4632.820313,4586.794922,4471.025879,4536.794922,4878.000000,4.000000,99.000000,,,,0.000000,4.000000,4.000000,4.000000,4.000000,4.000000,4.000000,4.000000,4.000000,4.000000,4.000000,4.000000,4.000000,4.000000,4.000000,100.000000,,,,,,,,,,,,,,,,,18.000000,0.000000,0.707948,-0.076233,-0.692444,0.116272,0.941521,-0.272006,0.009278,-11.402653,-40.168690,60.192764
1703488053.273285,1703488053.273728,73.000000,0.000000,4372.307617,4337.820313,4383.589844,4369.871582,4365.641113,4275.897461,4340.256348,4335.641113,4342.563965,4342.820313,4633.974121,4584.487305,4478.333496,4538.205078,5312.000000,4.000000,99.000000,,,,0.000000,4.000000,4.000000,4.000000,4.000000,4.000000,4.000000,4.000000,4.000000,4.000000,4.000000,4.000000,4.000000,4.000000,4.000000,100.000000,,,,,,,,,,,,,,,,,,,,,,,,,,,,
1703488053.281093,1703488053.281536,74.000000,0.000000,4376.025879,4336.794922,4385.641113,4369.871582,4351.922852,4264.871582,4337.307617,4334.615234,4342.692383,4339.358887,4632.948730,4588.846191,4477.179688,4538.589844,5875.000000,4.000000,99.000000,,,,0.000000,4.000000,4.000000,4.000000,4.000000,4.000000,4.000000,4.000000,4.000000,4.000000,4.000000,4.000000,4.000000,4.000000,4.000000,100.000000,,,,,,,,,,,,,,,,,,,,,,,,,,,,
1703488053.288901,1703488053.289444,75.000000,0.000000,4379.487305,4332.307617,4391.410156,4368.974121,4351.410156,4258.077148,4334.743652,4333.589844,4337.436035,4337.307617,4630.512695,4594.358887,4465.256348,4540.897461,6227.000000,4.000000,99.000000,,,,0.000000,4.000000,4.000000,4.000000,4.000000,4.000000,4.000000,4.000000,4.000000,4.000000,4.000000,4.000000,4.000000,4.000000,4.000000,100.000000,,,,,,,,,,,,,,,,,,,,,,,,,,,,
1703488053.296709,1703488053.297251,76.000000,0.000000,4377.307617,4333.205078,4397.179688,4370.384766,4348.205078,4259.487305,4332.307617,4327.820313,4328.589844,4335.769043,4621.794922,4589.615234,4460.000000,4533.077148,6614.000000,4.000000,99.000000,,,,0.000000,4.000000,4.000000,4.000000,4.000000,4.000000,4.000000,4.000000,4.000000,4.000000,4.000000,4.000000,4.000000,4.000000,4.000000,100.000000,,,,,,,,,,,,,,,,,19.000000,0.000000,0.707942,-0.076294,-0.692444,0.116272,0.966427,-0.273959,0.022464,-11.462388,-40.068485,60.140156
1703488053.304517,1703488053.305159,77.000000,0.000000,4371.794922,4330.512695,4395.256348,4366.666504,4340.641113,4261.666504,4330.000000,4321.794922,4323.589844,4331.666504,4614.615234,4578.589844,4458.717773,4521.922852,6796.000000,4.000000,99.000000,,,,0.000000,4.000000,4.000000,4.000000,4.000000,4.000000,4.000000,4.000000,4.000000,4.000000,4.000000,4.000000,4.000000,4.000000,4.000000,100.000000,,,,,,,,,,,,,,,,,,,,,,,,,,,,
1703488053.312325,1703488053.312967,78.000000,0.000000,4371.794922,4323.846191,4389.871582,4362.179688,4339.358887,4265.256348,4330.512695,4324.615234,4325.128418,4325.769043,4614.487305,4573.205078,4448.077148,4522.563965,5875.000000,4.000000,99.000000,,,,0.000000,4.000000,4.000000,4.000000,4.000000,4.000000,4.000000,4.000000,4.000000,4.000000,4.000000,4.000000,4.000000,4.000000,4.000000,100.000000,,,,,,,,,,,,,,,,,,,,,,,,,,,,
1703488053.320133,1703488053.320774,79.000000,0.000000,4374.230957,4326.410156,4389.230957,4363.717773,4335.128418,4265.641113,4329.230957,4325.512695,4322.563965,4323.974121,4615.641113,4572.436035,4445.641113,4524.871582,6227.000000,4.000000,99.000000,,,,0.000000,4.000000,4.000000,4.000000,4.000000,4.000000,4.000000,4.000000,4.000000,4.000000,4.000000,4.000000,4.000000,4.000000,4.000000,100.000000,,,,,,,,,,,,,,,,,,,,,,,,,,,,
1703488053.327941,1703488053.328582,80.000000,0.000000,4372.820313,4331.794922,4390.769043,4365.512695,4340.256348,4265.000000,4330.512695,4315.512695,4312.820313,4326.410156,4616.025879,4571.025879,4457.563965,4521.538574,6614.000000,4.000000,99.000000,,,,0.000000,4.000000,4.000000,4.000000,4.000000,4.000000,4.000000,4.000000,4.000000,4.000000,4.000000,4.000000,4.000000,4.000000,4.000000,100.000000,,,,,,,,,,,,,,,,,20.000000,0.000000,0.707792,-0.076294,-0.692566,0.116455,0.961543,-0.270052,0.023440,-11.599483,-40.144970,60.226139
1703488053.335749,1703488053.336290,81.000000,0.000000,4366.794922,4330.128418,4384.743652,4361.025879,4360.897461,4272.820313,4337.436035,4307.307617,4316.538574,4336.410156,4621.282227,4569.358887,4461.794922,4522.179688,6796.000000,4.000000,99.000000,,,,0.000000,4.000000,4.000000,4.000000,4.000000,4.000000,4.000000,4.000000,4.000000,4.000000,4.000000,4.000000,4.000000,4.000000,4.000000,100.000000,,,,,,,,,,,,,,,,,,,,,,,,,,,,
1703488053.343557,1703488053.344098,82.000000,0.000000,4358.333496,4320.128418,4373.461426,4353.077148,4364.615234,4272.948730,4337.436035,4313.077148,4336.666504,4350.897461,4622.179688,4568.205078,4459.102539,4522.820313,5875.000000,4.000000,99.000000,,,,0.000000,4.000000,4.000000,4.000000,4.000000,4.000000,4.000000,4.000000,4.000000,4.000000,4.000000,4.000000,4.000000,4.000000,4.000000,100.000000,,,,,,,,,,,,,,,,,,,,,,,,,,,,
1703488053.351365,1703488053.351805,83.000000,0.000000,4352.436035,4314.358887,4368.205078,4351.025879,4346.922852,4260.512695,4329.615234,4327.179688,4351.025879,4357.563965,4619.615234,4568.333496,4463.205078,4518.589844,6227.000000,4.000000,99.000000,,,,0.000000,4.000000,4.000000,4.000000,4.000000,4.000000,4.000000,4.000000,4.000000,4.000000,4.000000,4.000000,4.000000,4.000000,4.000000,100.000000,,,,,,,,,,,,,,,,,,,,,,,,,,,,
1703488053.359173,1703488053.359613,84.000000,0.000000,4356.153809,4319.102539,4374.102539,4353.077148,4344.358887,4256.794922,4326.666504,4336.666504,4353.974121,4357.692383,4622.307617,4569.358887,4464.871582,4521.410156,6614.000000,4.000000,99.000000,,,,0.000000,4.000000,4.000000,4.000000,4.000000,4.000000,4.000000,4.000000,4.000000,4.000000,4.000000,4.000000,4.000000,4.000000,4.000000,100.000000,,,,,,,,,,,,,,,,,21.000000,0.000000,0.707752,-0.076294,-0.692566,0.116699,0.945916,-0.287144,0.026859,-11.672868,-40.080475,60.253525
1703488053.366981,1703488053.367320,85.000000,0.000000,4359.743652,4321.410156,4378.717773,4349.871582,4351.282227,4257.179688,4328.461426,4339.230957,4352.307617,4348.205078,4622.948730,4571.025879,4456.794922,4524.230957,6796.000000,4.000000,99.000000,,,,0.000000,4.000000,4.000000,4.000000,4.000000,4.000000,4.000000,4.000000,4.000000,4.000000,4.000000,4.000000,4.000000,4.000000,4.000000,100.000000,,,,,,,,,,,,,,,,,,,,,,,,,,,,
1703488053.374789,1703488053.375128,86.000000,0.000000,4351.282227,4313.077148,4374.487305,4344.230957,4335.256348,4246.666504,4328.846191,4336.153809,4345.769043,4338.846191,4614.358887,4570.128418,4451.025879,4512.692383,5875.000000,4.000000,99.000000,,,,0.000000,4.000000,4.000000,4.000000,4.000000,4.000000,4.000000,4.000000,4.000000,4.000000,4.000000,4.000000,4.000000,4.000000,4.000000,100.000000,,,,,,,,,,,,,,,,,,,,,,,,,,,,
1703488053.382597,1703488053.382835,87.000000,0.000000,4343.077148,4305.384766,4372.692383,4342.692383,4319.102539,4240.897461,4326.025879,4328.077148,4332.820313,4340.384766,4603.077148,4564.358887,4443.461426,4501.666504,6227.000000,4.000000,99.000000,,,,0.000000,4.000000,4.000000,4.000000,4.000000,4.000000,4.000000,4.000000,4.000000,4.000000,4.000000,4.000000,4.000000,4.000000,4.000000,100.000000,1.000000,58.333332,4.000000,4.000000,3.000000,3.000000,4.000000,1.000000,4.000000,4.000000,4.000000,4.000000,4.000000,3.000000,4.000000,4.000000,,,,,,,,,,,,
1703488053.390405,1703488053.390643,88.000000,0.000000,4348.461426,4308.846191,4378.846191,4347.948730,4330.641113,4245.512695,4324.102539,4325.512695,4322.179688,4335.000000,4599.615234,4561.025879,4435.000000,4506.282227,6614.000000,4.000000,99.000000,,,,0.000000,4.000000,4.000000,4.000000,4.000000,4.000000,4.000000,4.000000,4.000000,4.000000,4.000000,4.000000,4.000000,4.000000,4.000000,100.000000,,,,,,,,,,,,,,,,,22.000000,0.000000,0.707692,-0.076477,-0.692566,0.116943,0.957148,-0.289098,0.033207,-11.705581,-40.189095,60.194839
1703488053.398213,1703488053.398351,89.000000,0.000000,4357.563965,4316.282227,4387.436035,4357.436035,4347.179688,4245.641113,4326.666504,4328.333496,4318.461426,4322.307617,4601.666504,4568.077148,4438.589844,4511.666504,6796.000000,4.000000,99.000000,,,,0.000000,4.000000,4.000000,4.000000,4.000000,4.000000,4.000000,4.000000,4.000000,4.000000,4.000000,4.000000,4.000000,4.000000,4.000000,100.000000,,,,,,,,,,,,,,,,,,,,,,,,,,,,
1703488053.406021,1703488053.406158,90.000000,0.000000,4361.666504,4318.205078,4389.871582,4360.128418,4342.436035,4245.000000,4328.974121,4326.922852,4314.615234,4317.948730,4601.282227,4570.769043,4443.974121,4509.230957,5875.000000,4.000000,99.000000,,,,0.000000,4.000000,4.000000,4.000000,4.000000,4.000000,4.000000,4.000000,4.000000,4.000000,4.000000,4.000000,4.000000,4.000000,4.000000,100.000000,,,,,,,,,,,,,,,,,,,,,,,,,,,,
1703488053.413829,1703488053.413866,91.000000,0.000000,4356.410156,4308.333496,4383.846191,4346.153809,4331.153809,4246.410156,4326.666504,4321.410156,4309.487305,4321.666504,4595.128418,4559.871582,4432.820313,4506.153809,6227.000000,4.000000,99.000000,,,,0.000000,4.000000,4.000000,4.000000,4.000000,4.000000,4.000000,4.000000,4.000000,4.000000,4.000000,4.000000,4.000000,4.000000,4.000000,100.000000,,,,,,,,,,,,,,,,,,,,,,,,,,,,
1703488053.421637,1703488053.421773,92.000000,0.000000,4351.666504,4301.410156,4379.358887,4336.794922,4334.871582,4246.794922,4327.563965,4322.051270,4310.897461,4322.179688,4598.205078,4559.871582,4428.589844,4508.333496,6614.000000,4.000000,99.000000,,,,0.000000,4.000000,4.000000,4.000000,4.000000,4.000000,4.000000,4.000000,4.000000,4.000000,4.000000,4.000000,4.000000,4.000000,4.000000,100.000000,,,,,,,,,,,,,,,,,23.000000,0.000000,0.707759,-0.076233,-0.692566,0.116699,0.941033,-0.274448,0.026370,-11.701690,-40.186852,60.342022
1703488053.429445,1703488053.429581,93.000000,0.000000,4359.743652,4313.461426,4382.436035,4348.717773,4340.512695,4246.922852,4330.512695,4326.153809,4315.897461,4318.333496,4612.820313,4572.948730,4444.871582,4518.077148,6796.000000,4.000000,99.000000,,,,0.000000,4.000000,4.000000,4.000000,4.000000,4.000000,4.000000,4.000000,4.000000,4.000000,4.000000,4.000000,4.000000,4.000000,4.000000,100.000000,,,,,,,,,,,,,,,,,,,,,,,,,,,,
1703488053.437253,1703488053.437489,94.000000,0.000000,4366.666504,4320.897461,4384.102539,4352.436035,4337.692383,4245.897461,4325.769043,4325.769043,4315.512695,4314.743652,4615.641113,4575.641113,4450.641113,4526.153809,5875.000000,4.000000,99.000000,,,,0.000000,4.000000,4.000000,4.000000,4.000000,4.000000,4.000000,4.000000,4.000000,4.000000,4.000000,4.000000,4.000000,4.000000,4.000000,100.000000,,,,,,,,,,,,,,,,,,,,,,,,,,,,
1703488053.445061,1703488053.445297,95.000000,0.000000,4360.000000,4312.692383,4380.641113,4343.333496,4335.256348,4241.282227,4321.922852,4324.358887,4317.179688,4322.051270,4610.384766,4571.282227,4443.333496,4525.384766,6227.000000,4.000000,99.000000,,,,0.000000,4.000000,4.000000,4.000000,4.000000,4.000000,4.000000,4.000000,4.000000,4.000000,4.000000,4.000000,4.000000,4.000000,4.000000,100.000000,,,,,,,,,,,,,,,,,,,,,,,,,,,,
1703488053.452869,1703488053.453205,96.000000,0.000000,4351.410156,4305.384766,4380.128418,4339.487305,4337.563965,4234.487305,4324.358887,4324.743652,4324.871582,4337.820313,4612.820313,4570.128418,4447.051270,4523.205078,6614.000000,4.000000,99.000000,,,,0.000000,4.000000,4.000000,4.000000,4.000000,4.000000,4.000000,4.000000,4.000000,4.000000,4.000000,4.000000,4.000000,4.000000,4.000000,100.000000,,,,,,,,,,,,,,,,,24.000000,0.000000,0.707971,-0.075745,-0.692505,0.116089,0.946405,-0.260774,0.028812,-11.631520,-40.168167,60.274487
1703488053.460677,1703488053.461013,97.000000,0.000000,4350.128418,4309.615234,4378.589844,4340.641113,4333.461426,4230.128418,4324.871582,4326.025879,4328.077148,4338.077148,4613.205078,4569.487305,4452.307617,4517.179688,6796.000000,4.000000,99.000000,,,,0.000000,4.000000,4.000000,4.000000,4.000000,4.000000,4.000000,4.000000,4.000000,4.000000,4.000000,4.000000,4.000000,4.000000,4.000000,100.000000,,,,,,,,,,,,,,,,,,,,,,,,,,,,
1703488053.468485,1703488053.468921,98.000000,0.000000,4349.230957,4312.051270,4376.922852,4342.820313,4329.230957,4231.025879,4321.922852,4325.000000,4327.051270,4321.410156,4605.256348,4566.153809,4445.641113,4509.487305,5875.000000,4.000000,99.000000,,,,0.000000,4.000000,4.000000,4.000000,4.000000,4.000000,4.000000,4.000000,4.000000,4.000000,4.000000,4.000000,4.000000,4.000000,4.000000,100.000000,,,,,,,,,,,,,,,,,,,,,,,,,,,,
1703488053.476293,1703488053.476729,99.000000,0.000000,4343.461426,4300.769043,4372.051270,4338.205078,4326.282227,4232.179688,4319.487305,4321.666504,4321.922852,4311.153809,4595.384766,4556.538574,4434.871582,4506.666504,6227.000000,4.000000,99.000000,,,,0.000000,4.000000,4.000000,4.000000,4.000000,4.000000,4.000000,4.000000,4.000000,4.000000,4.000000,4.000000,4.000000,4.000000,4.000000,100.000000,,,,,,,,,,,,,,,,,,,,,,,,,,,,
1703488053.484101,1703488053.484637,100.000000,0.000000,4333.333496,4292.692383,4365.769043,4328.205078,4317.051270,4227.948730,4318.589844,4323.077148,4314.358887,4313.205078,4591.025879,4546.666504,4425.897461,4504.487305,6614.000000,4.000000,99.000000,,,,0.000000,4.000000,4.000000,4.000000,4.000000,4.000000,4.000000,4.000000,4.000000,4.000000,4.000000,4.000000,4.000000,4.000000,4.000000,100.000000,,,,,,,,,,,,,,,,,25.000000,0.000000,0.708259,-0.075378,-0.692322,0.115662,0.954706,-0.271029,0.039067,-11.635035,-40.218018,60.247040
1703488053.491909,1703488053.492444,101.000000,0.000000,4335.641113,4302.692383,4369.102539,4332.692383,4322.307617,4225.641113,4320.897461,4328.077148,4315.128418,4313.589844,4598.589844,4551.794922,4428.205078,4503.205078,6796.000000,4.000000,99.000000,,,,0.000000,4.000000,4.000000,4.000000,4.000000,4.000000,4.000000,4.000000,4.000000,4.000000,4.000000,4.000000,4.000000,4.000000,4.000000,100.000000,,,,,,,,,,,,,,,,,,,,,,,,,,,,
1703488053.499718,1703488053.500352,102.000000,0.000000,4353.589844,4313.077148,4376.666504,4344.230957,4335.897461,4226.794922,4324.615234,4327.051270,4318.077148,4307.692383,4597.948730,4557.436035,4437.179688,4507.051270,5875.000000,4.000000,99.000000,,,,0.000000,4.000000,4.000000,4.000000,4.000000,4.000000,4.000000,4.000000,4.000000,4.000000,4.000000,4.000000,4.000000,4.000000,4.000000,100.000000,,,,,,,,,,,,,,,,,,,,,,,,,,,,
1703488053.507526,1703488053.508160,103.000000,0.000000,4356.794922,4307.179688,4374.743652,4337.692383,4329.358887,4225.897461,4324.102539,4325.256348,4316.153809,4302.563965,4586.410156,4553.333496,4434.102539,4514.871582,6227.000000,4.000000,99.000000,,,,0.000000,4.000000,4.000000,4.000000,4.000000,4.000000,4.000000,4.000000,4.000000,4.000000,4.000000,4.000000,4.000000,4.000000,4.000000,100.000000,,,,,,,,,,,,,,,,,,,,,,,,,,,,
1703488053.515334,1703488053.516067,104.000000,0.000000,4345.512695,4297.820313,4365.256348,4328.717773,4316.922852,4227.307617,4320.512695,4329.615234,4313.589844,4300.641113,4590.641113,4556.282227,4427.436035,4521.410156,6614.000000,4.000000,99.000000,,,,0.000000,4.000000,4.000000,4.000000,4.000000,4.000000,4.000000,4.000000,4.000000,4.000000,4.000000,4.000000,4.000000,4.000000,4.000000,100.000000,,,,,,,,,,,,,,,,,26.000000,0.000000,0.708305,-0.075317,-0.692322,0.115417,0.953730,-0.274936,0.028812,-11.604865,-40.079548,60.172333
1703488053.523142,1703488053.523875,105.000000,0.000000,4338.205078,4291.922852,4358.333496,4328.205078,4314.615234,4230.000000,4314.230957,4323.717773,4308.205078,4303.333496,4598.974121,4553.205078,4429.102539,4519.615234,6796.000000,4.000000,99.000000,,,,0.000000,4.000000,4.000000,4.000000,4.000000,4.000000,4.000000,4.000000,4.000000,4.000000,4.000000,4.000000,4.000000,4.000000,4.000000,100.000000,,,,,,,,,,,,,,,,,,,,,,,,,,,,
1703488053.530950,1703488053.531583,106.000000,0.000000,4341.282227,4290.256348,4357.051270,4324.230957,4306.410156,4230.512695,4310.000000,4308.846191,4307.820313,4312.307617,4595.384766,4541.794922,4436.410156,4518.333496,5875.000000,4.000000,99.000000,,,,0.000000,4.000000,4.000000,4.000000,4.000000,4.000000,4.000000,4.000000,4.000000,4.000000,4.000000,4.000000,4.000000,4.000000,4.000000,100.000000,,,,,,,,,,,,,,,,,,,,,,,,,,,,
1703488053.538758,1703488053.539391,107.000000,0.000000,4349.102539,4295.128418,4360.384766,4323.205078,4304.487305,4231.025879,4315.256348,4310.000000,4319.487305,4319.615234,4600.256348,4549.487305,4440.384766,4525.384766,6227.000000,4.000000,99.000000,,,,0.000000,4.000000,4.000000,4.000000,4.000000,4.000000,4.000000,4.000000,4.000000,4.000000,4.000000,4.000000,4.000000,4.000000,4.000000,100.000000,,,,,,,,,,,,,,,,,,,,,,,,,,,,
1703488053.546566,1703488053.547098,108.000000,0.000000,4347.948730,4295.384766,4360.000000,4326.410156,4313.717773,4226.922852,4318.205078,4321.666504,4323.461426,4314.230957,4603.717773,4558.589844,4436.794922,4521.153809,6614.000000,4.000000,99.000000,,,,0.000000,4.000000,4.000000,4.000000,4.000000,4.000000,4.000000,4.000000,4.000000,4.000000,4.000000,4.000000,4.000000,4.000000,4.000000,100.000000,,,,,,,,,,,,,,,,,27.000000,0.000000,0.708385,-0.075500,-0.692261,0.115173,0.955195,-0.269564,0.027347,-11.661045,-39.871593,60.271767
1703488053.554374,1703488053.554906,109.000000,0.000000,4339.615234,4291.794922,4354.102539,4327.051270,4311.538574,4217.307617,4310.384766,4320.641113,4314.871582,4309.102539,4590.512695,4545.384766,4431.282227,4507.179688,6796.000000,4.000000,99.000000,,,,0.000000,4.000000,4.000000,4.000000,4.000000,4.000000,4.000000,4.000000,4.000000,4.000000,4.000000,4.000000,4.000000,4.000000,4.000000,100.000000,,,,,,,,,,,,,,,,,,,,,,,,,,,,
1703488053.562182,1703488053.562614,110.000000,0.000000,4337.820313,4289.743652,4353.461426,4324.358887,4303.846191,4213.333496,4306.666504,4311.922852,4314.358887,4309.230957,4580.897461,4532.436035,4426.410156,4503.846191,5875.000000,4.000000,99.000000,,,,0.000000,4.000000,4.000000,4.000000,4.000000,4.000000,4.000000,4.000000,4.000000,4.000000,4.000000,4.000000,4.000000,4.000000,4.000000,100.000000,,,,,,,,,,,,,,,,,,,,,,,,,,,,
1703488053.569990,1703488053.570522,111.000000,0.000000,4333.717773,4282.820313,4351.282227,4318.333496,4298.717773,4210.256348,4307.692383,4310.384766,4313.717773,4294.102539,4575.000000,4527.307617,4417.051270,4499.871582,6227.000000,4.000000,99.000000,,,,0.000000,4.000000,4.000000,4.000000,4.000000,4.000000,4.000000,4.000000,4.000000,4.000000,4.000000,4.000000,4.000000,4.000000,4.000000,100.000000,,,,,,,,,,,,,,,,,,,,,,,,,,,,
1703488053.577798,1703488053.578330,112.000000,0.000000,4320.384766,4277.563965,4344.230957,4313.974121,4292.179688,4201.794922,4303.846191,4311.282227,4302.436035,4273.846191,4569.230957,4519.743652,4410.512695,4485.000000,6614.000000,4.000000,99.000000,,,,0.000000,4.000000,4.000000,4.000000,4.000000,4.000000,4.000000,4.000000,4.000000,4.000000,4.000000,4.000000,4.000000,4.000000,4.000000,100.000000,,,,,,,,,,,,,,,,,28.000000,0.000000,0.708313,-0.075623,-0.692322,0.115173,0.972775,-0.269076,0.012209,-11.694941,-39.801102,60.261257
1703488053.585606,1703488053.586238,113.000000,0.000000,4311.282227,4276.666504,4340.384766,4313.077148,4283.205078,4198.974121,4299.615234,4310.000000,4294.358887,4270.512695,4564.230957,4520.128418,4405.769043,4475.384766,6796.000000,4.000000,99.000000,,,,0.000000,4.000000,4.000000,4.000000,4.000000,4.000000,4.000000,4.000000,4.000000,4.000000,4.000000,4.000000,4.000000,4.000000,4.000000,100.000000,,,,,,,,,,,,,,,,,,,,,,,,,,,,
1703488053.593414,1703488053.594046,114.000000,0.000000,4312.179688,4269.871582,4340.384766,4308.461426,4279.102539,4200.128418,4299.358887,4310.000000,4293.974121,4274.743652,4555.897461,4521.538574,4395.641113,4475.384766,5875.000000,4.000000,99.000000,,,,0.000000,4.000000,4.000000,4.000000,4.000000,4.000000,4.000000,4.000000,4.000000,4.000000,4.000000,4.000000,4.000000,4.000000,4.000000,100.000000,,,,,,,,,,,,,,,,,,,,,,,,,,,,
1703488053.601222,1703488053.601954,115.000000,0.000000,4315.384766,4263.846191,4339.871582,4302.692383,4278.077148,4196.666504,4295.769043,4311.794922,4297.436035,4275.897461,4554.487305,4515.641113,4401.282227,4477.820313,6227.000000,4.000000,99.000000,,,,0.000000,4.000000,4.000000,4.000000,4.000000,4.000000,4.000000,4.000000,4.000000,4.000000,4.000000,4.000000,4.000000,4.000000,4.000000,100.000000,,,,,,,,,,,,,,,,,,,,,,,,,,,,
1703488053.609030,1703488053.609762,116.000000,0.000000,4315.256348,4265.512695,4334.487305,4299.230957,4277.820313,4195.384766,4293.717773,4311.153809,4294.743652,4270.128418,4558.461426,4517.179688,4413.717773,4477.692383,6614.000000,4.000000,99.000000,,,,0.000000,4.000000,4.000000,4.000000,4.000000,4.000000,4.000000,4.000000,4.000000,4.000000,4.000000,4.000000,4.000000,4.000000,4.000000,100.000000,,,,,,,,,,,,,,,,,29.000000,0.000000,0.708286,-0.075684,-0.692322,0.115295,0.961543,-0.264681,0.020510,-11.508780,-39.737656,60.168465
1703488053.616838,1703488053.617570,117.000000,0.000000,4311.794922,4263.846191,4328.974121,4293.333496,4282.179688,4197.179688,4296.922852,4306.922852,4288.205078,4261.538574,4560.769043,4521.922852,4403.205078,4475.128418,6796.000000,4.000000,99.000000,,,,0.000000,4.000000,4.000000,4.000000,4.000000,4.000000,4.000000,4.000000,4.000000,4.000000,4.000000,4.000000,4.000000,4.000000,4.000000,100.000000,,,,,,,,,,,,,,,,,,,,,,,,,,,,
1703488053.624646,1703488053.625278,118.000000,0.000000,4310.256348,4257.948730,4331.666504,4292.307617,4285.512695,4194.102539,4295.512695,4307.563965,4288.974121,4271.025879,4565.256348,4524.743652,4393.974121,4477.563965,5875.000000,4.000000,99.000000,,,,0.000000,4.000000,4.000000,4.000000,4.000000,4.000000,4.000000,4.000000,4.000000,4.000000,4.000000,4.000000,4.000000,4.000000,4.000000,100.000000,,,,,,,,,,,,,,,,,,,,,,,,,,,,
1703488053.632454,1703488053.633185,119.000000,0.000000,4303.717773,4252.563965,4332.563965,4296.153809,4281.666504,4194.615234,4293.077148,4309.358887,4287.307617,4281.538574,4563.461426,4525.512695,4400.128418,4474.615234,6227.000000,4.000000,99.000000,,,,0.000000,4.000000,4.000000,4.000000,4.000000,4.000000,4.000000,4.000000,4.000000,4.000000,4.000000,4.000000,4.000000,4.000000,4.000000,100.000000,,,,,,,,,,,,,,,,,,,,,,,,,,,,
1703488053.640262,1703488053.640993,120.000000,0.000000,4294.615234,4245.769043,4324.358887,4292.179688,4275.000000,4197.563965,4296.666504,4306.922852,4285.000000,4270.128418,4552.563965,4517.307617,4395.769043,4463.205078,6614.000000,4.000000,99.000000,,,,0.000000,4.000000,4.000000,4.000000,4.000000,4.000000,4.000000,4.000000,4.000000,4.000000,4.000000,4.000000,4.000000,4.000000,4.000000,100.000000,,,,,,,,,,,,,,,,,30.000000,0.000000,0.708150,-0.075745,-0.692383,0.115723,0.956660,-0.262239,0.026859,-11.691236,-39.680557,60.118286
1703488053.648070,1703488053.648901,121.000000,0.000000,4290.512695,4242.563965,4318.077148,4283.461426,4268.077148,4192.563965,4292.948730,4306.666504,4291.666504,4263.717773,4547.436035,4508.846191,4382.179688,4457.948730,6796.000000,4.000000,99.000000,,,,0.000000,4.000000,4.000000,4.000000,4.000000,4.000000,4.000000,4.000000,4.000000,4.000000,4.000000,4.000000,4.000000,4.000000,4.000000,100.000000,,,,,,,,,,,,,,,,,,,,,,,,,,,,
1703488053.655878,1703488053.656709,122.000000,0.000000,4282.820313,4241.922852,4314.358887,4276.794922,4258.333496,4185.641113,4281.922852,4308.333496,4296.025879,4267.820313,4543.974121,4509.743652,4379.615234,4454.487305,5875.000000,4.000000,99.000000,,,,0.000000,4.000000,4.000000,4.000000,4.000000,4.000000,4.000000,4.000000,4.000000,4.000000,4.000000,4.000000,4.000000,4.000000,4.000000,100.000000,,,,,,,,,,,,,,,,,,,,,,,,,,,,
1703488053.663686,1703488053.664617,123.000000,0.000000,4277.820313,4237.179688,4310.641113,4276.666504,4257.692383,4185.769043,4280.256348,4304.871582,4290.512695,4264.871582,4534.615234,4508.974121,4382.563965,4449.743652,6227.000000,4.000000,99.000000,,,,0.000000,4.000000,4.000000,4.000000,4.000000,4.000000,4.000000,4.000000,4.000000,4.000000,4.000000,4.000000,4.000000,4.000000,4.000000,100.000000,,,,,,,,,,,,,,,,,,,,,,,,,,,,
1703488053.671494,1703488053.672425,124.000000,0.000000,4280.000000,4231.282227,4307.820313,4277.563965,4265.641113,4189.230957,4284.615234,4298.846191,4285.000000,4255.641113,4528.589844,4494.487305,4377.179688,4445.000000,6614.000000,4.000000,99.000000,,,,0.000000,4.000000,4.000000,4.000000,4.000000,4.000000,4.000000,4.000000,4.000000,4.000000,4.000000,4.000000,4.000000,4.000000,4.000000,100.000000,,,,,,,,,,,,,,,,,31.000000,0.000000,0.707985,-0.075806,-0.692505,0.115967,0.958613,-0.277378,0.020510,-11.522112,-39.562504,60.273125
1703488053.679302,1703488053.680333,125.000000,0.000000,4273.846191,4230.384766,4298.974121,4272.179688,4261.025879,4183.077148,4280.769043,4291.282227,4278.461426,4247.820313,4521.025879,4478.077148,4364.615234,4433.205078,6796.000000,4.000000,99.000000,,,,0.000000,4.000000,4.000000,4.000000,4.000000,4.000000,4.000000,4.000000,4.000000,4.000000,4.000000,4.000000,4.000000,4.000000,4.000000,100.000000,,,,,,,,,,,,,,,,,,,,,,,,,,,,
1703488053.687110,1703488053.688141,126.000000,0.000000,4266.666504,4233.589844,4293.461426,4263.077148,4248.846191,4172.948730,4277.563965,4281.153809,4268.333496,4242.307617,4512.307617,4471.794922,4357.692383,4425.128418,5875.000000,4.000000,99.000000,,,,0.000000,4.000000,4.000000,4.000000,4.000000,4.000000,4.000000,4.000000,4.000000,4.000000,4.000000,4.000000,4.000000,4.000000,4.000000,100.000000,,,,,,,,,,,,,,,,,,,,,,,,,,,,
1703488053.694918,1703488053.696049,127.000000,0.000000,4277.948730,4234.743652,4302.563965,4266.153809,4246.282227,4169.743652,4276.153809,4275.384766,4262.820313,4245.000000,4512.820313,4475.641113,4361.410156,4435.384766,99.000000,4.000000,99.000000,,,,0.000000,4.000000,4.000000,4.000000,4.000000,4.000000,4.000000,4.000000,4.000000,4.000000,4.000000,4.000000,4.000000,4.000000,4.000000,100.000000,,,,,,,,,,,,,,,,,,,,,,,,,,,,
1703488053.702726,1703488053.703856,0.000000,0.000000,4289.102539,4233.846191,4311.794922,4277.820313,4251.794922,4173.974121,4274.743652,4275.897461,4263.589844,4251.410156,4521.794922,4481.282227,4372.436035,4446.922852,5490.000000,4.000000,99.000000,,,,0.000000,4.000000,4.000000,4.000000,4.000000,4.000000,4.000000,4.000000,4.000000,4.000000,4.000000,4.000000,4.000000,4.000000,4.000000,100.000000,,,,,,,,,,,,,,,,,0.000000,0.000000,0.707938,-0.075867,-0.692505,0.116211,0.945916,-0.272494,0.016604,-11.286567,-39.672920,60.245811
1703488053.710534,1703488053.711564,1.000000,0.000000,4286.282227,4236.410156,4309.102539,4274.487305,4246.410156,4172.563965,4274.615234,4273.205078,4262.051270,4242.692383,4527.563965,4479.487305,4377.436035,4447.692383,5609.000000,4.000000,99.000000,,,,0.000000,4.000000,4.000000,4.000000,4.000000,4.000000,4.000000,4.000000,4.000000,4.000000,4.000000,4.000000,4.000000,4.000000,4.000000,100.000000,,,,,,,,,,,,,,,,,,,,,,,,,,,,
1703488053.718342,1703488053.719372,2.000000,0.000000,4282.179688,4237.051270,4304.358887,4265.512695,4234.615234,4165.256348,4272.179688,4266.410156,4252.948730,4232.051270,4521.153809,4477.948730,4368.846191,4441.922852,5452.000000,4.000000,99.000000,,,,0.000000,4.000000,4.000000,4.000000,4.000000,4.000000,4.000000,4.000000,4.000000,4.000000,4.000000,4.000000,4.000000,4.000000,4.000000,100.000000,,,,,,,,,,,,,,,,,,,,,,,,,,,,
1703488053.726150,1703488053.727079,3.000000,0.000000,4275.384766,4227.051270,4299.230957,4262.179688,4237.820313,4165.384766,4269.743652,4261.153809,4243.717773,4227.692383,4505.641113,4475.769043,4353.974121,4425.512695,5562.000000,4.000000,99.000000,,,,0.000000,4.000000,4.000000,4.000000,4.000000,4.000000,4.000000,4.000000,4.000000,4.000000,4.000000,4.000000,4.000000,4.000000,4.000000,100.000000,,,,,,,,,,,,,,,,,,,,,,,,,,,,
1703488053.733958,1703488053.734887,4.000000,0.000000,4263.333496,4217.051270,4290.384766,4253.205078,4244.230957,4168.974121,4269.102539,4260.897461,4241.794922,4223.205078,4493.077148,4465.769043,4345.769043,4412.051270,4991.000000,4.000000,99.000000,,,,0.000000,4.000000,4.000000,4.000000,4.000000,4.000000,4.000000,4.000000,4.000000,4.000000,4.000000,4.000000,4.000000,4.000000,4.000000,100.000000,,,,,,,,,,,,,,,,,1.000000,0.000000,0.707829,-0.076050,-0.692566,0.116394,0.935661,-0.283726,0.021487,-11.107910,-39.805626,60.254562
1703488053.741767,1703488053.742595,5.000000,0.000000,4258.846191,4212.563965,4286.794922,4244.102539,4236.666504,4164.487305,4266.666504,4264.230957,4241.538574,4220.512695,4490.384766,4457.820313,4342.948730,4414.102539,4569.000000,4.000000,99.000000,,,,0.000000,4.000000,4.000000,4.000000,4.000000,4.000000,4.000000,4.000000,4.000000,4.000000,4.000000,4.000000,4.000000,4.000000,4.000000,100.000000,,,,,,,,,,,,,,,,,,,,,,,,,,,,
1703488053.749575,1703488053.750402,6.000000,0.000000,4260.512695,4207.051270,4287.307617,4245.256348,4229.358887,4158.846191,4264.743652,4265.641113,4238.077148,4216.666504,4490.641113,4455.128418,4336.153809,4411.538574,2494.000000,4.000000,99.000000,,,,0.000000,4.000000,4.000000,4.000000,4.000000,4.000000,4.000000,4.000000,4.000000,4.000000,4.000000,4.000000,4.000000,4.000000,4.000000,100.000000,,,,,,,,,,,,,,,,,,,,,,,,,,,,
1703488053.757383,1703488053.758110,7.000000,0.000000,4256.538574,4205.000000,4284.102539,4246.538574,4233.974121,4163.974121,4264.358887,4258.974121,4233.077148,4204.743652,4477.563965,4447.436035,4329.102539,4397.820313,4362.000000,4.000000,99.000000,,,,0.000000,4.000000,4.000000,4.000000,4.000000,4.000000,4.000000,4.000000,4.000000,4.000000,4.000000,4.000000,4.000000,4.000000,4.000000,100.000000,,,,,,,,,,,,,,,,,,,,,,,,,,,,
1703488053.765190,1703488053.765917,8.000000,0.000000,4247.948730,4204.487305,4277.692383,4243.333496,4229.358887,4164.743652,4260.769043,4250.512695,4230.512695,4195.256348,4458.077148,4439.615234,4320.769043,4392.179688,4911.000000,4.000000,99.000000,,,,0.000000,4.000000,4.000000,4.000000,4.000000,4.000000,4.000000,4.000000,4.000000,4.000000,4.000000,4.000000,4.000000,4.000000,4.000000,100.000000,,,,,,,,,,,,,,,,,2.000000,0.000000,0.707872,-0.076294,-0.692505,0.116333,0.958613,-0.270541,0.020999,-11.197120,-39.991730,60.162441
1703488053.772999,1703488053.773625,9.000000,0.000000,4247.563965,4202.179688,4276.410156,4243.461426,4217.179688,4155.384766,4256.153809,4249.743652,4234.743652,4200.897461,4458.077148,4438.205078,4316.025879,4398.846191,5352.000000,4.000000,99.000000,,,,0.000000,4.000000,4.000000,4.000000,4.000000,4.000000,4.000000,4.000000,4.000000,4.000000,4.000000,4.000000,4.000000,4.000000,4.000000,100.000000,,,,,,,,,,,,,,,,,,,,,,,,,,,,
1703488053.780807,1703488053.781432,10.000000,0.000000,4256.410156,4207.179688,4279.358887,4244.487305,4223.077148,4155.256348,4260.641113,4252.820313,4241.025879,4208.461426,4474.102539,4437.820313,4325.769043,4406.410156,5888.000000,4.000000,99.000000,,,,0.000000,4.000000,4.000000,4.000000,4.000000,4.000000,4.000000,4.000000,4.000000,4.000000,4.000000,4.000000,4.000000,4.000000,4.000000,100.000000,,,,,,,,,,,,,,,,,,,,,,,,,,,,
1703488053.788615,1703488053.789140,11.000000,0.000000,4264.743652,4212.307617,4280.769043,4245.512695,4226.794922,4157.051270,4261.410156,4250.641113,4239.102539,4205.384766,4473.846191,4436.666504,4334.871582,4408.461426,6252.000000,4.000000,99.000000,,,,0.000000,4.000000,4.000000,4.000000,4.000000,4.000000,4.000000,4.000000,4.000000,4.000000,4.000000,4.000000,4.000000,4.000000,4.000000,100.000000,,,,,,,,,,,,,,,,,,,,,,,,,,,,
1703488053.796423,1703488053.796947,12.000000,0.000000,4260.641113,4203.589844,4277.563965,4246.666504,4213.333496,4150.897461,4252.692383,4244.871582,4231.025879,4200.000000,4463.077148,4432.948730,4323.077148,4399.743652,6628.000000,4.000000,99.000000,,,,0.000000,4.000000,4.000000,4.000000,4.000000,4.000000,4.000000,4.000000,4.000000,4.000000,4.000000,4.000000,4.000000,4.000000,4.000000,100.000000,,,,,,,,,,,,,,,,,3.000000,0.000000,0.707846,-0.076538,-0.692505,0.116333,0.951776,-0.285191,0.025882,-11.360741,-39.909225,60.112862
1703488053.804231,1703488053.804655,13.000000,0.000000,4256.666504,4200.384766,4273.974121,4243.461426,4211.794922,4150.769043,4253.077148,4242.692383,4228.974121,4207.307617,4468.717773,4426.538574,4317.307617,4396.410156,6828.000000,4.000000,99.000000,,,,0.000000,4.000000,4.000000,4.000000,4.000000,4.000000,4.000000,4.000000,4.000000,4.000000,4.000000,4.000000,4.000000,4.000000,4.000000,100.000000,,,,,,,,,,,,,,,,,,,,,,,,,,,,
1703488053.812039,1703488053.812462,14.000000,0.000000,4264.871582,4204.230957,4278.717773,4235.256348,4223.077148,4154.743652,4259.230957,4245.512695,4232.948730,4213.589844,4479.743652,4433.461426,4333.846191,4412.179688,5888.000000,4.000000,99.000000,,,,0.000000,4.000000,4.000000,4.000000,4.000000,4.000000,4.000000,4.000000,4.000000,4.000000,4.000000,4.000000,4.000000,4.000000,4.000000,100.000000,,,,,,,,,,,,,,,,,,,,,,,,,,,,
1703488053.819847,1703488053.820170,15.000000,0.000000,4270.641113,4201.282227,4282.820313,4232.179688,4221.410156,4153.205078,4253.333496,4244.743652,4228.589844,4200.512695,4476.538574,4445.000000,4340.128418,4420.897461,6252.000000,4.000000,99.000000,,,,0.000000,4.000000,4.000000,4.000000,4.000000,4.000000,4.000000,4.000000,4.000000,4.000000,4.000000,4.000000,4.000000,4.000000,4.000000,100.000000,,,,,,,,,,,,,,,,,,,,,,,,,,,,
1703488053.827655,1703488053.828078,16.000000,0.000000,4264.230957,4202.051270,4279.871582,4235.128418,4213.846191,4151.153809,4247.563965,4242.436035,4222.436035,4195.641113,4472.692383,4440.128418,4336.922852,4410.512695,0.000000,4.000000,99.000000,,,,0.000000,4.000000,4.000000,4.000000,4.000000,4.000000,4.000000,4.000000,4.000000,4.000000,4.000000,4.000000,4.000000,4.000000,4.000000,100.000000,,,,,,,,,,,,,,,,,4.000000,0.000000,0.707965,-0.076538,-0.692383,0.116333,0.966427,-0.277378,0.017580,-11.158000,-39.951633,60.118244
1703488053.835463,1703488053.835886,17.000000,0.000000,4262.563965,4202.820313,4280.256348,4235.000000,4216.153809,4150.256348,4253.461426,4246.794922,4230.512695,4208.333496,4481.153809,4432.563965,4341.922852,4410.641113,0.000000,4.000000,99.000000,,,,0.000000,4.000000,4.000000,4.000000,4.000000,4.000000,4.000000,4.000000,4.000000,4.000000,4.000000,4.000000,4.000000,4.000000,4.000000,100.000000,,,,,,,,,,,,,,,,,,,,,,,,,,,,
1703488053.843271,1703488053.843793,18.000000,0.000000,4266.025879,4196.666504,4276.538574,4233.461426,4216.282227,4152.436035,4251.538574,4249.743652,4239.871582,4201.666504,4480.000000,4430.256348,4339.487305,4414.871582,0.000000,4.000000,99.000000,,,,0.000000,4.000000,4.000000,4.000000,4.000000,4.000000,4.000000,4.000000,4.000000,4.000000,4.000000,4.000000,4.000000,4.000000,4.000000,100.000000,,,,,,,,,,,,,,,,,,,,,,,,,,,,
1703488053.851079,1703488053.851601,19.000000,0.000000,4257.307617,4197.820313,4263.205078,4233.974121,4215.128418,4155.256348,4245.000000,4245.000000,4236.282227,4186.153809,4463.333496,4421.922852,4325.256348,4401.922852,0.000000,4.000000,99.000000,,,,0.000000,4.000000,4.000000,4.000000,4.000000,4.000000,4.000000,4.000000,4.000000,4.000000,4.000000,4.000000,4.000000,4.000000,4.000000,100.000000,,,,,,,,,,,,,,,,,,,,,,,,,,,,
1703488053.858887,1703488053.859509,20.000000,0.000000,4246.794922,4198.846191,4257.436035,4232.051270,4216.794922,4156.282227,4247.563965,4241.922852,4227.179688,4186.666504,4453.205078,4410.769043,4319.487305,4393.205078,0.000000,4.000000,99.000000,,,,0.000000,4.000000,4.000000,4.000000,4.000000,4.000000,4.000000,4.000000,4.000000,4.000000,4.000000,4.000000,4.000000,4.000000,4.000000,100.000000,,,,,,,,,,,,,,,,,5.000000,0.000000,0.708131,-0.076477,-0.692261,0.116089,0.958613,-0.272494,0.019045,-11.192200,-39.906471,60.239754
1703488053.866695,1703488053.867317,21.000000,0.000000,4246.666504,4189.358887,4261.153809,4228.205078,4216.922852,4158.717773,4248.077148,4243.461426,4224.102539,4190.256348,4451.922852,4407.051270,4322.563965,4393.846191,0.000000,4.000000,99.000000,,,,0.000000,4.000000,4.000000,4.000000,4.000000,4.000000,4.000000,4.000000,4.000000,4.000000,4.000000,4.000000,4.000000,4.000000,4.000000,100.000000,,,,,,,,,,,,,,,,,,,,,,,,,,,,
1703488053.874503,1703488053.875224,22.000000,0.000000,4248.205078,4190.769043,4261.410156,4231.025879,4220.128418,4158.589844,4247.820313,4246.410156,4230.641113,4196.922852,4453.846191,4410.000000,4323.589844,4391.153809,0.000000,4.000000,99.000000,,,,0.000000,4.000000,4.000000,4.000000,4.000000,4.000000,4.000000,4.000000,4.000000,4.000000,4.000000,4.000000,4.000000,4.000000,4.000000,100.000000,,,,,,,,,,,,,,,,,,,,,,,,,,,,
1703488053.882311,1703488053.883032,23.000000,0.000000,4248.461426,4207.436035,4262.051270,4238.846191,4225.256348,4156.025879,4251.410156,4247.563965,4231.410156,4200.384766,4456.666504,4412.692383,4326.153809,4396.025879,0.000000,4.000000,99.000000,,,,0.000000,4.000000,4.000000,4.000000,4.000000,4.000000,4.000000,4.000000,4.000000,4.000000,4.000000,4.000000,4.000000,4.000000,4.000000,100.000000,1.000000,58.333332,4.000000,4.000000,3.000000,3.000000,3.000000,1.000000,4.000000,4.000000,4.000000,3.000000,3.000000,3.000000,4.000000,3.000000,,,,,,,,,,,,
1703488053.890119,1703488053.890940,24.000000,0.000000,4250.128418,4205.769043,4259.230957,4236.538574,4227.051270,4157.563965,4248.205078,4243.333496,4220.384766,4188.077148,4456.153809,4414.871582,4328.333496,4401.282227,0.000000,4.000000,99.000000,,,,0.000000,4.000000,4.000000,4.000000,4.000000,4.000000,4.000000,4.000000,4.000000,4.000000,4.000000,4.000000,4.000000,4.000000,4.000000,100.000000,,,,,,,,,,,,,,,,,6.000000,0.000000,0.708310,-0.076294,-0.692139,0.115845,0.966427,-0.278354,0.025882,-11.239647,-39.982491,60.215778
1703488053.897927,1703488053.898747,25.000000,0.000000,4248.717773,4186.794922,4250.512695,4221.538574,4216.025879,4155.769043,4242.692383,4241.153809,4218.846191,4178.205078,4453.717773,4422.692383,4324.230957,4394.102539,0.000000,4.000000,99.000000,,,,0.000000,4.000000,4.000000,4.000000,4.000000,4.000000,4.000000,4.000000,4.000000,4.000000,4.000000,4.000000,4.000000,4.000000,4.000000,100.000000,,,,,,,,,,,,,,,,,,,,,,,,,,,,
1703488053.905735,1703488053.906455,26.000000,0.000000,4246.794922,4181.538574,4253.589844,4214.230957,4203.717773,4150.128418,4244.102539,4247.692383,4230.128418,4192.179688,4461.025879,4438.846191,4322.436035,4399.871582,0.000000,4.000000,99.000000,,,,0.000000,4.000000,4.000000,4.000000,4.000000,4.000000,4.000000,4.000000,4.000000,4.000000,4.000000,4.000000,4.000000,4.000000,4.000000,100.000000,,,,,,,,,,,,,,,,,,,,,,,,,,,,
1703488053.913543,1703488053.914263,27.000000,0.000000,4251.153809,4187.436035,4267.820313,4219.358887,4203.461426,4152.051270,4240.256348,4250.769043,4233.846191,4209.358887,4475.769043,4446.025879,4332.820313,4416.538574,0.000000,4.000000,99.000000,,,,0.000000,4.000000,4.000000,4.000000,4.000000,4.000000,4.000000,4.000000,4.000000,4.000000,4.000000,4.000000,4.000000,4.000000,4.000000,100.000000,,,,,,,,,,,,,,,,,,,,,,,,,,,,
1703488053.921351,1703488053.921971,28.000000,0.000000,4252.436035,4185.641113,4270.256348,4219.743652,4197.820313,4149.102539,4233.717773,4247.179688,4228.077148,4203.589844,4475.897461,4436.282227,4339.743652,4409.102539,0.000000,4.000000,99.000000,,,,0.000000,4.000000,4.000000,4.000000,4.000000,4.000000,4.000000,4.000000,4.000000,4.000000,4.000000,4.000000,4.000000,4.000000,4.000000,100.000000,,,,,,,,,,,,,,,,,7.000000,0.000000,0.708347,-0.076416,-0.692139,0.115540,0.946405,-0.268587,0.020510,-11.249016,-40.167576,60.227531
1703488053.929159,1703488053.929779,29.000000,0.000000,4249.615234,4184.230957,4263.461426,4216.025879,4184.487305,4140.128418,4236.410156,4246.538574,4227.563965,4183.974121,4463.717773,4430.256348,4330.769043,4398.846191,0.000000,4.000000,99.000000,,,,0.000000,4.000000,4.000000,4.000000,4.000000,4.000000,4.000000,4.000000,4.000000,4.000000,4.000000,4.000000,4.000000,4.000000,4.000000,100.000000,,,,,,,,,,,,,,,,,,,,,,,,,,,,
1703488053.936967,1703488053.937486,30.000000,0.000000,4251.153809,4190.384766,4263.589844,4217.948730,4189.871582,4147.179688,4241.666504,4249.230957,4231.153809,4186.538574,4460.128418,4435.128418,4326.666504,4408.589844,0.000000,4.000000,99.000000,,,,0.000000,4.000000,4.000000,4.000000,4.000000,4.000000,4.000000,4.000000,4.000000,4.000000,4.000000,4.000000,4.000000,4.000000,4.000000,100.000000,,,,,,,,,,,,,,,,,,,,,,,,,,,,
1703488053.944775,1703488053.945294,31.000000,0.000000,4249.358887,4192.051270,4267.948730,4219.230957,4207.820313,4158.205078,4245.128418,4252.307617,4233.717773,4204.487305,4462.307617,4432.179688,4329.230957,4406.794922,0.000000,4.000000,99.000000,,,,0.000000,4.000000,4.000000,4.000000,4.000000,4.000000,4.000000,4.000000,4.000000,4.000000,4.000000,4.000000,4.000000,4.000000,4.000000,100.000000,,,,,,,,,,,,,,,,,,,,,,,,,,,,
1703488053.952583,1703488053.953001,32.000000,0.000000,4243.333496,4186.410156,4263.846191,4215.641113,4205.897461,4156.922852,4249.615234,4252.051270,4233.333496,4199.871582,4453.974121,4416.538574,4321.153809,4391.538574,0.000000,4.000000,99.000000,,,,0.000000,4.000000,4.000000,4.000000,4.000000,4.000000,4.000000,4.000000,4.000000,4.000000,4.000000,4.000000,4.000000,4.000000,4.000000,100.000000,,,,,,,,,,,,,,,,,8.000000,0.000000,0.708503,-0.076355,-0.692017,0.115356,0.954218,-0.272006,0.022952,-11.257447,-40.250816,60.321445
1703488053.960391,1703488053.960809,33.000000,0.000000,4238.846191,4183.461426,4252.179688,4212.179688,4193.205078,4161.025879,4249.102539,4241.153809,4225.512695,4182.051270,4438.974121,4401.922852,4307.179688,4386.282227,0.000000,4.000000,99.000000,,,,0.000000,4.000000,4.000000,4.000000,4.000000,4.000000,4.000000,4.000000,4.000000,4.000000,4.000000,4.000000,4.000000,4.000000,4.000000,100.000000,,,,,,,,,,,,,,,,,,,,,,,,,,,,
1703488053.968199,1703488053.968516,34.000000,0.000000,4235.512695,4183.205078,4245.256348,4211.666504,4201.282227,4170.256348,4246.922852,4229.871582,4216.153809,4172.692383,4432.051270,4396.282227,4301.282227,4379.487305,0.000000,4.000000,99.000000,,,,0.000000,4.000000,4.000000,4.000000,4.000000,4.000000,4.000000,4.000000,4.000000,4.000000,4.000000,4.000000,4.000000,4.000000,4.000000,100.000000,,,,,,,,,,,,,,,,,,,,,,,,,,,,
1703488053.976007,1703488053.976425,35.000000,0.000000,4236.922852,4186.153809,4248.717773,4213.589844,4216.922852,4163.974121,4250.128418,4229.615234,4214.487305,4177.563965,4436.794922,4395.897461,4305.128418,4372.563965,0.000000,4.000000,99.000000,,,,0.000000,4.000000,4.000000,4.000000,4.000000,4.000000,4.000000,4.000000,4.000000,4.000000,4.000000,4.000000,4.000000,4.000000,4.000000,100.000000,,,,,,,,,,,,,,,,,,,,,,,,,,,,
1703488053.983816,1703488053.984233,36.000000,0.000000,4243.717773,4188.846191,4250.000000,4212.820313,4212.179688,4156.282227,4249.487305,4226.922852,4212.051270,4181.153809,4441.153809,4395.384766,4309.102539,4381.282227,0.000000,4.000000,99.000000,,,,0.000000,4.000000,4.000000,4.000000,4.000000,4.000000,4.000000,4.000000,4.000000,4.000000,4.000000,4.000000,4.000000,4.000000,4.000000,100.000000,,,,,,,,,,,,,,,,,9.000000,0.000000,0.708704,-0.076050,-0.691895,0.115051,0.962520,-0.287633,0.021975,-11.348369,-40.109070,60.489300
1703488053.991624,1703488053.992141,37.000000,0.000000,4244.743652,4192.307617,4244.230957,4209.871582,4198.077148,4164.230957,4246.794922,4215.897461,4202.692383,4174.487305,4436.538574,4392.948730,4308.077148,4387.820313,0.000000,4.000000,99.000000,,,,0.000000,4.000000,4.000000,4.000000,4.000000,4.000000,4.000000,4.000000,4.000000,4.000000,4.000000,4.000000,4.000000,4.000000,4.000000,100.000000,,,,,,,,,,,,,,,,,,,,,,,,,,,,
1703488053.999431,1703488053.999949,38.000000,0.000000,4245.000000,4197.179688,4245.641113,4211.666504,4201.153809,4169.615234,4246.666504,4213.333496,4198.461426,4170.256348,4437.948730,4394.102539,4309.871582,4388.333496,0.000000,4.000000,99.000000,,,,0.000000,4.000000,4.000000,4.000000,4.000000,4.000000,4.000000,4.000000,4.000000,4.000000,4.000000,4.000000,4.000000,4.000000,4.000000,100.000000,,,,,,,,,,,,,,,,,,,,,,,,,,,,
1703488054.007239,1703488054.007856,39.000000,0.000000,4258.589844,4198.589844,4261.025879,4218.589844,4205.384766,4165.128418,4246.282227,4219.871582,4200.641113,4173.846191,4449.615234,4406.538574,4317.820313,4401.282227,0.000000,4.000000,99.000000,,,,0.000000,4.000000,4.000000,4.000000,4.000000,4.000000,4.000000,4.000000,4.000000,4.000000,4.000000,4.000000,4.000000,4.000000,4.000000,100.000000,,,,,,,,,,,,,,,,,,,,,,,,,,,,
1703488054.015048,1703488054.015664,40.000000,0.000000,4276.153809,4203.974121,4277.948730,4226.794922,4201.410156,4165.000000,4247.307617,4229.230957,4211.153809,4181.794922,4462.948730,4430.641113,4329.743652,4417.563965,0.000000,4.000000,99.000000,,,,0.000000,4.000000,4.000000,4.000000,4.000000,4.000000,4.000000,4.000000,4.000000,4.000000,4.000000,4.000000,4.000000,4.000000,4.000000,100.000000,,,,,,,,,,,,,,,,,10.000000,0.000000,0.708995,-0.075745,-0.691650,0.114929,0.950311,-0.286168,0.020510,-11.413532,-40.181496,60.490372
1703488054.022856,1703488054.023572,41.000000,0.000000,4278.589844,4214.102539,4283.205078,4231.410156,4207.948730,4168.974121,4250.128418,4244.358887,4226.794922,4191.922852,4472.820313,4448.974121,4338.205078,4418.461426,0.000000,4.000000,99.000000,,,,0.000000,4.000000,4.000000,4.000000,4.000000,4.000000,4.000000,4.000000,4.000000,4.000000,4.000000,4.000000,4.000000,4.000000,4.000000,100.000000,,,,,,,,,,,,,,,,,,,,,,,,,,,,
1703488054.030664,1703488054.031380,42.000000,0.000000,4275.512695,4215.128418,4280.128418,4232.179688,4210.000000,4167.051270,4248.717773,4252.436035,4227.051270,4193.333496,4468.589844,4445.256348,4333.717773,4415.512695,0.000000,4.000000,99.000000,,,,0.000000,4.000000,4.000000,4.000000,4.000000,4.000000,4.000000,4.000000,4.000000,4.000000,4.000000,4.000000,4.000000,4.000000,4.000000,100.000000,,,,,,,,,,,,,,,,,,,,,,,,,,,,
1703488054.038472,1703488054.039288,43.000000,0.000000,4277.179688,4210.897461,4281.922852,4233.333496,4198.717773,4168.461426,4247.051270,4247.563965,4220.897461,4180.897461,4452.820313,4431.538574,4322.051270,4412.563965,0.000000,4.000000,99.000000,,,,0.000000,4.000000,4.000000,4.000000,4.000000,4.000000,4.000000,4.000000,4.000000,4.000000,4.000000,4.000000,4.000000,4.000000,4.000000,100.000000,,,,,,,,,,,,,,,,,,,,,,,,,,,,
1703488054.046280,1703488054.047096,44.000000,0.000000,4270.000000,4208.846191,4282.179688,4231.666504,4199.230957,4180.512695,4252.820313,4245.897461,4225.641113,4181.153809,4444.102539,4425.256348,4314.871582,4399.743652,0.000000,4.000000,99.000000,,,,0.000000,4.000000,4.000000,4.000000,4.000000,4.000000,4.000000,4.000000,4.000000,4.000000,4.000000,4.000000,4.000000,4.000000,4.000000,100.000000,,,,,,,,,,,,,,,,,11.000000,0.000000,0.709071,-0.075684,-0.691589,0.114868,0.950800,-0.276401,0.025882,-11.372179,-40.163345,60.374668
1703488054.054088,1703488054.055004,45.000000,0.000000,4253.846191,4203.205078,4270.897461,4227.563965,4211.794922,4186.794922,4256.538574,4250.897461,4230.128418,4189.615234,4444.487305,4421.666504,4309.102539,4391.538574,0.000000,4.000000,99.000000,,,,0.000000,4.000000,4.000000,4.000000,4.000000,4.000000,4.000000,4.000000,4.000000,4.000000,4.000000,4.000000,4.000000,4.000000,4.000000,100.000000,,,,,,,,,,,,,,,,,,,,,,,,,,,,
1703488054.061896,1703488054.062811,46.000000,0.000000,4245.512695,4201.538574,4261.794922,4227.563965,4224.102539,4187.692383,4258.077148,4250.384766,4228.205078,4188.974121,4447.692383,4413.205078,4308.589844,4389.871582,0.000000,4.000000,99.000000,,,,0.000000,4.000000,4.000000,4.000000,4.000000,4.000000,4.000000,4.000000,4.000000,4.000000,4.000000,4.000000,4.000000,4.000000,4.000000,100.000000,,,,,,,,,,,,,,,,,,,,,,,,,,,,
1703488054.069704,1703488054.070719,47.000000,0.000000,4247.179688,4211.282227,4265.641113,4235.000000,4236.025879,4195.256348,4264.487305,4246.025879,4231.282227,4194.358887,4457.179688,4410.769043,4320.256348,4389.871582,0.000000,4.000000,99.000000,,,,0.000000,4.000000,4.000000,4.000000,4.000000,4.000000,4.000000,4.000000,4.000000,4.000000,4.000000,4.000000,4.000000,4.000000,4.000000,100.000000,,,,,,,,,,,,,,,,,,,,,,,,,,,,
1703488054.077512,1703488054.078527,48.000000,0.000000,4254.358887,4216.282227,4266.410156,4240.512695,4235.897461,4199.487305,4267.692383,4248.461426,4236.410156,4205.384766,4469.743652,4420.641113,4333.717773,4401.922852,0.000000,4.000000,99.000000,,,,0.000000,4.000000,4.000000,4.000000,4.000000,4.000000,4.000000,4.000000,4.000000,4.000000,4.000000,4.000000,4.000000,4.000000,4.000000,100.000000,,,,,,,,,,,,,,,,,12.000000,0.000000,0.709087,-0.075806,-0.691589,0.114685,0.948846,-0.272494,0.025882,-11.218294,-40.063679,60.387199
1703488054.085320,1703488054.086235,49.000000,0.000000,4260.897461,4216.025879,4264.743652,4237.563965,4226.922852,4192.179688,4263.077148,4245.128418,4232.563965,4211.025879,4473.205078,4426.025879,4338.205078,4410.512695,0.000000,4.000000,99.000000,,,,0.000000,4.000000,4.000000,4.000000,4.000000,4.000000,4.000000,4.000000,4.000000,4.000000,4.000000,4.000000,4.000000,4.000000,4.000000,100.000000,,,,,,,,,,,,,,,,,,,,,,,,,,,,
1703488054.093128,1703488054.094042,50.000000,0.000000,4263.077148,4217.436035,4271.153809,4236.538574,4228.589844,4186.538574,4262.563965,4233.205078,4220.384766,4201.538574,4469.487305,4422.820313,4339.487305,4402.692383,0.000000,4.000000,99.000000,,,,0.000000,4.000000,4.000000,4.000000,4.000000,4.000000,4.000000,4.000000,4.000000,4.000000,4.000000,4.000000,4.000000,4.000000,4.000000,100.000000,,,,,,,,,,,,,,,,,,,,,,,,,,,,
1703488054.100936,1703488054.101750,51.000000,0.000000,4269.102539,4217.051270,4280.384766,4243.461426,4232.307617,4185.897461,4264.743652,4227.692383,4209.487305,4182.563965,4468.333496,4425.000000,4333.589844,4402.436035,0.000000,4.000000,99.000000,,,,0.000000,4.000000,4.000000,4.000000,4.000000,4.000000,4.000000,4.000000,4.000000,4.000000,4.000000,4.000000,4.000000,4.000000,4.000000,100.000000,,,,,,,,,,,,,,,,,,,,,,,,,,,,
1703488054.108744,1703488054.109558,52.000000,0.000000,4278.974121,4221.153809,4289.102539,4252.051270,4229.358887,4186.794922,4263.461426,4230.897461,4216.153809,4188.974121,4475.641113,4439.487305,4326.922852,4414.487305,0.000000,4.000000,99.000000,,,,0.000000,4.000000,4.000000,4.000000,4.000000,4.000000,4.000000,4.000000,4.000000,4.000000,4.000000,4.000000,4.000000,4.000000,4.000000,100.000000,,,,,,,,,,,,,,,,,13.000000,0.000000,0.709236,-0.075989,-0.691467,0.114380,0.947381,-0.272494,0.020510,-11.179798,-40.073978,60.298481
1703488054.116552,1703488054.117266,53.000000,0.000000,4284.487305,4230.512695,4297.692383,4256.153809,4226.922852,4192.179688,4263.846191,4236.922852,4228.333496,4212.692383,4477.436035,4449.102539,4333.589844,4416.282227,0.000000,4.000000,99.000000,,,,0.000000,4.000000,4.000000,4.000000,4.000000,4.000000,4.000000,4.000000,4.000000,4.000000,4.000000,4.000000,4.000000,4.000000,4.000000,100.000000,,,,,,,,,,,,,,,,,,,,,,,,,,,,
1703488054.124360,1703488054.125073,54.000000,0.000000,4285.897461,4233.717773,4297.820313,4258.077148,4219.102539,4191.153809,4262.692383,4242.563965,4225.256348,4206.794922,4471.666504,4443.205078,4338.717773,4413.717773,0.000000,4.000000,99.000000,,,,0.000000,4.000000,4.000000,4.000000,4.000000,4.000000,4.000000,4.000000,4.000000,4.000000,4.000000,4.000000,4.000000,4.000000,4.000000,100.000000,,,,,,,,,,,,,,,,,,,,,,,,,,,,
1703488054.132168,1703488054.132781,55.000000,0.000000,4285.512695,4233.333496,4294.487305,4260.256348,4213.205078,4183.461426,4259.615234,4246.153809,4222.307617,4192.948730,4477.179688,4440.512695,4338.333496,4418.717773,0.000000,4.000000,99.000000,,,,0.000000,4.000000,4.000000,4.000000,4.000000,4.000000,4.000000,4.000000,4.000000,4.000000,4.000000,4.000000,4.000000,4.000000,4.000000,100.000000,,,,,,,,,,,,,,,,,,,,,,,,,,,,
1703488054.139976,1703488054.140689,56.000000,0.000000,4286.922852,4241.025879,4296.282227,4263.589844,4225.897461,4188.077148,4262.820313,4250.769043,4233.205078,4205.256348,4490.769043,4453.589844,4345.128418,4426.025879,0.000000,4.000000,99.000000,,,,0.000000,4.000000,4.000000,4.000000,4.000000,4.000000,4.000000,4.000000,4.000000,4.000000,4.000000,4.000000,4.000000,4.000000,4.000000,100.000000,,,,,,,,,,,,,,,,,14.000000,0.000000,0.709186,-0.075989,-0.691528,0.114319,0.962031,-0.255402,0.012697,-11.145152,-40.133247,60.218632
1703488054.147784,1703488054.148497,57.000000,0.000000,4289.230957,4247.436035,4296.922852,4267.307617,4236.922852,4198.717773,4269.743652,4259.615234,4243.077148,4217.307617,4493.846191,4461.153809,4355.512695,4430.769043,0.000000,4.000000,99.000000,,,,0.000000,4.000000,4.000000,4.000000,4.000000,4.000000,4.000000,4.000000,4.000000,4.000000,4.000000,4.000000,4.000000,4.000000,4.000000,100.000000,,,,,,,,,,,,,,,,,,,,,,,,,,,,
1703488054.155592,1703488054.156405,58.000000,0.000000,4283.717773,4247.051270,4293.589844,4265.897461,4234.487305,4201.538574,4269.230957,4267.436035,4248.461426,4222.948730,4491.025879,4452.820313,4355.256348,4429.615234,0.000000,4.000000,99.000000,,,,0.000000,4.000000,4.000000,4.000000,4.000000,4.000000,4.000000,4.000000,4.000000,4.000000,4.000000,4.000000,4.000000,4.000000,4.000000,100.000000,,,,,,,,,,,,,,,,,,,,,,,,,,,,
1703488054.163400,1703488054.164214,59.000000,0.000000,4275.512695,4242.436035,4290.000000,4262.307617,4237.948730,4206.794922,4267.179688,4266.153809,4252.307617,4230.256348,4491.153809,4445.897461,4346.538574,4423.461426,0.000000,4.000000,99.000000,,,,0.000000,4.000000,4.000000,4.000000,4.000000,4.000000,4.000000,4.000000,4.000000,4.000000,4.000000,4.000000,4.000000,4.000000,4.000000,100.000000,,,,,,,,,,,,,,,,,,,,,,,,,,,,
1703488054.171208,1703488054.172022,60.000000,0.000000,4273.846191,4235.128418,4288.205078,4261.410156,4247.179688,4217.307617,4268.589844,4264.487305,4250.641113,4224.230957,4489.615234,4444.871582,4346.922852,4421.025879,0.000000,4.000000,99.000000,,,,0.000000,4.000000,4.000000,4.000000,4.000000,4.000000,4.000000,4.000000,4.000000,4.000000,4.000000,4.000000,4.000000,4.000000,4.000000,100.000000,,,,,,,,,,,,,,,,,15.000000,0.000000,0.709055,-0.076111,-0.691589,0.114685,0.961543,-0.276889,0.015139,-11.113970,-40.053253,60.230103
1703488054.179016,1703488054.179730,61.000000,0.000000,4275.128418,4232.307617,4291.666504,4264.743652,4248.846191,4217.948730,4270.128418,4270.641113,4255.641113,4220.897461,4495.769043,4452.051270,4353.461426,4425.128418,0.000000,4.000000,99.000000,,,,0.000000,4.000000,4.000000,4.000000,4.000000,4.000000,4.000000,4.000000,4.000000,4.000000,4.000000,4.000000,4.000000,4.000000,4.000000,100.000000,,,,,,,,,,,,,,,,,,,,,,,,,,,,
1703488054.186824,1703488054.187537,62.000000,0.000000,4277.051270,4231.922852,4294.487305,4264.615234,4243.589844,4216.794922,4270.128418,4274.743652,4264.615234,4227.436035,4503.333496,4463.205078,4350.128418,4427.563965,0.000000,4.000000,99.000000,,,,0.000000,4.000000,4.000000,4.000000,4.000000,4.000000,4.000000,4.000000,4.000000,4.000000,4.000000,4.000000,4.000000,4.000000,4.000000,100.000000,,,,,,,,,,,,,,,,,,,,,,,,,,,,
1703488054.194632,1703488054.195244,63.000000,0.000000,4278.589844,4232.436035,4295.384766,4263.461426,4238.846191,4220.000000,4267.692383,4268.974121,4260.384766,4228.717773,4499.102539,4467.436035,4344.358887,4427.436035,0.000000,4.000000,99.000000,,,,0.000000,4.000000,4.000000,4.000000,4.000000,4.000000,4.000000,4.000000,4.000000,4.000000,4.000000,4.000000,4.000000,4.000000,4.000000,100.000000,,,,,,,,,,,,,,,,,,,,,,,,,,,,
1703488054.202440,1703488054.203152,64.000000,0.000000,4280.512695,4235.897461,4300.897461,4270.256348,4231.282227,4216.410156,4268.846191,4262.692383,4250.128418,4225.000000,4492.948730,4469.487305,4345.000000,4430.256348,5494.000000,4.000000,99.000000,,,,0.000000,4.000000,4.000000,4.000000,4.000000,4.000000,4.000000,4.000000,4.000000,4.000000,4.000000,4.000000,4.000000,4.000000,4.000000,100.000000,,,,,,,,,,,,,,,,,16.000000,0.000000,0.709144,-0.076111,-0.691467,0.114868,0.946893,-0.272494,0.021975,-11.102573,-40.131264,60.223759
1703488054.210248,1703488054.210960,65.000000,0.000000,4289.358887,4245.128418,4312.051270,4278.205078,4228.974121,4213.205078,4269.487305,4265.256348,4245.512695,4217.948730,4492.820313,4474.358887,4341.025879,4431.025879,5614.000000,4.000000,99.000000,,,,0.000000,4.000000,4.000000,4.000000,4.000000,4.000000,4.000000,4.000000,4.000000,4.000000,4.000000,4.000000,4.000000,4.000000,4.000000,100.000000,,,,,,,,,,,,,,,,,,,,,,,,,,,,
1703488054.218056,1703488054.218868,66.000000,0.000000,4301.410156,4250.000000,4322.051270,4284.871582,4242.051270,4218.589844,4272.307617,4272.948730,4252.436035,4220.897461,4498.717773,4481.410156,4342.563965,4432.948730,5452.000000,4.000000,99.000000,,,,0.000000,4.000000,4.000000,4.000000,4.000000,4.000000,4.000000,4.000000,4.000000,4.000000,4.000000,4.000000,4.000000,4.000000,4.000000,100.000000,,,,,,,,,,,,,,,,,,,,,,,,,,,,
1703488054.225865,1703488054.226676,67.000000,0.000000,4312.436035,4250.512695,4327.436035,4292.051270,4246.666504,4219.615234,4275.769043,4279.615234,4260.128418,4238.461426,4508.205078,4485.897461,4361.153809,4445.128418,5571.000000,4.000000,99.000000,,,,0.000000,4.000000,4.000000,4.000000,4.000000,4.000000,4.000000,4.000000,4.000000,4.000000,4.000000,4.000000,4.000000,4.000000,4.000000,100.000000,,,,,,,,,,,,,,,,,,,,,,,,,,,,
1703488054.233673,1703488054.234584,68.000000,0.000000,4318.333496,4258.974121,4327.820313,4296.153809,4234.358887,4215.512695,4270.641113,4279.615234,4256.282227,4241.666504,4514.871582,4484.102539,4370.000000,4452.820313,4993.000000,4.000000,99.000000,,,,0.000000,4.000000,4.000000,4.000000,4.000000,4.000000,4.000000,4.000000,4.000000,4.000000,4.000000,4.000000,4.000000,4.000000,4.000000,100.000000,,,,,,,,,,,,,,,,,17.000000,0.000000,0.709150,-0.075684,-0.691528,0.114746,0.955683,-0.281284,0.022464,-11.192316,-40.151470,60.334717
1703488054.241480,1703488054.242391,69.000000,0.000000,4315.256348,4263.461426,4327.692383,4293.589844,4238.589844,4217.820313,4270.769043,4276.666504,4251.153809,4229.230957,4511.282227,4478.974121,4362.948730,4445.769043,4569.000000,4.000000,99.000000,,,,0.000000,4.000000,4.000000,4.000000,4.000000,4.000000,4.000000,4.000000,4.000000,4.000000,4.000000,4.000000,4.000000,4.000000,4.000000,100.000000,,,,,,,,,,,,,,,,,,,,,,,,,,,,
1703488054.249288,1703488054.250299,70.000000,0.000000,4310.769043,4256.410156,4328.461426,4291.666504,4257.563965,4221.025879,4279.487305,4284.102539,4258.589844,4229.743652,4510.128418,4479.615234,4363.333496,4443.846191,2494.000000,4.000000,99.000000,,,,0.000000,4.000000,4.000000,4.000000,4.000000,4.000000,4.000000,4.000000,4.000000,4.000000,4.000000,4.000000,4.000000,4.000000,4.000000,100.000000,,,,,,,,,,,,,,,,,,,,,,,,,,,,
1703488054.257097,1703488054.258107,71.000000,0.000000,4306.410156,4249.102539,4320.512695,4288.846191,4252.692383,4218.717773,4277.563965,4293.846191,4263.333496,4234.871582,4517.948730,4479.743652,4372.179688,4447.692383,4365.000000,4.000000,99.000000,,,,0.000000,4.000000,4.000000,4.000000,4.000000,4.000000,4.000000,4.000000,4.000000,4.000000,4.000000,4.000000,4.000000,4.000000,4.000000,100.000000,,,,,,,,,,,,,,,,,,,,,,,,,,,,
1703488054.264905,1703488054.266014,72.000000,0.000000,4297.692383,4244.743652,4311.410156,4282.051270,4239.743652,4218.461426,4270.384766,4296.153809,4262.820313,4230.256348,4524.102539,4474.487305,4375.128418,4445.128418,4904.000000,4.000000,99.000000,,,,0.000000,4.000000,4.000000,4.000000,4.000000,4.000000,4.000000,4.000000,4.000000,4.000000,4.000000,4.000000,4.000000,4.000000,4.000000,100.000000,,,,,,,,,,,,,,,,,18.000000,0.000000,0.709298,-0.075317,-0.691467,0.114441,0.945916,-0.263704,0.020510,-11.206417,-40.152988,60.251244
1703488054.272713,1703488054.273923,73.000000,0.000000,4291.538574,4241.666504,4311.538574,4278.846191,4251.410156,4221.410156,4276.794922,4297.692383,4272.436035,4238.717773,4525.384766,4475.256348,4374.358887,4446.282227,5318.000000,4.000000,99.000000,,,,0.000000,4.000000,4.000000,4.000000,4.000000,4.000000,4.000000,4.000000,4.000000,4.000000,4.000000,4.000000,4.000000,4.000000,4.000000,100.000000,,,,,,,,,,,,,,,,,,,,,,,,,,,,
1703488054.280521,1703488054.281731,74.000000,0.000000,4290.256348,4241.538574,4310.512695,4277.692383,4252.307617,4219.871582,4280.256348,4293.589844,4277.179688,4251.025879,4521.666504,4474.615234,4370.769043,4442.948730,5890.000000,4.000000,99.000000,,,,0.000000,4.000000,4.000000,4.000000,4.000000,4.000000,4.000000,4.000000,4.000000,4.000000,4.000000,4.000000,4.000000,4.000000,4.000000,100.000000,,,,,,,,,,,,,,,,,,,,,,,,,,,,
1703488054.288329,1703488054.289540,75.000000,0.000000,4292.051270,4244.743652,4312.436035,4279.743652,4236.666504,4215.897461,4275.384766,4282.692383,4269.487305,4238.333496,4513.846191,4468.846191,4361.666504,4430.128418,6257.000000,4.000000,99.000000,,,,0.000000,4.000000,4.000000,4.000000,4.000000,4.000000,4.000000,4.000000,4.000000,4.000000,4.000000,4.000000,4.000000,4.000000,4.000000,100.000000,,,,,,,,,,,,,,,,,,,,,,,,,,,,
1703488054.296137,1703488054.297247,76.000000,0.000000,4294.487305,4245.897461,4317.563965,4285.897461,4236.538574,4218.461426,4278.461426,4276.410156,4260.769043,4212.692383,4505.256348,4467.692383,4352.948730,4431.153809,6661.000000,4.000000,99.000000,,,,0.000000,4.000000,4.000000,4.000000,4.000000,4.000000,4.000000,4.000000,4.000000,4.000000,4.000000,4.000000,4.000000,4.000000,4.000000,100.000000,,,,,,,,,,,,,,,,,19.000000,0.000000,0.709702,-0.074768,-0.691223,0.113770,0.958125,-0.278843,0.015627,-11.235776,-40.137691,60.192787
1703488054.303945,1703488054.305055,77.000000,0.000000,4294.230957,4247.692383,4316.538574,4285.256348,4237.820313,4218.205078,4278.717773,4276.922852,4251.922852,4208.461426,4505.256348,4470.384766,4350.256348,4442.436035,6845.000000,4.000000,99.000000,,,,0.000000,4.000000,4.000000,4.000000,4.000000,4.000000,4.000000,4.000000,4.000000,4.000000,4.000000,4.000000,4.000000,4.000000,4.000000,100.000000,,,,,,,,,,,,,,,,,,,,,,,,,,,,
1703488054.311753,1703488054.312763,78.000000,0.000000,4298.205078,4246.282227,4317.948730,4283.077148,4236.410156,4216.666504,4277.436035,4278.077148,4250.897461,4227.948730,4510.512695,4474.102539,4356.025879,4443.461426,5890.000000,4.000000,99.000000,,,,0.000000,4.000000,4.000000,4.000000,4.000000,4.000000,4.000000,4.000000,4.000000,4.000000,4.000000,4.000000,4.000000,4.000000,4.000000,100.000000,,,,,,,,,,,,,,,,,,,,,,,,,,,,
1703488054.319561,1703488054.320570,79.000000,0.000000,4305.384766,4245.512695,4327.820313,4289.871582,4246.025879,4223.589844,4281.538574,4280.512695,4256.410156,4238.846191,4509.615234,4477.692383,4361.282227,4443.974121,6257.000000,4.000000,99.000000,,,,0.000000,4.000000,4.000000,4.000000,4.000000,4.000000,4.000000,4.000000,4.000000,4.000000,4.000000,4.000000,4.000000,4.000000,4.000000,100.000000,,,,,,,,,,,,,,,,,,,,,,,,,,,,
1703488054.327369,1703488054.328278,80.000000,0.000000,4302.179688,4249.743652,4327.563965,4292.179688,4247.820313,4223.461426,4281.153809,4283.333496,4252.051270,4229.230957,4504.743652,4478.333496,4353.974121,4445.897461,6661.000000,4.000000,99.000000,,,,0.000000,4.000000,4.000000,4.000000,4.000000,4.000000,4.000000,4.000000,4.000000,4.000000,4.000000,4.000000,4.000000,4.000000,4.000000,100.000000,,,,,,,,,,,,,,,,,20.000000,0.000000,0.709803,-0.074646,-0.691223,0.113220,0.949335,-0.265657,0.028324,-11.195532,-40.057255,60.206841
1703488054.335177,1703488054.336085,81.000000,0.000000,4292.179688,4246.282227,4316.538574,4281.153809,4238.205078,4217.307617,4277.948730,4285.128418,4245.000000,4220.000000,4501.282227,4472.179688,4346.025879,4437.563965,6845.000000,4.000000,99.000000,,,,0.000000,4.000000,4.000000,4.000000,4.000000,4.000000,4.000000,4.000000,4.000000,4.000000,4.000000,4.000000,4.000000,4.000000,4.000000,100.000000,,,,,,,,,,,,,,,,,,,,,,,,,,,,
1703488054.342985,1703488054.343793,82.000000,0.000000,4292.820313,4242.692383,4313.461426,4279.102539,4243.461426,4222.563965,4281.794922,4291.538574,4257.179688,4228.974121,4506.922852,4471.410156,4356.538574,4438.717773,5890.000000,4.000000,99.000000,,,,0.000000,4.000000,4.000000,4.000000,4.000000,4.000000,4.000000,4.000000,4.000000,4.000000,4.000000,4.000000,4.000000,4.000000,4.000000,100.000000,,,,,,,,,,,,,,,,,,,,,,,,,,,,
1703488054.350793,1703488054.351600,83.000000,0.000000,4296.794922,4248.846191,4312.436035,4285.000000,4252.692383,4232.563965,4284.871582,4298.205078,4263.974121,4237.307617,4514.871582,4471.025879,4369.102539,4448.717773,6257.000000,4.000000,99.000000,,,,0.000000,4.000000,4.000000,4.000000,4.000000,4.000000,4.000000,4.000000,4.000000,4.000000,4.000000,4.000000,4.000000,4.000000,4.000000,100.000000,,,,,,,,,,,,,,,,,,,,,,,,,,,,
1703488054.358601,1703488054.359308,84.000000,0.000000,4292.948730,4250.000000,4307.948730,4281.666504,4246.410156,4230.128418,4282.692383,4295.384766,4249.871582,4223.974121,4510.000000,4461.282227,4358.461426,4444.871582,6661.000000,4.000000,99.000000,,,,0.000000,4.000000,4.000000,4.000000,4.000000,4.000000,4.000000,4.000000,4.000000,4.000000,4.000000,4.000000,4.000000,4.000000,4.000000,100.000000,,,,,,,,,,,,,,,,,21.000000,0.000000,0.709964,-0.074707,-0.691101,0.112915,0.958125,-0.248565,0.025394,-11.242645,-39.934864,60.352825
1703488054.366409,1703488054.367116,85.000000,0.000000,4289.487305,4241.282227,4308.846191,4278.205078,4245.897461,4221.794922,4286.153809,4288.205078,4246.666504,4216.794922,4502.307617,4459.487305,4344.615234,4438.077148,6845.000000,4.000000,99.000000,,,,0.000000,4.000000,4.000000,4.000000,4.000000,4.000000,4.000000,4.000000,4.000000,4.000000,4.000000,4.000000,4.000000,4.000000,4.000000,100.000000,,,,,,,,,,,,,,,,,,,,,,,,,,,,
1703488054.374217,1703488054.374823,86.000000,0.000000,4290.000000,4238.589844,4311.794922,4280.769043,4253.077148,4218.846191,4288.333496,4280.256348,4254.230957,4224.871582,4500.256348,4458.461426,4345.641113,4435.897461,5890.000000,4.000000,99.000000,,,,0.000000,4.000000,4.000000,4.000000,4.000000,4.000000,4.000000,4.000000,4.000000,4.000000,4.000000,4.000000,4.000000,4.000000,4.000000,100.000000,,,,,,,,,,,,,,,,,,,,,,,,,,,,
1703488054.382025,1703488054.382631,87.000000,0.000000,4287.692383,4238.461426,4310.641113,4281.922852,4247.692383,4218.846191,4280.897461,4270.256348,4246.666504,4217.179688,4490.512695,4445.128418,4341.794922,4425.897461,6257.000000,4.000000,99.000000,,,,0.000000,4.000000,4.000000,4.000000,4.000000,4.000000,4.000000,4.000000,4.000000,4.000000,4.000000,4.000000,4.000000,4.000000,4.000000,100.000000,1.000000,75.000000,4.000000,4.000000,3.000000,3.000000,3.000000,3.000000,3.000000,4.000000,4.000000,3.000000,3.000000,3.000000,3.000000,4.000000,,,,,,,,,,,,
1703488054.389833,1703488054.390338,88.000000,0.000000,4280.512695,4231.922852,4308.077148,4277.307617,4233.589844,4217.179688,4276.666504,4260.897461,4235.384766,4196.922852,4482.436035,4440.384766,4328.974121,4417.948730,6661.000000,4.000000,99.000000,,,,0.000000,4.000000,4.000000,4.000000,4.000000,4.000000,4.000000,4.000000,4.000000,4.000000,4.000000,4.000000,4.000000,4.000000,4.000000,100.000000,,,,,,,,,,,,,,,,,22.000000,0.000000,0.710033,-0.074890,-0.691040,0.112732,0.958613,-0.266634,0.025882,-11.335047,-39.874710,60.400875
1703488054.397641,1703488054.398246,89.000000,0.000000,4280.384766,4234.743652,4308.461426,4277.563965,4234.615234,4211.794922,4279.102539,4265.512695,4241.025879,4203.846191,4488.974121,4454.743652,4331.666504,4424.358887,6845.000000,4.000000,99.000000,,,,0.000000,4.000000,4.000000,4.000000,4.000000,4.000000,4.000000,4.000000,4.000000,4.000000,4.000000,4.000000,4.000000,4.000000,4.000000,100.000000,,,,,,,,,,,,,,,,,,,,,,,,,,,,
1703488054.405449,1703488054.406054,90.000000,0.000000,4290.512695,4246.538574,4312.307617,4287.948730,4248.846191,4216.025879,4279.743652,4273.717773,4250.000000,4216.922852,4497.051270,4462.820313,4346.922852,4433.205078,5890.000000,4.000000,99.000000,,,,0.000000,4.000000,4.000000,4.000000,4.000000,4.000000,4.000000,4.000000,4.000000,4.000000,4.000000,4.000000,4.000000,4.000000,4.000000,100.000000,,,,,,,,,,,,,,,,,,,,,,,,,,,,
1703488054.413257,1703488054.413962,91.000000,0.000000,4296.538574,4247.948730,4317.948730,4293.333496,4251.282227,4227.948730,4278.077148,4269.358887,4249.102539,4210.769043,4500.512695,4465.512695,4350.897461,4438.461426,6257.000000,4.000000,99.000000,,,,0.000000,4.000000,4.000000,4.000000,4.000000,4.000000,4.000000,4.000000,4.000000,4.000000,4.000000,4.000000,4.000000,4.000000,4.000000,100.000000,,,,,,,,,,,,,,,,,,,,,,,,,,,,
1703488054.421065,1703488054.421770,92.000000,0.000000,4295.641113,4244.743652,4322.563965,4291.282227,4247.307617,4231.666504,4282.692383,4268.077148,4250.256348,4216.153809,4503.974121,4473.333496,4349.230957,4442.948730,6661.000000,4.000000,99.000000,,,,0.000000,4.000000,4.000000,4.000000,4.000000,4.000000,4.000000,4.000000,4.000000,4.000000,4.000000,4.000000,4.000000,4.000000,4.000000,100.000000,,,,,,,,,,,,,,,,,23.000000,0.000000,0.709991,-0.075012,-0.691040,0.112915,0.963008,-0.251007,0.020022,-11.368209,-39.853905,60.310787
1703488054.428873,1703488054.429678,93.000000,0.000000,4295.512695,4247.563965,4325.128418,4293.077148,4249.487305,4231.153809,4287.436035,4277.563965,4261.282227,4238.717773,4510.256348,4477.307617,4357.307617,4446.153809,6845.000000,4.000000,99.000000,,,,0.000000,4.000000,4.000000,4.000000,4.000000,4.000000,4.000000,4.000000,4.000000,4.000000,4.000000,4.000000,4.000000,4.000000,4.000000,100.000000,,,,,,,,,,,,,,,,,,,,,,,,,,,,
1703488054.436681,1703488054.437486,94.000000,0.000000,4298.461426,4250.769043,4324.871582,4297.307617,4245.000000,4231.666504,4285.384766,4282.307617,4266.410156,4243.205078,4519.230957,4480.000000,4366.025879,4447.051270,5890.000000,4.000000,99.000000,,,,0.000000,4.000000,4.000000,4.000000,4.000000,4.000000,4.000000,4.000000,4.000000,4.000000,4.000000,4.000000,4.000000,4.000000,4.000000,100.000000,,,,,,,,,,,,,,,,,,,,,,,,,,,,
1703488054.444489,1703488054.445393,95.000000,0.000000,4293.205078,4246.666504,4319.871582,4293.077148,4243.589844,4227.563965,4281.666504,4280.512695,4257.307617,4227.948730,4516.666504,4476.410156,4362.948730,4442.436035,6257.000000,4.000000,99.000000,,,,0.000000,4.000000,4.000000,4.000000,4.000000,4.000000,4.000000,4.000000,4.000000,4.000000,4.000000,4.000000,4.000000,4.000000,4.000000,100.000000,,,,,,,,,,,,,,,,,,,,,,,,,,,,
1703488054.452297,1703488054.453201,96.000000,0.000000,4280.256348,4240.256348,4308.717773,4283.846191,4249.871582,4220.128418,4282.307617,4280.384766,4247.179688,4215.769043,4497.692383,4462.307617,4348.974121,4431.025879,6661.000000,4.000000,99.000000,,,,0.000000,4.000000,4.000000,4.000000,4.000000,4.000000,4.000000,4.000000,4.000000,4.000000,4.000000,4.000000,4.000000,4.000000,4.000000,100.000000,,,,,,,,,,,,,,,,,24.000000,0.000000,0.709846,-0.075073,-0.691162,0.113037,0.956171,-0.276889,0.017092,-11.498055,-39.968513,60.313042
1703488054.460105,1703488054.461108,97.000000,0.000000,4273.974121,4235.256348,4298.717773,4276.410156,4242.051270,4217.692383,4281.538574,4279.230957,4245.256348,4213.461426,4485.897461,4453.589844,4337.692383,4421.025879,6845.000000,4.000000,99.000000,,,,0.000000,4.000000,4.000000,4.000000,4.000000,4.000000,4.000000,4.000000,4.000000,4.000000,4.000000,4.000000,4.000000,4.000000,4.000000,100.000000,,,,,,,,,,,,,,,,,,,,,,,,,,,,
1703488054.467914,1703488054.468916,98.000000,0.000000,4276.666504,4236.410156,4299.615234,4276.666504,4235.128418,4220.000000,4278.974121,4276.410156,4247.948730,4217.820313,4495.128418,4453.589844,4341.922852,4423.974121,5890.000000,4.000000,99.000000,,,,0.000000,4.000000,4.000000,4.000000,4.000000,4.000000,4.000000,4.000000,4.000000,4.000000,4.000000,4.000000,4.000000,4.000000,4.000000,100.000000,,,,,,,,,,,,,,,,,,,,,,,,,,,,
1703488054.475721,1703488054.476624,99.000000,0.000000,4280.256348,4245.512695,4307.307617,4286.922852,4246.794922,4225.256348,4280.641113,4279.102539,4246.794922,4213.717773,4504.358887,4453.461426,4349.102539,4430.256348,6257.000000,4.000000,99.000000,,,,0.000000,4.000000,4.000000,4.000000,4.000000,4.000000,4.000000,4.000000,4.000000,4.000000,4.000000,4.000000,4.000000,4.000000,4.000000,100.000000,,,,,,,,,,,,,,,,,,,,,,,,,,,,
1703488054.483529,1703488054.484432,100.000000,0.000000,4280.000000,4249.743652,4308.077148,4293.077148,4251.666504,4230.769043,4283.205078,4277.051270,4243.846191,4207.820313,4499.615234,4452.307617,4346.410156,4428.077148,6661.000000,4.000000,99.000000,,,,0.000000,4.000000,4.000000,4.000000,4.000000,4.000000,4.000000,4.000000,4.000000,4.000000,4.000000,4.000000,4.000000,4.000000,4.000000,100.000000,,,,,,,,,,,,,,,,,25.000000,0.000000,0.709671,-0.074951,-0.691345,0.113098,0.966427,-0.264681,0.023929,-11.481583,-39.938332,60.315071
1703488054.491338,1703488054.492139,101.000000,0.000000,4282.563965,4249.743652,4311.538574,4291.922852,4242.820313,4229.871582,4280.769043,4268.333496,4247.948730,4223.846191,4501.282227,4457.307617,4351.538574,4430.641113,6845.000000,4.000000,99.000000,,,,0.000000,4.000000,4.000000,4.000000,4.000000,4.000000,4.000000,4.000000,4.000000,4.000000,4.000000,4.000000,4.000000,4.000000,4.000000,100.000000,,,,,,,,,,,,,,,,,,,,,,,,,,,,
1703488054.499146,1703488054.499947,102.000000,0.000000,4293.461426,4255.128418,4324.102539,4293.717773,4248.974121,4229.487305,4281.153809,4260.512695,4253.974121,4238.077148,4508.333496,4461.410156,4361.666504,4442.051270,5890.000000,4.000000,99.000000,,,,0.000000,4.000000,4.000000,4.000000,4.000000,4.000000,4.000000,4.000000,4.000000,4.000000,4.000000,4.000000,4.000000,4.000000,4.000000,100.000000,,,,,,,,,,,,,,,,,,,,,,,,,,,,
1703488054.506954,1703488054.507654,103.000000,0.000000,4297.820313,4258.461426,4325.256348,4295.384766,4259.487305,4232.307617,4283.717773,4255.384766,4252.436035,4228.846191,4501.153809,4455.897461,4354.358887,4443.461426,6257.000000,4.000000,99.000000,,,,0.000000,4.000000,4.000000,4.000000,4.000000,4.000000,4.000000,4.000000,4.000000,4.000000,4.000000,4.000000,4.000000,4.000000,4.000000,100.000000,,,,,,,,,,,,,,,,,,,,,,,,,,,,
1703488054.514762,1703488054.515462,104.000000,0.000000,4285.256348,4254.871582,4311.410156,4292.820313,4248.077148,4231.153809,4280.128418,4248.333496,4244.230957,4212.948730,4492.179688,4444.358887,4345.256348,4432.948730,6661.000000,4.000000,99.000000,,,,0.000000,4.000000,4.000000,4.000000,4.000000,4.000000,4.000000,4.000000,4.000000,4.000000,4.000000,4.000000,4.000000,4.000000,4.000000,100.000000,,,,,,,,,,,,,,,,,26.000000,0.000000,0.709552,-0.074951,-0.691467,0.113098,0.955195,-0.276889,0.012697,-11.633425,-39.911163,60.450230
1703488054.522570,1703488054.523170,105.000000,0.000000,4276.282227,4249.487305,4301.538574,4289.102539,4238.461426,4230.000000,4276.794922,4244.230957,4242.692383,4216.025879,4498.717773,4438.846191,4353.589844,4427.948730,6845.000000,4.000000,99.000000,,,,0.000000,4.000000,4.000000,4.000000,4.000000,4.000000,4.000000,4.000000,4.000000,4.000000,4.000000,4.000000,4.000000,4.000000,4.000000,100.000000,,,,,,,,,,,,,,,,,,,,,,,,,,,,
1703488054.530378,1703488054.530977,106.000000,0.000000,4280.384766,4250.384766,4299.358887,4287.307617,4256.666504,4236.538574,4283.333496,4253.974121,4251.282227,4236.153809,4510.512695,4441.025879,4364.871582,4431.282227,5890.000000,4.000000,99.000000,,,,0.000000,4.000000,4.000000,4.000000,4.000000,4.000000,4.000000,4.000000,4.000000,4.000000,4.000000,4.000000,4.000000,4.000000,4.000000,100.000000,,,,,,,,,,,,,,,,,,,,,,,,,,,,
1703488054.538186,1703488054.538685,107.000000,0.000000,4273.846191,4257.948730,4295.641113,4287.563965,4267.948730,4241.666504,4286.410156,4261.666504,4252.820313,4237.948730,4506.025879,4434.230957,4363.077148,4428.077148,6257.000000,4.000000,99.000000,,,,0.000000,4.000000,4.000000,4.000000,4.000000,4.000000,4.000000,4.000000,4.000000,4.000000,4.000000,4.000000,4.000000,4.000000,4.000000,100.000000,,,,,,,,,,,,,,,,,,,,,,,,,,,,
1703488054.545994,1703488054.546593,108.000000,0.000000,4262.307617,4258.974121,4291.153809,4288.461426,4252.692383,4242.692383,4279.487305,4257.436035,4245.897461,4215.384766,4490.641113,4425.384766,4353.205078,4420.641113,6661.000000,4.000000,99.000000,,,,0.000000,4.000000,4.000000,4.000000,4.000000,4.000000,4.000000,4.000000,4.000000,4.000000,4.000000,4.000000,4.000000,4.000000,4.000000,100.000000,,,,,,,,,,,,,,,,,27.000000,0.000000,0.709199,-0.075012,-0.691772,0.113403,0.947870,-0.285679,0.018557,-11.570082,-39.836716,60.371876
1703488054.553802,1703488054.554401,109.000000,0.000000,4267.436035,4252.051270,4293.846191,4283.717773,4251.153809,4245.384766,4278.589844,4257.692383,4247.692383,4215.256348,4490.128418,4428.846191,4352.436035,4423.333496,6845.000000,4.000000,99.000000,,,,0.000000,4.000000,4.000000,4.000000,4.000000,4.000000,4.000000,4.000000,4.000000,4.000000,4.000000,4.000000,4.000000,4.000000,4.000000,100.000000,,,,,,,,,,,,,,,,,,,,,,,,,,,,
1703488054.561610,1703488054.562209,110.000000,0.000000,4276.282227,4250.897461,4297.436035,4277.820313,4264.615234,4243.333496,4284.487305,4262.563965,4251.666504,4233.077148,4506.922852,4437.051270,4361.922852,4437.563965,5890.000000,4.000000,99.000000,,,,0.000000,4.000000,4.000000,4.000000,4.000000,4.000000,4.000000,4.000000,4.000000,4.000000,4.000000,4.000000,4.000000,4.000000,4.000000,100.000000,,,,,,,,,,,,,,,,,,,,,,,,,,,,
1703488054.569418,1703488054.569917,111.000000,0.000000,4275.384766,4254.615234,4298.589844,4279.102539,4256.025879,4235.000000,4279.102539,4262.179688,4246.922852,4218.461426,4510.256348,4440.128418,4366.410156,4444.743652,6257.000000,4.000000,99.000000,,,,0.000000,4.000000,4.000000,4.000000,4.000000,4.000000,4.000000,4.000000,4.000000,4.000000,4.000000,4.000000,4.000000,4.000000,4.000000,100.000000,,,,,,,,,,,,,,,,,,,,,,,,,,,,
1703488054.577226,1703488054.577824,112.000000,0.000000,4276.922852,4254.358887,4303.077148,4284.102539,4237.948730,4229.230957,4267.563965,4259.615234,4242.563965,4201.153809,4501.922852,4443.461426,4363.589844,4440.897461,6661.000000,4.000000,99.000000,,,,0.000000,4.000000,4.000000,4.000000,4.000000,4.000000,4.000000,4.000000,4.000000,4.000000,4.000000,4.000000,4.000000,4.000000,4.000000,100.000000,,,,,,,,,,,,,,,,,28.000000,0.000000,0.709002,-0.075195,-0.691895,0.113770,0.959101,-0.273959,0.010743,-11.629741,-39.869709,60.284687
1703488054.585034,1703488054.585632,113.000000,0.000000,4285.769043,4260.128418,4314.743652,4288.461426,4242.436035,4229.487305,4269.871582,4262.820313,4246.410156,4219.615234,4511.922852,4454.358887,4369.230957,4447.436035,6845.000000,4.000000,99.000000,,,,0.000000,4.000000,4.000000,4.000000,4.000000,4.000000,4.000000,4.000000,4.000000,4.000000,4.000000,4.000000,4.000000,4.000000,4.000000,100.000000,,,,,,,,,,,,,,,,,,,,,,,,,,,,
1703488054.592842,1703488054.593540,114.000000,0.000000,4291.538574,4266.282227,4325.512695,4296.282227,4252.563965,4233.589844,4274.615234,4265.128418,4253.846191,4238.846191,4525.384766,4465.897461,4377.820313,4460.897461,5890.000000,4.000000,99.000000,,,,0.000000,4.000000,4.000000,4.000000,4.000000,4.000000,4.000000,4.000000,4.000000,4.000000,4.000000,4.000000,4.000000,4.000000,4.000000,100.000000,,,,,,,,,,,,,,,,,,,,,,,,,,,,
1703488054.600650,1703488054.601348,115.000000,0.000000,4295.128418,4265.384766,4329.487305,4303.333496,4250.641113,4234.358887,4270.384766,4266.666504,4262.948730,4241.794922,4526.025879,4468.717773,4380.769043,4464.487305,6257.000000,4.000000,99.000000,,,,0.000000,4.000000,4.000000,4.000000,4.000000,4.000000,4.000000,4.000000,4.000000,4.000000,4.000000,4.000000,4.000000,4.000000,4.000000,100.000000,,,,,,,,,,,,,,,,,,,,,,,,,,,,
1703488054.608458,1703488054.609256,116.000000,0.000000,4293.461426,4265.512695,4325.000000,4301.282227,4246.410156,4234.871582,4267.948730,4267.692383,4264.743652,4238.589844,4520.512695,4464.230957,4379.871582,4458.846191,6661.000000,4.000000,99.000000,,,,0.000000,4.000000,4.000000,4.000000,4.000000,4.000000,4.000000,4.000000,4.000000,4.000000,4.000000,4.000000,4.000000,4.000000,4.000000,100.000000,,,,,,,,,,,,,,,,,29.000000,0.000000,0.708976,-0.075256,-0.691895,0.113892,0.941521,-0.276889,0.029789,-11.666766,-39.832737,60.389553
1703488054.616266,1703488054.617064,117.000000,0.000000,4284.358887,4264.615234,4318.205078,4294.230957,4248.589844,4241.538574,4270.897461,4265.128418,4258.974121,4235.000000,4517.436035,4460.000000,4376.666504,4458.205078,6845.000000,4.000000,99.000000,,,,0.000000,4.000000,4.000000,4.000000,4.000000,4.000000,4.000000,4.000000,4.000000,4.000000,4.000000,4.000000,4.000000,4.000000,4.000000,100.000000,,,,,,,,,,,,,,,,,,,,,,,,,,,,
1703488054.624074,1703488054.624972,118.000000,0.000000,4279.358887,4265.000000,4315.256348,4293.333496,4250.384766,4250.128418,4272.563965,4265.641113,4262.436035,4239.230957,4520.128418,4455.512695,4379.871582,4458.333496,5890.000000,4.000000,99.000000,,,,0.000000,4.000000,4.000000,4.000000,4.000000,4.000000,4.000000,4.000000,4.000000,4.000000,4.000000,4.000000,4.000000,4.000000,4.000000,100.000000,,,,,,,,,,,,,,,,,,,,,,,,,,,,
1703488054.631882,1703488054.632780,119.000000,0.000000,4274.358887,4265.256348,4303.461426,4292.436035,4247.436035,4253.717773,4267.692383,4267.692383,4266.282227,4241.794922,4514.487305,4442.692383,4381.025879,4442.436035,6257.000000,4.000000,99.000000,,,,0.000000,4.000000,4.000000,4.000000,4.000000,4.000000,4.000000,4.000000,4.000000,4.000000,4.000000,4.000000,4.000000,4.000000,4.000000,100.000000,,,,,,,,,,,,,,,,,,,,,,,,,,,,
1703488054.639690,1703488054.640688,120.000000,0.000000,4271.025879,4259.871582,4296.153809,4290.512695,4253.333496,4256.410156,4267.820313,4269.102539,4262.436035,4239.230957,4507.692383,4441.538574,4370.641113,4431.794922,6661.000000,4.000000,99.000000,,,,0.000000,4.000000,4.000000,4.000000,4.000000,4.000000,4.000000,4.000000,4.000000,4.000000,4.000000,4.000000,4.000000,4.000000,4.000000,100.000000,,,,,,,,,,,,,,,,,30.000000,0.000000,0.709089,-0.075500,-0.691772,0.113770,0.958125,-0.268099,0.020022,-11.716757,-39.916130,60.300598
1703488054.647498,1703488054.648495,121.000000,0.000000,4280.512695,4264.358887,4310.897461,4295.384766,4266.666504,4261.538574,4276.025879,4275.512695,4266.410156,4251.025879,4520.641113,4457.820313,4370.769043,4445.641113,6845.000000,4.000000,99.000000,,,,0.000000,4.000000,4.000000,4.000000,4.000000,4.000000,4.000000,4.000000,4.000000,4.000000,4.000000,4.000000,4.000000,4.000000,4.000000,100.000000,,,,,,,,,,,,,,,,,,,,,,,,,,,,
1703488054.655306,1703488054.656203,122.000000,0.000000,4290.256348,4277.563965,4319.871582,4299.358887,4264.743652,4258.846191,4275.641113,4277.179688,4265.897461,4251.153809,4526.922852,4457.179688,4381.410156,4453.846191,5890.000000,4.000000,99.000000,,,,0.000000,4.000000,4.000000,4.000000,4.000000,4.000000,4.000000,4.000000,4.000000,4.000000,4.000000,4.000000,4.000000,4.000000,4.000000,100.000000,,,,,,,,,,,,,,,,,,,,,,,,,,,,
1703488054.663114,1703488054.664011,123.000000,0.000000,4290.256348,4275.128418,4312.307617,4292.820313,4248.333496,4249.871582,4263.589844,4267.820313,4246.025879,4223.846191,4503.205078,4439.358887,4372.948730,4444.102539,6257.000000,4.000000,99.000000,,,,0.000000,4.000000,4.000000,4.000000,4.000000,4.000000,4.000000,4.000000,4.000000,4.000000,4.000000,4.000000,4.000000,4.000000,4.000000,100.000000,,,,,,,,,,,,,,,,,,,,,,,,,,,,
1703488054.670922,1703488054.671719,124.000000,0.000000,4293.461426,4267.563965,4312.563965,4292.563965,4241.922852,4246.922852,4260.256348,4261.794922,4237.051270,4218.461426,4494.487305,4440.512695,4362.307617,4448.717773,6661.000000,4.000000,99.000000,,,,0.000000,4.000000,4.000000,4.000000,4.000000,4.000000,4.000000,4.000000,4.000000,4.000000,4.000000,4.000000,4.000000,4.000000,4.000000,100.000000,,,,,,,,,,,,,,,,,31.000000,0.000000,0.709389,-0.075562,-0.691528,0.113342,0.955195,-0.272006,0.026859,-11.811748,-39.941185,60.220535
1703488054.678730,1703488054.679526,125.000000,0.000000,4300.897461,4277.051270,4322.436035,4301.666504,4245.769043,4250.000000,4266.153809,4263.077148,4241.025879,4228.974121,4510.000000,4454.102539,4369.615234,4463.461426,6845.000000,4.000000,99.000000,,,,0.000000,4.000000,4.000000,4.000000,4.000000,4.000000,4.000000,4.000000,4.000000,4.000000,4.000000,4.000000,4.000000,4.000000,4.000000,100.000000,,,,,,,,,,,,,,,,,,,,,,,,,,,,
1703488054.686538,1703488054.687234,126.000000,0.000000,4306.025879,4284.102539,4325.769043,4303.205078,4247.179688,4249.230957,4266.153809,4261.922852,4233.974121,4225.256348,4512.179688,4460.641113,4372.179688,4466.410156,5890.000000,4.000000,99.000000,,,,0.000000,4.000000,4.000000,4.000000,4.000000,4.000000,4.000000,4.000000,4.000000,4.000000,4.000000,4.000000,4.000000,4.000000,4.000000,100.000000,,,,,,,,,,,,,,,,,,,,,,,,,,,,
1703488054.694346,1703488054.695042,127.000000,0.000000,4310.128418,4278.461426,4328.205078,4300.256348,4250.512695,4248.077148,4267.563965,4262.820313,4232.179688,4225.769043,4511.282227,4465.512695,4369.871582,4470.641113,99.000000,4.000000,99.000000,,,,0.000000,4.000000,4.000000,4.000000,4.000000,4.000000,4.000000,4.000000,4.000000,4.000000,4.000000,4.000000,4.000000,4.000000,4.000000,100.000000,,,,,,,,,,,,,,,,,,,,,,,,,,,,
1703488054.702155,1703488054.702750,0.000000,0.000000,4307.307617,4275.256348,4330.256348,4300.256348,4249.871582,4249.871582,4268.205078,4264.487305,4239.487305,4230.897461,4520.128418,4466.666504,4378.333496,4477.948730,5485.000000,4.000000,99.000000,,,,0.000000,4.000000,4.000000,4.000000,4.000000,4.000000,4.000000,4.000000,4.000000,4.000000,4.000000,4.000000,4.000000,4.000000,4.000000,100.000000,,,,,,,,,,,,,,,,,0.000000,0.000000,0.709856,-0.075256,-0.691162,0.112854,0.960566,-0.267611,0.031254,-11.730573,-40.030399,60.215149
1703488054.709962,1703488054.710658,1.000000,0.000000,4303.589844,4278.974121,4330.000000,4298.846191,4251.666504,4251.410156,4263.717773,4260.897461,4244.102539,4235.128418,4526.538574,4462.179688,4392.051270,4480.512695,5612.000000,4.000000,99.000000,,,,0.000000,4.000000,4.000000,4.000000,4.000000,4.000000,4.000000,4.000000,4.000000,4.000000,4.000000,4.000000,4.000000,4.000000,4.000000,100.000000,,,,,,,,,,,,,,,,,,,,,,,,,,,,
1703488054.717770,1703488054.718466,2.000000,0.000000,4303.589844,4280.769043,4328.077148,4297.307617,4255.897461,4256.666504,4265.256348,4263.589844,4257.436035,4247.820313,4527.563965,4462.179688,4394.871582,4475.769043,5447.000000,4.000000,99.000000,,,,0.000000,4.000000,4.000000,4.000000,4.000000,4.000000,4.000000,4.000000,4.000000,4.000000,4.000000,4.000000,4.000000,4.000000,4.000000,100.000000,,,,,,,,,,,,,,,,,,,,,,,,,,,,
1703488054.725578,1703488054.726374,3.000000,0.000000,4294.230957,4272.051270,4318.589844,4292.948730,4252.692383,4264.230957,4270.512695,4274.102539,4272.820313,4253.846191,4526.282227,4463.717773,4390.897461,4466.538574,5561.000000,4.000000,99.000000,,,,0.000000,4.000000,4.000000,4.000000,4.000000,4.000000,4.000000,4.000000,4.000000,4.000000,4.000000,4.000000,4.000000,4.000000,4.000000,100.000000,,,,,,,,,,,,,,,,,,,,,,,,,,,,
1703488054.733387,1703488054.734182,4.000000,0.000000,4280.641113,4261.538574,4308.846191,4281.282227,4254.615234,4272.179688,4270.769043,4278.333496,4276.666504,4248.717773,4526.153809,4456.025879,4394.615234,4461.666504,4981.000000,4.000000,99.000000,,,,0.000000,4.000000,4.000000,4.000000,4.000000,4.000000,4.000000,4.000000,4.000000,4.000000,4.000000,4.000000,4.000000,4.000000,4.000000,100.000000,,,,,,,,,,,,,,,,,1.000000,0.000000,0.709997,-0.075134,-0.691040,0.112793,0.949335,-0.267122,0.024417,-11.690848,-39.910694,60.276970
1703488054.741195,1703488054.741990,5.000000,0.000000,4277.179688,4257.307617,4306.282227,4276.282227,4267.436035,4278.846191,4268.717773,4273.846191,4277.051270,4253.461426,4525.000000,4447.692383,4393.974121,4459.615234,4564.000000,4.000000,99.000000,,,,0.000000,4.000000,4.000000,4.000000,4.000000,4.000000,4.000000,4.000000,4.000000,4.000000,4.000000,4.000000,4.000000,4.000000,4.000000,100.000000,,,,,,,,,,,,,,,,,,,,,,,,,,,,
1703488054.749003,1703488054.749698,6.000000,0.000000,4278.333496,4254.102539,4305.641113,4281.538574,4267.692383,4280.897461,4267.436035,4266.153809,4269.743652,4252.692383,4516.282227,4447.051270,4381.410156,4453.974121,2494.000000,4.000000,99.000000,,,,0.000000,4.000000,4.000000,4.000000,4.000000,4.000000,4.000000,4.000000,4.000000,4.000000,4.000000,4.000000,4.000000,4.000000,4.000000,100.000000,,,,,,,,,,,,,,,,,,,,,,,,,,,,
1703488054.756811,1703488054.757606,7.000000,0.000000,4272.948730,4252.307617,4301.538574,4278.461426,4258.461426,4280.256348,4265.641113,4260.769043,4252.692383,4232.179688,4503.333496,4437.948730,4375.000000,4443.205078,4363.000000,4.000000,99.000000,,,,0.000000,4.000000,4.000000,4.000000,4.000000,4.000000,4.000000,4.000000,4.000000,4.000000,4.000000,4.000000,4.000000,4.000000,4.000000,100.000000,,,,,,,,,,,,,,,,,,,,,,,,,,,,
1703488054.764619,1703488054.765414,8.000000,0.000000,4272.948730,4258.333496,4303.974121,4278.077148,4261.538574,4280.256348,4265.897461,4261.282227,4240.000000,4216.922852,4501.410156,4427.692383,4381.922852,4441.538574,4896.000000,4.000000,99.000000,,,,0.000000,4.000000,4.000000,4.000000,4.000000,4.000000,4.000000,4.000000,4.000000,4.000000,4.000000,4.000000,4.000000,4.000000,4.000000,100.000000,,,,,,,,,,,,,,,,,2.000000,0.000000,0.710346,-0.074829,-0.690735,0.112671,0.960078,-0.264192,0.021487,-11.805098,-39.869625,60.299271
1703488054.772427,1703488054.773321,9.000000,0.000000,4287.436035,4265.897461,4317.051270,4289.871582,4266.025879,4278.846191,4268.589844,4263.589844,4235.641113,4226.282227,4514.743652,4444.358887,4388.205078,4460.384766,5313.000000,4.000000,99.000000,,,,0.000000,4.000000,4.000000,4.000000,4.000000,4.000000,4.000000,4.000000,4.000000,4.000000,4.000000,4.000000,4.000000,4.000000,4.000000,100.000000,,,,,,,,,,,,,,,,,,,,,,,,,,,,
1703488054.780235,1703488054.781129,10.000000,0.000000,4300.641113,4272.948730,4327.436035,4300.000000,4260.128418,4276.922852,4266.922852,4262.051270,4233.846191,4239.358887,4527.820313,4470.641113,4392.692383,4477.179688,5891.000000,4.000000,99.000000,,,,0.000000,4.000000,4.000000,4.000000,4.000000,4.000000,4.000000,4.000000,4.000000,4.000000,4.000000,4.000000,4.000000,4.000000,4.000000,100.000000,,,,,,,,,,,,,,,,,,,,,,,,,,,,
1703488054.788043,1703488054.789037,11.000000,0.000000,4305.256348,4279.102539,4334.871582,4305.769043,4256.538574,4278.077148,4261.666504,4264.743652,4233.589844,4229.743652,4528.333496,4475.128418,4398.077148,4476.666504,6235.000000,4.000000,99.000000,,,,0.000000,4.000000,4.000000,4.000000,4.000000,4.000000,4.000000,4.000000,4.000000,4.000000,4.000000,4.000000,4.000000,4.000000,4.000000,100.000000,,,,,,,,,,,,,,,,,,,,,,,,,,,,
1703488054.795851,1703488054.796845,12.000000,0.000000,4311.410156,4282.307617,4343.589844,4311.410156,4257.179688,4280.128418,4263.077148,4273.846191,4239.871582,4221.410156,4528.205078,4480.897461,4401.153809,4481.025879,6639.000000,4.000000,99.000000,,,,0.000000,4.000000,4.000000,4.000000,4.000000,4.000000,4.000000,4.000000,4.000000,4.000000,4.000000,4.000000,4.000000,4.000000,4.000000,100.000000,,,,,,,,,,,,,,,,,3.000000,0.000000,0.710920,-0.074341,-0.690247,0.112366,0.955683,-0.261751,0.030765,-11.641254,-39.832661,60.286011
