title:فاكهاني يسار, start timestamp:1703489570.443223, stop timestamp:1703489581.226129, headset type:EPOCX, headset serial:E50206EF, headset firmware:720, channels:67, sampling rate:eeg_128;mot_32, samples:1382      , version:2.2, 
Timestamp,OriginalTimestamp,EEG.Counter,EEG.Interpolated,EEG.AF3,EEG.F7,EEG.F3,EEG.FC5,EEG.T7,EEG.P7,EEG.O1,EEG.O2,EEG.P8,EEG.T8,EEG.FC6,EEG.F4,EEG.F8,EEG.AF4,EEG.RawCq,EEG.Battery,EEG.BatteryPercent,MarkerIndex,MarkerType,MarkerValueInt,EEG.MarkerHardware,CQ.AF3,CQ.F7,CQ.F3,CQ.FC5,CQ.T7,CQ.P7,CQ.O1,CQ.O2,CQ.P8,CQ.T8,CQ.FC6,CQ.F4,CQ.F8,CQ.AF4,CQ.Overall,EQ.SampleRateQuality,EQ.OVERALL,EQ.AF3,EQ.F7,EQ.F3,EQ.FC5,EQ.T7,EQ.P7,EQ.O1,EQ.O2,EQ.P8,EQ.T8,EQ.FC6,EQ.F4,EQ.F8,EQ.AF4,MOT.CounterMems,MOT.InterpolatedMems,MOT.Q0,MOT.Q1,MOT.Q2,MOT.Q3,MOT.AccX,MOT.AccY,MOT.AccZ,MOT.MagX,MOT.MagY,MOT.MagZ
1703489570.443223,1703489570.443923,103.000000,0.000000,4308.846191,4248.077148,4341.153809,4314.358887,4233.077148,4272.179688,4266.025879,4250.384766,4307.948730,4217.051270,4589.230957,4487.051270,4453.589844,4544.487305,6118.000000,4.000000,95.000000,,,,0.000000,4.000000,4.000000,4.000000,4.000000,4.000000,4.000000,4.000000,4.000000,4.000000,4.000000,4.000000,4.000000,4.000000,4.000000,100.000000,,,,,,,,,,,,,,,,,,,,,,,,,,,,
1703489570.451031,1703489570.451631,104.000000,0.000000,4303.333496,4239.615234,4344.615234,4311.410156,4229.487305,4273.077148,4262.692383,4247.179688,4296.538574,4214.102539,4590.256348,4484.871582,4455.128418,4550.256348,6641.000000,4.000000,95.000000,,,,0.000000,4.000000,4.000000,4.000000,4.000000,4.000000,4.000000,4.000000,4.000000,4.000000,4.000000,4.000000,4.000000,4.000000,4.000000,100.000000,,,,,,,,,,,,,,,,,26.000000,0.000000,0.733232,-0.091492,-0.673767,-0.006104,0.985472,-0.134782,0.066414,-15.555493,-42.094601,64.843231
1703489570.458840,1703489570.459539,105.000000,0.000000,4293.333496,4234.743652,4335.128418,4306.025879,4228.461426,4266.410156,4261.153809,4236.282227,4290.128418,4199.358887,4576.666504,4475.769043,4433.333496,4531.794922,4557.000000,4.000000,95.000000,,,,0.000000,4.000000,4.000000,4.000000,4.000000,4.000000,4.000000,4.000000,4.000000,4.000000,4.000000,4.000000,4.000000,4.000000,4.000000,100.000000,,,,,,,,,,,,,,,,,,,,,,,,,,,,
1703489570.466648,1703489570.467347,106.000000,0.000000,4299.615234,4244.358887,4329.871582,4304.615234,4228.589844,4265.128418,4261.538574,4230.000000,4293.461426,4193.974121,4564.743652,4470.128418,4432.051270,4521.025879,5895.000000,4.000000,95.000000,,,,0.000000,4.000000,4.000000,4.000000,4.000000,4.000000,4.000000,4.000000,4.000000,4.000000,4.000000,4.000000,4.000000,4.000000,4.000000,100.000000,,,,,,,,,,,,,,,,,,,,,,,,,,,,
1703489570.474455,1703489570.475156,107.000000,0.000000,4297.307617,4241.922852,4333.717773,4309.615234,4230.000000,4270.384766,4263.205078,4241.410156,4305.641113,4211.666504,4575.769043,4475.512695,4445.384766,4524.230957,6118.000000,4.000000,95.000000,,,,0.000000,4.000000,4.000000,4.000000,4.000000,4.000000,4.000000,4.000000,4.000000,4.000000,4.000000,4.000000,4.000000,4.000000,4.000000,100.000000,,,,,,,,,,,,,,,,,,,,,,,,,,,,
1703489570.482263,1703489570.482863,108.000000,0.000000,4282.307617,4230.769043,4328.333496,4309.487305,4229.615234,4267.051270,4262.307617,4251.538574,4319.358887,4223.974121,4585.769043,4477.051270,4445.897461,4525.897461,6641.000000,4.000000,95.000000,,,,0.000000,4.000000,4.000000,4.000000,4.000000,4.000000,4.000000,4.000000,4.000000,4.000000,4.000000,4.000000,4.000000,4.000000,4.000000,100.000000,,,,,,,,,,,,,,,,,27.000000,0.000000,0.733279,-0.091553,-0.673706,-0.006287,0.986937,-0.122085,0.070321,-15.566610,-42.035141,64.892242
1703489570.490072,1703489570.490671,109.000000,0.000000,4284.871582,4230.512695,4320.897461,4300.384766,4227.051270,4261.282227,4258.717773,4247.051270,4321.922852,4216.538574,4575.641113,4474.102539,4440.384766,4534.102539,4557.000000,4.000000,95.000000,,,,0.000000,4.000000,4.000000,4.000000,4.000000,4.000000,4.000000,4.000000,4.000000,4.000000,4.000000,4.000000,4.000000,4.000000,4.000000,100.000000,,,,,,,,,,,,,,,,,,,,,,,,,,,,
1703489570.497880,1703489570.498378,110.000000,0.000000,4299.487305,4232.820313,4325.641113,4298.846191,4229.358887,4268.333496,4260.000000,4246.282227,4319.102539,4216.794922,4570.641113,4476.794922,4440.512695,4537.179688,5895.000000,4.000000,95.000000,,,,0.000000,4.000000,4.000000,4.000000,4.000000,4.000000,4.000000,4.000000,4.000000,4.000000,4.000000,4.000000,4.000000,4.000000,4.000000,100.000000,,,,,,,,,,,,,,,,,,,,,,,,,,,,
1703489570.505688,1703489570.506186,111.000000,0.000000,4303.077148,4236.282227,4327.051270,4309.871582,4230.769043,4272.692383,4263.461426,4249.102539,4317.820313,4222.307617,4573.974121,4474.230957,4437.563965,4526.282227,6118.000000,4.000000,95.000000,,,,0.000000,4.000000,4.000000,4.000000,4.000000,4.000000,4.000000,4.000000,4.000000,4.000000,4.000000,4.000000,4.000000,4.000000,4.000000,100.000000,,,,,,,,,,,,,,,,,,,,,,,,,,,,
1703489570.513496,1703489570.513893,112.000000,0.000000,4299.102539,4245.384766,4322.179688,4315.000000,4230.512695,4268.846191,4263.333496,4242.307617,4308.589844,4213.333496,4568.717773,4468.205078,4436.410156,4521.282227,6641.000000,4.000000,95.000000,,,,0.000000,4.000000,4.000000,4.000000,4.000000,4.000000,4.000000,4.000000,4.000000,4.000000,4.000000,4.000000,4.000000,4.000000,4.000000,100.000000,,,,,,,,,,,,,,,,,28.000000,0.000000,0.733166,-0.091553,-0.673828,-0.006409,0.982053,-0.116225,0.063484,-15.559950,-42.198292,64.836357
1703489570.521304,1703489570.521701,113.000000,0.000000,4295.641113,4246.922852,4327.820313,4311.794922,4229.743652,4267.307617,4263.846191,4240.000000,4297.307617,4204.615234,4567.307617,4471.538574,4442.692383,4526.025879,4557.000000,4.000000,95.000000,,,,0.000000,4.000000,4.000000,4.000000,4.000000,4.000000,4.000000,4.000000,4.000000,4.000000,4.000000,4.000000,4.000000,4.000000,4.000000,100.000000,,,,,,,,,,,,,,,,,,,,,,,,,,,,
1703489570.529112,1703489570.529409,114.000000,0.000000,4304.743652,4245.256348,4336.666504,4309.615234,4225.512695,4266.666504,4263.077148,4241.922852,4296.153809,4206.410156,4573.974121,4477.948730,4446.282227,4533.846191,5895.000000,4.000000,95.000000,,,,0.000000,4.000000,4.000000,4.000000,4.000000,4.000000,4.000000,4.000000,4.000000,4.000000,4.000000,4.000000,4.000000,4.000000,4.000000,100.000000,,,,,,,,,,,,,,,,,,,,,,,,,,,,
1703489570.536920,1703489570.537216,115.000000,0.000000,4306.666504,4243.461426,4331.794922,4302.563965,4219.358887,4265.384766,4257.820313,4236.025879,4292.051270,4202.692383,4570.256348,4475.641113,4431.666504,4534.871582,6118.000000,4.000000,95.000000,,,,0.000000,4.000000,4.000000,4.000000,4.000000,4.000000,4.000000,4.000000,4.000000,4.000000,4.000000,4.000000,4.000000,4.000000,4.000000,100.000000,,,,,,,,,,,,,,,,,,,,,,,,,,,,
1703489570.544728,1703489570.544924,116.000000,0.000000,4291.025879,4243.589844,4329.230957,4294.358887,4222.692383,4267.436035,4253.589844,4231.538574,4280.000000,4194.743652,4562.948730,4471.666504,4420.000000,4526.794922,6641.000000,4.000000,95.000000,,,,0.000000,4.000000,4.000000,4.000000,4.000000,4.000000,4.000000,4.000000,4.000000,4.000000,4.000000,4.000000,4.000000,4.000000,4.000000,100.000000,,,,,,,,,,,,,,,,,29.000000,0.000000,0.733133,-0.091370,-0.673889,-0.006348,0.982542,-0.124039,0.069833,-15.520621,-42.328465,64.719383
1703489570.552536,1703489570.552731,117.000000,0.000000,4300.128418,4250.000000,4335.128418,4294.743652,4225.769043,4268.461426,4250.512695,4230.128418,4278.461426,4196.282227,4567.307617,4472.820313,4431.922852,4530.256348,4557.000000,4.000000,95.000000,,,,0.000000,4.000000,4.000000,4.000000,4.000000,4.000000,4.000000,4.000000,4.000000,4.000000,4.000000,4.000000,4.000000,4.000000,4.000000,100.000000,,,,,,,,,,,,,,,,,,,,,,,,,,,,
1703489570.560344,1703489570.560439,118.000000,0.000000,4309.230957,4244.743652,4330.769043,4294.615234,4219.743652,4269.743652,4246.538574,4231.282227,4287.563965,4199.230957,4569.230957,4472.307617,4434.358887,4537.820313,5895.000000,4.000000,95.000000,,,,0.000000,4.000000,4.000000,4.000000,4.000000,4.000000,4.000000,4.000000,4.000000,4.000000,4.000000,4.000000,4.000000,4.000000,4.000000,100.000000,,,,,,,,,,,,,,,,,,,,,,,,,,,,
1703489570.568152,1703489570.568347,119.000000,0.000000,4293.461426,4237.436035,4330.384766,4292.307617,4223.077148,4272.179688,4247.051270,4237.436035,4292.307617,4200.128418,4564.358887,4470.769043,4421.794922,4526.666504,6118.000000,4.000000,95.000000,,,,0.000000,4.000000,4.000000,4.000000,4.000000,4.000000,4.000000,4.000000,4.000000,4.000000,4.000000,4.000000,4.000000,4.000000,4.000000,100.000000,,,,,,,,,,,,,,,,,,,,,,,,,,,,
1703489570.575960,1703489570.576155,120.000000,0.000000,4300.384766,4248.077148,4338.333496,4296.153809,4227.307617,4271.282227,4250.000000,4240.897461,4299.230957,4208.077148,4570.384766,4473.846191,4425.641113,4522.436035,6641.000000,4.000000,95.000000,,,,0.000000,4.000000,4.000000,4.000000,4.000000,4.000000,4.000000,4.000000,4.000000,4.000000,4.000000,4.000000,4.000000,4.000000,4.000000,100.000000,,,,,,,,,,,,,,,,,30.000000,0.000000,0.733267,-0.091187,-0.673767,-0.006470,0.981077,-0.125992,0.077646,-15.468559,-42.345615,64.597443
1703489570.583768,1703489570.584062,121.000000,0.000000,4311.666504,4249.358887,4332.563965,4293.717773,4221.410156,4270.641113,4248.205078,4241.922852,4311.025879,4218.589844,4579.871582,4475.769043,4436.153809,4537.436035,4557.000000,4.000000,95.000000,,,,0.000000,4.000000,4.000000,4.000000,4.000000,4.000000,4.000000,4.000000,4.000000,4.000000,4.000000,4.000000,4.000000,4.000000,4.000000,100.000000,,,,,,,,,,,,,,,,,,,,,,,,,,,,
1703489570.591576,1703489570.591870,122.000000,0.000000,4293.974121,4241.282227,4324.487305,4282.692383,4222.051270,4275.256348,4247.563965,4246.666504,4315.128418,4218.846191,4576.153809,4472.436035,4435.769043,4537.307617,5895.000000,4.000000,95.000000,,,,0.000000,4.000000,4.000000,4.000000,4.000000,4.000000,4.000000,4.000000,4.000000,4.000000,4.000000,4.000000,4.000000,4.000000,4.000000,100.000000,,,,,,,,,,,,,,,,,,,,,,,,,,,,
1703489570.599384,1703489570.599778,123.000000,0.000000,4293.717773,4254.358887,4328.077148,4286.282227,4226.538574,4279.358887,4249.743652,4248.589844,4311.410156,4206.922852,4570.897461,4472.563965,4431.538574,4524.230957,6118.000000,4.000000,95.000000,,,,0.000000,4.000000,4.000000,4.000000,4.000000,4.000000,4.000000,4.000000,4.000000,4.000000,4.000000,4.000000,4.000000,4.000000,4.000000,100.000000,,,,,,,,,,,,,,,,,,,,,,,,,,,,
1703489570.607192,1703489570.607586,124.000000,0.000000,4312.179688,4264.871582,4328.205078,4297.948730,4225.512695,4277.436035,4249.230957,4243.589844,4306.153809,4197.307617,4572.692383,4475.256348,4428.846191,4522.307617,6641.000000,4.000000,95.000000,,,,0.000000,4.000000,4.000000,4.000000,4.000000,4.000000,4.000000,4.000000,4.000000,4.000000,4.000000,4.000000,4.000000,4.000000,4.000000,100.000000,,,,,,,,,,,,,,,,,31.000000,0.000000,0.733435,-0.091187,-0.673584,-0.006531,0.991332,-0.127457,0.084971,-15.355037,-42.344387,64.721039
1703489570.615000,1703489570.615493,125.000000,0.000000,4300.512695,4251.025879,4326.153809,4294.487305,4225.641113,4271.410156,4248.205078,4238.077148,4297.692383,4197.051270,4572.563965,4472.948730,4427.948730,4526.025879,4557.000000,4.000000,95.000000,,,,0.000000,4.000000,4.000000,4.000000,4.000000,4.000000,4.000000,4.000000,4.000000,4.000000,4.000000,4.000000,4.000000,4.000000,4.000000,100.000000,,,,,,,,,,,,,,,,,,,,,,,,,,,,
1703489570.622808,1703489570.623301,126.000000,0.000000,4286.025879,4242.307617,4327.820313,4286.153809,4228.846191,4270.641113,4249.487305,4232.436035,4286.922852,4199.102539,4572.051270,4466.153809,4433.461426,4525.256348,5895.000000,4.000000,95.000000,,,,0.000000,4.000000,4.000000,4.000000,4.000000,4.000000,4.000000,4.000000,4.000000,4.000000,4.000000,4.000000,4.000000,4.000000,4.000000,100.000000,,,,,,,,,,,,,,,,,,,,,,,,,,,,
1703489570.630616,1703489570.631209,127.000000,0.000000,4300.641113,4247.051270,4324.487305,4290.897461,4225.000000,4276.794922,4248.461426,4226.153809,4277.051270,4194.871582,4572.051270,4451.794922,4431.794922,4523.461426,95.000000,4.000000,95.000000,,,,0.000000,4.000000,4.000000,4.000000,4.000000,4.000000,4.000000,4.000000,4.000000,4.000000,4.000000,4.000000,4.000000,4.000000,4.000000,100.000000,,,,,,,,,,,,,,,,,,,,,,,,,,,,
1703489570.638424,1703489570.639016,0.000000,0.000000,4307.820313,4247.563965,4329.871582,4295.769043,4226.538574,4278.589844,4249.102539,4225.897461,4271.153809,4191.153809,4569.230957,4443.077148,4417.051270,4523.205078,5556.000000,4.000000,95.000000,,,,0.000000,4.000000,4.000000,4.000000,4.000000,4.000000,4.000000,4.000000,4.000000,4.000000,4.000000,4.000000,4.000000,4.000000,4.000000,100.000000,,,,,,,,,,,,,,,,,0.000000,0.000000,0.733442,-0.091125,-0.673584,-0.006653,0.979123,-0.119155,0.076181,-15.386200,-42.343285,64.665596
1703489570.646232,1703489570.646724,1.000000,0.000000,4299.615234,4243.333496,4342.948730,4292.948730,4232.436035,4276.410156,4252.563965,4227.436035,4270.384766,4201.922852,4575.769043,4445.897461,4418.205078,4527.179688,5120.000000,4.000000,95.000000,,,,0.000000,4.000000,4.000000,4.000000,4.000000,4.000000,4.000000,4.000000,4.000000,4.000000,4.000000,4.000000,4.000000,4.000000,4.000000,100.000000,,,,,,,,,,,,,,,,,,,,,,,,,,,,
1703489570.654040,1703489570.654532,2.000000,0.000000,4310.769043,4250.000000,4346.538574,4298.077148,4231.153809,4279.871582,4254.487305,4231.025879,4276.282227,4222.436035,4590.128418,4445.384766,4438.461426,4536.666504,5374.000000,4.000000,95.000000,,,,0.000000,4.000000,4.000000,4.000000,4.000000,4.000000,4.000000,4.000000,4.000000,4.000000,4.000000,4.000000,4.000000,4.000000,4.000000,100.000000,,,,,,,,,,,,,,,,,,,,,,,,,,,,
1703489570.661848,1703489570.662240,3.000000,0.000000,4327.563965,4256.666504,4346.794922,4304.743652,4230.512695,4282.051270,4258.589844,4240.512695,4288.077148,4242.820313,4600.641113,4445.897461,4445.769043,4550.000000,5300.000000,4.000000,95.000000,,,,0.000000,4.000000,4.000000,4.000000,4.000000,4.000000,4.000000,4.000000,4.000000,4.000000,4.000000,4.000000,4.000000,4.000000,4.000000,100.000000,,,,,,,,,,,,,,,,,,,,,,,,,,,,
1703489570.669657,1703489570.670048,4.000000,0.000000,4317.179688,4252.179688,4350.000000,4299.615234,4233.205078,4278.333496,4259.358887,4246.922852,4299.871582,4259.358887,4607.307617,4453.589844,4445.512695,4555.000000,5026.000000,4.000000,95.000000,,,,0.000000,4.000000,4.000000,4.000000,4.000000,4.000000,4.000000,4.000000,4.000000,4.000000,4.000000,4.000000,4.000000,4.000000,4.000000,100.000000,,,,,,,,,,,,,,,,,1.000000,0.000000,0.733393,-0.091064,-0.673645,-0.006653,0.982542,-0.127945,0.076670,-15.364246,-42.458954,64.649040
1703489570.677465,1703489570.677755,5.000000,0.000000,4308.077148,4253.205078,4351.282227,4292.563965,4234.102539,4281.794922,4258.077148,4248.974121,4306.794922,4275.769043,4604.743652,4454.615234,4445.000000,4547.948730,2217.000000,4.000000,95.000000,,,,0.000000,4.000000,4.000000,4.000000,4.000000,4.000000,4.000000,4.000000,4.000000,4.000000,4.000000,4.000000,4.000000,4.000000,4.000000,100.000000,,,,,,,,,,,,,,,,,,,,,,,,,,,,
1703489570.685273,1703489570.685563,6.000000,0.000000,4316.538574,4257.948730,4354.230957,4293.077148,4235.128418,4289.871582,4261.538574,4256.153809,4313.461426,4291.153809,4606.538574,4448.333496,4440.769043,4538.717773,3779.000000,4.000000,95.000000,,,,0.000000,4.000000,4.000000,4.000000,4.000000,4.000000,4.000000,4.000000,4.000000,4.000000,4.000000,4.000000,4.000000,4.000000,4.000000,100.000000,,,,,,,,,,,,,,,,,,,,,,,,,,,,
1703489570.693081,1703489570.693271,7.000000,0.000000,4321.153809,4256.025879,4355.000000,4287.051270,4235.000000,4288.589844,4261.282227,4260.641113,4317.563965,4300.384766,4618.974121,4444.615234,4446.282227,4534.871582,4767.000000,4.000000,95.000000,,,,0.000000,4.000000,4.000000,4.000000,4.000000,4.000000,4.000000,4.000000,4.000000,4.000000,4.000000,4.000000,4.000000,4.000000,4.000000,100.000000,1.000000,91.666664,4.000000,4.000000,4.000000,4.000000,4.000000,4.000000,4.000000,4.000000,4.000000,3.000000,4.000000,4.000000,4.000000,4.000000,,,,,,,,,,,,
1703489570.700889,1703489570.701078,8.000000,0.000000,4318.077148,4258.589844,4346.666504,4279.871582,4234.358887,4282.948730,4258.333496,4251.153809,4309.871582,4300.256348,4616.410156,4441.410156,4449.102539,4535.641113,4520.000000,4.000000,95.000000,,,,0.000000,4.000000,4.000000,4.000000,4.000000,4.000000,4.000000,4.000000,4.000000,4.000000,4.000000,4.000000,4.000000,4.000000,4.000000,100.000000,,,,,,,,,,,,,,,,,2.000000,0.000000,0.733417,-0.090881,-0.673645,-0.006470,0.988402,-0.125992,0.068368,-15.311155,-42.446392,64.684135
1703489570.708697,1703489570.708786,9.000000,0.000000,4320.000000,4261.410156,4340.897461,4284.871582,4240.128418,4283.589844,4260.769043,4243.717773,4297.692383,4291.025879,4601.025879,4437.692383,4434.615234,4535.000000,5220.000000,4.000000,95.000000,,,,0.000000,4.000000,4.000000,4.000000,4.000000,4.000000,4.000000,4.000000,4.000000,4.000000,4.000000,4.000000,4.000000,4.000000,4.000000,100.000000,,,,,,,,,,,,,,,,,,,,,,,,,,,,
1703489570.716505,1703489570.716593,10.000000,0.000000,4309.743652,4249.743652,4341.666504,4284.871582,4240.769043,4286.794922,4263.717773,4245.897461,4289.358887,4280.000000,4593.717773,4436.153809,4423.717773,4531.153809,5926.000000,4.000000,95.000000,,,,0.000000,4.000000,4.000000,4.000000,4.000000,4.000000,4.000000,4.000000,4.000000,4.000000,4.000000,4.000000,4.000000,4.000000,4.000000,100.000000,,,,,,,,,,,,,,,,,,,,,,,,,,,,
1703489570.724313,1703489570.724301,11.000000,0.000000,4289.615234,4247.179688,4335.641113,4277.179688,4236.153809,4285.641113,4261.025879,4246.025879,4282.179688,4277.948730,4592.563965,4437.307617,4426.282227,4519.871582,6120.000000,4.000000,95.000000,,,,0.000000,4.000000,4.000000,4.000000,4.000000,4.000000,4.000000,4.000000,4.000000,4.000000,4.000000,4.000000,4.000000,4.000000,4.000000,100.000000,,,,,,,,,,,,,,,,,,,,,,,,,,,,
1703489570.732121,1703489570.732108,12.000000,0.000000,4294.102539,4257.563965,4328.589844,4274.871582,4240.000000,4285.128418,4260.769043,4240.128418,4278.205078,4279.230957,4587.051270,4437.692383,4423.461426,4508.846191,6631.000000,4.000000,95.000000,,,,0.000000,4.000000,4.000000,4.000000,4.000000,4.000000,4.000000,4.000000,4.000000,4.000000,4.000000,4.000000,4.000000,4.000000,4.000000,100.000000,,,,,,,,,,,,,,,,,3.000000,0.000000,0.733330,-0.090698,-0.673767,-0.006226,0.993774,-0.123062,0.076670,-15.363373,-42.401752,64.682388
1703489570.739929,1703489570.739816,13.000000,0.000000,4301.794922,4252.051270,4326.282227,4270.897461,4241.025879,4290.769043,4261.410156,4234.102539,4276.282227,4268.717773,4573.846191,4433.461426,4405.512695,4503.846191,4552.000000,4.000000,95.000000,,,,0.000000,4.000000,4.000000,4.000000,4.000000,4.000000,4.000000,4.000000,4.000000,4.000000,4.000000,4.000000,4.000000,4.000000,4.000000,100.000000,,,,,,,,,,,,,,,,,,,,,,,,,,,,
1703489570.747737,1703489570.747623,14.000000,0.000000,4295.769043,4244.615234,4327.436035,4263.846191,4232.436035,4292.436035,4258.717773,4237.692383,4276.538574,4263.974121,4570.000000,4433.974121,4398.205078,4510.000000,5926.000000,4.000000,95.000000,,,,0.000000,4.000000,4.000000,4.000000,4.000000,4.000000,4.000000,4.000000,4.000000,4.000000,4.000000,4.000000,4.000000,4.000000,4.000000,100.000000,,,,,,,,,,,,,,,,,,,,,,,,,,,,
1703489570.755545,1703489570.755331,15.000000,0.000000,4299.743652,4249.487305,4334.871582,4265.641113,4231.794922,4287.436035,4259.615234,4247.820313,4285.769043,4280.384766,4588.461426,4444.230957,4417.436035,4523.717773,6120.000000,4.000000,95.000000,,,,0.000000,4.000000,4.000000,4.000000,4.000000,4.000000,4.000000,4.000000,4.000000,4.000000,4.000000,4.000000,4.000000,4.000000,4.000000,100.000000,,,,,,,,,,,,,,,,,,,,,,,,,,,,
1703489570.763353,1703489570.763239,16.000000,0.000000,4303.974121,4247.436035,4340.512695,4266.025879,4235.512695,4287.563965,4262.179688,4251.666504,4298.205078,4293.589844,4602.948730,4451.153809,4432.307617,4527.179688,0.000000,4.000000,95.000000,,,,0.000000,4.000000,4.000000,4.000000,4.000000,4.000000,4.000000,4.000000,4.000000,4.000000,4.000000,4.000000,4.000000,4.000000,4.000000,100.000000,,,,,,,,,,,,,,,,,4.000000,0.000000,0.733227,-0.090637,-0.673889,-0.006042,0.987425,-0.133317,0.078623,-15.343702,-42.511578,64.664146
1703489570.771161,1703489570.771047,17.000000,0.000000,4296.922852,4236.282227,4335.897461,4254.871582,4231.282227,4289.102539,4257.179688,4250.512695,4297.948730,4295.512695,4600.384766,4445.128418,4427.436035,4524.487305,0.000000,4.000000,95.000000,,,,0.000000,4.000000,4.000000,4.000000,4.000000,4.000000,4.000000,4.000000,4.000000,4.000000,4.000000,4.000000,4.000000,4.000000,4.000000,100.000000,,,,,,,,,,,,,,,,,,,,,,,,,,,,
1703489570.778969,1703489570.778955,18.000000,0.000000,4293.846191,4231.538574,4334.102539,4238.589844,4229.615234,4284.615234,4254.615234,4250.256348,4293.589844,4291.153809,4599.358887,4440.769043,4427.179688,4525.897461,0.000000,4.000000,95.000000,,,,0.000000,4.000000,4.000000,4.000000,4.000000,4.000000,4.000000,4.000000,4.000000,4.000000,4.000000,4.000000,4.000000,4.000000,4.000000,100.000000,,,,,,,,,,,,,,,,,,,,,,,,,,,,
1703489570.786777,1703489570.786762,19.000000,0.000000,4285.128418,4232.436035,4338.205078,4219.487305,4230.128418,4283.461426,4256.794922,4250.897461,4297.948730,4285.897461,4599.615234,4444.615234,4426.153809,4524.358887,0.000000,4.000000,95.000000,,,,0.000000,4.000000,4.000000,4.000000,4.000000,4.000000,4.000000,4.000000,4.000000,4.000000,4.000000,4.000000,4.000000,4.000000,4.000000,100.000000,,,,,,,,,,,,,,,,,,,,,,,,,,,,
1703489570.794585,1703489570.794670,20.000000,0.000000,4269.487305,4232.179688,4333.333496,4208.589844,4226.922852,4287.436035,4255.000000,4249.230957,4295.769043,4285.256348,4593.846191,4442.436035,4413.846191,4516.025879,0.000000,4.000000,95.000000,,,,0.000000,4.000000,4.000000,4.000000,4.000000,4.000000,4.000000,4.000000,4.000000,4.000000,4.000000,4.000000,4.000000,4.000000,4.000000,100.000000,,,,,,,,,,,,,,,,,5.000000,0.000000,0.733115,-0.090637,-0.674011,-0.005981,0.985472,-0.122085,0.062508,-15.425999,-42.443752,64.697731
1703489570.802393,1703489570.802478,21.000000,0.000000,4286.794922,4232.692383,4324.615234,4207.051270,4226.666504,4287.436035,4253.717773,4246.794922,4283.846191,4281.922852,4590.256348,4439.615234,4410.384766,4510.256348,0.000000,4.000000,95.000000,,,,0.000000,4.000000,4.000000,4.000000,4.000000,4.000000,4.000000,4.000000,4.000000,4.000000,4.000000,4.000000,4.000000,4.000000,4.000000,100.000000,,,,,,,,,,,,,,,,,,,,,,,,,,,,
1703489570.810201,1703489570.810385,22.000000,0.000000,4302.051270,4230.000000,4323.333496,4202.307617,4227.692383,4284.871582,4254.871582,4245.897461,4278.077148,4276.282227,4588.974121,4443.589844,4416.410156,4510.769043,0.000000,4.000000,95.000000,,,,0.000000,4.000000,4.000000,4.000000,4.000000,4.000000,4.000000,4.000000,4.000000,4.000000,4.000000,4.000000,4.000000,4.000000,4.000000,100.000000,,,,,,,,,,,,,,,,,,,,,,,,,,,,
1703489570.818009,1703489570.818193,23.000000,0.000000,4279.743652,4228.717773,4325.256348,4203.589844,4229.358887,4284.615234,4255.128418,4243.333496,4279.102539,4272.948730,4587.948730,4441.282227,4410.769043,4511.282227,0.000000,4.000000,95.000000,,,,0.000000,4.000000,4.000000,4.000000,4.000000,4.000000,4.000000,4.000000,4.000000,4.000000,4.000000,4.000000,4.000000,4.000000,4.000000,100.000000,,,,,,,,,,,,,,,,,,,,,,,,,,,,
1703489570.825817,1703489570.825901,24.000000,0.000000,4269.615234,4229.871582,4319.358887,4213.205078,4231.282227,4283.461426,4255.128418,4241.538574,4278.333496,4269.358887,4586.025879,4436.410156,4400.512695,4506.410156,0.000000,4.000000,95.000000,,,,0.000000,4.000000,4.000000,4.000000,4.000000,4.000000,4.000000,4.000000,4.000000,4.000000,4.000000,4.000000,4.000000,4.000000,4.000000,100.000000,,,,,,,,,,,,,,,,,6.000000,0.000000,0.733011,-0.090576,-0.674133,-0.005981,0.974728,-0.124527,0.074716,-15.383399,-42.399380,64.744629
1703489570.833625,1703489570.833709,25.000000,0.000000,4278.974121,4227.692383,4312.692383,4217.436035,4229.871582,4280.897461,4256.410156,4240.512695,4277.820313,4270.256348,4584.615234,4438.205078,4406.666504,4506.794922,0.000000,4.000000,95.000000,,,,0.000000,4.000000,4.000000,4.000000,4.000000,4.000000,4.000000,4.000000,4.000000,4.000000,4.000000,4.000000,4.000000,4.000000,4.000000,100.000000,,,,,,,,,,,,,,,,,,,,,,,,,,,,
1703489570.841433,1703489570.841416,26.000000,0.000000,4278.974121,4227.692383,4316.282227,4222.436035,4228.846191,4281.410156,4254.615234,4236.666504,4277.563965,4270.641113,4580.000000,4437.820313,4412.820313,4515.000000,0.000000,4.000000,95.000000,,,,0.000000,4.000000,4.000000,4.000000,4.000000,4.000000,4.000000,4.000000,4.000000,4.000000,4.000000,4.000000,4.000000,4.000000,4.000000,100.000000,,,,,,,,,,,,,,,,,,,,,,,,,,,,
1703489570.849242,1703489570.849224,27.000000,0.000000,4273.974121,4231.410156,4321.794922,4228.974121,4231.153809,4284.615234,4251.410156,4238.846191,4280.769043,4267.820313,4575.897461,4436.666504,4403.717773,4511.922852,0.000000,4.000000,95.000000,,,,0.000000,4.000000,4.000000,4.000000,4.000000,4.000000,4.000000,4.000000,4.000000,4.000000,4.000000,4.000000,4.000000,4.000000,4.000000,100.000000,,,,,,,,,,,,,,,,,,,,,,,,,,,,
1703489570.857050,1703489570.856932,28.000000,0.000000,4278.333496,4232.820313,4323.589844,4233.077148,4230.128418,4282.820313,4251.538574,4248.333496,4292.436035,4271.410156,4581.538574,4440.512695,4401.410156,4507.820313,0.000000,4.000000,95.000000,,,,0.000000,4.000000,4.000000,4.000000,4.000000,4.000000,4.000000,4.000000,4.000000,4.000000,4.000000,4.000000,4.000000,4.000000,4.000000,100.000000,,,,,,,,,,,,,,,,,7.000000,0.000000,0.732963,-0.090515,-0.674194,-0.005798,0.983030,-0.127457,0.077158,-15.428392,-42.192772,64.736832
1703489570.864858,1703489570.864740,29.000000,0.000000,4287.307617,4233.717773,4325.384766,4243.333496,4228.077148,4278.461426,4254.487305,4250.641113,4299.230957,4275.128418,4590.000000,4444.615234,4413.974121,4522.692383,0.000000,4.000000,95.000000,,,,0.000000,4.000000,4.000000,4.000000,4.000000,4.000000,4.000000,4.000000,4.000000,4.000000,4.000000,4.000000,4.000000,4.000000,4.000000,100.000000,,,,,,,,,,,,,,,,,,,,,,,,,,,,
1703489570.872666,1703489570.872447,30.000000,0.000000,4280.512695,4234.871582,4323.589844,4250.000000,4229.358887,4281.025879,4256.794922,4246.666504,4292.179688,4266.538574,4587.563965,4442.179688,4416.025879,4525.641113,0.000000,4.000000,95.000000,,,,0.000000,4.000000,4.000000,4.000000,4.000000,4.000000,4.000000,4.000000,4.000000,4.000000,4.000000,4.000000,4.000000,4.000000,4.000000,100.000000,,,,,,,,,,,,,,,,,,,,,,,,,,,,
1703489570.880474,1703489570.880355,31.000000,0.000000,4270.897461,4233.589844,4320.000000,4249.487305,4231.153809,4282.307617,4258.846191,4248.461426,4285.897461,4258.717773,4581.282227,4440.641113,4406.025879,4509.871582,0.000000,4.000000,95.000000,,,,0.000000,4.000000,4.000000,4.000000,4.000000,4.000000,4.000000,4.000000,4.000000,4.000000,4.000000,4.000000,4.000000,4.000000,4.000000,100.000000,,,,,,,,,,,,,,,,,,,,,,,,,,,,
1703489570.888282,1703489570.888163,32.000000,0.000000,4281.282227,4233.333496,4324.743652,4256.282227,4230.128418,4280.128418,4259.871582,4252.179688,4292.436035,4265.769043,4590.897461,4446.282227,4413.461426,4511.025879,0.000000,4.000000,95.000000,,,,0.000000,4.000000,4.000000,4.000000,4.000000,4.000000,4.000000,4.000000,4.000000,4.000000,4.000000,4.000000,4.000000,4.000000,4.000000,100.000000,,,,,,,,,,,,,,,,,8.000000,0.000000,0.732992,-0.090759,-0.674133,-0.005432,0.972775,-0.126480,0.072274,-15.452220,-42.123497,64.596481
1703489570.896090,1703489570.896071,33.000000,0.000000,4295.641113,4233.846191,4329.102539,4259.615234,4230.641113,4279.871582,4256.538574,4251.410156,4295.641113,4273.974121,4603.333496,4448.717773,4427.307617,4522.051270,0.000000,4.000000,95.000000,,,,0.000000,4.000000,4.000000,4.000000,4.000000,4.000000,4.000000,4.000000,4.000000,4.000000,4.000000,4.000000,4.000000,4.000000,4.000000,100.000000,,,,,,,,,,,,,,,,,,,,,,,,,,,,
1703489570.903898,1703489570.903879,34.000000,0.000000,4292.307617,4232.179688,4326.666504,4257.820313,4235.000000,4280.128418,4257.563965,4250.641113,4284.358887,4272.563965,4596.794922,4447.563965,4424.743652,4524.615234,0.000000,4.000000,95.000000,,,,0.000000,4.000000,4.000000,4.000000,4.000000,4.000000,4.000000,4.000000,4.000000,4.000000,4.000000,4.000000,4.000000,4.000000,4.000000,100.000000,,,,,,,,,,,,,,,,,,,,,,,,,,,,
1703489570.911706,1703489570.911787,35.000000,0.000000,4281.410156,4234.743652,4327.051270,4262.179688,4235.000000,4281.410156,4261.410156,4245.128418,4274.487305,4260.384766,4586.410156,4446.282227,4409.487305,4519.230957,0.000000,4.000000,95.000000,,,,0.000000,4.000000,4.000000,4.000000,4.000000,4.000000,4.000000,4.000000,4.000000,4.000000,4.000000,4.000000,4.000000,4.000000,4.000000,100.000000,,,,,,,,,,,,,,,,,,,,,,,,,,,,
1703489570.919514,1703489570.919695,36.000000,0.000000,4281.282227,4237.436035,4327.563965,4267.307617,4229.615234,4280.512695,4258.333496,4235.769043,4274.358887,4249.102539,4583.461426,4443.333496,4403.846191,4511.153809,0.000000,4.000000,95.000000,,,,0.000000,4.000000,4.000000,4.000000,4.000000,4.000000,4.000000,4.000000,4.000000,4.000000,4.000000,4.000000,4.000000,4.000000,4.000000,100.000000,,,,,,,,,,,,,,,,,9.000000,0.000000,0.732930,-0.090820,-0.674194,-0.005249,0.968380,-0.137712,0.068368,-15.540331,-42.111145,64.570168
1703489570.927322,1703489570.927503,37.000000,0.000000,4295.512695,4236.922852,4327.307617,4269.230957,4229.871582,4278.077148,4253.717773,4237.820313,4276.282227,4250.897461,4579.102539,4443.077148,4410.512695,4516.153809,0.000000,4.000000,95.000000,,,,0.000000,4.000000,4.000000,4.000000,4.000000,4.000000,4.000000,4.000000,4.000000,4.000000,4.000000,4.000000,4.000000,4.000000,4.000000,100.000000,,,,,,,,,,,,,,,,,,,,,,,,,,,,
1703489570.935130,1703489570.935311,38.000000,0.000000,4298.846191,4231.666504,4327.307617,4272.820313,4235.128418,4278.717773,4254.358887,4248.589844,4279.615234,4258.717773,4577.179688,4445.128418,4413.589844,4528.333496,0.000000,4.000000,95.000000,,,,0.000000,4.000000,4.000000,4.000000,4.000000,4.000000,4.000000,4.000000,4.000000,4.000000,4.000000,4.000000,4.000000,4.000000,4.000000,100.000000,,,,,,,,,,,,,,,,,,,,,,,,,,,,
1703489570.942938,1703489570.943219,39.000000,0.000000,4277.820313,4223.333496,4326.025879,4274.615234,4233.589844,4280.641113,4255.512695,4250.384766,4287.948730,4264.487305,4582.307617,4446.282227,4413.333496,4522.820313,0.000000,4.000000,95.000000,,,,0.000000,4.000000,4.000000,4.000000,4.000000,4.000000,4.000000,4.000000,4.000000,4.000000,4.000000,4.000000,4.000000,4.000000,4.000000,100.000000,,,,,,,,,,,,,,,,,,,,,,,,,,,,
1703489570.950746,1703489570.951027,40.000000,0.000000,4275.641113,4218.974121,4326.922852,4277.692383,4231.282227,4280.641113,4258.205078,4247.563965,4293.077148,4265.256348,4583.846191,4447.820313,4412.179688,4515.128418,0.000000,4.000000,95.000000,,,,0.000000,4.000000,4.000000,4.000000,4.000000,4.000000,4.000000,4.000000,4.000000,4.000000,4.000000,4.000000,4.000000,4.000000,4.000000,100.000000,,,,,,,,,,,,,,,,,10.000000,0.000000,0.732830,-0.091187,-0.674255,-0.005005,0.977658,-0.124039,0.074228,-15.602964,-42.166698,64.613152
1703489570.958554,1703489570.958935,41.000000,0.000000,4291.794922,4216.794922,4326.025879,4281.282227,4233.205078,4279.487305,4262.692383,4249.358887,4290.256348,4265.128418,4581.153809,4447.820313,4411.025879,4523.589844,0.000000,4.000000,95.000000,,,,0.000000,4.000000,4.000000,4.000000,4.000000,4.000000,4.000000,4.000000,4.000000,4.000000,4.000000,4.000000,4.000000,4.000000,4.000000,100.000000,,,,,,,,,,,,,,,,,,,,,,,,,,,,
1703489570.966362,1703489570.966743,42.000000,0.000000,4284.230957,4214.615234,4321.538574,4276.922852,4232.307617,4278.846191,4259.487305,4249.358887,4284.743652,4265.000000,4577.692383,4447.051270,4408.333496,4522.692383,0.000000,4.000000,95.000000,,,,0.000000,4.000000,4.000000,4.000000,4.000000,4.000000,4.000000,4.000000,4.000000,4.000000,4.000000,4.000000,4.000000,4.000000,4.000000,100.000000,,,,,,,,,,,,,,,,,,,,,,,,,,,,
1703489570.974170,1703489570.974650,43.000000,0.000000,4272.436035,4212.948730,4320.641113,4275.641113,4230.769043,4276.666504,4253.205078,4247.820313,4281.282227,4261.538574,4571.410156,4447.307617,4403.589844,4507.436035,0.000000,4.000000,95.000000,,,,0.000000,4.000000,4.000000,4.000000,4.000000,4.000000,4.000000,4.000000,4.000000,4.000000,4.000000,4.000000,4.000000,4.000000,4.000000,100.000000,,,,,,,,,,,,,,,,,,,,,,,,,,,,
1703489570.981978,1703489570.982458,44.000000,0.000000,4274.230957,4211.282227,4323.077148,4279.102539,4230.769043,4276.282227,4255.128418,4248.589844,4280.128418,4259.230957,4570.769043,4447.051270,4400.128418,4504.615234,0.000000,4.000000,95.000000,,,,0.000000,4.000000,4.000000,4.000000,4.000000,4.000000,4.000000,4.000000,4.000000,4.000000,4.000000,4.000000,4.000000,4.000000,4.000000,100.000000,,,,,,,,,,,,,,,,,11.000000,0.000000,0.732888,-0.091187,-0.674194,-0.004761,0.968868,-0.125504,0.069833,-15.492668,-42.200027,64.535172
1703489570.989786,1703489570.990366,45.000000,0.000000,4278.846191,4213.077148,4323.333496,4278.333496,4230.641113,4279.102539,4259.230957,4247.436035,4277.563965,4259.358887,4576.025879,4450.384766,4402.436035,4518.589844,0.000000,4.000000,95.000000,,,,0.000000,4.000000,4.000000,4.000000,4.000000,4.000000,4.000000,4.000000,4.000000,4.000000,4.000000,4.000000,4.000000,4.000000,4.000000,100.000000,,,,,,,,,,,,,,,,,,,,,,,,,,,,
1703489570.997594,1703489570.998173,46.000000,0.000000,4288.205078,4217.436035,4328.461426,4282.563965,4232.948730,4280.769043,4255.256348,4246.282227,4274.487305,4262.436035,4584.871582,4453.717773,4414.487305,4520.897461,0.000000,4.000000,95.000000,,,,0.000000,4.000000,4.000000,4.000000,4.000000,4.000000,4.000000,4.000000,4.000000,4.000000,4.000000,4.000000,4.000000,4.000000,4.000000,100.000000,,,,,,,,,,,,,,,,,,,,,,,,,,,,
1703489571.005402,1703489571.005881,47.000000,0.000000,4285.512695,4219.487305,4336.282227,4282.820313,4236.025879,4279.615234,4252.692383,4245.128418,4273.846191,4261.410156,4587.820313,4451.538574,4414.615234,4511.025879,0.000000,4.000000,95.000000,,,,0.000000,4.000000,4.000000,4.000000,4.000000,4.000000,4.000000,4.000000,4.000000,4.000000,4.000000,4.000000,4.000000,4.000000,4.000000,100.000000,,,,,,,,,,,,,,,,,,,,,,,,,,,,
1703489571.013210,1703489571.013689,48.000000,0.000000,4264.615234,4215.512695,4329.487305,4267.820313,4232.692383,4276.666504,4252.692383,4242.563965,4274.615234,4255.769043,4576.282227,4447.820313,4398.333496,4504.743652,0.000000,4.000000,95.000000,,,,0.000000,4.000000,4.000000,4.000000,4.000000,4.000000,4.000000,4.000000,4.000000,4.000000,4.000000,4.000000,4.000000,4.000000,4.000000,100.000000,,,,,,,,,,,,,,,,,12.000000,0.000000,0.732952,-0.091125,-0.674133,-0.004639,0.992309,-0.123062,0.072763,-15.460068,-42.246693,64.498322
1703489571.021018,1703489571.021397,49.000000,0.000000,4269.743652,4213.846191,4317.948730,4260.769043,4232.948730,4277.820313,4249.102539,4242.179688,4277.307617,4256.153809,4572.307617,4447.179688,4398.461426,4506.282227,0.000000,4.000000,95.000000,,,,0.000000,4.000000,4.000000,4.000000,4.000000,4.000000,4.000000,4.000000,4.000000,4.000000,4.000000,4.000000,4.000000,4.000000,4.000000,100.000000,,,,,,,,,,,,,,,,,,,,,,,,,,,,
1703489571.028827,1703489571.029305,50.000000,0.000000,4295.256348,4222.179688,4321.153809,4278.333496,4244.743652,4283.717773,4252.307617,4247.179688,4286.282227,4264.358887,4585.512695,4450.384766,4416.538574,4516.794922,0.000000,4.000000,95.000000,,,,0.000000,4.000000,4.000000,4.000000,4.000000,4.000000,4.000000,4.000000,4.000000,4.000000,4.000000,4.000000,4.000000,4.000000,4.000000,100.000000,,,,,,,,,,,,,,,,,,,,,,,,,,,,
1703489571.036635,1703489571.037113,51.000000,0.000000,4291.025879,4227.692383,4324.102539,4285.769043,4247.563965,4285.512695,4256.153809,4251.025879,4293.205078,4268.846191,4589.615234,4452.948730,4415.384766,4520.128418,0.000000,4.000000,95.000000,,,,0.000000,4.000000,4.000000,4.000000,4.000000,4.000000,4.000000,4.000000,4.000000,4.000000,4.000000,4.000000,4.000000,4.000000,4.000000,100.000000,,,,,,,,,,,,,,,,,,,,,,,,,,,,
1703489571.044443,1703489571.044920,52.000000,0.000000,4268.974121,4219.871582,4315.128418,4269.871582,4237.051270,4281.538574,4249.230957,4246.794922,4286.922852,4259.743652,4575.512695,4449.358887,4394.743652,4503.846191,0.000000,4.000000,95.000000,,,,0.000000,4.000000,4.000000,4.000000,4.000000,4.000000,4.000000,4.000000,4.000000,4.000000,4.000000,4.000000,4.000000,4.000000,4.000000,100.000000,,,,,,,,,,,,,,,,,13.000000,0.000000,0.732993,-0.091248,-0.674072,-0.004639,0.980100,-0.120132,0.066903,-15.364061,-42.305355,64.515152
1703489571.052251,1703489571.052628,53.000000,0.000000,4263.205078,4211.410156,4307.692383,4260.769043,4232.948730,4280.769043,4247.051270,4241.922852,4275.897461,4248.589844,4566.025879,4443.717773,4383.846191,4489.230957,0.000000,4.000000,95.000000,,,,0.000000,4.000000,4.000000,4.000000,4.000000,4.000000,4.000000,4.000000,4.000000,4.000000,4.000000,4.000000,4.000000,4.000000,4.000000,100.000000,,,,,,,,,,,,,,,,,,,,,,,,,,,,
1703489571.060059,1703489571.060436,54.000000,0.000000,4264.358887,4213.846191,4309.230957,4263.461426,4234.871582,4281.025879,4248.974121,4244.230957,4271.025879,4245.512695,4569.102539,4442.692383,4385.512695,4494.615234,0.000000,4.000000,95.000000,,,,0.000000,4.000000,4.000000,4.000000,4.000000,4.000000,4.000000,4.000000,4.000000,4.000000,4.000000,4.000000,4.000000,4.000000,4.000000,100.000000,,,,,,,,,,,,,,,,,,,,,,,,,,,,
1703489571.067867,1703489571.068144,55.000000,0.000000,4269.358887,4215.128418,4309.743652,4264.358887,4232.051270,4280.000000,4248.589844,4242.563965,4267.179688,4245.512695,4568.846191,4443.974121,4383.717773,4499.487305,0.000000,4.000000,95.000000,,,,0.000000,4.000000,4.000000,4.000000,4.000000,4.000000,4.000000,4.000000,4.000000,4.000000,4.000000,4.000000,4.000000,4.000000,4.000000,100.000000,,,,,,,,,,,,,,,,,,,,,,,,,,,,
1703489571.075675,1703489571.075951,56.000000,0.000000,4276.153809,4212.692383,4309.487305,4261.538574,4229.615234,4281.794922,4249.871582,4236.410156,4262.948730,4244.743652,4565.769043,4446.410156,4379.358887,4490.641113,0.000000,4.000000,95.000000,,,,0.000000,4.000000,4.000000,4.000000,4.000000,4.000000,4.000000,4.000000,4.000000,4.000000,4.000000,4.000000,4.000000,4.000000,4.000000,100.000000,,,,,,,,,,,,,,,,,14.000000,0.000000,0.732978,-0.091370,-0.674072,-0.004578,0.981565,-0.118667,0.086925,-15.110989,-42.274822,64.530304
1703489571.083483,1703489571.083659,57.000000,0.000000,4265.641113,4215.641113,4317.820313,4264.487305,4230.512695,4282.051270,4249.230957,4236.410156,4266.666504,4245.128418,4570.641113,4449.230957,4386.538574,4489.102539,0.000000,4.000000,95.000000,,,,0.000000,4.000000,4.000000,4.000000,4.000000,4.000000,4.000000,4.000000,4.000000,4.000000,4.000000,4.000000,4.000000,4.000000,4.000000,100.000000,,,,,,,,,,,,,,,,,,,,,,,,,,,,
1703489571.091291,1703489571.091466,58.000000,0.000000,4261.282227,4219.358887,4327.436035,4275.512695,4230.897461,4280.641113,4247.563965,4241.282227,4271.922852,4246.153809,4577.692383,4452.436035,4397.307617,4505.897461,0.000000,4.000000,95.000000,,,,0.000000,4.000000,4.000000,4.000000,4.000000,4.000000,4.000000,4.000000,4.000000,4.000000,4.000000,4.000000,4.000000,4.000000,4.000000,100.000000,,,,,,,,,,,,,,,,,,,,,,,,,,,,
1703489571.099099,1703489571.099174,59.000000,0.000000,4281.025879,4221.025879,4327.179688,4280.000000,4231.025879,4281.666504,4248.461426,4244.615234,4272.179688,4247.051270,4575.000000,4453.974121,4390.641113,4514.102539,0.000000,4.000000,95.000000,,,,0.000000,4.000000,4.000000,4.000000,4.000000,4.000000,4.000000,4.000000,4.000000,4.000000,4.000000,4.000000,4.000000,4.000000,4.000000,100.000000,,,,,,,,,,,,,,,,,,,,,,,,,,,,
1703489571.106907,1703489571.106981,60.000000,0.000000,4289.102539,4220.512695,4318.717773,4276.922852,4229.615234,4282.436035,4247.820313,4244.358887,4273.461426,4242.948730,4571.666504,4451.282227,4383.589844,4497.179688,0.000000,4.000000,95.000000,,,,0.000000,4.000000,4.000000,4.000000,4.000000,4.000000,4.000000,4.000000,4.000000,4.000000,4.000000,4.000000,4.000000,4.000000,4.000000,100.000000,,,,,,,,,,,,,,,,,15.000000,0.000000,0.732873,-0.091309,-0.674194,-0.004700,0.981077,-0.125015,0.070321,-15.183223,-42.297340,64.293938
1703489571.114715,1703489571.114689,61.000000,0.000000,4270.897461,4218.077148,4314.102539,4274.230957,4228.333496,4278.846191,4247.307617,4242.307617,4277.820313,4233.461426,4572.436035,4450.384766,4388.974121,4487.563965,0.000000,4.000000,95.000000,,,,0.000000,4.000000,4.000000,4.000000,4.000000,4.000000,4.000000,4.000000,4.000000,4.000000,4.000000,4.000000,4.000000,4.000000,4.000000,100.000000,,,,,,,,,,,,,,,,,,,,,,,,,,,,
1703489571.122523,1703489571.122597,62.000000,0.000000,4255.769043,4214.871582,4308.974121,4270.384766,4230.256348,4279.102539,4251.538574,4245.512695,4283.077148,4233.205078,4568.974121,4451.922852,4386.410156,4493.205078,0.000000,4.000000,95.000000,,,,0.000000,4.000000,4.000000,4.000000,4.000000,4.000000,4.000000,4.000000,4.000000,4.000000,4.000000,4.000000,4.000000,4.000000,4.000000,100.000000,,,,,,,,,,,,,,,,,,,,,,,,,,,,
1703489571.130331,1703489571.130405,63.000000,0.000000,4263.717773,4215.256348,4299.230957,4264.871582,4232.307617,4284.230957,4252.948730,4247.692383,4282.436035,4239.102539,4565.769043,4451.666504,4380.512695,4496.025879,0.000000,4.000000,95.000000,,,,0.000000,4.000000,4.000000,4.000000,4.000000,4.000000,4.000000,4.000000,4.000000,4.000000,4.000000,4.000000,4.000000,4.000000,4.000000,100.000000,,,,,,,,,,,,,,,,,,,,,,,,,,,,
1703489571.138139,1703489571.138313,64.000000,0.000000,4265.000000,4219.615234,4294.358887,4263.974121,4227.692383,4284.230957,4247.307617,4238.974121,4278.974121,4235.128418,4566.666504,4449.102539,4384.358887,4496.025879,5551.000000,4.000000,95.000000,,,,0.000000,4.000000,4.000000,4.000000,4.000000,4.000000,4.000000,4.000000,4.000000,4.000000,4.000000,4.000000,4.000000,4.000000,4.000000,100.000000,,,,,,,,,,,,,,,,,16.000000,0.000000,0.732896,-0.091125,-0.674194,-0.004700,0.980588,-0.131852,0.069344,-15.181567,-42.300938,64.314545
1703489571.145947,1703489571.146121,65.000000,0.000000,4247.948730,4218.333496,4295.769043,4263.589844,4223.461426,4278.846191,4245.000000,4232.051270,4276.666504,4228.717773,4565.384766,4447.563965,4383.589844,4487.948730,5113.000000,4.000000,95.000000,,,,0.000000,4.000000,4.000000,4.000000,4.000000,4.000000,4.000000,4.000000,4.000000,4.000000,4.000000,4.000000,4.000000,4.000000,4.000000,100.000000,,,,,,,,,,,,,,,,,,,,,,,,,,,,
1703489571.153755,1703489571.154028,66.000000,0.000000,4251.153809,4217.436035,4296.794922,4262.692383,4224.871582,4276.153809,4245.512695,4231.922852,4269.230957,4225.128418,4560.384766,4449.230957,4379.487305,4484.102539,5372.000000,4.000000,95.000000,,,,0.000000,4.000000,4.000000,4.000000,4.000000,4.000000,4.000000,4.000000,4.000000,4.000000,4.000000,4.000000,4.000000,4.000000,4.000000,100.000000,,,,,,,,,,,,,,,,,,,,,,,,,,,,
1703489571.161563,1703489571.161836,67.000000,0.000000,4267.820313,4217.692383,4293.717773,4262.692383,4223.846191,4278.333496,4244.358887,4232.307617,4262.820313,4218.461426,4558.333496,4448.717773,4378.589844,4490.641113,5295.000000,4.000000,95.000000,,,,0.000000,4.000000,4.000000,4.000000,4.000000,4.000000,4.000000,4.000000,4.000000,4.000000,4.000000,4.000000,4.000000,4.000000,4.000000,100.000000,,,,,,,,,,,,,,,,,,,,,,,,,,,,
1703489571.169371,1703489571.169744,68.000000,0.000000,4262.051270,4217.436035,4299.615234,4265.641113,4219.615234,4280.256348,4246.025879,4239.358887,4269.358887,4218.333496,4561.794922,4450.641113,4378.333496,4491.794922,5026.000000,4.000000,95.000000,,,,0.000000,4.000000,4.000000,4.000000,4.000000,4.000000,4.000000,4.000000,4.000000,4.000000,4.000000,4.000000,4.000000,4.000000,4.000000,100.000000,,,,,,,,,,,,,,,,,17.000000,0.000000,0.732814,-0.090881,-0.674316,-0.004700,0.984984,-0.123062,0.074716,-15.313411,-42.304176,64.333092
1703489571.177179,1703489571.177551,69.000000,0.000000,4255.384766,4222.820313,4312.436035,4275.641113,4217.820313,4278.333496,4249.615234,4248.589844,4281.282227,4230.256348,4569.102539,4457.563965,4382.436035,4495.897461,2194.000000,4.000000,95.000000,,,,0.000000,4.000000,4.000000,4.000000,4.000000,4.000000,4.000000,4.000000,4.000000,4.000000,4.000000,4.000000,4.000000,4.000000,4.000000,100.000000,,,,,,,,,,,,,,,,,,,,,,,,,,,,
1703489571.184987,1703489571.185459,70.000000,0.000000,4268.589844,4230.256348,4313.589844,4282.820313,4220.769043,4275.128418,4248.589844,4251.538574,4283.077148,4234.743652,4574.615234,4458.461426,4386.410156,4502.179688,3779.000000,4.000000,95.000000,,,,0.000000,4.000000,4.000000,4.000000,4.000000,4.000000,4.000000,4.000000,4.000000,4.000000,4.000000,4.000000,4.000000,4.000000,4.000000,100.000000,,,,,,,,,,,,,,,,,,,,,,,,,,,,
1703489571.192795,1703489571.193267,71.000000,0.000000,4271.922852,4230.384766,4309.615234,4279.615234,4222.692383,4276.922852,4245.769043,4246.666504,4279.358887,4224.102539,4566.282227,4454.358887,4383.077148,4493.589844,4762.000000,4.000000,95.000000,,,,0.000000,4.000000,4.000000,4.000000,4.000000,4.000000,4.000000,4.000000,4.000000,4.000000,4.000000,4.000000,4.000000,4.000000,4.000000,100.000000,1.000000,100.000000,4.000000,4.000000,4.000000,4.000000,4.000000,4.000000,4.000000,4.000000,4.000000,4.000000,4.000000,4.000000,4.000000,4.000000,,,,,,,,,,,,
1703489571.200603,1703489571.201174,72.000000,0.000000,4260.512695,4227.820313,4307.948730,4275.384766,4222.436035,4280.641113,4246.282227,4237.820313,4278.333496,4216.153809,4555.384766,4451.794922,4375.384766,4485.641113,4520.000000,4.000000,95.000000,,,,0.000000,4.000000,4.000000,4.000000,4.000000,4.000000,4.000000,4.000000,4.000000,4.000000,4.000000,4.000000,4.000000,4.000000,4.000000,100.000000,,,,,,,,,,,,,,,,,18.000000,0.000000,0.732781,-0.090698,-0.674377,-0.004578,0.985472,-0.135270,0.076181,-15.282069,-42.323761,64.366447
1703489571.208411,1703489571.208982,73.000000,0.000000,4247.307617,4228.333496,4303.205078,4275.256348,4223.974121,4281.410156,4248.461426,4232.051270,4277.307617,4216.410156,4558.333496,4448.333496,4372.948730,4485.128418,5215.000000,4.000000,95.000000,,,,0.000000,4.000000,4.000000,4.000000,4.000000,4.000000,4.000000,4.000000,4.000000,4.000000,4.000000,4.000000,4.000000,4.000000,4.000000,100.000000,,,,,,,,,,,,,,,,,,,,,,,,,,,,
1703489571.216220,1703489571.216690,74.000000,0.000000,4245.769043,4228.974121,4301.410156,4282.948730,4227.051270,4281.153809,4248.589844,4234.358887,4275.128418,4215.641113,4561.410156,4446.794922,4377.179688,4480.128418,5911.000000,4.000000,95.000000,,,,0.000000,4.000000,4.000000,4.000000,4.000000,4.000000,4.000000,4.000000,4.000000,4.000000,4.000000,4.000000,4.000000,4.000000,4.000000,100.000000,,,,,,,,,,,,,,,,,,,,,,,,,,,,
1703489571.224028,1703489571.224498,75.000000,0.000000,4260.384766,4231.794922,4304.358887,4288.717773,4230.256348,4281.282227,4246.538574,4238.846191,4274.230957,4211.922852,4553.846191,4448.974121,4372.051270,4480.512695,6112.000000,4.000000,95.000000,,,,0.000000,4.000000,4.000000,4.000000,4.000000,4.000000,4.000000,4.000000,4.000000,4.000000,4.000000,4.000000,4.000000,4.000000,4.000000,100.000000,,,,,,,,,,,,,,,,,,,,,,,,,,,,
1703489571.231835,1703489571.232205,76.000000,0.000000,4256.538574,4232.692383,4302.820313,4283.461426,4229.102539,4281.025879,4247.051270,4242.563965,4277.307617,4212.692383,4556.922852,4452.179688,4366.025879,4488.846191,6621.000000,4.000000,95.000000,,,,0.000000,4.000000,4.000000,4.000000,4.000000,4.000000,4.000000,4.000000,4.000000,4.000000,4.000000,4.000000,4.000000,4.000000,4.000000,100.000000,,,,,,,,,,,,,,,,,19.000000,0.000000,0.732733,-0.090637,-0.674438,-0.004517,0.981565,-0.119644,0.084483,-15.253862,-42.291386,64.446472
1703489571.239644,1703489571.240013,77.000000,0.000000,4241.922852,4230.128418,4304.615234,4285.000000,4222.948730,4280.256348,4249.230957,4247.948730,4281.538574,4221.794922,4576.922852,4458.077148,4385.128418,4499.358887,4564.000000,4.000000,95.000000,,,,0.000000,4.000000,4.000000,4.000000,4.000000,4.000000,4.000000,4.000000,4.000000,4.000000,4.000000,4.000000,4.000000,4.000000,4.000000,100.000000,,,,,,,,,,,,,,,,,,,,,,,,,,,,
1703489571.247452,1703489571.247721,78.000000,0.000000,4253.846191,4230.256348,4311.025879,4295.769043,4217.051270,4279.358887,4248.717773,4249.871582,4282.179688,4229.358887,4586.922852,4462.820313,4405.769043,4510.000000,5911.000000,4.000000,95.000000,,,,0.000000,4.000000,4.000000,4.000000,4.000000,4.000000,4.000000,4.000000,4.000000,4.000000,4.000000,4.000000,4.000000,4.000000,4.000000,100.000000,,,,,,,,,,,,,,,,,,,,,,,,,,,,
1703489571.255260,1703489571.255528,79.000000,0.000000,4273.333496,4235.769043,4312.179688,4297.563965,4224.358887,4281.666504,4248.077148,4248.974121,4281.666504,4226.794922,4586.410156,4462.563965,4399.871582,4502.436035,6112.000000,4.000000,95.000000,,,,0.000000,4.000000,4.000000,4.000000,4.000000,4.000000,4.000000,4.000000,4.000000,4.000000,4.000000,4.000000,4.000000,4.000000,4.000000,100.000000,,,,,,,,,,,,,,,,,,,,,,,,,,,,
1703489571.263068,1703489571.263236,80.000000,0.000000,4270.512695,4239.230957,4310.128418,4290.384766,4234.102539,4283.589844,4249.743652,4248.974121,4282.307617,4222.051270,4586.538574,4460.256348,4396.922852,4489.871582,6621.000000,4.000000,95.000000,,,,0.000000,4.000000,4.000000,4.000000,4.000000,4.000000,4.000000,4.000000,4.000000,4.000000,4.000000,4.000000,4.000000,4.000000,4.000000,100.000000,,,,,,,,,,,,,,,,,20.000000,0.000000,0.732668,-0.090698,-0.674500,-0.004639,0.994262,-0.119644,0.065926,-15.495143,-42.262245,64.468491
1703489571.270876,1703489571.271043,81.000000,0.000000,4256.922852,4235.384766,4308.974121,4283.461426,4224.358887,4280.256348,4250.384766,4246.025879,4281.538574,4222.436035,4579.358887,4455.769043,4400.769043,4493.846191,4564.000000,4.000000,95.000000,,,,0.000000,4.000000,4.000000,4.000000,4.000000,4.000000,4.000000,4.000000,4.000000,4.000000,4.000000,4.000000,4.000000,4.000000,4.000000,100.000000,,,,,,,,,,,,,,,,,,,,,,,,,,,,
1703489571.278684,1703489571.278751,82.000000,0.000000,4252.820313,4232.179688,4307.051270,4278.846191,4215.256348,4278.717773,4249.102539,4243.974121,4277.563965,4215.128418,4568.589844,4453.077148,4385.897461,4494.230957,5911.000000,4.000000,95.000000,,,,0.000000,4.000000,4.000000,4.000000,4.000000,4.000000,4.000000,4.000000,4.000000,4.000000,4.000000,4.000000,4.000000,4.000000,4.000000,100.000000,,,,,,,,,,,,,,,,,,,,,,,,,,,,
1703489571.286492,1703489571.286659,83.000000,0.000000,4260.000000,4232.307617,4308.333496,4279.102539,4223.589844,4279.615234,4247.563965,4243.846191,4272.820313,4204.743652,4567.563965,4455.384766,4381.410156,4488.846191,6112.000000,4.000000,95.000000,,,,0.000000,4.000000,4.000000,4.000000,4.000000,4.000000,4.000000,4.000000,4.000000,4.000000,4.000000,4.000000,4.000000,4.000000,4.000000,100.000000,,,,,,,,,,,,,,,,,,,,,,,,,,,,
1703489571.294300,1703489571.294467,84.000000,0.000000,4263.717773,4231.666504,4310.897461,4279.743652,4226.922852,4278.974121,4247.820313,4239.487305,4267.436035,4205.128418,4571.025879,4455.512695,4391.922852,4487.179688,6621.000000,4.000000,95.000000,,,,0.000000,4.000000,4.000000,4.000000,4.000000,4.000000,4.000000,4.000000,4.000000,4.000000,4.000000,4.000000,4.000000,4.000000,4.000000,100.000000,,,,,,,,,,,,,,,,,21.000000,0.000000,0.732605,-0.090759,-0.674561,-0.004517,0.986449,-0.120620,0.071298,-15.528962,-42.236023,64.454971
1703489571.302108,1703489571.302375,85.000000,0.000000,4256.666504,4230.384766,4310.512695,4277.948730,4218.205078,4278.846191,4247.436035,4232.436035,4263.717773,4205.384766,4568.717773,4453.333496,4387.948730,4490.000000,4564.000000,4.000000,95.000000,,,,0.000000,4.000000,4.000000,4.000000,4.000000,4.000000,4.000000,4.000000,4.000000,4.000000,4.000000,4.000000,4.000000,4.000000,4.000000,100.000000,,,,,,,,,,,,,,,,,,,,,,,,,,,,
1703489571.309916,1703489571.310183,86.000000,0.000000,4259.871582,4231.794922,4310.128418,4280.000000,4221.153809,4278.589844,4244.487305,4230.000000,4262.563965,4201.410156,4568.461426,4454.102539,4386.282227,4498.333496,5911.000000,4.000000,95.000000,,,,0.000000,4.000000,4.000000,4.000000,4.000000,4.000000,4.000000,4.000000,4.000000,4.000000,4.000000,4.000000,4.000000,4.000000,4.000000,100.000000,,,,,,,,,,,,,,,,,,,,,,,,,,,,
1703489571.317724,1703489571.318090,87.000000,0.000000,4269.615234,4234.102539,4307.436035,4282.051270,4231.025879,4279.615234,4243.846191,4234.358887,4262.436035,4202.179688,4570.512695,4453.846191,4395.641113,4498.205078,6112.000000,4.000000,95.000000,,,,0.000000,4.000000,4.000000,4.000000,4.000000,4.000000,4.000000,4.000000,4.000000,4.000000,4.000000,4.000000,4.000000,4.000000,4.000000,100.000000,,,,,,,,,,,,,,,,,,,,,,,,,,,,
1703489571.325532,1703489571.325898,88.000000,0.000000,4260.769043,4236.538574,4306.410156,4282.563965,4230.641113,4277.563965,4247.179688,4242.692383,4270.256348,4206.025879,4570.512695,4453.333496,4394.743652,4486.794922,6621.000000,4.000000,95.000000,,,,0.000000,4.000000,4.000000,4.000000,4.000000,4.000000,4.000000,4.000000,4.000000,4.000000,4.000000,4.000000,4.000000,4.000000,4.000000,100.000000,,,,,,,,,,,,,,,,,22.000000,0.000000,0.732599,-0.090820,-0.674561,-0.004333,0.995239,-0.113783,0.074716,-15.459399,-42.245750,64.376144
1703489571.333340,1703489571.333806,89.000000,0.000000,4248.974121,4233.974121,4310.512695,4282.563965,4230.256348,4269.871582,4249.230957,4247.948730,4277.307617,4203.974121,4569.102539,4455.897461,4385.512695,4486.025879,4564.000000,4.000000,95.000000,,,,0.000000,4.000000,4.000000,4.000000,4.000000,4.000000,4.000000,4.000000,4.000000,4.000000,4.000000,4.000000,4.000000,4.000000,4.000000,100.000000,,,,,,,,,,,,,,,,,,,,,,,,,,,,
1703489571.341148,1703489571.341614,90.000000,0.000000,4255.769043,4231.025879,4311.025879,4281.153809,4228.846191,4272.692383,4247.051270,4244.230957,4272.563965,4202.436035,4569.487305,4458.589844,4387.436035,4501.282227,5911.000000,4.000000,95.000000,,,,0.000000,4.000000,4.000000,4.000000,4.000000,4.000000,4.000000,4.000000,4.000000,4.000000,4.000000,4.000000,4.000000,4.000000,4.000000,100.000000,,,,,,,,,,,,,,,,,,,,,,,,,,,,
1703489571.348956,1703489571.349521,91.000000,0.000000,4267.179688,4239.102539,4310.641113,4282.563965,4223.205078,4278.077148,4245.641113,4236.922852,4267.179688,4201.794922,4568.461426,4456.410156,4391.025879,4505.769043,6112.000000,4.000000,95.000000,,,,0.000000,4.000000,4.000000,4.000000,4.000000,4.000000,4.000000,4.000000,4.000000,4.000000,4.000000,4.000000,4.000000,4.000000,4.000000,100.000000,,,,,,,,,,,,,,,,,,,,,,,,,,,,
1703489571.356764,1703489571.357329,92.000000,0.000000,4265.512695,4241.666504,4308.589844,4281.410156,4221.282227,4272.948730,4248.205078,4235.256348,4267.563965,4197.563965,4561.153809,4453.333496,4386.282227,4496.538574,6621.000000,4.000000,95.000000,,,,0.000000,4.000000,4.000000,4.000000,4.000000,4.000000,4.000000,4.000000,4.000000,4.000000,4.000000,4.000000,4.000000,4.000000,4.000000,100.000000,,,,,,,,,,,,,,,,,23.000000,0.000000,0.732558,-0.090698,-0.674622,-0.004272,0.989867,-0.123062,0.070321,-15.563459,-42.204510,64.355194
1703489571.364572,1703489571.365237,93.000000,0.000000,4254.615234,4232.307617,4299.871582,4275.897461,4222.820313,4271.282227,4248.205078,4233.846191,4264.871582,4198.461426,4554.615234,4453.589844,4385.384766,4490.897461,4564.000000,4.000000,95.000000,,,,0.000000,4.000000,4.000000,4.000000,4.000000,4.000000,4.000000,4.000000,4.000000,4.000000,4.000000,4.000000,4.000000,4.000000,4.000000,100.000000,,,,,,,,,,,,,,,,,,,,,,,,,,,,
1703489571.372380,1703489571.373045,94.000000,0.000000,4247.692383,4227.436035,4292.051270,4272.563965,4221.538574,4274.487305,4245.128418,4231.153809,4262.307617,4198.589844,4553.846191,4451.922852,4383.974121,4487.179688,5911.000000,4.000000,95.000000,,,,0.000000,4.000000,4.000000,4.000000,4.000000,4.000000,4.000000,4.000000,4.000000,4.000000,4.000000,4.000000,4.000000,4.000000,4.000000,100.000000,,,,,,,,,,,,,,,,,,,,,,,,,,,,
1703489571.380188,1703489571.380752,95.000000,0.000000,4249.102539,4231.794922,4292.820313,4270.897461,4219.487305,4272.179688,4245.000000,4229.871582,4262.948730,4190.897461,4551.538574,4449.743652,4378.333496,4477.436035,6112.000000,4.000000,95.000000,,,,0.000000,4.000000,4.000000,4.000000,4.000000,4.000000,4.000000,4.000000,4.000000,4.000000,4.000000,4.000000,4.000000,4.000000,4.000000,100.000000,,,,,,,,,,,,,,,,,,,,,,,,,,,,
1703489571.387996,1703489571.388560,96.000000,0.000000,4249.487305,4235.256348,4294.615234,4268.205078,4222.051270,4270.897461,4247.563965,4229.615234,4259.743652,4182.948730,4546.153809,4450.000000,4373.717773,4469.487305,6621.000000,4.000000,95.000000,,,,0.000000,4.000000,4.000000,4.000000,4.000000,4.000000,4.000000,4.000000,4.000000,4.000000,4.000000,4.000000,4.000000,4.000000,4.000000,100.000000,,,,,,,,,,,,,,,,,24.000000,0.000000,0.732503,-0.090698,-0.674683,-0.004150,0.979123,-0.132340,0.076670,-15.457113,-42.100727,64.303009
1703489571.395805,1703489571.396268,97.000000,0.000000,4247.051270,4231.410156,4297.051270,4266.282227,4224.871582,4277.179688,4246.922852,4230.897461,4259.230957,4186.025879,4546.922852,4452.692383,4373.974121,4479.615234,4564.000000,4.000000,95.000000,,,,0.000000,4.000000,4.000000,4.000000,4.000000,4.000000,4.000000,4.000000,4.000000,4.000000,4.000000,4.000000,4.000000,4.000000,4.000000,100.000000,,,,,,,,,,,,,,,,,,,,,,,,,,,,
1703489571.403613,1703489571.404076,98.000000,0.000000,4255.000000,4231.410156,4306.153809,4266.153809,4221.410156,4280.897461,4245.512695,4232.820313,4262.692383,4196.666504,4554.102539,4456.538574,4385.641113,4500.000000,5911.000000,4.000000,95.000000,,,,0.000000,4.000000,4.000000,4.000000,4.000000,4.000000,4.000000,4.000000,4.000000,4.000000,4.000000,4.000000,4.000000,4.000000,4.000000,100.000000,,,,,,,,,,,,,,,,,,,,,,,,,,,,
1703489571.411420,1703489571.411784,99.000000,0.000000,4269.487305,4242.436035,4311.794922,4262.179688,4217.179688,4282.692383,4245.384766,4233.333496,4262.307617,4200.769043,4556.410156,4454.487305,4393.846191,4505.769043,6112.000000,4.000000,95.000000,,,,0.000000,4.000000,4.000000,4.000000,4.000000,4.000000,4.000000,4.000000,4.000000,4.000000,4.000000,4.000000,4.000000,4.000000,4.000000,100.000000,,,,,,,,,,,,,,,,,,,,,,,,,,,,
1703489571.419229,1703489571.419591,100.000000,0.000000,4265.769043,4250.384766,4311.666504,4253.589844,4223.205078,4284.487305,4245.897461,4233.333496,4261.153809,4199.487305,4551.922852,4452.051270,4385.000000,4492.307617,6621.000000,4.000000,95.000000,,,,0.000000,4.000000,4.000000,4.000000,4.000000,4.000000,4.000000,4.000000,4.000000,4.000000,4.000000,4.000000,4.000000,4.000000,4.000000,100.000000,,,,,,,,,,,,,,,,,25.000000,0.000000,0.732496,-0.090759,-0.674683,-0.003967,0.977658,-0.129410,0.077646,-15.478068,-42.040653,64.239372
1703489571.427037,1703489571.427299,101.000000,0.000000,4256.794922,4247.820313,4314.743652,4247.307617,4229.743652,4282.948730,4246.922852,4232.179688,4261.025879,4199.871582,4552.820313,4456.282227,4380.769043,4490.897461,4564.000000,4.000000,95.000000,,,,0.000000,4.000000,4.000000,4.000000,4.000000,4.000000,4.000000,4.000000,4.000000,4.000000,4.000000,4.000000,4.000000,4.000000,4.000000,100.000000,,,,,,,,,,,,,,,,,,,,,,,,,,,,
1703489571.434845,1703489571.435107,102.000000,0.000000,4270.641113,4250.384766,4320.000000,4250.128418,4230.641113,4282.948730,4248.461426,4234.230957,4264.743652,4201.922852,4562.051270,4461.153809,4394.871582,4506.794922,5911.000000,4.000000,95.000000,,,,0.000000,4.000000,4.000000,4.000000,4.000000,4.000000,4.000000,4.000000,4.000000,4.000000,4.000000,4.000000,4.000000,4.000000,4.000000,100.000000,,,,,,,,,,,,,,,,,,,,,,,,,,,,
1703489571.442653,1703489571.442814,103.000000,0.000000,4285.128418,4253.077148,4320.000000,4249.487305,4227.692383,4280.000000,4249.743652,4243.846191,4269.102539,4204.743652,4567.179688,4461.538574,4402.436035,4510.256348,6112.000000,4.000000,95.000000,,,,0.000000,4.000000,4.000000,4.000000,4.000000,4.000000,4.000000,4.000000,4.000000,4.000000,4.000000,4.000000,4.000000,4.000000,4.000000,100.000000,,,,,,,,,,,,,,,,,,,,,,,,,,,,
1703489571.450461,1703489571.450622,104.000000,0.000000,4263.461426,4243.461426,4311.282227,4236.538574,4221.025879,4277.563965,4246.410156,4245.384766,4265.769043,4203.461426,4557.563965,4456.922852,4390.128418,4493.333496,6621.000000,4.000000,95.000000,,,,0.000000,4.000000,4.000000,4.000000,4.000000,4.000000,4.000000,4.000000,4.000000,4.000000,4.000000,4.000000,4.000000,4.000000,4.000000,100.000000,,,,,,,,,,,,,,,,,26.000000,0.000000,0.732560,-0.090698,-0.674622,-0.003967,0.967403,-0.124039,0.082530,-15.363595,-42.103256,64.315437
1703489571.458269,1703489571.458329,105.000000,0.000000,4241.666504,4241.794922,4309.230957,4230.128418,4222.948730,4279.102539,4244.358887,4233.205078,4259.871582,4193.333496,4541.794922,4452.179688,4378.717773,4478.461426,4564.000000,4.000000,95.000000,,,,0.000000,4.000000,4.000000,4.000000,4.000000,4.000000,4.000000,4.000000,4.000000,4.000000,4.000000,4.000000,4.000000,4.000000,4.000000,100.000000,,,,,,,,,,,,,,,,,,,,,,,,,,,,
1703489571.466077,1703489571.466237,106.000000,0.000000,4254.743652,4247.820313,4310.641113,4234.615234,4228.461426,4280.769043,4247.948730,4229.102539,4259.230957,4183.077148,4538.589844,4451.282227,4374.358887,4481.922852,5911.000000,4.000000,95.000000,,,,0.000000,4.000000,4.000000,4.000000,4.000000,4.000000,4.000000,4.000000,4.000000,4.000000,4.000000,4.000000,4.000000,4.000000,4.000000,100.000000,,,,,,,,,,,,,,,,,,,,,,,,,,,,
1703489571.473885,1703489571.474045,107.000000,0.000000,4258.461426,4243.461426,4301.410156,4233.205078,4227.051270,4280.000000,4249.358887,4232.692383,4254.743652,4183.077148,4540.384766,4450.000000,4371.794922,4486.282227,6112.000000,4.000000,95.000000,,,,0.000000,4.000000,4.000000,4.000000,4.000000,4.000000,4.000000,4.000000,4.000000,4.000000,4.000000,4.000000,4.000000,4.000000,4.000000,100.000000,,,,,,,,,,,,,,,,,,,,,,,,,,,,
1703489571.481693,1703489571.481953,108.000000,0.000000,4243.333496,4241.025879,4295.897461,4228.846191,4225.641113,4279.102539,4246.538574,4227.820313,4248.205078,4184.487305,4536.538574,4448.974121,4374.615234,4485.128418,6621.000000,4.000000,95.000000,,,,0.000000,4.000000,4.000000,4.000000,4.000000,4.000000,4.000000,4.000000,4.000000,4.000000,4.000000,4.000000,4.000000,4.000000,4.000000,100.000000,,,,,,,,,,,,,,,,,27.000000,0.000000,0.732728,-0.090698,-0.674438,-0.003967,0.982542,-0.116713,0.076181,-15.343903,-42.159595,64.383896
1703489571.489501,1703489571.489761,109.000000,0.000000,4251.538574,4247.436035,4303.589844,4229.743652,4229.102539,4280.769043,4247.051270,4224.487305,4248.974121,4185.128418,4541.025879,4452.307617,4383.974121,4487.948730,4564.000000,4.000000,95.000000,,,,0.000000,4.000000,4.000000,4.000000,4.000000,4.000000,4.000000,4.000000,4.000000,4.000000,4.000000,4.000000,4.000000,4.000000,4.000000,100.000000,,,,,,,,,,,,,,,,,,,,,,,,,,,,
1703489571.497309,1703489571.497669,110.000000,0.000000,4266.282227,4251.282227,4310.641113,4233.333496,4230.769043,4279.743652,4248.205078,4230.641113,4250.512695,4186.025879,4547.436035,4452.820313,4387.307617,4493.077148,5911.000000,4.000000,95.000000,,,,0.000000,4.000000,4.000000,4.000000,4.000000,4.000000,4.000000,4.000000,4.000000,4.000000,4.000000,4.000000,4.000000,4.000000,4.000000,100.000000,,,,,,,,,,,,,,,,,,,,,,,,,,,,
1703489571.505117,1703489571.505477,111.000000,0.000000,4263.333496,4253.461426,4311.666504,4242.051270,4229.871582,4278.333496,4246.282227,4232.563965,4253.717773,4188.846191,4543.846191,4451.538574,4386.282227,4493.205078,6112.000000,4.000000,95.000000,,,,0.000000,4.000000,4.000000,4.000000,4.000000,4.000000,4.000000,4.000000,4.000000,4.000000,4.000000,4.000000,4.000000,4.000000,4.000000,100.000000,,,,,,,,,,,,,,,,,,,,,,,,,,,,
1703489571.512925,1703489571.513385,112.000000,0.000000,4258.589844,4250.641113,4309.615234,4242.692383,4229.487305,4278.846191,4245.128418,4229.871582,4266.025879,4202.563965,4544.358887,4456.025879,4391.153809,4492.307617,6621.000000,4.000000,95.000000,,,,0.000000,4.000000,4.000000,4.000000,4.000000,4.000000,4.000000,4.000000,4.000000,4.000000,4.000000,4.000000,4.000000,4.000000,4.000000,100.000000,,,,,,,,,,,,,,,,,28.000000,0.000000,0.732680,-0.090637,-0.674500,-0.003906,0.975705,-0.129410,0.074716,-15.309512,-42.226971,64.495506
1703489571.520733,1703489571.521193,113.000000,0.000000,4258.717773,4245.769043,4307.307617,4234.743652,4229.102539,4279.615234,4244.743652,4235.128418,4277.692383,4216.666504,4553.589844,4461.153809,4397.692383,4491.538574,4564.000000,4.000000,95.000000,,,,0.000000,4.000000,4.000000,4.000000,4.000000,4.000000,4.000000,4.000000,4.000000,4.000000,4.000000,4.000000,4.000000,4.000000,4.000000,100.000000,,,,,,,,,,,,,,,,,,,,,,,,,,,,
1703489571.528541,1703489571.529100,114.000000,0.000000,4260.897461,4257.692383,4312.948730,4241.666504,4230.769043,4278.717773,4246.410156,4242.051270,4278.717773,4223.717773,4552.948730,4461.025879,4401.153809,4492.436035,5911.000000,4.000000,95.000000,,,,0.000000,4.000000,4.000000,4.000000,4.000000,4.000000,4.000000,4.000000,4.000000,4.000000,4.000000,4.000000,4.000000,4.000000,4.000000,100.000000,,,,,,,,,,,,,,,,,,,,,,,,,,,,
1703489571.536349,1703489571.536908,115.000000,0.000000,4270.128418,4267.436035,4316.282227,4249.487305,4233.589844,4278.974121,4248.589844,4240.128418,4272.179688,4230.128418,4542.563965,4457.948730,4398.077148,4498.205078,6112.000000,4.000000,95.000000,,,,0.000000,4.000000,4.000000,4.000000,4.000000,4.000000,4.000000,4.000000,4.000000,4.000000,4.000000,4.000000,4.000000,4.000000,4.000000,100.000000,,,,,,,,,,,,,,,,,,,,,,,,,,,,
1703489571.544157,1703489571.544816,116.000000,0.000000,4263.974121,4253.333496,4308.077148,4237.307617,4235.641113,4284.230957,4249.487305,4235.128418,4265.512695,4232.948730,4534.358887,4458.333496,4388.077148,4493.974121,6621.000000,4.000000,95.000000,,,,0.000000,4.000000,4.000000,4.000000,4.000000,4.000000,4.000000,4.000000,4.000000,4.000000,4.000000,4.000000,4.000000,4.000000,4.000000,100.000000,,,,,,,,,,,,,,,,,29.000000,0.000000,0.732632,-0.090576,-0.674561,-0.003723,0.978635,-0.121109,0.068856,-15.211894,-42.320938,64.545952
1703489571.551965,1703489571.552624,117.000000,0.000000,4246.410156,4241.410156,4313.589844,4228.846191,4234.358887,4285.384766,4249.487305,4235.128418,4260.897461,4237.948730,4533.589844,4459.487305,4388.205078,4490.641113,4564.000000,4.000000,95.000000,,,,0.000000,4.000000,4.000000,4.000000,4.000000,4.000000,4.000000,4.000000,4.000000,4.000000,4.000000,4.000000,4.000000,4.000000,4.000000,100.000000,,,,,,,,,,,,,,,,,,,,,,,,,,,,
1703489571.559773,1703489571.560531,118.000000,0.000000,4258.205078,4251.025879,4328.333496,4231.153809,4235.128418,4284.615234,4249.615234,4235.769043,4253.589844,4245.641113,4539.743652,4459.487305,4398.333496,4497.307617,5911.000000,4.000000,95.000000,,,,0.000000,4.000000,4.000000,4.000000,4.000000,4.000000,4.000000,4.000000,4.000000,4.000000,4.000000,4.000000,4.000000,4.000000,4.000000,100.000000,,,,,,,,,,,,,,,,,,,,,,,,,,,,
1703489571.567581,1703489571.568339,119.000000,0.000000,4281.794922,4260.256348,4322.436035,4223.846191,4238.205078,4288.846191,4249.358887,4233.974121,4248.333496,4249.743652,4538.077148,4460.256348,4399.102539,4500.641113,6112.000000,4.000000,95.000000,,,,0.000000,4.000000,4.000000,4.000000,4.000000,4.000000,4.000000,4.000000,4.000000,4.000000,4.000000,4.000000,4.000000,4.000000,4.000000,100.000000,,,,,,,,,,,,,,,,,,,,,,,,,,,,
1703489571.575390,1703489571.576047,120.000000,0.000000,4275.769043,4254.358887,4307.563965,4212.179688,4235.384766,4287.307617,4248.717773,4232.820313,4249.230957,4256.025879,4526.025879,4454.871582,4391.922852,4494.487305,6621.000000,4.000000,95.000000,,,,0.000000,4.000000,4.000000,4.000000,4.000000,4.000000,4.000000,4.000000,4.000000,4.000000,4.000000,4.000000,4.000000,4.000000,4.000000,100.000000,,,,,,,,,,,,,,,,,30.000000,0.000000,0.732697,-0.090515,-0.674500,-0.003601,0.984007,-0.133805,0.071786,-15.190704,-42.372177,64.524689
1703489571.583197,1703489571.583854,121.000000,0.000000,4258.846191,4245.641113,4306.538574,4207.307617,4231.410156,4280.512695,4248.461426,4232.948730,4251.794922,4263.717773,4520.000000,4449.230957,4389.358887,4483.974121,4564.000000,4.000000,95.000000,,,,0.000000,4.000000,4.000000,4.000000,4.000000,4.000000,4.000000,4.000000,4.000000,4.000000,4.000000,4.000000,4.000000,4.000000,4.000000,100.000000,,,,,,,,,,,,,,,,,,,,,,,,,,,,
1703489571.591005,1703489571.591562,122.000000,0.000000,4261.922852,4245.256348,4310.512695,4207.307617,4230.384766,4283.205078,4246.410156,4234.358887,4256.410156,4266.153809,4521.410156,4454.487305,4390.512695,4484.102539,5911.000000,4.000000,95.000000,,,,0.000000,4.000000,4.000000,4.000000,4.000000,4.000000,4.000000,4.000000,4.000000,4.000000,4.000000,4.000000,4.000000,4.000000,4.000000,100.000000,,,,,,,,,,,,,,,,,,,,,,,,,,,,
1703489571.598814,1703489571.599470,123.000000,0.000000,4260.897461,4246.025879,4310.256348,4209.358887,4229.743652,4291.025879,4246.922852,4235.769043,4264.358887,4271.282227,4518.333496,4459.487305,4392.051270,4490.256348,6112.000000,4.000000,95.000000,,,,0.000000,4.000000,4.000000,4.000000,4.000000,4.000000,4.000000,4.000000,4.000000,4.000000,4.000000,4.000000,4.000000,4.000000,4.000000,100.000000,,,,,,,,,,,,,,,,,,,,,,,,,,,,
1703489571.606622,1703489571.607278,124.000000,0.000000,4248.974121,4244.743652,4311.410156,4212.307617,4229.358887,4285.384766,4246.922852,4235.512695,4266.922852,4277.051270,4516.538574,4459.230957,4393.974121,4489.615234,6621.000000,4.000000,95.000000,,,,0.000000,4.000000,4.000000,4.000000,4.000000,4.000000,4.000000,4.000000,4.000000,4.000000,4.000000,4.000000,4.000000,4.000000,4.000000,100.000000,,,,,,,,,,,,,,,,,31.000000,0.000000,0.732705,-0.090454,-0.674500,-0.003540,0.988890,-0.134782,0.075693,-15.221634,-42.301628,64.622223
1703489571.614430,1703489571.615086,125.000000,0.000000,4254.871582,4249.743652,4313.461426,4217.692383,4230.769043,4282.692383,4241.538574,4235.769043,4264.615234,4275.897461,4519.358887,4460.000000,4398.974121,4491.282227,4564.000000,4.000000,95.000000,,,,0.000000,4.000000,4.000000,4.000000,4.000000,4.000000,4.000000,4.000000,4.000000,4.000000,4.000000,4.000000,4.000000,4.000000,4.000000,100.000000,,,,,,,,,,,,,,,,,,,,,,,,,,,,
1703489571.622238,1703489571.622794,126.000000,0.000000,4266.538574,4250.512695,4311.153809,4218.077148,4230.384766,4289.230957,4241.410156,4234.743652,4264.615234,4272.051270,4512.563965,4457.820313,4400.256348,4497.436035,5911.000000,4.000000,95.000000,,,,0.000000,4.000000,4.000000,4.000000,4.000000,4.000000,4.000000,4.000000,4.000000,4.000000,4.000000,4.000000,4.000000,4.000000,4.000000,100.000000,,,,,,,,,,,,,,,,,,,,,,,,,,,,
1703489571.630046,1703489571.630602,127.000000,0.000000,4263.589844,4243.974121,4310.128418,4215.897461,4230.512695,4287.307617,4242.051270,4234.358887,4260.641113,4269.358887,4506.025879,4455.000000,4396.025879,4494.743652,95.000000,4.000000,95.000000,,,,0.000000,4.000000,4.000000,4.000000,4.000000,4.000000,4.000000,4.000000,4.000000,4.000000,4.000000,4.000000,4.000000,4.000000,4.000000,100.000000,,,,,,,,,,,,,,,,,,,,,,,,,,,,
1703489571.637854,1703489571.638309,0.000000,0.000000,4261.410156,4246.922852,4312.051270,4222.692383,4231.153809,4286.025879,4239.230957,4230.769043,4253.589844,4267.307617,4506.282227,4453.717773,4396.794922,4490.384766,5551.000000,4.000000,95.000000,,,,0.000000,4.000000,4.000000,4.000000,4.000000,4.000000,4.000000,4.000000,4.000000,4.000000,4.000000,4.000000,4.000000,4.000000,4.000000,100.000000,,,,,,,,,,,,,,,,,0.000000,0.000000,0.732728,-0.090271,-0.674500,-0.003418,0.995727,-0.137224,0.071786,-15.216138,-42.171463,64.660004
1703489571.645662,1703489571.646117,1.000000,0.000000,4262.820313,4249.871582,4310.384766,4227.307617,4230.384766,4292.948730,4238.974121,4222.820313,4247.179688,4262.179688,4497.820313,4451.025879,4394.230957,4493.846191,5120.000000,4.000000,95.000000,,,,0.000000,4.000000,4.000000,4.000000,4.000000,4.000000,4.000000,4.000000,4.000000,4.000000,4.000000,4.000000,4.000000,4.000000,4.000000,100.000000,,,,,,,,,,,,,,,,,,,,,,,,,,,,
1703489571.653470,1703489571.653824,2.000000,0.000000,4254.487305,4242.051270,4304.230957,4220.000000,4227.179688,4290.128418,4237.563965,4216.922852,4237.051270,4250.897461,4483.717773,4448.205078,4380.769043,4485.384766,5372.000000,4.000000,95.000000,,,,0.000000,4.000000,4.000000,4.000000,4.000000,4.000000,4.000000,4.000000,4.000000,4.000000,4.000000,4.000000,4.000000,4.000000,4.000000,100.000000,,,,,,,,,,,,,,,,,,,,,,,,,,,,
1703489571.661278,1703489571.661632,3.000000,0.000000,4249.102539,4237.563965,4305.000000,4218.077148,4221.666504,4277.820313,4233.589844,4214.871582,4228.717773,4240.384766,4476.410156,4446.922852,4372.051270,4474.743652,5290.000000,4.000000,95.000000,,,,0.000000,4.000000,4.000000,4.000000,4.000000,4.000000,4.000000,4.000000,4.000000,4.000000,4.000000,4.000000,4.000000,4.000000,4.000000,100.000000,,,,,,,,,,,,,,,,,,,,,,,,,,,,
1703489571.669086,1703489571.669339,4.000000,0.000000,4251.025879,4236.410156,4310.256348,4220.384766,4217.820313,4278.461426,4235.641113,4219.230957,4235.000000,4240.000000,4475.641113,4451.025879,4372.948730,4476.794922,5021.000000,4.000000,95.000000,,,,0.000000,4.000000,4.000000,4.000000,4.000000,4.000000,4.000000,4.000000,4.000000,4.000000,4.000000,4.000000,4.000000,4.000000,4.000000,100.000000,,,,,,,,,,,,,,,,,1.000000,0.000000,0.732735,-0.090210,-0.674500,-0.003418,0.976193,-0.127945,0.067879,-15.194524,-42.154320,64.744003
1703489571.676894,1703489571.677147,5.000000,0.000000,4242.563965,4231.794922,4308.077148,4215.897461,4216.410156,4283.333496,4237.948730,4229.615234,4248.717773,4246.538574,4482.436035,4455.384766,4379.615234,4474.615234,2182.000000,4.000000,95.000000,,,,0.000000,4.000000,4.000000,4.000000,4.000000,4.000000,4.000000,4.000000,4.000000,4.000000,4.000000,4.000000,4.000000,4.000000,4.000000,100.000000,,,,,,,,,,,,,,,,,,,,,,,,,,,,
1703489571.684702,1703489571.684855,6.000000,0.000000,4233.589844,4231.922852,4304.615234,4215.128418,4217.820313,4280.641113,4231.538574,4233.846191,4251.025879,4246.282227,4485.512695,4452.692383,4384.487305,4471.025879,3769.000000,4.000000,95.000000,,,,0.000000,4.000000,4.000000,4.000000,4.000000,4.000000,4.000000,4.000000,4.000000,4.000000,4.000000,4.000000,4.000000,4.000000,4.000000,100.000000,,,,,,,,,,,,,,,,,,,,,,,,,,,,
1703489571.692510,1703489571.692762,7.000000,0.000000,4239.487305,4234.102539,4304.358887,4222.692383,4218.205078,4279.871582,4227.820313,4230.384766,4248.077148,4240.000000,4475.384766,4451.025879,4378.205078,4471.282227,4762.000000,4.000000,95.000000,,,,0.000000,4.000000,4.000000,4.000000,4.000000,4.000000,4.000000,4.000000,4.000000,4.000000,4.000000,4.000000,4.000000,4.000000,4.000000,100.000000,1.000000,100.000000,4.000000,4.000000,4.000000,4.000000,4.000000,4.000000,4.000000,4.000000,4.000000,4.000000,4.000000,4.000000,4.000000,4.000000,,,,,,,,,,,,
1703489571.700318,1703489571.700570,8.000000,0.000000,4254.871582,4238.205078,4306.922852,4230.384766,4218.077148,4281.025879,4234.358887,4231.922852,4251.025879,4241.025879,4474.487305,4454.743652,4376.153809,4477.948730,4520.000000,4.000000,95.000000,,,,0.000000,4.000000,4.000000,4.000000,4.000000,4.000000,4.000000,4.000000,4.000000,4.000000,4.000000,4.000000,4.000000,4.000000,4.000000,100.000000,,,,,,,,,,,,,,,,,2.000000,0.000000,0.732749,-0.090088,-0.674500,-0.003601,0.974240,-0.120620,0.064949,-15.391738,-42.355553,64.619598
1703489571.708126,1703489571.708478,9.000000,0.000000,4265.512695,4251.282227,4311.666504,4235.512695,4226.025879,4281.538574,4240.641113,4232.436035,4252.563965,4241.538574,4485.000000,4455.769043,4386.922852,4491.922852,5218.000000,4.000000,95.000000,,,,0.000000,4.000000,4.000000,4.000000,4.000000,4.000000,4.000000,4.000000,4.000000,4.000000,4.000000,4.000000,4.000000,4.000000,4.000000,100.000000,,,,,,,,,,,,,,,,,,,,,,,,,,,,
1703489571.715934,1703489571.716286,10.000000,0.000000,4261.922852,4257.179688,4309.358887,4235.897461,4234.487305,4284.358887,4241.153809,4229.487305,4250.128418,4233.461426,4481.922852,4450.384766,4385.000000,4489.871582,5916.000000,4.000000,95.000000,,,,0.000000,4.000000,4.000000,4.000000,4.000000,4.000000,4.000000,4.000000,4.000000,4.000000,4.000000,4.000000,4.000000,4.000000,4.000000,100.000000,,,,,,,,,,,,,,,,,,,,,,,,,,,,
1703489571.723742,1703489571.724193,11.000000,0.000000,4250.641113,4249.487305,4305.384766,4232.820313,4235.384766,4289.743652,4242.051270,4231.538574,4249.615234,4231.538574,4472.436035,4448.461426,4374.230957,4474.871582,6120.000000,4.000000,95.000000,,,,0.000000,4.000000,4.000000,4.000000,4.000000,4.000000,4.000000,4.000000,4.000000,4.000000,4.000000,4.000000,4.000000,4.000000,4.000000,100.000000,,,,,,,,,,,,,,,,,,,,,,,,,,,,
1703489571.731550,1703489571.732001,12.000000,0.000000,4252.820313,4250.256348,4307.820313,4233.461426,4229.743652,4288.333496,4242.179688,4228.333496,4246.794922,4231.794922,4474.230957,4450.384766,4383.589844,4482.692383,6644.000000,4.000000,95.000000,,,,0.000000,4.000000,4.000000,4.000000,4.000000,4.000000,4.000000,4.000000,4.000000,4.000000,4.000000,4.000000,4.000000,4.000000,4.000000,100.000000,,,,,,,,,,,,,,,,,3.000000,0.000000,0.732884,-0.089905,-0.674377,-0.003723,0.970822,-0.114760,0.063484,-15.419230,-42.303329,64.657639
1703489571.739358,1703489571.739909,13.000000,0.000000,4254.230957,4250.641113,4306.025879,4236.282227,4222.820313,4280.256348,4238.205078,4222.051270,4238.205078,4222.436035,4474.102539,4445.256348,4387.179688,4488.205078,4569.000000,4.000000,95.000000,,,,0.000000,4.000000,4.000000,4.000000,4.000000,4.000000,4.000000,4.000000,4.000000,4.000000,4.000000,4.000000,4.000000,4.000000,4.000000,100.000000,,,,,,,,,,,,,,,,,,,,,,,,,,,,
1703489571.747166,1703489571.747716,14.000000,0.000000,4234.487305,4235.769043,4295.000000,4228.589844,4219.743652,4278.589844,4237.051270,4221.410156,4231.282227,4207.820313,4460.256348,4440.769043,4363.077148,4461.794922,5916.000000,4.000000,95.000000,,,,0.000000,4.000000,4.000000,4.000000,4.000000,4.000000,4.000000,4.000000,4.000000,4.000000,4.000000,4.000000,4.000000,4.000000,4.000000,100.000000,,,,,,,,,,,,,,,,,,,,,,,,,,,,
1703489571.754974,1703489571.755624,15.000000,0.000000,4228.205078,4226.410156,4290.256348,4217.820313,4217.820313,4281.025879,4235.384766,4221.538574,4232.179688,4198.589844,4451.666504,4446.282227,4350.641113,4455.128418,6120.000000,4.000000,95.000000,,,,0.000000,4.000000,4.000000,4.000000,4.000000,4.000000,4.000000,4.000000,4.000000,4.000000,4.000000,4.000000,4.000000,4.000000,4.000000,100.000000,,,,,,,,,,,,,,,,,,,,,,,,,,,,
1703489571.762782,1703489571.763432,16.000000,0.000000,4250.641113,4234.487305,4299.871582,4223.461426,4215.897461,4280.512695,4232.820313,4225.641113,4240.000000,4204.615234,4466.922852,4452.692383,4370.769043,4478.461426,0.000000,4.000000,95.000000,,,,0.000000,4.000000,4.000000,4.000000,4.000000,4.000000,4.000000,4.000000,4.000000,4.000000,4.000000,4.000000,4.000000,4.000000,4.000000,100.000000,,,,,,,,,,,,,,,,,4.000000,0.000000,0.732855,-0.090149,-0.674377,-0.003418,0.978635,-0.125015,0.078135,-15.327308,-42.106331,64.741875
1703489571.770590,1703489571.771240,17.000000,0.000000,4253.974121,4242.051270,4311.153809,4233.974121,4222.051270,4281.025879,4236.282227,4235.384766,4249.230957,4216.025879,4484.102539,4455.641113,4387.051270,4478.974121,0.000000,4.000000,95.000000,,,,0.000000,4.000000,4.000000,4.000000,4.000000,4.000000,4.000000,4.000000,4.000000,4.000000,4.000000,4.000000,4.000000,4.000000,4.000000,100.000000,,,,,,,,,,,,,,,,,,,,,,,,,,,,
1703489571.778399,1703489571.779047,18.000000,0.000000,4239.871582,4241.538574,4313.461426,4236.666504,4226.410156,4281.794922,4239.743652,4235.256348,4253.717773,4216.794922,4484.102539,4456.922852,4382.563965,4472.436035,0.000000,4.000000,95.000000,,,,0.000000,4.000000,4.000000,4.000000,4.000000,4.000000,4.000000,4.000000,4.000000,4.000000,4.000000,4.000000,4.000000,4.000000,4.000000,100.000000,,,,,,,,,,,,,,,,,,,,,,,,,,,,
1703489571.786207,1703489571.786755,19.000000,0.000000,4253.589844,4242.563965,4310.769043,4237.179688,4220.384766,4280.256348,4237.820313,4230.769043,4252.692383,4214.358887,4484.230957,4456.794922,4382.179688,4487.307617,0.000000,4.000000,95.000000,,,,0.000000,4.000000,4.000000,4.000000,4.000000,4.000000,4.000000,4.000000,4.000000,4.000000,4.000000,4.000000,4.000000,4.000000,4.000000,100.000000,,,,,,,,,,,,,,,,,,,,,,,,,,,,
1703489571.794015,1703489571.794563,20.000000,0.000000,4267.948730,4246.794922,4310.512695,4229.230957,4221.794922,4280.897461,4237.051270,4230.512695,4250.384766,4216.410156,4488.846191,4455.000000,4391.153809,4498.846191,0.000000,4.000000,95.000000,,,,0.000000,4.000000,4.000000,4.000000,4.000000,4.000000,4.000000,4.000000,4.000000,4.000000,4.000000,4.000000,4.000000,4.000000,4.000000,100.000000,,,,,,,,,,,,,,,,,5.000000,0.000000,0.732721,-0.090332,-0.674500,-0.003174,0.986449,-0.124039,0.071298,-15.411243,-42.162365,64.551025
1703489571.801823,1703489571.802271,21.000000,0.000000,4255.128418,4247.307617,4308.461426,4216.410156,4228.461426,4281.282227,4234.615234,4222.820313,4249.358887,4214.871582,4482.051270,4446.794922,4386.922852,4490.512695,0.000000,4.000000,95.000000,,,,0.000000,4.000000,4.000000,4.000000,4.000000,4.000000,4.000000,4.000000,4.000000,4.000000,4.000000,4.000000,4.000000,4.000000,4.000000,100.000000,,,,,,,,,,,,,,,,,,,,,,,,,,,,
1703489571.809631,1703489571.810078,22.000000,0.000000,4245.000000,4244.102539,4302.051270,4223.077148,4227.563965,4278.717773,4233.333496,4215.256348,4246.025879,4211.666504,4469.358887,4438.846191,4372.948730,4477.563965,0.000000,4.000000,95.000000,,,,0.000000,4.000000,4.000000,4.000000,4.000000,4.000000,4.000000,4.000000,4.000000,4.000000,4.000000,4.000000,4.000000,4.000000,4.000000,100.000000,,,,,,,,,,,,,,,,,,,,,,,,,,,,
1703489571.817439,1703489571.817786,23.000000,0.000000,4247.436035,4243.077148,4298.974121,4232.820313,4227.436035,4278.717773,4235.897461,4216.666504,4240.256348,4210.641113,4473.205078,4440.897461,4375.256348,4475.769043,0.000000,4.000000,95.000000,,,,0.000000,4.000000,4.000000,4.000000,4.000000,4.000000,4.000000,4.000000,4.000000,4.000000,4.000000,4.000000,4.000000,4.000000,4.000000,100.000000,,,,,,,,,,,,,,,,,,,,,,,,,,,,
1703489571.825247,1703489571.825594,24.000000,0.000000,4247.563965,4245.897461,4296.538574,4221.153809,4231.282227,4282.692383,4233.205078,4216.410156,4235.256348,4208.077148,4476.153809,4441.282227,4379.743652,4476.794922,0.000000,4.000000,95.000000,,,,0.000000,4.000000,4.000000,4.000000,4.000000,4.000000,4.000000,4.000000,4.000000,4.000000,4.000000,4.000000,4.000000,4.000000,4.000000,100.000000,,,,,,,,,,,,,,,,,6.000000,0.000000,0.732651,-0.090454,-0.674561,-0.003052,0.985472,-0.129899,0.071786,-15.236786,-42.279461,64.695923
1703489571.833055,1703489571.833301,25.000000,0.000000,4245.512695,4244.743652,4293.717773,4212.692383,4230.897461,4283.077148,4230.641113,4213.846191,4233.461426,4202.436035,4461.794922,4435.256348,4367.307617,4470.897461,0.000000,4.000000,95.000000,,,,0.000000,4.000000,4.000000,4.000000,4.000000,4.000000,4.000000,4.000000,4.000000,4.000000,4.000000,4.000000,4.000000,4.000000,4.000000,100.000000,,,,,,,,,,,,,,,,,,,,,,,,,,,,
1703489571.840863,1703489571.841109,26.000000,0.000000,4245.512695,4238.077148,4293.974121,4221.282227,4229.102539,4280.769043,4239.871582,4217.179688,4231.153809,4199.487305,4460.000000,4436.153809,4360.897461,4471.025879,0.000000,4.000000,95.000000,,,,0.000000,4.000000,4.000000,4.000000,4.000000,4.000000,4.000000,4.000000,4.000000,4.000000,4.000000,4.000000,4.000000,4.000000,4.000000,100.000000,,,,,,,,,,,,,,,,,,,,,,,,,,,,
1703489571.848671,1703489571.848816,27.000000,0.000000,4244.871582,4233.205078,4299.102539,4229.230957,4231.025879,4280.769043,4245.897461,4226.025879,4232.436035,4205.769043,4472.436035,4443.461426,4369.230957,4475.256348,0.000000,4.000000,95.000000,,,,0.000000,4.000000,4.000000,4.000000,4.000000,4.000000,4.000000,4.000000,4.000000,4.000000,4.000000,4.000000,4.000000,4.000000,4.000000,100.000000,,,,,,,,,,,,,,,,,,,,,,,,,,,,
1703489571.856479,1703489571.856624,28.000000,0.000000,4247.051270,4234.487305,4305.641113,4231.410156,4232.179688,4280.000000,4240.128418,4233.717773,4240.641113,4216.794922,4480.641113,4448.461426,4380.512695,4473.333496,0.000000,4.000000,95.000000,,,,0.000000,4.000000,4.000000,4.000000,4.000000,4.000000,4.000000,4.000000,4.000000,4.000000,4.000000,4.000000,4.000000,4.000000,4.000000,100.000000,,,,,,,,,,,,,,,,,7.000000,0.000000,0.732636,-0.090576,-0.674561,-0.002869,0.967403,-0.129410,0.073739,-15.046441,-42.218182,64.692993
1703489571.864287,1703489571.864331,29.000000,0.000000,4248.205078,4235.769043,4308.205078,4231.282227,4225.769043,4276.794922,4235.000000,4233.461426,4242.820313,4220.384766,4481.922852,4446.282227,4387.179688,4478.461426,0.000000,4.000000,95.000000,,,,0.000000,4.000000,4.000000,4.000000,4.000000,4.000000,4.000000,4.000000,4.000000,4.000000,4.000000,4.000000,4.000000,4.000000,4.000000,100.000000,,,,,,,,,,,,,,,,,,,,,,,,,,,,
1703489571.872095,1703489571.872139,30.000000,0.000000,4247.436035,4233.077148,4306.666504,4232.948730,4221.538574,4275.128418,4237.179688,4224.615234,4240.384766,4217.051270,4481.666504,4442.948730,4384.358887,4488.205078,0.000000,4.000000,95.000000,,,,0.000000,4.000000,4.000000,4.000000,4.000000,4.000000,4.000000,4.000000,4.000000,4.000000,4.000000,4.000000,4.000000,4.000000,4.000000,100.000000,,,,,,,,,,,,,,,,,,,,,,,,,,,,
1703489571.879903,1703489571.879846,31.000000,0.000000,4248.077148,4234.230957,4306.282227,4241.025879,4227.948730,4277.051270,4236.538574,4218.589844,4241.538574,4214.102539,4476.282227,4442.436035,4371.410156,4484.102539,0.000000,4.000000,95.000000,,,,0.000000,4.000000,4.000000,4.000000,4.000000,4.000000,4.000000,4.000000,4.000000,4.000000,4.000000,4.000000,4.000000,4.000000,4.000000,100.000000,,,,,,,,,,,,,,,,,,,,,,,,,,,,
1703489571.887711,1703489571.887754,32.000000,0.000000,4248.461426,4240.512695,4308.077148,4249.743652,4230.897461,4278.461426,4233.461426,4218.461426,4239.743652,4209.743652,4472.563965,4441.410156,4366.153809,4474.358887,0.000000,4.000000,95.000000,,,,0.000000,4.000000,4.000000,4.000000,4.000000,4.000000,4.000000,4.000000,4.000000,4.000000,4.000000,4.000000,4.000000,4.000000,4.000000,100.000000,,,,,,,,,,,,,,,,,8.000000,0.000000,0.732670,-0.090759,-0.674500,-0.002686,0.972775,-0.128922,0.082530,-15.025130,-42.179699,64.723694
1703489571.895519,1703489571.895562,33.000000,0.000000,4251.025879,4247.051270,4313.589844,4249.230957,4230.128418,4279.230957,4235.384766,4219.102539,4233.846191,4210.000000,4478.717773,4444.230957,4378.077148,4477.563965,0.000000,4.000000,95.000000,,,,0.000000,4.000000,4.000000,4.000000,4.000000,4.000000,4.000000,4.000000,4.000000,4.000000,4.000000,4.000000,4.000000,4.000000,4.000000,100.000000,,,,,,,,,,,,,,,,,,,,,,,,,,,,
1703489571.903327,1703489571.903470,34.000000,0.000000,4250.128418,4246.153809,4314.743652,4241.538574,4231.666504,4279.102539,4235.769043,4218.333496,4233.205078,4212.563965,4480.641113,4445.384766,4382.563965,4484.358887,0.000000,4.000000,95.000000,,,,0.000000,4.000000,4.000000,4.000000,4.000000,4.000000,4.000000,4.000000,4.000000,4.000000,4.000000,4.000000,4.000000,4.000000,4.000000,100.000000,,,,,,,,,,,,,,,,,,,,,,,,,,,,
1703489571.911135,1703489571.911278,35.000000,0.000000,4241.025879,4237.436035,4303.461426,4229.615234,4231.410156,4277.307617,4232.563965,4216.410156,4234.615234,4205.641113,4475.384766,4440.000000,4374.230957,4481.410156,0.000000,4.000000,95.000000,,,,0.000000,4.000000,4.000000,4.000000,4.000000,4.000000,4.000000,4.000000,4.000000,4.000000,4.000000,4.000000,4.000000,4.000000,4.000000,100.000000,,,,,,,,,,,,,,,,,,,,,,,,,,,,
1703489571.918943,1703489571.919185,36.000000,0.000000,4232.179688,4230.128418,4292.563965,4219.615234,4226.153809,4277.948730,4231.410156,4215.128418,4232.436035,4200.000000,4474.230957,4436.282227,4373.589844,4475.769043,0.000000,4.000000,95.000000,,,,0.000000,4.000000,4.000000,4.000000,4.000000,4.000000,4.000000,4.000000,4.000000,4.000000,4.000000,4.000000,4.000000,4.000000,4.000000,100.000000,,,,,,,,,,,,,,,,,9.000000,0.000000,0.732704,-0.090942,-0.674438,-0.002686,0.979612,-0.127945,0.072763,-15.222617,-42.228394,64.701324
1703489571.926751,1703489571.926993,37.000000,0.000000,4231.922852,4229.487305,4296.538574,4223.333496,4222.179688,4274.230957,4231.922852,4215.128418,4231.410156,4204.230957,4479.487305,4439.615234,4381.666504,4478.205078,0.000000,4.000000,95.000000,,,,0.000000,4.000000,4.000000,4.000000,4.000000,4.000000,4.000000,4.000000,4.000000,4.000000,4.000000,4.000000,4.000000,4.000000,4.000000,100.000000,,,,,,,,,,,,,,,,,,,,,,,,,,,,
1703489571.934559,1703489571.934901,38.000000,0.000000,4240.256348,4231.410156,4306.666504,4229.743652,4221.794922,4271.153809,4233.846191,4217.948730,4229.615234,4211.025879,4488.589844,4445.897461,4390.128418,4491.153809,0.000000,4.000000,95.000000,,,,0.000000,4.000000,4.000000,4.000000,4.000000,4.000000,4.000000,4.000000,4.000000,4.000000,4.000000,4.000000,4.000000,4.000000,4.000000,100.000000,,,,,,,,,,,,,,,,,,,,,,,,,,,,
1703489571.942367,1703489571.942708,39.000000,0.000000,4242.948730,4225.384766,4309.871582,4222.820313,4221.282227,4273.846191,4235.256348,4220.641113,4230.641113,4214.487305,4500.000000,4446.282227,4398.333496,4496.666504,0.000000,4.000000,95.000000,,,,0.000000,4.000000,4.000000,4.000000,4.000000,4.000000,4.000000,4.000000,4.000000,4.000000,4.000000,4.000000,4.000000,4.000000,4.000000,100.000000,,,,,,,,,,,,,,,,,,,,,,,,,,,,
1703489571.950175,1703489571.950616,40.000000,0.000000,4236.025879,4215.000000,4302.692383,4212.948730,4216.538574,4270.256348,4232.307617,4219.102539,4232.563965,4213.974121,4501.025879,4439.487305,4401.025879,4488.846191,0.000000,4.000000,95.000000,,,,0.000000,4.000000,4.000000,4.000000,4.000000,4.000000,4.000000,4.000000,4.000000,4.000000,4.000000,4.000000,4.000000,4.000000,4.000000,100.000000,,,,,,,,,,,,,,,,,10.000000,0.000000,0.732667,-0.091248,-0.674438,-0.002380,0.980588,-0.123062,0.071298,-15.133689,-42.188889,64.764526
1703489571.957983,1703489571.958424,41.000000,0.000000,4228.589844,4212.051270,4292.948730,4211.153809,4213.333496,4264.230957,4227.563965,4217.563965,4231.538574,4211.282227,4492.179688,4435.897461,4395.256348,4486.410156,0.000000,4.000000,95.000000,,,,0.000000,4.000000,4.000000,4.000000,4.000000,4.000000,4.000000,4.000000,4.000000,4.000000,4.000000,4.000000,4.000000,4.000000,4.000000,100.000000,,,,,,,,,,,,,,,,,,,,,,,,,,,,
1703489571.965792,1703489571.966131,42.000000,0.000000,4233.717773,4216.538574,4296.666504,4214.743652,4219.871582,4268.974121,4228.717773,4223.077148,4240.641113,4216.538574,4498.717773,4440.128418,4399.358887,4489.871582,0.000000,4.000000,95.000000,,,,0.000000,4.000000,4.000000,4.000000,4.000000,4.000000,4.000000,4.000000,4.000000,4.000000,4.000000,4.000000,4.000000,4.000000,4.000000,100.000000,,,,,,,,,,,,,,,,,,,,,,,,,,,,
1703489571.973600,1703489571.973939,43.000000,0.000000,4245.128418,4219.358887,4303.077148,4218.974121,4225.000000,4272.948730,4233.077148,4229.487305,4250.128418,4222.820313,4511.538574,4442.179688,4413.717773,4490.384766,0.000000,4.000000,95.000000,,,,0.000000,4.000000,4.000000,4.000000,4.000000,4.000000,4.000000,4.000000,4.000000,4.000000,4.000000,4.000000,4.000000,4.000000,4.000000,100.000000,,,,,,,,,,,,,,,,,,,,,,,,,,,,
1703489571.981408,1703489571.981647,44.000000,0.000000,4240.641113,4215.897461,4296.922852,4217.948730,4220.769043,4266.282227,4231.282227,4229.487305,4242.948730,4219.102539,4510.769043,4440.384766,4412.692383,4489.230957,0.000000,4.000000,95.000000,,,,0.000000,4.000000,4.000000,4.000000,4.000000,4.000000,4.000000,4.000000,4.000000,4.000000,4.000000,4.000000,4.000000,4.000000,4.000000,100.000000,,,,,,,,,,,,,,,,,11.000000,0.000000,0.732713,-0.091797,-0.674316,-0.001648,0.988402,-0.129410,0.067879,-15.236986,-42.286667,64.654739
1703489571.989216,1703489571.989455,45.000000,0.000000,4232.179688,4213.333496,4299.615234,4214.871582,4217.820313,4262.563965,4227.563965,4229.615234,4241.153809,4217.436035,4513.205078,4443.461426,4403.461426,4491.282227,0.000000,4.000000,95.000000,,,,0.000000,4.000000,4.000000,4.000000,4.000000,4.000000,4.000000,4.000000,4.000000,4.000000,4.000000,4.000000,4.000000,4.000000,4.000000,100.000000,,,,,,,,,,,,,,,,,,,,,,,,,,,,
1703489571.997024,1703489571.997163,46.000000,0.000000,4239.230957,4216.794922,4313.333496,4225.384766,4221.153809,4265.000000,4231.538574,4232.051270,4248.205078,4220.000000,4523.461426,4447.692383,4407.179688,4497.563965,0.000000,4.000000,95.000000,,,,0.000000,4.000000,4.000000,4.000000,4.000000,4.000000,4.000000,4.000000,4.000000,4.000000,4.000000,4.000000,4.000000,4.000000,4.000000,100.000000,,,,,,,,,,,,,,,,,,,,,,,,,,,,
1703489572.004832,1703489572.004970,47.000000,0.000000,4252.179688,4222.692383,4313.974121,4236.025879,4222.563965,4262.820313,4233.205078,4232.179688,4239.102539,4215.000000,4523.461426,4443.717773,4415.128418,4503.589844,0.000000,4.000000,95.000000,,,,0.000000,4.000000,4.000000,4.000000,4.000000,4.000000,4.000000,4.000000,4.000000,4.000000,4.000000,4.000000,4.000000,4.000000,4.000000,100.000000,,,,,,,,,,,,,,,,,,,,,,,,,,,,
1703489572.012640,1703489572.012678,48.000000,0.000000,4252.051270,4220.128418,4309.871582,4232.179688,4217.948730,4258.846191,4226.794922,4227.820313,4227.179688,4210.128418,4523.717773,4440.384766,4413.717773,4500.128418,0.000000,4.000000,95.000000,,,,0.000000,4.000000,4.000000,4.000000,4.000000,4.000000,4.000000,4.000000,4.000000,4.000000,4.000000,4.000000,4.000000,4.000000,4.000000,100.000000,,,,,,,,,,,,,,,,,12.000000,0.000000,0.732781,-0.092163,-0.674194,-0.000732,0.970822,-0.132829,0.074716,-15.196621,-42.291332,64.689270
1703489572.020448,1703489572.020486,49.000000,0.000000,4236.025879,4210.769043,4312.692383,4227.820313,4215.128418,4258.461426,4225.128418,4223.077148,4232.948730,4210.897461,4528.846191,4444.102539,4412.820313,4490.512695,0.000000,4.000000,95.000000,,,,0.000000,4.000000,4.000000,4.000000,4.000000,4.000000,4.000000,4.000000,4.000000,4.000000,4.000000,4.000000,4.000000,4.000000,4.000000,100.000000,,,,,,,,,,,,,,,,,,,,,,,,,,,,
1703489572.028256,1703489572.028194,50.000000,0.000000,4228.974121,4210.769043,4309.102539,4231.025879,4216.538574,4255.641113,4231.282227,4219.358887,4233.205078,4206.538574,4524.358887,4442.436035,4408.077148,4489.487305,0.000000,4.000000,95.000000,,,,0.000000,4.000000,4.000000,4.000000,4.000000,4.000000,4.000000,4.000000,4.000000,4.000000,4.000000,4.000000,4.000000,4.000000,4.000000,100.000000,,,,,,,,,,,,,,,,,,,,,,,,,,,,
1703489572.036064,1703489572.036101,51.000000,0.000000,4245.256348,4218.846191,4308.205078,4236.025879,4218.846191,4253.846191,4233.333496,4217.051270,4220.384766,4195.897461,4519.358887,4437.692383,4398.461426,4497.563965,0.000000,4.000000,95.000000,,,,0.000000,4.000000,4.000000,4.000000,4.000000,4.000000,4.000000,4.000000,4.000000,4.000000,4.000000,4.000000,4.000000,4.000000,4.000000,100.000000,,,,,,,,,,,,,,,,,,,,,,,,,,,,
1703489572.043872,1703489572.043909,52.000000,0.000000,4251.282227,4217.692383,4310.384766,4237.179688,4220.512695,4257.179688,4231.025879,4215.897461,4217.948730,4189.487305,4519.615234,4440.384766,4397.692383,4490.769043,0.000000,4.000000,95.000000,,,,0.000000,4.000000,4.000000,4.000000,4.000000,4.000000,4.000000,4.000000,4.000000,4.000000,4.000000,4.000000,4.000000,4.000000,4.000000,100.000000,,,,,,,,,,,,,,,,,13.000000,0.000000,0.732717,-0.092224,-0.674255,-0.000488,0.981565,-0.134782,0.080088,-15.260292,-42.262199,64.687004
1703489572.051680,1703489572.051817,53.000000,0.000000,4230.384766,4213.846191,4297.563965,4233.077148,4217.563965,4258.205078,4231.794922,4216.282227,4224.615234,4188.205078,4510.641113,4440.769043,4393.077148,4471.666504,0.000000,4.000000,95.000000,,,,0.000000,4.000000,4.000000,4.000000,4.000000,4.000000,4.000000,4.000000,4.000000,4.000000,4.000000,4.000000,4.000000,4.000000,4.000000,100.000000,,,,,,,,,,,,,,,,,,,,,,,,,,,,
1703489572.059488,1703489572.059625,54.000000,0.000000,4227.692383,4218.461426,4295.897461,4232.179688,4216.410156,4257.948730,4232.820313,4218.846191,4227.820313,4187.436035,4504.743652,4438.461426,4388.846191,4476.794922,0.000000,4.000000,95.000000,,,,0.000000,4.000000,4.000000,4.000000,4.000000,4.000000,4.000000,4.000000,4.000000,4.000000,4.000000,4.000000,4.000000,4.000000,4.000000,100.000000,,,,,,,,,,,,,,,,,,,,,,,,,,,,
1703489572.067296,1703489572.067533,55.000000,0.000000,4242.307617,4222.179688,4307.307617,4234.615234,4224.615234,4262.820313,4231.794922,4218.717773,4227.820313,4187.307617,4515.000000,4440.256348,4395.512695,4494.102539,0.000000,4.000000,95.000000,,,,0.000000,4.000000,4.000000,4.000000,4.000000,4.000000,4.000000,4.000000,4.000000,4.000000,4.000000,4.000000,4.000000,4.000000,4.000000,100.000000,,,,,,,,,,,,,,,,,,,,,,,,,,,,
1703489572.075104,1703489572.075341,56.000000,0.000000,4236.410156,4223.077148,4302.307617,4233.333496,4228.205078,4266.282227,4231.794922,4219.230957,4229.358887,4188.846191,4519.743652,4438.333496,4393.846191,4483.717773,0.000000,4.000000,95.000000,,,,0.000000,4.000000,4.000000,4.000000,4.000000,4.000000,4.000000,4.000000,4.000000,4.000000,4.000000,4.000000,4.000000,4.000000,4.000000,100.000000,,,,,,,,,,,,,,,,,14.000000,0.000000,0.732758,-0.092346,-0.674194,-0.000305,0.990844,-0.133805,0.070321,-15.217596,-42.469315,64.751640
1703489572.082912,1703489572.083149,57.000000,0.000000,4235.256348,4229.102539,4298.333496,4238.205078,4224.487305,4261.410156,4234.615234,4227.948730,4234.230957,4198.205078,4524.358887,4438.846191,4396.282227,4475.128418,0.000000,4.000000,95.000000,,,,0.000000,4.000000,4.000000,4.000000,4.000000,4.000000,4.000000,4.000000,4.000000,4.000000,4.000000,4.000000,4.000000,4.000000,4.000000,100.000000,,,,,,,,,,,,,,,,,,,,,,,,,,,,
1703489572.090720,1703489572.090857,58.000000,0.000000,4252.051270,4236.153809,4312.948730,4249.615234,4228.461426,4255.000000,4235.897461,4237.179688,4239.487305,4211.282227,4538.589844,4445.897461,4414.615234,4500.384766,0.000000,4.000000,95.000000,,,,0.000000,4.000000,4.000000,4.000000,4.000000,4.000000,4.000000,4.000000,4.000000,4.000000,4.000000,4.000000,4.000000,4.000000,4.000000,100.000000,,,,,,,,,,,,,,,,,,,,,,,,,,,,
1703489572.098528,1703489572.098764,59.000000,0.000000,4252.051270,4235.128418,4316.153809,4250.897461,4230.641113,4249.743652,4235.128418,4231.666504,4234.487305,4207.692383,4534.743652,4444.615234,4412.179688,4502.563965,0.000000,4.000000,95.000000,,,,0.000000,4.000000,4.000000,4.000000,4.000000,4.000000,4.000000,4.000000,4.000000,4.000000,4.000000,4.000000,4.000000,4.000000,4.000000,100.000000,,,,,,,,,,,,,,,,,,,,,,,,,,,,
1703489572.106336,1703489572.106572,60.000000,0.000000,4242.436035,4232.051270,4304.230957,4245.384766,4221.538574,4247.179688,4230.128418,4216.922852,4221.666504,4191.794922,4518.974121,4435.000000,4389.358887,4473.333496,0.000000,4.000000,95.000000,,,,0.000000,4.000000,4.000000,4.000000,4.000000,4.000000,4.000000,4.000000,4.000000,4.000000,4.000000,4.000000,4.000000,4.000000,4.000000,100.000000,,,,,,,,,,,,,,,,,15.000000,0.000000,0.732630,-0.092468,-0.674316,-0.000366,0.973263,-0.135759,0.080088,-15.312504,-42.405716,64.693138
1703489572.114144,1703489572.114480,61.000000,0.000000,4242.436035,4231.794922,4301.922852,4248.589844,4216.410156,4247.820313,4223.333496,4212.436035,4214.871582,4186.666504,4517.692383,4431.153809,4385.769043,4470.641113,0.000000,4.000000,95.000000,,,,0.000000,4.000000,4.000000,4.000000,4.000000,4.000000,4.000000,4.000000,4.000000,4.000000,4.000000,4.000000,4.000000,4.000000,4.000000,100.000000,,,,,,,,,,,,,,,,,,,,,,,,,,,,
1703489572.121952,1703489572.122287,62.000000,0.000000,4236.153809,4224.102539,4302.179688,4250.897461,4216.922852,4245.769043,4224.230957,4212.820313,4209.615234,4186.025879,4517.051270,4436.025879,4387.948730,4476.153809,0.000000,4.000000,95.000000,,,,0.000000,4.000000,4.000000,4.000000,4.000000,4.000000,4.000000,4.000000,4.000000,4.000000,4.000000,4.000000,4.000000,4.000000,4.000000,100.000000,,,,,,,,,,,,,,,,,,,,,,,,,,,,
1703489572.129760,1703489572.130195,63.000000,0.000000,4226.922852,4215.384766,4295.641113,4248.589844,4216.922852,4246.666504,4227.051270,4204.102539,4198.846191,4172.692383,4505.897461,4434.615234,4376.666504,4461.282227,0.000000,4.000000,95.000000,,,,0.000000,4.000000,4.000000,4.000000,4.000000,4.000000,4.000000,4.000000,4.000000,4.000000,4.000000,4.000000,4.000000,4.000000,4.000000,100.000000,,,,,,,,,,,,,,,,,,,,,,,,,,,,
1703489572.137568,1703489572.138003,64.000000,0.000000,4230.769043,4222.820313,4291.410156,4255.769043,4221.538574,4250.256348,4226.282227,4197.563965,4193.974121,4161.282227,4498.333496,4427.692383,4366.794922,4452.436035,5549.000000,4.000000,95.000000,,,,0.000000,4.000000,4.000000,4.000000,4.000000,4.000000,4.000000,4.000000,4.000000,4.000000,4.000000,4.000000,4.000000,4.000000,4.000000,100.000000,,,,,,,,,,,,,,,,,16.000000,0.000000,0.732558,-0.092590,-0.674377,-0.000488,0.976682,-0.122085,0.072274,-15.297920,-42.398476,64.673828
1703489572.145377,1703489572.145711,65.000000,0.000000,4232.563965,4232.948730,4295.128418,4265.641113,4223.461426,4249.358887,4229.358887,4208.589844,4205.512695,4170.384766,4506.794922,4431.666504,4373.717773,4464.743652,5120.000000,4.000000,95.000000,,,,0.000000,4.000000,4.000000,4.000000,4.000000,4.000000,4.000000,4.000000,4.000000,4.000000,4.000000,4.000000,4.000000,4.000000,4.000000,100.000000,,,,,,,,,,,,,,,,,,,,,,,,,,,,
1703489572.153185,1703489572.153518,66.000000,0.000000,4229.487305,4229.615234,4301.153809,4266.538574,4219.358887,4246.025879,4234.230957,4220.897461,4224.871582,4186.153809,4524.615234,4441.538574,4393.974121,4477.820313,5362.000000,4.000000,95.000000,,,,0.000000,4.000000,4.000000,4.000000,4.000000,4.000000,4.000000,4.000000,4.000000,4.000000,4.000000,4.000000,4.000000,4.000000,4.000000,100.000000,,,,,,,,,,,,,,,,,,,,,,,,,,,,
1703489572.160993,1703489572.161226,67.000000,0.000000,4234.358887,4230.641113,4303.333496,4266.282227,4219.615234,4247.307617,4233.589844,4221.922852,4233.333496,4190.641113,4528.846191,4444.487305,4401.538574,4477.692383,5292.000000,4.000000,95.000000,,,,0.000000,4.000000,4.000000,4.000000,4.000000,4.000000,4.000000,4.000000,4.000000,4.000000,4.000000,4.000000,4.000000,4.000000,4.000000,100.000000,,,,,,,,,,,,,,,,,,,,,,,,,,,,
1703489572.168801,1703489572.169134,68.000000,0.000000,4237.820313,4229.871582,4301.153809,4266.922852,4220.769043,4242.563965,4228.846191,4225.641113,4233.846191,4195.641113,4528.589844,4443.461426,4394.358887,4472.563965,5016.000000,4.000000,95.000000,,,,0.000000,4.000000,4.000000,4.000000,4.000000,4.000000,4.000000,4.000000,4.000000,4.000000,4.000000,4.000000,4.000000,4.000000,4.000000,100.000000,,,,,,,,,,,,,,,,,17.000000,0.000000,0.732574,-0.092468,-0.674377,-0.000427,0.980588,-0.137712,0.067391,-15.251461,-42.341961,64.573112
1703489572.176609,1703489572.176942,69.000000,0.000000,4233.205078,4218.205078,4301.794922,4265.512695,4216.922852,4234.358887,4224.615234,4233.589844,4238.333496,4200.384766,4535.897461,4443.974121,4395.256348,4472.563965,2172.000000,4.000000,95.000000,,,,0.000000,4.000000,4.000000,4.000000,4.000000,4.000000,4.000000,4.000000,4.000000,4.000000,4.000000,4.000000,4.000000,4.000000,4.000000,100.000000,,,,,,,,,,,,,,,,,,,,,,,,,,,,
1703489572.184417,1703489572.184850,70.000000,0.000000,4234.102539,4221.666504,4305.384766,4272.436035,4214.871582,4237.307617,4224.615234,4230.128418,4234.102539,4192.179688,4532.563965,4442.692383,4395.897461,4477.820313,3769.000000,4.000000,95.000000,,,,0.000000,4.000000,4.000000,4.000000,4.000000,4.000000,4.000000,4.000000,4.000000,4.000000,4.000000,4.000000,4.000000,4.000000,4.000000,100.000000,,,,,,,,,,,,,,,,,,,,,,,,,,,,
1703489572.192225,1703489572.192658,71.000000,0.000000,4241.025879,4234.743652,4301.410156,4282.436035,4217.563965,4237.692383,4229.358887,4220.769043,4218.589844,4182.948730,4520.641113,4440.128418,4383.717773,4475.000000,4762.000000,4.000000,95.000000,,,,0.000000,4.000000,4.000000,4.000000,4.000000,4.000000,4.000000,4.000000,4.000000,4.000000,4.000000,4.000000,4.000000,4.000000,4.000000,100.000000,1.000000,91.666664,4.000000,4.000000,4.000000,4.000000,4.000000,4.000000,4.000000,4.000000,4.000000,3.000000,4.000000,4.000000,4.000000,4.000000,,,,,,,,,,,,
1703489572.200033,1703489572.200466,72.000000,0.000000,4245.769043,4233.333496,4301.666504,4281.666504,4219.615234,4233.974121,4231.538574,4220.256348,4214.743652,4178.589844,4520.769043,4441.153809,4376.025879,4468.717773,4522.000000,4.000000,95.000000,,,,0.000000,4.000000,4.000000,4.000000,4.000000,4.000000,4.000000,4.000000,4.000000,4.000000,4.000000,4.000000,4.000000,4.000000,4.000000,100.000000,,,,,,,,,,,,,,,,,18.000000,0.000000,0.732510,-0.092529,-0.674438,-0.000061,0.997192,-0.138200,0.067391,-15.309649,-42.391098,64.499130
1703489572.207841,1703489572.208174,73.000000,0.000000,4250.384766,4229.743652,4310.512695,4279.230957,4218.461426,4239.871582,4230.769043,4220.384766,4214.230957,4173.333496,4526.153809,4441.794922,4383.077148,4475.897461,5218.000000,4.000000,95.000000,,,,0.000000,4.000000,4.000000,4.000000,4.000000,4.000000,4.000000,4.000000,4.000000,4.000000,4.000000,4.000000,4.000000,4.000000,4.000000,100.000000,,,,,,,,,,,,,,,,,,,,,,,,,,,,
1703489572.215649,1703489572.215982,74.000000,0.000000,4247.307617,4232.948730,4307.051270,4281.410156,4216.153809,4241.282227,4229.358887,4210.897461,4203.333496,4169.743652,4521.794922,4436.794922,4384.615234,4477.179688,5896.000000,4.000000,95.000000,,,,0.000000,4.000000,4.000000,4.000000,4.000000,4.000000,4.000000,4.000000,4.000000,4.000000,4.000000,4.000000,4.000000,4.000000,4.000000,100.000000,,,,,,,,,,,,,,,,,,,,,,,,,,,,
1703489572.223457,1703489572.223689,75.000000,0.000000,4237.563965,4228.205078,4293.974121,4278.205078,4217.436035,4232.563965,4227.948730,4201.282227,4195.769043,4164.615234,4510.000000,4432.051270,4369.230957,4453.205078,6120.000000,4.000000,95.000000,,,,0.000000,4.000000,4.000000,4.000000,4.000000,4.000000,4.000000,4.000000,4.000000,4.000000,4.000000,4.000000,4.000000,4.000000,4.000000,100.000000,,,,,,,,,,,,,,,,,,,,,,,,,,,,
1703489572.231265,1703489572.231497,76.000000,0.000000,4229.358887,4220.128418,4291.410156,4270.512695,4222.692383,4232.436035,4226.410156,4198.846191,4196.794922,4157.179688,4501.025879,4431.025879,4358.589844,4432.948730,6629.000000,4.000000,95.000000,,,,0.000000,4.000000,4.000000,4.000000,4.000000,4.000000,4.000000,4.000000,4.000000,4.000000,4.000000,4.000000,4.000000,4.000000,4.000000,100.000000,,,,,,,,,,,,,,,,,19.000000,0.000000,0.732334,-0.092590,-0.674622,0.000305,0.984007,-0.126480,0.073739,-15.478683,-42.385323,64.499222
1703489572.239073,1703489572.239204,77.000000,0.000000,4227.051270,4228.333496,4292.820313,4273.846191,4225.512695,4235.384766,4226.153809,4206.282227,4203.974121,4162.692383,4507.051270,4432.563965,4367.436035,4450.512695,4572.000000,4.000000,95.000000,,,,0.000000,4.000000,4.000000,4.000000,4.000000,4.000000,4.000000,4.000000,4.000000,4.000000,4.000000,4.000000,4.000000,4.000000,4.000000,100.000000,,,,,,,,,,,,,,,,,,,,,,,,,,,,
1703489572.246881,1703489572.247012,78.000000,0.000000,4238.717773,4237.051270,4293.974121,4282.307617,4225.897461,4232.436035,4229.358887,4222.820313,4220.000000,4180.256348,4524.102539,4438.846191,4382.692383,4476.794922,5896.000000,4.000000,95.000000,,,,0.000000,4.000000,4.000000,4.000000,4.000000,4.000000,4.000000,4.000000,4.000000,4.000000,4.000000,4.000000,4.000000,4.000000,4.000000,100.000000,,,,,,,,,,,,,,,,,,,,,,,,,,,,
1703489572.254689,1703489572.254720,79.000000,0.000000,4246.153809,4226.538574,4298.077148,4273.974121,4223.589844,4233.846191,4232.436035,4233.974121,4232.179688,4189.871582,4535.128418,4442.820313,4389.358887,4473.461426,6120.000000,4.000000,95.000000,,,,0.000000,4.000000,4.000000,4.000000,4.000000,4.000000,4.000000,4.000000,4.000000,4.000000,4.000000,4.000000,4.000000,4.000000,4.000000,100.000000,,,,,,,,,,,,,,,,,,,,,,,,,,,,
1703489572.262497,1703489572.262627,80.000000,0.000000,4235.897461,4218.717773,4293.974121,4260.512695,4221.794922,4235.000000,4231.025879,4231.538574,4232.436035,4188.333496,4531.922852,4440.641113,4386.794922,4463.461426,6629.000000,4.000000,95.000000,,,,0.000000,4.000000,4.000000,4.000000,4.000000,4.000000,4.000000,4.000000,4.000000,4.000000,4.000000,4.000000,4.000000,4.000000,4.000000,100.000000,,,,,,,,,,,,,,,,,20.000000,0.000000,0.732262,-0.092712,-0.674683,0.000488,0.977658,-0.124039,0.076670,-15.514149,-42.480125,64.599297
1703489572.270305,1703489572.270435,81.000000,0.000000,4233.974121,4230.000000,4292.820313,4270.384766,4225.128418,4233.205078,4229.358887,4230.512695,4233.077148,4186.153809,4529.487305,4442.307617,4381.794922,4467.436035,4572.000000,4.000000,95.000000,,,,0.000000,4.000000,4.000000,4.000000,4.000000,4.000000,4.000000,4.000000,4.000000,4.000000,4.000000,4.000000,4.000000,4.000000,4.000000,100.000000,,,,,,,,,,,,,,,,,,,,,,,,,,,,
1703489572.278113,1703489572.278343,82.000000,0.000000,4248.589844,4236.153809,4299.102539,4286.153809,4226.538574,4232.436035,4232.948730,4235.897461,4229.871582,4187.948730,4535.897461,4444.743652,4380.769043,4465.384766,5896.000000,4.000000,95.000000,,,,0.000000,4.000000,4.000000,4.000000,4.000000,4.000000,4.000000,4.000000,4.000000,4.000000,4.000000,4.000000,4.000000,4.000000,4.000000,100.000000,,,,,,,,,,,,,,,,,,,,,,,,,,,,
1703489572.285921,1703489572.286251,83.000000,0.000000,4252.179688,4231.282227,4297.436035,4283.205078,4222.563965,4230.769043,4232.692383,4230.641113,4219.871582,4183.717773,4532.820313,4441.282227,4384.615234,4459.230957,6120.000000,4.000000,95.000000,,,,0.000000,4.000000,4.000000,4.000000,4.000000,4.000000,4.000000,4.000000,4.000000,4.000000,4.000000,4.000000,4.000000,4.000000,4.000000,100.000000,,,,,,,,,,,,,,,,,,,,,,,,,,,,
1703489572.293729,1703489572.294059,84.000000,0.000000,4244.102539,4231.153809,4294.102539,4278.974121,4216.025879,4229.487305,4224.358887,4218.974121,4211.153809,4172.436035,4521.282227,4436.282227,4381.282227,4462.563965,6629.000000,4.000000,95.000000,,,,0.000000,4.000000,4.000000,4.000000,4.000000,4.000000,4.000000,4.000000,4.000000,4.000000,4.000000,4.000000,4.000000,4.000000,4.000000,100.000000,,,,,,,,,,,,,,,,,21.000000,0.000000,0.732157,-0.092651,-0.674805,0.000610,0.974728,-0.137224,0.071298,-15.329400,-42.348778,64.772705
1703489572.301537,1703489572.301868,85.000000,0.000000,4245.897461,4232.436035,4296.410156,4283.589844,4216.666504,4230.384766,4223.205078,4214.871582,4203.333496,4167.179688,4519.102539,4437.179688,4369.615234,4458.077148,4572.000000,4.000000,95.000000,,,,0.000000,4.000000,4.000000,4.000000,4.000000,4.000000,4.000000,4.000000,4.000000,4.000000,4.000000,4.000000,4.000000,4.000000,4.000000,100.000000,,,,,,,,,,,,,,,,,,,,,,,,,,,,
1703489572.309345,1703489572.309775,86.000000,0.000000,4250.769043,4232.436035,4297.179688,4285.384766,4226.025879,4227.820313,4229.871582,4213.846191,4197.820313,4167.563965,4522.692383,4444.230957,4366.794922,4451.282227,5896.000000,4.000000,95.000000,,,,0.000000,4.000000,4.000000,4.000000,4.000000,4.000000,4.000000,4.000000,4.000000,4.000000,4.000000,4.000000,4.000000,4.000000,4.000000,100.000000,,,,,,,,,,,,,,,,,,,,,,,,,,,,
1703489572.317153,1703489572.317583,87.000000,0.000000,4247.948730,4234.358887,4297.436035,4278.974121,4230.512695,4225.897461,4231.538574,4212.307617,4197.436035,4167.436035,4523.205078,4443.077148,4376.025879,4461.538574,6120.000000,4.000000,95.000000,,,,0.000000,4.000000,4.000000,4.000000,4.000000,4.000000,4.000000,4.000000,4.000000,4.000000,4.000000,4.000000,4.000000,4.000000,4.000000,100.000000,,,,,,,,,,,,,,,,,,,,,,,,,,,,
1703489572.324962,1703489572.325491,88.000000,0.000000,4238.589844,4230.000000,4294.230957,4268.205078,4225.769043,4230.128418,4229.230957,4212.179688,4200.384766,4163.846191,4523.205078,4435.384766,4377.692383,4468.717773,6629.000000,4.000000,95.000000,,,,0.000000,4.000000,4.000000,4.000000,4.000000,4.000000,4.000000,4.000000,4.000000,4.000000,4.000000,4.000000,4.000000,4.000000,4.000000,100.000000,,,,,,,,,,,,,,,,,22.000000,0.000000,0.732165,-0.092590,-0.674805,0.000671,0.984984,-0.137712,0.063973,-15.279794,-42.513901,64.828766
1703489572.332770,1703489572.333298,89.000000,0.000000,4229.358887,4225.000000,4282.692383,4264.102539,4226.538574,4233.205078,4227.692383,4214.358887,4206.922852,4161.538574,4520.256348,4433.333496,4363.974121,4457.179688,4572.000000,4.000000,95.000000,,,,0.000000,4.000000,4.000000,4.000000,4.000000,4.000000,4.000000,4.000000,4.000000,4.000000,4.000000,4.000000,4.000000,4.000000,4.000000,100.000000,,,,,,,,,,,,,,,,,,,,,,,,,,,,
1703489572.340577,1703489572.341006,90.000000,0.000000,4228.974121,4225.256348,4275.128418,4263.461426,4232.948730,4231.410156,4229.102539,4215.256348,4216.922852,4165.128418,4517.307617,4435.641113,4354.358887,4440.000000,5896.000000,4.000000,95.000000,,,,0.000000,4.000000,4.000000,4.000000,4.000000,4.000000,4.000000,4.000000,4.000000,4.000000,4.000000,4.000000,4.000000,4.000000,4.000000,100.000000,,,,,,,,,,,,,,,,,,,,,,,,,,,,
1703489572.348386,1703489572.348814,91.000000,0.000000,4232.948730,4222.179688,4278.717773,4252.820313,4226.410156,4229.358887,4228.461426,4215.000000,4219.615234,4171.794922,4522.051270,4437.307617,4361.922852,4435.256348,6120.000000,4.000000,95.000000,,,,0.000000,4.000000,4.000000,4.000000,4.000000,4.000000,4.000000,4.000000,4.000000,4.000000,4.000000,4.000000,4.000000,4.000000,4.000000,100.000000,,,,,,,,,,,,,,,,,,,,,,,,,,,,
1703489572.356194,1703489572.356522,92.000000,0.000000,4230.641113,4214.743652,4280.000000,4243.717773,4214.743652,4230.512695,4225.384766,4215.000000,4216.538574,4172.051270,4525.384766,4436.794922,4370.128418,4449.743652,6629.000000,4.000000,95.000000,,,,0.000000,4.000000,4.000000,4.000000,4.000000,4.000000,4.000000,4.000000,4.000000,4.000000,4.000000,4.000000,4.000000,4.000000,4.000000,100.000000,,,,,,,,,,,,,,,,,23.000000,0.000000,0.732254,-0.092773,-0.674683,0.000610,0.971798,-0.141131,0.074228,-15.318480,-42.445843,64.712555
1703489572.364002,1703489572.364329,93.000000,0.000000,4227.307617,4215.256348,4275.512695,4242.563965,4215.256348,4230.641113,4226.153809,4216.666504,4216.922852,4168.846191,4521.410156,4437.820313,4365.000000,4460.769043,4572.000000,4.000000,95.000000,,,,0.000000,4.000000,4.000000,4.000000,4.000000,4.000000,4.000000,4.000000,4.000000,4.000000,4.000000,4.000000,4.000000,4.000000,4.000000,100.000000,,,,,,,,,,,,,,,,,,,,,,,,,,,,
1703489572.371810,1703489572.372037,94.000000,0.000000,4240.897461,4227.179688,4281.025879,4237.948730,4223.717773,4227.948730,4233.077148,4216.538574,4216.794922,4175.000000,4527.179688,4443.717773,4366.794922,4456.410156,5896.000000,4.000000,95.000000,,,,0.000000,4.000000,4.000000,4.000000,4.000000,4.000000,4.000000,4.000000,4.000000,4.000000,4.000000,4.000000,4.000000,4.000000,4.000000,100.000000,,,,,,,,,,,,,,,,,,,,,,,,,,,,
1703489572.379618,1703489572.379845,95.000000,0.000000,4250.641113,4235.000000,4293.461426,4236.538574,4228.717773,4227.307617,4233.717773,4218.717773,4215.897461,4187.948730,4544.615234,4448.333496,4381.538574,4461.794922,6120.000000,4.000000,95.000000,,,,0.000000,4.000000,4.000000,4.000000,4.000000,4.000000,4.000000,4.000000,4.000000,4.000000,4.000000,4.000000,4.000000,4.000000,4.000000,100.000000,,,,,,,,,,,,,,,,,,,,,,,,,,,,
1703489572.387426,1703489572.387553,96.000000,0.000000,4239.230957,4232.436035,4296.153809,4246.922852,4227.948730,4229.358887,4231.025879,4227.820313,4218.461426,4198.589844,4553.974121,4449.871582,4385.512695,4471.025879,6629.000000,4.000000,95.000000,,,,0.000000,4.000000,4.000000,4.000000,4.000000,4.000000,4.000000,4.000000,4.000000,4.000000,4.000000,4.000000,4.000000,4.000000,4.000000,100.000000,,,,,,,,,,,,,,,,,24.000000,0.000000,0.732126,-0.092896,-0.674805,0.000610,0.999634,-0.132340,0.073739,-15.236633,-42.567924,64.791298
1703489572.395234,1703489572.395361,97.000000,0.000000,4244.487305,4233.461426,4294.871582,4257.051270,4230.384766,4230.128418,4233.077148,4228.077148,4214.871582,4205.769043,4550.384766,4452.179688,4380.128418,4469.487305,4572.000000,4.000000,95.000000,,,,0.000000,4.000000,4.000000,4.000000,4.000000,4.000000,4.000000,4.000000,4.000000,4.000000,4.000000,4.000000,4.000000,4.000000,4.000000,100.000000,,,,,,,,,,,,,,,,,,,,,,,,,,,,
1703489572.403042,1703489572.403068,98.000000,0.000000,4264.871582,4238.077148,4303.205078,4262.820313,4233.846191,4230.641113,4233.589844,4218.717773,4204.615234,4212.820313,4545.256348,4452.948730,4381.282227,4473.077148,5896.000000,4.000000,95.000000,,,,0.000000,4.000000,4.000000,4.000000,4.000000,4.000000,4.000000,4.000000,4.000000,4.000000,4.000000,4.000000,4.000000,4.000000,4.000000,100.000000,,,,,,,,,,,,,,,,,,,,,,,,,,,,
1703489572.410850,1703489572.410876,99.000000,0.000000,4258.333496,4234.358887,4308.205078,4264.230957,4232.563965,4233.589844,4233.846191,4216.538574,4205.256348,4220.128418,4539.487305,4448.589844,4374.871582,4472.692383,6120.000000,4.000000,95.000000,,,,0.000000,4.000000,4.000000,4.000000,4.000000,4.000000,4.000000,4.000000,4.000000,4.000000,4.000000,4.000000,4.000000,4.000000,4.000000,100.000000,,,,,,,,,,,,,,,,,,,,,,,,,,,,
1703489572.418658,1703489572.418583,100.000000,0.000000,4246.410156,4233.077148,4297.179688,4263.717773,4233.717773,4233.461426,4235.512695,4218.974121,4210.769043,4223.461426,4531.153809,4443.205078,4362.563965,4461.282227,6629.000000,4.000000,95.000000,,,,0.000000,4.000000,4.000000,4.000000,4.000000,4.000000,4.000000,4.000000,4.000000,4.000000,4.000000,4.000000,4.000000,4.000000,4.000000,100.000000,,,,,,,,,,,,,,,,,25.000000,0.000000,0.732174,-0.092957,-0.674744,0.000916,0.967892,-0.149921,0.075693,-15.162970,-42.594467,64.695503
1703489572.426466,1703489572.426391,101.000000,0.000000,4251.794922,4234.615234,4285.384766,4260.897461,4237.307617,4232.436035,4235.897461,4216.025879,4205.897461,4225.384766,4523.846191,4439.743652,4358.974121,4457.051270,4572.000000,4.000000,95.000000,,,,0.000000,4.000000,4.000000,4.000000,4.000000,4.000000,4.000000,4.000000,4.000000,4.000000,4.000000,4.000000,4.000000,4.000000,4.000000,100.000000,,,,,,,,,,,,,,,,,,,,,,,,,,,,
1703489572.434274,1703489572.434098,102.000000,0.000000,4236.538574,4220.897461,4276.025879,4250.769043,4233.205078,4232.692383,4234.871582,4209.615234,4199.102539,4226.410156,4519.743652,4436.922852,4359.102539,4455.641113,5896.000000,4.000000,95.000000,,,,0.000000,4.000000,4.000000,4.000000,4.000000,4.000000,4.000000,4.000000,4.000000,4.000000,4.000000,4.000000,4.000000,4.000000,4.000000,100.000000,,,,,,,,,,,,,,,,,,,,,,,,,,,,
1703489572.442082,1703489572.442006,103.000000,0.000000,4216.025879,4211.794922,4274.102539,4248.717773,4228.077148,4231.538574,4231.538574,4208.077148,4202.051270,4229.871582,4522.692383,4436.922852,4361.025879,4450.897461,6120.000000,4.000000,95.000000,,,,0.000000,4.000000,4.000000,4.000000,4.000000,4.000000,4.000000,4.000000,4.000000,4.000000,4.000000,4.000000,4.000000,4.000000,4.000000,100.000000,,,,,,,,,,,,,,,,,,,,,,,,,,,,
1703489572.449890,1703489572.449814,104.000000,0.000000,4236.666504,4226.538574,4282.051270,4263.461426,4231.153809,4232.563965,4231.666504,4212.692383,4210.384766,4237.948730,4523.846191,4441.794922,4364.230957,4457.563965,6629.000000,4.000000,95.000000,,,,0.000000,4.000000,4.000000,4.000000,4.000000,4.000000,4.000000,4.000000,4.000000,4.000000,4.000000,4.000000,4.000000,4.000000,4.000000,100.000000,,,,,,,,,,,,,,,,,26.000000,0.000000,0.732238,-0.092896,-0.674683,0.001160,0.975217,-0.133317,0.073251,-15.263339,-42.651688,64.809288
1703489572.457698,1703489572.457722,105.000000,0.000000,4257.179688,4230.641113,4283.974121,4267.820313,4234.102539,4233.717773,4233.717773,4219.615234,4216.153809,4246.153809,4525.000000,4447.179688,4365.128418,4463.077148,4572.000000,4.000000,95.000000,,,,0.000000,4.000000,4.000000,4.000000,4.000000,4.000000,4.000000,4.000000,4.000000,4.000000,4.000000,4.000000,4.000000,4.000000,4.000000,100.000000,,,,,,,,,,,,,,,,,,,,,,,,,,,,
