title:يمان اطفاء, start timestamp:1703417098.877737, stop timestamp:1703417109.574765, headset type:EPOCX, headset serial:E50206EF, headset firmware:720, channels:67, sampling rate:eeg_128;mot_32, samples:1371      , version:2.2, 
Timestamp,OriginalTimestamp,EEG.Counter,EEG.Interpolated,EEG.AF3,EEG.F7,EEG.F3,EEG.FC5,EEG.T7,EEG.P7,EEG.O1,EEG.O2,EEG.P8,EEG.T8,EEG.FC6,EEG.F4,EEG.F8,EEG.AF4,EEG.RawCq,EEG.Battery,EEG.BatteryPercent,MarkerIndex,MarkerType,MarkerValueInt,EEG.MarkerHardware,CQ.AF3,CQ.F7,CQ.F3,CQ.FC5,CQ.T7,CQ.P7,CQ.O1,CQ.O2,CQ.P8,CQ.T8,CQ.FC6,CQ.F4,CQ.F8,CQ.AF4,CQ.Overall,EQ.SampleRateQuality,EQ.OVERALL,EQ.AF3,EQ.F7,EQ.F3,EQ.FC5,EQ.T7,EQ.P7,EQ.O1,EQ.O2,EQ.P8,EQ.T8,EQ.FC6,EQ.F4,EQ.F8,EQ.AF4,MOT.CounterMems,MOT.InterpolatedMems,MOT.Q0,MOT.Q1,MOT.Q2,MOT.Q3,MOT.AccX,MOT.AccY,MOT.AccZ,MOT.MagX,MOT.MagY,MOT.MagZ
1703417098.877737,1703417098.878256,16.000000,0.000000,4189.102539,4218.205078,4283.589844,4306.794922,4208.205078,4197.692383,4211.282227,4182.948730,4179.358887,4182.820313,4527.051270,4458.461426,4372.820313,4461.025879,0.000000,2.000000,49.000000,,,,0.000000,4.000000,4.000000,4.000000,4.000000,4.000000,4.000000,4.000000,4.000000,4.000000,4.000000,4.000000,4.000000,4.000000,4.000000,100.000000,,,,,,,,,,,,,,,,,4.000000,0.000000,0.708129,0.077393,-0.673767,0.196472,0.978635,-0.160664,0.069833,-13.873579,-47.453117,64.980667
1703417098.885545,1703417098.886164,17.000000,0.000000,4192.307617,4224.230957,4288.205078,4311.666504,4211.538574,4207.563965,4217.820313,4196.153809,4193.974121,4203.333496,4540.641113,4469.743652,4385.256348,4467.563965,0.000000,2.000000,49.000000,,,,0.000000,4.000000,4.000000,4.000000,4.000000,4.000000,4.000000,4.000000,4.000000,4.000000,4.000000,4.000000,4.000000,4.000000,4.000000,100.000000,,,,,,,,,,,,,,,,,,,,,,,,,,,,
1703417098.893354,1703417098.893972,18.000000,0.000000,4189.358887,4223.589844,4286.794922,4313.589844,4212.692383,4206.666504,4216.538574,4198.974121,4202.051270,4209.358887,4547.692383,4469.871582,4390.769043,4461.153809,0.000000,2.000000,49.000000,,,,0.000000,4.000000,4.000000,4.000000,4.000000,4.000000,4.000000,4.000000,4.000000,4.000000,4.000000,4.000000,4.000000,4.000000,4.000000,100.000000,,,,,,,,,,,,,,,,,,,,,,,,,,,,
1703417098.901162,1703417098.901880,19.000000,0.000000,4190.897461,4222.307617,4288.974121,4314.615234,4217.820313,4200.897461,4215.897461,4197.820313,4202.307617,4201.025879,4551.410156,4469.358887,4390.897461,4466.794922,0.000000,2.000000,49.000000,,,,0.000000,4.000000,4.000000,4.000000,4.000000,4.000000,4.000000,4.000000,4.000000,4.000000,4.000000,4.000000,4.000000,4.000000,4.000000,100.000000,,,,,,,,,,,,,,,,,,,,,,,,,,,,
1703417098.908970,1703417098.909689,20.000000,0.000000,4189.871582,4222.436035,4290.512695,4314.102539,4212.179688,4195.769043,4216.538574,4193.974121,4193.846191,4194.871582,4541.922852,4467.948730,4380.897461,4468.589844,0.000000,2.000000,49.000000,,,,0.000000,4.000000,4.000000,4.000000,4.000000,4.000000,4.000000,4.000000,4.000000,4.000000,4.000000,4.000000,4.000000,4.000000,4.000000,100.000000,,,,,,,,,,,,,,,,,5.000000,0.000000,0.708136,0.077332,-0.673767,0.196472,0.979612,-0.162618,0.079600,-13.819554,-47.457806,64.915939
1703417098.916778,1703417098.917597,21.000000,0.000000,4185.384766,4225.256348,4289.871582,4316.922852,4210.256348,4200.769043,4217.179688,4193.461426,4194.230957,4198.205078,4536.922852,4467.051270,4377.179688,4457.436035,0.000000,2.000000,49.000000,,,,0.000000,4.000000,4.000000,4.000000,4.000000,4.000000,4.000000,4.000000,4.000000,4.000000,4.000000,4.000000,4.000000,4.000000,4.000000,100.000000,,,,,,,,,,,,,,,,,,,,,,,,,,,,
1703417098.924586,1703417098.925405,22.000000,0.000000,4185.641113,4226.410156,4289.487305,4317.307617,4213.077148,4206.282227,4217.948730,4196.153809,4200.000000,4196.153809,4538.846191,4466.410156,4380.641113,4453.333496,0.000000,2.000000,49.000000,,,,0.000000,4.000000,4.000000,4.000000,4.000000,4.000000,4.000000,4.000000,4.000000,4.000000,4.000000,4.000000,4.000000,4.000000,4.000000,100.000000,,,,,,,,,,,,,,,,,,,,,,,,,,,,
1703417098.932394,1703417098.933313,23.000000,0.000000,4191.282227,4224.487305,4287.948730,4311.538574,4210.769043,4201.025879,4217.436035,4196.922852,4197.948730,4189.230957,4533.589844,4464.487305,4380.256348,4458.974121,0.000000,2.000000,49.000000,,,,0.000000,4.000000,4.000000,4.000000,4.000000,4.000000,4.000000,4.000000,4.000000,4.000000,4.000000,4.000000,4.000000,4.000000,4.000000,100.000000,,,,,,,,,,,,,,,,,,,,,,,,,,,,
1703417098.940202,1703417098.941121,24.000000,0.000000,4194.358887,4224.102539,4286.538574,4307.692383,4216.922852,4201.025879,4215.769043,4199.102539,4198.717773,4192.179688,4532.436035,4467.179688,4382.436035,4465.000000,0.000000,2.000000,49.000000,,,,0.000000,4.000000,4.000000,4.000000,4.000000,4.000000,4.000000,4.000000,4.000000,4.000000,4.000000,4.000000,4.000000,4.000000,4.000000,100.000000,,,,,,,,,,,,,,,,,6.000000,0.000000,0.708122,0.077148,-0.673767,0.196594,0.967403,-0.155781,0.067391,-13.787599,-47.478691,65.007675
1703417098.948010,1703417098.949029,25.000000,0.000000,4192.820313,4223.077148,4285.000000,4304.871582,4225.256348,4205.512695,4217.563965,4202.820313,4205.897461,4195.128418,4538.461426,4468.717773,4389.358887,4466.025879,0.000000,2.000000,49.000000,,,,0.000000,4.000000,4.000000,4.000000,4.000000,4.000000,4.000000,4.000000,4.000000,4.000000,4.000000,4.000000,4.000000,4.000000,4.000000,100.000000,,,,,,,,,,,,,,,,,,,,,,,,,,,,
1703417098.955818,1703417098.956837,26.000000,0.000000,4200.128418,4226.153809,4291.666504,4307.051270,4226.666504,4208.846191,4223.461426,4209.358887,4211.410156,4206.153809,4547.692383,4474.102539,4398.461426,4469.615234,0.000000,2.000000,49.000000,,,,0.000000,4.000000,4.000000,4.000000,4.000000,4.000000,4.000000,4.000000,4.000000,4.000000,4.000000,4.000000,4.000000,4.000000,4.000000,100.000000,,,,,,,,,,,,,,,,,,,,,,,,,,,,
1703417098.963626,1703417098.964546,27.000000,0.000000,4207.820313,4231.666504,4297.307617,4309.871582,4221.538574,4206.410156,4220.384766,4208.589844,4206.538574,4216.666504,4544.615234,4472.436035,4394.230957,4467.051270,0.000000,2.000000,49.000000,,,,0.000000,4.000000,4.000000,4.000000,4.000000,4.000000,4.000000,4.000000,4.000000,4.000000,4.000000,4.000000,4.000000,4.000000,4.000000,100.000000,,,,,,,,,,,,,,,,,,,,,,,,,,,,
1703417098.971434,1703417098.972354,28.000000,0.000000,4210.641113,4235.000000,4294.358887,4312.820313,4221.666504,4201.922852,4218.461426,4204.358887,4201.794922,4212.179688,4537.179688,4464.230957,4388.077148,4458.205078,0.000000,2.000000,49.000000,,,,0.000000,4.000000,4.000000,4.000000,4.000000,4.000000,4.000000,4.000000,4.000000,4.000000,4.000000,4.000000,4.000000,4.000000,4.000000,100.000000,,,,,,,,,,,,,,,,,7.000000,0.000000,0.708077,0.077026,-0.673828,0.196594,0.972775,-0.164571,0.074716,-13.625505,-47.547489,65.323578
1703417098.979242,1703417098.980062,29.000000,0.000000,4224.871582,4240.384766,4304.743652,4322.948730,4238.974121,4212.436035,4228.205078,4215.769043,4216.025879,4216.794922,4555.128418,4479.102539,4403.461426,4474.230957,0.000000,2.000000,49.000000,,,,0.000000,4.000000,4.000000,4.000000,4.000000,4.000000,4.000000,4.000000,4.000000,4.000000,4.000000,4.000000,4.000000,4.000000,4.000000,100.000000,,,,,,,,,,,,,,,,,,,,,,,,,,,,
1703417098.987050,1703417098.987970,30.000000,0.000000,4231.153809,4239.615234,4317.692383,4321.410156,4241.666504,4221.282227,4227.436035,4224.743652,4226.666504,4213.077148,4569.743652,4492.948730,4410.769043,4488.717773,0.000000,2.000000,49.000000,,,,0.000000,4.000000,4.000000,4.000000,4.000000,4.000000,4.000000,4.000000,4.000000,4.000000,4.000000,4.000000,4.000000,4.000000,4.000000,100.000000,1.000000,83.333336,4.000000,4.000000,3.000000,4.000000,4.000000,4.000000,4.000000,4.000000,4.000000,4.000000,4.000000,3.000000,4.000000,4.000000,,,,,,,,,,,,
1703417098.994858,1703417098.995778,31.000000,0.000000,4227.948730,4238.461426,4317.692383,4314.230957,4227.436035,4218.717773,4224.102539,4224.871582,4228.461426,4211.153809,4570.641113,4493.717773,4407.692383,4480.897461,0.000000,2.000000,49.000000,,,,0.000000,4.000000,4.000000,4.000000,4.000000,4.000000,4.000000,4.000000,4.000000,4.000000,4.000000,4.000000,4.000000,4.000000,4.000000,100.000000,,,,,,,,,,,,,,,,,,,,,,,,,,,,
1703417099.002666,1703417099.003587,32.000000,0.000000,4235.769043,4239.358887,4314.871582,4316.153809,4227.563965,4213.846191,4227.307617,4225.769043,4230.512695,4233.589844,4578.205078,4500.897461,4418.846191,4485.384766,0.000000,2.000000,49.000000,,,,0.000000,4.000000,4.000000,4.000000,4.000000,4.000000,4.000000,4.000000,4.000000,4.000000,4.000000,4.000000,4.000000,4.000000,4.000000,100.000000,,,,,,,,,,,,,,,,,8.000000,0.000000,0.707971,0.077087,-0.673950,0.196533,0.973263,-0.167013,0.077158,-13.429622,-47.476074,65.441216
1703417099.010474,1703417099.011295,33.000000,0.000000,4240.000000,4234.102539,4311.538574,4315.128418,4234.102539,4209.871582,4222.820313,4218.589844,4219.358887,4232.820313,4568.717773,4494.487305,4417.436035,4488.846191,0.000000,2.000000,49.000000,,,,0.000000,4.000000,4.000000,4.000000,4.000000,4.000000,4.000000,4.000000,4.000000,4.000000,4.000000,4.000000,4.000000,4.000000,4.000000,100.000000,,,,,,,,,,,,,,,,,,,,,,,,,,,,
1703417099.018282,1703417099.019103,34.000000,0.000000,4235.128418,4238.974121,4311.538574,4314.743652,4237.307617,4218.461426,4223.589844,4213.846191,4214.487305,4220.641113,4554.358887,4481.794922,4402.307617,4480.641113,0.000000,2.000000,49.000000,,,,0.000000,4.000000,4.000000,4.000000,4.000000,4.000000,4.000000,4.000000,4.000000,4.000000,4.000000,4.000000,4.000000,4.000000,4.000000,100.000000,,,,,,,,,,,,,,,,,,,,,,,,,,,,
1703417099.026090,1703417099.026811,35.000000,0.000000,4235.641113,4244.615234,4311.538574,4317.179688,4238.461426,4226.666504,4232.179688,4215.256348,4221.025879,4223.974121,4556.153809,4485.641113,4397.820313,4478.077148,0.000000,2.000000,49.000000,,,,0.000000,4.000000,4.000000,4.000000,4.000000,4.000000,4.000000,4.000000,4.000000,4.000000,4.000000,4.000000,4.000000,4.000000,4.000000,100.000000,,,,,,,,,,,,,,,,,,,,,,,,,,,,
1703417099.033898,1703417099.034619,36.000000,0.000000,4238.846191,4240.384766,4308.974121,4316.410156,4237.307617,4218.974121,4228.333496,4211.282227,4213.205078,4213.717773,4555.000000,4487.307617,4401.538574,4478.205078,0.000000,2.000000,49.000000,,,,0.000000,4.000000,4.000000,4.000000,4.000000,4.000000,4.000000,4.000000,4.000000,4.000000,4.000000,4.000000,4.000000,4.000000,4.000000,100.000000,,,,,,,,,,,,,,,,,9.000000,0.000000,0.708016,0.077209,-0.673889,0.196533,0.974728,-0.162618,0.072763,-13.386660,-47.461800,65.480431
1703417099.041706,1703417099.042327,37.000000,0.000000,4238.205078,4242.307617,4309.615234,4317.179688,4239.102539,4214.487305,4219.743652,4202.692383,4204.743652,4197.307617,4549.102539,4478.461426,4399.230957,4477.179688,0.000000,2.000000,49.000000,,,,0.000000,4.000000,4.000000,4.000000,4.000000,4.000000,4.000000,4.000000,4.000000,4.000000,4.000000,4.000000,4.000000,4.000000,4.000000,100.000000,,,,,,,,,,,,,,,,,,,,,,,,,,,,
1703417099.049514,1703417099.050135,38.000000,0.000000,4236.282227,4244.102539,4310.000000,4316.666504,4240.000000,4213.333496,4218.974121,4191.794922,4203.077148,4191.794922,4541.153809,4467.820313,4386.025879,4475.128418,0.000000,2.000000,49.000000,,,,0.000000,4.000000,4.000000,4.000000,4.000000,4.000000,4.000000,4.000000,4.000000,4.000000,4.000000,4.000000,4.000000,4.000000,4.000000,100.000000,,,,,,,,,,,,,,,,,,,,,,,,,,,,
1703417099.057323,1703417099.057843,39.000000,0.000000,4242.820313,4242.563965,4313.205078,4316.282227,4239.871582,4211.282227,4220.256348,4195.000000,4206.410156,4191.922852,4541.666504,4473.846191,4388.589844,4480.897461,0.000000,2.000000,49.000000,,,,0.000000,4.000000,4.000000,4.000000,4.000000,4.000000,4.000000,4.000000,4.000000,4.000000,4.000000,4.000000,4.000000,4.000000,4.000000,100.000000,,,,,,,,,,,,,,,,,,,,,,,,,,,,
1703417099.065131,1703417099.065751,40.000000,0.000000,4247.307617,4245.769043,4318.333496,4317.563965,4237.051270,4213.333496,4221.282227,4210.769043,4215.384766,4197.436035,4551.153809,4487.307617,4402.179688,4486.666504,0.000000,2.000000,49.000000,,,,0.000000,4.000000,4.000000,4.000000,4.000000,4.000000,4.000000,4.000000,4.000000,4.000000,4.000000,4.000000,4.000000,4.000000,4.000000,100.000000,,,,,,,,,,,,,,,,,10.000000,0.000000,0.708207,0.077209,-0.673706,0.196472,0.979612,-0.172384,0.079600,-13.481327,-47.398952,65.582390
1703417099.072939,1703417099.073559,41.000000,0.000000,4241.282227,4245.769043,4315.256348,4316.922852,4231.666504,4212.051270,4219.358887,4209.615234,4216.922852,4207.820313,4549.615234,4485.000000,4402.563965,4480.897461,0.000000,2.000000,49.000000,,,,0.000000,4.000000,4.000000,4.000000,4.000000,4.000000,4.000000,4.000000,4.000000,4.000000,4.000000,4.000000,4.000000,4.000000,4.000000,100.000000,,,,,,,,,,,,,,,,,,,,,,,,,,,,
1703417099.080747,1703417099.081467,42.000000,0.000000,4242.179688,4242.820313,4315.128418,4319.871582,4235.384766,4212.948730,4218.205078,4209.743652,4220.128418,4228.717773,4554.487305,4490.641113,4408.717773,4484.487305,0.000000,2.000000,49.000000,,,,0.000000,4.000000,4.000000,4.000000,4.000000,4.000000,4.000000,4.000000,4.000000,4.000000,4.000000,4.000000,4.000000,4.000000,4.000000,100.000000,,,,,,,,,,,,,,,,,,,,,,,,,,,,
1703417099.088555,1703417099.089275,43.000000,0.000000,4242.820313,4238.974121,4318.846191,4317.692383,4234.487305,4215.384766,4221.282227,4221.282227,4224.743652,4245.000000,4565.512695,4499.358887,4414.487305,4493.077148,0.000000,2.000000,49.000000,,,,0.000000,4.000000,4.000000,4.000000,4.000000,4.000000,4.000000,4.000000,4.000000,4.000000,4.000000,4.000000,4.000000,4.000000,4.000000,100.000000,,,,,,,,,,,,,,,,,,,,,,,,,,,,
1703417099.096363,1703417099.097184,44.000000,0.000000,4232.563965,4234.743652,4313.717773,4315.000000,4228.846191,4212.820313,4223.846191,4225.128418,4223.717773,4236.025879,4562.051270,4490.769043,4403.846191,4484.743652,0.000000,2.000000,49.000000,,,,0.000000,4.000000,4.000000,4.000000,4.000000,4.000000,4.000000,4.000000,4.000000,4.000000,4.000000,4.000000,4.000000,4.000000,4.000000,100.000000,,,,,,,,,,,,,,,,,11.000000,0.000000,0.708221,0.077087,-0.673706,0.196472,0.975705,-0.160664,0.069833,-13.349861,-47.342392,65.557480
1703417099.104171,1703417099.104992,45.000000,0.000000,4225.897461,4234.871582,4308.205078,4320.000000,4232.307617,4214.487305,4222.948730,4227.692383,4226.153809,4222.948730,4556.794922,4483.333496,4397.307617,4468.205078,0.000000,2.000000,49.000000,,,,0.000000,4.000000,4.000000,4.000000,4.000000,4.000000,4.000000,4.000000,4.000000,4.000000,4.000000,4.000000,4.000000,4.000000,4.000000,100.000000,,,,,,,,,,,,,,,,,,,,,,,,,,,,
1703417099.111979,1703417099.112900,46.000000,0.000000,4232.692383,4234.102539,4310.000000,4318.974121,4234.102539,4219.487305,4221.025879,4227.948730,4227.820313,4219.615234,4558.461426,4483.333496,4403.717773,4466.282227,0.000000,2.000000,49.000000,,,,0.000000,4.000000,4.000000,4.000000,4.000000,4.000000,4.000000,4.000000,4.000000,4.000000,4.000000,4.000000,4.000000,4.000000,4.000000,100.000000,,,,,,,,,,,,,,,,,,,,,,,,,,,,
1703417099.119787,1703417099.120708,47.000000,0.000000,4247.179688,4236.922852,4317.820313,4320.769043,4239.871582,4224.358887,4226.538574,4226.538574,4230.897461,4223.461426,4572.179688,4492.820313,4424.230957,4488.077148,0.000000,2.000000,49.000000,,,,0.000000,4.000000,4.000000,4.000000,4.000000,4.000000,4.000000,4.000000,4.000000,4.000000,4.000000,4.000000,4.000000,4.000000,4.000000,100.000000,,,,,,,,,,,,,,,,,,,,,,,,,,,,
1703417099.127595,1703417099.128616,48.000000,0.000000,4254.487305,4239.230957,4320.641113,4326.538574,4244.615234,4227.051270,4229.358887,4224.743652,4230.128418,4224.871582,4582.051270,4501.794922,4435.384766,4499.358887,0.000000,2.000000,49.000000,,,,0.000000,4.000000,4.000000,4.000000,4.000000,4.000000,4.000000,4.000000,4.000000,4.000000,4.000000,4.000000,4.000000,4.000000,4.000000,100.000000,,,,,,,,,,,,,,,,,12.000000,0.000000,0.708205,0.076782,-0.673828,0.196228,0.984495,-0.154316,0.087413,-13.314875,-47.508152,65.501732
1703417099.135403,1703417099.136424,49.000000,0.000000,4255.641113,4239.743652,4319.358887,4323.333496,4239.487305,4223.461426,4219.487305,4216.666504,4219.230957,4214.615234,4571.538574,4495.000000,4419.615234,4489.871582,0.000000,2.000000,49.000000,,,,0.000000,4.000000,4.000000,4.000000,4.000000,4.000000,4.000000,4.000000,4.000000,4.000000,4.000000,4.000000,4.000000,4.000000,4.000000,100.000000,,,,,,,,,,,,,,,,,,,,,,,,,,,,
1703417099.143211,1703417099.144133,50.000000,0.000000,4248.717773,4239.358887,4319.487305,4317.948730,4239.358887,4215.769043,4213.846191,4205.000000,4208.077148,4208.461426,4555.128418,4482.563965,4406.794922,4486.538574,0.000000,2.000000,49.000000,,,,0.000000,4.000000,4.000000,4.000000,4.000000,4.000000,4.000000,4.000000,4.000000,4.000000,4.000000,4.000000,4.000000,4.000000,4.000000,100.000000,,,,,,,,,,,,,,,,,,,,,,,,,,,,
1703417099.151019,1703417099.151941,51.000000,0.000000,4241.794922,4233.077148,4317.051270,4315.256348,4239.871582,4214.487305,4216.025879,4197.563965,4202.307617,4210.512695,4549.743652,4479.615234,4410.897461,4493.717773,0.000000,2.000000,49.000000,,,,0.000000,4.000000,4.000000,4.000000,4.000000,4.000000,4.000000,4.000000,4.000000,4.000000,4.000000,4.000000,4.000000,4.000000,4.000000,100.000000,,,,,,,,,,,,,,,,,,,,,,,,,,,,
1703417099.158827,1703417099.159649,52.000000,0.000000,4255.000000,4239.230957,4319.615234,4315.769043,4239.102539,4227.692383,4221.794922,4210.512695,4214.102539,4219.871582,4565.384766,4494.743652,4425.769043,4507.820313,0.000000,2.000000,49.000000,,,,0.000000,4.000000,4.000000,4.000000,4.000000,4.000000,4.000000,4.000000,4.000000,4.000000,4.000000,4.000000,4.000000,4.000000,4.000000,100.000000,,,,,,,,,,,,,,,,,13.000000,0.000000,0.708141,0.076843,-0.673889,0.196228,0.970333,-0.160176,0.083506,-13.250054,-47.440670,65.651558
1703417099.166635,1703417099.167457,53.000000,0.000000,4259.615234,4248.205078,4320.897461,4315.128418,4239.487305,4235.000000,4224.102539,4227.051270,4230.384766,4249.743652,4574.487305,4499.230957,4430.769043,4505.128418,0.000000,2.000000,49.000000,,,,0.000000,4.000000,4.000000,4.000000,4.000000,4.000000,4.000000,4.000000,4.000000,4.000000,4.000000,4.000000,4.000000,4.000000,4.000000,100.000000,,,,,,,,,,,,,,,,,,,,,,,,,,,,
1703417099.174443,1703417099.175165,54.000000,0.000000,4245.000000,4242.820313,4313.333496,4311.922852,4237.692383,4227.948730,4220.641113,4225.641113,4228.461426,4260.256348,4561.025879,4484.230957,4415.384766,4484.358887,0.000000,2.000000,49.000000,,,,0.000000,4.000000,4.000000,4.000000,4.000000,4.000000,4.000000,4.000000,4.000000,4.000000,4.000000,4.000000,4.000000,4.000000,4.000000,100.000000,,,,,,,,,,,,,,,,,,,,,,,,,,,,
1703417099.182251,1703417099.182973,55.000000,0.000000,4249.230957,4243.974121,4316.025879,4313.589844,4237.820313,4227.563965,4221.666504,4225.897461,4227.179688,4228.461426,4562.436035,4488.846191,4412.820313,4489.871582,0.000000,2.000000,49.000000,,,,0.000000,4.000000,4.000000,4.000000,4.000000,4.000000,4.000000,4.000000,4.000000,4.000000,4.000000,4.000000,4.000000,4.000000,4.000000,100.000000,,,,,,,,,,,,,,,,,,,,,,,,,,,,
1703417099.190059,1703417099.190681,56.000000,0.000000,4254.230957,4246.153809,4320.384766,4309.102539,4238.717773,4229.743652,4223.461426,4230.256348,4230.512695,4204.615234,4570.769043,4497.563965,4419.102539,4500.512695,0.000000,2.000000,49.000000,,,,0.000000,4.000000,4.000000,4.000000,4.000000,4.000000,4.000000,4.000000,4.000000,4.000000,4.000000,4.000000,4.000000,4.000000,4.000000,100.000000,,,,,,,,,,,,,,,,,14.000000,0.000000,0.708094,0.077026,-0.673828,0.196533,0.962520,-0.168966,0.080576,-13.291716,-47.496601,65.519737
1703417099.197868,1703417099.198489,57.000000,0.000000,4242.820313,4240.128418,4314.743652,4297.436035,4238.846191,4222.820313,4218.846191,4227.051270,4227.179688,4226.666504,4566.282227,4494.230957,4418.333496,4492.436035,0.000000,2.000000,49.000000,,,,0.000000,4.000000,4.000000,4.000000,4.000000,4.000000,4.000000,4.000000,4.000000,4.000000,4.000000,4.000000,4.000000,4.000000,4.000000,100.000000,,,,,,,,,,,,,,,,,,,,,,,,,,,,
1703417099.205675,1703417099.206197,58.000000,0.000000,4239.743652,4236.153809,4310.256348,4294.230957,4234.487305,4215.769043,4214.102539,4219.102539,4222.692383,4232.948730,4565.128418,4494.358887,4417.436035,4488.717773,0.000000,2.000000,49.000000,,,,0.000000,4.000000,4.000000,4.000000,4.000000,4.000000,4.000000,4.000000,4.000000,4.000000,4.000000,4.000000,4.000000,4.000000,4.000000,100.000000,,,,,,,,,,,,,,,,,,,,,,,,,,,,
1703417099.213483,1703417099.214005,59.000000,0.000000,4239.102539,4231.922852,4307.179688,4294.615234,4222.948730,4214.743652,4213.077148,4209.871582,4216.282227,4201.538574,4559.743652,4487.563965,4408.846191,4484.358887,0.000000,2.000000,49.000000,,,,0.000000,4.000000,4.000000,4.000000,4.000000,4.000000,4.000000,4.000000,4.000000,4.000000,4.000000,4.000000,4.000000,4.000000,4.000000,100.000000,,,,,,,,,,,,,,,,,,,,,,,,,,,,
1703417099.221292,1703417099.221713,60.000000,0.000000,4239.871582,4231.538574,4311.025879,4298.974121,4225.384766,4223.717773,4219.615234,4213.846191,4221.410156,4217.820313,4559.871582,4488.846191,4409.102539,4487.692383,0.000000,2.000000,49.000000,,,,0.000000,4.000000,4.000000,4.000000,4.000000,4.000000,4.000000,4.000000,4.000000,4.000000,4.000000,4.000000,4.000000,4.000000,4.000000,100.000000,,,,,,,,,,,,,,,,,15.000000,0.000000,0.708084,0.076965,-0.673828,0.196594,0.977658,-0.162618,0.069833,-13.245877,-47.630276,65.484428
1703417099.229100,1703417099.229521,61.000000,0.000000,4236.025879,4230.384766,4311.025879,4301.153809,4236.153809,4227.820313,4224.487305,4220.000000,4227.820313,4241.922852,4567.692383,4496.282227,4416.282227,4491.410156,0.000000,2.000000,49.000000,,,,0.000000,4.000000,4.000000,4.000000,4.000000,4.000000,4.000000,4.000000,4.000000,4.000000,4.000000,4.000000,4.000000,4.000000,4.000000,100.000000,,,,,,,,,,,,,,,,,,,,,,,,,,,,
1703417099.236908,1703417099.237229,62.000000,0.000000,4223.333496,4222.436035,4302.051270,4298.205078,4233.333496,4222.051270,4219.487305,4210.256348,4216.666504,4210.769043,4561.025879,4484.615234,4407.563965,4474.615234,0.000000,2.000000,49.000000,,,,0.000000,4.000000,4.000000,4.000000,4.000000,4.000000,4.000000,4.000000,4.000000,4.000000,4.000000,4.000000,4.000000,4.000000,4.000000,100.000000,,,,,,,,,,,,,,,,,,,,,,,,,,,,
1703417099.244716,1703417099.245137,63.000000,0.000000,4230.000000,4228.333496,4306.922852,4307.051270,4233.205078,4224.102539,4218.589844,4208.205078,4215.128418,4207.307617,4560.641113,4486.538574,4408.717773,4479.358887,0.000000,2.000000,49.000000,,,,0.000000,4.000000,4.000000,4.000000,4.000000,4.000000,4.000000,4.000000,4.000000,4.000000,4.000000,4.000000,4.000000,4.000000,4.000000,100.000000,,,,,,,,,,,,,,,,,,,,,,,,,,,,
1703417099.252524,1703417099.252945,64.000000,0.000000,4242.307617,4238.717773,4315.000000,4317.307617,4239.358887,4227.179688,4223.077148,4213.589844,4222.563965,4234.487305,4566.153809,4498.461426,4418.589844,4496.282227,5679.000000,2.000000,49.000000,,,,0.000000,4.000000,4.000000,4.000000,4.000000,4.000000,4.000000,4.000000,4.000000,4.000000,4.000000,4.000000,4.000000,4.000000,4.000000,100.000000,,,,,,,,,,,,,,,,,16.000000,0.000000,0.708189,0.076843,-0.673767,0.196472,0.981565,-0.150897,0.078623,-13.471290,-47.700581,65.535988
1703417099.260332,1703417099.260754,65.000000,0.000000,4231.538574,4233.461426,4308.846191,4314.871582,4241.282227,4225.512695,4221.794922,4214.487305,4221.666504,4231.538574,4563.846191,4489.871582,4413.461426,4482.436035,5395.000000,2.000000,49.000000,,,,0.000000,4.000000,4.000000,4.000000,4.000000,4.000000,4.000000,4.000000,4.000000,4.000000,4.000000,4.000000,4.000000,4.000000,4.000000,100.000000,,,,,,,,,,,,,,,,,,,,,,,,,,,,
1703417099.268140,1703417099.268462,66.000000,0.000000,4220.512695,4227.179688,4301.922852,4306.666504,4233.846191,4222.307617,4219.615234,4215.769043,4218.589844,4215.000000,4559.358887,4482.563965,4405.897461,4470.384766,5377.000000,2.000000,49.000000,,,,0.000000,4.000000,4.000000,4.000000,4.000000,4.000000,4.000000,4.000000,4.000000,4.000000,4.000000,4.000000,4.000000,4.000000,4.000000,100.000000,,,,,,,,,,,,,,,,,,,,,,,,,,,,
1703417099.275948,1703417099.276370,67.000000,0.000000,4228.205078,4226.794922,4304.871582,4303.974121,4223.589844,4220.128418,4217.948730,4213.846191,4213.974121,4208.205078,4554.615234,4487.692383,4401.538574,4484.358887,5404.000000,2.000000,49.000000,,,,0.000000,4.000000,4.000000,4.000000,4.000000,4.000000,4.000000,4.000000,4.000000,4.000000,4.000000,4.000000,4.000000,4.000000,4.000000,100.000000,,,,,,,,,,,,,,,,,,,,,,,,,,,,
1703417099.283756,1703417099.284178,68.000000,0.000000,4233.205078,4228.717773,4309.102539,4307.179688,4225.384766,4221.922852,4216.282227,4215.769043,4215.384766,4208.205078,4555.897461,4494.743652,4400.769043,4492.307617,5379.000000,2.000000,49.000000,,,,0.000000,4.000000,4.000000,4.000000,4.000000,4.000000,4.000000,4.000000,4.000000,4.000000,4.000000,4.000000,4.000000,4.000000,4.000000,100.000000,,,,,,,,,,,,,,,,,17.000000,0.000000,0.708261,0.077026,-0.673706,0.196350,0.980588,-0.152851,0.068856,-13.624161,-47.647190,65.449059
1703417099.291564,1703417099.292086,69.000000,0.000000,4225.641113,4231.410156,4307.179688,4307.051270,4226.025879,4220.769043,4215.384766,4220.897461,4221.794922,4221.666504,4556.794922,4496.282227,4402.563965,4482.692383,5208.000000,2.000000,49.000000,,,,0.000000,4.000000,4.000000,4.000000,4.000000,4.000000,4.000000,4.000000,4.000000,4.000000,4.000000,4.000000,4.000000,4.000000,4.000000,100.000000,,,,,,,,,,,,,,,,,,,,,,,,,,,,
1703417099.299372,1703417099.299894,70.000000,0.000000,4228.333496,4237.563965,4313.846191,4309.487305,4224.487305,4220.897461,4217.563965,4223.461426,4227.436035,4233.461426,4560.641113,4499.743652,4410.769043,4484.230957,4443.000000,2.000000,49.000000,,,,0.000000,4.000000,4.000000,4.000000,4.000000,4.000000,4.000000,4.000000,4.000000,4.000000,4.000000,4.000000,4.000000,4.000000,4.000000,100.000000,,,,,,,,,,,,,,,,,,,,,,,,,,,,
1703417099.307180,1703417099.307802,71.000000,0.000000,4240.000000,4241.922852,4321.794922,4310.384766,4228.846191,4220.512695,4215.769043,4222.948730,4228.077148,4221.025879,4564.102539,4505.128418,4416.025879,4496.538574,5215.000000,2.000000,49.000000,,,,0.000000,4.000000,4.000000,4.000000,4.000000,4.000000,4.000000,4.000000,4.000000,4.000000,4.000000,4.000000,4.000000,4.000000,4.000000,100.000000,,,,,,,,,,,,,,,,,,,,,,,,,,,,
1703417099.314988,1703417099.315611,72.000000,0.000000,4237.563965,4238.461426,4314.230957,4301.410156,4228.205078,4213.974121,4208.333496,4212.179688,4215.897461,4203.974121,4553.974121,4498.077148,4405.384766,4491.153809,5542.000000,2.000000,49.000000,,,,0.000000,4.000000,4.000000,4.000000,4.000000,4.000000,4.000000,4.000000,4.000000,4.000000,4.000000,4.000000,4.000000,4.000000,4.000000,100.000000,,,,,,,,,,,,,,,,,18.000000,0.000000,0.708316,0.077209,-0.673645,0.196289,0.983518,-0.152362,0.083506,-13.611744,-47.782471,65.437485
1703417099.322796,1703417099.323519,73.000000,0.000000,4231.922852,4238.205078,4311.282227,4299.102539,4230.000000,4216.922852,4211.025879,4205.128418,4209.102539,4202.692383,4550.128418,4493.461426,4400.769043,4482.307617,5497.000000,2.000000,49.000000,,,,0.000000,4.000000,4.000000,4.000000,4.000000,4.000000,4.000000,4.000000,4.000000,4.000000,4.000000,4.000000,4.000000,4.000000,4.000000,100.000000,,,,,,,,,,,,,,,,,,,,,,,,,,,,
1703417099.330604,1703417099.331327,74.000000,0.000000,4233.461426,4234.102539,4310.000000,4296.794922,4232.307617,4222.820313,4216.538574,4203.846191,4205.897461,4204.871582,4548.461426,4490.769043,4399.230957,4480.256348,6117.000000,2.000000,49.000000,,,,0.000000,4.000000,4.000000,4.000000,4.000000,4.000000,4.000000,4.000000,4.000000,4.000000,4.000000,4.000000,4.000000,4.000000,4.000000,100.000000,,,,,,,,,,,,,,,,,,,,,,,,,,,,
1703417099.338412,1703417099.339035,75.000000,0.000000,4230.769043,4231.153809,4299.230957,4288.333496,4228.846191,4223.333496,4216.922852,4199.871582,4200.769043,4214.358887,4542.307617,4483.205078,4393.461426,4473.717773,6389.000000,2.000000,49.000000,,,,0.000000,4.000000,4.000000,4.000000,4.000000,4.000000,4.000000,4.000000,4.000000,4.000000,4.000000,4.000000,4.000000,4.000000,4.000000,100.000000,,,,,,,,,,,,,,,,,,,,,,,,,,,,
1703417099.346220,1703417099.346843,76.000000,0.000000,4231.922852,4236.922852,4299.871582,4293.461426,4236.410156,4229.615234,4222.948730,4208.589844,4212.820313,4220.000000,4551.666504,4491.282227,4401.025879,4482.436035,6895.000000,2.000000,49.000000,,,,0.000000,4.000000,4.000000,4.000000,4.000000,4.000000,4.000000,4.000000,4.000000,4.000000,4.000000,4.000000,4.000000,4.000000,4.000000,100.000000,,,,,,,,,,,,,,,,,19.000000,0.000000,0.708474,0.077515,-0.673462,0.196228,0.970822,-0.170431,0.076181,-13.550570,-47.770889,65.260399
1703417099.354028,1703417099.354551,77.000000,0.000000,4235.512695,4229.615234,4305.256348,4299.615234,4241.025879,4230.384766,4224.358887,4220.512695,4222.563965,4209.871582,4555.641113,4501.153809,4405.384766,4491.410156,7423.000000,2.000000,49.000000,,,,0.000000,4.000000,4.000000,4.000000,4.000000,4.000000,4.000000,4.000000,4.000000,4.000000,4.000000,4.000000,4.000000,4.000000,4.000000,100.000000,,,,,,,,,,,,,,,,,,,,,,,,,,,,
1703417099.361837,1703417099.362359,78.000000,0.000000,4231.538574,4223.846191,4302.436035,4297.307617,4235.128418,4225.512695,4217.948730,4220.641113,4218.717773,4212.820313,4548.333496,4496.666504,4401.538574,4482.051270,6117.000000,2.000000,49.000000,,,,0.000000,4.000000,4.000000,4.000000,4.000000,4.000000,4.000000,4.000000,4.000000,4.000000,4.000000,4.000000,4.000000,4.000000,4.000000,100.000000,,,,,,,,,,,,,,,,,,,,,,,,,,,,
1703417099.369645,1703417099.370067,79.000000,0.000000,4225.128418,4230.641113,4298.974121,4299.358887,4233.589844,4222.948730,4216.666504,4216.282227,4216.666504,4220.769043,4549.743652,4489.615234,4405.000000,4475.769043,6389.000000,2.000000,49.000000,,,,0.000000,4.000000,4.000000,4.000000,4.000000,4.000000,4.000000,4.000000,4.000000,4.000000,4.000000,4.000000,4.000000,4.000000,4.000000,100.000000,,,,,,,,,,,,,,,,,,,,,,,,,,,,
1703417099.377452,1703417099.377875,80.000000,0.000000,4231.666504,4231.025879,4301.538574,4304.615234,4229.487305,4213.589844,4215.641113,4211.794922,4212.948730,4205.512695,4549.358887,4486.922852,4404.230957,4482.948730,6895.000000,2.000000,49.000000,,,,0.000000,4.000000,4.000000,4.000000,4.000000,4.000000,4.000000,4.000000,4.000000,4.000000,4.000000,4.000000,4.000000,4.000000,4.000000,100.000000,,,,,,,,,,,,,,,,,20.000000,0.000000,0.708582,0.077515,-0.673401,0.196045,0.981565,-0.159687,0.079111,-13.628846,-47.810467,65.234360
1703417099.385261,1703417099.385583,81.000000,0.000000,4249.230957,4233.717773,4315.256348,4314.487305,4227.948730,4210.512695,4214.871582,4215.641113,4216.282227,4204.230957,4557.051270,4501.666504,4406.794922,4498.461426,7423.000000,2.000000,49.000000,,,,0.000000,4.000000,4.000000,4.000000,4.000000,4.000000,4.000000,4.000000,4.000000,4.000000,4.000000,4.000000,4.000000,4.000000,4.000000,100.000000,,,,,,,,,,,,,,,,,,,,,,,,,,,,
1703417099.393069,1703417099.393491,82.000000,0.000000,4247.820313,4240.000000,4322.179688,4320.641113,4229.358887,4212.307617,4214.743652,4218.077148,4220.384766,4223.205078,4566.282227,4513.205078,4413.333496,4497.179688,6117.000000,2.000000,49.000000,,,,0.000000,4.000000,4.000000,4.000000,4.000000,4.000000,4.000000,4.000000,4.000000,4.000000,4.000000,4.000000,4.000000,4.000000,4.000000,100.000000,,,,,,,,,,,,,,,,,,,,,,,,,,,,
1703417099.400877,1703417099.401300,83.000000,0.000000,4244.487305,4239.743652,4313.846191,4315.897461,4224.871582,4207.563965,4210.000000,4211.794922,4212.051270,4224.487305,4559.230957,4502.563965,4408.205078,4489.102539,6389.000000,2.000000,49.000000,,,,0.000000,4.000000,4.000000,4.000000,4.000000,4.000000,4.000000,4.000000,4.000000,4.000000,4.000000,4.000000,4.000000,4.000000,4.000000,100.000000,,,,,,,,,,,,,,,,,,,,,,,,,,,,
1703417099.408685,1703417099.409208,84.000000,0.000000,4259.615234,4241.794922,4313.333496,4315.769043,4223.461426,4208.717773,4211.153809,4216.025879,4215.000000,4217.948730,4562.051270,4501.025879,4406.153809,4501.538574,6895.000000,2.000000,49.000000,,,,0.000000,4.000000,4.000000,4.000000,4.000000,4.000000,4.000000,4.000000,4.000000,4.000000,4.000000,4.000000,4.000000,4.000000,4.000000,100.000000,,,,,,,,,,,,,,,,,21.000000,0.000000,0.708639,0.077148,-0.673401,0.195984,0.983030,-0.160664,0.081553,-13.565962,-47.629421,65.327591
1703417099.416493,1703417099.417016,85.000000,0.000000,4258.717773,4241.153809,4314.743652,4314.615234,4224.487305,4214.358887,4217.307617,4224.358887,4226.282227,4206.410156,4568.333496,4505.897461,4408.461426,4502.436035,7423.000000,2.000000,49.000000,,,,0.000000,4.000000,4.000000,4.000000,4.000000,4.000000,4.000000,4.000000,4.000000,4.000000,4.000000,4.000000,4.000000,4.000000,4.000000,100.000000,,,,,,,,,,,,,,,,,,,,,,,,,,,,
1703417099.424301,1703417099.424924,86.000000,0.000000,4246.666504,4237.436035,4311.282227,4309.102539,4227.563965,4219.358887,4219.487305,4225.769043,4226.153809,4219.230957,4568.846191,4508.333496,4414.871582,4492.820313,6117.000000,2.000000,49.000000,,,,0.000000,4.000000,4.000000,4.000000,4.000000,4.000000,4.000000,4.000000,4.000000,4.000000,4.000000,4.000000,4.000000,4.000000,4.000000,100.000000,,,,,,,,,,,,,,,,,,,,,,,,,,,,
1703417099.432109,1703417099.432732,87.000000,0.000000,4246.794922,4233.077148,4308.461426,4302.179688,4225.769043,4222.436035,4218.205078,4220.384766,4218.333496,4240.256348,4567.692383,4507.179688,4417.307617,4497.436035,6389.000000,2.000000,49.000000,,,,0.000000,4.000000,4.000000,4.000000,4.000000,4.000000,4.000000,4.000000,4.000000,4.000000,4.000000,4.000000,4.000000,4.000000,4.000000,100.000000,,,,,,,,,,,,,,,,,,,,,,,,,,,,
1703417099.439917,1703417099.440540,88.000000,0.000000,4249.230957,4228.717773,4305.256348,4295.384766,4227.179688,4221.922852,4219.230957,4211.282227,4209.871582,4213.205078,4558.589844,4501.025879,4405.384766,4500.256348,6895.000000,2.000000,49.000000,,,,0.000000,4.000000,4.000000,4.000000,4.000000,4.000000,4.000000,4.000000,4.000000,4.000000,4.000000,4.000000,4.000000,4.000000,4.000000,100.000000,,,,,,,,,,,,,,,,,22.000000,0.000000,0.708612,0.077087,-0.673401,0.196106,0.978147,-0.146991,0.078135,-13.559365,-47.516479,65.244835
1703417099.447725,1703417099.448248,89.000000,0.000000,4242.436035,4234.358887,4306.794922,4298.974121,4237.948730,4224.358887,4223.205078,4215.000000,4212.820313,4205.897461,4557.948730,4505.128418,4401.025879,4494.871582,7423.000000,2.000000,49.000000,,,,0.000000,4.000000,4.000000,4.000000,4.000000,4.000000,4.000000,4.000000,4.000000,4.000000,4.000000,4.000000,4.000000,4.000000,4.000000,100.000000,,,,,,,,,,,,,,,,,,,,,,,,,,,,
1703417099.455533,1703417099.456157,90.000000,0.000000,4238.333496,4235.000000,4308.461426,4298.974121,4230.897461,4222.820313,4221.282227,4220.769043,4219.743652,4230.512695,4561.538574,4505.769043,4402.307617,4490.897461,6117.000000,2.000000,49.000000,,,,0.000000,4.000000,4.000000,4.000000,4.000000,4.000000,4.000000,4.000000,4.000000,4.000000,4.000000,4.000000,4.000000,4.000000,4.000000,100.000000,,,,,,,,,,,,,,,,,,,,,,,,,,,,
1703417099.463341,1703417099.463965,91.000000,0.000000,4247.307617,4229.102539,4311.153809,4294.743652,4220.897461,4218.846191,4216.410156,4220.641113,4223.974121,4220.000000,4562.948730,4504.871582,4401.666504,4497.692383,6389.000000,2.000000,49.000000,,,,0.000000,4.000000,4.000000,4.000000,4.000000,4.000000,4.000000,4.000000,4.000000,4.000000,4.000000,4.000000,4.000000,4.000000,4.000000,100.000000,,,,,,,,,,,,,,,,,,,,,,,,,,,,
1703417099.471149,1703417099.471873,92.000000,0.000000,4249.102539,4233.974121,4314.102539,4294.487305,4226.538574,4219.871582,4215.512695,4225.256348,4227.820313,4205.000000,4565.897461,4513.205078,4403.846191,4500.641113,6895.000000,2.000000,49.000000,,,,0.000000,4.000000,4.000000,4.000000,4.000000,4.000000,4.000000,4.000000,4.000000,4.000000,4.000000,4.000000,4.000000,4.000000,4.000000,100.000000,,,,,,,,,,,,,,,,,23.000000,0.000000,0.708476,0.077026,-0.673462,0.196411,0.977170,-0.156269,0.084971,-13.503428,-47.531498,65.453682
1703417099.478957,1703417099.479681,93.000000,0.000000,4239.743652,4240.512695,4309.358887,4292.692383,4229.487305,4222.307617,4219.358887,4225.641113,4226.922852,4218.717773,4561.025879,4510.641113,4403.846191,4489.487305,7423.000000,2.000000,49.000000,,,,0.000000,4.000000,4.000000,4.000000,4.000000,4.000000,4.000000,4.000000,4.000000,4.000000,4.000000,4.000000,4.000000,4.000000,4.000000,100.000000,,,,,,,,,,,,,,,,,,,,,,,,,,,,
1703417099.486765,1703417099.487589,94.000000,0.000000,4243.974121,4237.820313,4309.615234,4293.974121,4233.974121,4230.897461,4227.563965,4226.410156,4231.153809,4232.820313,4566.025879,4508.589844,4415.000000,4495.256348,6117.000000,2.000000,49.000000,,,,0.000000,4.000000,4.000000,4.000000,4.000000,4.000000,4.000000,4.000000,4.000000,4.000000,4.000000,4.000000,4.000000,4.000000,4.000000,100.000000,1.000000,58.333332,4.000000,3.000000,4.000000,4.000000,3.000000,1.000000,3.000000,3.000000,3.000000,4.000000,4.000000,3.000000,4.000000,4.000000,,,,,,,,,,,,
1703417099.494573,1703417099.495397,95.000000,0.000000,4253.333496,4233.974121,4315.512695,4295.769043,4239.102539,4234.102539,4231.410156,4227.563965,4234.230957,4225.769043,4575.641113,4516.666504,4425.769043,4510.512695,6389.000000,2.000000,49.000000,,,,0.000000,4.000000,4.000000,4.000000,4.000000,4.000000,4.000000,4.000000,4.000000,4.000000,4.000000,4.000000,4.000000,4.000000,4.000000,100.000000,,,,,,,,,,,,,,,,,,,,,,,,,,,,
1703417099.502381,1703417099.503305,96.000000,0.000000,4258.205078,4240.384766,4319.487305,4299.102539,4237.948730,4229.358887,4228.974121,4225.897461,4230.256348,4223.333496,4576.922852,4521.153809,4421.922852,4511.666504,6895.000000,2.000000,49.000000,,,,0.000000,4.000000,4.000000,4.000000,4.000000,4.000000,4.000000,4.000000,4.000000,4.000000,4.000000,4.000000,4.000000,4.000000,4.000000,100.000000,,,,,,,,,,,,,,,,,24.000000,0.000000,0.708329,0.076843,-0.673584,0.196594,0.977170,-0.169943,0.079111,-13.286419,-47.461681,65.324982
1703417099.510189,1703417099.511114,97.000000,0.000000,4265.512695,4247.307617,4320.897461,4304.871582,4240.256348,4234.358887,4231.922852,4227.820313,4229.871582,4240.256348,4575.000000,4520.256348,4418.974121,4507.051270,7423.000000,2.000000,49.000000,,,,0.000000,4.000000,4.000000,4.000000,4.000000,4.000000,4.000000,4.000000,4.000000,4.000000,4.000000,4.000000,4.000000,4.000000,4.000000,100.000000,,,,,,,,,,,,,,,,,,,,,,,,,,,,
1703417099.517997,1703417099.519022,98.000000,0.000000,4259.743652,4245.512695,4316.922852,4305.000000,4242.948730,4233.589844,4233.846191,4224.743652,4225.641113,4239.615234,4564.871582,4514.230957,4415.897461,4502.051270,6117.000000,2.000000,49.000000,,,,0.000000,4.000000,4.000000,4.000000,4.000000,4.000000,4.000000,4.000000,4.000000,4.000000,4.000000,4.000000,4.000000,4.000000,4.000000,100.000000,,,,,,,,,,,,,,,,,,,,,,,,,,,,
1703417099.525806,1703417099.526830,99.000000,0.000000,4253.589844,4250.000000,4317.948730,4308.333496,4248.461426,4226.922852,4231.794922,4222.436035,4228.205078,4225.384766,4569.230957,4515.512695,4418.974121,4505.000000,6389.000000,2.000000,49.000000,,,,0.000000,4.000000,4.000000,4.000000,4.000000,4.000000,4.000000,4.000000,4.000000,4.000000,4.000000,4.000000,4.000000,4.000000,4.000000,100.000000,,,,,,,,,,,,,,,,,,,,,,,,,,,,
1703417099.533614,1703417099.534538,100.000000,0.000000,4262.692383,4253.205078,4321.282227,4317.051270,4254.871582,4229.615234,4233.717773,4224.615234,4235.512695,4227.948730,4581.282227,4522.051270,4420.769043,4512.051270,6895.000000,2.000000,49.000000,,,,0.000000,4.000000,4.000000,4.000000,4.000000,4.000000,4.000000,4.000000,4.000000,4.000000,4.000000,4.000000,4.000000,4.000000,4.000000,100.000000,,,,,,,,,,,,,,,,,25.000000,0.000000,0.708261,0.076782,-0.673645,0.196655,0.965938,-0.173849,0.069344,-13.541111,-47.432178,65.392487
1703417099.541422,1703417099.542446,101.000000,0.000000,4266.153809,4247.307617,4317.307617,4317.948730,4252.820313,4235.128418,4234.743652,4221.538574,4229.871582,4229.871582,4572.179688,4517.307617,4411.282227,4509.487305,7423.000000,2.000000,49.000000,,,,0.000000,4.000000,4.000000,4.000000,4.000000,4.000000,4.000000,4.000000,4.000000,4.000000,4.000000,4.000000,4.000000,4.000000,4.000000,100.000000,,,,,,,,,,,,,,,,,,,,,,,,,,,,
1703417099.549230,1703417099.550255,102.000000,0.000000,4260.512695,4253.589844,4318.205078,4318.589844,4252.948730,4239.871582,4235.000000,4221.794922,4225.897461,4219.358887,4567.820313,4516.538574,4413.333496,4509.102539,6117.000000,2.000000,49.000000,,,,0.000000,4.000000,4.000000,4.000000,4.000000,4.000000,4.000000,4.000000,4.000000,4.000000,4.000000,4.000000,4.000000,4.000000,4.000000,100.000000,,,,,,,,,,,,,,,,,,,,,,,,,,,,
1703417099.557038,1703417099.558063,103.000000,0.000000,4252.436035,4256.666504,4317.436035,4317.563965,4248.846191,4234.743652,4234.358887,4224.102539,4226.025879,4212.948730,4570.128418,4514.615234,4414.230957,4503.205078,6389.000000,2.000000,49.000000,,,,0.000000,4.000000,4.000000,4.000000,4.000000,4.000000,4.000000,4.000000,4.000000,4.000000,4.000000,4.000000,4.000000,4.000000,4.000000,100.000000,,,,,,,,,,,,,,,,,,,,,,,,,,,,
1703417099.564846,1703417099.565771,104.000000,0.000000,4251.666504,4247.436035,4315.769043,4310.769043,4244.871582,4231.922852,4231.538574,4222.179688,4225.000000,4226.410156,4567.692383,4510.000000,4407.948730,4498.974121,6895.000000,2.000000,49.000000,,,,0.000000,4.000000,4.000000,4.000000,4.000000,4.000000,4.000000,4.000000,4.000000,4.000000,4.000000,4.000000,4.000000,4.000000,4.000000,100.000000,,,,,,,,,,,,,,,,,26.000000,0.000000,0.708206,0.076599,-0.673706,0.196716,0.970333,-0.171408,0.068368,-13.637000,-47.438961,65.453232
1703417099.572654,1703417099.573579,105.000000,0.000000,4258.077148,4247.692383,4321.538574,4310.000000,4254.102539,4239.871582,4231.794922,4225.641113,4231.538574,4234.871582,4572.051270,4518.077148,4411.666504,4513.205078,7423.000000,2.000000,49.000000,,,,0.000000,4.000000,4.000000,4.000000,4.000000,4.000000,4.000000,4.000000,4.000000,4.000000,4.000000,4.000000,4.000000,4.000000,4.000000,100.000000,,,,,,,,,,,,,,,,,,,,,,,,,,,,
1703417099.580462,1703417099.581287,106.000000,0.000000,4253.974121,4249.358887,4322.692383,4310.512695,4254.487305,4241.282227,4234.230957,4228.717773,4233.333496,4222.692383,4569.743652,4518.205078,4411.666504,4511.410156,6117.000000,2.000000,49.000000,,,,0.000000,4.000000,4.000000,4.000000,4.000000,4.000000,4.000000,4.000000,4.000000,4.000000,4.000000,4.000000,4.000000,4.000000,4.000000,100.000000,,,,,,,,,,,,,,,,,,,,,,,,,,,,
1703417099.588270,1703417099.589195,107.000000,0.000000,4252.179688,4249.102539,4325.641113,4308.974121,4248.717773,4239.743652,4237.436035,4232.436035,4233.461426,4223.717773,4571.153809,4519.487305,4412.692383,4504.743652,6389.000000,2.000000,49.000000,,,,0.000000,4.000000,4.000000,4.000000,4.000000,4.000000,4.000000,4.000000,4.000000,4.000000,4.000000,4.000000,4.000000,4.000000,4.000000,100.000000,,,,,,,,,,,,,,,,,,,,,,,,,,,,
1703417099.596078,1703417099.597003,108.000000,0.000000,4256.794922,4251.410156,4330.128418,4302.948730,4246.922852,4238.846191,4235.256348,4233.333496,4234.487305,4232.563965,4581.025879,4528.077148,4415.769043,4513.077148,6895.000000,2.000000,49.000000,,,,0.000000,4.000000,4.000000,4.000000,4.000000,4.000000,4.000000,4.000000,4.000000,4.000000,4.000000,4.000000,4.000000,4.000000,4.000000,100.000000,,,,,,,,,,,,,,,,,27.000000,0.000000,0.708144,0.076477,-0.673767,0.196777,0.985472,-0.155292,0.075693,-13.506633,-47.311733,65.591248
1703417099.603886,1703417099.604811,109.000000,0.000000,4257.436035,4253.974121,4328.205078,4302.179688,4245.897461,4235.769043,4233.205078,4230.512695,4230.769043,4227.436035,4580.384766,4526.538574,4411.794922,4512.436035,7423.000000,2.000000,49.000000,,,,0.000000,4.000000,4.000000,4.000000,4.000000,4.000000,4.000000,4.000000,4.000000,4.000000,4.000000,4.000000,4.000000,4.000000,4.000000,100.000000,,,,,,,,,,,,,,,,,,,,,,,,,,,,
1703417099.611694,1703417099.612520,110.000000,0.000000,4258.333496,4257.051270,4332.051270,4308.974121,4251.666504,4237.820313,4235.769043,4238.077148,4237.948730,4239.230957,4585.384766,4529.743652,4416.538574,4512.307617,6117.000000,2.000000,49.000000,,,,0.000000,4.000000,4.000000,4.000000,4.000000,4.000000,4.000000,4.000000,4.000000,4.000000,4.000000,4.000000,4.000000,4.000000,4.000000,100.000000,,,,,,,,,,,,,,,,,,,,,,,,,,,,
1703417099.619502,1703417099.620328,111.000000,0.000000,4256.922852,4254.615234,4333.461426,4307.307617,4256.538574,4240.256348,4236.538574,4244.230957,4247.179688,4251.025879,4591.794922,4534.487305,4420.128418,4517.307617,6389.000000,2.000000,49.000000,,,,0.000000,4.000000,4.000000,4.000000,4.000000,4.000000,4.000000,4.000000,4.000000,4.000000,4.000000,4.000000,4.000000,4.000000,4.000000,100.000000,,,,,,,,,,,,,,,,,,,,,,,,,,,,
1703417099.627310,1703417099.628036,112.000000,0.000000,4256.922852,4255.897461,4328.846191,4307.692383,4254.487305,4242.563965,4240.512695,4240.384766,4245.256348,4233.077148,4589.615234,4532.820313,4418.846191,4519.487305,6895.000000,2.000000,49.000000,,,,0.000000,4.000000,4.000000,4.000000,4.000000,4.000000,4.000000,4.000000,4.000000,4.000000,4.000000,4.000000,4.000000,4.000000,4.000000,100.000000,,,,,,,,,,,,,,,,,28.000000,0.000000,0.708048,0.076355,-0.673828,0.196960,0.966915,-0.172873,0.069833,-13.672636,-47.430561,65.648788
1703417099.635118,1703417099.635844,113.000000,0.000000,4260.128418,4257.436035,4327.692383,4308.974121,4249.487305,4241.922852,4240.256348,4231.666504,4237.179688,4223.846191,4587.436035,4526.794922,4419.615234,4518.205078,7423.000000,2.000000,49.000000,,,,0.000000,4.000000,4.000000,4.000000,4.000000,4.000000,4.000000,4.000000,4.000000,4.000000,4.000000,4.000000,4.000000,4.000000,4.000000,100.000000,,,,,,,,,,,,,,,,,,,,,,,,,,,,
1703417099.642926,1703417099.643552,114.000000,0.000000,4259.102539,4251.538574,4325.769043,4301.025879,4244.743652,4236.153809,4235.769043,4224.230957,4229.358887,4224.615234,4579.487305,4518.589844,4411.153809,4511.666504,6117.000000,2.000000,49.000000,,,,0.000000,4.000000,4.000000,4.000000,4.000000,4.000000,4.000000,4.000000,4.000000,4.000000,4.000000,4.000000,4.000000,4.000000,4.000000,100.000000,,,,,,,,,,,,,,,,,,,,,,,,,,,,
1703417099.650734,1703417099.651460,115.000000,0.000000,4254.615234,4252.179688,4325.769043,4299.487305,4249.102539,4236.282227,4237.948730,4228.846191,4235.897461,4226.410156,4575.384766,4521.666504,4407.307617,4510.256348,6389.000000,2.000000,49.000000,,,,0.000000,4.000000,4.000000,4.000000,4.000000,4.000000,4.000000,4.000000,4.000000,4.000000,4.000000,4.000000,4.000000,4.000000,4.000000,100.000000,,,,,,,,,,,,,,,,,,,,,,,,,,,,
1703417099.658542,1703417099.659268,116.000000,0.000000,4252.179688,4252.307617,4324.743652,4303.589844,4252.948730,4236.794922,4238.461426,4232.051270,4238.717773,4237.563965,4574.487305,4522.692383,4412.051270,4511.410156,6895.000000,2.000000,49.000000,,,,0.000000,4.000000,4.000000,4.000000,4.000000,4.000000,4.000000,4.000000,4.000000,4.000000,4.000000,4.000000,4.000000,4.000000,4.000000,100.000000,,,,,,,,,,,,,,,,,29.000000,0.000000,0.707894,0.076233,-0.673950,0.197144,0.983030,-0.168478,0.067879,-13.522039,-47.454170,65.733910
1703417099.666350,1703417099.667176,117.000000,0.000000,4260.641113,4254.358887,4330.000000,4307.692383,4254.358887,4237.692383,4237.948730,4231.410156,4236.025879,4242.820313,4580.641113,4524.102539,4415.000000,4518.974121,7423.000000,2.000000,49.000000,,,,0.000000,4.000000,4.000000,4.000000,4.000000,4.000000,4.000000,4.000000,4.000000,4.000000,4.000000,4.000000,4.000000,4.000000,4.000000,100.000000,,,,,,,,,,,,,,,,,,,,,,,,,,,,
1703417099.674158,1703417099.674984,118.000000,0.000000,4270.641113,4264.743652,4340.641113,4314.743652,4263.974121,4247.436035,4247.436035,4243.205078,4251.282227,4233.846191,4598.205078,4539.615234,4422.820313,4531.922852,6117.000000,2.000000,49.000000,,,,0.000000,4.000000,4.000000,4.000000,4.000000,4.000000,4.000000,4.000000,4.000000,4.000000,4.000000,4.000000,4.000000,4.000000,4.000000,100.000000,,,,,,,,,,,,,,,,,,,,,,,,,,,,
1703417099.681966,1703417099.682892,119.000000,0.000000,4266.538574,4260.641113,4336.153809,4313.205078,4267.051270,4252.563965,4252.563965,4250.512695,4258.974121,4235.512695,4602.820313,4544.230957,4426.794922,4530.256348,6389.000000,2.000000,49.000000,,,,0.000000,4.000000,4.000000,4.000000,4.000000,4.000000,4.000000,4.000000,4.000000,4.000000,4.000000,4.000000,4.000000,4.000000,4.000000,100.000000,,,,,,,,,,,,,,,,,,,,,,,,,,,,
1703417099.689775,1703417099.690701,120.000000,0.000000,4267.179688,4254.743652,4333.333496,4310.000000,4264.487305,4253.846191,4251.410156,4248.717773,4252.051270,4261.666504,4601.922852,4543.974121,4428.461426,4532.692383,6895.000000,2.000000,49.000000,,,,0.000000,4.000000,4.000000,4.000000,4.000000,4.000000,4.000000,4.000000,4.000000,4.000000,4.000000,4.000000,4.000000,4.000000,4.000000,100.000000,,,,,,,,,,,,,,,,,30.000000,0.000000,0.707914,0.076111,-0.673889,0.197327,0.963985,-0.158711,0.073739,-13.503169,-47.592087,65.793854
1703417099.697583,1703417099.698609,121.000000,0.000000,4275.000000,4264.102539,4343.974121,4315.769043,4263.717773,4255.384766,4254.487305,4252.179688,4253.589844,4267.563965,4610.256348,4551.922852,4436.666504,4540.769043,7423.000000,2.000000,49.000000,,,,0.000000,4.000000,4.000000,4.000000,4.000000,4.000000,4.000000,4.000000,4.000000,4.000000,4.000000,4.000000,4.000000,4.000000,4.000000,100.000000,,,,,,,,,,,,,,,,,,,,,,,,,,,,
1703417099.705391,1703417099.706417,122.000000,0.000000,4277.307617,4268.589844,4352.179688,4320.256348,4261.282227,4254.743652,4254.743652,4256.922852,4258.333496,4246.922852,4615.128418,4556.922852,4441.025879,4542.051270,6117.000000,2.000000,49.000000,,,,0.000000,4.000000,4.000000,4.000000,4.000000,4.000000,4.000000,4.000000,4.000000,4.000000,4.000000,4.000000,4.000000,4.000000,4.000000,100.000000,,,,,,,,,,,,,,,,,,,,,,,,,,,,
1703417099.713199,1703417099.714125,123.000000,0.000000,4280.128418,4266.538574,4354.743652,4321.025879,4267.051270,4255.384766,4255.000000,4259.358887,4257.692383,4241.666504,4615.769043,4561.538574,4436.410156,4547.948730,6389.000000,2.000000,49.000000,,,,0.000000,4.000000,4.000000,4.000000,4.000000,4.000000,4.000000,4.000000,4.000000,4.000000,4.000000,4.000000,4.000000,4.000000,4.000000,100.000000,,,,,,,,,,,,,,,,,,,,,,,,,,,,
1703417099.721007,1703417099.721933,124.000000,0.000000,4280.128418,4265.897461,4353.974121,4320.512695,4269.487305,4253.846191,4255.000000,4250.769043,4249.743652,4240.256348,4605.512695,4555.769043,4421.538574,4542.948730,6895.000000,2.000000,49.000000,,,,0.000000,4.000000,4.000000,4.000000,4.000000,4.000000,4.000000,4.000000,4.000000,4.000000,4.000000,4.000000,4.000000,4.000000,4.000000,100.000000,,,,,,,,,,,,,,,,,31.000000,0.000000,0.707931,0.076111,-0.673889,0.197266,0.974728,-0.179221,0.074716,-13.452852,-47.482876,65.797798
1703417099.728815,1703417099.729641,125.000000,0.000000,4277.948730,4269.102539,4350.384766,4324.487305,4266.666504,4253.717773,4250.512695,4240.256348,4242.436035,4235.897461,4595.000000,4544.743652,4416.794922,4532.436035,7423.000000,2.000000,49.000000,,,,0.000000,4.000000,4.000000,4.000000,4.000000,4.000000,4.000000,4.000000,4.000000,4.000000,4.000000,4.000000,4.000000,4.000000,4.000000,100.000000,,,,,,,,,,,,,,,,,,,,,,,,,,,,
1703417099.736623,1703417099.737449,126.000000,0.000000,4278.333496,4271.153809,4348.077148,4325.512695,4268.589844,4256.666504,4247.692383,4238.461426,4239.487305,4236.153809,4597.436035,4543.461426,4423.717773,4537.820313,6117.000000,2.000000,49.000000,,,,0.000000,4.000000,4.000000,4.000000,4.000000,4.000000,4.000000,4.000000,4.000000,4.000000,4.000000,4.000000,4.000000,4.000000,4.000000,100.000000,,,,,,,,,,,,,,,,,,,,,,,,,,,,
1703417099.744431,1703417099.745157,127.000000,0.000000,4272.820313,4266.794922,4346.282227,4316.282227,4267.436035,4250.641113,4248.589844,4237.307617,4237.179688,4231.282227,4596.025879,4539.743652,4417.692383,4540.000000,49.000000,2.000000,49.000000,,,,0.000000,4.000000,4.000000,4.000000,4.000000,4.000000,4.000000,4.000000,4.000000,4.000000,4.000000,4.000000,4.000000,4.000000,4.000000,100.000000,,,,,,,,,,,,,,,,,,,,,,,,,,,,
1703417099.752239,1703417099.752965,0.000000,0.000000,4275.000000,4267.692383,4346.153809,4319.487305,4268.461426,4248.205078,4253.846191,4242.692383,4246.922852,4232.563965,4599.871582,4544.615234,4420.769043,4541.794922,5683.000000,2.000000,49.000000,,,,0.000000,4.000000,4.000000,4.000000,4.000000,4.000000,4.000000,4.000000,4.000000,4.000000,4.000000,4.000000,4.000000,4.000000,4.000000,100.000000,,,,,,,,,,,,,,,,,0.000000,0.000000,0.708030,0.076050,-0.673828,0.197144,0.975705,-0.159687,0.072274,-13.407567,-47.551258,65.718018
1703417099.760047,1703417099.760673,1.000000,0.000000,4284.102539,4272.692383,4348.717773,4331.794922,4273.205078,4254.487305,4257.436035,4253.717773,4260.641113,4248.846191,4611.410156,4557.563965,4433.589844,4553.589844,5399.000000,2.000000,49.000000,,,,0.000000,4.000000,4.000000,4.000000,4.000000,4.000000,4.000000,4.000000,4.000000,4.000000,4.000000,4.000000,4.000000,4.000000,4.000000,100.000000,,,,,,,,,,,,,,,,,,,,,,,,,,,,
1703417099.767855,1703417099.768481,2.000000,0.000000,4283.589844,4273.333496,4352.307617,4330.384766,4272.948730,4256.666504,4258.333496,4260.128418,4267.051270,4260.769043,4616.025879,4559.487305,4432.820313,4555.897461,5377.000000,2.000000,49.000000,,,,0.000000,4.000000,4.000000,4.000000,4.000000,4.000000,4.000000,4.000000,4.000000,4.000000,4.000000,4.000000,4.000000,4.000000,4.000000,100.000000,,,,,,,,,,,,,,,,,,,,,,,,,,,,
1703417099.775663,1703417099.776189,3.000000,0.000000,4279.743652,4270.641113,4355.256348,4325.000000,4268.974121,4258.589844,4257.307617,4261.922852,4269.487305,4262.179688,4620.769043,4559.487305,4433.077148,4549.615234,5404.000000,2.000000,49.000000,,,,0.000000,4.000000,4.000000,4.000000,4.000000,4.000000,4.000000,4.000000,4.000000,4.000000,4.000000,4.000000,4.000000,4.000000,4.000000,100.000000,,,,,,,,,,,,,,,,,,,,,,,,,,,,
1703417099.783471,1703417099.783997,4.000000,0.000000,4284.230957,4274.102539,4356.794922,4329.358887,4272.692383,4263.333496,4261.153809,4264.102539,4271.410156,4258.205078,4627.436035,4565.897461,4442.051270,4555.769043,5370.000000,2.000000,49.000000,,,,0.000000,4.000000,4.000000,4.000000,4.000000,4.000000,4.000000,4.000000,4.000000,4.000000,4.000000,4.000000,4.000000,4.000000,4.000000,100.000000,,,,,,,,,,,,,,,,,1.000000,0.000000,0.708047,0.076050,-0.673828,0.197083,0.982542,-0.168478,0.084483,-13.433476,-47.512798,65.579552
1703417099.791279,1703417099.791705,5.000000,0.000000,4296.794922,4285.256348,4365.384766,4340.256348,4287.307617,4271.794922,4271.410156,4274.871582,4282.948730,4263.205078,4639.743652,4579.615234,4452.563965,4574.102539,5208.000000,2.000000,49.000000,,,,0.000000,4.000000,4.000000,4.000000,4.000000,4.000000,4.000000,4.000000,4.000000,4.000000,4.000000,4.000000,4.000000,4.000000,4.000000,100.000000,,,,,,,,,,,,,,,,,,,,,,,,,,,,
1703417099.799087,1703417099.799513,6.000000,0.000000,4296.025879,4285.512695,4365.897461,4337.820313,4285.512695,4271.410156,4268.077148,4277.307617,4286.410156,4279.102539,4641.153809,4579.358887,4451.538574,4569.358887,4443.000000,2.000000,49.000000,,,,0.000000,4.000000,4.000000,4.000000,4.000000,4.000000,4.000000,4.000000,4.000000,4.000000,4.000000,4.000000,4.000000,4.000000,4.000000,100.000000,,,,,,,,,,,,,,,,,,,,,,,,,,,,
1703417099.806895,1703417099.807221,7.000000,0.000000,4281.153809,4275.769043,4353.589844,4326.538574,4269.871582,4260.641113,4255.897461,4263.333496,4273.077148,4281.282227,4623.333496,4557.436035,4437.051270,4543.846191,5217.000000,2.000000,49.000000,,,,0.000000,4.000000,4.000000,4.000000,4.000000,4.000000,4.000000,4.000000,4.000000,4.000000,4.000000,4.000000,4.000000,4.000000,4.000000,100.000000,,,,,,,,,,,,,,,,,,,,,,,,,,,,
1703417099.814703,1703417099.815029,8.000000,0.000000,4276.538574,4273.846191,4349.871582,4324.487305,4268.589844,4260.384766,4257.179688,4256.538574,4270.641113,4265.641113,4615.000000,4546.538574,4432.179688,4539.743652,5551.000000,2.000000,49.000000,,,,0.000000,4.000000,4.000000,4.000000,4.000000,4.000000,4.000000,4.000000,4.000000,4.000000,4.000000,4.000000,4.000000,4.000000,4.000000,100.000000,,,,,,,,,,,,,,,,,2.000000,0.000000,0.708101,0.075928,-0.673767,0.197144,0.979612,-0.158222,0.073251,-13.323462,-47.561520,65.704926
1703417099.822511,1703417099.822737,9.000000,0.000000,4282.179688,4275.641113,4351.794922,4321.025879,4274.615234,4268.333496,4265.256348,4258.333496,4276.025879,4263.974121,4617.436035,4549.615234,4435.000000,4546.922852,5534.000000,2.000000,49.000000,,,,0.000000,4.000000,4.000000,4.000000,4.000000,4.000000,4.000000,4.000000,4.000000,4.000000,4.000000,4.000000,4.000000,4.000000,4.000000,100.000000,,,,,,,,,,,,,,,,,,,,,,,,,,,,
1703417099.830320,1703417099.830645,10.000000,0.000000,4287.692383,4278.717773,4354.358887,4318.717773,4283.589844,4275.897461,4268.974121,4263.974121,4277.820313,4282.563965,4621.922852,4554.358887,4438.333496,4551.153809,6123.000000,2.000000,49.000000,,,,0.000000,4.000000,4.000000,4.000000,4.000000,4.000000,4.000000,4.000000,4.000000,4.000000,4.000000,4.000000,4.000000,4.000000,4.000000,100.000000,,,,,,,,,,,,,,,,,,,,,,,,,,,,
1703417099.838127,1703417099.838454,11.000000,0.000000,4285.641113,4279.487305,4353.589844,4319.230957,4285.641113,4271.282227,4266.794922,4265.512695,4273.333496,4270.000000,4618.461426,4553.461426,4437.051270,4551.153809,6392.000000,2.000000,49.000000,,,,0.000000,4.000000,4.000000,4.000000,4.000000,4.000000,4.000000,4.000000,4.000000,4.000000,4.000000,4.000000,4.000000,4.000000,4.000000,100.000000,,,,,,,,,,,,,,,,,,,,,,,,,,,,
1703417099.845935,1703417099.846362,12.000000,0.000000,4282.179688,4275.128418,4349.615234,4318.333496,4271.282227,4258.461426,4258.974121,4256.666504,4261.666504,4235.897461,4606.538574,4546.025879,4430.256348,4544.230957,6907.000000,2.000000,49.000000,,,,0.000000,4.000000,4.000000,4.000000,4.000000,4.000000,4.000000,4.000000,4.000000,4.000000,4.000000,4.000000,4.000000,4.000000,4.000000,100.000000,,,,,,,,,,,,,,,,,3.000000,0.000000,0.708108,0.075867,-0.673767,0.197144,0.968868,-0.167989,0.074228,-13.257783,-47.572033,65.667770
1703417099.853744,1703417099.854170,13.000000,0.000000,4288.333496,4281.666504,4355.512695,4325.000000,4267.179688,4258.333496,4258.589844,4260.512695,4264.230957,4251.282227,4612.820313,4553.974121,4436.538574,4553.077148,7426.000000,2.000000,49.000000,,,,0.000000,4.000000,4.000000,4.000000,4.000000,4.000000,4.000000,4.000000,4.000000,4.000000,4.000000,4.000000,4.000000,4.000000,4.000000,100.000000,,,,,,,,,,,,,,,,,,,,,,,,,,,,
1703417099.861552,1703417099.862078,14.000000,0.000000,4292.436035,4286.282227,4359.743652,4329.871582,4271.153809,4260.769043,4262.820313,4267.436035,4271.410156,4273.717773,4621.666504,4562.307617,4443.461426,4563.589844,6123.000000,2.000000,49.000000,,,,0.000000,4.000000,4.000000,4.000000,4.000000,4.000000,4.000000,4.000000,4.000000,4.000000,4.000000,4.000000,4.000000,4.000000,4.000000,100.000000,,,,,,,,,,,,,,,,,,,,,,,,,,,,
1703417099.869360,1703417099.869886,15.000000,0.000000,4288.205078,4283.333496,4357.179688,4328.846191,4272.051270,4260.641113,4261.282227,4259.743652,4264.358887,4248.461426,4615.000000,4556.538574,4438.589844,4553.974121,6392.000000,2.000000,49.000000,,,,0.000000,4.000000,4.000000,4.000000,4.000000,4.000000,4.000000,4.000000,4.000000,4.000000,4.000000,4.000000,4.000000,4.000000,4.000000,100.000000,,,,,,,,,,,,,,,,,,,,,,,,,,,,
1703417099.877168,1703417099.877794,16.000000,0.000000,4290.256348,4289.230957,4358.974121,4331.025879,4278.077148,4264.487305,4261.922852,4255.384766,4259.871582,4238.589844,4613.717773,4557.436035,4438.205078,4551.282227,0.000000,2.000000,49.000000,,,,0.000000,4.000000,4.000000,4.000000,4.000000,4.000000,4.000000,4.000000,4.000000,4.000000,4.000000,4.000000,4.000000,4.000000,4.000000,100.000000,,,,,,,,,,,,,,,,,4.000000,0.000000,0.708087,0.075745,-0.673767,0.197266,0.962031,-0.174826,0.077158,-13.348671,-47.698162,65.650993
1703417099.884976,1703417099.885603,17.000000,0.000000,4297.307617,4292.307617,4361.922852,4332.051270,4280.512695,4263.846191,4262.179688,4258.205078,4262.307617,4261.538574,4617.307617,4563.717773,4439.615234,4562.820313,0.000000,2.000000,49.000000,,,,0.000000,4.000000,4.000000,4.000000,4.000000,4.000000,4.000000,4.000000,4.000000,4.000000,4.000000,4.000000,4.000000,4.000000,4.000000,100.000000,,,,,,,,,,,,,,,,,,,,,,,,,,,,
1703417099.892784,1703417099.893511,18.000000,0.000000,4298.974121,4290.641113,4368.205078,4332.563965,4280.641113,4263.077148,4263.846191,4264.871582,4271.538574,4270.000000,4624.615234,4572.692383,4448.077148,4570.897461,0.000000,2.000000,49.000000,,,,0.000000,4.000000,4.000000,4.000000,4.000000,4.000000,4.000000,4.000000,4.000000,4.000000,4.000000,4.000000,4.000000,4.000000,4.000000,100.000000,,,,,,,,,,,,,,,,,,,,,,,,,,,,
1703417099.900592,1703417099.901319,19.000000,0.000000,4285.384766,4285.128418,4368.333496,4326.025879,4278.205078,4260.128418,4263.205078,4266.025879,4272.820313,4265.769043,4624.487305,4571.025879,4445.641113,4561.538574,0.000000,2.000000,49.000000,,,,0.000000,4.000000,4.000000,4.000000,4.000000,4.000000,4.000000,4.000000,4.000000,4.000000,4.000000,4.000000,4.000000,4.000000,4.000000,100.000000,,,,,,,,,,,,,,,,,,,,,,,,,,,,
1703417099.908400,1703417099.909027,20.000000,0.000000,4271.666504,4274.743652,4355.512695,4312.436035,4272.051270,4253.846191,4255.000000,4253.589844,4256.153809,4256.410156,4608.461426,4551.922852,4426.794922,4545.897461,0.000000,2.000000,49.000000,,,,0.000000,4.000000,4.000000,4.000000,4.000000,4.000000,4.000000,4.000000,4.000000,4.000000,4.000000,4.000000,4.000000,4.000000,4.000000,100.000000,,,,,,,,,,,,,,,,,5.000000,0.000000,0.708151,0.075684,-0.673706,0.197266,0.966915,-0.177756,0.071298,-13.447138,-47.695015,65.702560
1703417099.916208,1703417099.916835,21.000000,0.000000,4273.205078,4271.666504,4349.871582,4308.205078,4275.384766,4261.282227,4251.282227,4249.871582,4253.461426,4248.077148,4604.230957,4543.974121,4426.410156,4544.230957,0.000000,2.000000,49.000000,,,,0.000000,4.000000,4.000000,4.000000,4.000000,4.000000,4.000000,4.000000,4.000000,4.000000,4.000000,4.000000,4.000000,4.000000,4.000000,100.000000,,,,,,,,,,,,,,,,,,,,,,,,,,,,
1703417099.924016,1703417099.924543,22.000000,0.000000,4270.769043,4273.205078,4344.615234,4306.538574,4275.512695,4269.102539,4250.128418,4251.922852,4257.692383,4237.692383,4601.538574,4538.077148,4430.384766,4537.436035,0.000000,2.000000,49.000000,,,,0.000000,4.000000,4.000000,4.000000,4.000000,4.000000,4.000000,4.000000,4.000000,4.000000,4.000000,4.000000,4.000000,4.000000,4.000000,100.000000,,,,,,,,,,,,,,,,,,,,,,,,,,,,
1703417099.931824,1703417099.932351,23.000000,0.000000,4268.333496,4274.102539,4339.358887,4305.512695,4270.769043,4268.589844,4247.051270,4251.666504,4256.025879,4239.743652,4596.922852,4533.077148,4427.307617,4533.077148,0.000000,2.000000,49.000000,,,,0.000000,4.000000,4.000000,4.000000,4.000000,4.000000,4.000000,4.000000,4.000000,4.000000,4.000000,4.000000,4.000000,4.000000,4.000000,100.000000,,,,,,,,,,,,,,,,,,,,,,,,,,,,
1703417099.939632,1703417099.940059,24.000000,0.000000,4274.871582,4274.230957,4345.769043,4309.871582,4274.871582,4268.461426,4250.641113,4257.563965,4266.410156,4259.487305,4605.897461,4541.794922,4435.000000,4543.717773,0.000000,2.000000,49.000000,,,,0.000000,4.000000,4.000000,4.000000,4.000000,4.000000,4.000000,4.000000,4.000000,4.000000,4.000000,4.000000,4.000000,4.000000,4.000000,100.000000,,,,,,,,,,,,,,,,,6.000000,0.000000,0.708357,0.075867,-0.673523,0.197083,0.969357,-0.163594,0.081553,-13.452424,-47.775513,65.665634
1703417099.947440,1703417099.947867,25.000000,0.000000,4273.333496,4271.922852,4346.410156,4308.974121,4272.436035,4261.922852,4249.871582,4260.256348,4272.179688,4260.512695,4606.025879,4541.025879,4436.025879,4538.333496,0.000000,2.000000,49.000000,,,,0.000000,4.000000,4.000000,4.000000,4.000000,4.000000,4.000000,4.000000,4.000000,4.000000,4.000000,4.000000,4.000000,4.000000,4.000000,100.000000,,,,,,,,,,,,,,,,,,,,,,,,,,,,
1703417099.955248,1703417099.955575,26.000000,0.000000,4276.282227,4277.948730,4347.436035,4312.179688,4266.153809,4256.025879,4244.230957,4264.358887,4270.897461,4266.666504,4606.794922,4542.051270,4438.974121,4537.179688,0.000000,2.000000,49.000000,,,,0.000000,4.000000,4.000000,4.000000,4.000000,4.000000,4.000000,4.000000,4.000000,4.000000,4.000000,4.000000,4.000000,4.000000,4.000000,100.000000,,,,,,,,,,,,,,,,,,,,,,,,,,,,
1703417099.963056,1703417099.963483,27.000000,0.000000,4287.307617,4285.769043,4353.461426,4321.025879,4268.589844,4254.743652,4246.153809,4268.077148,4273.717773,4273.974121,4614.102539,4548.846191,4448.717773,4550.769043,0.000000,2.000000,49.000000,,,,0.000000,4.000000,4.000000,4.000000,4.000000,4.000000,4.000000,4.000000,4.000000,4.000000,4.000000,4.000000,4.000000,4.000000,4.000000,100.000000,,,,,,,,,,,,,,,,,,,,,,,,,,,,
1703417099.970864,1703417099.971291,28.000000,0.000000,4287.179688,4284.615234,4350.897461,4320.641113,4271.666504,4252.436035,4247.563965,4261.282227,4272.307617,4260.384766,4608.846191,4543.205078,4441.025879,4547.307617,0.000000,2.000000,49.000000,,,,0.000000,4.000000,4.000000,4.000000,4.000000,4.000000,4.000000,4.000000,4.000000,4.000000,4.000000,4.000000,4.000000,4.000000,4.000000,100.000000,,,,,,,,,,,,,,,,,7.000000,0.000000,0.708609,0.075928,-0.673340,0.196777,0.972775,-0.160664,0.079600,-13.273848,-47.597961,65.749077
1703417099.978672,1703417099.979199,29.000000,0.000000,4288.589844,4284.102539,4351.666504,4320.128418,4271.538574,4253.461426,4245.512695,4260.000000,4271.153809,4266.153809,4607.820313,4545.512695,4434.615234,4545.512695,0.000000,2.000000,49.000000,,,,0.000000,4.000000,4.000000,4.000000,4.000000,4.000000,4.000000,4.000000,4.000000,4.000000,4.000000,4.000000,4.000000,4.000000,4.000000,100.000000,,,,,,,,,,,,,,,,,,,,,,,,,,,,
1703417099.986480,1703417099.987008,30.000000,0.000000,4297.179688,4284.743652,4361.153809,4326.922852,4267.436035,4252.563965,4245.641113,4263.077148,4270.256348,4275.512695,4612.051270,4553.846191,4441.922852,4555.512695,0.000000,2.000000,49.000000,,,,0.000000,4.000000,4.000000,4.000000,4.000000,4.000000,4.000000,4.000000,4.000000,4.000000,4.000000,4.000000,4.000000,4.000000,4.000000,100.000000,1.000000,75.000000,4.000000,4.000000,3.000000,4.000000,3.000000,3.000000,4.000000,4.000000,4.000000,4.000000,4.000000,4.000000,4.000000,4.000000,,,,,,,,,,,,
1703417099.994289,1703417099.994916,31.000000,0.000000,4300.897461,4290.897461,4366.794922,4333.717773,4268.974121,4250.641113,4247.179688,4261.666504,4268.205078,4257.692383,4615.769043,4557.692383,4447.051270,4558.974121,0.000000,2.000000,49.000000,,,,0.000000,4.000000,4.000000,4.000000,4.000000,4.000000,4.000000,4.000000,4.000000,4.000000,4.000000,4.000000,4.000000,4.000000,4.000000,100.000000,,,,,,,,,,,,,,,,,,,,,,,,,,,,
1703417100.002097,1703417100.002724,32.000000,0.000000,4295.128418,4295.769043,4362.820313,4334.230957,4273.846191,4252.307617,4247.436035,4262.051270,4266.666504,4244.871582,4618.846191,4560.256348,4445.897461,4554.487305,0.000000,2.000000,49.000000,,,,0.000000,4.000000,4.000000,4.000000,4.000000,4.000000,4.000000,4.000000,4.000000,4.000000,4.000000,4.000000,4.000000,4.000000,4.000000,100.000000,,,,,,,,,,,,,,,,,8.000000,0.000000,0.708758,0.075867,-0.673279,0.196472,0.980588,-0.149921,0.082041,-13.313129,-47.421497,65.557503
1703417100.009905,1703417100.010532,33.000000,0.000000,4287.051270,4284.743652,4355.000000,4329.102539,4272.436035,4254.358887,4247.948730,4263.589844,4263.461426,4251.538574,4613.333496,4554.871582,4443.077148,4552.820313,0.000000,2.000000,49.000000,,,,0.000000,4.000000,4.000000,4.000000,4.000000,4.000000,4.000000,4.000000,4.000000,4.000000,4.000000,4.000000,4.000000,4.000000,4.000000,100.000000,,,,,,,,,,,,,,,,,,,,,,,,,,,,
1703417100.017713,1703417100.018240,34.000000,0.000000,4279.871582,4273.717773,4347.307617,4319.487305,4270.897461,4257.051270,4250.641113,4259.358887,4258.974121,4246.153809,4602.820313,4543.077148,4437.692383,4546.410156,0.000000,2.000000,49.000000,,,,0.000000,4.000000,4.000000,4.000000,4.000000,4.000000,4.000000,4.000000,4.000000,4.000000,4.000000,4.000000,4.000000,4.000000,4.000000,100.000000,,,,,,,,,,,,,,,,,,,,,,,,,,,,
1703417100.025521,1703417100.026148,35.000000,0.000000,4266.666504,4270.384766,4333.974121,4305.641113,4268.846191,4254.743652,4249.102539,4246.794922,4248.717773,4226.666504,4587.179688,4525.897461,4421.538574,4522.948730,0.000000,2.000000,49.000000,,,,0.000000,4.000000,4.000000,4.000000,4.000000,4.000000,4.000000,4.000000,4.000000,4.000000,4.000000,4.000000,4.000000,4.000000,4.000000,100.000000,,,,,,,,,,,,,,,,,,,,,,,,,,,,
1703417100.033329,1703417100.033957,36.000000,0.000000,4263.461426,4270.000000,4328.717773,4305.769043,4270.384766,4255.000000,4247.948730,4241.282227,4243.333496,4219.871582,4580.897461,4516.282227,4413.974121,4514.487305,0.000000,2.000000,49.000000,,,,0.000000,4.000000,4.000000,4.000000,4.000000,4.000000,4.000000,4.000000,4.000000,4.000000,4.000000,4.000000,4.000000,4.000000,4.000000,100.000000,,,,,,,,,,,,,,,,,9.000000,0.000000,0.708935,0.075928,-0.673157,0.196228,0.991332,-0.170919,0.071298,-13.465150,-47.362682,65.501747
1703417100.041137,1703417100.041865,37.000000,0.000000,4272.436035,4273.077148,4337.051270,4315.512695,4274.615234,4259.102539,4250.000000,4247.692383,4249.615234,4240.256348,4590.000000,4521.538574,4421.794922,4528.974121,0.000000,2.000000,49.000000,,,,0.000000,4.000000,4.000000,4.000000,4.000000,4.000000,4.000000,4.000000,4.000000,4.000000,4.000000,4.000000,4.000000,4.000000,4.000000,100.000000,,,,,,,,,,,,,,,,,,,,,,,,,,,,
1703417100.048945,1703417100.049673,38.000000,0.000000,4274.487305,4276.666504,4340.256348,4317.051270,4273.205078,4255.641113,4249.615234,4250.897461,4253.589844,4262.563965,4591.922852,4523.974121,4425.256348,4528.846191,0.000000,2.000000,49.000000,,,,0.000000,4.000000,4.000000,4.000000,4.000000,4.000000,4.000000,4.000000,4.000000,4.000000,4.000000,4.000000,4.000000,4.000000,4.000000,100.000000,,,,,,,,,,,,,,,,,,,,,,,,,,,,
1703417100.056753,1703417100.057581,39.000000,0.000000,4276.410156,4280.641113,4343.974121,4321.794922,4271.666504,4253.333496,4251.153809,4255.384766,4259.487305,4260.769043,4593.077148,4527.948730,4431.282227,4525.128418,0.000000,2.000000,49.000000,,,,0.000000,4.000000,4.000000,4.000000,4.000000,4.000000,4.000000,4.000000,4.000000,4.000000,4.000000,4.000000,4.000000,4.000000,4.000000,100.000000,,,,,,,,,,,,,,,,,,,,,,,,,,,,
1703417100.064561,1703417100.065389,40.000000,0.000000,4274.487305,4274.358887,4343.333496,4316.282227,4262.563965,4249.743652,4244.871582,4251.153809,4256.794922,4251.922852,4589.487305,4525.384766,4427.563965,4522.692383,0.000000,2.000000,49.000000,,,,0.000000,4.000000,4.000000,4.000000,4.000000,4.000000,4.000000,4.000000,4.000000,4.000000,4.000000,4.000000,4.000000,4.000000,4.000000,100.000000,,,,,,,,,,,,,,,,,10.000000,0.000000,0.709181,0.076111,-0.672913,0.196106,0.965938,-0.157246,0.078623,-13.268635,-47.509747,65.384911
1703417100.072369,1703417100.073297,41.000000,0.000000,4263.974121,4264.102539,4333.205078,4302.307617,4255.897461,4241.666504,4237.692383,4238.461426,4241.153809,4240.256348,4575.000000,4510.000000,4406.410156,4508.974121,0.000000,2.000000,49.000000,,,,0.000000,4.000000,4.000000,4.000000,4.000000,4.000000,4.000000,4.000000,4.000000,4.000000,4.000000,4.000000,4.000000,4.000000,4.000000,100.000000,,,,,,,,,,,,,,,,,,,,,,,,,,,,
1703417100.080177,1703417100.081106,42.000000,0.000000,4262.436035,4270.128418,4333.077148,4304.615234,4264.358887,4244.102539,4242.307617,4240.256348,4237.307617,4222.948730,4575.128418,4509.358887,4405.641113,4506.922852,0.000000,2.000000,49.000000,,,,0.000000,4.000000,4.000000,4.000000,4.000000,4.000000,4.000000,4.000000,4.000000,4.000000,4.000000,4.000000,4.000000,4.000000,4.000000,100.000000,,,,,,,,,,,,,,,,,,,,,,,,,,,,
1703417100.087985,1703417100.089014,43.000000,0.000000,4269.230957,4269.487305,4334.871582,4305.512695,4262.692383,4245.512695,4242.692383,4243.846191,4241.410156,4227.051270,4582.436035,4516.538574,4415.641113,4516.666504,0.000000,2.000000,49.000000,,,,0.000000,4.000000,4.000000,4.000000,4.000000,4.000000,4.000000,4.000000,4.000000,4.000000,4.000000,4.000000,4.000000,4.000000,4.000000,100.000000,,,,,,,,,,,,,,,,,,,,,,,,,,,,
1703417100.095793,1703417100.096822,44.000000,0.000000,4273.589844,4259.615234,4335.769043,4298.974121,4255.000000,4241.538574,4241.153809,4247.307617,4248.717773,4251.922852,4589.615234,4525.000000,4418.461426,4522.563965,0.000000,2.000000,49.000000,,,,0.000000,4.000000,4.000000,4.000000,4.000000,4.000000,4.000000,4.000000,4.000000,4.000000,4.000000,4.000000,4.000000,4.000000,4.000000,100.000000,,,,,,,,,,,,,,,,,11.000000,0.000000,0.709160,0.075928,-0.672974,0.196045,0.984984,-0.157246,0.092296,-13.375105,-47.575439,65.379753
1703417100.103601,1703417100.104530,45.000000,0.000000,4276.025879,4260.256348,4343.717773,4298.717773,4255.384766,4240.641113,4242.051270,4257.436035,4255.384766,4242.948730,4596.153809,4532.307617,4425.256348,4522.179688,0.000000,2.000000,49.000000,,,,0.000000,4.000000,4.000000,4.000000,4.000000,4.000000,4.000000,4.000000,4.000000,4.000000,4.000000,4.000000,4.000000,4.000000,4.000000,100.000000,,,,,,,,,,,,,,,,,,,,,,,,,,,,
1703417100.111409,1703417100.112338,46.000000,0.000000,4283.717773,4266.410156,4352.436035,4299.871582,4254.615234,4240.384766,4238.974121,4252.692383,4247.179688,4217.051270,4590.512695,4524.871582,4426.282227,4522.820313,0.000000,2.000000,49.000000,,,,0.000000,4.000000,4.000000,4.000000,4.000000,4.000000,4.000000,4.000000,4.000000,4.000000,4.000000,4.000000,4.000000,4.000000,4.000000,100.000000,,,,,,,,,,,,,,,,,,,,,,,,,,,,
1703417100.119217,1703417100.120046,47.000000,0.000000,4289.743652,4271.282227,4354.358887,4302.820313,4256.666504,4241.538574,4238.077148,4241.153809,4240.000000,4240.000000,4587.820313,4521.153809,4420.384766,4531.025879,0.000000,2.000000,49.000000,,,,0.000000,4.000000,4.000000,4.000000,4.000000,4.000000,4.000000,4.000000,4.000000,4.000000,4.000000,4.000000,4.000000,4.000000,4.000000,100.000000,,,,,,,,,,,,,,,,,,,,,,,,,,,,
1703417100.127025,1703417100.127854,48.000000,0.000000,4277.692383,4269.230957,4343.717773,4300.641113,4258.461426,4240.384766,4239.358887,4237.563965,4236.410156,4249.102539,4583.717773,4517.692383,4414.871582,4521.794922,0.000000,2.000000,49.000000,,,,0.000000,4.000000,4.000000,4.000000,4.000000,4.000000,4.000000,4.000000,4.000000,4.000000,4.000000,4.000000,4.000000,4.000000,4.000000,100.000000,,,,,,,,,,,,,,,,,12.000000,0.000000,0.708989,0.075745,-0.673157,0.196106,0.974728,-0.152362,0.087413,-13.320928,-47.484562,65.358444
1703417100.134833,1703417100.135562,49.000000,0.000000,4271.025879,4267.563965,4336.666504,4292.948730,4259.230957,4240.256348,4235.641113,4234.743652,4232.051270,4220.256348,4576.666504,4508.077148,4413.333496,4508.205078,0.000000,2.000000,49.000000,,,,0.000000,4.000000,4.000000,4.000000,4.000000,4.000000,4.000000,4.000000,4.000000,4.000000,4.000000,4.000000,4.000000,4.000000,4.000000,100.000000,,,,,,,,,,,,,,,,,,,,,,,,,,,,
1703417100.142641,1703417100.143370,50.000000,0.000000,4284.615234,4270.128418,4342.436035,4294.871582,4263.846191,4242.948730,4232.051270,4232.948730,4233.205078,4226.153809,4580.769043,4511.794922,4416.666504,4520.384766,0.000000,2.000000,49.000000,,,,0.000000,4.000000,4.000000,4.000000,4.000000,4.000000,4.000000,4.000000,4.000000,4.000000,4.000000,4.000000,4.000000,4.000000,4.000000,100.000000,,,,,,,,,,,,,,,,,,,,,,,,,,,,
1703417100.150449,1703417100.151079,51.000000,0.000000,4287.563965,4273.333496,4346.282227,4303.589844,4265.384766,4244.102539,4234.871582,4236.282227,4239.743652,4250.769043,4586.922852,4515.641113,4418.077148,4525.128418,0.000000,2.000000,49.000000,,,,0.000000,4.000000,4.000000,4.000000,4.000000,4.000000,4.000000,4.000000,4.000000,4.000000,4.000000,4.000000,4.000000,4.000000,4.000000,100.000000,,,,,,,,,,,,,,,,,,,,,,,,,,,,
1703417100.158258,1703417100.158886,52.000000,0.000000,4274.615234,4274.615234,4342.820313,4302.563965,4266.666504,4248.077148,4237.563965,4243.077148,4248.333496,4249.102539,4590.641113,4513.589844,4419.871582,4513.846191,0.000000,2.000000,49.000000,,,,0.000000,4.000000,4.000000,4.000000,4.000000,4.000000,4.000000,4.000000,4.000000,4.000000,4.000000,4.000000,4.000000,4.000000,4.000000,100.000000,,,,,,,,,,,,,,,,,13.000000,0.000000,0.708758,0.075867,-0.673279,0.196472,0.969357,-0.148456,0.071298,-13.288835,-47.502773,65.522598
1703417100.166066,1703417100.166595,53.000000,0.000000,4268.461426,4262.436035,4334.358887,4286.794922,4259.230957,4243.461426,4233.077148,4239.743652,4245.256348,4234.358887,4586.794922,4507.692383,4415.256348,4511.410156,0.000000,2.000000,49.000000,,,,0.000000,4.000000,4.000000,4.000000,4.000000,4.000000,4.000000,4.000000,4.000000,4.000000,4.000000,4.000000,4.000000,4.000000,4.000000,100.000000,,,,,,,,,,,,,,,,,,,,,,,,,,,,
1703417100.173874,1703417100.174403,54.000000,0.000000,4273.974121,4260.641113,4332.051270,4284.358887,4251.666504,4239.487305,4232.307617,4234.615234,4236.410156,4233.333496,4584.102539,4507.820313,4413.461426,4515.512695,0.000000,2.000000,49.000000,,,,0.000000,4.000000,4.000000,4.000000,4.000000,4.000000,4.000000,4.000000,4.000000,4.000000,4.000000,4.000000,4.000000,4.000000,4.000000,100.000000,,,,,,,,,,,,,,,,,,,,,,,,,,,,
1703417100.181682,1703417100.182111,55.000000,0.000000,4284.230957,4278.717773,4344.615234,4299.615234,4264.102539,4253.461426,4240.641113,4243.333496,4243.205078,4236.410156,4598.846191,4523.205078,4426.794922,4524.102539,0.000000,2.000000,49.000000,,,,0.000000,4.000000,4.000000,4.000000,4.000000,4.000000,4.000000,4.000000,4.000000,4.000000,4.000000,4.000000,4.000000,4.000000,4.000000,100.000000,,,,,,,,,,,,,,,,,,,,,,,,,,,,
1703417100.189490,1703417100.190019,56.000000,0.000000,4283.717773,4275.256348,4345.000000,4293.846191,4264.871582,4253.974121,4240.512695,4244.230957,4244.487305,4235.897461,4600.897461,4523.717773,4423.846191,4519.358887,0.000000,2.000000,49.000000,,,,0.000000,4.000000,4.000000,4.000000,4.000000,4.000000,4.000000,4.000000,4.000000,4.000000,4.000000,4.000000,4.000000,4.000000,4.000000,100.000000,,,,,,,,,,,,,,,,,14.000000,0.000000,0.708526,0.075684,-0.673401,0.196960,0.981077,-0.158711,0.071786,-13.193285,-47.469162,65.603668
1703417100.197298,1703417100.197827,57.000000,0.000000,4276.282227,4257.820313,4336.282227,4284.487305,4254.358887,4243.077148,4237.692383,4241.666504,4238.717773,4251.538574,4592.436035,4515.769043,4414.743652,4512.051270,0.000000,2.000000,49.000000,,,,0.000000,4.000000,4.000000,4.000000,4.000000,4.000000,4.000000,4.000000,4.000000,4.000000,4.000000,4.000000,4.000000,4.000000,4.000000,100.000000,,,,,,,,,,,,,,,,,,,,,,,,,,,,
1703417100.205106,1703417100.205635,58.000000,0.000000,4274.871582,4260.384766,4340.512695,4291.153809,4257.051270,4242.692383,4241.282227,4245.769043,4244.230957,4250.512695,4592.820313,4517.820313,4419.743652,4514.102539,0.000000,2.000000,49.000000,,,,0.000000,4.000000,4.000000,4.000000,4.000000,4.000000,4.000000,4.000000,4.000000,4.000000,4.000000,4.000000,4.000000,4.000000,4.000000,100.000000,,,,,,,,,,,,,,,,,,,,,,,,,,,,
1703417100.212914,1703417100.213343,59.000000,0.000000,4278.077148,4261.794922,4344.102539,4292.307617,4255.256348,4239.871582,4236.794922,4239.102539,4240.769043,4227.307617,4586.666504,4512.307617,4418.589844,4509.487305,0.000000,2.000000,49.000000,,,,0.000000,4.000000,4.000000,4.000000,4.000000,4.000000,4.000000,4.000000,4.000000,4.000000,4.000000,4.000000,4.000000,4.000000,4.000000,100.000000,,,,,,,,,,,,,,,,,,,,,,,,,,,,
1703417100.220722,1703417100.221151,60.000000,0.000000,4286.666504,4261.153809,4342.692383,4292.436035,4250.000000,4241.025879,4234.487305,4233.717773,4234.230957,4228.077148,4584.743652,4511.666504,4419.487305,4511.410156,0.000000,2.000000,49.000000,,,,0.000000,4.000000,4.000000,4.000000,4.000000,4.000000,4.000000,4.000000,4.000000,4.000000,4.000000,4.000000,4.000000,4.000000,4.000000,100.000000,,,,,,,,,,,,,,,,,15.000000,0.000000,0.708506,0.075562,-0.673401,0.197083,0.979123,-0.173849,0.076181,-13.140623,-47.538914,65.659973
1703417100.228530,1703417100.228859,61.000000,0.000000,4286.410156,4266.410156,4338.974121,4294.615234,4253.589844,4245.641113,4238.717773,4233.461426,4235.000000,4233.205078,4585.769043,4516.410156,4421.282227,4515.641113,0.000000,2.000000,49.000000,,,,0.000000,4.000000,4.000000,4.000000,4.000000,4.000000,4.000000,4.000000,4.000000,4.000000,4.000000,4.000000,4.000000,4.000000,4.000000,100.000000,,,,,,,,,,,,,,,,,,,,,,,,,,,,
1703417100.236338,1703417100.236767,62.000000,0.000000,4283.333496,4265.000000,4337.692383,4292.436035,4258.589844,4242.948730,4233.461426,4231.794922,4234.358887,4230.512695,4584.743652,4518.205078,4417.820313,4513.461426,0.000000,2.000000,49.000000,,,,0.000000,4.000000,4.000000,4.000000,4.000000,4.000000,4.000000,4.000000,4.000000,4.000000,4.000000,4.000000,4.000000,4.000000,4.000000,100.000000,,,,,,,,,,,,,,,,,,,,,,,,,,,,
1703417100.244146,1703417100.244576,63.000000,0.000000,4287.820313,4259.487305,4341.153809,4290.128418,4259.487305,4241.410156,4231.025879,4237.051270,4237.820313,4234.871582,4590.384766,4524.358887,4420.641113,4513.846191,0.000000,2.000000,49.000000,,,,0.000000,4.000000,4.000000,4.000000,4.000000,4.000000,4.000000,4.000000,4.000000,4.000000,4.000000,4.000000,4.000000,4.000000,4.000000,100.000000,,,,,,,,,,,,,,,,,,,,,,,,,,,,
1703417100.251954,1703417100.252484,64.000000,0.000000,4287.820313,4257.179688,4339.871582,4286.666504,4255.769043,4244.871582,4235.256348,4239.615234,4239.487305,4227.692383,4588.974121,4523.205078,4418.333496,4511.794922,5679.000000,2.000000,49.000000,,,,0.000000,4.000000,4.000000,4.000000,4.000000,4.000000,4.000000,4.000000,4.000000,4.000000,4.000000,4.000000,4.000000,4.000000,4.000000,100.000000,,,,,,,,,,,,,,,,,16.000000,0.000000,0.708302,0.075195,-0.673584,0.197327,0.965450,-0.164083,0.074716,-13.093227,-47.435020,65.677307
1703417100.259762,1703417100.260292,65.000000,0.000000,4285.769043,4260.641113,4337.307617,4285.384766,4255.512695,4245.128418,4233.077148,4234.743652,4235.769043,4234.615234,4584.615234,4518.077148,4412.436035,4508.333496,5394.000000,2.000000,49.000000,,,,0.000000,4.000000,4.000000,4.000000,4.000000,4.000000,4.000000,4.000000,4.000000,4.000000,4.000000,4.000000,4.000000,4.000000,4.000000,100.000000,,,,,,,,,,,,,,,,,,,,,,,,,,,,
1703417100.267570,1703417100.268200,66.000000,0.000000,4277.948730,4257.436035,4332.436035,4285.641113,4256.282227,4239.102539,4229.358887,4229.743652,4227.179688,4253.205078,4582.436035,4516.666504,4408.974121,4500.256348,5372.000000,2.000000,49.000000,,,,0.000000,4.000000,4.000000,4.000000,4.000000,4.000000,4.000000,4.000000,4.000000,4.000000,4.000000,4.000000,4.000000,4.000000,4.000000,100.000000,,,,,,,,,,,,,,,,,,,,,,,,,,,,
1703417100.275378,1703417100.276008,67.000000,0.000000,4274.358887,4253.717773,4331.410156,4285.641113,4253.846191,4237.820313,4232.948730,4230.000000,4223.846191,4229.615234,4581.410156,4515.256348,4408.846191,4498.974121,5399.000000,2.000000,49.000000,,,,0.000000,4.000000,4.000000,4.000000,4.000000,4.000000,4.000000,4.000000,4.000000,4.000000,4.000000,4.000000,4.000000,4.000000,4.000000,100.000000,,,,,,,,,,,,,,,,,,,,,,,,,,,,
1703417100.283186,1703417100.283916,68.000000,0.000000,4285.897461,4258.717773,4339.743652,4288.461426,4253.589844,4242.820313,4238.846191,4236.922852,4234.102539,4208.589844,4590.128418,4523.974121,4414.871582,4515.641113,5372.000000,2.000000,49.000000,,,,0.000000,4.000000,4.000000,4.000000,4.000000,4.000000,4.000000,4.000000,4.000000,4.000000,4.000000,4.000000,4.000000,4.000000,4.000000,100.000000,,,,,,,,,,,,,,,,,17.000000,0.000000,0.708183,0.075134,-0.673645,0.197571,0.984495,-0.179221,0.076670,-13.117238,-47.441517,65.742912
1703417100.290994,1703417100.291724,69.000000,0.000000,4287.307617,4257.563965,4341.922852,4287.051270,4253.077148,4240.769043,4235.641113,4238.333496,4238.077148,4231.025879,4595.256348,4532.692383,4415.512695,4522.307617,5203.000000,2.000000,49.000000,,,,0.000000,4.000000,4.000000,4.000000,4.000000,4.000000,4.000000,4.000000,4.000000,4.000000,4.000000,4.000000,4.000000,4.000000,4.000000,100.000000,,,,,,,,,,,,,,,,,,,,,,,,,,,,
1703417100.298803,1703417100.299433,70.000000,0.000000,4280.000000,4257.307617,4339.487305,4285.897461,4254.487305,4239.615234,4230.512695,4237.307617,4236.282227,4254.615234,4599.871582,4535.641113,4421.922852,4517.692383,4443.000000,2.000000,49.000000,,,,0.000000,4.000000,4.000000,4.000000,4.000000,4.000000,4.000000,4.000000,4.000000,4.000000,4.000000,4.000000,4.000000,4.000000,4.000000,100.000000,,,,,,,,,,,,,,,,,,,,,,,,,,,,
1703417100.306610,1703417100.307241,71.000000,0.000000,4289.230957,4265.256348,4347.179688,4292.692383,4255.256348,4242.307617,4232.436035,4238.717773,4241.153809,4256.025879,4613.974121,4546.410156,4438.589844,4526.666504,5215.000000,2.000000,49.000000,,,,0.000000,4.000000,4.000000,4.000000,4.000000,4.000000,4.000000,4.000000,4.000000,4.000000,4.000000,4.000000,4.000000,4.000000,4.000000,100.000000,,,,,,,,,,,,,,,,,,,,,,,,,,,,
1703417100.314418,1703417100.314949,72.000000,0.000000,4300.000000,4270.384766,4356.666504,4294.230957,4253.717773,4238.974121,4233.205078,4233.717773,4241.410156,4233.077148,4615.256348,4551.922852,4438.717773,4535.897461,5549.000000,2.000000,49.000000,,,,0.000000,4.000000,4.000000,4.000000,4.000000,4.000000,4.000000,4.000000,4.000000,4.000000,4.000000,4.000000,4.000000,4.000000,4.000000,100.000000,,,,,,,,,,,,,,,,,18.000000,0.000000,0.708187,0.075317,-0.673584,0.197693,0.967403,-0.169943,0.075693,-13.222181,-47.364033,65.801949
1703417100.322227,1703417100.322757,73.000000,0.000000,4294.743652,4272.051270,4356.282227,4290.769043,4259.487305,4238.461426,4232.436035,4228.717773,4236.538574,4226.538574,4611.025879,4547.948730,4433.461426,4533.589844,5527.000000,2.000000,49.000000,,,,0.000000,4.000000,4.000000,4.000000,4.000000,4.000000,4.000000,4.000000,4.000000,4.000000,4.000000,4.000000,4.000000,4.000000,4.000000,100.000000,,,,,,,,,,,,,,,,,,,,,,,,,,,,
1703417100.330035,1703417100.330465,74.000000,0.000000,4287.820313,4266.666504,4345.128418,4285.769043,4256.794922,4238.589844,4228.974121,4224.615234,4231.666504,4253.205078,4609.487305,4538.589844,4434.102539,4525.000000,6118.000000,2.000000,49.000000,,,,0.000000,4.000000,4.000000,4.000000,4.000000,4.000000,4.000000,4.000000,4.000000,4.000000,4.000000,4.000000,4.000000,4.000000,4.000000,100.000000,,,,,,,,,,,,,,,,,,,,,,,,,,,,
1703417100.337843,1703417100.338273,75.000000,0.000000,4291.153809,4261.538574,4341.153809,4284.487305,4252.307617,4236.153809,4228.333496,4222.692383,4232.948730,4256.794922,4604.230957,4533.461426,4432.820313,4520.256348,6387.000000,2.000000,49.000000,,,,0.000000,4.000000,4.000000,4.000000,4.000000,4.000000,4.000000,4.000000,4.000000,4.000000,4.000000,4.000000,4.000000,4.000000,4.000000,100.000000,,,,,,,,,,,,,,,,,,,,,,,,,,,,
1703417100.345651,1703417100.345981,76.000000,0.000000,4291.410156,4263.846191,4345.897461,4288.461426,4254.743652,4237.307617,4229.102539,4226.153809,4239.743652,4234.358887,4607.436035,4539.871582,4431.922852,4520.897461,6908.000000,2.000000,49.000000,,,,0.000000,4.000000,4.000000,4.000000,4.000000,4.000000,4.000000,4.000000,4.000000,4.000000,4.000000,4.000000,4.000000,4.000000,4.000000,100.000000,,,,,,,,,,,,,,,,,19.000000,0.000000,0.708396,0.075378,-0.673340,0.197754,0.982053,-0.182151,0.077158,-13.383296,-47.227631,65.638420
1703417100.353459,1703417100.353789,77.000000,0.000000,4283.974121,4258.205078,4339.358887,4286.282227,4248.589844,4235.641113,4225.384766,4226.538574,4235.769043,4230.256348,4608.846191,4533.589844,4428.717773,4514.102539,7419.000000,2.000000,49.000000,,,,0.000000,4.000000,4.000000,4.000000,4.000000,4.000000,4.000000,4.000000,4.000000,4.000000,4.000000,4.000000,4.000000,4.000000,4.000000,100.000000,,,,,,,,,,,,,,,,,,,,,,,,,,,,
1703417100.361267,1703417100.361497,78.000000,0.000000,4285.512695,4251.025879,4334.358887,4287.692383,4247.179688,4234.743652,4226.794922,4230.512695,4234.871582,4246.153809,4605.128418,4524.743652,4429.102539,4516.410156,6118.000000,2.000000,49.000000,,,,0.000000,4.000000,4.000000,4.000000,4.000000,4.000000,4.000000,4.000000,4.000000,4.000000,4.000000,4.000000,4.000000,4.000000,4.000000,100.000000,,,,,,,,,,,,,,,,,,,,,,,,,,,,
1703417100.369075,1703417100.369305,79.000000,0.000000,4286.538574,4253.717773,4335.769043,4291.666504,4249.871582,4236.410156,4228.717773,4233.846191,4240.000000,4240.512695,4600.128418,4525.384766,4429.615234,4519.487305,6387.000000,2.000000,49.000000,,,,0.000000,4.000000,4.000000,4.000000,4.000000,4.000000,4.000000,4.000000,4.000000,4.000000,4.000000,4.000000,4.000000,4.000000,4.000000,100.000000,,,,,,,,,,,,,,,,,,,,,,,,,,,,
1703417100.376883,1703417100.377013,80.000000,0.000000,4280.769043,4255.769043,4332.692383,4290.512695,4248.077148,4237.563965,4228.205078,4228.846191,4237.179688,4225.897461,4597.820313,4523.461426,4424.487305,4507.692383,6908.000000,2.000000,49.000000,,,,0.000000,4.000000,4.000000,4.000000,4.000000,4.000000,4.000000,4.000000,4.000000,4.000000,4.000000,4.000000,4.000000,4.000000,4.000000,100.000000,,,,,,,,,,,,,,,,,20.000000,0.000000,0.708370,0.075073,-0.673401,0.197754,0.972775,-0.163106,0.084483,-13.311633,-47.321533,65.657913
1703417100.384691,1703417100.384821,81.000000,0.000000,4285.000000,4256.410156,4334.487305,4295.128418,4255.641113,4243.205078,4231.538574,4233.077148,4241.794922,4241.025879,4605.256348,4527.436035,4430.897461,4514.230957,7419.000000,2.000000,49.000000,,,,0.000000,4.000000,4.000000,4.000000,4.000000,4.000000,4.000000,4.000000,4.000000,4.000000,4.000000,4.000000,4.000000,4.000000,4.000000,100.000000,,,,,,,,,,,,,,,,,,,,,,,,,,,,
1703417100.392499,1703417100.392529,82.000000,0.000000,4285.256348,4254.615234,4335.897461,4297.820313,4257.307617,4240.512695,4229.743652,4236.922852,4243.589844,4253.589844,4603.846191,4528.589844,4433.974121,4522.307617,6118.000000,2.000000,49.000000,,,,0.000000,4.000000,4.000000,4.000000,4.000000,4.000000,4.000000,4.000000,4.000000,4.000000,4.000000,4.000000,4.000000,4.000000,4.000000,100.000000,,,,,,,,,,,,,,,,,,,,,,,,,,,,
1703417100.400307,1703417100.400437,83.000000,0.000000,4279.871582,4256.025879,4337.307617,4296.794922,4250.000000,4232.179688,4225.512695,4231.410156,4235.641113,4238.589844,4599.487305,4526.666504,4430.512695,4513.461426,6387.000000,2.000000,49.000000,,,,0.000000,4.000000,4.000000,4.000000,4.000000,4.000000,4.000000,4.000000,4.000000,4.000000,4.000000,4.000000,4.000000,4.000000,4.000000,100.000000,,,,,,,,,,,,,,,,,,,,,,,,,,,,
1703417100.408115,1703417100.408246,84.000000,0.000000,4286.282227,4258.077148,4341.282227,4299.358887,4252.820313,4233.589844,4227.820313,4229.230957,4236.666504,4227.563965,4602.820313,4527.307617,4433.333496,4513.077148,6908.000000,2.000000,49.000000,,,,0.000000,4.000000,4.000000,4.000000,4.000000,4.000000,4.000000,4.000000,4.000000,4.000000,4.000000,4.000000,4.000000,4.000000,4.000000,100.000000,,,,,,,,,,,,,,,,,21.000000,0.000000,0.708384,0.075012,-0.673340,0.197937,0.976193,-0.162129,0.076670,-13.347136,-47.039379,65.642120
1703417100.415923,1703417100.416154,85.000000,0.000000,4292.563965,4254.615234,4338.461426,4298.846191,4255.000000,4236.538574,4229.358887,4228.974121,4236.538574,4244.487305,4598.589844,4523.077148,4426.538574,4515.512695,7419.000000,2.000000,49.000000,,,,0.000000,4.000000,4.000000,4.000000,4.000000,4.000000,4.000000,4.000000,4.000000,4.000000,4.000000,4.000000,4.000000,4.000000,4.000000,100.000000,,,,,,,,,,,,,,,,,,,,,,,,,,,,
1703417100.423731,1703417100.423962,86.000000,0.000000,4290.512695,4257.692383,4337.051270,4299.358887,4253.589844,4239.743652,4229.743652,4231.922852,4234.871582,4258.461426,4599.743652,4524.230957,4420.769043,4511.538574,6118.000000,2.000000,49.000000,,,,0.000000,4.000000,4.000000,4.000000,4.000000,4.000000,4.000000,4.000000,4.000000,4.000000,4.000000,4.000000,4.000000,4.000000,4.000000,100.000000,,,,,,,,,,,,,,,,,,,,,,,,,,,,
1703417100.431539,1703417100.431870,87.000000,0.000000,4282.948730,4258.717773,4338.846191,4300.256348,4249.743652,4237.179688,4230.897461,4231.153809,4236.794922,4243.589844,4602.051270,4528.205078,4423.589844,4507.948730,6387.000000,2.000000,49.000000,,,,0.000000,4.000000,4.000000,4.000000,4.000000,4.000000,4.000000,4.000000,4.000000,4.000000,4.000000,4.000000,4.000000,4.000000,4.000000,100.000000,,,,,,,,,,,,,,,,,,,,,,,,,,,,
1703417100.439347,1703417100.439678,88.000000,0.000000,4283.205078,4254.230957,4339.102539,4298.077148,4244.487305,4234.102539,4227.820313,4229.358887,4236.410156,4234.358887,4600.000000,4530.384766,4422.820313,4512.692383,6908.000000,2.000000,49.000000,,,,0.000000,4.000000,4.000000,4.000000,4.000000,4.000000,4.000000,4.000000,4.000000,4.000000,4.000000,4.000000,4.000000,4.000000,4.000000,100.000000,,,,,,,,,,,,,,,,,22.000000,0.000000,0.708431,0.074951,-0.673279,0.197998,0.981077,-0.183616,0.079111,-13.212423,-47.085442,65.627914
1703417100.447155,1703417100.447586,89.000000,0.000000,4290.897461,4257.051270,4343.974121,4294.871582,4248.333496,4240.641113,4229.615234,4239.102539,4239.358887,4238.205078,4604.102539,4536.282227,4422.820313,4523.461426,7419.000000,2.000000,49.000000,,,,0.000000,4.000000,4.000000,4.000000,4.000000,4.000000,4.000000,4.000000,4.000000,4.000000,4.000000,4.000000,4.000000,4.000000,4.000000,100.000000,,,,,,,,,,,,,,,,,,,,,,,,,,,,
1703417100.454963,1703417100.455395,90.000000,0.000000,4288.846191,4255.384766,4344.102539,4286.410156,4246.410156,4239.102539,4232.820313,4241.538574,4238.717773,4228.205078,4597.179688,4533.205078,4418.205078,4517.692383,6118.000000,2.000000,49.000000,,,,0.000000,4.000000,4.000000,4.000000,4.000000,4.000000,4.000000,4.000000,4.000000,4.000000,4.000000,4.000000,4.000000,4.000000,4.000000,100.000000,,,,,,,,,,,,,,,,,,,,,,,,,,,,
1703417100.462772,1703417100.463303,91.000000,0.000000,4286.410156,4252.692383,4341.538574,4287.307617,4243.974121,4235.897461,4232.051270,4234.871582,4234.230957,4231.538574,4591.153809,4532.307617,4415.897461,4511.538574,6387.000000,2.000000,49.000000,,,,0.000000,4.000000,4.000000,4.000000,4.000000,4.000000,4.000000,4.000000,4.000000,4.000000,4.000000,4.000000,4.000000,4.000000,4.000000,100.000000,,,,,,,,,,,,,,,,,,,,,,,,,,,,
1703417100.470580,1703417100.471111,92.000000,0.000000,4291.282227,4257.820313,4343.846191,4294.871582,4252.307617,4239.102539,4233.333496,4235.000000,4232.820313,4241.794922,4600.384766,4539.871582,4421.922852,4522.820313,6908.000000,2.000000,49.000000,,,,0.000000,4.000000,4.000000,4.000000,4.000000,4.000000,4.000000,4.000000,4.000000,4.000000,4.000000,4.000000,4.000000,4.000000,4.000000,100.000000,,,,,,,,,,,,,,,,,23.000000,0.000000,0.708502,0.074890,-0.673157,0.198181,0.980100,-0.176291,0.078135,-13.291181,-47.110233,65.398453
1703417100.478387,1703417100.479019,93.000000,0.000000,4292.307617,4261.410156,4343.589844,4293.717773,4255.384766,4237.820313,4232.051270,4236.666504,4235.000000,4229.743652,4601.922852,4535.769043,4423.077148,4523.461426,7419.000000,2.000000,49.000000,,,,0.000000,4.000000,4.000000,4.000000,4.000000,4.000000,4.000000,4.000000,4.000000,4.000000,4.000000,4.000000,4.000000,4.000000,4.000000,100.000000,,,,,,,,,,,,,,,,,,,,,,,,,,,,
1703417100.486196,1703417100.486827,94.000000,0.000000,4288.333496,4258.333496,4340.256348,4289.230957,4252.820313,4237.436035,4231.666504,4237.820313,4239.230957,4230.512695,4597.179688,4530.384766,4421.410156,4514.615234,6118.000000,2.000000,49.000000,,,,0.000000,4.000000,4.000000,4.000000,4.000000,4.000000,4.000000,4.000000,4.000000,4.000000,4.000000,4.000000,4.000000,4.000000,4.000000,100.000000,1.000000,100.000000,4.000000,4.000000,4.000000,4.000000,4.000000,4.000000,4.000000,4.000000,4.000000,4.000000,4.000000,4.000000,4.000000,4.000000,,,,,,,,,,,,
1703417100.494004,1703417100.494535,95.000000,0.000000,4282.436035,4248.846191,4334.102539,4284.102539,4252.436035,4237.436035,4233.717773,4234.615234,4232.948730,4228.461426,4592.436035,4526.410156,4416.153809,4511.410156,6387.000000,2.000000,49.000000,,,,0.000000,4.000000,4.000000,4.000000,4.000000,4.000000,4.000000,4.000000,4.000000,4.000000,4.000000,4.000000,4.000000,4.000000,4.000000,100.000000,,,,,,,,,,,,,,,,,,,,,,,,,,,,
1703417100.501812,1703417100.502343,96.000000,0.000000,4280.641113,4251.025879,4334.743652,4286.794922,4258.205078,4239.102539,4232.307617,4234.615234,4231.666504,4230.384766,4597.307617,4525.769043,4416.922852,4515.384766,6908.000000,2.000000,49.000000,,,,0.000000,4.000000,4.000000,4.000000,4.000000,4.000000,4.000000,4.000000,4.000000,4.000000,4.000000,4.000000,4.000000,4.000000,4.000000,100.000000,,,,,,,,,,,,,,,,,24.000000,0.000000,0.708472,0.074951,-0.673218,0.198059,0.965450,-0.170431,0.081553,-13.262062,-47.299210,65.441940
1703417100.509620,1703417100.510051,97.000000,0.000000,4281.153809,4261.922852,4338.077148,4297.051270,4258.077148,4242.436035,4232.051270,4243.077148,4242.563965,4255.769043,4607.307617,4531.153809,4426.538574,4515.641113,7419.000000,2.000000,49.000000,,,,0.000000,4.000000,4.000000,4.000000,4.000000,4.000000,4.000000,4.000000,4.000000,4.000000,4.000000,4.000000,4.000000,4.000000,4.000000,100.000000,,,,,,,,,,,,,,,,,,,,,,,,,,,,
1703417100.517428,1703417100.517859,98.000000,0.000000,4278.717773,4257.436035,4334.102539,4300.256348,4252.820313,4242.436035,4238.461426,4243.461426,4242.563965,4253.461426,4599.615234,4526.410156,4424.871582,4507.179688,6118.000000,2.000000,49.000000,,,,0.000000,4.000000,4.000000,4.000000,4.000000,4.000000,4.000000,4.000000,4.000000,4.000000,4.000000,4.000000,4.000000,4.000000,4.000000,100.000000,,,,,,,,,,,,,,,,,,,,,,,,,,,,
1703417100.525236,1703417100.525567,99.000000,0.000000,4287.948730,4257.820313,4341.282227,4305.000000,4264.230957,4249.487305,4248.205078,4248.205078,4246.282227,4242.820313,4600.897461,4534.102539,4425.384766,4518.077148,6387.000000,2.000000,49.000000,,,,0.000000,4.000000,4.000000,4.000000,4.000000,4.000000,4.000000,4.000000,4.000000,4.000000,4.000000,4.000000,4.000000,4.000000,4.000000,100.000000,,,,,,,,,,,,,,,,,,,,,,,,,,,,
1703417100.533044,1703417100.533375,100.000000,0.000000,4300.512695,4270.384766,4355.769043,4316.666504,4273.461426,4256.666504,4250.769043,4259.487305,4257.307617,4257.179688,4616.410156,4551.922852,4435.512695,4534.487305,6908.000000,2.000000,49.000000,,,,0.000000,4.000000,4.000000,4.000000,4.000000,4.000000,4.000000,4.000000,4.000000,4.000000,4.000000,4.000000,4.000000,4.000000,4.000000,100.000000,,,,,,,,,,,,,,,,,25.000000,0.000000,0.708513,0.074890,-0.673218,0.197937,0.984007,-0.155781,0.073251,-13.202523,-47.385956,65.264412
1703417100.540852,1703417100.541083,101.000000,0.000000,4296.410156,4272.436035,4360.000000,4323.077148,4262.563965,4255.897461,4249.871582,4260.128418,4258.589844,4256.282227,4617.307617,4552.436035,4441.282227,4531.282227,7419.000000,2.000000,49.000000,,,,0.000000,4.000000,4.000000,4.000000,4.000000,4.000000,4.000000,4.000000,4.000000,4.000000,4.000000,4.000000,4.000000,4.000000,4.000000,100.000000,,,,,,,,,,,,,,,,,,,,,,,,,,,,
1703417100.548660,1703417100.548991,102.000000,0.000000,4289.102539,4266.538574,4357.307617,4319.358887,4258.974121,4254.358887,4250.128418,4258.077148,4256.666504,4247.820313,4612.436035,4550.256348,4441.666504,4528.077148,6118.000000,2.000000,49.000000,,,,0.000000,4.000000,4.000000,4.000000,4.000000,4.000000,4.000000,4.000000,4.000000,4.000000,4.000000,4.000000,4.000000,4.000000,4.000000,100.000000,,,,,,,,,,,,,,,,,,,,,,,,,,,,
1703417100.556468,1703417100.556800,103.000000,0.000000,4292.436035,4267.948730,4357.820313,4314.358887,4268.077148,4252.179688,4248.333496,4255.512695,4255.512695,4253.974121,4609.230957,4549.358887,4435.512695,4530.000000,6387.000000,2.000000,49.000000,,,,0.000000,4.000000,4.000000,4.000000,4.000000,4.000000,4.000000,4.000000,4.000000,4.000000,4.000000,4.000000,4.000000,4.000000,4.000000,100.000000,,,,,,,,,,,,,,,,,,,,,,,,,,,,
1703417100.564276,1703417100.564708,104.000000,0.000000,4308.333496,4280.384766,4372.436035,4323.461426,4272.948730,4255.512695,4251.922852,4256.153809,4258.846191,4255.000000,4616.538574,4555.769043,4442.051270,4541.153809,6908.000000,2.000000,49.000000,,,,0.000000,4.000000,4.000000,4.000000,4.000000,4.000000,4.000000,4.000000,4.000000,4.000000,4.000000,4.000000,4.000000,4.000000,4.000000,100.000000,,,,,,,,,,,,,,,,,26.000000,0.000000,0.708465,0.074951,-0.673279,0.197876,0.972287,-0.166524,0.086925,-12.882271,-47.330692,65.321304
1703417100.572084,1703417100.572516,105.000000,0.000000,4312.692383,4284.358887,4380.769043,4329.358887,4266.410156,4256.666504,4252.179688,4257.051270,4263.589844,4250.769043,4628.846191,4565.769043,4455.256348,4547.051270,7419.000000,2.000000,49.000000,,,,0.000000,4.000000,4.000000,4.000000,4.000000,4.000000,4.000000,4.000000,4.000000,4.000000,4.000000,4.000000,4.000000,4.000000,4.000000,100.000000,,,,,,,,,,,,,,,,,,,,,,,,,,,,
1703417100.579892,1703417100.580324,106.000000,0.000000,4299.358887,4274.487305,4370.512695,4316.666504,4262.179688,4253.974121,4247.692383,4255.256348,4261.282227,4261.922852,4628.974121,4564.615234,4451.794922,4538.589844,6118.000000,2.000000,49.000000,,,,0.000000,4.000000,4.000000,4.000000,4.000000,4.000000,4.000000,4.000000,4.000000,4.000000,4.000000,4.000000,4.000000,4.000000,4.000000,100.000000,,,,,,,,,,,,,,,,,,,,,,,,,,,,
1703417100.587700,1703417100.588032,107.000000,0.000000,4294.615234,4269.871582,4364.102539,4307.692383,4270.000000,4262.948730,4255.384766,4261.410156,4262.563965,4269.615234,4627.307617,4561.025879,4446.922852,4541.794922,6387.000000,2.000000,49.000000,,,,0.000000,4.000000,4.000000,4.000000,4.000000,4.000000,4.000000,4.000000,4.000000,4.000000,4.000000,4.000000,4.000000,4.000000,4.000000,100.000000,,,,,,,,,,,,,,,,,,,,,,,,,,,,
1703417100.595508,1703417100.595940,108.000000,0.000000,4291.666504,4267.436035,4358.589844,4306.153809,4271.666504,4268.974121,4263.077148,4263.205078,4258.333496,4257.948730,4618.974121,4553.077148,4443.846191,4542.179688,6908.000000,2.000000,49.000000,,,,0.000000,4.000000,4.000000,4.000000,4.000000,4.000000,4.000000,4.000000,4.000000,4.000000,4.000000,4.000000,4.000000,4.000000,4.000000,100.000000,,,,,,,,,,,,,,,,,27.000000,0.000000,0.708446,0.075134,-0.673279,0.197876,0.972287,-0.172873,0.079111,-12.894044,-47.330956,65.572510
1703417100.603316,1703417100.603749,109.000000,0.000000,4281.153809,4266.922852,4350.256348,4306.410156,4274.615234,4268.333496,4264.230957,4260.384766,4253.846191,4262.436035,4611.538574,4545.897461,4441.025879,4528.461426,7419.000000,2.000000,49.000000,,,,0.000000,4.000000,4.000000,4.000000,4.000000,4.000000,4.000000,4.000000,4.000000,4.000000,4.000000,4.000000,4.000000,4.000000,4.000000,100.000000,,,,,,,,,,,,,,,,,,,,,,,,,,,,
1703417100.611124,1703417100.611657,110.000000,0.000000,4276.794922,4271.538574,4347.692383,4309.358887,4284.230957,4273.717773,4266.153809,4265.641113,4262.307617,4275.769043,4611.794922,4543.077148,4440.769043,4522.051270,6118.000000,2.000000,49.000000,,,,0.000000,4.000000,4.000000,4.000000,4.000000,4.000000,4.000000,4.000000,4.000000,4.000000,4.000000,4.000000,4.000000,4.000000,4.000000,100.000000,,,,,,,,,,,,,,,,,,,,,,,,,,,,
1703417100.618932,1703417100.619465,111.000000,0.000000,4275.512695,4265.641113,4342.563965,4309.487305,4280.128418,4272.948730,4266.922852,4265.256348,4261.153809,4254.871582,4599.487305,4531.410156,4427.948730,4517.692383,6387.000000,2.000000,49.000000,,,,0.000000,4.000000,4.000000,4.000000,4.000000,4.000000,4.000000,4.000000,4.000000,4.000000,4.000000,4.000000,4.000000,4.000000,4.000000,100.000000,,,,,,,,,,,,,,,,,,,,,,,,,,,,
1703417100.626741,1703417100.627373,112.000000,0.000000,4276.410156,4267.051270,4343.205078,4315.897461,4279.615234,4272.051270,4270.128418,4270.769043,4260.256348,4241.410156,4598.461426,4531.794922,4428.205078,4516.282227,6908.000000,2.000000,49.000000,,,,0.000000,4.000000,4.000000,4.000000,4.000000,4.000000,4.000000,4.000000,4.000000,4.000000,4.000000,4.000000,4.000000,4.000000,4.000000,100.000000,,,,,,,,,,,,,,,,,28.000000,0.000000,0.708452,0.075073,-0.673279,0.197876,0.962520,-0.159687,0.083506,-12.937973,-47.314526,65.481926
1703417100.634549,1703417100.635181,113.000000,0.000000,4278.205078,4278.589844,4348.205078,4322.307617,4287.563965,4275.641113,4273.205078,4280.769043,4272.179688,4258.974121,4611.794922,4541.794922,4441.153809,4518.846191,7419.000000,2.000000,49.000000,,,,0.000000,4.000000,4.000000,4.000000,4.000000,4.000000,4.000000,4.000000,4.000000,4.000000,4.000000,4.000000,4.000000,4.000000,4.000000,100.000000,,,,,,,,,,,,,,,,,,,,,,,,,,,,
1703417100.642357,1703417100.643089,114.000000,0.000000,4279.230957,4277.563965,4347.051270,4322.051270,4286.282227,4273.461426,4272.948730,4272.948730,4271.666504,4258.333496,4610.000000,4540.512695,4438.205078,4518.461426,6118.000000,2.000000,49.000000,,,,0.000000,4.000000,4.000000,4.000000,4.000000,4.000000,4.000000,4.000000,4.000000,4.000000,4.000000,4.000000,4.000000,4.000000,4.000000,100.000000,,,,,,,,,,,,,,,,,,,,,,,,,,,,
1703417100.650165,1703417100.650898,115.000000,0.000000,4286.922852,4279.871582,4355.641113,4331.282227,4285.384766,4271.666504,4272.948730,4263.974121,4264.230957,4247.436035,4608.461426,4545.128418,4438.461426,4526.025879,6387.000000,2.000000,49.000000,,,,0.000000,4.000000,4.000000,4.000000,4.000000,4.000000,4.000000,4.000000,4.000000,4.000000,4.000000,4.000000,4.000000,4.000000,4.000000,100.000000,,,,,,,,,,,,,,,,,,,,,,,,,,,,
1703417100.657973,1703417100.658806,116.000000,0.000000,4300.512695,4294.358887,4371.794922,4345.897461,4286.922852,4269.615234,4269.102539,4265.384766,4265.384766,4253.205078,4617.051270,4555.256348,4451.410156,4538.333496,6908.000000,2.000000,49.000000,,,,0.000000,4.000000,4.000000,4.000000,4.000000,4.000000,4.000000,4.000000,4.000000,4.000000,4.000000,4.000000,4.000000,4.000000,4.000000,100.000000,,,,,,,,,,,,,,,,,29.000000,0.000000,0.708431,0.074890,-0.673340,0.197815,0.984495,-0.165548,0.080088,-12.860842,-47.183075,65.467064
1703417100.665781,1703417100.666614,117.000000,0.000000,4318.205078,4305.512695,4381.538574,4353.205078,4288.461426,4266.025879,4262.563965,4265.256348,4270.000000,4261.410156,4632.051270,4567.307617,4467.051270,4556.410156,7419.000000,2.000000,49.000000,,,,0.000000,4.000000,4.000000,4.000000,4.000000,4.000000,4.000000,4.000000,4.000000,4.000000,4.000000,4.000000,4.000000,4.000000,4.000000,100.000000,,,,,,,,,,,,,,,,,,,,,,,,,,,,
1703417100.673589,1703417100.674322,118.000000,0.000000,4325.128418,4305.128418,4384.487305,4352.179688,4286.538574,4262.692383,4260.769043,4263.461426,4269.230957,4270.000000,4638.461426,4577.563965,4470.769043,4571.153809,6118.000000,2.000000,49.000000,,,,0.000000,4.000000,4.000000,4.000000,4.000000,4.000000,4.000000,4.000000,4.000000,4.000000,4.000000,4.000000,4.000000,4.000000,4.000000,100.000000,,,,,,,,,,,,,,,,,,,,,,,,,,,,
1703417100.681397,1703417100.682230,119.000000,0.000000,4311.794922,4300.512695,4378.205078,4345.384766,4278.974121,4259.102539,4262.692383,4266.538574,4266.025879,4273.846191,4627.307617,4569.358887,4460.641113,4556.922852,6387.000000,2.000000,49.000000,,,,0.000000,4.000000,4.000000,4.000000,4.000000,4.000000,4.000000,4.000000,4.000000,4.000000,4.000000,4.000000,4.000000,4.000000,4.000000,100.000000,,,,,,,,,,,,,,,,,,,,,,,,,,,,
1703417100.689205,1703417100.690038,120.000000,0.000000,4302.436035,4296.282227,4372.307617,4340.256348,4280.641113,4262.179688,4264.871582,4275.128418,4274.871582,4279.102539,4629.743652,4566.025879,4461.794922,4545.384766,6908.000000,2.000000,49.000000,,,,0.000000,4.000000,4.000000,4.000000,4.000000,4.000000,4.000000,4.000000,4.000000,4.000000,4.000000,4.000000,4.000000,4.000000,4.000000,100.000000,,,,,,,,,,,,,,,,,30.000000,0.000000,0.708420,0.074829,-0.673340,0.197876,0.962520,-0.165548,0.074228,-12.941424,-47.181435,65.637024
1703417100.697013,1703417100.697847,121.000000,0.000000,4303.333496,4287.051270,4371.538574,4333.589844,4278.333496,4265.000000,4265.384766,4278.461426,4284.871582,4290.000000,4640.769043,4572.692383,4467.948730,4556.538574,7419.000000,2.000000,49.000000,,,,0.000000,4.000000,4.000000,4.000000,4.000000,4.000000,4.000000,4.000000,4.000000,4.000000,4.000000,4.000000,4.000000,4.000000,4.000000,100.000000,,,,,,,,,,,,,,,,,,,,,,,,,,,,
1703417100.704821,1703417100.705555,122.000000,0.000000,4299.230957,4283.333496,4370.641113,4328.333496,4270.128418,4267.820313,4269.102539,4279.743652,4281.538574,4289.615234,4634.871582,4571.153809,4460.256348,4557.051270,6118.000000,2.000000,49.000000,,,,0.000000,4.000000,4.000000,4.000000,4.000000,4.000000,4.000000,4.000000,4.000000,4.000000,4.000000,4.000000,4.000000,4.000000,4.000000,100.000000,,,,,,,,,,,,,,,,,,,,,,,,,,,,
1703417100.712629,1703417100.713363,123.000000,0.000000,4290.769043,4285.256348,4364.743652,4326.153809,4272.692383,4273.077148,4274.743652,4281.282227,4274.358887,4262.820313,4622.820313,4562.563965,4446.922852,4539.487305,6387.000000,2.000000,49.000000,,,,0.000000,4.000000,4.000000,4.000000,4.000000,4.000000,4.000000,4.000000,4.000000,4.000000,4.000000,4.000000,4.000000,4.000000,4.000000,100.000000,,,,,,,,,,,,,,,,,,,,,,,,,,,,
1703417100.720437,1703417100.721071,124.000000,0.000000,4290.512695,4279.358887,4357.051270,4321.794922,4275.897461,4269.102539,4270.641113,4274.358887,4268.205078,4239.102539,4610.641113,4553.717773,4437.051270,4529.743652,6908.000000,2.000000,49.000000,,,,0.000000,4.000000,4.000000,4.000000,4.000000,4.000000,4.000000,4.000000,4.000000,4.000000,4.000000,4.000000,4.000000,4.000000,4.000000,100.000000,,,,,,,,,,,,,,,,,31.000000,0.000000,0.708311,0.074768,-0.673462,0.197876,0.973752,-0.173849,0.085948,-12.930615,-47.263290,65.506653
1703417100.728245,1703417100.728879,125.000000,0.000000,4291.794922,4277.179688,4358.974121,4322.948730,4276.153809,4265.769043,4269.743652,4270.256348,4265.897461,4252.436035,4605.256348,4553.333496,4436.538574,4536.666504,7419.000000,2.000000,49.000000,,,,0.000000,4.000000,4.000000,4.000000,4.000000,4.000000,4.000000,4.000000,4.000000,4.000000,4.000000,4.000000,4.000000,4.000000,4.000000,100.000000,,,,,,,,,,,,,,,,,,,,,,,,,,,,
1703417100.736053,1703417100.736587,126.000000,0.000000,4284.871582,4280.384766,4360.256348,4328.461426,4280.256348,4270.256348,4277.948730,4273.333496,4264.102539,4256.794922,4609.102539,4553.333496,4438.717773,4535.897461,6118.000000,2.000000,49.000000,,,,0.000000,4.000000,4.000000,4.000000,4.000000,4.000000,4.000000,4.000000,4.000000,4.000000,4.000000,4.000000,4.000000,4.000000,4.000000,100.000000,,,,,,,,,,,,,,,,,,,,,,,,,,,,
1703417100.743861,1703417100.744395,127.000000,0.000000,4289.230957,4286.538574,4360.897461,4333.974121,4288.333496,4275.128418,4279.871582,4270.128418,4268.077148,4248.974121,4616.794922,4552.563965,4441.538574,4533.461426,49.000000,2.000000,49.000000,,,,0.000000,4.000000,4.000000,4.000000,4.000000,4.000000,4.000000,4.000000,4.000000,4.000000,4.000000,4.000000,4.000000,4.000000,4.000000,100.000000,,,,,,,,,,,,,,,,,,,,,,,,,,,,
1703417100.751669,1703417100.752103,0.000000,0.000000,4305.384766,4294.102539,4366.538574,4337.820313,4292.563965,4271.538574,4274.871582,4263.205078,4268.974121,4260.512695,4619.487305,4553.974121,4450.000000,4545.769043,5676.000000,2.000000,49.000000,,,,0.000000,4.000000,4.000000,4.000000,4.000000,4.000000,4.000000,4.000000,4.000000,4.000000,4.000000,4.000000,4.000000,4.000000,4.000000,100.000000,,,,,,,,,,,,,,,,,0.000000,0.000000,0.708300,0.074707,-0.673462,0.197937,0.976682,-0.167013,0.072274,-12.970887,-47.286961,65.389320
1703417100.759477,1703417100.759911,1.000000,0.000000,4300.769043,4291.282227,4362.307617,4331.410156,4285.128418,4258.717773,4268.461426,4253.717773,4255.256348,4264.230957,4606.922852,4543.205078,4442.051270,4544.743652,5394.000000,2.000000,49.000000,,,,0.000000,4.000000,4.000000,4.000000,4.000000,4.000000,4.000000,4.000000,4.000000,4.000000,4.000000,4.000000,4.000000,4.000000,4.000000,100.000000,,,,,,,,,,,,,,,,,,,,,,,,,,,,
1703417100.767285,1703417100.767619,2.000000,0.000000,4293.077148,4294.615234,4357.692383,4330.384766,4282.820313,4258.333496,4265.897461,4254.743652,4260.512695,4266.282227,4611.666504,4544.230957,4440.897461,4538.846191,5365.000000,2.000000,49.000000,,,,0.000000,4.000000,4.000000,4.000000,4.000000,4.000000,4.000000,4.000000,4.000000,4.000000,4.000000,4.000000,4.000000,4.000000,4.000000,100.000000,,,,,,,,,,,,,,,,,,,,,,,,,,,,
1703417100.775093,1703417100.775527,3.000000,0.000000,4301.666504,4303.461426,4361.538574,4331.794922,4283.589844,4262.948730,4265.769043,4267.051270,4279.102539,4276.794922,4635.000000,4560.000000,4465.384766,4549.871582,5399.000000,2.000000,49.000000,,,,0.000000,4.000000,4.000000,4.000000,4.000000,4.000000,4.000000,4.000000,4.000000,4.000000,4.000000,4.000000,4.000000,4.000000,4.000000,100.000000,,,,,,,,,,,,,,,,,,,,,,,,,,,,
1703417100.782901,1703417100.783335,4.000000,0.000000,4302.436035,4295.256348,4359.615234,4320.000000,4275.000000,4255.384766,4261.282227,4269.102539,4276.666504,4277.820313,4637.179688,4553.717773,4476.025879,4555.128418,5370.000000,2.000000,49.000000,,,,0.000000,4.000000,4.000000,4.000000,4.000000,4.000000,4.000000,4.000000,4.000000,4.000000,4.000000,4.000000,4.000000,4.000000,4.000000,100.000000,,,,,,,,,,,,,,,,,1.000000,0.000000,0.708259,0.074707,-0.673523,0.197876,0.970333,-0.168966,0.081065,-12.873798,-47.174931,65.483727
1703417100.790710,1703417100.791243,5.000000,0.000000,4299.230957,4292.179688,4356.538574,4317.307617,4279.487305,4257.948730,4262.948730,4273.717773,4279.743652,4280.769043,4635.769043,4550.512695,4474.102539,4552.820313,5203.000000,2.000000,49.000000,,,,0.000000,4.000000,4.000000,4.000000,4.000000,4.000000,4.000000,4.000000,4.000000,4.000000,4.000000,4.000000,4.000000,4.000000,4.000000,100.000000,,,,,,,,,,,,,,,,,,,,,,,,,,,,
1703417100.798518,1703417100.799052,6.000000,0.000000,4299.230957,4295.000000,4354.743652,4321.410156,4288.461426,4270.512695,4267.436035,4284.230957,4291.025879,4280.128418,4637.563965,4558.974121,4473.461426,4551.282227,4440.000000,2.000000,49.000000,,,,0.000000,4.000000,4.000000,4.000000,4.000000,4.000000,4.000000,4.000000,4.000000,4.000000,4.000000,4.000000,4.000000,4.000000,4.000000,100.000000,,,,,,,,,,,,,,,,,,,,,,,,,,,,
1703417100.806326,1703417100.806960,7.000000,0.000000,4293.846191,4285.384766,4348.077148,4312.692383,4281.025879,4269.230957,4269.230957,4284.615234,4285.769043,4272.820313,4626.922852,4551.025879,4463.717773,4546.538574,5215.000000,2.000000,49.000000,,,,0.000000,4.000000,4.000000,4.000000,4.000000,4.000000,4.000000,4.000000,4.000000,4.000000,4.000000,4.000000,4.000000,4.000000,4.000000,100.000000,,,,,,,,,,,,,,,,,,,,,,,,,,,,
1703417100.814134,1703417100.814768,8.000000,0.000000,4286.025879,4278.717773,4343.461426,4305.512695,4273.205078,4265.000000,4270.512695,4280.384766,4277.179688,4285.384766,4617.436035,4542.051270,4452.179688,4540.512695,5547.000000,2.000000,49.000000,,,,0.000000,4.000000,4.000000,4.000000,4.000000,4.000000,4.000000,4.000000,4.000000,4.000000,4.000000,4.000000,4.000000,4.000000,4.000000,100.000000,,,,,,,,,,,,,,,,,2.000000,0.000000,0.708300,0.074707,-0.673462,0.197937,0.975217,-0.173361,0.075693,-12.719752,-47.107437,65.468689
1703417100.821942,1703417100.822676,9.000000,0.000000,4285.384766,4282.563965,4345.512695,4311.153809,4272.692383,4265.769043,4268.717773,4274.615234,4270.256348,4282.820313,4615.128418,4543.589844,4450.512695,4535.897461,5504.000000,2.000000,49.000000,,,,0.000000,4.000000,4.000000,4.000000,4.000000,4.000000,4.000000,4.000000,4.000000,4.000000,4.000000,4.000000,4.000000,4.000000,4.000000,100.000000,,,,,,,,,,,,,,,,,,,,,,,,,,,,
1703417100.829750,1703417100.830484,10.000000,0.000000,4294.615234,4285.384766,4354.358887,4319.743652,4276.025879,4265.769043,4268.589844,4273.205078,4266.410156,4253.077148,4622.436035,4551.794922,4456.153809,4544.743652,6112.000000,2.000000,49.000000,,,,0.000000,4.000000,4.000000,4.000000,4.000000,4.000000,4.000000,4.000000,4.000000,4.000000,4.000000,4.000000,4.000000,4.000000,4.000000,100.000000,,,,,,,,,,,,,,,,,,,,,,,,,,,,
1703417100.837558,1703417100.838392,11.000000,0.000000,4300.256348,4282.051270,4361.153809,4318.461426,4273.974121,4262.179688,4268.461426,4274.358887,4265.512695,4253.846191,4628.589844,4556.538574,4459.358887,4553.846191,6372.000000,2.000000,49.000000,,,,0.000000,4.000000,4.000000,4.000000,4.000000,4.000000,4.000000,4.000000,4.000000,4.000000,4.000000,4.000000,4.000000,4.000000,4.000000,100.000000,,,,,,,,,,,,,,,,,,,,,,,,,,,,
1703417100.845366,1703417100.846201,12.000000,0.000000,4301.025879,4283.205078,4363.717773,4316.410156,4270.512695,4259.230957,4266.153809,4266.794922,4258.974121,4267.051270,4624.102539,4554.358887,4458.717773,4547.692383,6898.000000,2.000000,49.000000,,,,0.000000,4.000000,4.000000,4.000000,4.000000,4.000000,4.000000,4.000000,4.000000,4.000000,4.000000,4.000000,4.000000,4.000000,4.000000,100.000000,,,,,,,,,,,,,,,,,3.000000,0.000000,0.708358,0.074707,-0.673401,0.197937,0.977170,-0.159199,0.072274,-12.747777,-47.296696,65.421814
1703417100.853174,1703417100.854009,13.000000,0.000000,4305.769043,4292.692383,4369.615234,4324.102539,4271.922852,4262.692383,4269.102539,4265.384766,4263.461426,4256.794922,4628.205078,4562.051270,4464.743652,4553.717773,7414.000000,2.000000,49.000000,,,,0.000000,4.000000,4.000000,4.000000,4.000000,4.000000,4.000000,4.000000,4.000000,4.000000,4.000000,4.000000,4.000000,4.000000,4.000000,100.000000,,,,,,,,,,,,,,,,,,,,,,,,,,,,
1703417100.860982,1703417100.861817,14.000000,0.000000,4304.615234,4288.717773,4366.025879,4321.282227,4272.051270,4261.410156,4270.128418,4269.871582,4272.563965,4251.282227,4631.410156,4564.871582,4467.948730,4564.871582,6112.000000,2.000000,49.000000,,,,0.000000,4.000000,4.000000,4.000000,4.000000,4.000000,4.000000,4.000000,4.000000,4.000000,4.000000,4.000000,4.000000,4.000000,4.000000,100.000000,,,,,,,,,,,,,,,,,,,,,,,,,,,,
1703417100.868790,1703417100.869525,15.000000,0.000000,4295.769043,4273.205078,4353.589844,4310.641113,4279.230957,4256.922852,4263.717773,4266.666504,4271.410156,4274.487305,4625.897461,4553.589844,4465.000000,4558.461426,6372.000000,2.000000,49.000000,,,,0.000000,4.000000,4.000000,4.000000,4.000000,4.000000,4.000000,4.000000,4.000000,4.000000,4.000000,4.000000,4.000000,4.000000,4.000000,100.000000,,,,,,,,,,,,,,,,,,,,,,,,,,,,
1703417100.876598,1703417100.877333,16.000000,0.000000,4283.461426,4267.051270,4341.153809,4309.487305,4281.282227,4253.589844,4257.307617,4257.692383,4263.077148,4272.563965,4614.487305,4541.282227,4453.333496,4540.000000,0.000000,2.000000,49.000000,,,,0.000000,4.000000,4.000000,4.000000,4.000000,4.000000,4.000000,4.000000,4.000000,4.000000,4.000000,4.000000,4.000000,4.000000,4.000000,100.000000,,,,,,,,,,,,,,,,,4.000000,0.000000,0.708377,0.074524,-0.673401,0.197937,0.967403,-0.174338,0.082530,-12.672999,-47.317024,65.346298
1703417100.884406,1703417100.885041,17.000000,0.000000,4273.717773,4268.205078,4331.153809,4310.384766,4271.666504,4250.128418,4254.615234,4256.282227,4255.769043,4246.666504,4596.922852,4527.820313,4437.051270,4525.256348,0.000000,2.000000,49.000000,,,,0.000000,4.000000,4.000000,4.000000,4.000000,4.000000,4.000000,4.000000,4.000000,4.000000,4.000000,4.000000,4.000000,4.000000,4.000000,100.000000,,,,,,,,,,,,,,,,,,,,,,,,,,,,
1703417100.892214,1703417100.892849,18.000000,0.000000,4282.179688,4273.077148,4334.743652,4314.615234,4276.538574,4254.487305,4259.871582,4267.307617,4265.641113,4261.153809,4599.615234,4527.307617,4442.948730,4533.589844,0.000000,2.000000,49.000000,,,,0.000000,4.000000,4.000000,4.000000,4.000000,4.000000,4.000000,4.000000,4.000000,4.000000,4.000000,4.000000,4.000000,4.000000,4.000000,100.000000,,,,,,,,,,,,,,,,,,,,,,,,,,,,
1703417100.900022,1703417100.900557,19.000000,0.000000,4285.897461,4271.922852,4334.487305,4315.512695,4279.358887,4253.846191,4265.128418,4268.589844,4269.871582,4264.871582,4604.615234,4528.589844,4445.000000,4536.025879,0.000000,2.000000,49.000000,,,,0.000000,4.000000,4.000000,4.000000,4.000000,4.000000,4.000000,4.000000,4.000000,4.000000,4.000000,4.000000,4.000000,4.000000,4.000000,100.000000,,,,,,,,,,,,,,,,,,,,,,,,,,,,
