title:حمزة اطفاء, start timestamp:1703409646.658730, stop timestamp:1703409657.605614, headset type:EPOCX, headset serial:E50206EF, headset firmware:720, channels:67, sampling rate:eeg_128;mot_32, samples:1403      , version:2.2, 
Timestamp,OriginalTimestamp,EEG.Counter,EEG.Interpolated,EEG.AF3,EEG.F7,EEG.F3,EEG.FC5,EEG.T7,EEG.P7,EEG.O1,EEG.O2,EEG.P8,EEG.T8,EEG.FC6,EEG.F4,EEG.F8,EEG.AF4,EEG.RawCq,EEG.Battery,EEG.BatteryPercent,MarkerIndex,MarkerType,MarkerValueInt,EEG.MarkerHardware,CQ.AF3,CQ.F7,CQ.F3,CQ.FC5,CQ.T7,CQ.P7,CQ.O1,CQ.O2,CQ.P8,CQ.T8,CQ.FC6,CQ.F4,CQ.F8,CQ.AF4,CQ.Overall,EQ.SampleRateQuality,EQ.OVERALL,EQ.AF3,EQ.F7,EQ.F3,EQ.FC5,EQ.T7,EQ.P7,EQ.O1,EQ.O2,EQ.P8,EQ.T8,EQ.FC6,EQ.F4,EQ.F8,EQ.AF4,MOT.CounterMems,MOT.InterpolatedMems,MOT.Q0,MOT.Q1,MOT.Q2,MOT.Q3,MOT.AccX,MOT.AccY,MOT.AccZ,MOT.MagX,MOT.MagY,MOT.MagZ
1703409646.658730,1703409646.659293,105.000000,0.000000,4249.102539,4217.692383,4317.051270,4262.179688,4197.820313,4187.692383,4247.692383,4238.077148,4206.410156,4210.897461,4636.282227,4509.230957,4418.846191,4539.871582,7207.000000,3.000000,69.000000,,,,0.000000,4.000000,4.000000,4.000000,4.000000,4.000000,4.000000,4.000000,4.000000,4.000000,4.000000,4.000000,4.000000,4.000000,4.000000,100.000000,,,,,,,,,,,,,,,,,,,,,,,,,,,,
1703409646.666538,1703409646.667001,106.000000,0.000000,4256.666504,4228.461426,4324.615234,4271.025879,4206.025879,4186.538574,4240.384766,4222.307617,4200.384766,4209.743652,4637.563965,4505.256348,4419.743652,4542.179688,5781.000000,3.000000,69.000000,,,,0.000000,4.000000,4.000000,4.000000,4.000000,4.000000,4.000000,4.000000,4.000000,4.000000,4.000000,4.000000,4.000000,4.000000,4.000000,100.000000,,,,,,,,,,,,,,,,,,,,,,,,,,,,
1703409646.674346,1703409646.674809,107.000000,0.000000,4257.948730,4233.461426,4323.589844,4272.692383,4214.615234,4197.179688,4238.461426,4205.641113,4186.153809,4200.769043,4626.666504,4487.436035,4410.000000,4533.461426,6027.000000,3.000000,69.000000,,,,0.000000,4.000000,4.000000,4.000000,4.000000,4.000000,4.000000,4.000000,4.000000,4.000000,4.000000,4.000000,4.000000,4.000000,4.000000,100.000000,,,,,,,,,,,,,,,,,,,,,,,,,,,,
1703409646.682154,1703409646.682517,108.000000,0.000000,4242.820313,4226.025879,4311.282227,4262.692383,4216.538574,4202.051270,4243.589844,4187.179688,4162.179688,4181.922852,4601.025879,4462.051270,4389.743652,4512.307617,6507.000000,3.000000,69.000000,,,,0.000000,4.000000,4.000000,4.000000,4.000000,4.000000,4.000000,4.000000,4.000000,4.000000,4.000000,4.000000,4.000000,4.000000,4.000000,100.000000,,,,,,,,,,,,,,,,,27.000000,0.000000,0.420284,0.441223,-0.571899,0.549194,0.945916,-0.261751,-0.045416,-9.519469,-46.808186,60.651329
1703409646.689962,1703409646.690325,109.000000,0.000000,4222.948730,4212.051270,4292.307617,4251.025879,4211.153809,4201.922852,4247.563965,4182.948730,4155.512695,4168.205078,4582.563965,4443.333496,4372.692383,4493.846191,7207.000000,3.000000,69.000000,,,,0.000000,4.000000,4.000000,4.000000,4.000000,4.000000,4.000000,4.000000,4.000000,4.000000,4.000000,4.000000,4.000000,4.000000,4.000000,100.000000,,,,,,,,,,,,,,,,,,,,,,,,,,,,
1703409646.697770,1703409646.698033,110.000000,0.000000,4209.871582,4195.000000,4277.436035,4243.461426,4202.948730,4203.974121,4246.666504,4198.461426,4171.410156,4165.512695,4577.179688,4436.666504,4363.846191,4482.051270,5781.000000,3.000000,69.000000,,,,0.000000,4.000000,4.000000,4.000000,4.000000,4.000000,4.000000,4.000000,4.000000,4.000000,4.000000,4.000000,4.000000,4.000000,4.000000,100.000000,,,,,,,,,,,,,,,,,,,,,,,,,,,,
1703409646.705578,1703409646.705941,111.000000,0.000000,4208.846191,4186.282227,4275.384766,4242.692383,4199.871582,4204.102539,4245.769043,4219.871582,4196.282227,4175.897461,4587.307617,4446.538574,4365.128418,4482.820313,6027.000000,3.000000,69.000000,,,,0.000000,4.000000,4.000000,4.000000,4.000000,4.000000,4.000000,4.000000,4.000000,4.000000,4.000000,4.000000,4.000000,4.000000,4.000000,100.000000,,,,,,,,,,,,,,,,,,,,,,,,,,,,
1703409646.713386,1703409646.713749,112.000000,0.000000,4214.102539,4190.769043,4279.871582,4244.230957,4202.051270,4201.025879,4249.230957,4239.487305,4213.846191,4187.436035,4599.743652,4459.871582,4368.717773,4489.871582,6507.000000,3.000000,69.000000,,,,0.000000,4.000000,4.000000,4.000000,4.000000,4.000000,4.000000,4.000000,4.000000,4.000000,4.000000,4.000000,4.000000,4.000000,4.000000,100.000000,,,,,,,,,,,,,,,,,28.000000,0.000000,0.420376,0.441528,-0.571655,0.549133,0.953241,-0.247100,-0.050787,-9.450856,-46.877365,60.602859
1703409646.721194,1703409646.721657,113.000000,0.000000,4211.153809,4196.025879,4278.974121,4244.615234,4201.025879,4195.384766,4247.307617,4246.153809,4218.205078,4186.025879,4596.153809,4456.538574,4366.025879,4487.051270,7207.000000,3.000000,69.000000,,,,0.000000,4.000000,4.000000,4.000000,4.000000,4.000000,4.000000,4.000000,4.000000,4.000000,4.000000,4.000000,4.000000,4.000000,4.000000,100.000000,,,,,,,,,,,,,,,,,,,,,,,,,,,,
1703409646.729002,1703409646.729465,114.000000,0.000000,4210.641113,4196.282227,4279.743652,4246.922852,4198.333496,4186.538574,4239.230957,4240.384766,4214.230957,4182.820313,4592.948730,4449.230957,4367.820313,4482.820313,5781.000000,3.000000,69.000000,,,,0.000000,4.000000,4.000000,4.000000,4.000000,4.000000,4.000000,4.000000,4.000000,4.000000,4.000000,4.000000,4.000000,4.000000,4.000000,100.000000,,,,,,,,,,,,,,,,,,,,,,,,,,,,
1703409646.736811,1703409646.737372,115.000000,0.000000,4220.641113,4197.179688,4286.410156,4248.717773,4198.846191,4181.282227,4236.282227,4231.410156,4208.333496,4187.307617,4597.948730,4454.615234,4374.615234,4486.282227,6027.000000,3.000000,69.000000,,,,0.000000,4.000000,4.000000,4.000000,4.000000,4.000000,4.000000,4.000000,4.000000,4.000000,4.000000,4.000000,4.000000,4.000000,4.000000,100.000000,,,,,,,,,,,,,,,,,,,,,,,,,,,,
1703409646.744619,1703409646.745180,116.000000,0.000000,4232.179688,4201.666504,4294.230957,4253.333496,4199.230957,4183.846191,4237.692383,4220.769043,4201.538574,4187.436035,4597.307617,4461.794922,4374.743652,4490.000000,6507.000000,3.000000,69.000000,,,,0.000000,4.000000,4.000000,4.000000,4.000000,4.000000,4.000000,4.000000,4.000000,4.000000,4.000000,4.000000,4.000000,4.000000,4.000000,100.000000,,,,,,,,,,,,,,,,,29.000000,0.000000,0.420554,0.441589,-0.571594,0.549011,0.964473,-0.247589,-0.040532,-9.489104,-46.856297,60.509243
1703409646.752427,1703409646.753088,117.000000,0.000000,4241.794922,4212.051270,4304.871582,4263.333496,4200.000000,4184.615234,4234.230957,4212.307617,4196.153809,4183.846191,4597.307617,4462.436035,4376.282227,4496.666504,7207.000000,3.000000,69.000000,,,,0.000000,4.000000,4.000000,4.000000,4.000000,4.000000,4.000000,4.000000,4.000000,4.000000,4.000000,4.000000,4.000000,4.000000,4.000000,100.000000,,,,,,,,,,,,,,,,,,,,,,,,,,,,
1703409646.760235,1703409646.760896,118.000000,0.000000,4247.820313,4218.205078,4313.077148,4267.820313,4199.743652,4174.871582,4232.307617,4213.461426,4197.179688,4190.641113,4600.000000,4463.846191,4381.410156,4506.666504,5781.000000,3.000000,69.000000,,,,0.000000,4.000000,4.000000,4.000000,4.000000,4.000000,4.000000,4.000000,4.000000,4.000000,4.000000,4.000000,4.000000,4.000000,4.000000,100.000000,,,,,,,,,,,,,,,,,,,,,,,,,,,,
1703409646.768043,1703409646.768804,119.000000,0.000000,4248.717773,4215.512695,4311.922852,4267.179688,4198.589844,4167.948730,4232.179688,4218.205078,4203.717773,4202.948730,4603.717773,4471.153809,4384.871582,4507.692383,6027.000000,3.000000,69.000000,,,,0.000000,4.000000,4.000000,4.000000,4.000000,4.000000,4.000000,4.000000,4.000000,4.000000,4.000000,4.000000,4.000000,4.000000,4.000000,100.000000,,,,,,,,,,,,,,,,,,,,,,,,,,,,
1703409646.775851,1703409646.776612,120.000000,0.000000,4249.871582,4218.077148,4312.563965,4269.102539,4200.897461,4175.384766,4228.461426,4213.461426,4206.282227,4205.000000,4610.384766,4475.256348,4389.871582,4508.333496,6507.000000,3.000000,69.000000,,,,0.000000,4.000000,4.000000,4.000000,4.000000,4.000000,4.000000,4.000000,4.000000,4.000000,4.000000,4.000000,4.000000,4.000000,4.000000,100.000000,,,,,,,,,,,,,,,,,30.000000,0.000000,0.420480,0.441650,-0.571777,0.548828,0.960566,-0.257844,-0.040532,-9.673527,-46.820667,60.491650
1703409646.783659,1703409646.784320,121.000000,0.000000,4247.563965,4217.051270,4313.077148,4269.615234,4202.307617,4185.000000,4228.717773,4202.820313,4199.743652,4192.692383,4608.717773,4468.589844,4386.153809,4509.230957,7207.000000,3.000000,69.000000,,,,0.000000,4.000000,4.000000,4.000000,4.000000,4.000000,4.000000,4.000000,4.000000,4.000000,4.000000,4.000000,4.000000,4.000000,4.000000,100.000000,,,,,,,,,,,,,,,,,,,,,,,,,,,,
1703409646.791467,1703409646.792128,122.000000,0.000000,4235.769043,4203.717773,4300.641113,4263.077148,4201.666504,4188.589844,4233.589844,4202.692383,4194.743652,4182.307617,4596.538574,4458.461426,4372.179688,4499.743652,5781.000000,3.000000,69.000000,,,,0.000000,4.000000,4.000000,4.000000,4.000000,4.000000,4.000000,4.000000,4.000000,4.000000,4.000000,4.000000,4.000000,4.000000,4.000000,100.000000,,,,,,,,,,,,,,,,,,,,,,,,,,,,
1703409646.799275,1703409646.799836,123.000000,0.000000,4231.538574,4198.205078,4289.615234,4256.153809,4202.820313,4190.384766,4236.153809,4214.871582,4198.974121,4183.205078,4598.461426,4460.769043,4373.333496,4495.000000,6027.000000,3.000000,69.000000,,,,0.000000,4.000000,4.000000,4.000000,4.000000,4.000000,4.000000,4.000000,4.000000,4.000000,4.000000,4.000000,4.000000,4.000000,4.000000,100.000000,,,,,,,,,,,,,,,,,,,,,,,,,,,,
1703409646.807083,1703409646.807644,124.000000,0.000000,4231.025879,4196.282227,4293.974121,4250.384766,4198.589844,4189.743652,4236.666504,4220.769043,4198.077148,4178.974121,4602.179688,4461.666504,4378.846191,4497.820313,6507.000000,3.000000,69.000000,,,,0.000000,4.000000,4.000000,4.000000,4.000000,4.000000,4.000000,4.000000,4.000000,4.000000,4.000000,4.000000,4.000000,4.000000,4.000000,100.000000,,,,,,,,,,,,,,,,,31.000000,0.000000,0.420381,0.441589,-0.571838,0.548889,0.950311,-0.252961,-0.025394,-9.589507,-46.971931,60.492485
1703409646.814891,1703409646.815352,125.000000,0.000000,4221.153809,4180.128418,4291.153809,4244.230957,4185.256348,4182.179688,4233.205078,4212.948730,4183.846191,4160.897461,4582.051270,4448.589844,4357.307617,4489.102539,7207.000000,3.000000,69.000000,,,,0.000000,4.000000,4.000000,4.000000,4.000000,4.000000,4.000000,4.000000,4.000000,4.000000,4.000000,4.000000,4.000000,4.000000,4.000000,100.000000,,,,,,,,,,,,,,,,,,,,,,,,,,,,
1703409646.822699,1703409646.823160,126.000000,0.000000,4220.256348,4173.205078,4281.410156,4243.717773,4179.358887,4173.717773,4229.743652,4210.897461,4178.974121,4152.820313,4569.487305,4445.897461,4336.282227,4485.128418,5781.000000,3.000000,69.000000,,,,0.000000,4.000000,4.000000,4.000000,4.000000,4.000000,4.000000,4.000000,4.000000,4.000000,4.000000,4.000000,4.000000,4.000000,4.000000,100.000000,,,,,,,,,,,,,,,,,,,,,,,,,,,,
1703409646.830507,1703409646.830868,127.000000,0.000000,4230.512695,4183.717773,4285.256348,4248.461426,4185.384766,4169.871582,4231.794922,4215.897461,4193.846191,4164.358887,4582.051270,4457.563965,4347.692383,4496.538574,69.000000,3.000000,69.000000,,,,0.000000,4.000000,4.000000,4.000000,4.000000,4.000000,4.000000,4.000000,4.000000,4.000000,4.000000,4.000000,4.000000,4.000000,4.000000,100.000000,,,,,,,,,,,,,,,,,,,,,,,,,,,,
1703409646.838315,1703409646.838676,0.000000,0.000000,4229.871582,4181.922852,4293.205078,4247.307617,4188.461426,4170.000000,4229.487305,4216.282227,4205.769043,4177.436035,4595.512695,4467.307617,4365.128418,4505.384766,5490.000000,3.000000,69.000000,,,,0.000000,4.000000,4.000000,4.000000,4.000000,4.000000,4.000000,4.000000,4.000000,4.000000,4.000000,4.000000,4.000000,4.000000,4.000000,100.000000,,,,,,,,,,,,,,,,,0.000000,0.000000,0.420200,0.441528,-0.571960,0.548950,0.962031,-0.255891,-0.049322,-9.563890,-46.858074,60.493237
1703409646.846123,1703409646.846384,1.000000,0.000000,4227.307617,4172.436035,4295.512695,4241.666504,4186.538574,4167.436035,4219.487305,4215.000000,4203.717773,4184.358887,4599.487305,4474.358887,4367.948730,4510.769043,5323.000000,3.000000,69.000000,,,,0.000000,4.000000,4.000000,4.000000,4.000000,4.000000,4.000000,4.000000,4.000000,4.000000,4.000000,4.000000,4.000000,4.000000,4.000000,100.000000,,,,,,,,,,,,,,,,,,,,,,,,,,,,
1703409646.853931,1703409646.854192,2.000000,0.000000,4242.436035,4182.307617,4302.820313,4248.589844,4185.384766,4158.461426,4216.282227,4212.051270,4200.769043,4188.974121,4603.846191,4485.256348,4374.871582,4522.820313,5177.000000,3.000000,69.000000,,,,0.000000,4.000000,4.000000,4.000000,4.000000,4.000000,4.000000,4.000000,4.000000,4.000000,4.000000,4.000000,4.000000,4.000000,4.000000,100.000000,,,,,,,,,,,,,,,,,,,,,,,,,,,,
1703409646.861739,1703409646.861900,3.000000,0.000000,4256.153809,4194.743652,4312.820313,4260.512695,4185.769043,4155.128418,4218.717773,4205.641113,4203.333496,4193.077148,4608.974121,4492.307617,4387.307617,4533.589844,5288.000000,3.000000,69.000000,,,,0.000000,4.000000,4.000000,4.000000,4.000000,4.000000,4.000000,4.000000,4.000000,4.000000,4.000000,4.000000,4.000000,4.000000,4.000000,100.000000,,,,,,,,,,,,,,,,,,,,,,,,,,,,
1703409646.869547,1703409646.869708,4.000000,0.000000,4257.307617,4197.051270,4318.461426,4260.128418,4191.282227,4161.538574,4220.769043,4199.615234,4203.333496,4200.256348,4612.436035,4492.436035,4391.666504,4537.051270,5036.000000,3.000000,69.000000,,,,0.000000,4.000000,4.000000,4.000000,4.000000,4.000000,4.000000,4.000000,4.000000,4.000000,4.000000,4.000000,4.000000,4.000000,4.000000,100.000000,1.000000,100.000000,4.000000,4.000000,4.000000,4.000000,4.000000,4.000000,4.000000,4.000000,4.000000,4.000000,4.000000,4.000000,4.000000,4.000000,1.000000,0.000000,0.420030,0.441528,-0.572144,0.548889,0.951288,-0.262727,-0.044927,-9.540834,-46.755600,60.543915
1703409646.877355,1703409646.877416,5.000000,0.000000,4263.077148,4206.538574,4322.307617,4265.641113,4194.615234,4167.051270,4221.410156,4200.000000,4200.128418,4208.077148,4618.846191,4495.128418,4398.333496,4542.692383,4864.000000,3.000000,69.000000,,,,0.000000,4.000000,4.000000,4.000000,4.000000,4.000000,4.000000,4.000000,4.000000,4.000000,4.000000,4.000000,4.000000,4.000000,4.000000,100.000000,,,,,,,,,,,,,,,,,,,,,,,,,,,,
1703409646.885163,1703409646.885324,6.000000,0.000000,4268.461426,4211.025879,4320.641113,4276.794922,4190.641113,4166.794922,4221.153809,4201.025879,4198.846191,4202.179688,4619.102539,4494.615234,4402.051270,4545.897461,3745.000000,3.000000,69.000000,,,,0.000000,4.000000,4.000000,4.000000,4.000000,4.000000,4.000000,4.000000,4.000000,4.000000,4.000000,4.000000,4.000000,4.000000,4.000000,100.000000,,,,,,,,,,,,,,,,,,,,,,,,,,,,
1703409646.892971,1703409646.893132,7.000000,0.000000,4256.025879,4200.256348,4309.615234,4267.563965,4188.461426,4166.922852,4222.948730,4202.692383,4199.871582,4189.487305,4606.538574,4479.230957,4384.871582,4526.538574,5262.000000,3.000000,69.000000,,,,0.000000,4.000000,4.000000,4.000000,4.000000,4.000000,4.000000,4.000000,4.000000,4.000000,4.000000,4.000000,4.000000,4.000000,4.000000,100.000000,,,,,,,,,,,,,,,,,,,,,,,,,,,,
1703409646.900779,1703409646.901040,8.000000,0.000000,4237.948730,4196.922852,4298.461426,4249.871582,4188.974121,4170.769043,4225.512695,4207.820313,4202.307617,4182.179688,4590.897461,4458.717773,4366.538574,4503.846191,4898.000000,3.000000,69.000000,,,,0.000000,4.000000,4.000000,4.000000,4.000000,4.000000,4.000000,4.000000,4.000000,4.000000,4.000000,4.000000,4.000000,4.000000,4.000000,100.000000,,,,,,,,,,,,,,,,,2.000000,0.000000,0.419669,0.441406,-0.572327,0.549072,0.957148,-0.258821,-0.049322,-9.603417,-46.663372,60.456188
1703409646.908588,1703409646.908848,9.000000,0.000000,4233.461426,4197.179688,4286.794922,4247.563965,4186.153809,4172.692383,4228.077148,4207.307617,4197.563965,4175.384766,4587.307617,4455.256348,4366.794922,4503.717773,5110.000000,3.000000,69.000000,,,,0.000000,4.000000,4.000000,4.000000,4.000000,4.000000,4.000000,4.000000,4.000000,4.000000,4.000000,4.000000,4.000000,4.000000,4.000000,100.000000,,,,,,,,,,,,,,,,,,,,,,,,,,,,
1703409646.916396,1703409646.916756,10.000000,0.000000,4229.487305,4185.641113,4278.077148,4248.333496,4185.128418,4171.410156,4227.051270,4207.179688,4188.077148,4169.871582,4586.282227,4457.179688,4365.256348,4504.102539,5781.000000,3.000000,69.000000,,,,0.000000,4.000000,4.000000,4.000000,4.000000,4.000000,4.000000,4.000000,4.000000,4.000000,4.000000,4.000000,4.000000,4.000000,4.000000,100.000000,,,,,,,,,,,,,,,,,,,,,,,,,,,,
1703409646.924204,1703409646.924564,11.000000,0.000000,4224.743652,4181.410156,4281.794922,4247.307617,4186.922852,4170.512695,4224.358887,4211.922852,4183.846191,4170.384766,4584.487305,4453.974121,4362.051270,4493.077148,6027.000000,3.000000,69.000000,,,,0.000000,4.000000,4.000000,4.000000,4.000000,4.000000,4.000000,4.000000,4.000000,4.000000,4.000000,4.000000,4.000000,4.000000,4.000000,100.000000,,,,,,,,,,,,,,,,,,,,,,,,,,,,
1703409646.932012,1703409646.932472,12.000000,0.000000,4232.692383,4186.922852,4293.589844,4253.461426,4185.641113,4172.692383,4223.461426,4209.102539,4183.333496,4170.256348,4591.538574,4461.666504,4368.461426,4498.717773,6523.000000,3.000000,69.000000,,,,0.000000,4.000000,4.000000,4.000000,4.000000,4.000000,4.000000,4.000000,4.000000,4.000000,4.000000,4.000000,4.000000,4.000000,4.000000,100.000000,,,,,,,,,,,,,,,,,3.000000,0.000000,0.419110,0.441162,-0.572632,0.549377,0.956171,-0.277378,-0.049811,-9.559743,-46.597034,60.443905
1703409646.939820,1703409646.940280,13.000000,0.000000,4243.077148,4185.769043,4304.102539,4260.128418,4183.205078,4166.410156,4221.025879,4202.563965,4181.153809,4172.436035,4602.307617,4475.512695,4373.846191,4513.589844,7207.000000,3.000000,69.000000,,,,0.000000,4.000000,4.000000,4.000000,4.000000,4.000000,4.000000,4.000000,4.000000,4.000000,4.000000,4.000000,4.000000,4.000000,4.000000,100.000000,,,,,,,,,,,,,,,,,,,,,,,,,,,,
1703409646.947628,1703409646.948188,14.000000,0.000000,4250.384766,4194.743652,4308.461426,4263.846191,4182.563965,4155.256348,4215.384766,4207.692383,4184.871582,4187.179688,4611.410156,4482.948730,4383.333496,4522.692383,5781.000000,3.000000,69.000000,,,,0.000000,4.000000,4.000000,4.000000,4.000000,4.000000,4.000000,4.000000,4.000000,4.000000,4.000000,4.000000,4.000000,4.000000,4.000000,100.000000,,,,,,,,,,,,,,,,,,,,,,,,,,,,
1703409646.955436,1703409646.955996,15.000000,0.000000,4256.153809,4207.179688,4310.897461,4266.538574,4185.256348,4158.717773,4213.846191,4220.000000,4196.538574,4202.307617,4619.487305,4490.128418,4394.871582,4531.794922,6027.000000,3.000000,69.000000,,,,0.000000,4.000000,4.000000,4.000000,4.000000,4.000000,4.000000,4.000000,4.000000,4.000000,4.000000,4.000000,4.000000,4.000000,4.000000,100.000000,,,,,,,,,,,,,,,,,,,,,,,,,,,,
1703409646.963244,1703409646.963903,16.000000,0.000000,4252.948730,4205.256348,4310.384766,4266.922852,4191.922852,4168.846191,4218.333496,4215.897461,4199.102539,4199.615234,4620.384766,4490.512695,4388.846191,4530.512695,0.000000,3.000000,69.000000,,,,0.000000,4.000000,4.000000,4.000000,4.000000,4.000000,4.000000,4.000000,4.000000,4.000000,4.000000,4.000000,4.000000,4.000000,4.000000,100.000000,,,,,,,,,,,,,,,,,4.000000,0.000000,0.418764,0.441101,-0.572815,0.549500,0.952265,-0.260286,-0.053229,-9.670435,-46.553997,60.366180
1703409646.971052,1703409646.971711,17.000000,0.000000,4248.205078,4209.615234,4306.538574,4266.666504,4198.461426,4170.128418,4218.077148,4204.230957,4195.512695,4188.974121,4610.384766,4481.153809,4380.384766,4523.846191,0.000000,3.000000,69.000000,,,,0.000000,4.000000,4.000000,4.000000,4.000000,4.000000,4.000000,4.000000,4.000000,4.000000,4.000000,4.000000,4.000000,4.000000,4.000000,100.000000,,,,,,,,,,,,,,,,,,,,,,,,,,,,
1703409646.978860,1703409646.979420,18.000000,0.000000,4248.077148,4214.487305,4304.743652,4267.563965,4201.410156,4170.256348,4217.179688,4208.205078,4198.205078,4184.358887,4599.487305,4478.077148,4382.051270,4519.487305,0.000000,3.000000,69.000000,,,,0.000000,4.000000,4.000000,4.000000,4.000000,4.000000,4.000000,4.000000,4.000000,4.000000,4.000000,4.000000,4.000000,4.000000,4.000000,100.000000,,,,,,,,,,,,,,,,,,,,,,,,,,,,
1703409646.986668,1703409646.987227,19.000000,0.000000,4236.410156,4201.794922,4300.897461,4265.641113,4197.563965,4174.358887,4219.358887,4212.563965,4200.000000,4180.256348,4594.615234,4477.948730,4374.871582,4510.384766,0.000000,3.000000,69.000000,,,,0.000000,4.000000,4.000000,4.000000,4.000000,4.000000,4.000000,4.000000,4.000000,4.000000,4.000000,4.000000,4.000000,4.000000,4.000000,100.000000,,,,,,,,,,,,,,,,,,,,,,,,,,,,
1703409646.994476,1703409646.994936,20.000000,0.000000,4230.769043,4198.077148,4296.538574,4262.179688,4195.000000,4177.692383,4217.948730,4206.025879,4198.589844,4175.384766,4594.102539,4472.563965,4367.563965,4510.897461,0.000000,3.000000,69.000000,,,,0.000000,4.000000,4.000000,4.000000,4.000000,4.000000,4.000000,4.000000,4.000000,4.000000,4.000000,4.000000,4.000000,4.000000,4.000000,100.000000,,,,,,,,,,,,,,,,,5.000000,0.000000,0.418635,0.441223,-0.572815,0.549500,0.953241,-0.277378,-0.050299,-9.620058,-46.381931,60.362896
1703409647.002284,1703409647.002744,21.000000,0.000000,4240.128418,4198.717773,4294.871582,4262.563965,4195.641113,4181.794922,4217.692383,4206.025879,4198.974121,4174.615234,4593.974121,4470.128418,4371.666504,4515.897461,0.000000,3.000000,69.000000,,,,0.000000,4.000000,4.000000,4.000000,4.000000,4.000000,4.000000,4.000000,4.000000,4.000000,4.000000,4.000000,4.000000,4.000000,4.000000,100.000000,,,,,,,,,,,,,,,,,,,,,,,,,,,,
1703409647.010092,1703409647.010452,22.000000,0.000000,4239.487305,4185.512695,4295.512695,4261.538574,4193.717773,4186.410156,4223.077148,4215.256348,4200.384766,4177.692383,4593.717773,4471.025879,4371.922852,4508.717773,0.000000,3.000000,69.000000,,,,0.000000,4.000000,4.000000,4.000000,4.000000,4.000000,4.000000,4.000000,4.000000,4.000000,4.000000,4.000000,4.000000,4.000000,4.000000,100.000000,,,,,,,,,,,,,,,,,,,,,,,,,,,,
1703409647.017900,1703409647.018360,23.000000,0.000000,4236.410156,4187.820313,4298.333496,4257.820313,4190.512695,4185.128418,4227.692383,4216.922852,4198.717773,4181.666504,4597.307617,4470.769043,4373.589844,4510.769043,0.000000,3.000000,69.000000,,,,0.000000,4.000000,4.000000,4.000000,4.000000,4.000000,4.000000,4.000000,4.000000,4.000000,4.000000,4.000000,4.000000,4.000000,4.000000,100.000000,,,,,,,,,,,,,,,,,,,,,,,,,,,,
1703409647.025708,1703409647.026168,24.000000,0.000000,4241.025879,4200.256348,4304.487305,4257.692383,4191.794922,4183.846191,4230.384766,4216.153809,4199.743652,4186.922852,4604.102539,4473.461426,4383.461426,4525.897461,0.000000,3.000000,69.000000,,,,0.000000,4.000000,4.000000,4.000000,4.000000,4.000000,4.000000,4.000000,4.000000,4.000000,4.000000,4.000000,4.000000,4.000000,4.000000,100.000000,,,,,,,,,,,,,,,,,6.000000,0.000000,0.418674,0.441345,-0.572693,0.549500,0.952265,-0.261262,-0.050299,-9.458053,-46.360405,60.426605
1703409647.033516,1703409647.034076,25.000000,0.000000,4240.128418,4193.077148,4305.641113,4261.666504,4195.384766,4184.230957,4231.282227,4221.794922,4203.205078,4190.641113,4607.948730,4475.769043,4386.666504,4524.102539,0.000000,3.000000,69.000000,,,,0.000000,4.000000,4.000000,4.000000,4.000000,4.000000,4.000000,4.000000,4.000000,4.000000,4.000000,4.000000,4.000000,4.000000,4.000000,100.000000,,,,,,,,,,,,,,,,,,,,,,,,,,,,
1703409647.041324,1703409647.041884,26.000000,0.000000,4242.692383,4191.922852,4302.948730,4262.563965,4197.307617,4180.641113,4223.846191,4217.307617,4198.846191,4189.102539,4610.128418,4475.512695,4384.487305,4517.692383,0.000000,3.000000,69.000000,,,,0.000000,4.000000,4.000000,4.000000,4.000000,4.000000,4.000000,4.000000,4.000000,4.000000,4.000000,4.000000,4.000000,4.000000,4.000000,100.000000,,,,,,,,,,,,,,,,,,,,,,,,,,,,
1703409647.049132,1703409647.049692,27.000000,0.000000,4251.282227,4210.128418,4309.615234,4266.282227,4200.897461,4178.589844,4219.358887,4204.743652,4188.589844,4191.025879,4614.102539,4477.948730,4392.820313,4525.000000,0.000000,3.000000,69.000000,,,,0.000000,4.000000,4.000000,4.000000,4.000000,4.000000,4.000000,4.000000,4.000000,4.000000,4.000000,4.000000,4.000000,4.000000,4.000000,100.000000,,,,,,,,,,,,,,,,,,,,,,,,,,,,
1703409647.056940,1703409647.057401,28.000000,0.000000,4250.256348,4218.717773,4313.333496,4275.897461,4203.205078,4180.384766,4221.922852,4196.410156,4184.487305,4195.641113,4611.410156,4478.717773,4399.743652,4525.000000,0.000000,3.000000,69.000000,,,,0.000000,4.000000,4.000000,4.000000,4.000000,4.000000,4.000000,4.000000,4.000000,4.000000,4.000000,4.000000,4.000000,4.000000,4.000000,100.000000,,,,,,,,,,,,,,,,,7.000000,0.000000,0.418891,0.441528,-0.572510,0.549377,0.956171,-0.257844,-0.037602,-9.678914,-46.457699,60.383945
1703409647.064748,1703409647.065208,29.000000,0.000000,4247.051270,4215.641113,4306.282227,4279.102539,4205.897461,4182.820313,4224.102539,4195.641113,4190.256348,4196.794922,4606.410156,4474.487305,4395.769043,4516.153809,0.000000,3.000000,69.000000,,,,0.000000,4.000000,4.000000,4.000000,4.000000,4.000000,4.000000,4.000000,4.000000,4.000000,4.000000,4.000000,4.000000,4.000000,4.000000,100.000000,,,,,,,,,,,,,,,,,,,,,,,,,,,,
1703409647.072557,1703409647.072917,30.000000,0.000000,4249.102539,4216.410156,4306.282227,4279.102539,4209.358887,4185.000000,4225.897461,4197.179688,4202.179688,4200.000000,4611.538574,4474.230957,4395.897461,4516.025879,0.000000,3.000000,69.000000,,,,0.000000,4.000000,4.000000,4.000000,4.000000,4.000000,4.000000,4.000000,4.000000,4.000000,4.000000,4.000000,4.000000,4.000000,4.000000,100.000000,,,,,,,,,,,,,,,,,,,,,,,,,,,,
1703409647.080365,1703409647.080824,31.000000,0.000000,4243.974121,4220.897461,4311.922852,4280.000000,4207.179688,4183.333496,4224.871582,4202.436035,4210.128418,4202.179688,4614.871582,4477.436035,4397.307617,4520.512695,0.000000,3.000000,69.000000,,,,0.000000,4.000000,4.000000,4.000000,4.000000,4.000000,4.000000,4.000000,4.000000,4.000000,4.000000,4.000000,4.000000,4.000000,4.000000,100.000000,,,,,,,,,,,,,,,,,,,,,,,,,,,,
1703409647.088173,1703409647.088632,32.000000,0.000000,4235.641113,4215.000000,4305.256348,4272.179688,4200.384766,4176.922852,4222.179688,4213.974121,4207.051270,4191.794922,4605.769043,4477.179688,4385.641113,4517.436035,0.000000,3.000000,69.000000,,,,0.000000,4.000000,4.000000,4.000000,4.000000,4.000000,4.000000,4.000000,4.000000,4.000000,4.000000,4.000000,4.000000,4.000000,4.000000,100.000000,,,,,,,,,,,,,,,,,8.000000,0.000000,0.419221,0.441528,-0.572327,0.549316,0.948358,-0.269076,-0.044439,-9.811023,-46.428596,60.445549
1703409647.095981,1703409647.096540,33.000000,0.000000,4225.769043,4199.102539,4294.102539,4261.922852,4198.974121,4173.717773,4224.358887,4220.256348,4201.410156,4178.333496,4595.769043,4472.179688,4368.589844,4505.256348,0.000000,3.000000,69.000000,,,,0.000000,4.000000,4.000000,4.000000,4.000000,4.000000,4.000000,4.000000,4.000000,4.000000,4.000000,4.000000,4.000000,4.000000,4.000000,100.000000,,,,,,,,,,,,,,,,,,,,,,,,,,,,
1703409647.103789,1703409647.104348,34.000000,0.000000,4227.051270,4199.487305,4299.615234,4263.205078,4202.436035,4175.000000,4224.871582,4219.743652,4203.589844,4181.153809,4598.333496,4470.512695,4368.205078,4505.769043,0.000000,3.000000,69.000000,,,,0.000000,4.000000,4.000000,4.000000,4.000000,4.000000,4.000000,4.000000,4.000000,4.000000,4.000000,4.000000,4.000000,4.000000,4.000000,100.000000,,,,,,,,,,,,,,,,,,,,,,,,,,,,
1703409647.111597,1703409647.112256,35.000000,0.000000,4243.846191,4206.794922,4311.538574,4266.794922,4196.282227,4172.051270,4217.436035,4221.538574,4205.256348,4187.948730,4608.589844,4481.153809,4384.358887,4526.153809,0.000000,3.000000,69.000000,,,,0.000000,4.000000,4.000000,4.000000,4.000000,4.000000,4.000000,4.000000,4.000000,4.000000,4.000000,4.000000,4.000000,4.000000,4.000000,100.000000,,,,,,,,,,,,,,,,,,,,,,,,,,,,
1703409647.119405,1703409647.120064,36.000000,0.000000,4250.512695,4204.102539,4311.922852,4264.358887,4190.128418,4170.512695,4215.512695,4216.538574,4196.410156,4185.897461,4613.717773,4489.230957,4397.179688,4539.615234,0.000000,3.000000,69.000000,,,,0.000000,4.000000,4.000000,4.000000,4.000000,4.000000,4.000000,4.000000,4.000000,4.000000,4.000000,4.000000,4.000000,4.000000,4.000000,100.000000,,,,,,,,,,,,,,,,,9.000000,0.000000,0.419251,0.441345,-0.572388,0.549377,0.961055,-0.245147,-0.039067,-9.779921,-46.435734,60.517662
1703409647.127213,1703409647.127972,37.000000,0.000000,4248.717773,4208.717773,4308.333496,4265.641113,4197.307617,4173.333496,4219.102539,4202.692383,4186.666504,4183.974121,4610.769043,4482.563965,4397.820313,4539.487305,0.000000,3.000000,69.000000,,,,0.000000,4.000000,4.000000,4.000000,4.000000,4.000000,4.000000,4.000000,4.000000,4.000000,4.000000,4.000000,4.000000,4.000000,4.000000,100.000000,,,,,,,,,,,,,,,,,,,,,,,,,,,,
1703409647.135021,1703409647.135780,38.000000,0.000000,4256.666504,4215.256348,4313.589844,4268.717773,4202.692383,4175.641113,4216.538574,4196.794922,4185.512695,4183.717773,4610.897461,4481.410156,4393.461426,4537.051270,0.000000,3.000000,69.000000,,,,0.000000,4.000000,4.000000,4.000000,4.000000,4.000000,4.000000,4.000000,4.000000,4.000000,4.000000,4.000000,4.000000,4.000000,4.000000,100.000000,,,,,,,,,,,,,,,,,,,,,,,,,,,,
1703409647.142829,1703409647.143688,39.000000,0.000000,4260.128418,4204.871582,4314.871582,4267.692383,4197.563965,4176.538574,4216.922852,4200.512695,4187.436035,4183.974121,4610.000000,4490.128418,4389.615234,4533.717773,0.000000,3.000000,69.000000,,,,0.000000,4.000000,4.000000,4.000000,4.000000,4.000000,4.000000,4.000000,4.000000,4.000000,4.000000,4.000000,4.000000,4.000000,4.000000,100.000000,,,,,,,,,,,,,,,,,,,,,,,,,,,,
1703409647.150637,1703409647.151496,40.000000,0.000000,4249.615234,4201.153809,4304.102539,4263.461426,4196.922852,4183.846191,4224.487305,4200.769043,4187.179688,4181.666504,4598.846191,4482.179688,4384.743652,4525.128418,0.000000,3.000000,69.000000,,,,0.000000,4.000000,4.000000,4.000000,4.000000,4.000000,4.000000,4.000000,4.000000,4.000000,4.000000,4.000000,4.000000,4.000000,4.000000,100.000000,,,,,,,,,,,,,,,,,10.000000,0.000000,0.419167,0.441345,-0.572449,0.549377,0.938103,-0.240752,-0.055183,-9.735261,-46.325497,60.649231
1703409647.158445,1703409647.159204,41.000000,0.000000,4244.102539,4213.333496,4296.282227,4263.461426,4203.589844,4194.358887,4232.307617,4198.205078,4186.153809,4173.846191,4587.692383,4462.436035,4375.897461,4511.282227,0.000000,3.000000,69.000000,,,,0.000000,4.000000,4.000000,4.000000,4.000000,4.000000,4.000000,4.000000,4.000000,4.000000,4.000000,4.000000,4.000000,4.000000,4.000000,100.000000,,,,,,,,,,,,,,,,,,,,,,,,,,,,
1703409647.166253,1703409647.167012,42.000000,0.000000,4247.692383,4216.282227,4297.051270,4267.179688,4204.743652,4193.077148,4234.230957,4195.897461,4182.820313,4167.307617,4580.897461,4453.846191,4364.871582,4503.333496,0.000000,3.000000,69.000000,,,,0.000000,4.000000,4.000000,4.000000,4.000000,4.000000,4.000000,4.000000,4.000000,4.000000,4.000000,4.000000,4.000000,4.000000,4.000000,100.000000,,,,,,,,,,,,,,,,,,,,,,,,,,,,
1703409647.174061,1703409647.174720,43.000000,0.000000,4247.436035,4210.641113,4295.256348,4265.512695,4202.051270,4187.179688,4232.692383,4196.282227,4182.436035,4170.000000,4581.794922,4456.922852,4363.333496,4510.128418,0.000000,3.000000,69.000000,,,,0.000000,4.000000,4.000000,4.000000,4.000000,4.000000,4.000000,4.000000,4.000000,4.000000,4.000000,4.000000,4.000000,4.000000,4.000000,100.000000,,,,,,,,,,,,,,,,,,,,,,,,,,,,
1703409647.181869,1703409647.182528,44.000000,0.000000,4245.769043,4211.666504,4294.615234,4266.666504,4199.871582,4184.358887,4228.846191,4206.410156,4191.666504,4174.230957,4592.948730,4466.025879,4373.589844,4517.948730,0.000000,3.000000,69.000000,,,,0.000000,4.000000,4.000000,4.000000,4.000000,4.000000,4.000000,4.000000,4.000000,4.000000,4.000000,4.000000,4.000000,4.000000,4.000000,100.000000,,,,,,,,,,,,,,,,,11.000000,0.000000,0.419035,0.441467,-0.572510,0.549316,0.960566,-0.252961,-0.050787,-9.778402,-46.276279,60.600971
1703409647.189677,1703409647.190236,45.000000,0.000000,4247.948730,4221.282227,4300.000000,4273.846191,4198.205078,4176.282227,4221.538574,4216.153809,4197.692383,4174.487305,4598.077148,4472.436035,4377.948730,4515.512695,0.000000,3.000000,69.000000,,,,0.000000,4.000000,4.000000,4.000000,4.000000,4.000000,4.000000,4.000000,4.000000,4.000000,4.000000,4.000000,4.000000,4.000000,4.000000,100.000000,,,,,,,,,,,,,,,,,,,,,,,,,,,,
1703409647.197485,1703409647.198044,46.000000,0.000000,4254.871582,4230.641113,4306.410156,4277.563965,4201.922852,4170.384766,4217.563965,4216.922852,4197.436035,4177.307617,4598.589844,4475.897461,4378.205078,4517.692383,0.000000,3.000000,69.000000,,,,0.000000,4.000000,4.000000,4.000000,4.000000,4.000000,4.000000,4.000000,4.000000,4.000000,4.000000,4.000000,4.000000,4.000000,4.000000,100.000000,,,,,,,,,,,,,,,,,,,,,,,,,,,,
1703409647.205293,1703409647.205752,47.000000,0.000000,4265.641113,4233.205078,4314.615234,4285.256348,4211.282227,4173.461426,4225.000000,4217.692383,4199.615234,4183.333496,4611.153809,4485.641113,4385.384766,4530.384766,0.000000,3.000000,69.000000,,,,0.000000,4.000000,4.000000,4.000000,4.000000,4.000000,4.000000,4.000000,4.000000,4.000000,4.000000,4.000000,4.000000,4.000000,4.000000,100.000000,,,,,,,,,,,,,,,,,,,,,,,,,,,,
1703409647.213102,1703409647.213560,48.000000,0.000000,4277.179688,4241.025879,4325.769043,4295.641113,4215.641113,4173.589844,4231.538574,4219.487305,4201.410156,4193.846191,4628.974121,4501.794922,4401.794922,4546.410156,0.000000,3.000000,69.000000,,,,0.000000,4.000000,4.000000,4.000000,4.000000,4.000000,4.000000,4.000000,4.000000,4.000000,4.000000,4.000000,4.000000,4.000000,4.000000,100.000000,,,,,,,,,,,,,,,,,12.000000,0.000000,0.419141,0.441528,-0.572327,0.549377,0.960566,-0.250031,-0.040044,-9.717229,-46.215317,60.490875
1703409647.220909,1703409647.221268,49.000000,0.000000,4286.153809,4252.820313,4336.538574,4298.846191,4213.589844,4169.871582,4225.897461,4217.948730,4199.871582,4201.794922,4633.461426,4511.666504,4413.589844,4557.436035,0.000000,3.000000,69.000000,,,,0.000000,4.000000,4.000000,4.000000,4.000000,4.000000,4.000000,4.000000,4.000000,4.000000,4.000000,4.000000,4.000000,4.000000,4.000000,100.000000,,,,,,,,,,,,,,,,,,,,,,,,,,,,
1703409647.228717,1703409647.229076,50.000000,0.000000,4287.307617,4251.025879,4342.436035,4300.512695,4214.871582,4169.871582,4217.948730,4218.077148,4201.410156,4201.282227,4630.897461,4510.641113,4410.641113,4556.025879,0.000000,3.000000,69.000000,,,,0.000000,4.000000,4.000000,4.000000,4.000000,4.000000,4.000000,4.000000,4.000000,4.000000,4.000000,4.000000,4.000000,4.000000,4.000000,100.000000,,,,,,,,,,,,,,,,,,,,,,,,,,,,
1703409647.236526,1703409647.236784,51.000000,0.000000,4284.358887,4247.692383,4338.589844,4302.948730,4212.307617,4167.692383,4217.692383,4216.153809,4202.436035,4201.025879,4630.256348,4504.487305,4406.666504,4554.615234,0.000000,3.000000,69.000000,,,,0.000000,4.000000,4.000000,4.000000,4.000000,4.000000,4.000000,4.000000,4.000000,4.000000,4.000000,4.000000,4.000000,4.000000,4.000000,100.000000,,,,,,,,,,,,,,,,,,,,,,,,,,,,
1703409647.244334,1703409647.244592,52.000000,0.000000,4275.384766,4247.692383,4325.512695,4292.179688,4205.512695,4166.410156,4216.794922,4206.922852,4197.179688,4197.692383,4620.512695,4492.692383,4402.051270,4547.179688,0.000000,3.000000,69.000000,,,,0.000000,4.000000,4.000000,4.000000,4.000000,4.000000,4.000000,4.000000,4.000000,4.000000,4.000000,4.000000,4.000000,4.000000,4.000000,100.000000,,,,,,,,,,,,,,,,,13.000000,0.000000,0.419148,0.441528,-0.572205,0.549500,0.956171,-0.255402,-0.041509,-9.795506,-46.327118,60.391788
1703409647.252142,1703409647.252300,53.000000,0.000000,4266.025879,4237.051270,4313.717773,4281.922852,4205.641113,4168.717773,4212.692383,4196.282227,4194.615234,4189.871582,4606.538574,4477.692383,4390.128418,4527.692383,0.000000,3.000000,69.000000,,,,0.000000,4.000000,4.000000,4.000000,4.000000,4.000000,4.000000,4.000000,4.000000,4.000000,4.000000,4.000000,4.000000,4.000000,4.000000,100.000000,,,,,,,,,,,,,,,,,,,,,,,,,,,,
1703409647.259950,1703409647.260208,54.000000,0.000000,4260.256348,4223.589844,4307.179688,4280.384766,4207.563965,4172.692383,4215.384766,4186.282227,4195.641113,4182.436035,4598.461426,4460.641113,4379.615234,4519.102539,0.000000,3.000000,69.000000,,,,0.000000,4.000000,4.000000,4.000000,4.000000,4.000000,4.000000,4.000000,4.000000,4.000000,4.000000,4.000000,4.000000,4.000000,4.000000,100.000000,,,,,,,,,,,,,,,,,,,,,,,,,,,,
1703409647.267758,1703409647.268016,55.000000,0.000000,4245.641113,4210.256348,4292.051270,4270.384766,4202.051270,4179.102539,4217.307617,4179.871582,4192.436035,4176.153809,4585.769043,4444.230957,4369.230957,4515.000000,0.000000,3.000000,69.000000,,,,0.000000,4.000000,4.000000,4.000000,4.000000,4.000000,4.000000,4.000000,4.000000,4.000000,4.000000,4.000000,4.000000,4.000000,4.000000,100.000000,,,,,,,,,,,,,,,,,,,,,,,,,,,,
1703409647.275566,1703409647.275924,56.000000,0.000000,4225.769043,4200.000000,4275.384766,4257.179688,4199.743652,4185.256348,4216.153809,4186.153809,4186.153809,4166.922852,4569.358887,4433.333496,4355.769043,4498.589844,0.000000,3.000000,69.000000,,,,0.000000,4.000000,4.000000,4.000000,4.000000,4.000000,4.000000,4.000000,4.000000,4.000000,4.000000,4.000000,4.000000,4.000000,4.000000,100.000000,,,,,,,,,,,,,,,,,14.000000,0.000000,0.419344,0.441345,-0.572144,0.549561,0.973263,-0.265169,-0.037602,-9.615955,-46.277740,60.285942
1703409647.283374,1703409647.283732,57.000000,0.000000,4228.974121,4205.000000,4277.307617,4259.102539,4202.820313,4186.025879,4224.615234,4201.538574,4186.025879,4165.512695,4573.205078,4441.153809,4359.487305,4492.307617,0.000000,3.000000,69.000000,,,,0.000000,4.000000,4.000000,4.000000,4.000000,4.000000,4.000000,4.000000,4.000000,4.000000,4.000000,4.000000,4.000000,4.000000,4.000000,100.000000,,,,,,,,,,,,,,,,,,,,,,,,,,,,
1703409647.291182,1703409647.291640,58.000000,0.000000,4246.922852,4209.358887,4290.384766,4266.153809,4201.666504,4183.077148,4232.179688,4214.743652,4191.025879,4176.282227,4593.205078,4461.794922,4379.230957,4507.820313,0.000000,3.000000,69.000000,,,,0.000000,4.000000,4.000000,4.000000,4.000000,4.000000,4.000000,4.000000,4.000000,4.000000,4.000000,4.000000,4.000000,4.000000,4.000000,100.000000,,,,,,,,,,,,,,,,,,,,,,,,,,,,
1703409647.298990,1703409647.299448,59.000000,0.000000,4248.589844,4206.153809,4298.717773,4265.256348,4199.230957,4181.922852,4226.538574,4224.487305,4193.974121,4181.025879,4605.641113,4475.641113,4386.153809,4520.641113,0.000000,3.000000,69.000000,,,,0.000000,4.000000,4.000000,4.000000,4.000000,4.000000,4.000000,4.000000,4.000000,4.000000,4.000000,4.000000,4.000000,4.000000,4.000000,100.000000,,,,,,,,,,,,,,,,,,,,,,,,,,,,
1703409647.306798,1703409647.307355,60.000000,0.000000,4246.153809,4213.589844,4303.846191,4269.102539,4200.384766,4184.871582,4218.717773,4233.205078,4199.230957,4182.051270,4611.922852,4485.384766,4387.179688,4523.974121,0.000000,3.000000,69.000000,,,,0.000000,4.000000,4.000000,4.000000,4.000000,4.000000,4.000000,4.000000,4.000000,4.000000,4.000000,4.000000,4.000000,4.000000,4.000000,100.000000,,,,,,,,,,,,,,,,,15.000000,0.000000,0.419296,0.441223,-0.572449,0.549377,0.950800,-0.258821,-0.050299,-9.737693,-46.333302,60.174015
1703409647.314606,1703409647.315163,61.000000,0.000000,4249.487305,4220.256348,4306.025879,4278.205078,4199.230957,4182.436035,4218.461426,4238.077148,4205.128418,4190.897461,4615.897461,4491.922852,4391.025879,4525.000000,0.000000,3.000000,69.000000,,,,0.000000,4.000000,4.000000,4.000000,4.000000,4.000000,4.000000,4.000000,4.000000,4.000000,4.000000,4.000000,4.000000,4.000000,4.000000,100.000000,,,,,,,,,,,,,,,,,,,,,,,,,,,,
1703409647.322414,1703409647.323071,62.000000,0.000000,4249.487305,4218.333496,4305.000000,4278.077148,4197.820313,4172.692383,4218.461426,4231.538574,4203.717773,4200.641113,4612.307617,4486.922852,4389.230957,4523.846191,0.000000,3.000000,69.000000,,,,0.000000,4.000000,4.000000,4.000000,4.000000,4.000000,4.000000,4.000000,4.000000,4.000000,4.000000,4.000000,4.000000,4.000000,4.000000,100.000000,,,,,,,,,,,,,,,,,,,,,,,,,,,,
1703409647.330222,1703409647.330879,63.000000,0.000000,4255.128418,4228.077148,4309.358887,4280.512695,4202.563965,4170.000000,4216.282227,4219.487305,4199.871582,4199.743652,4609.230957,4478.717773,4389.230957,4522.563965,0.000000,3.000000,69.000000,,,,0.000000,4.000000,4.000000,4.000000,4.000000,4.000000,4.000000,4.000000,4.000000,4.000000,4.000000,4.000000,4.000000,4.000000,4.000000,100.000000,,,,,,,,,,,,,,,,,,,,,,,,,,,,
1703409647.338030,1703409647.338787,64.000000,0.000000,4267.179688,4238.846191,4313.077148,4288.077148,4205.897461,4175.384766,4216.410156,4212.948730,4203.846191,4199.230957,4612.820313,4478.846191,4398.077148,4524.358887,5490.000000,3.000000,69.000000,,,,0.000000,4.000000,4.000000,4.000000,4.000000,4.000000,4.000000,4.000000,4.000000,4.000000,4.000000,4.000000,4.000000,4.000000,4.000000,100.000000,,,,,,,,,,,,,,,,,16.000000,0.000000,0.419107,0.441162,-0.572693,0.549316,0.955683,-0.256867,-0.051764,-9.697257,-46.533302,60.123280
1703409647.345838,1703409647.346695,65.000000,0.000000,4266.025879,4234.487305,4309.358887,4285.384766,4203.461426,4173.205078,4215.641113,4206.282227,4202.820313,4201.025879,4610.641113,4475.000000,4398.974121,4525.641113,5320.000000,3.000000,69.000000,,,,0.000000,4.000000,4.000000,4.000000,4.000000,4.000000,4.000000,4.000000,4.000000,4.000000,4.000000,4.000000,4.000000,4.000000,4.000000,100.000000,,,,,,,,,,,,,,,,,,,,,,,,,,,,
1703409647.353646,1703409647.354503,66.000000,0.000000,4257.051270,4230.512695,4309.871582,4279.230957,4207.307617,4168.974121,4214.487305,4196.922852,4189.871582,4190.641113,4599.230957,4462.307617,4388.077148,4522.051270,5173.000000,3.000000,69.000000,,,,0.000000,4.000000,4.000000,4.000000,4.000000,4.000000,4.000000,4.000000,4.000000,4.000000,4.000000,4.000000,4.000000,4.000000,4.000000,100.000000,,,,,,,,,,,,,,,,,,,,,,,,,,,,
1703409647.361454,1703409647.362312,67.000000,0.000000,4261.153809,4232.948730,4311.922852,4283.717773,4218.461426,4176.666504,4216.153809,4195.256348,4183.461426,4182.307617,4598.461426,4458.333496,4387.820313,4521.794922,5275.000000,3.000000,69.000000,,,,0.000000,4.000000,4.000000,4.000000,4.000000,4.000000,4.000000,4.000000,4.000000,4.000000,4.000000,4.000000,4.000000,4.000000,4.000000,100.000000,,,,,,,,,,,,,,,,,,,,,,,,,,,,
1703409647.369262,1703409647.370020,68.000000,0.000000,4262.563965,4234.871582,4303.461426,4287.692383,4217.179688,4186.025879,4217.563965,4199.743652,4187.692383,4184.358887,4601.922852,4458.461426,4390.128418,4517.820313,5036.000000,3.000000,69.000000,,,,0.000000,4.000000,4.000000,4.000000,4.000000,4.000000,4.000000,4.000000,4.000000,4.000000,4.000000,4.000000,4.000000,4.000000,4.000000,100.000000,1.000000,100.000000,4.000000,4.000000,4.000000,4.000000,4.000000,4.000000,4.000000,4.000000,4.000000,4.000000,4.000000,4.000000,4.000000,4.000000,17.000000,0.000000,0.418815,0.441284,-0.572754,0.549377,0.968380,-0.258332,-0.041997,-9.577531,-46.463306,60.244286
1703409647.377071,1703409647.377828,69.000000,0.000000,4249.230957,4230.000000,4292.179688,4284.102539,4206.153809,4186.538574,4216.794922,4201.538574,4188.974121,4184.743652,4592.436035,4451.410156,4379.743652,4506.538574,4866.000000,3.000000,69.000000,,,,0.000000,4.000000,4.000000,4.000000,4.000000,4.000000,4.000000,4.000000,4.000000,4.000000,4.000000,4.000000,4.000000,4.000000,4.000000,100.000000,,,,,,,,,,,,,,,,,,,,,,,,,,,,
1703409647.384879,1703409647.385536,70.000000,0.000000,4239.487305,4219.743652,4289.615234,4277.307617,4202.436035,4186.153809,4215.128418,4201.410156,4183.717773,4180.384766,4585.000000,4442.563965,4373.717773,4500.128418,3745.000000,3.000000,69.000000,,,,0.000000,4.000000,4.000000,4.000000,4.000000,4.000000,4.000000,4.000000,4.000000,4.000000,4.000000,4.000000,4.000000,4.000000,4.000000,100.000000,,,,,,,,,,,,,,,,,,,,,,,,,,,,
1703409647.392686,1703409647.393344,71.000000,0.000000,4241.794922,4215.897461,4291.153809,4275.641113,4201.666504,4187.820313,4216.025879,4199.871582,4184.487305,4180.512695,4593.846191,4445.000000,4379.743652,4503.974121,5262.000000,3.000000,69.000000,,,,0.000000,4.000000,4.000000,4.000000,4.000000,4.000000,4.000000,4.000000,4.000000,4.000000,4.000000,4.000000,4.000000,4.000000,4.000000,100.000000,,,,,,,,,,,,,,,,,,,,,,,,,,,,
1703409647.400495,1703409647.401052,72.000000,0.000000,4243.205078,4217.692383,4292.563965,4276.922852,4201.410156,4187.692383,4219.615234,4205.384766,4192.179688,4190.769043,4606.025879,4461.153809,4389.358887,4513.846191,4898.000000,3.000000,69.000000,,,,0.000000,4.000000,4.000000,4.000000,4.000000,4.000000,4.000000,4.000000,4.000000,4.000000,4.000000,4.000000,4.000000,4.000000,4.000000,100.000000,,,,,,,,,,,,,,,,,18.000000,0.000000,0.418898,0.441284,-0.572693,0.549377,0.952753,-0.254426,-0.047857,-9.536445,-46.500309,60.086525
1703409647.408303,1703409647.408860,73.000000,0.000000,4247.436035,4218.717773,4300.641113,4278.205078,4203.205078,4186.153809,4218.974121,4216.922852,4196.794922,4200.512695,4614.871582,4476.666504,4397.179688,4525.384766,5110.000000,3.000000,69.000000,,,,0.000000,4.000000,4.000000,4.000000,4.000000,4.000000,4.000000,4.000000,4.000000,4.000000,4.000000,4.000000,4.000000,4.000000,4.000000,100.000000,,,,,,,,,,,,,,,,,,,,,,,,,,,,
1703409647.416111,1703409647.416568,74.000000,0.000000,4262.179688,4222.307617,4314.230957,4286.794922,4202.436035,4184.358887,4214.743652,4219.230957,4197.563965,4201.794922,4624.871582,4484.102539,4399.871582,4531.153809,5779.000000,3.000000,69.000000,,,,0.000000,4.000000,4.000000,4.000000,4.000000,4.000000,4.000000,4.000000,4.000000,4.000000,4.000000,4.000000,4.000000,4.000000,4.000000,100.000000,,,,,,,,,,,,,,,,,,,,,,,,,,,,
1703409647.423919,1703409647.424376,75.000000,0.000000,4265.897461,4229.102539,4319.358887,4295.256348,4198.589844,4182.948730,4215.512695,4217.948730,4201.538574,4200.256348,4629.487305,4489.102539,4397.563965,4527.051270,6028.000000,3.000000,69.000000,,,,0.000000,4.000000,4.000000,4.000000,4.000000,4.000000,4.000000,4.000000,4.000000,4.000000,4.000000,4.000000,4.000000,4.000000,4.000000,100.000000,,,,,,,,,,,,,,,,,,,,,,,,,,,,
1703409647.431727,1703409647.432084,76.000000,0.000000,4253.461426,4230.769043,4315.000000,4291.922852,4200.256348,4184.871582,4217.179688,4222.179688,4209.358887,4204.487305,4625.384766,4489.615234,4399.102539,4524.871582,6524.000000,3.000000,69.000000,,,,0.000000,4.000000,4.000000,4.000000,4.000000,4.000000,4.000000,4.000000,4.000000,4.000000,4.000000,4.000000,4.000000,4.000000,4.000000,100.000000,,,,,,,,,,,,,,,,,19.000000,0.000000,0.418966,0.441223,-0.572632,0.549438,0.956660,-0.282749,-0.047857,-9.582800,-46.500278,60.077869
1703409647.439535,1703409647.439892,77.000000,0.000000,4247.051270,4231.538574,4311.153809,4289.871582,4209.615234,4185.641113,4215.128418,4222.179688,4210.769043,4203.589844,4616.282227,4480.256348,4399.615234,4522.948730,7207.000000,3.000000,69.000000,,,,0.000000,4.000000,4.000000,4.000000,4.000000,4.000000,4.000000,4.000000,4.000000,4.000000,4.000000,4.000000,4.000000,4.000000,4.000000,100.000000,,,,,,,,,,,,,,,,,,,,,,,,,,,,
1703409647.447343,1703409647.447600,78.000000,0.000000,4248.461426,4231.153809,4306.666504,4290.897461,4214.230957,4185.128418,4215.128418,4214.615234,4206.025879,4193.077148,4606.410156,4469.487305,4389.615234,4512.692383,5779.000000,3.000000,69.000000,,,,0.000000,4.000000,4.000000,4.000000,4.000000,4.000000,4.000000,4.000000,4.000000,4.000000,4.000000,4.000000,4.000000,4.000000,4.000000,100.000000,,,,,,,,,,,,,,,,,,,,,,,,,,,,
1703409647.455151,1703409647.455508,79.000000,0.000000,4244.358887,4221.794922,4296.410156,4283.717773,4208.589844,4188.974121,4215.897461,4208.589844,4202.179688,4185.256348,4596.153809,4458.077148,4378.205078,4502.179688,6028.000000,3.000000,69.000000,,,,0.000000,4.000000,4.000000,4.000000,4.000000,4.000000,4.000000,4.000000,4.000000,4.000000,4.000000,4.000000,4.000000,4.000000,4.000000,100.000000,,,,,,,,,,,,,,,,,,,,,,,,,,,,
1703409647.462959,1703409647.463316,80.000000,0.000000,4242.436035,4214.871582,4290.769043,4279.743652,4202.436035,4192.948730,4214.358887,4208.077148,4195.897461,4182.051270,4585.384766,4447.051270,4374.358887,4500.384766,6524.000000,3.000000,69.000000,,,,0.000000,4.000000,4.000000,4.000000,4.000000,4.000000,4.000000,4.000000,4.000000,4.000000,4.000000,4.000000,4.000000,4.000000,4.000000,100.000000,,,,,,,,,,,,,,,,,20.000000,0.000000,0.418981,0.441284,-0.572632,0.549377,0.943963,-0.249054,-0.033207,-9.607854,-46.650249,59.970085
1703409647.470767,1703409647.471224,81.000000,0.000000,4247.051270,4218.717773,4299.487305,4287.948730,4202.692383,4192.051270,4214.615234,4212.692383,4187.436035,4182.948730,4590.128418,4453.461426,4378.333496,4506.794922,7207.000000,3.000000,69.000000,,,,0.000000,4.000000,4.000000,4.000000,4.000000,4.000000,4.000000,4.000000,4.000000,4.000000,4.000000,4.000000,4.000000,4.000000,4.000000,100.000000,,,,,,,,,,,,,,,,,,,,,,,,,,,,
1703409647.478575,1703409647.479032,82.000000,0.000000,4249.487305,4220.769043,4310.512695,4293.846191,4200.128418,4189.615234,4216.025879,4217.051270,4187.692383,4188.205078,4605.641113,4471.410156,4385.128418,4513.717773,5779.000000,3.000000,69.000000,,,,0.000000,4.000000,4.000000,4.000000,4.000000,4.000000,4.000000,4.000000,4.000000,4.000000,4.000000,4.000000,4.000000,4.000000,4.000000,100.000000,,,,,,,,,,,,,,,,,,,,,,,,,,,,
1703409647.486383,1703409647.486939,83.000000,0.000000,4250.128418,4216.153809,4312.179688,4288.461426,4197.820313,4190.128418,4215.897461,4217.051270,4196.410156,4187.948730,4608.205078,4476.794922,4386.922852,4519.230957,6028.000000,3.000000,69.000000,,,,0.000000,4.000000,4.000000,4.000000,4.000000,4.000000,4.000000,4.000000,4.000000,4.000000,4.000000,4.000000,4.000000,4.000000,4.000000,100.000000,,,,,,,,,,,,,,,,,,,,,,,,,,,,
1703409647.494191,1703409647.494747,84.000000,0.000000,4249.615234,4212.179688,4308.589844,4279.743652,4202.948730,4192.820313,4217.179688,4217.563965,4198.333496,4181.794922,4600.000000,4473.333496,4384.615234,4520.512695,6524.000000,3.000000,69.000000,,,,0.000000,4.000000,4.000000,4.000000,4.000000,4.000000,4.000000,4.000000,4.000000,4.000000,4.000000,4.000000,4.000000,4.000000,4.000000,100.000000,,,,,,,,,,,,,,,,,21.000000,0.000000,0.419494,0.441345,-0.572327,0.549255,0.963985,-0.265657,-0.046392,-9.597068,-46.635227,59.889744
1703409647.501999,1703409647.502655,85.000000,0.000000,4247.692383,4211.025879,4308.333496,4282.436035,4203.205078,4192.051270,4217.820313,4218.333496,4197.692383,4187.948730,4602.692383,4475.256348,4388.205078,4519.102539,7207.000000,3.000000,69.000000,,,,0.000000,4.000000,4.000000,4.000000,4.000000,4.000000,4.000000,4.000000,4.000000,4.000000,4.000000,4.000000,4.000000,4.000000,4.000000,100.000000,,,,,,,,,,,,,,,,,,,,,,,,,,,,
1703409647.509807,1703409647.510463,86.000000,0.000000,4249.743652,4217.436035,4311.282227,4291.282227,4203.461426,4191.922852,4215.897461,4219.615234,4201.282227,4201.410156,4614.871582,4478.205078,4396.666504,4525.256348,5779.000000,3.000000,69.000000,,,,0.000000,4.000000,4.000000,4.000000,4.000000,4.000000,4.000000,4.000000,4.000000,4.000000,4.000000,4.000000,4.000000,4.000000,4.000000,100.000000,,,,,,,,,,,,,,,,,,,,,,,,,,,,
1703409647.517615,1703409647.518371,87.000000,0.000000,4256.282227,4228.333496,4311.538574,4292.179688,4212.820313,4194.358887,4215.512695,4218.846191,4203.589844,4202.179688,4619.358887,4480.641113,4398.846191,4531.025879,6028.000000,3.000000,69.000000,,,,0.000000,4.000000,4.000000,4.000000,4.000000,4.000000,4.000000,4.000000,4.000000,4.000000,4.000000,4.000000,4.000000,4.000000,4.000000,100.000000,,,,,,,,,,,,,,,,,,,,,,,,,,,,
1703409647.525423,1703409647.526179,88.000000,0.000000,4259.358887,4228.717773,4312.436035,4291.410156,4218.717773,4193.846191,4218.077148,4215.897461,4207.179688,4202.692383,4618.589844,4487.051270,4399.230957,4526.922852,6524.000000,3.000000,69.000000,,,,0.000000,4.000000,4.000000,4.000000,4.000000,4.000000,4.000000,4.000000,4.000000,4.000000,4.000000,4.000000,4.000000,4.000000,4.000000,100.000000,,,,,,,,,,,,,,,,,22.000000,0.000000,0.419609,0.441467,-0.572266,0.549133,0.959590,-0.255891,-0.050299,-9.454028,-46.571701,60.067436
1703409647.533231,1703409647.533887,89.000000,0.000000,4259.358887,4224.230957,4319.358887,4295.897461,4214.487305,4187.179688,4217.307617,4221.025879,4213.077148,4209.615234,4622.948730,4493.846191,4404.358887,4526.922852,7207.000000,3.000000,69.000000,,,,0.000000,4.000000,4.000000,4.000000,4.000000,4.000000,4.000000,4.000000,4.000000,4.000000,4.000000,4.000000,4.000000,4.000000,4.000000,100.000000,,,,,,,,,,,,,,,,,,,,,,,,,,,,
1703409647.541040,1703409647.541695,90.000000,0.000000,4264.487305,4229.871582,4324.487305,4296.794922,4212.692383,4185.384766,4213.974121,4231.666504,4217.692383,4208.589844,4625.512695,4496.666504,4403.589844,4531.922852,5779.000000,3.000000,69.000000,,,,0.000000,4.000000,4.000000,4.000000,4.000000,4.000000,4.000000,4.000000,4.000000,4.000000,4.000000,4.000000,4.000000,4.000000,4.000000,100.000000,,,,,,,,,,,,,,,,,,,,,,,,,,,,
1703409647.548848,1703409647.549403,91.000000,0.000000,4266.282227,4233.717773,4319.871582,4293.846191,4213.461426,4191.410156,4216.025879,4234.615234,4218.589844,4202.436035,4619.487305,4493.589844,4398.333496,4529.871582,6028.000000,3.000000,69.000000,,,,0.000000,4.000000,4.000000,4.000000,4.000000,4.000000,4.000000,4.000000,4.000000,4.000000,4.000000,4.000000,4.000000,4.000000,4.000000,100.000000,,,,,,,,,,,,,,,,,,,,,,,,,,,,
1703409647.556656,1703409647.557211,92.000000,0.000000,4252.179688,4220.384766,4308.077148,4289.487305,4207.307617,4193.333496,4215.512695,4232.051270,4218.077148,4202.948730,4614.230957,4485.384766,4397.820313,4521.666504,6524.000000,3.000000,69.000000,,,,0.000000,4.000000,4.000000,4.000000,4.000000,4.000000,4.000000,4.000000,4.000000,4.000000,4.000000,4.000000,4.000000,4.000000,4.000000,100.000000,,,,,,,,,,,,,,,,,23.000000,0.000000,0.419461,0.441528,-0.572327,0.549133,0.958613,-0.261262,-0.058113,-9.591959,-46.514534,59.977360
1703409647.564464,1703409647.564919,93.000000,0.000000,4235.128418,4204.487305,4297.436035,4283.333496,4201.153809,4188.077148,4211.666504,4230.256348,4214.743652,4204.487305,4610.641113,4472.563965,4393.461426,4513.461426,7207.000000,3.000000,69.000000,,,,0.000000,4.000000,4.000000,4.000000,4.000000,4.000000,4.000000,4.000000,4.000000,4.000000,4.000000,4.000000,4.000000,4.000000,4.000000,100.000000,,,,,,,,,,,,,,,,,,,,,,,,,,,,
1703409647.572272,1703409647.572827,94.000000,0.000000,4230.256348,4197.948730,4291.794922,4277.692383,4199.871582,4186.282227,4213.077148,4221.922852,4206.794922,4197.051270,4601.025879,4458.333496,4382.948730,4502.436035,5779.000000,3.000000,69.000000,,,,0.000000,4.000000,4.000000,4.000000,4.000000,4.000000,4.000000,4.000000,4.000000,4.000000,4.000000,4.000000,4.000000,4.000000,4.000000,100.000000,,,,,,,,,,,,,,,,,,,,,,,,,,,,
1703409647.580080,1703409647.580636,95.000000,0.000000,4232.948730,4198.205078,4291.025879,4273.974121,4200.512695,4188.077148,4214.358887,4208.461426,4195.769043,4187.051270,4597.563965,4455.512695,4379.871582,4500.128418,6028.000000,3.000000,69.000000,,,,0.000000,4.000000,4.000000,4.000000,4.000000,4.000000,4.000000,4.000000,4.000000,4.000000,4.000000,4.000000,4.000000,4.000000,4.000000,100.000000,,,,,,,,,,,,,,,,,,,,,,,,,,,,
1703409647.587888,1703409647.588544,96.000000,0.000000,4234.230957,4202.179688,4291.922852,4272.692383,4201.538574,4185.256348,4211.282227,4201.410156,4186.282227,4185.897461,4602.692383,4458.077148,4382.820313,4507.307617,6524.000000,3.000000,69.000000,,,,0.000000,4.000000,4.000000,4.000000,4.000000,4.000000,4.000000,4.000000,4.000000,4.000000,4.000000,4.000000,4.000000,4.000000,4.000000,100.000000,,,,,,,,,,,,,,,,,24.000000,0.000000,0.419001,0.441345,-0.572571,0.549377,0.947381,-0.259797,-0.047369,-9.416096,-46.463078,60.096291
1703409647.595696,1703409647.596352,97.000000,0.000000,4232.563965,4200.128418,4291.025879,4273.717773,4201.794922,4182.179688,4207.051270,4197.948730,4182.948730,4186.794922,4597.307617,4448.974121,4380.769043,4498.589844,7207.000000,3.000000,69.000000,,,,0.000000,4.000000,4.000000,4.000000,4.000000,4.000000,4.000000,4.000000,4.000000,4.000000,4.000000,4.000000,4.000000,4.000000,4.000000,100.000000,,,,,,,,,,,,,,,,,,,,,,,,,,,,
1703409647.603504,1703409647.604160,98.000000,0.000000,4229.743652,4195.769043,4293.205078,4275.000000,4202.692383,4183.333496,4203.205078,4196.410156,4185.000000,4183.205078,4591.153809,4444.615234,4379.102539,4489.743652,5779.000000,3.000000,69.000000,,,,0.000000,4.000000,4.000000,4.000000,4.000000,4.000000,4.000000,4.000000,4.000000,4.000000,4.000000,4.000000,4.000000,4.000000,4.000000,100.000000,,,,,,,,,,,,,,,,,,,,,,,,,,,,
1703409647.611312,1703409647.611868,99.000000,0.000000,4234.871582,4198.205078,4298.589844,4276.666504,4203.974121,4185.384766,4202.563965,4196.025879,4186.666504,4183.205078,4597.948730,4457.820313,4382.820313,4502.179688,6028.000000,3.000000,69.000000,,,,0.000000,4.000000,4.000000,4.000000,4.000000,4.000000,4.000000,4.000000,4.000000,4.000000,4.000000,4.000000,4.000000,4.000000,4.000000,100.000000,,,,,,,,,,,,,,,,,,,,,,,,,,,,
1703409647.619120,1703409647.619676,100.000000,0.000000,4240.897461,4199.615234,4295.769043,4276.410156,4203.461426,4187.692383,4203.333496,4192.692383,4187.820313,4185.000000,4599.487305,4463.589844,4379.358887,4510.641113,6524.000000,3.000000,69.000000,,,,0.000000,4.000000,4.000000,4.000000,4.000000,4.000000,4.000000,4.000000,4.000000,4.000000,4.000000,4.000000,4.000000,4.000000,4.000000,100.000000,,,,,,,,,,,,,,,,,25.000000,0.000000,0.418604,0.441101,-0.572815,0.549622,0.951288,-0.256867,-0.046392,-9.324487,-46.483437,60.219994
1703409647.626928,1703409647.627384,101.000000,0.000000,4245.897461,4203.846191,4295.256348,4279.743652,4203.333496,4188.205078,4202.179688,4192.948730,4193.974121,4184.230957,4595.769043,4463.077148,4377.051270,4508.974121,7207.000000,3.000000,69.000000,,,,0.000000,4.000000,4.000000,4.000000,4.000000,4.000000,4.000000,4.000000,4.000000,4.000000,4.000000,4.000000,4.000000,4.000000,4.000000,100.000000,,,,,,,,,,,,,,,,,,,,,,,,,,,,
1703409647.634736,1703409647.635292,102.000000,0.000000,4255.897461,4215.641113,4309.102539,4291.410156,4205.897461,4187.436035,4203.461426,4202.563965,4200.769043,4189.743652,4604.487305,4478.205078,4389.743652,4517.307617,5779.000000,3.000000,69.000000,,,,0.000000,4.000000,4.000000,4.000000,4.000000,4.000000,4.000000,4.000000,4.000000,4.000000,4.000000,4.000000,4.000000,4.000000,4.000000,100.000000,,,,,,,,,,,,,,,,,,,,,,,,,,,,
1703409647.642544,1703409647.643100,103.000000,0.000000,4259.230957,4215.128418,4318.461426,4292.820313,4204.230957,4187.436035,4205.512695,4216.794922,4208.333496,4198.461426,4616.666504,4490.897461,4397.436035,4526.538574,6028.000000,3.000000,69.000000,,,,0.000000,4.000000,4.000000,4.000000,4.000000,4.000000,4.000000,4.000000,4.000000,4.000000,4.000000,4.000000,4.000000,4.000000,4.000000,100.000000,,,,,,,,,,,,,,,,,,,,,,,,,,,,
1703409647.650352,1703409647.651008,104.000000,0.000000,4252.692383,4201.794922,4314.615234,4282.051270,4199.358887,4186.153809,4205.256348,4228.077148,4218.333496,4200.128418,4617.436035,4486.794922,4388.077148,4525.000000,6524.000000,3.000000,69.000000,,,,0.000000,4.000000,4.000000,4.000000,4.000000,4.000000,4.000000,4.000000,4.000000,4.000000,4.000000,4.000000,4.000000,4.000000,4.000000,100.000000,,,,,,,,,,,,,,,,,26.000000,0.000000,0.418302,0.440918,-0.573059,0.549744,0.958125,-0.266634,-0.047369,-9.375371,-46.551762,60.247993
1703409647.658160,1703409647.658816,105.000000,0.000000,4246.025879,4199.487305,4306.666504,4280.256348,4199.230957,4185.000000,4203.846191,4224.743652,4211.922852,4195.128418,4609.230957,4476.410156,4380.384766,4516.922852,7207.000000,3.000000,69.000000,,,,0.000000,4.000000,4.000000,4.000000,4.000000,4.000000,4.000000,4.000000,4.000000,4.000000,4.000000,4.000000,4.000000,4.000000,4.000000,100.000000,,,,,,,,,,,,,,,,,,,,,,,,,,,,
1703409647.665968,1703409647.666724,106.000000,0.000000,4240.512695,4205.641113,4299.743652,4282.948730,4203.974121,4192.820313,4205.512695,4207.307617,4190.769043,4185.641113,4594.871582,4464.230957,4376.794922,4499.230957,5779.000000,3.000000,69.000000,,,,0.000000,4.000000,4.000000,4.000000,4.000000,4.000000,4.000000,4.000000,4.000000,4.000000,4.000000,4.000000,4.000000,4.000000,4.000000,100.000000,,,,,,,,,,,,,,,,,,,,,,,,,,,,
1703409647.673776,1703409647.674532,107.000000,0.000000,4233.205078,4203.461426,4298.077148,4280.128418,4203.717773,4198.717773,4209.871582,4198.589844,4183.974121,4181.153809,4583.717773,4454.487305,4368.846191,4491.410156,6028.000000,3.000000,69.000000,,,,0.000000,4.000000,4.000000,4.000000,4.000000,4.000000,4.000000,4.000000,4.000000,4.000000,4.000000,4.000000,4.000000,4.000000,4.000000,100.000000,,,,,,,,,,,,,,,,,,,,,,,,,,,,
1703409647.681584,1703409647.682440,108.000000,0.000000,4230.128418,4199.871582,4300.256348,4278.461426,4199.743652,4193.846191,4206.538574,4200.128418,4189.230957,4182.436035,4584.743652,4454.487305,4369.102539,4502.307617,6524.000000,3.000000,69.000000,,,,0.000000,4.000000,4.000000,4.000000,4.000000,4.000000,4.000000,4.000000,4.000000,4.000000,4.000000,4.000000,4.000000,4.000000,4.000000,100.000000,,,,,,,,,,,,,,,,,27.000000,0.000000,0.418247,0.440735,-0.573181,0.549805,0.958125,-0.256867,-0.041509,-9.454501,-46.646584,60.156528
1703409647.689392,1703409647.690248,109.000000,0.000000,4236.153809,4205.512695,4304.230957,4280.000000,4206.282227,4193.846191,4205.384766,4195.512695,4185.897461,4183.077148,4593.717773,4467.436035,4382.563965,4508.333496,7207.000000,3.000000,69.000000,,,,0.000000,4.000000,4.000000,4.000000,4.000000,4.000000,4.000000,4.000000,4.000000,4.000000,4.000000,4.000000,4.000000,4.000000,4.000000,100.000000,,,,,,,,,,,,,,,,,,,,,,,,,,,,
1703409647.697200,1703409647.698155,110.000000,0.000000,4246.666504,4215.384766,4308.077148,4282.563965,4216.025879,4202.948730,4214.743652,4194.487305,4183.333496,4189.743652,4601.410156,4475.641113,4392.692383,4509.230957,5779.000000,3.000000,69.000000,,,,0.000000,4.000000,4.000000,4.000000,4.000000,4.000000,4.000000,4.000000,4.000000,4.000000,4.000000,4.000000,4.000000,4.000000,4.000000,100.000000,,,,,,,,,,,,,,,,,,,,,,,,,,,,
1703409647.705008,1703409647.706064,111.000000,0.000000,4251.666504,4216.922852,4305.897461,4284.102539,4216.922852,4205.384766,4217.948730,4194.615234,4185.897461,4196.153809,4601.538574,4467.820313,4390.641113,4512.820313,6028.000000,3.000000,69.000000,,,,0.000000,4.000000,4.000000,4.000000,4.000000,4.000000,4.000000,4.000000,4.000000,4.000000,4.000000,4.000000,4.000000,4.000000,4.000000,100.000000,,,,,,,,,,,,,,,,,,,,,,,,,,,,
1703409647.712817,1703409647.713872,112.000000,0.000000,4246.538574,4214.102539,4301.025879,4281.538574,4214.358887,4201.282227,4207.436035,4187.948730,4190.897461,4192.051270,4596.153809,4460.384766,4386.666504,4507.820313,6524.000000,3.000000,69.000000,,,,0.000000,4.000000,4.000000,4.000000,4.000000,4.000000,4.000000,4.000000,4.000000,4.000000,4.000000,4.000000,4.000000,4.000000,4.000000,100.000000,,,,,,,,,,,,,,,,,28.000000,0.000000,0.418244,0.440735,-0.573242,0.549744,0.958613,-0.253449,-0.050787,-9.425717,-46.631927,60.057541
1703409647.720625,1703409647.721680,113.000000,0.000000,4244.743652,4214.871582,4302.948730,4283.846191,4210.128418,4202.692383,4201.538574,4189.615234,4198.974121,4191.666504,4592.692383,4457.051270,4385.128418,4501.153809,7207.000000,3.000000,69.000000,,,,0.000000,4.000000,4.000000,4.000000,4.000000,4.000000,4.000000,4.000000,4.000000,4.000000,4.000000,4.000000,4.000000,4.000000,4.000000,100.000000,,,,,,,,,,,,,,,,,,,,,,,,,,,,
1703409647.728433,1703409647.729388,114.000000,0.000000,4247.563965,4214.743652,4300.384766,4289.743652,4206.153809,4202.436035,4207.563965,4200.897461,4204.871582,4199.102539,4594.615234,4451.794922,4380.897461,4506.282227,5779.000000,3.000000,69.000000,,,,0.000000,4.000000,4.000000,4.000000,4.000000,4.000000,4.000000,4.000000,4.000000,4.000000,4.000000,4.000000,4.000000,4.000000,4.000000,100.000000,,,,,,,,,,,,,,,,,,,,,,,,,,,,
1703409647.736241,1703409647.737196,115.000000,0.000000,4247.948730,4216.025879,4293.077148,4290.512695,4212.820313,4199.615234,4211.153809,4211.025879,4208.333496,4198.974121,4600.128418,4452.948730,4384.102539,4514.615234,6028.000000,3.000000,69.000000,,,,0.000000,4.000000,4.000000,4.000000,4.000000,4.000000,4.000000,4.000000,4.000000,4.000000,4.000000,4.000000,4.000000,4.000000,4.000000,100.000000,,,,,,,,,,,,,,,,,,,,,,,,,,,,
1703409647.744049,1703409647.744904,116.000000,0.000000,4248.205078,4221.666504,4298.461426,4289.358887,4215.512695,4201.025879,4212.692383,4221.922852,4213.205078,4194.358887,4602.948730,4461.922852,4393.589844,4515.769043,6524.000000,3.000000,69.000000,,,,0.000000,4.000000,4.000000,4.000000,4.000000,4.000000,4.000000,4.000000,4.000000,4.000000,4.000000,4.000000,4.000000,4.000000,4.000000,100.000000,,,,,,,,,,,,,,,,,29.000000,0.000000,0.418205,0.440613,-0.573364,0.549744,0.968380,-0.243194,-0.048346,-9.333145,-46.635399,60.018456
1703409647.751857,1703409647.752712,117.000000,0.000000,4250.256348,4217.563965,4305.000000,4287.307617,4202.179688,4202.307617,4215.769043,4231.922852,4215.512695,4199.743652,4605.000000,4465.000000,4398.333496,4515.384766,7207.000000,3.000000,69.000000,,,,0.000000,4.000000,4.000000,4.000000,4.000000,4.000000,4.000000,4.000000,4.000000,4.000000,4.000000,4.000000,4.000000,4.000000,4.000000,100.000000,,,,,,,,,,,,,,,,,,,,,,,,,,,,
1703409647.759665,1703409647.760420,118.000000,0.000000,4246.025879,4204.230957,4301.538574,4280.769043,4201.282227,4201.025879,4212.307617,4231.922852,4212.307617,4200.256348,4607.563965,4465.000000,4394.487305,4516.922852,5779.000000,3.000000,69.000000,,,,0.000000,4.000000,4.000000,4.000000,4.000000,4.000000,4.000000,4.000000,4.000000,4.000000,4.000000,4.000000,4.000000,4.000000,4.000000,100.000000,,,,,,,,,,,,,,,,,,,,,,,,,,,,
1703409647.767473,1703409647.768228,119.000000,0.000000,4235.897461,4198.974121,4295.256348,4278.846191,4213.077148,4200.256348,4205.256348,4225.641113,4205.000000,4187.307617,4603.333496,4462.820313,4385.897461,4512.179688,6028.000000,3.000000,69.000000,,,,0.000000,4.000000,4.000000,4.000000,4.000000,4.000000,4.000000,4.000000,4.000000,4.000000,4.000000,4.000000,4.000000,4.000000,4.000000,100.000000,,,,,,,,,,,,,,,,,,,,,,,,,,,,
1703409647.775281,1703409647.775936,120.000000,0.000000,4236.410156,4202.307617,4293.205078,4280.641113,4211.025879,4199.743652,4205.641113,4214.487305,4196.025879,4180.000000,4595.128418,4456.538574,4379.358887,4504.615234,6524.000000,3.000000,69.000000,,,,0.000000,4.000000,4.000000,4.000000,4.000000,4.000000,4.000000,4.000000,4.000000,4.000000,4.000000,4.000000,4.000000,4.000000,4.000000,100.000000,,,,,,,,,,,,,,,,,30.000000,0.000000,0.417729,0.440674,-0.573547,0.549866,0.953241,-0.265657,-0.046392,-9.199831,-46.688526,60.116608
1703409647.783089,1703409647.783744,121.000000,0.000000,4245.000000,4204.230957,4295.641113,4279.358887,4203.333496,4198.589844,4208.846191,4201.794922,4189.615234,4185.897461,4592.307617,4455.000000,4381.922852,4508.333496,7207.000000,3.000000,69.000000,,,,0.000000,4.000000,4.000000,4.000000,4.000000,4.000000,4.000000,4.000000,4.000000,4.000000,4.000000,4.000000,4.000000,4.000000,4.000000,100.000000,,,,,,,,,,,,,,,,,,,,,,,,,,,,
1703409647.790897,1703409647.791452,122.000000,0.000000,4247.820313,4203.077148,4297.436035,4280.384766,4205.000000,4199.871582,4209.743652,4199.358887,4188.589844,4186.410156,4591.025879,4451.922852,4382.051270,4511.538574,5779.000000,3.000000,69.000000,,,,0.000000,4.000000,4.000000,4.000000,4.000000,4.000000,4.000000,4.000000,4.000000,4.000000,4.000000,4.000000,4.000000,4.000000,4.000000,100.000000,,,,,,,,,,,,,,,,,,,,,,,,,,,,
1703409647.798705,1703409647.799260,123.000000,0.000000,4245.897461,4203.205078,4295.897461,4281.153809,4205.512695,4199.230957,4210.641113,4196.666504,4187.436035,4179.743652,4587.051270,4446.922852,4373.846191,4505.512695,6028.000000,3.000000,69.000000,,,,0.000000,4.000000,4.000000,4.000000,4.000000,4.000000,4.000000,4.000000,4.000000,4.000000,4.000000,4.000000,4.000000,4.000000,4.000000,100.000000,,,,,,,,,,,,,,,,,,,,,,,,,,,,
1703409647.806513,1703409647.806968,124.000000,0.000000,4249.102539,4208.077148,4295.897461,4281.153809,4203.077148,4197.692383,4207.563965,4184.487305,4180.769043,4180.769043,4585.000000,4450.000000,4375.641113,4506.282227,6524.000000,3.000000,69.000000,,,,0.000000,4.000000,4.000000,4.000000,4.000000,4.000000,4.000000,4.000000,4.000000,4.000000,4.000000,4.000000,4.000000,4.000000,4.000000,100.000000,,,,,,,,,,,,,,,,,31.000000,0.000000,0.417297,0.440613,-0.573792,0.549988,0.956171,-0.269564,-0.055671,-9.146515,-46.619675,60.138283
1703409647.814321,1703409647.814776,125.000000,0.000000,4255.769043,4215.256348,4303.589844,4284.743652,4210.128418,4200.641113,4208.717773,4185.384766,4180.512695,4185.256348,4589.615234,4457.179688,4382.948730,4511.410156,7207.000000,3.000000,69.000000,,,,0.000000,4.000000,4.000000,4.000000,4.000000,4.000000,4.000000,4.000000,4.000000,4.000000,4.000000,4.000000,4.000000,4.000000,4.000000,100.000000,,,,,,,,,,,,,,,,,,,,,,,,,,,,
1703409647.822129,1703409647.822484,126.000000,0.000000,4255.256348,4217.692383,4311.538574,4288.589844,4215.769043,4202.820313,4212.307617,4198.846191,4192.307617,4187.820313,4596.025879,4461.922852,4383.846191,4512.051270,5779.000000,3.000000,69.000000,,,,0.000000,4.000000,4.000000,4.000000,4.000000,4.000000,4.000000,4.000000,4.000000,4.000000,4.000000,4.000000,4.000000,4.000000,4.000000,100.000000,,,,,,,,,,,,,,,,,,,,,,,,,,,,
1703409647.829937,1703409647.830392,127.000000,0.000000,4253.717773,4215.897461,4311.025879,4293.077148,4210.512695,4199.358887,4205.128418,4194.358887,4198.717773,4188.461426,4591.410156,4463.333496,4379.743652,4510.128418,69.000000,3.000000,69.000000,,,,0.000000,4.000000,4.000000,4.000000,4.000000,4.000000,4.000000,4.000000,4.000000,4.000000,4.000000,4.000000,4.000000,4.000000,4.000000,100.000000,,,,,,,,,,,,,,,,,,,,,,,,,,,,
1703409647.837745,1703409647.838200,0.000000,0.000000,4254.615234,4215.384766,4308.205078,4291.794922,4208.461426,4197.948730,4198.846191,4186.666504,4196.282227,4188.461426,4583.974121,4462.179688,4377.179688,4507.051270,5490.000000,3.000000,69.000000,,,,0.000000,4.000000,4.000000,4.000000,4.000000,4.000000,4.000000,4.000000,4.000000,4.000000,4.000000,4.000000,4.000000,4.000000,4.000000,100.000000,,,,,,,,,,,,,,,,,0.000000,0.000000,0.417145,0.440674,-0.573914,0.549927,0.954706,-0.258332,-0.054694,-9.215197,-46.541039,60.174454
1703409647.845553,1703409647.846108,1.000000,0.000000,4253.333496,4216.794922,4309.102539,4285.256348,4213.846191,4199.487305,4200.897461,4201.538574,4200.128418,4188.717773,4591.282227,4462.307617,4380.512695,4508.846191,5328.000000,3.000000,69.000000,,,,0.000000,4.000000,4.000000,4.000000,4.000000,4.000000,4.000000,4.000000,4.000000,4.000000,4.000000,4.000000,4.000000,4.000000,4.000000,100.000000,,,,,,,,,,,,,,,,,,,,,,,,,,,,
1703409647.853361,1703409647.853916,2.000000,0.000000,4253.589844,4214.871582,4309.871582,4283.205078,4214.102539,4201.025879,4204.102539,4218.205078,4203.077148,4188.077148,4602.051270,4467.436035,4384.871582,4518.077148,5173.000000,3.000000,69.000000,,,,0.000000,4.000000,4.000000,4.000000,4.000000,4.000000,4.000000,4.000000,4.000000,4.000000,4.000000,4.000000,4.000000,4.000000,4.000000,100.000000,,,,,,,,,,,,,,,,,,,,,,,,,,,,
1703409647.861169,1703409647.861824,3.000000,0.000000,4257.948730,4206.153809,4308.974121,4286.025879,4211.282227,4206.410156,4213.461426,4225.897461,4200.512695,4191.410156,4600.897461,4473.717773,4385.769043,4518.974121,5265.000000,3.000000,69.000000,,,,0.000000,4.000000,4.000000,4.000000,4.000000,4.000000,4.000000,4.000000,4.000000,4.000000,4.000000,4.000000,4.000000,4.000000,4.000000,100.000000,,,,,,,,,,,,,,,,,,,,,,,,,,,,
1703409647.868977,1703409647.869632,4.000000,0.000000,4254.743652,4204.487305,4311.666504,4283.974121,4215.512695,4213.077148,4219.871582,4235.256348,4207.563965,4198.205078,4599.487305,4476.922852,4386.794922,4514.358887,5036.000000,3.000000,69.000000,,,,0.000000,4.000000,4.000000,4.000000,4.000000,4.000000,4.000000,4.000000,4.000000,4.000000,4.000000,4.000000,4.000000,4.000000,4.000000,100.000000,1.000000,66.666664,4.000000,4.000000,3.000000,4.000000,4.000000,4.000000,4.000000,4.000000,4.000000,1.000000,4.000000,4.000000,4.000000,4.000000,1.000000,0.000000,0.417226,0.440674,-0.573914,0.549866,0.948358,-0.268587,-0.041997,-9.110344,-46.536938,60.190342
1703409647.876786,1703409647.877540,5.000000,0.000000,4247.179688,4216.410156,4312.948730,4278.974121,4214.358887,4212.051270,4215.897461,4238.461426,4217.692383,4200.384766,4607.051270,4478.077148,4394.102539,4515.641113,4864.000000,3.000000,69.000000,,,,0.000000,4.000000,4.000000,4.000000,4.000000,4.000000,4.000000,4.000000,4.000000,4.000000,4.000000,4.000000,4.000000,4.000000,4.000000,100.000000,,,,,,,,,,,,,,,,,,,,,,,,,,,,
1703409647.884594,1703409647.885348,6.000000,0.000000,4249.230957,4215.769043,4308.589844,4279.743652,4203.974121,4203.717773,4213.717773,4232.820313,4217.692383,4199.358887,4611.282227,4476.794922,4396.025879,4514.230957,3745.000000,3.000000,69.000000,,,,0.000000,4.000000,4.000000,4.000000,4.000000,4.000000,4.000000,4.000000,4.000000,4.000000,4.000000,4.000000,4.000000,4.000000,4.000000,100.000000,,,,,,,,,,,,,,,,,,,,,,,,,,,,
1703409647.892402,1703409647.893256,7.000000,0.000000,4250.512695,4201.410156,4307.563965,4281.922852,4204.358887,4201.666504,4215.256348,4234.102539,4216.666504,4200.256348,4606.282227,4477.948730,4388.974121,4508.205078,5263.000000,3.000000,69.000000,,,,0.000000,4.000000,4.000000,4.000000,4.000000,4.000000,4.000000,4.000000,4.000000,4.000000,4.000000,4.000000,4.000000,4.000000,4.000000,100.000000,,,,,,,,,,,,,,,,,,,,,,,,,,,,
1703409647.900210,1703409647.901063,8.000000,0.000000,4246.794922,4204.871582,4308.333496,4279.615234,4215.256348,4204.871582,4215.256348,4233.974121,4216.153809,4200.512695,4600.512695,4477.692383,4389.230957,4504.102539,4901.000000,3.000000,69.000000,,,,0.000000,4.000000,4.000000,4.000000,4.000000,4.000000,4.000000,4.000000,4.000000,4.000000,4.000000,4.000000,4.000000,4.000000,4.000000,100.000000,,,,,,,,,,,,,,,,,2.000000,0.000000,0.417348,0.440552,-0.574036,0.549744,0.944940,-0.254914,-0.046881,-9.049309,-46.466576,60.221306
1703409647.908018,1703409647.908971,9.000000,0.000000,4250.897461,4220.641113,4307.563965,4278.205078,4217.692383,4204.358887,4214.102539,4221.025879,4207.563965,4200.000000,4600.128418,4469.102539,4395.641113,4505.641113,5110.000000,3.000000,69.000000,,,,0.000000,4.000000,4.000000,4.000000,4.000000,4.000000,4.000000,4.000000,4.000000,4.000000,4.000000,4.000000,4.000000,4.000000,4.000000,100.000000,,,,,,,,,,,,,,,,,,,,,,,,,,,,
1703409647.915826,1703409647.916779,10.000000,0.000000,4252.692383,4217.948730,4308.974121,4283.589844,4215.512695,4206.153809,4215.000000,4213.717773,4200.256348,4201.410156,4601.282227,4460.769043,4392.692383,4508.205078,5778.000000,3.000000,69.000000,,,,0.000000,4.000000,4.000000,4.000000,4.000000,4.000000,4.000000,4.000000,4.000000,4.000000,4.000000,4.000000,4.000000,4.000000,4.000000,100.000000,,,,,,,,,,,,,,,,,,,,,,,,,,,,
1703409647.923634,1703409647.924487,11.000000,0.000000,4239.358887,4203.589844,4303.589844,4280.000000,4220.128418,4213.589844,4217.051270,4213.717773,4202.179688,4202.179688,4595.641113,4455.000000,4380.641113,4499.230957,6028.000000,3.000000,69.000000,,,,0.000000,4.000000,4.000000,4.000000,4.000000,4.000000,4.000000,4.000000,4.000000,4.000000,4.000000,4.000000,4.000000,4.000000,4.000000,100.000000,,,,,,,,,,,,,,,,,,,,,,,,,,,,
1703409647.931442,1703409647.932295,12.000000,0.000000,4226.410156,4197.436035,4291.666504,4264.230957,4222.307617,4218.077148,4216.153809,4205.256348,4201.282227,4201.282227,4588.333496,4446.538574,4377.051270,4486.794922,6524.000000,3.000000,69.000000,,,,0.000000,4.000000,4.000000,4.000000,4.000000,4.000000,4.000000,4.000000,4.000000,4.000000,4.000000,4.000000,4.000000,4.000000,4.000000,100.000000,,,,,,,,,,,,,,,,,3.000000,0.000000,0.417328,0.440491,-0.574097,0.549744,0.953730,-0.253937,-0.053717,-8.944378,-46.569920,60.165844
1703409647.939250,1703409647.940003,13.000000,0.000000,4229.615234,4199.615234,4290.256348,4264.743652,4217.051270,4215.769043,4215.256348,4196.794922,4200.512695,4201.922852,4593.589844,4446.410156,4385.769043,4493.205078,7207.000000,3.000000,69.000000,,,,0.000000,4.000000,4.000000,4.000000,4.000000,4.000000,4.000000,4.000000,4.000000,4.000000,4.000000,4.000000,4.000000,4.000000,4.000000,100.000000,,,,,,,,,,,,,,,,,,,,,,,,,,,,
1703409647.947058,1703409647.947811,14.000000,0.000000,4236.538574,4202.307617,4297.692383,4278.333496,4214.871582,4217.051270,4216.922852,4206.410156,4208.461426,4205.384766,4604.230957,4457.436035,4396.153809,4508.589844,5778.000000,3.000000,69.000000,,,,0.000000,4.000000,4.000000,4.000000,4.000000,4.000000,4.000000,4.000000,4.000000,4.000000,4.000000,4.000000,4.000000,4.000000,4.000000,100.000000,,,,,,,,,,,,,,,,,,,,,,,,,,,,
1703409647.954866,1703409647.955519,15.000000,0.000000,4234.230957,4202.692383,4301.025879,4278.461426,4217.307617,4219.871582,4218.974121,4222.820313,4215.000000,4205.000000,4606.153809,4462.948730,4398.461426,4511.153809,6028.000000,3.000000,69.000000,,,,0.000000,4.000000,4.000000,4.000000,4.000000,4.000000,4.000000,4.000000,4.000000,4.000000,4.000000,4.000000,4.000000,4.000000,4.000000,100.000000,,,,,,,,,,,,,,,,,,,,,,,,,,,,
1703409647.962674,1703409647.963327,16.000000,0.000000,4232.692383,4202.051270,4304.230957,4273.589844,4218.077148,4214.487305,4220.128418,4230.256348,4214.871582,4202.436035,4608.717773,4465.512695,4395.128418,4508.205078,0.000000,3.000000,69.000000,,,,0.000000,4.000000,4.000000,4.000000,4.000000,4.000000,4.000000,4.000000,4.000000,4.000000,4.000000,4.000000,4.000000,4.000000,4.000000,100.000000,,,,,,,,,,,,,,,,,4.000000,0.000000,0.417401,0.440491,-0.574219,0.549561,0.961055,-0.265169,-0.050787,-8.983274,-46.529594,60.249260
1703409647.970482,1703409647.971036,17.000000,0.000000,4238.846191,4208.205078,4307.820313,4276.282227,4215.897461,4209.487305,4219.487305,4232.948730,4215.128418,4206.922852,4617.436035,4474.615234,4400.512695,4510.000000,0.000000,3.000000,69.000000,,,,0.000000,4.000000,4.000000,4.000000,4.000000,4.000000,4.000000,4.000000,4.000000,4.000000,4.000000,4.000000,4.000000,4.000000,4.000000,100.000000,,,,,,,,,,,,,,,,,,,,,,,,,,,,
1703409647.978290,1703409647.978843,18.000000,0.000000,4248.589844,4218.461426,4312.307617,4283.077148,4217.436035,4211.282227,4218.717773,4235.384766,4215.256348,4216.922852,4625.384766,4485.128418,4412.820313,4518.717773,0.000000,3.000000,69.000000,,,,0.000000,4.000000,4.000000,4.000000,4.000000,4.000000,4.000000,4.000000,4.000000,4.000000,4.000000,4.000000,4.000000,4.000000,4.000000,100.000000,,,,,,,,,,,,,,,,,,,,,,,,,,,,
1703409647.986098,1703409647.986552,19.000000,0.000000,4253.077148,4219.743652,4324.615234,4285.000000,4220.641113,4210.897461,4220.769043,4237.820313,4216.410156,4220.897461,4627.692383,4494.102539,4416.922852,4528.333496,0.000000,3.000000,69.000000,,,,0.000000,4.000000,4.000000,4.000000,4.000000,4.000000,4.000000,4.000000,4.000000,4.000000,4.000000,4.000000,4.000000,4.000000,4.000000,100.000000,,,,,,,,,,,,,,,,,,,,,,,,,,,,
1703409647.993906,1703409647.994360,20.000000,0.000000,4248.205078,4212.563965,4326.538574,4282.692383,4221.153809,4205.512695,4220.384766,4235.128418,4213.974121,4213.974121,4621.025879,4490.384766,4407.563965,4523.846191,0.000000,3.000000,69.000000,,,,0.000000,4.000000,4.000000,4.000000,4.000000,4.000000,4.000000,4.000000,4.000000,4.000000,4.000000,4.000000,4.000000,4.000000,4.000000,100.000000,,,,,,,,,,,,,,,,,5.000000,0.000000,0.417501,0.440552,-0.574158,0.549500,0.949335,-0.257356,-0.053229,-8.901613,-46.359966,60.390999
1703409648.001714,1703409648.002068,21.000000,0.000000,4248.846191,4215.641113,4315.128418,4285.641113,4220.641113,4202.051270,4218.333496,4228.461426,4206.666504,4209.487305,4614.102539,4477.436035,4401.794922,4517.820313,0.000000,3.000000,69.000000,,,,0.000000,4.000000,4.000000,4.000000,4.000000,4.000000,4.000000,4.000000,4.000000,4.000000,4.000000,4.000000,4.000000,4.000000,4.000000,100.000000,,,,,,,,,,,,,,,,,,,,,,,,,,,,
1703409648.009522,1703409648.009876,22.000000,0.000000,4250.256348,4218.974121,4315.641113,4288.077148,4218.846191,4199.871582,4218.846191,4221.153809,4205.512695,4211.410156,4616.025879,4475.384766,4406.410156,4521.922852,0.000000,3.000000,69.000000,,,,0.000000,4.000000,4.000000,4.000000,4.000000,4.000000,4.000000,4.000000,4.000000,4.000000,4.000000,4.000000,4.000000,4.000000,4.000000,100.000000,,,,,,,,,,,,,,,,,,,,,,,,,,,,
1703409648.017331,1703409648.017584,23.000000,0.000000,4241.538574,4208.461426,4321.538574,4282.563965,4215.512695,4197.436035,4217.307617,4210.641113,4207.051270,4207.307617,4616.410156,4477.820313,4402.307617,4516.282227,0.000000,3.000000,69.000000,,,,0.000000,4.000000,4.000000,4.000000,4.000000,4.000000,4.000000,4.000000,4.000000,4.000000,4.000000,4.000000,4.000000,4.000000,4.000000,100.000000,,,,,,,,,,,,,,,,,,,,,,,,,,,,
1703409648.025139,1703409648.025492,24.000000,0.000000,4240.128418,4207.692383,4316.153809,4278.974121,4217.563965,4200.897461,4218.205078,4206.794922,4204.358887,4201.410156,4614.230957,4473.461426,4396.794922,4507.307617,0.000000,3.000000,69.000000,,,,0.000000,4.000000,4.000000,4.000000,4.000000,4.000000,4.000000,4.000000,4.000000,4.000000,4.000000,4.000000,4.000000,4.000000,4.000000,100.000000,,,,,,,,,,,,,,,,,6.000000,0.000000,0.417376,0.440674,-0.574097,0.549561,0.949823,-0.260774,-0.042486,-8.811452,-46.307304,60.451900
1703409648.032946,1703409648.033299,25.000000,0.000000,4250.512695,4219.230957,4316.922852,4283.077148,4220.512695,4209.487305,4226.666504,4211.666504,4206.538574,4204.615234,4618.974121,4475.128418,4403.846191,4517.948730,0.000000,3.000000,69.000000,,,,0.000000,4.000000,4.000000,4.000000,4.000000,4.000000,4.000000,4.000000,4.000000,4.000000,4.000000,4.000000,4.000000,4.000000,4.000000,100.000000,,,,,,,,,,,,,,,,,,,,,,,,,,,,
1703409648.040755,1703409648.041207,26.000000,0.000000,4250.128418,4218.205078,4324.102539,4282.820313,4218.333496,4217.179688,4231.922852,4217.436035,4212.820313,4206.410156,4618.461426,4478.974121,4405.384766,4524.102539,0.000000,3.000000,69.000000,,,,0.000000,4.000000,4.000000,4.000000,4.000000,4.000000,4.000000,4.000000,4.000000,4.000000,4.000000,4.000000,4.000000,4.000000,4.000000,100.000000,,,,,,,,,,,,,,,,,,,,,,,,,,,,
1703409648.048563,1703409648.049015,27.000000,0.000000,4241.538574,4211.410156,4320.256348,4278.846191,4221.282227,4218.974121,4231.025879,4225.384766,4212.051270,4201.410156,4610.641113,4476.282227,4394.487305,4508.974121,0.000000,3.000000,69.000000,,,,0.000000,4.000000,4.000000,4.000000,4.000000,4.000000,4.000000,4.000000,4.000000,4.000000,4.000000,4.000000,4.000000,4.000000,4.000000,100.000000,,,,,,,,,,,,,,,,,,,,,,,,,,,,
1703409648.056371,1703409648.056923,28.000000,0.000000,4245.641113,4216.922852,4320.128418,4286.410156,4228.589844,4215.512695,4233.974121,4235.897461,4212.307617,4200.128418,4612.307617,4480.897461,4392.820313,4509.358887,0.000000,3.000000,69.000000,,,,0.000000,4.000000,4.000000,4.000000,4.000000,4.000000,4.000000,4.000000,4.000000,4.000000,4.000000,4.000000,4.000000,4.000000,4.000000,100.000000,,,,,,,,,,,,,,,,,7.000000,0.000000,0.417151,0.440735,-0.574097,0.549683,0.948358,-0.274448,-0.047369,-8.796973,-46.493240,60.440044
1703409648.064179,1703409648.064731,29.000000,0.000000,4251.922852,4221.666504,4329.871582,4295.128418,4228.077148,4216.666504,4237.179688,4239.487305,4217.948730,4202.563965,4617.820313,4493.077148,4400.128418,4523.846191,0.000000,3.000000,69.000000,,,,0.000000,4.000000,4.000000,4.000000,4.000000,4.000000,4.000000,4.000000,4.000000,4.000000,4.000000,4.000000,4.000000,4.000000,4.000000,100.000000,,,,,,,,,,,,,,,,,,,,,,,,,,,,
1703409648.071987,1703409648.072639,30.000000,0.000000,4247.051270,4218.205078,4328.077148,4291.282227,4224.615234,4218.461426,4235.384766,4235.512695,4214.743652,4201.410156,4613.077148,4493.077148,4398.333496,4514.615234,0.000000,3.000000,69.000000,,,,0.000000,4.000000,4.000000,4.000000,4.000000,4.000000,4.000000,4.000000,4.000000,4.000000,4.000000,4.000000,4.000000,4.000000,4.000000,100.000000,,,,,,,,,,,,,,,,,,,,,,,,,,,,
1703409648.079795,1703409648.080447,31.000000,0.000000,4242.820313,4215.769043,4318.589844,4285.000000,4222.563965,4210.128418,4232.307617,4230.000000,4207.051270,4197.820313,4610.128418,4484.615234,4395.128418,4498.589844,0.000000,3.000000,69.000000,,,,0.000000,4.000000,4.000000,4.000000,4.000000,4.000000,4.000000,4.000000,4.000000,4.000000,4.000000,4.000000,4.000000,4.000000,4.000000,100.000000,,,,,,,,,,,,,,,,,,,,,,,,,,,,
1703409648.087603,1703409648.088355,32.000000,0.000000,4246.282227,4216.666504,4321.794922,4289.230957,4219.102539,4203.333496,4231.025879,4222.179688,4209.230957,4201.666504,4616.538574,4485.256348,4398.461426,4512.563965,0.000000,3.000000,69.000000,,,,0.000000,4.000000,4.000000,4.000000,4.000000,4.000000,4.000000,4.000000,4.000000,4.000000,4.000000,4.000000,4.000000,4.000000,4.000000,100.000000,,,,,,,,,,,,,,,,,8.000000,0.000000,0.417373,0.440369,-0.574158,0.549744,0.963008,-0.270541,-0.055183,-8.917275,-46.660583,60.429371
1703409648.095411,1703409648.096163,33.000000,0.000000,4247.179688,4222.436035,4324.871582,4291.794922,4221.538574,4208.846191,4229.615234,4217.179688,4212.820313,4213.077148,4617.820313,4487.179688,4401.282227,4524.358887,0.000000,3.000000,69.000000,,,,0.000000,4.000000,4.000000,4.000000,4.000000,4.000000,4.000000,4.000000,4.000000,4.000000,4.000000,4.000000,4.000000,4.000000,4.000000,100.000000,,,,,,,,,,,,,,,,,,,,,,,,,,,,
1703409648.103219,1703409648.104071,34.000000,0.000000,4241.794922,4226.538574,4313.974121,4290.128418,4229.487305,4216.282227,4226.025879,4216.666504,4205.256348,4217.307617,4614.743652,4481.922852,4401.922852,4508.974121,0.000000,3.000000,69.000000,,,,0.000000,4.000000,4.000000,4.000000,4.000000,4.000000,4.000000,4.000000,4.000000,4.000000,4.000000,4.000000,4.000000,4.000000,4.000000,100.000000,,,,,,,,,,,,,,,,,,,,,,,,,,,,
1703409648.111027,1703409648.111879,35.000000,0.000000,4245.000000,4230.512695,4312.307617,4294.230957,4232.563965,4216.025879,4225.641113,4211.794922,4200.769043,4214.487305,4616.538574,4480.000000,4402.948730,4507.820313,0.000000,3.000000,69.000000,,,,0.000000,4.000000,4.000000,4.000000,4.000000,4.000000,4.000000,4.000000,4.000000,4.000000,4.000000,4.000000,4.000000,4.000000,4.000000,100.000000,,,,,,,,,,,,,,,,,,,,,,,,,,,,
1703409648.118835,1703409648.119587,36.000000,0.000000,4249.102539,4227.948730,4321.666504,4295.897461,4230.256348,4215.641113,4227.948730,4206.922852,4210.256348,4215.512695,4616.025879,4477.692383,4400.641113,4518.846191,0.000000,3.000000,69.000000,,,,0.000000,4.000000,4.000000,4.000000,4.000000,4.000000,4.000000,4.000000,4.000000,4.000000,4.000000,4.000000,4.000000,4.000000,4.000000,100.000000,,,,,,,,,,,,,,,,,9.000000,0.000000,0.417407,0.440247,-0.574402,0.549561,0.959590,-0.267122,-0.048346,-8.875548,-46.611191,60.603100
1703409648.126643,1703409648.127395,37.000000,0.000000,4242.179688,4220.512695,4319.743652,4292.563965,4227.692383,4218.717773,4228.717773,4212.307617,4217.692383,4217.051270,4612.563965,4474.615234,4396.153809,4512.692383,0.000000,3.000000,69.000000,,,,0.000000,4.000000,4.000000,4.000000,4.000000,4.000000,4.000000,4.000000,4.000000,4.000000,4.000000,4.000000,4.000000,4.000000,4.000000,100.000000,,,,,,,,,,,,,,,,,,,,,,,,,,,,
1703409648.134451,1703409648.135103,38.000000,0.000000,4241.666504,4225.256348,4316.922852,4292.820313,4230.384766,4221.282227,4230.641113,4224.487305,4217.692383,4216.153809,4616.153809,4482.307617,4396.538574,4509.743652,0.000000,3.000000,69.000000,,,,0.000000,4.000000,4.000000,4.000000,4.000000,4.000000,4.000000,4.000000,4.000000,4.000000,4.000000,4.000000,4.000000,4.000000,4.000000,100.000000,,,,,,,,,,,,,,,,,,,,,,,,,,,,
1703409648.142259,1703409648.142911,39.000000,0.000000,4247.948730,4226.666504,4323.077148,4293.205078,4228.974121,4220.641113,4234.102539,4230.384766,4217.692383,4216.538574,4617.051270,4487.179688,4396.666504,4521.282227,0.000000,3.000000,69.000000,,,,0.000000,4.000000,4.000000,4.000000,4.000000,4.000000,4.000000,4.000000,4.000000,4.000000,4.000000,4.000000,4.000000,4.000000,4.000000,100.000000,,,,,,,,,,,,,,,,,,,,,,,,,,,,
1703409648.150067,1703409648.150619,40.000000,0.000000,4246.410156,4216.794922,4323.589844,4292.179688,4221.153809,4217.307617,4234.487305,4231.153809,4217.948730,4217.051270,4613.461426,4482.563965,4395.256348,4521.410156,0.000000,3.000000,69.000000,,,,0.000000,4.000000,4.000000,4.000000,4.000000,4.000000,4.000000,4.000000,4.000000,4.000000,4.000000,4.000000,4.000000,4.000000,4.000000,100.000000,,,,,,,,,,,,,,,,,10.000000,0.000000,0.417552,0.440186,-0.574402,0.549500,0.956171,-0.271518,-0.049811,-8.721327,-46.550072,60.542789
1703409648.157875,1703409648.158527,41.000000,0.000000,4243.077148,4220.769043,4322.307617,4293.974121,4223.461426,4217.692383,4234.743652,4233.205078,4215.512695,4216.922852,4623.589844,4492.692383,4400.769043,4519.102539,0.000000,3.000000,69.000000,,,,0.000000,4.000000,4.000000,4.000000,4.000000,4.000000,4.000000,4.000000,4.000000,4.000000,4.000000,4.000000,4.000000,4.000000,4.000000,100.000000,,,,,,,,,,,,,,,,,,,,,,,,,,,,
1703409648.165683,1703409648.166335,42.000000,0.000000,4248.077148,4235.000000,4328.461426,4296.538574,4234.230957,4218.717773,4237.051270,4233.205078,4212.692383,4216.282227,4636.025879,4508.333496,4410.512695,4532.307617,0.000000,3.000000,69.000000,,,,0.000000,4.000000,4.000000,4.000000,4.000000,4.000000,4.000000,4.000000,4.000000,4.000000,4.000000,4.000000,4.000000,4.000000,4.000000,100.000000,,,,,,,,,,,,,,,,,,,,,,,,,,,,
1703409648.173491,1703409648.174143,43.000000,0.000000,4257.307617,4235.256348,4332.307617,4300.897461,4235.256348,4215.384766,4235.897461,4230.128418,4215.256348,4221.025879,4633.846191,4507.051270,4418.846191,4541.794922,0.000000,3.000000,69.000000,,,,0.000000,4.000000,4.000000,4.000000,4.000000,4.000000,4.000000,4.000000,4.000000,4.000000,4.000000,4.000000,4.000000,4.000000,4.000000,100.000000,,,,,,,,,,,,,,,,,,,,,,,,,,,,
1703409648.181300,1703409648.181851,44.000000,0.000000,4262.436035,4232.436035,4336.666504,4305.128418,4230.384766,4214.487305,4233.717773,4228.333496,4217.948730,4229.358887,4633.717773,4505.000000,4418.589844,4540.128418,0.000000,3.000000,69.000000,,,,0.000000,4.000000,4.000000,4.000000,4.000000,4.000000,4.000000,4.000000,4.000000,4.000000,4.000000,4.000000,4.000000,4.000000,4.000000,100.000000,,,,,,,,,,,,,,,,,11.000000,0.000000,0.417575,0.440247,-0.574280,0.549561,0.947870,-0.267611,-0.048834,-8.832527,-46.428398,60.505180
1703409648.189108,1703409648.189659,45.000000,0.000000,4262.436035,4236.025879,4344.743652,4306.794922,4231.538574,4217.307617,4234.230957,4229.230957,4216.922852,4231.025879,4642.179688,4510.128418,4412.563965,4538.974121,0.000000,3.000000,69.000000,,,,0.000000,4.000000,4.000000,4.000000,4.000000,4.000000,4.000000,4.000000,4.000000,4.000000,4.000000,4.000000,4.000000,4.000000,4.000000,100.000000,,,,,,,,,,,,,,,,,,,,,,,,,,,,
1703409648.196916,1703409648.197367,46.000000,0.000000,4262.563965,4235.000000,4342.692383,4308.589844,4234.358887,4216.794922,4235.512695,4227.307617,4218.717773,4232.179688,4643.974121,4512.948730,4419.743652,4544.102539,0.000000,3.000000,69.000000,,,,0.000000,4.000000,4.000000,4.000000,4.000000,4.000000,4.000000,4.000000,4.000000,4.000000,4.000000,4.000000,4.000000,4.000000,4.000000,100.000000,,,,,,,,,,,,,,,,,,,,,,,,,,,,
1703409648.204724,1703409648.205175,47.000000,0.000000,4266.794922,4234.230957,4335.128418,4306.282227,4235.641113,4216.538574,4234.743652,4222.436035,4216.922852,4232.820313,4638.717773,4510.128418,4428.461426,4549.230957,0.000000,3.000000,69.000000,,,,0.000000,4.000000,4.000000,4.000000,4.000000,4.000000,4.000000,4.000000,4.000000,4.000000,4.000000,4.000000,4.000000,4.000000,4.000000,100.000000,,,,,,,,,,,,,,,,,,,,,,,,,,,,
1703409648.212532,1703409648.212884,48.000000,0.000000,4259.615234,4233.461426,4328.333496,4298.333496,4235.128418,4219.615234,4236.025879,4216.025879,4205.256348,4222.436035,4629.230957,4496.922852,4412.436035,4539.230957,0.000000,3.000000,69.000000,,,,0.000000,4.000000,4.000000,4.000000,4.000000,4.000000,4.000000,4.000000,4.000000,4.000000,4.000000,4.000000,4.000000,4.000000,4.000000,100.000000,,,,,,,,,,,,,,,,,12.000000,0.000000,0.417634,0.440430,-0.574097,0.549561,0.965450,-0.264681,-0.037602,-8.682608,-46.518890,60.537994
1703409648.220340,1703409648.220691,49.000000,0.000000,4246.025879,4228.077148,4317.051270,4295.128418,4233.333496,4220.384766,4238.717773,4211.666504,4198.717773,4210.897461,4615.641113,4481.666504,4391.794922,4518.205078,0.000000,3.000000,69.000000,,,,0.000000,4.000000,4.000000,4.000000,4.000000,4.000000,4.000000,4.000000,4.000000,4.000000,4.000000,4.000000,4.000000,4.000000,4.000000,100.000000,,,,,,,,,,,,,,,,,,,,,,,,,,,,
1703409648.228148,1703409648.228400,50.000000,0.000000,4246.794922,4223.205078,4311.153809,4297.692383,4233.589844,4220.641113,4237.820313,4219.743652,4208.333496,4215.384766,4613.717773,4483.461426,4396.025879,4514.102539,0.000000,3.000000,69.000000,,,,0.000000,4.000000,4.000000,4.000000,4.000000,4.000000,4.000000,4.000000,4.000000,4.000000,4.000000,4.000000,4.000000,4.000000,4.000000,100.000000,,,,,,,,,,,,,,,,,,,,,,,,,,,,
1703409648.235956,1703409648.236307,51.000000,0.000000,4247.820313,4217.692383,4318.077148,4293.717773,4227.563965,4220.641113,4234.743652,4230.512695,4216.153809,4216.922852,4617.820313,4487.179688,4400.641113,4520.256348,0.000000,3.000000,69.000000,,,,0.000000,4.000000,4.000000,4.000000,4.000000,4.000000,4.000000,4.000000,4.000000,4.000000,4.000000,4.000000,4.000000,4.000000,4.000000,100.000000,,,,,,,,,,,,,,,,,,,,,,,,,,,,
1703409648.243764,1703409648.244115,52.000000,0.000000,4235.128418,4211.153809,4322.820313,4289.230957,4217.563965,4216.538574,4233.461426,4231.794922,4213.589844,4206.666504,4612.563965,4475.256348,4390.897461,4510.512695,0.000000,3.000000,69.000000,,,,0.000000,4.000000,4.000000,4.000000,4.000000,4.000000,4.000000,4.000000,4.000000,4.000000,4.000000,4.000000,4.000000,4.000000,4.000000,100.000000,,,,,,,,,,,,,,,,,13.000000,0.000000,0.417637,0.440430,-0.574036,0.549622,0.955683,-0.262239,-0.047369,-8.764347,-46.433670,60.600861
1703409648.251572,1703409648.252023,53.000000,0.000000,4230.769043,4211.410156,4320.769043,4290.897461,4219.230957,4213.589844,4233.974121,4237.307617,4215.512695,4208.077148,4616.666504,4476.666504,4395.769043,4507.820313,0.000000,3.000000,69.000000,,,,0.000000,4.000000,4.000000,4.000000,4.000000,4.000000,4.000000,4.000000,4.000000,4.000000,4.000000,4.000000,4.000000,4.000000,4.000000,100.000000,,,,,,,,,,,,,,,,,,,,,,,,,,,,
1703409648.259380,1703409648.259831,54.000000,0.000000,4245.256348,4218.077148,4325.897461,4294.358887,4227.436035,4218.974121,4235.897461,4251.666504,4221.922852,4218.461426,4633.333496,4499.102539,4412.436035,4524.230957,0.000000,3.000000,69.000000,,,,0.000000,4.000000,4.000000,4.000000,4.000000,4.000000,4.000000,4.000000,4.000000,4.000000,4.000000,4.000000,4.000000,4.000000,4.000000,100.000000,,,,,,,,,,,,,,,,,,,,,,,,,,,,
1703409648.267188,1703409648.267739,55.000000,0.000000,4247.820313,4218.589844,4327.307617,4295.128418,4223.974121,4223.846191,4238.589844,4251.410156,4221.153809,4217.436035,4634.487305,4501.410156,4411.794922,4526.410156,0.000000,3.000000,69.000000,,,,0.000000,4.000000,4.000000,4.000000,4.000000,4.000000,4.000000,4.000000,4.000000,4.000000,4.000000,4.000000,4.000000,4.000000,4.000000,100.000000,,,,,,,,,,,,,,,,,,,,,,,,,,,,
1703409648.274996,1703409648.275547,56.000000,0.000000,4232.051270,4212.563965,4313.077148,4284.358887,4217.179688,4222.051270,4235.769043,4235.384766,4213.333496,4209.487305,4616.922852,4480.512695,4397.436035,4507.563965,0.000000,3.000000,69.000000,,,,0.000000,4.000000,4.000000,4.000000,4.000000,4.000000,4.000000,4.000000,4.000000,4.000000,4.000000,4.000000,4.000000,4.000000,4.000000,100.000000,,,,,,,,,,,,,,,,,14.000000,0.000000,0.417579,0.440247,-0.574219,0.549622,0.956171,-0.265169,-0.049811,-8.837913,-46.606968,60.540775
1703409648.282804,1703409648.283455,57.000000,0.000000,4229.358887,4215.512695,4304.358887,4278.205078,4220.256348,4218.846191,4230.641113,4226.282227,4210.256348,4208.846191,4611.153809,4471.410156,4397.051270,4500.256348,0.000000,3.000000,69.000000,,,,0.000000,4.000000,4.000000,4.000000,4.000000,4.000000,4.000000,4.000000,4.000000,4.000000,4.000000,4.000000,4.000000,4.000000,4.000000,100.000000,,,,,,,,,,,,,,,,,,,,,,,,,,,,
1703409648.290612,1703409648.291263,58.000000,0.000000,4243.846191,4224.615234,4311.794922,4289.358887,4222.563965,4217.051270,4232.563965,4229.743652,4214.871582,4218.333496,4626.153809,4482.436035,4414.102539,4516.025879,0.000000,3.000000,69.000000,,,,0.000000,4.000000,4.000000,4.000000,4.000000,4.000000,4.000000,4.000000,4.000000,4.000000,4.000000,4.000000,4.000000,4.000000,4.000000,100.000000,,,,,,,,,,,,,,,,,,,,,,,,,,,,
1703409648.298420,1703409648.299171,59.000000,0.000000,4252.179688,4224.230957,4320.769043,4295.512695,4219.743652,4213.333496,4230.641113,4229.230957,4219.230957,4231.025879,4637.307617,4498.205078,4427.563965,4536.538574,0.000000,3.000000,69.000000,,,,0.000000,4.000000,4.000000,4.000000,4.000000,4.000000,4.000000,4.000000,4.000000,4.000000,4.000000,4.000000,4.000000,4.000000,4.000000,100.000000,,,,,,,,,,,,,,,,,,,,,,,,,,,,
1703409648.306228,1703409648.306979,60.000000,0.000000,4249.487305,4217.436035,4321.666504,4278.077148,4217.563965,4204.615234,4221.666504,4223.205078,4219.871582,4231.922852,4636.794922,4503.461426,4428.717773,4542.563965,0.000000,3.000000,69.000000,,,,0.000000,4.000000,4.000000,4.000000,4.000000,4.000000,4.000000,4.000000,4.000000,4.000000,4.000000,4.000000,4.000000,4.000000,4.000000,100.000000,,,,,,,,,,,,,,,,,15.000000,0.000000,0.417823,0.440247,-0.574158,0.549500,0.951288,-0.259797,-0.046392,-8.870788,-46.629604,60.486698
1703409648.314036,1703409648.314687,61.000000,0.000000,4247.820313,4217.436035,4322.179688,4264.871582,4216.538574,4202.051270,4222.051270,4222.820313,4219.743652,4222.563965,4632.051270,4498.974121,4421.025879,4537.436035,0.000000,3.000000,69.000000,,,,0.000000,4.000000,4.000000,4.000000,4.000000,4.000000,4.000000,4.000000,4.000000,4.000000,4.000000,4.000000,4.000000,4.000000,4.000000,100.000000,,,,,,,,,,,,,,,,,,,,,,,,,,,,
1703409648.321844,1703409648.322495,62.000000,0.000000,4249.102539,4219.358887,4318.846191,4271.794922,4217.436035,4204.871582,4229.615234,4223.717773,4218.589844,4214.358887,4624.615234,4491.410156,4412.436035,4533.846191,0.000000,3.000000,69.000000,,,,0.000000,4.000000,4.000000,4.000000,4.000000,4.000000,4.000000,4.000000,4.000000,4.000000,4.000000,4.000000,4.000000,4.000000,4.000000,100.000000,,,,,,,,,,,,,,,,,,,,,,,,,,,,
1703409648.329652,1703409648.330203,63.000000,0.000000,4248.717773,4215.641113,4311.666504,4272.179688,4217.948730,4205.000000,4232.436035,4217.563965,4211.538574,4205.000000,4615.256348,4487.820313,4409.102539,4527.436035,0.000000,3.000000,69.000000,,,,0.000000,4.000000,4.000000,4.000000,4.000000,4.000000,4.000000,4.000000,4.000000,4.000000,4.000000,4.000000,4.000000,4.000000,4.000000,100.000000,,,,,,,,,,,,,,,,,,,,,,,,,,,,
1703409648.337460,1703409648.338011,64.000000,0.000000,4249.615234,4216.025879,4313.589844,4262.948730,4217.307617,4205.769043,4227.179688,4216.666504,4203.846191,4198.974121,4612.436035,4486.794922,4405.256348,4522.692383,5489.000000,3.000000,69.000000,,,,0.000000,4.000000,4.000000,4.000000,4.000000,4.000000,4.000000,4.000000,4.000000,4.000000,4.000000,4.000000,4.000000,4.000000,4.000000,100.000000,,,,,,,,,,,,,,,,,16.000000,0.000000,0.417778,0.440369,-0.574097,0.549500,0.963497,-0.249542,-0.041997,-8.850376,-46.449978,60.638027
1703409648.345269,1703409648.345719,65.000000,0.000000,4250.256348,4218.333496,4318.974121,4260.000000,4216.538574,4206.922852,4221.794922,4223.974121,4203.974121,4201.794922,4619.871582,4491.666504,4400.128418,4532.051270,5318.000000,3.000000,69.000000,,,,0.000000,4.000000,4.000000,4.000000,4.000000,4.000000,4.000000,4.000000,4.000000,4.000000,4.000000,4.000000,4.000000,4.000000,4.000000,100.000000,,,,,,,,,,,,,,,,,,,,,,,,,,,,
1703409648.353077,1703409648.353527,66.000000,0.000000,4243.461426,4210.512695,4315.000000,4262.563965,4215.128418,4203.717773,4222.436035,4225.000000,4207.307617,4202.692383,4617.307617,4493.461426,4396.410156,4533.974121,5170.000000,3.000000,69.000000,,,,0.000000,4.000000,4.000000,4.000000,4.000000,4.000000,4.000000,4.000000,4.000000,4.000000,4.000000,4.000000,4.000000,4.000000,4.000000,100.000000,,,,,,,,,,,,,,,,,,,,,,,,,,,,
1703409648.360885,1703409648.361235,67.000000,0.000000,4242.692383,4210.512695,4306.666504,4262.307617,4214.615234,4199.871582,4223.461426,4219.102539,4205.769043,4197.307617,4604.743652,4480.512695,4393.717773,4520.769043,5272.000000,3.000000,69.000000,,,,0.000000,4.000000,4.000000,4.000000,4.000000,4.000000,4.000000,4.000000,4.000000,4.000000,4.000000,4.000000,4.000000,4.000000,4.000000,100.000000,,,,,,,,,,,,,,,,,,,,,,,,,,,,
1703409648.368693,1703409648.369043,68.000000,0.000000,4258.846191,4221.666504,4310.000000,4263.589844,4216.794922,4202.051270,4219.615234,4216.410156,4200.897461,4197.436035,4606.153809,4477.051270,4394.102539,4522.436035,5036.000000,3.000000,69.000000,,,,0.000000,4.000000,4.000000,4.000000,4.000000,4.000000,4.000000,4.000000,4.000000,4.000000,4.000000,4.000000,4.000000,4.000000,4.000000,100.000000,1.000000,91.666664,4.000000,4.000000,4.000000,4.000000,4.000000,4.000000,4.000000,4.000000,4.000000,3.000000,4.000000,4.000000,4.000000,4.000000,17.000000,0.000000,0.417849,0.440613,-0.573975,0.549377,0.959590,-0.257844,-0.042974,-8.815338,-46.471645,60.507557
1703409648.376501,1703409648.376751,69.000000,0.000000,4271.538574,4222.436035,4321.410156,4270.000000,4217.307617,4202.692383,4215.384766,4215.897461,4202.692383,4203.461426,4619.871582,4492.563965,4402.179688,4538.846191,4868.000000,3.000000,69.000000,,,,0.000000,4.000000,4.000000,4.000000,4.000000,4.000000,4.000000,4.000000,4.000000,4.000000,4.000000,4.000000,4.000000,4.000000,4.000000,100.000000,,,,,,,,,,,,,,,,,,,,,,,,,,,,
1703409648.384309,1703409648.384559,70.000000,0.000000,4265.000000,4221.153809,4325.384766,4272.051270,4214.743652,4201.922852,4219.358887,4213.846191,4202.179688,4203.974121,4618.205078,4498.205078,4404.743652,4543.846191,3745.000000,3.000000,69.000000,,,,0.000000,4.000000,4.000000,4.000000,4.000000,4.000000,4.000000,4.000000,4.000000,4.000000,4.000000,4.000000,4.000000,4.000000,4.000000,100.000000,,,,,,,,,,,,,,,,,,,,,,,,,,,,
1703409648.392117,1703409648.392267,71.000000,0.000000,4261.282227,4232.179688,4323.077148,4275.897461,4216.538574,4203.077148,4223.461426,4203.846191,4191.922852,4198.461426,4608.846191,4487.307617,4394.871582,4538.717773,5263.000000,3.000000,69.000000,,,,0.000000,4.000000,4.000000,4.000000,4.000000,4.000000,4.000000,4.000000,4.000000,4.000000,4.000000,4.000000,4.000000,4.000000,4.000000,100.000000,,,,,,,,,,,,,,,,,,,,,,,,,,,,
1703409648.399925,1703409648.400075,72.000000,0.000000,4272.051270,4238.974121,4322.179688,4283.589844,4220.384766,4202.436035,4221.153809,4189.487305,4189.230957,4198.589844,4613.461426,4484.487305,4399.487305,4539.102539,4901.000000,3.000000,69.000000,,,,0.000000,4.000000,4.000000,4.000000,4.000000,4.000000,4.000000,4.000000,4.000000,4.000000,4.000000,4.000000,4.000000,4.000000,4.000000,100.000000,,,,,,,,,,,,,,,,,18.000000,0.000000,0.417929,0.440613,-0.573975,0.549316,0.949823,-0.251007,-0.042974,-9.000471,-46.441151,60.473469
1703409648.407733,1703409648.407783,73.000000,0.000000,4268.846191,4234.230957,4317.307617,4280.256348,4220.000000,4206.282227,4219.615234,4188.077148,4199.358887,4205.384766,4614.487305,4486.538574,4410.256348,4540.256348,5110.000000,3.000000,69.000000,,,,0.000000,4.000000,4.000000,4.000000,4.000000,4.000000,4.000000,4.000000,4.000000,4.000000,4.000000,4.000000,4.000000,4.000000,4.000000,100.000000,,,,,,,,,,,,,,,,,,,,,,,,,,,,
1703409648.415541,1703409648.415691,74.000000,0.000000,4250.000000,4229.743652,4308.077148,4271.025879,4222.948730,4213.974121,4222.948730,4198.461426,4209.102539,4210.000000,4608.717773,4478.333496,4402.051270,4536.666504,5783.000000,3.000000,69.000000,,,,0.000000,4.000000,4.000000,4.000000,4.000000,4.000000,4.000000,4.000000,4.000000,4.000000,4.000000,4.000000,4.000000,4.000000,4.000000,100.000000,,,,,,,,,,,,,,,,,,,,,,,,,,,,
1703409648.423349,1703409648.423499,75.000000,0.000000,4250.512695,4230.256348,4307.948730,4276.025879,4229.615234,4213.333496,4225.128418,4202.692383,4215.000000,4213.589844,4613.846191,4474.871582,4398.717773,4534.871582,6028.000000,3.000000,69.000000,,,,0.000000,4.000000,4.000000,4.000000,4.000000,4.000000,4.000000,4.000000,4.000000,4.000000,4.000000,4.000000,4.000000,4.000000,4.000000,100.000000,,,,,,,,,,,,,,,,,,,,,,,,,,,,
1703409648.431157,1703409648.431407,76.000000,0.000000,4264.615234,4234.358887,4309.487305,4283.717773,4226.538574,4203.589844,4219.871582,4207.436035,4216.282227,4216.153809,4618.846191,4482.307617,4411.282227,4534.615234,6526.000000,3.000000,69.000000,,,,0.000000,4.000000,4.000000,4.000000,4.000000,4.000000,4.000000,4.000000,4.000000,4.000000,4.000000,4.000000,4.000000,4.000000,4.000000,100.000000,,,,,,,,,,,,,,,,,19.000000,0.000000,0.417810,0.440491,-0.574097,0.549377,0.955195,-0.263216,-0.054694,-8.883758,-46.447033,60.459457
1703409648.438965,1703409648.439215,77.000000,0.000000,4267.948730,4237.820313,4311.025879,4278.717773,4216.538574,4198.589844,4217.563965,4225.897461,4217.436035,4216.025879,4620.256348,4491.794922,4415.256348,4535.128418,7207.000000,3.000000,69.000000,,,,0.000000,4.000000,4.000000,4.000000,4.000000,4.000000,4.000000,4.000000,4.000000,4.000000,4.000000,4.000000,4.000000,4.000000,4.000000,100.000000,,,,,,,,,,,,,,,,,,,,,,,,,,,,
1703409648.446773,1703409648.447123,78.000000,0.000000,4263.333496,4235.256348,4318.974121,4276.282227,4217.563965,4200.384766,4219.102539,4237.179688,4222.051270,4218.717773,4628.589844,4498.077148,4412.179688,4540.256348,5783.000000,3.000000,69.000000,,,,0.000000,4.000000,4.000000,4.000000,4.000000,4.000000,4.000000,4.000000,4.000000,4.000000,4.000000,4.000000,4.000000,4.000000,4.000000,100.000000,,,,,,,,,,,,,,,,,,,,,,,,,,,,
1703409648.454581,1703409648.454931,79.000000,0.000000,4255.641113,4230.256348,4317.436035,4280.641113,4220.128418,4198.589844,4216.666504,4227.051270,4216.794922,4218.461426,4631.153809,4495.384766,4415.128418,4538.333496,6028.000000,3.000000,69.000000,,,,0.000000,4.000000,4.000000,4.000000,4.000000,4.000000,4.000000,4.000000,4.000000,4.000000,4.000000,4.000000,4.000000,4.000000,4.000000,100.000000,,,,,,,,,,,,,,,,,,,,,,,,,,,,
1703409648.462389,1703409648.462838,80.000000,0.000000,4245.769043,4228.974121,4308.461426,4278.333496,4216.410156,4196.666504,4215.384766,4214.102539,4202.563965,4214.102539,4619.871582,4485.641113,4413.846191,4526.538574,6526.000000,3.000000,69.000000,,,,0.000000,4.000000,4.000000,4.000000,4.000000,4.000000,4.000000,4.000000,4.000000,4.000000,4.000000,4.000000,4.000000,4.000000,4.000000,100.000000,,,,,,,,,,,,,,,,,20.000000,0.000000,0.417575,0.440247,-0.574280,0.549561,0.957636,-0.267611,-0.047857,-9.012048,-46.518997,60.346844
1703409648.470197,1703409648.470646,81.000000,0.000000,4248.846191,4232.436035,4314.230957,4278.077148,4222.820313,4199.615234,4216.922852,4208.333496,4201.153809,4216.538574,4614.615234,4486.666504,4411.410156,4530.000000,7207.000000,3.000000,69.000000,,,,0.000000,4.000000,4.000000,4.000000,4.000000,4.000000,4.000000,4.000000,4.000000,4.000000,4.000000,4.000000,4.000000,4.000000,4.000000,100.000000,,,,,,,,,,,,,,,,,,,,,,,,,,,,
1703409648.478005,1703409648.478554,82.000000,0.000000,4260.512695,4233.717773,4323.974121,4286.025879,4230.897461,4203.205078,4216.794922,4205.000000,4203.333496,4217.692383,4621.025879,4491.538574,4415.512695,4540.769043,5783.000000,3.000000,69.000000,,,,0.000000,4.000000,4.000000,4.000000,4.000000,4.000000,4.000000,4.000000,4.000000,4.000000,4.000000,4.000000,4.000000,4.000000,4.000000,100.000000,,,,,,,,,,,,,,,,,,,,,,,,,,,,
1703409648.485814,1703409648.486362,83.000000,0.000000,4260.897461,4230.000000,4317.948730,4288.717773,4227.563965,4206.794922,4215.641113,4196.538574,4194.358887,4207.692383,4619.615234,4483.205078,4415.128418,4532.820313,6028.000000,3.000000,69.000000,,,,0.000000,4.000000,4.000000,4.000000,4.000000,4.000000,4.000000,4.000000,4.000000,4.000000,4.000000,4.000000,4.000000,4.000000,4.000000,100.000000,,,,,,,,,,,,,,,,,,,,,,,,,,,,
1703409648.493621,1703409648.494270,84.000000,0.000000,4255.384766,4230.512695,4308.974121,4283.077148,4226.794922,4210.128418,4215.897461,4185.897461,4190.897461,4200.641113,4606.153809,4473.846191,4406.922852,4521.410156,6526.000000,3.000000,69.000000,,,,0.000000,4.000000,4.000000,4.000000,4.000000,4.000000,4.000000,4.000000,4.000000,4.000000,4.000000,4.000000,4.000000,4.000000,4.000000,100.000000,,,,,,,,,,,,,,,,,21.000000,0.000000,0.417523,0.440063,-0.574341,0.549683,0.967892,-0.274936,-0.043951,-8.960843,-46.450432,60.412159
1703409648.501429,1703409648.502078,85.000000,0.000000,4251.922852,4231.410156,4309.102539,4279.230957,4228.461426,4208.205078,4216.282227,4183.461426,4197.179688,4201.666504,4598.205078,4472.820313,4398.974121,4518.333496,7207.000000,3.000000,69.000000,,,,0.000000,4.000000,4.000000,4.000000,4.000000,4.000000,4.000000,4.000000,4.000000,4.000000,4.000000,4.000000,4.000000,4.000000,4.000000,100.000000,,,,,,,,,,,,,,,,,,,,,,,,,,,,
1703409648.509237,1703409648.509786,86.000000,0.000000,4248.205078,4228.589844,4307.820313,4280.641113,4226.025879,4206.922852,4213.589844,4184.230957,4198.717773,4200.256348,4598.589844,4466.153809,4395.512695,4511.025879,5783.000000,3.000000,69.000000,,,,0.000000,4.000000,4.000000,4.000000,4.000000,4.000000,4.000000,4.000000,4.000000,4.000000,4.000000,4.000000,4.000000,4.000000,4.000000,100.000000,,,,,,,,,,,,,,,,,,,,,,,,,,,,
1703409648.517046,1703409648.517594,87.000000,0.000000,4245.256348,4227.692383,4303.589844,4280.384766,4225.256348,4212.307617,4213.461426,4180.897461,4197.051270,4197.307617,4598.589844,4458.077148,4394.743652,4504.743652,6028.000000,3.000000,69.000000,,,,0.000000,4.000000,4.000000,4.000000,4.000000,4.000000,4.000000,4.000000,4.000000,4.000000,4.000000,4.000000,4.000000,4.000000,4.000000,100.000000,,,,,,,,,,,,,,,,,,,,,,,,,,,,
1703409648.524854,1703409648.525302,88.000000,0.000000,4245.897461,4225.384766,4306.410156,4278.589844,4225.641113,4217.563965,4217.307617,4188.077148,4200.769043,4198.974121,4597.436035,4463.974121,4395.512695,4508.205078,6526.000000,3.000000,69.000000,,,,0.000000,4.000000,4.000000,4.000000,4.000000,4.000000,4.000000,4.000000,4.000000,4.000000,4.000000,4.000000,4.000000,4.000000,4.000000,100.000000,,,,,,,,,,,,,,,,,22.000000,0.000000,0.417496,0.440002,-0.574524,0.549561,0.959101,-0.251007,-0.043462,-9.148092,-46.488720,60.370945
1703409648.532662,1703409648.533110,89.000000,0.000000,4250.128418,4218.333496,4314.487305,4280.000000,4224.871582,4218.717773,4219.871582,4210.256348,4207.948730,4203.717773,4600.000000,4476.025879,4395.897461,4513.205078,7207.000000,3.000000,69.000000,,,,0.000000,4.000000,4.000000,4.000000,4.000000,4.000000,4.000000,4.000000,4.000000,4.000000,4.000000,4.000000,4.000000,4.000000,4.000000,100.000000,,,,,,,,,,,,,,,,,,,,,,,,,,,,
1703409648.540470,1703409648.540818,90.000000,0.000000,4244.487305,4215.384766,4308.461426,4280.256348,4221.538574,4212.179688,4217.692383,4218.717773,4211.410156,4204.615234,4604.230957,4478.589844,4395.897461,4515.512695,5783.000000,3.000000,69.000000,,,,0.000000,4.000000,4.000000,4.000000,4.000000,4.000000,4.000000,4.000000,4.000000,4.000000,4.000000,4.000000,4.000000,4.000000,4.000000,100.000000,,,,,,,,,,,,,,,,,,,,,,,,,,,,
1703409648.548278,1703409648.548626,91.000000,0.000000,4234.743652,4217.948730,4296.922852,4275.897461,4212.307617,4201.153809,4214.615234,4218.717773,4213.717773,4202.692383,4608.846191,4475.641113,4402.948730,4516.666504,6028.000000,3.000000,69.000000,,,,0.000000,4.000000,4.000000,4.000000,4.000000,4.000000,4.000000,4.000000,4.000000,4.000000,4.000000,4.000000,4.000000,4.000000,4.000000,100.000000,,,,,,,,,,,,,,,,,,,,,,,,,,,,
1703409648.556086,1703409648.556334,92.000000,0.000000,4237.179688,4215.256348,4303.461426,4275.256348,4209.615234,4197.051270,4213.974121,4226.538574,4217.692383,4207.820313,4616.025879,4481.025879,4412.692383,4520.256348,6526.000000,3.000000,69.000000,,,,0.000000,4.000000,4.000000,4.000000,4.000000,4.000000,4.000000,4.000000,4.000000,4.000000,4.000000,4.000000,4.000000,4.000000,4.000000,100.000000,,,,,,,,,,,,,,,,,23.000000,0.000000,0.417216,0.440186,-0.574646,0.549500,0.945916,-0.268587,-0.041997,-9.099950,-46.656517,60.417183
1703409648.563894,1703409648.564142,93.000000,0.000000,4246.025879,4215.897461,4312.692383,4280.512695,4216.282227,4197.948730,4211.794922,4226.282227,4219.487305,4217.051270,4617.692383,4490.641113,4415.000000,4525.128418,7207.000000,3.000000,69.000000,,,,0.000000,4.000000,4.000000,4.000000,4.000000,4.000000,4.000000,4.000000,4.000000,4.000000,4.000000,4.000000,4.000000,4.000000,4.000000,100.000000,,,,,,,,,,,,,,,,,,,,,,,,,,,,
1703409648.571702,1703409648.571850,94.000000,0.000000,4248.333496,4222.948730,4310.256348,4282.179688,4217.307617,4195.512695,4208.077148,4219.615234,4215.897461,4215.512695,4614.615234,4493.846191,4413.717773,4527.051270,5783.000000,3.000000,69.000000,,,,0.000000,4.000000,4.000000,4.000000,4.000000,4.000000,4.000000,4.000000,4.000000,4.000000,4.000000,4.000000,4.000000,4.000000,4.000000,100.000000,,,,,,,,,,,,,,,,,,,,,,,,,,,,
1703409648.579510,1703409648.579758,95.000000,0.000000,4243.205078,4223.333496,4309.871582,4278.974121,4212.436035,4187.692383,4204.487305,4216.153809,4206.794922,4206.025879,4608.846191,4488.589844,4407.436035,4522.051270,6028.000000,3.000000,69.000000,,,,0.000000,4.000000,4.000000,4.000000,4.000000,4.000000,4.000000,4.000000,4.000000,4.000000,4.000000,4.000000,4.000000,4.000000,4.000000,100.000000,,,,,,,,,,,,,,,,,,,,,,,,,,,,
1703409648.587318,1703409648.587566,96.000000,0.000000,4241.282227,4217.051270,4312.692383,4279.615234,4212.051270,4183.974121,4200.512695,4208.205078,4198.333496,4200.641113,4600.384766,4479.230957,4397.051270,4511.922852,6526.000000,3.000000,69.000000,,,,0.000000,4.000000,4.000000,4.000000,4.000000,4.000000,4.000000,4.000000,4.000000,4.000000,4.000000,4.000000,4.000000,4.000000,4.000000,100.000000,,,,,,,,,,,,,,,,,24.000000,0.000000,0.417275,0.440369,-0.574463,0.549500,0.954706,-0.262239,-0.044927,-9.106622,-46.724197,60.492130
1703409648.595126,1703409648.595474,97.000000,0.000000,4247.820313,4217.051270,4314.871582,4290.000000,4216.794922,4191.538574,4199.230957,4200.769043,4198.846191,4201.922852,4599.615234,4477.179688,4402.820313,4511.153809,7207.000000,3.000000,69.000000,,,,0.000000,4.000000,4.000000,4.000000,4.000000,4.000000,4.000000,4.000000,4.000000,4.000000,4.000000,4.000000,4.000000,4.000000,4.000000,100.000000,,,,,,,,,,,,,,,,,,,,,,,,,,,,
1703409648.602934,1703409648.603282,98.000000,0.000000,4248.846191,4220.641113,4318.461426,4296.922852,4221.025879,4201.410156,4203.077148,4203.333496,4204.487305,4206.282227,4606.794922,4480.641113,4414.743652,4516.538574,5783.000000,3.000000,69.000000,,,,0.000000,4.000000,4.000000,4.000000,4.000000,4.000000,4.000000,4.000000,4.000000,4.000000,4.000000,4.000000,4.000000,4.000000,4.000000,100.000000,,,,,,,,,,,,,,,,,,,,,,,,,,,,
1703409648.610742,1703409648.611190,99.000000,0.000000,4237.436035,4218.205078,4315.897461,4287.436035,4217.948730,4199.358887,4203.717773,4201.153809,4201.025879,4201.538574,4602.563965,4476.282227,4405.256348,4513.589844,6028.000000,3.000000,69.000000,,,,0.000000,4.000000,4.000000,4.000000,4.000000,4.000000,4.000000,4.000000,4.000000,4.000000,4.000000,4.000000,4.000000,4.000000,4.000000,100.000000,,,,,,,,,,,,,,,,,,,,,,,,,,,,
1703409648.618550,1703409648.618998,100.000000,0.000000,4226.666504,4214.487305,4306.282227,4276.282227,4216.410156,4197.820313,4199.871582,4195.128418,4195.512695,4187.948730,4587.563965,4468.333496,4387.820313,4502.692383,6526.000000,3.000000,69.000000,,,,0.000000,4.000000,4.000000,4.000000,4.000000,4.000000,4.000000,4.000000,4.000000,4.000000,4.000000,4.000000,4.000000,4.000000,4.000000,100.000000,,,,,,,,,,,,,,,,,25.000000,0.000000,0.417210,0.440430,-0.574463,0.549500,0.961055,-0.264192,-0.042486,-9.079292,-46.668446,60.459583
1703409648.626358,1703409648.626906,101.000000,0.000000,4226.922852,4210.384766,4305.128418,4280.769043,4222.436035,4209.615234,4207.051270,4198.717773,4195.512695,4184.487305,4584.615234,4466.538574,4385.384766,4495.256348,7207.000000,3.000000,69.000000,,,,0.000000,4.000000,4.000000,4.000000,4.000000,4.000000,4.000000,4.000000,4.000000,4.000000,4.000000,4.000000,4.000000,4.000000,4.000000,100.000000,,,,,,,,,,,,,,,,,,,,,,,,,,,,
1703409648.634166,1703409648.634714,102.000000,0.000000,4229.743652,4204.871582,4304.358887,4282.307617,4222.179688,4212.563965,4217.820313,4201.025879,4191.794922,4187.307617,4584.743652,4462.820313,4387.051270,4497.436035,5783.000000,3.000000,69.000000,,,,0.000000,4.000000,4.000000,4.000000,4.000000,4.000000,4.000000,4.000000,4.000000,4.000000,4.000000,4.000000,4.000000,4.000000,4.000000,100.000000,,,,,,,,,,,,,,,,,,,,,,,,,,,,
1703409648.641974,1703409648.642622,103.000000,0.000000,4226.922852,4202.820313,4296.538574,4269.358887,4214.743652,4203.205078,4212.051270,4203.589844,4190.512695,4185.128418,4582.051270,4462.307617,4384.615234,4503.333496,6028.000000,3.000000,69.000000,,,,0.000000,4.000000,4.000000,4.000000,4.000000,4.000000,4.000000,4.000000,4.000000,4.000000,4.000000,4.000000,4.000000,4.000000,4.000000,100.000000,,,,,,,,,,,,,,,,,,,,,,,,,,,,
1703409648.649782,1703409648.650430,104.000000,0.000000,4224.102539,4203.205078,4299.102539,4267.051270,4215.128418,4200.897461,4207.692383,4212.436035,4197.563965,4190.384766,4592.051270,4472.436035,4390.897461,4507.051270,6526.000000,3.000000,69.000000,,,,0.000000,4.000000,4.000000,4.000000,4.000000,4.000000,4.000000,4.000000,4.000000,4.000000,4.000000,4.000000,4.000000,4.000000,4.000000,100.000000,,,,,,,,,,,,,,,,,26.000000,0.000000,0.417251,0.440308,-0.574585,0.549438,0.961543,-0.274936,-0.050299,-9.188030,-46.751598,60.230293
1703409648.657591,1703409648.658337,105.000000,0.000000,4228.461426,4204.102539,4307.051270,4278.205078,4218.077148,4203.974121,4215.384766,4219.743652,4202.820313,4203.974121,4604.102539,4479.871582,4401.538574,4509.743652,7207.000000,3.000000,69.000000,,,,0.000000,4.000000,4.000000,4.000000,4.000000,4.000000,4.000000,4.000000,4.000000,4.000000,4.000000,4.000000,4.000000,4.000000,4.000000,100.000000,,,,,,,,,,,,,,,,,,,,,,,,,,,,
1703409648.665398,1703409648.666145,106.000000,0.000000,4233.717773,4201.153809,4302.179688,4279.615234,4213.974121,4201.282227,4211.538574,4222.307617,4203.333496,4205.000000,4601.922852,4477.820313,4401.666504,4512.179688,5783.000000,3.000000,69.000000,,,,0.000000,4.000000,4.000000,4.000000,4.000000,4.000000,4.000000,4.000000,4.000000,4.000000,4.000000,4.000000,4.000000,4.000000,4.000000,100.000000,,,,,,,,,,,,,,,,,,,,,,,,,,,,
1703409648.673206,1703409648.674053,107.000000,0.000000,4231.282227,4201.282227,4296.666504,4270.000000,4210.769043,4195.897461,4199.358887,4220.641113,4201.538574,4198.333496,4597.948730,4475.384766,4394.487305,4507.436035,6028.000000,3.000000,69.000000,,,,0.000000,4.000000,4.000000,4.000000,4.000000,4.000000,4.000000,4.000000,4.000000,4.000000,4.000000,4.000000,4.000000,4.000000,4.000000,100.000000,,,,,,,,,,,,,,,,,,,,,,,,,,,,
1703409648.681015,1703409648.681861,108.000000,0.000000,4230.897461,4213.846191,4305.256348,4271.666504,4215.769043,4195.256348,4201.922852,4217.692383,4199.230957,4205.512695,4604.615234,4482.692383,4400.000000,4509.743652,6526.000000,3.000000,69.000000,,,,0.000000,4.000000,4.000000,4.000000,4.000000,4.000000,4.000000,4.000000,4.000000,4.000000,4.000000,4.000000,4.000000,4.000000,4.000000,100.000000,,,,,,,,,,,,,,,,,27.000000,0.000000,0.417240,0.440308,-0.574768,0.549255,0.949823,-0.274448,-0.044439,-9.252561,-46.693108,60.257263
