title:شويكي اطفاء, start timestamp:1703500752.404396, stop timestamp:1703500763.257585, headset type:EPOCX, headset serial:E50206EF, headset firmware:720, channels:67, sampling rate:eeg_128;mot_32, samples:1391      , version:2.2, 
Timestamp,OriginalTimestamp,EEG.Counter,EEG.Interpolated,EEG.AF3,EEG.F7,EEG.F3,EEG.FC5,EEG.T7,EEG.P7,EEG.O1,EEG.O2,EEG.P8,EEG.T8,EEG.FC6,EEG.F4,EEG.F8,EEG.AF4,EEG.RawCq,EEG.Battery,EEG.BatteryPercent,MarkerIndex,MarkerType,MarkerValueInt,EEG.MarkerHardware,CQ.AF3,CQ.F7,CQ.F3,CQ.FC5,CQ.T7,CQ.P7,CQ.O1,CQ.O2,CQ.P8,CQ.T8,CQ.FC6,CQ.F4,CQ.F8,CQ.AF4,CQ.Overall,EQ.SampleRateQuality,EQ.OVERALL,EQ.AF3,EQ.F7,EQ.F3,EQ.FC5,EQ.T7,EQ.P7,EQ.O1,EQ.O2,EQ.P8,EQ.T8,EQ.FC6,EQ.F4,EQ.F8,EQ.AF4,MOT.CounterMems,MOT.InterpolatedMems,MOT.Q0,MOT.Q1,MOT.Q2,MOT.Q3,MOT.AccX,MOT.AccY,MOT.AccZ,MOT.MagX,MOT.MagY,MOT.MagZ
1703500752.404396,1703500752.405079,41.000000,0.000000,4303.974121,4294.487305,4317.051270,4298.333496,4274.743652,4267.307617,4289.871582,4281.666504,4265.000000,4241.025879,4478.846191,4481.025879,4366.538574,4367.948730,0.000000,3.000000,71.000000,,,,0.000000,4.000000,4.000000,4.000000,4.000000,4.000000,4.000000,4.000000,4.000000,4.000000,4.000000,4.000000,4.000000,4.000000,4.000000,100.000000,,,,,,,,,,,,,,,,,,,,,,,,,,,,
1703500752.412204,1703500752.412787,42.000000,0.000000,4308.333496,4302.436035,4321.282227,4305.769043,4275.512695,4265.000000,4280.897461,4273.461426,4257.692383,4236.538574,4472.820313,4481.538574,4365.000000,4367.820313,0.000000,3.000000,71.000000,,,,0.000000,4.000000,4.000000,4.000000,4.000000,4.000000,4.000000,4.000000,4.000000,4.000000,4.000000,4.000000,4.000000,4.000000,4.000000,100.000000,,,,,,,,,,,,,,,,,,,,,,,,,,,,
1703500752.420012,1703500752.420696,43.000000,0.000000,4301.922852,4305.769043,4319.743652,4306.666504,4272.051270,4261.538574,4274.358887,4260.897461,4243.461426,4230.512695,4460.000000,4476.282227,4356.410156,4359.743652,0.000000,3.000000,71.000000,,,,0.000000,4.000000,4.000000,4.000000,4.000000,4.000000,4.000000,4.000000,4.000000,4.000000,4.000000,4.000000,4.000000,4.000000,4.000000,100.000000,,,,,,,,,,,,,,,,,,,,,,,,,,,,
1703500752.427820,1703500752.428504,44.000000,0.000000,4305.000000,4300.512695,4322.179688,4306.025879,4270.128418,4258.461426,4274.230957,4250.641113,4232.307617,4227.051270,4462.820313,4471.794922,4359.358887,4361.153809,0.000000,3.000000,71.000000,,,,0.000000,4.000000,4.000000,4.000000,4.000000,4.000000,4.000000,4.000000,4.000000,4.000000,4.000000,4.000000,4.000000,4.000000,4.000000,100.000000,,,,,,,,,,,,,,,,,11.000000,0.000000,0.642507,0.267395,-0.637756,0.330078,0.998657,-0.094250,0.043951,-12.951988,-35.798161,62.370220
1703500752.435628,1703500752.436412,45.000000,0.000000,4313.846191,4302.179688,4325.641113,4307.436035,4274.871582,4260.641113,4273.846191,4247.820313,4231.410156,4231.666504,4472.051270,4475.897461,4367.307617,4367.820313,0.000000,3.000000,71.000000,,,,0.000000,4.000000,4.000000,4.000000,4.000000,4.000000,4.000000,4.000000,4.000000,4.000000,4.000000,4.000000,4.000000,4.000000,4.000000,100.000000,,,,,,,,,,,,,,,,,,,,,,,,,,,,
1703500752.443436,1703500752.444220,46.000000,0.000000,4305.128418,4307.820313,4321.666504,4304.487305,4276.922852,4265.128418,4276.153809,4253.974121,4237.179688,4232.692383,4470.512695,4475.256348,4362.948730,4359.615234,0.000000,3.000000,71.000000,,,,0.000000,4.000000,4.000000,4.000000,4.000000,4.000000,4.000000,4.000000,4.000000,4.000000,4.000000,4.000000,4.000000,4.000000,4.000000,100.000000,,,,,,,,,,,,,,,,,,,,,,,,,,,,
1703500752.451244,1703500752.452128,47.000000,0.000000,4293.974121,4302.436035,4311.666504,4297.820313,4276.410156,4265.256348,4280.000000,4263.077148,4245.897461,4223.333496,4467.436035,4464.102539,4359.102539,4349.102539,0.000000,3.000000,71.000000,,,,0.000000,4.000000,4.000000,4.000000,4.000000,4.000000,4.000000,4.000000,4.000000,4.000000,4.000000,4.000000,4.000000,4.000000,4.000000,100.000000,,,,,,,,,,,,,,,,,,,,,,,,,,,,
1703500752.459052,1703500752.459936,48.000000,0.000000,4292.051270,4294.487305,4300.384766,4296.410156,4276.538574,4266.794922,4281.282227,4272.948730,4258.589844,4228.974121,4473.077148,4461.025879,4361.025879,4352.179688,0.000000,3.000000,71.000000,,,,0.000000,4.000000,4.000000,4.000000,4.000000,4.000000,4.000000,4.000000,4.000000,4.000000,4.000000,4.000000,4.000000,4.000000,4.000000,100.000000,,,,,,,,,,,,,,,,,12.000000,0.000000,0.642374,0.267273,-0.637878,0.330200,0.979612,-0.084483,0.034672,-12.923456,-35.685009,62.499863
1703500752.466860,1703500752.467745,49.000000,0.000000,4285.384766,4295.256348,4292.948730,4296.410156,4275.384766,4273.205078,4281.153809,4287.436035,4274.230957,4258.205078,4481.538574,4469.615234,4368.717773,4356.025879,0.000000,3.000000,71.000000,,,,0.000000,4.000000,4.000000,4.000000,4.000000,4.000000,4.000000,4.000000,4.000000,4.000000,4.000000,4.000000,4.000000,4.000000,4.000000,100.000000,,,,,,,,,,,,,,,,,,,,,,,,,,,,
1703500752.474668,1703500752.475453,50.000000,0.000000,4283.717773,4298.846191,4291.410156,4295.384766,4274.102539,4277.948730,4279.230957,4299.102539,4284.358887,4270.384766,4490.128418,4472.692383,4377.307617,4361.922852,0.000000,3.000000,71.000000,,,,0.000000,4.000000,4.000000,4.000000,4.000000,4.000000,4.000000,4.000000,4.000000,4.000000,4.000000,4.000000,4.000000,4.000000,4.000000,100.000000,,,,,,,,,,,,,,,,,,,,,,,,,,,,
1703500752.482476,1703500752.483261,51.000000,0.000000,4294.487305,4304.487305,4292.948730,4298.974121,4276.666504,4278.333496,4278.974121,4302.051270,4285.512695,4257.179688,4494.871582,4477.948730,4378.077148,4375.641113,0.000000,3.000000,71.000000,,,,0.000000,4.000000,4.000000,4.000000,4.000000,4.000000,4.000000,4.000000,4.000000,4.000000,4.000000,4.000000,4.000000,4.000000,4.000000,100.000000,,,,,,,,,,,,,,,,,,,,,,,,,,,,
1703500752.490285,1703500752.490969,52.000000,0.000000,4299.487305,4306.666504,4293.077148,4303.589844,4273.461426,4271.410156,4273.974121,4295.769043,4280.512695,4248.717773,4492.179688,4485.384766,4375.128418,4389.615234,0.000000,3.000000,71.000000,,,,0.000000,4.000000,4.000000,4.000000,4.000000,4.000000,4.000000,4.000000,4.000000,4.000000,4.000000,4.000000,4.000000,4.000000,4.000000,100.000000,,,,,,,,,,,,,,,,,13.000000,0.000000,0.642229,0.267029,-0.638000,0.330444,0.984984,-0.079111,0.045416,-12.847777,-35.633175,62.416546
1703500752.498093,1703500752.498877,53.000000,0.000000,4300.897461,4303.846191,4294.615234,4305.000000,4263.077148,4261.410156,4264.487305,4285.000000,4264.615234,4242.692383,4489.230957,4482.051270,4376.666504,4402.563965,0.000000,3.000000,71.000000,,,,0.000000,4.000000,4.000000,4.000000,4.000000,4.000000,4.000000,4.000000,4.000000,4.000000,4.000000,4.000000,4.000000,4.000000,4.000000,100.000000,,,,,,,,,,,,,,,,,,,,,,,,,,,,
1703500752.505901,1703500752.506685,54.000000,0.000000,4307.563965,4304.743652,4298.461426,4307.948730,4263.846191,4255.641113,4261.153809,4277.820313,4250.512695,4234.871582,4489.615234,4482.307617,4378.717773,4415.769043,0.000000,3.000000,71.000000,,,,0.000000,4.000000,4.000000,4.000000,4.000000,4.000000,4.000000,4.000000,4.000000,4.000000,4.000000,4.000000,4.000000,4.000000,4.000000,100.000000,,,,,,,,,,,,,,,,,,,,,,,,,,,,
1703500752.513709,1703500752.514592,55.000000,0.000000,4309.487305,4308.077148,4298.589844,4310.256348,4261.538574,4251.666504,4262.051270,4271.282227,4244.358887,4233.077148,4490.769043,4484.358887,4376.538574,4428.077148,0.000000,3.000000,71.000000,,,,0.000000,4.000000,4.000000,4.000000,4.000000,4.000000,4.000000,4.000000,4.000000,4.000000,4.000000,4.000000,4.000000,4.000000,4.000000,100.000000,,,,,,,,,,,,,,,,,,,,,,,,,,,,
1703500752.521517,1703500752.522400,56.000000,0.000000,4310.512695,4309.871582,4297.692383,4310.512695,4248.589844,4245.256348,4260.641113,4261.282227,4237.563965,4230.128418,4490.256348,4483.461426,4378.717773,4436.410156,0.000000,3.000000,71.000000,,,,0.000000,4.000000,4.000000,4.000000,4.000000,4.000000,4.000000,4.000000,4.000000,4.000000,4.000000,4.000000,4.000000,4.000000,4.000000,100.000000,,,,,,,,,,,,,,,,,14.000000,0.000000,0.642062,0.266907,-0.638062,0.330750,0.986449,-0.093273,0.050787,-12.962999,-35.703194,62.424889
1703500752.529325,1703500752.530308,57.000000,0.000000,4308.717773,4307.563965,4296.794922,4308.333496,4255.384766,4247.563965,4260.128418,4259.487305,4236.282227,4231.666504,4490.384766,4483.589844,4383.589844,4435.384766,0.000000,3.000000,71.000000,,,,0.000000,4.000000,4.000000,4.000000,4.000000,4.000000,4.000000,4.000000,4.000000,4.000000,4.000000,4.000000,4.000000,4.000000,4.000000,100.000000,,,,,,,,,,,,,,,,,,,,,,,,,,,,
1703500752.537133,1703500752.538116,58.000000,0.000000,4303.077148,4302.820313,4296.666504,4304.743652,4272.436035,4260.128418,4262.307617,4263.717773,4244.230957,4241.794922,4490.512695,4483.205078,4383.846191,4426.794922,0.000000,3.000000,71.000000,,,,0.000000,4.000000,4.000000,4.000000,4.000000,4.000000,4.000000,4.000000,4.000000,4.000000,4.000000,4.000000,4.000000,4.000000,4.000000,100.000000,,,,,,,,,,,,,,,,,,,,,,,,,,,,
1703500752.544941,1703500752.546024,59.000000,0.000000,4302.563965,4303.077148,4301.794922,4305.384766,4273.333496,4264.230957,4265.000000,4264.743652,4252.820313,4244.871582,4490.000000,4483.717773,4385.384766,4425.512695,0.000000,3.000000,71.000000,,,,0.000000,4.000000,4.000000,4.000000,4.000000,4.000000,4.000000,4.000000,4.000000,4.000000,4.000000,4.000000,4.000000,4.000000,4.000000,100.000000,,,,,,,,,,,,,,,,,,,,,,,,,,,,
1703500752.552749,1703500752.553932,60.000000,0.000000,4301.025879,4303.205078,4306.538574,4307.692383,4271.922852,4263.461426,4270.000000,4272.563965,4262.436035,4248.461426,4495.897461,4490.384766,4391.282227,4432.692383,0.000000,3.000000,71.000000,,,,0.000000,4.000000,4.000000,4.000000,4.000000,4.000000,4.000000,4.000000,4.000000,4.000000,4.000000,4.000000,4.000000,4.000000,4.000000,100.000000,,,,,,,,,,,,,,,,,15.000000,0.000000,0.641999,0.266907,-0.638062,0.330872,0.991332,-0.086436,0.038579,-13.233366,-35.732872,62.432400
1703500752.560557,1703500752.561740,61.000000,0.000000,4296.153809,4299.615234,4302.436035,4303.589844,4273.333496,4267.307617,4277.563965,4283.077148,4270.769043,4254.102539,4498.589844,4493.846191,4391.410156,4428.461426,0.000000,3.000000,71.000000,,,,0.000000,4.000000,4.000000,4.000000,4.000000,4.000000,4.000000,4.000000,4.000000,4.000000,4.000000,4.000000,4.000000,4.000000,4.000000,100.000000,,,,,,,,,,,,,,,,,,,,,,,,,,,,
1703500752.568365,1703500752.569649,62.000000,0.000000,4291.538574,4294.871582,4294.743652,4298.461426,4266.282227,4267.307617,4277.307617,4282.179688,4267.948730,4241.538574,4491.153809,4482.948730,4381.282227,4414.358887,0.000000,3.000000,71.000000,,,,0.000000,4.000000,4.000000,4.000000,4.000000,4.000000,4.000000,4.000000,4.000000,4.000000,4.000000,4.000000,4.000000,4.000000,4.000000,100.000000,,,,,,,,,,,,,,,,,,,,,,,,,,,,
1703500752.576173,1703500752.577457,63.000000,0.000000,4291.410156,4295.128418,4295.000000,4301.922852,4264.102539,4263.077148,4273.333496,4280.512695,4265.000000,4234.230957,4489.487305,4476.410156,4380.256348,4412.692383,0.000000,3.000000,71.000000,,,,0.000000,4.000000,4.000000,4.000000,4.000000,4.000000,4.000000,4.000000,4.000000,4.000000,4.000000,4.000000,4.000000,4.000000,4.000000,100.000000,,,,,,,,,,,,,,,,,,,,,,,,,,,,
1703500752.583981,1703500752.585265,64.000000,0.000000,4298.333496,4301.794922,4303.974121,4308.077148,4269.487305,4263.717773,4277.051270,4283.077148,4268.333496,4250.000000,4494.743652,4478.846191,4384.871582,4421.410156,5637.000000,3.000000,71.000000,,,,0.000000,4.000000,4.000000,4.000000,4.000000,4.000000,4.000000,4.000000,4.000000,4.000000,4.000000,4.000000,4.000000,4.000000,4.000000,100.000000,,,,,,,,,,,,,,,,,16.000000,0.000000,0.641805,0.267151,-0.638123,0.330933,0.978635,-0.090343,0.047857,-13.243362,-35.776253,62.405827
1703500752.591789,1703500752.592973,65.000000,0.000000,4303.846191,4309.871582,4313.077148,4309.743652,4267.948730,4265.128418,4275.384766,4278.846191,4264.358887,4254.615234,4491.410156,4478.974121,4381.282227,4420.256348,5592.000000,3.000000,71.000000,,,,0.000000,4.000000,4.000000,4.000000,4.000000,4.000000,4.000000,4.000000,4.000000,4.000000,4.000000,4.000000,4.000000,4.000000,4.000000,100.000000,,,,,,,,,,,,,,,,,,,,,,,,,,,,
1703500752.599597,1703500752.600781,66.000000,0.000000,4304.358887,4312.692383,4314.743652,4310.641113,4264.487305,4259.615234,4265.000000,4263.717773,4247.307617,4238.077148,4479.230957,4473.205078,4372.051270,4411.153809,5415.000000,3.000000,71.000000,,,,0.000000,4.000000,4.000000,4.000000,4.000000,4.000000,4.000000,4.000000,4.000000,4.000000,4.000000,4.000000,4.000000,4.000000,4.000000,100.000000,,,,,,,,,,,,,,,,,,,,,,,,,,,,
1703500752.607405,1703500752.608489,67.000000,0.000000,4303.205078,4310.128418,4311.410156,4311.410156,4265.512695,4255.512695,4261.025879,4248.333496,4228.461426,4227.692383,4470.897461,4464.358887,4365.000000,4405.128418,5409.000000,3.000000,71.000000,,,,0.000000,4.000000,4.000000,4.000000,4.000000,4.000000,4.000000,4.000000,4.000000,4.000000,4.000000,4.000000,4.000000,4.000000,4.000000,100.000000,,,,,,,,,,,,,,,,,,,,,,,,,,,,
1703500752.615213,1703500752.616297,68.000000,0.000000,4301.666504,4312.179688,4311.153809,4311.922852,4268.077148,4260.128418,4264.487305,4243.205078,4227.948730,4234.487305,4475.128418,4463.717773,4368.205078,4402.692383,5347.000000,3.000000,71.000000,,,,0.000000,4.000000,4.000000,4.000000,4.000000,4.000000,4.000000,4.000000,4.000000,4.000000,4.000000,4.000000,4.000000,4.000000,4.000000,100.000000,,,,,,,,,,,,,,,,,17.000000,0.000000,0.641936,0.267273,-0.637939,0.330933,0.990844,-0.094738,0.041021,-13.335693,-35.731960,62.298576
1703500752.623021,1703500752.624005,69.000000,0.000000,4298.333496,4311.282227,4313.589844,4312.051270,4263.333496,4264.358887,4265.512695,4245.897461,4231.153809,4232.307617,4473.589844,4465.384766,4367.179688,4400.769043,5312.000000,3.000000,71.000000,,,,0.000000,4.000000,4.000000,4.000000,4.000000,4.000000,4.000000,4.000000,4.000000,4.000000,4.000000,4.000000,4.000000,4.000000,4.000000,100.000000,,,,,,,,,,,,,,,,,,,,,,,,,,,,
1703500752.630829,1703500752.631813,70.000000,0.000000,4298.461426,4307.436035,4310.000000,4311.025879,4264.102539,4263.589844,4264.615234,4244.230957,4226.282227,4219.871582,4462.563965,4461.666504,4358.974121,4400.128418,4427.000000,3.000000,71.000000,,,,0.000000,4.000000,4.000000,4.000000,4.000000,4.000000,4.000000,4.000000,4.000000,4.000000,4.000000,4.000000,4.000000,4.000000,4.000000,100.000000,,,,,,,,,,,,,,,,,,,,,,,,,,,,
1703500752.638637,1703500752.639521,71.000000,0.000000,4296.794922,4305.512695,4302.563965,4308.205078,4273.717773,4264.358887,4265.897461,4245.641113,4230.000000,4220.384766,4464.230957,4457.051270,4358.461426,4400.128418,5267.000000,3.000000,71.000000,,,,0.000000,4.000000,4.000000,4.000000,4.000000,4.000000,4.000000,4.000000,4.000000,4.000000,4.000000,4.000000,4.000000,4.000000,4.000000,100.000000,,,,,,,,,,,,,,,,,,,,,,,,,,,,
1703500752.646445,1703500752.647329,72.000000,0.000000,4288.077148,4299.615234,4305.897461,4300.384766,4270.641113,4265.769043,4267.436035,4259.358887,4244.358887,4233.717773,4472.436035,4461.538574,4360.128418,4399.102539,5432.000000,3.000000,71.000000,,,,0.000000,4.000000,4.000000,4.000000,4.000000,4.000000,4.000000,4.000000,4.000000,4.000000,4.000000,4.000000,4.000000,4.000000,4.000000,100.000000,1.000000,100.000000,4.000000,4.000000,4.000000,4.000000,4.000000,4.000000,4.000000,4.000000,4.000000,4.000000,4.000000,4.000000,4.000000,4.000000,18.000000,0.000000,0.642124,0.267334,-0.637756,0.330872,0.995239,-0.092296,0.037602,-13.352124,-35.842098,62.352055
1703500752.654254,1703500752.655037,73.000000,0.000000,4285.000000,4296.025879,4309.615234,4296.025879,4263.461426,4263.205078,4267.692383,4276.025879,4256.666504,4238.717773,4476.410156,4472.820313,4362.051270,4398.717773,5442.000000,3.000000,71.000000,,,,0.000000,4.000000,4.000000,4.000000,4.000000,4.000000,4.000000,4.000000,4.000000,4.000000,4.000000,4.000000,4.000000,4.000000,4.000000,100.000000,,,,,,,,,,,,,,,,,,,,,,,,,,,,
1703500752.662062,1703500752.662845,74.000000,0.000000,4279.102539,4294.487305,4300.897461,4295.384766,4262.820313,4260.641113,4264.102539,4279.615234,4257.820313,4235.512695,4474.358887,4470.897461,4363.589844,4393.974121,6080.000000,3.000000,71.000000,,,,0.000000,4.000000,4.000000,4.000000,4.000000,4.000000,4.000000,4.000000,4.000000,4.000000,4.000000,4.000000,4.000000,4.000000,4.000000,100.000000,,,,,,,,,,,,,,,,,,,,,,,,,,,,
1703500752.669870,1703500752.670553,75.000000,0.000000,4265.256348,4290.256348,4295.000000,4293.461426,4260.512695,4260.897461,4261.922852,4276.025879,4252.692383,4234.230957,4468.205078,4458.717773,4360.128418,4386.410156,6342.000000,3.000000,71.000000,,,,0.000000,4.000000,4.000000,4.000000,4.000000,4.000000,4.000000,4.000000,4.000000,4.000000,4.000000,4.000000,4.000000,4.000000,4.000000,100.000000,,,,,,,,,,,,,,,,,,,,,,,,,,,,
1703500752.677678,1703500752.678461,76.000000,0.000000,4263.077148,4291.922852,4304.487305,4292.692383,4260.641113,4261.922852,4265.769043,4279.487305,4251.410156,4231.538574,4467.307617,4464.487305,4357.563965,4389.871582,6872.000000,3.000000,71.000000,,,,0.000000,4.000000,4.000000,4.000000,4.000000,4.000000,4.000000,4.000000,4.000000,4.000000,4.000000,4.000000,4.000000,4.000000,4.000000,100.000000,,,,,,,,,,,,,,,,,19.000000,0.000000,0.642101,0.267395,-0.637817,0.330750,0.981565,-0.088878,0.046881,-13.283578,-35.807888,62.233517
1703500752.685486,1703500752.686269,77.000000,0.000000,4272.563965,4295.384766,4315.769043,4295.256348,4263.589844,4258.717773,4267.820313,4277.692383,4249.358887,4228.589844,4467.436035,4479.358887,4359.358887,4397.948730,7441.000000,3.000000,71.000000,,,,0.000000,4.000000,4.000000,4.000000,4.000000,4.000000,4.000000,4.000000,4.000000,4.000000,4.000000,4.000000,4.000000,4.000000,4.000000,100.000000,,,,,,,,,,,,,,,,,,,,,,,,,,,,
1703500752.693294,1703500752.694177,78.000000,0.000000,4278.205078,4294.487305,4317.051270,4301.794922,4262.179688,4257.692383,4262.307617,4264.615234,4242.179688,4230.512695,4463.589844,4474.743652,4361.282227,4395.384766,6080.000000,3.000000,71.000000,,,,0.000000,4.000000,4.000000,4.000000,4.000000,4.000000,4.000000,4.000000,4.000000,4.000000,4.000000,4.000000,4.000000,4.000000,4.000000,100.000000,,,,,,,,,,,,,,,,,,,,,,,,,,,,
1703500752.701102,1703500752.701985,79.000000,0.000000,4274.743652,4299.615234,4315.000000,4306.922852,4262.820313,4263.333496,4266.794922,4257.051270,4235.641113,4234.871582,4465.512695,4464.102539,4363.205078,4389.615234,6342.000000,3.000000,71.000000,,,,0.000000,4.000000,4.000000,4.000000,4.000000,4.000000,4.000000,4.000000,4.000000,4.000000,4.000000,4.000000,4.000000,4.000000,4.000000,100.000000,,,,,,,,,,,,,,,,,,,,,,,,,,,,
1703500752.708910,1703500752.709893,80.000000,0.000000,4268.717773,4304.743652,4314.102539,4302.307617,4266.922852,4266.153809,4276.922852,4257.563965,4234.743652,4232.692383,4466.794922,4464.615234,4363.333496,4392.179688,6872.000000,3.000000,71.000000,,,,0.000000,4.000000,4.000000,4.000000,4.000000,4.000000,4.000000,4.000000,4.000000,4.000000,4.000000,4.000000,4.000000,4.000000,4.000000,100.000000,,,,,,,,,,,,,,,,,20.000000,0.000000,0.642158,0.267334,-0.637817,0.330688,0.983518,-0.081553,0.052252,-13.238554,-35.977100,62.360165
1703500752.716718,1703500752.717701,81.000000,0.000000,4263.846191,4295.897461,4310.384766,4292.820313,4263.205078,4265.769043,4272.563965,4257.948730,4238.333496,4225.256348,4462.179688,4463.333496,4359.487305,4392.948730,7441.000000,3.000000,71.000000,,,,0.000000,4.000000,4.000000,4.000000,4.000000,4.000000,4.000000,4.000000,4.000000,4.000000,4.000000,4.000000,4.000000,4.000000,4.000000,100.000000,,,,,,,,,,,,,,,,,,,,,,,,,,,,
1703500752.724526,1703500752.725609,82.000000,0.000000,4263.717773,4295.641113,4308.077148,4295.000000,4263.077148,4271.025879,4270.897461,4266.410156,4247.948730,4233.974121,4469.487305,4460.897461,4364.743652,4393.205078,6080.000000,3.000000,71.000000,,,,0.000000,4.000000,4.000000,4.000000,4.000000,4.000000,4.000000,4.000000,4.000000,4.000000,4.000000,4.000000,4.000000,4.000000,4.000000,100.000000,,,,,,,,,,,,,,,,,,,,,,,,,,,,
1703500752.732334,1703500752.733417,83.000000,0.000000,4263.974121,4307.436035,4311.153809,4305.256348,4271.922852,4277.692383,4279.230957,4280.384766,4260.641113,4251.922852,4481.410156,4462.563965,4376.282227,4404.871582,6342.000000,3.000000,71.000000,,,,0.000000,4.000000,4.000000,4.000000,4.000000,4.000000,4.000000,4.000000,4.000000,4.000000,4.000000,4.000000,4.000000,4.000000,4.000000,100.000000,,,,,,,,,,,,,,,,,,,,,,,,,,,,
1703500752.740142,1703500752.741125,84.000000,0.000000,4265.000000,4308.974121,4312.307617,4307.563965,4274.230957,4274.358887,4278.077148,4283.589844,4268.333496,4253.589844,4479.743652,4461.538574,4378.717773,4416.410156,6872.000000,3.000000,71.000000,,,,0.000000,4.000000,4.000000,4.000000,4.000000,4.000000,4.000000,4.000000,4.000000,4.000000,4.000000,4.000000,4.000000,4.000000,4.000000,100.000000,,,,,,,,,,,,,,,,,21.000000,0.000000,0.642209,0.267212,-0.637817,0.330688,0.980588,-0.093761,0.036626,-13.048032,-35.929390,62.457481
1703500752.747950,1703500752.748933,85.000000,0.000000,4269.615234,4304.743652,4310.641113,4302.820313,4268.077148,4266.922852,4270.000000,4281.282227,4267.436035,4247.436035,4480.641113,4462.563965,4378.589844,4407.436035,7441.000000,3.000000,71.000000,,,,0.000000,4.000000,4.000000,4.000000,4.000000,4.000000,4.000000,4.000000,4.000000,4.000000,4.000000,4.000000,4.000000,4.000000,4.000000,100.000000,,,,,,,,,,,,,,,,,,,,,,,,,,,,
1703500752.755758,1703500752.756641,86.000000,0.000000,4271.282227,4302.948730,4310.000000,4297.179688,4261.794922,4264.230957,4264.615234,4281.282227,4263.846191,4249.102539,4488.846191,4463.717773,4381.282227,4399.358887,6080.000000,3.000000,71.000000,,,,0.000000,4.000000,4.000000,4.000000,4.000000,4.000000,4.000000,4.000000,4.000000,4.000000,4.000000,4.000000,4.000000,4.000000,4.000000,100.000000,,,,,,,,,,,,,,,,,,,,,,,,,,,,
1703500752.763566,1703500752.764449,87.000000,0.000000,4271.282227,4297.436035,4308.077148,4294.487305,4259.230957,4262.692383,4261.922852,4280.128418,4265.769043,4241.666504,4485.769043,4459.230957,4381.025879,4411.025879,6342.000000,3.000000,71.000000,,,,0.000000,4.000000,4.000000,4.000000,4.000000,4.000000,4.000000,4.000000,4.000000,4.000000,4.000000,4.000000,4.000000,4.000000,4.000000,100.000000,,,,,,,,,,,,,,,,,,,,,,,,,,,,
1703500752.771374,1703500752.772157,88.000000,0.000000,4267.692383,4293.974121,4309.615234,4295.384766,4260.384766,4262.179688,4263.333496,4278.717773,4263.333496,4231.538574,4477.307617,4457.948730,4373.333496,4414.743652,6872.000000,3.000000,71.000000,,,,0.000000,4.000000,4.000000,4.000000,4.000000,4.000000,4.000000,4.000000,4.000000,4.000000,4.000000,4.000000,4.000000,4.000000,4.000000,100.000000,,,,,,,,,,,,,,,,,22.000000,0.000000,0.642200,0.267151,-0.637756,0.330872,0.990355,-0.089366,0.044927,-13.243229,-35.953117,62.511734
1703500752.779182,1703500752.779965,89.000000,0.000000,4261.666504,4294.743652,4309.615234,4295.641113,4264.102539,4263.333496,4265.512695,4275.256348,4252.948730,4238.717773,4473.333496,4457.563965,4365.384766,4400.897461,7441.000000,3.000000,71.000000,,,,0.000000,4.000000,4.000000,4.000000,4.000000,4.000000,4.000000,4.000000,4.000000,4.000000,4.000000,4.000000,4.000000,4.000000,4.000000,100.000000,,,,,,,,,,,,,,,,,,,,,,,,,,,,
1703500752.786990,1703500752.787673,90.000000,0.000000,4266.025879,4292.436035,4307.051270,4292.948730,4264.743652,4263.333496,4262.307617,4267.179688,4246.538574,4240.641113,4465.641113,4450.769043,4363.846191,4389.487305,6080.000000,3.000000,71.000000,,,,0.000000,4.000000,4.000000,4.000000,4.000000,4.000000,4.000000,4.000000,4.000000,4.000000,4.000000,4.000000,4.000000,4.000000,4.000000,100.000000,,,,,,,,,,,,,,,,,,,,,,,,,,,,
1703500752.794798,1703500752.795481,91.000000,0.000000,4272.307617,4293.077148,4309.487305,4293.205078,4264.230957,4262.948730,4262.563965,4266.410156,4248.077148,4230.384766,4461.410156,4448.717773,4364.230957,4391.153809,6342.000000,3.000000,71.000000,,,,0.000000,4.000000,4.000000,4.000000,4.000000,4.000000,4.000000,4.000000,4.000000,4.000000,4.000000,4.000000,4.000000,4.000000,4.000000,100.000000,,,,,,,,,,,,,,,,,,,,,,,,,,,,
1703500752.802606,1703500752.803189,92.000000,0.000000,4267.948730,4299.615234,4312.051270,4297.692383,4271.666504,4266.282227,4270.641113,4276.922852,4257.948730,4236.282227,4471.922852,4458.205078,4369.487305,4397.179688,6872.000000,3.000000,71.000000,,,,0.000000,4.000000,4.000000,4.000000,4.000000,4.000000,4.000000,4.000000,4.000000,4.000000,4.000000,4.000000,4.000000,4.000000,4.000000,100.000000,,,,,,,,,,,,,,,,,23.000000,0.000000,0.642100,0.267090,-0.637756,0.331116,0.990844,-0.089855,0.047369,-13.152239,-35.857803,62.443893
1703500752.810414,1703500752.810997,93.000000,0.000000,4263.974121,4299.487305,4308.846191,4298.077148,4276.666504,4268.589844,4278.205078,4281.922852,4265.512695,4248.205078,4479.615234,4463.974121,4371.282227,4400.769043,7441.000000,3.000000,71.000000,,,,0.000000,4.000000,4.000000,4.000000,4.000000,4.000000,4.000000,4.000000,4.000000,4.000000,4.000000,4.000000,4.000000,4.000000,4.000000,100.000000,,,,,,,,,,,,,,,,,,,,,,,,,,,,
1703500752.818223,1703500752.818705,94.000000,0.000000,4267.051270,4295.897461,4309.487305,4296.410156,4274.743652,4267.948730,4275.641113,4281.153809,4267.179688,4246.410156,4474.871582,4459.230957,4366.666504,4400.897461,6080.000000,3.000000,71.000000,,,,0.000000,4.000000,4.000000,4.000000,4.000000,4.000000,4.000000,4.000000,4.000000,4.000000,4.000000,4.000000,4.000000,4.000000,4.000000,100.000000,,,,,,,,,,,,,,,,,,,,,,,,,,,,
1703500752.826031,1703500752.826513,95.000000,0.000000,4268.846191,4298.974121,4315.897461,4297.948730,4271.794922,4268.717773,4271.794922,4281.410156,4268.333496,4243.077148,4473.846191,4459.102539,4361.025879,4397.179688,6342.000000,3.000000,71.000000,,,,0.000000,4.000000,4.000000,4.000000,4.000000,4.000000,4.000000,4.000000,4.000000,4.000000,4.000000,4.000000,4.000000,4.000000,4.000000,100.000000,,,,,,,,,,,,,,,,,,,,,,,,,,,,
1703500752.833839,1703500752.834221,96.000000,0.000000,4273.974121,4306.282227,4317.051270,4301.538574,4275.641113,4271.922852,4275.384766,4285.000000,4272.692383,4243.461426,4475.512695,4469.487305,4358.077148,4401.922852,6872.000000,3.000000,71.000000,,,,0.000000,4.000000,4.000000,4.000000,4.000000,4.000000,4.000000,4.000000,4.000000,4.000000,4.000000,4.000000,4.000000,4.000000,4.000000,100.000000,,,,,,,,,,,,,,,,,24.000000,0.000000,0.642090,0.266968,-0.637817,0.331116,0.975705,-0.081553,0.049811,-13.103682,-35.872025,62.566170
1703500752.841647,1703500752.842029,97.000000,0.000000,4279.230957,4306.794922,4317.563965,4300.897461,4280.897461,4271.794922,4274.871582,4289.615234,4276.410156,4245.769043,4475.128418,4473.974121,4359.615234,4411.410156,7441.000000,3.000000,71.000000,,,,0.000000,4.000000,4.000000,4.000000,4.000000,4.000000,4.000000,4.000000,4.000000,4.000000,4.000000,4.000000,4.000000,4.000000,4.000000,100.000000,,,,,,,,,,,,,,,,,,,,,,,,,,,,
1703500752.849455,1703500752.849737,98.000000,0.000000,4278.077148,4300.000000,4321.922852,4297.307617,4269.358887,4265.512695,4266.282227,4286.922852,4269.871582,4249.487305,4475.769043,4468.205078,4355.512695,4409.871582,6080.000000,3.000000,71.000000,,,,0.000000,4.000000,4.000000,4.000000,4.000000,4.000000,4.000000,4.000000,4.000000,4.000000,4.000000,4.000000,4.000000,4.000000,4.000000,100.000000,,,,,,,,,,,,,,,,,,,,,,,,,,,,
1703500752.857263,1703500752.857645,99.000000,0.000000,4278.077148,4300.000000,4324.487305,4296.538574,4259.615234,4262.948730,4263.077148,4281.410156,4262.948730,4246.794922,4477.436035,4471.666504,4355.000000,4403.717773,6342.000000,3.000000,71.000000,,,,0.000000,4.000000,4.000000,4.000000,4.000000,4.000000,4.000000,4.000000,4.000000,4.000000,4.000000,4.000000,4.000000,4.000000,4.000000,100.000000,,,,,,,,,,,,,,,,,,,,,,,,,,,,
1703500752.865071,1703500752.865453,100.000000,0.000000,4280.128418,4307.051270,4324.487305,4295.256348,4272.692383,4265.384766,4265.128418,4277.179688,4261.666504,4241.282227,4478.717773,4479.615234,4361.025879,4402.820313,6872.000000,3.000000,71.000000,,,,0.000000,4.000000,4.000000,4.000000,4.000000,4.000000,4.000000,4.000000,4.000000,4.000000,4.000000,4.000000,4.000000,4.000000,4.000000,100.000000,,,,,,,,,,,,,,,,,25.000000,0.000000,0.642149,0.266907,-0.637878,0.330933,0.992309,-0.087413,0.048834,-12.959980,-35.718155,62.509552
1703500752.872879,1703500752.873361,101.000000,0.000000,4279.871582,4307.820313,4325.384766,4296.666504,4283.846191,4265.384766,4264.230957,4267.820313,4252.948730,4241.794922,4475.384766,4476.282227,4359.358887,4404.487305,7441.000000,3.000000,71.000000,,,,0.000000,4.000000,4.000000,4.000000,4.000000,4.000000,4.000000,4.000000,4.000000,4.000000,4.000000,4.000000,4.000000,4.000000,4.000000,100.000000,,,,,,,,,,,,,,,,,,,,,,,,,,,,
1703500752.880687,1703500752.881169,102.000000,0.000000,4280.384766,4307.692383,4327.692383,4305.000000,4278.077148,4267.307617,4264.615234,4259.487305,4247.179688,4245.512695,4476.410156,4475.384766,4358.717773,4409.615234,6080.000000,3.000000,71.000000,,,,0.000000,4.000000,4.000000,4.000000,4.000000,4.000000,4.000000,4.000000,4.000000,4.000000,4.000000,4.000000,4.000000,4.000000,4.000000,100.000000,,,,,,,,,,,,,,,,,,,,,,,,,,,,
1703500752.888495,1703500752.889077,103.000000,0.000000,4282.051270,4310.256348,4328.974121,4305.897461,4278.717773,4270.128418,4271.282227,4261.153809,4253.974121,4249.743652,4482.820313,4483.589844,4367.051270,4413.589844,6342.000000,3.000000,71.000000,,,,0.000000,4.000000,4.000000,4.000000,4.000000,4.000000,4.000000,4.000000,4.000000,4.000000,4.000000,4.000000,4.000000,4.000000,4.000000,100.000000,,,,,,,,,,,,,,,,,,,,,,,,,,,,
1703500752.896303,1703500752.896884,104.000000,0.000000,4280.769043,4304.487305,4322.820313,4294.487305,4280.769043,4268.846191,4272.948730,4264.230957,4257.179688,4252.820313,4480.897461,4479.615234,4368.333496,4406.282227,6872.000000,3.000000,71.000000,,,,0.000000,4.000000,4.000000,4.000000,4.000000,4.000000,4.000000,4.000000,4.000000,4.000000,4.000000,4.000000,4.000000,4.000000,4.000000,100.000000,,,,,,,,,,,,,,,,,26.000000,0.000000,0.642145,0.266846,-0.637939,0.330872,0.999634,-0.088390,0.044439,-12.963983,-35.779675,62.508598
1703500752.904111,1703500752.904792,105.000000,0.000000,4273.974121,4297.307617,4310.641113,4288.333496,4267.563965,4266.025879,4265.641113,4260.897461,4254.487305,4247.948730,4472.948730,4463.589844,4357.563965,4398.461426,7441.000000,3.000000,71.000000,,,,0.000000,4.000000,4.000000,4.000000,4.000000,4.000000,4.000000,4.000000,4.000000,4.000000,4.000000,4.000000,4.000000,4.000000,4.000000,100.000000,,,,,,,,,,,,,,,,,,,,,,,,,,,,
1703500752.911919,1703500752.912600,106.000000,0.000000,4270.897461,4304.358887,4311.025879,4294.487305,4264.743652,4265.000000,4265.256348,4263.077148,4258.077148,4240.000000,4473.333496,4459.230957,4354.871582,4399.358887,6080.000000,3.000000,71.000000,,,,0.000000,4.000000,4.000000,4.000000,4.000000,4.000000,4.000000,4.000000,4.000000,4.000000,4.000000,4.000000,4.000000,4.000000,4.000000,100.000000,,,,,,,,,,,,,,,,,,,,,,,,,,,,
1703500752.919727,1703500752.920508,107.000000,0.000000,4285.000000,4317.692383,4327.820313,4304.615234,4282.692383,4269.871582,4274.230957,4275.384766,4269.871582,4247.820313,4486.153809,4480.641113,4369.615234,4417.820313,6342.000000,3.000000,71.000000,,,,0.000000,4.000000,4.000000,4.000000,4.000000,4.000000,4.000000,4.000000,4.000000,4.000000,4.000000,4.000000,4.000000,4.000000,4.000000,100.000000,,,,,,,,,,,,,,,,,,,,,,,,,,,,
1703500752.927535,1703500752.928316,108.000000,0.000000,4298.974121,4319.871582,4335.512695,4306.410156,4290.000000,4272.692383,4275.384766,4285.512695,4278.974121,4258.846191,4496.666504,4503.717773,4381.922852,4434.358887,6872.000000,3.000000,71.000000,,,,0.000000,4.000000,4.000000,4.000000,4.000000,4.000000,4.000000,4.000000,4.000000,4.000000,4.000000,4.000000,4.000000,4.000000,4.000000,100.000000,,,,,,,,,,,,,,,,,27.000000,0.000000,0.642177,0.266846,-0.637939,0.330811,0.981565,-0.097668,0.039556,-13.000917,-35.735039,62.607738
1703500752.935343,1703500752.936024,109.000000,0.000000,4293.333496,4313.974121,4328.974121,4298.205078,4279.102539,4265.000000,4266.153809,4280.769043,4273.333496,4250.000000,4494.743652,4502.563965,4378.077148,4418.077148,7441.000000,3.000000,71.000000,,,,0.000000,4.000000,4.000000,4.000000,4.000000,4.000000,4.000000,4.000000,4.000000,4.000000,4.000000,4.000000,4.000000,4.000000,4.000000,100.000000,,,,,,,,,,,,,,,,,,,,,,,,,,,,
1703500752.943151,1703500752.943832,110.000000,0.000000,4288.333496,4313.461426,4325.000000,4297.436035,4274.487305,4260.897461,4262.820313,4272.948730,4264.102539,4247.563965,4488.589844,4490.000000,4371.538574,4410.384766,6080.000000,3.000000,71.000000,,,,0.000000,4.000000,4.000000,4.000000,4.000000,4.000000,4.000000,4.000000,4.000000,4.000000,4.000000,4.000000,4.000000,4.000000,4.000000,100.000000,,,,,,,,,,,,,,,,,,,,,,,,,,,,
1703500752.950959,1703500752.951540,111.000000,0.000000,4291.666504,4315.000000,4326.282227,4301.025879,4281.153809,4265.897461,4267.948730,4266.666504,4254.615234,4249.743652,4479.487305,4481.538574,4366.666504,4423.717773,6342.000000,3.000000,71.000000,,,,0.000000,4.000000,4.000000,4.000000,4.000000,4.000000,4.000000,4.000000,4.000000,4.000000,4.000000,4.000000,4.000000,4.000000,4.000000,100.000000,,,,,,,,,,,,,,,,,,,,,,,,,,,,
1703500752.958768,1703500752.959348,112.000000,0.000000,4284.230957,4311.153809,4325.000000,4294.871582,4280.000000,4264.487305,4266.922852,4254.102539,4242.436035,4235.641113,4469.615234,4474.615234,4357.820313,4411.282227,6872.000000,3.000000,71.000000,,,,0.000000,4.000000,4.000000,4.000000,4.000000,4.000000,4.000000,4.000000,4.000000,4.000000,4.000000,4.000000,4.000000,4.000000,4.000000,100.000000,,,,,,,,,,,,,,,,,28.000000,0.000000,0.642177,0.266846,-0.637939,0.330811,0.987914,-0.082041,0.039067,-13.000826,-35.711536,62.596966
1703500752.966576,1703500752.967056,113.000000,0.000000,4274.102539,4303.717773,4323.461426,4291.410156,4269.230957,4259.743652,4261.410156,4245.512695,4235.641113,4227.179688,4467.436035,4473.077148,4353.974121,4393.333496,7441.000000,3.000000,71.000000,,,,0.000000,4.000000,4.000000,4.000000,4.000000,4.000000,4.000000,4.000000,4.000000,4.000000,4.000000,4.000000,4.000000,4.000000,4.000000,100.000000,,,,,,,,,,,,,,,,,,,,,,,,,,,,
1703500752.974383,1703500752.974864,114.000000,0.000000,4278.333496,4299.871582,4325.897461,4294.871582,4268.077148,4264.487305,4265.641113,4247.051270,4236.153809,4228.589844,4465.641113,4479.743652,4350.384766,4402.948730,6080.000000,3.000000,71.000000,,,,0.000000,4.000000,4.000000,4.000000,4.000000,4.000000,4.000000,4.000000,4.000000,4.000000,4.000000,4.000000,4.000000,4.000000,4.000000,100.000000,,,,,,,,,,,,,,,,,,,,,,,,,,,,
1703500752.982192,1703500752.982572,115.000000,0.000000,4281.666504,4298.974121,4325.641113,4290.256348,4279.358887,4275.384766,4273.974121,4254.102539,4236.666504,4223.461426,4463.846191,4484.358887,4344.871582,4410.769043,6342.000000,3.000000,71.000000,,,,0.000000,4.000000,4.000000,4.000000,4.000000,4.000000,4.000000,4.000000,4.000000,4.000000,4.000000,4.000000,4.000000,4.000000,4.000000,100.000000,,,,,,,,,,,,,,,,,,,,,,,,,,,,
1703500752.990000,1703500752.990380,116.000000,0.000000,4278.461426,4301.410156,4323.846191,4287.179688,4284.487305,4280.128418,4278.589844,4260.384766,4244.871582,4224.102539,4469.230957,4486.538574,4352.051270,4408.717773,6872.000000,3.000000,71.000000,,,,0.000000,4.000000,4.000000,4.000000,4.000000,4.000000,4.000000,4.000000,4.000000,4.000000,4.000000,4.000000,4.000000,4.000000,4.000000,100.000000,,,,,,,,,,,,,,,,,29.000000,0.000000,0.642200,0.266785,-0.637878,0.330933,0.986937,-0.080088,0.036137,-13.034077,-35.640381,62.470600
1703500752.997808,1703500752.998088,117.000000,0.000000,4280.000000,4308.077148,4326.666504,4294.102539,4281.538574,4272.948730,4275.128418,4265.384766,4258.333496,4240.128418,4477.179688,4490.384766,4364.358887,4419.743652,7441.000000,3.000000,71.000000,,,,0.000000,4.000000,4.000000,4.000000,4.000000,4.000000,4.000000,4.000000,4.000000,4.000000,4.000000,4.000000,4.000000,4.000000,4.000000,100.000000,,,,,,,,,,,,,,,,,,,,,,,,,,,,
1703500753.005616,1703500753.005997,118.000000,0.000000,4283.205078,4308.461426,4328.461426,4294.487305,4281.153809,4265.641113,4266.410156,4272.051270,4263.974121,4250.897461,4482.692383,4493.205078,4366.922852,4427.563965,6080.000000,3.000000,71.000000,,,,0.000000,4.000000,4.000000,4.000000,4.000000,4.000000,4.000000,4.000000,4.000000,4.000000,4.000000,4.000000,4.000000,4.000000,4.000000,100.000000,,,,,,,,,,,,,,,,,,,,,,,,,,,,
1703500753.013424,1703500753.013805,119.000000,0.000000,4283.589844,4302.820313,4328.846191,4289.615234,4273.974121,4264.871582,4264.230957,4278.205078,4265.641113,4253.333496,4481.410156,4497.563965,4364.871582,4423.974121,6342.000000,3.000000,71.000000,,,,0.000000,4.000000,4.000000,4.000000,4.000000,4.000000,4.000000,4.000000,4.000000,4.000000,4.000000,4.000000,4.000000,4.000000,4.000000,100.000000,,,,,,,,,,,,,,,,,,,,,,,,,,,,
1703500753.021232,1703500753.021713,120.000000,0.000000,4280.128418,4300.641113,4326.538574,4287.692383,4262.436035,4264.102539,4266.922852,4282.948730,4269.230957,4252.563965,4476.410156,4503.846191,4366.538574,4422.436035,6872.000000,3.000000,71.000000,,,,0.000000,4.000000,4.000000,4.000000,4.000000,4.000000,4.000000,4.000000,4.000000,4.000000,4.000000,4.000000,4.000000,4.000000,4.000000,100.000000,,,,,,,,,,,,,,,,,30.000000,0.000000,0.642135,0.266724,-0.638000,0.330872,0.979612,-0.085460,0.041021,-13.030669,-35.626343,62.473541
1703500753.029040,1703500753.029521,121.000000,0.000000,4283.077148,4305.769043,4327.051270,4286.922852,4268.846191,4264.102539,4267.307617,4289.102539,4276.153809,4250.000000,4482.692383,4513.846191,4377.436035,4427.692383,7441.000000,3.000000,71.000000,,,,0.000000,4.000000,4.000000,4.000000,4.000000,4.000000,4.000000,4.000000,4.000000,4.000000,4.000000,4.000000,4.000000,4.000000,4.000000,100.000000,,,,,,,,,,,,,,,,,,,,,,,,,,,,
1703500753.036848,1703500753.037329,122.000000,0.000000,4293.846191,4308.846191,4334.871582,4290.897461,4279.743652,4264.102539,4266.794922,4290.769043,4278.461426,4253.589844,4488.077148,4520.897461,4380.641113,4435.384766,6080.000000,3.000000,71.000000,,,,0.000000,4.000000,4.000000,4.000000,4.000000,4.000000,4.000000,4.000000,4.000000,4.000000,4.000000,4.000000,4.000000,4.000000,4.000000,100.000000,,,,,,,,,,,,,,,,,,,,,,,,,,,,
1703500753.044656,1703500753.045037,123.000000,0.000000,4290.128418,4303.205078,4334.230957,4290.897461,4267.563965,4260.256348,4264.102539,4276.153809,4263.205078,4250.769043,4465.512695,4507.436035,4362.563965,4425.641113,6342.000000,3.000000,71.000000,,,,0.000000,4.000000,4.000000,4.000000,4.000000,4.000000,4.000000,4.000000,4.000000,4.000000,4.000000,4.000000,4.000000,4.000000,4.000000,100.000000,,,,,,,,,,,,,,,,,,,,,,,,,,,,
1703500753.052464,1703500753.052944,124.000000,0.000000,4277.563965,4299.615234,4324.230957,4284.230957,4254.871582,4259.487305,4262.692383,4263.461426,4247.948730,4234.871582,4444.230957,4490.897461,4352.563965,4411.153809,6872.000000,3.000000,71.000000,,,,0.000000,4.000000,4.000000,4.000000,4.000000,4.000000,4.000000,4.000000,4.000000,4.000000,4.000000,4.000000,4.000000,4.000000,4.000000,100.000000,,,,,,,,,,,,,,,,,31.000000,0.000000,0.642221,0.266663,-0.637939,0.330872,0.990355,-0.079600,0.043462,-13.127602,-35.863708,62.426186
1703500753.060272,1703500753.060752,125.000000,0.000000,4278.333496,4302.051270,4326.282227,4286.282227,4268.077148,4265.128418,4264.102539,4259.487305,4242.436035,4219.743652,4446.153809,4493.717773,4358.846191,4414.358887,7441.000000,3.000000,71.000000,,,,0.000000,4.000000,4.000000,4.000000,4.000000,4.000000,4.000000,4.000000,4.000000,4.000000,4.000000,4.000000,4.000000,4.000000,4.000000,100.000000,,,,,,,,,,,,,,,,,,,,,,,,,,,,
1703500753.068080,1703500753.068560,126.000000,0.000000,4283.717773,4305.769043,4336.282227,4295.128418,4281.922852,4266.666504,4264.615234,4251.538574,4240.512695,4225.897461,4447.179688,4504.615234,4359.230957,4419.871582,6080.000000,3.000000,71.000000,,,,0.000000,4.000000,4.000000,4.000000,4.000000,4.000000,4.000000,4.000000,4.000000,4.000000,4.000000,4.000000,4.000000,4.000000,4.000000,100.000000,,,,,,,,,,,,,,,,,,,,,,,,,,,,
1703500753.075888,1703500753.076268,127.000000,0.000000,4287.051270,4310.512695,4337.307617,4297.563965,4280.512695,4266.794922,4267.948730,4249.615234,4241.666504,4242.436035,4442.436035,4505.897461,4356.922852,4416.153809,71.000000,3.000000,71.000000,,,,0.000000,4.000000,4.000000,4.000000,4.000000,4.000000,4.000000,4.000000,4.000000,4.000000,4.000000,4.000000,4.000000,4.000000,4.000000,100.000000,,,,,,,,,,,,,,,,,,,,,,,,,,,,
1703500753.083696,1703500753.084176,0.000000,0.000000,4290.256348,4309.102539,4330.769043,4293.589844,4280.256348,4271.025879,4269.615234,4257.948730,4244.102539,4238.333496,4441.282227,4495.384766,4359.230957,4413.846191,5639.000000,3.000000,71.000000,,,,0.000000,4.000000,4.000000,4.000000,4.000000,4.000000,4.000000,4.000000,4.000000,4.000000,4.000000,4.000000,4.000000,4.000000,4.000000,100.000000,,,,,,,,,,,,,,,,,0.000000,0.000000,0.642329,0.266846,-0.637817,0.330750,0.989867,-0.074228,0.040532,-13.148175,-35.860672,62.450233
1703500753.091504,1703500753.091984,1.000000,0.000000,4283.717773,4299.358887,4325.384766,4286.922852,4274.743652,4270.641113,4265.000000,4262.948730,4248.589844,4228.461426,4443.461426,4488.333496,4356.538574,4413.205078,5596.000000,3.000000,71.000000,,,,0.000000,4.000000,4.000000,4.000000,4.000000,4.000000,4.000000,4.000000,4.000000,4.000000,4.000000,4.000000,4.000000,4.000000,4.000000,100.000000,,,,,,,,,,,,,,,,,,,,,,,,,,,,
1703500753.099312,1703500753.099892,2.000000,0.000000,4275.512695,4292.692383,4322.436035,4277.948730,4260.000000,4266.666504,4263.077148,4265.769043,4257.692383,4239.230957,4445.897461,4497.051270,4355.000000,4411.153809,5419.000000,3.000000,71.000000,,,,0.000000,4.000000,4.000000,4.000000,4.000000,4.000000,4.000000,4.000000,4.000000,4.000000,4.000000,4.000000,4.000000,4.000000,4.000000,100.000000,,,,,,,,,,,,,,,,,,,,,,,,,,,,
1703500753.107120,1703500753.107700,3.000000,0.000000,4276.538574,4296.282227,4318.461426,4278.846191,4262.179688,4264.615234,4264.487305,4275.769043,4268.589844,4252.563965,4448.717773,4503.077148,4363.589844,4415.256348,5419.000000,3.000000,71.000000,,,,0.000000,4.000000,4.000000,4.000000,4.000000,4.000000,4.000000,4.000000,4.000000,4.000000,4.000000,4.000000,4.000000,4.000000,4.000000,100.000000,,,,,,,,,,,,,,,,,,,,,,,,,,,,
1703500753.114928,1703500753.115608,4.000000,0.000000,4280.512695,4298.589844,4322.051270,4289.230957,4278.846191,4266.922852,4267.820313,4282.948730,4274.230957,4247.820313,4450.128418,4503.717773,4368.205078,4417.307617,5350.000000,3.000000,71.000000,,,,0.000000,4.000000,4.000000,4.000000,4.000000,4.000000,4.000000,4.000000,4.000000,4.000000,4.000000,4.000000,4.000000,4.000000,4.000000,100.000000,,,,,,,,,,,,,,,,,1.000000,0.000000,0.642480,0.266846,-0.637634,0.330811,0.977658,-0.090831,0.047369,-13.166691,-35.891270,62.388546
1703500753.122737,1703500753.123516,5.000000,0.000000,4287.179688,4302.820313,4333.333496,4295.769043,4283.974121,4272.820313,4270.000000,4283.589844,4278.077148,4244.743652,4454.230957,4513.717773,4366.153809,4421.282227,5310.000000,3.000000,71.000000,,,,0.000000,4.000000,4.000000,4.000000,4.000000,4.000000,4.000000,4.000000,4.000000,4.000000,4.000000,4.000000,4.000000,4.000000,4.000000,100.000000,,,,,,,,,,,,,,,,,,,,,,,,,,,,
1703500753.130545,1703500753.131324,6.000000,0.000000,4296.922852,4308.717773,4333.717773,4293.846191,4277.307617,4271.922852,4265.641113,4284.358887,4281.025879,4256.538574,4458.974121,4520.512695,4370.000000,4426.666504,4427.000000,3.000000,71.000000,,,,0.000000,4.000000,4.000000,4.000000,4.000000,4.000000,4.000000,4.000000,4.000000,4.000000,4.000000,4.000000,4.000000,4.000000,4.000000,100.000000,,,,,,,,,,,,,,,,,,,,,,,,,,,,
1703500753.138353,1703500753.139232,7.000000,0.000000,4296.025879,4303.077148,4328.461426,4290.128418,4271.666504,4263.461426,4260.897461,4276.666504,4268.974121,4254.743652,4452.307617,4512.692383,4369.615234,4419.487305,5258.000000,3.000000,71.000000,,,,0.000000,4.000000,4.000000,4.000000,4.000000,4.000000,4.000000,4.000000,4.000000,4.000000,4.000000,4.000000,4.000000,4.000000,4.000000,100.000000,,,,,,,,,,,,,,,,,,,,,,,,,,,,
1703500753.146161,1703500753.147041,8.000000,0.000000,4285.000000,4294.615234,4327.948730,4290.512695,4273.846191,4260.641113,4259.487305,4260.000000,4248.205078,4235.128418,4436.666504,4502.307617,4357.436035,4415.128418,5430.000000,3.000000,71.000000,,,,0.000000,4.000000,4.000000,4.000000,4.000000,4.000000,4.000000,4.000000,4.000000,4.000000,4.000000,4.000000,4.000000,4.000000,4.000000,100.000000,1.000000,91.666664,4.000000,4.000000,4.000000,4.000000,4.000000,4.000000,4.000000,4.000000,4.000000,3.000000,4.000000,4.000000,4.000000,4.000000,2.000000,0.000000,0.642652,0.266724,-0.637512,0.330811,0.992797,-0.087413,0.047369,-13.183355,-35.752144,62.366356
1703500753.153969,1703500753.154849,9.000000,0.000000,4277.179688,4292.692383,4322.820313,4287.179688,4277.179688,4263.333496,4258.717773,4245.897461,4239.358887,4229.102539,4425.256348,4491.410156,4346.922852,4414.871582,5437.000000,3.000000,71.000000,,,,0.000000,4.000000,4.000000,4.000000,4.000000,4.000000,4.000000,4.000000,4.000000,4.000000,4.000000,4.000000,4.000000,4.000000,4.000000,100.000000,,,,,,,,,,,,,,,,,,,,,,,,,,,,
1703500753.161777,1703500753.162557,10.000000,0.000000,4274.615234,4292.051270,4315.128418,4279.358887,4268.717773,4258.974121,4258.846191,4243.077148,4242.820313,4233.333496,4427.563965,4484.358887,4345.512695,4405.256348,6068.000000,3.000000,71.000000,,,,0.000000,4.000000,4.000000,4.000000,4.000000,4.000000,4.000000,4.000000,4.000000,4.000000,4.000000,4.000000,4.000000,4.000000,4.000000,100.000000,,,,,,,,,,,,,,,,,,,,,,,,,,,,
1703500753.169585,1703500753.170365,11.000000,0.000000,4281.794922,4293.461426,4317.307617,4278.846191,4259.102539,4258.077148,4258.333496,4254.230957,4248.333496,4235.256348,4442.692383,4495.897461,4355.128418,4407.563965,6332.000000,3.000000,71.000000,,,,0.000000,4.000000,4.000000,4.000000,4.000000,4.000000,4.000000,4.000000,4.000000,4.000000,4.000000,4.000000,4.000000,4.000000,4.000000,100.000000,,,,,,,,,,,,,,,,,,,,,,,,,,,,
1703500753.177393,1703500753.178073,12.000000,0.000000,4291.538574,4297.692383,4321.666504,4284.358887,4264.102539,4263.846191,4256.025879,4266.282227,4251.282227,4241.922852,4453.333496,4509.230957,4367.948730,4424.615234,6867.000000,3.000000,71.000000,,,,0.000000,4.000000,4.000000,4.000000,4.000000,4.000000,4.000000,4.000000,4.000000,4.000000,4.000000,4.000000,4.000000,4.000000,4.000000,100.000000,,,,,,,,,,,,,,,,,3.000000,0.000000,0.642632,0.266479,-0.637634,0.330811,0.972775,-0.092296,0.038579,-13.131686,-35.693596,62.413055
1703500753.185201,1703500753.185881,13.000000,0.000000,4286.410156,4294.743652,4312.436035,4279.358887,4268.717773,4259.615234,4253.205078,4265.256348,4251.153809,4239.615234,4444.871582,4498.461426,4364.102539,4415.000000,7428.000000,3.000000,71.000000,,,,0.000000,4.000000,4.000000,4.000000,4.000000,4.000000,4.000000,4.000000,4.000000,4.000000,4.000000,4.000000,4.000000,4.000000,4.000000,100.000000,,,,,,,,,,,,,,,,,,,,,,,,,,,,
1703500753.193009,1703500753.193589,14.000000,0.000000,4273.589844,4284.743652,4298.974121,4260.769043,4264.487305,4251.538574,4251.153809,4260.128418,4249.743652,4231.922852,4432.692383,4480.384766,4350.256348,4390.641113,6068.000000,3.000000,71.000000,,,,0.000000,4.000000,4.000000,4.000000,4.000000,4.000000,4.000000,4.000000,4.000000,4.000000,4.000000,4.000000,4.000000,4.000000,4.000000,100.000000,,,,,,,,,,,,,,,,,,,,,,,,,,,,
1703500753.200817,1703500753.201397,15.000000,0.000000,4269.871582,4280.512695,4291.666504,4245.512695,4261.153809,4249.102539,4250.769043,4260.897461,4249.358887,4237.948730,4434.487305,4479.743652,4347.948730,4388.333496,6332.000000,3.000000,71.000000,,,,0.000000,4.000000,4.000000,4.000000,4.000000,4.000000,4.000000,4.000000,4.000000,4.000000,4.000000,4.000000,4.000000,4.000000,4.000000,100.000000,,,,,,,,,,,,,,,,,,,,,,,,,,,,
1703500753.208625,1703500753.209105,16.000000,0.000000,4273.589844,4282.436035,4286.922852,4243.205078,4259.487305,4247.820313,4248.461426,4262.051270,4249.487305,4240.769043,4442.179688,4489.615234,4352.692383,4394.615234,0.000000,3.000000,71.000000,,,,0.000000,4.000000,4.000000,4.000000,4.000000,4.000000,4.000000,4.000000,4.000000,4.000000,4.000000,4.000000,4.000000,4.000000,4.000000,100.000000,,,,,,,,,,,,,,,,,4.000000,0.000000,0.642624,0.266357,-0.637756,0.330688,0.984007,-0.087413,0.035649,-13.218517,-35.590904,62.421749
1703500753.216433,1703500753.216913,17.000000,0.000000,4276.410156,4286.538574,4285.128418,4244.871582,4258.974121,4246.282227,4245.512695,4257.051270,4243.333496,4230.897461,4440.769043,4491.922852,4353.461426,4391.666504,0.000000,3.000000,71.000000,,,,0.000000,4.000000,4.000000,4.000000,4.000000,4.000000,4.000000,4.000000,4.000000,4.000000,4.000000,4.000000,4.000000,4.000000,4.000000,100.000000,,,,,,,,,,,,,,,,,,,,,,,,,,,,
1703500753.224241,1703500753.224621,18.000000,0.000000,4278.589844,4289.743652,4284.743652,4246.538574,4260.641113,4247.948730,4248.205078,4249.871582,4234.871582,4228.077148,4432.948730,4486.153809,4348.077148,4390.897461,0.000000,3.000000,71.000000,,,,0.000000,4.000000,4.000000,4.000000,4.000000,4.000000,4.000000,4.000000,4.000000,4.000000,4.000000,4.000000,4.000000,4.000000,4.000000,100.000000,,,,,,,,,,,,,,,,,,,,,,,,,,,,
1703500753.232049,1703500753.232529,19.000000,0.000000,4281.922852,4292.179688,4284.487305,4247.051270,4257.563965,4249.230957,4248.717773,4245.512695,4228.717773,4226.282227,4428.846191,4481.538574,4344.743652,4401.410156,0.000000,3.000000,71.000000,,,,0.000000,4.000000,4.000000,4.000000,4.000000,4.000000,4.000000,4.000000,4.000000,4.000000,4.000000,4.000000,4.000000,4.000000,4.000000,100.000000,,,,,,,,,,,,,,,,,,,,,,,,,,,,
1703500753.239857,1703500753.240337,20.000000,0.000000,4284.230957,4293.717773,4283.461426,4239.487305,4251.794922,4246.794922,4245.512695,4233.974121,4219.102539,4206.153809,4421.153809,4479.487305,4339.743652,4400.512695,0.000000,3.000000,71.000000,,,,0.000000,4.000000,4.000000,4.000000,4.000000,4.000000,4.000000,4.000000,4.000000,4.000000,4.000000,4.000000,4.000000,4.000000,4.000000,100.000000,,,,,,,,,,,,,,,,,5.000000,0.000000,0.642501,0.266357,-0.637817,0.330811,0.989379,-0.087413,0.041997,-13.246666,-35.631813,62.462906
1703500753.247665,1703500753.248245,21.000000,0.000000,4282.820313,4292.820313,4282.307617,4230.512695,4246.922852,4246.025879,4245.256348,4219.487305,4207.820313,4192.436035,4409.230957,4470.641113,4329.871582,4387.307617,0.000000,3.000000,71.000000,,,,0.000000,4.000000,4.000000,4.000000,4.000000,4.000000,4.000000,4.000000,4.000000,4.000000,4.000000,4.000000,4.000000,4.000000,4.000000,100.000000,,,,,,,,,,,,,,,,,,,,,,,,,,,,
1703500753.255473,1703500753.256053,22.000000,0.000000,4278.717773,4288.974121,4278.974121,4228.333496,4242.307617,4246.282227,4248.846191,4219.743652,4211.153809,4203.333496,4409.743652,4462.436035,4328.077148,4386.410156,0.000000,3.000000,71.000000,,,,0.000000,4.000000,4.000000,4.000000,4.000000,4.000000,4.000000,4.000000,4.000000,4.000000,4.000000,4.000000,4.000000,4.000000,4.000000,100.000000,,,,,,,,,,,,,,,,,,,,,,,,,,,,
1703500753.263281,1703500753.263961,23.000000,0.000000,4278.717773,4291.282227,4278.205078,4227.307617,4247.436035,4247.563965,4257.179688,4231.922852,4225.256348,4214.102539,4422.820313,4467.948730,4340.897461,4395.769043,0.000000,3.000000,71.000000,,,,0.000000,4.000000,4.000000,4.000000,4.000000,4.000000,4.000000,4.000000,4.000000,4.000000,4.000000,4.000000,4.000000,4.000000,4.000000,100.000000,,,,,,,,,,,,,,,,,,,,,,,,,,,,
1703500753.271089,1703500753.271769,24.000000,0.000000,4280.128418,4293.461426,4277.820313,4224.358887,4261.025879,4251.410156,4261.922852,4242.436035,4233.846191,4220.641113,4431.025879,4476.666504,4353.974121,4401.025879,0.000000,3.000000,71.000000,,,,0.000000,4.000000,4.000000,4.000000,4.000000,4.000000,4.000000,4.000000,4.000000,4.000000,4.000000,4.000000,4.000000,4.000000,4.000000,100.000000,,,,,,,,,,,,,,,,,6.000000,0.000000,0.642129,0.266663,-0.638000,0.330933,0.991332,-0.080576,0.040044,-13.421999,-35.735298,62.483284
1703500753.278897,1703500753.279676,25.000000,0.000000,4278.846191,4284.230957,4278.333496,4224.871582,4261.025879,4252.179688,4260.384766,4246.666504,4239.358887,4227.948730,4428.077148,4478.974121,4352.307617,4395.897461,0.000000,3.000000,71.000000,,,,0.000000,4.000000,4.000000,4.000000,4.000000,4.000000,4.000000,4.000000,4.000000,4.000000,4.000000,4.000000,4.000000,4.000000,4.000000,100.000000,,,,,,,,,,,,,,,,,,,,,,,,,,,,
1703500753.286706,1703500753.287484,26.000000,0.000000,4279.743652,4283.461426,4287.179688,4229.230957,4251.153809,4251.025879,4261.538574,4248.846191,4247.051270,4233.333496,4432.820313,4486.666504,4351.666504,4398.589844,0.000000,3.000000,71.000000,,,,0.000000,4.000000,4.000000,4.000000,4.000000,4.000000,4.000000,4.000000,4.000000,4.000000,4.000000,4.000000,4.000000,4.000000,4.000000,100.000000,,,,,,,,,,,,,,,,,,,,,,,,,,,,
1703500753.294514,1703500753.295392,27.000000,0.000000,4280.384766,4289.230957,4286.794922,4233.077148,4249.487305,4250.128418,4264.743652,4255.897461,4253.205078,4241.025879,4446.025879,4496.025879,4360.128418,4409.871582,0.000000,3.000000,71.000000,,,,0.000000,4.000000,4.000000,4.000000,4.000000,4.000000,4.000000,4.000000,4.000000,4.000000,4.000000,4.000000,4.000000,4.000000,4.000000,100.000000,,,,,,,,,,,,,,,,,,,,,,,,,,,,
1703500753.302322,1703500753.303200,28.000000,0.000000,4277.051270,4282.436035,4281.153809,4231.666504,4249.615234,4248.333496,4261.153809,4263.974121,4252.948730,4248.974121,4445.000000,4496.922852,4359.102539,4409.743652,0.000000,3.000000,71.000000,,,,0.000000,4.000000,4.000000,4.000000,4.000000,4.000000,4.000000,4.000000,4.000000,4.000000,4.000000,4.000000,4.000000,4.000000,4.000000,100.000000,,,,,,,,,,,,,,,,,7.000000,0.000000,0.642019,0.266846,-0.637939,0.331116,0.977658,-0.078135,0.049322,-13.446466,-35.695103,62.418289
1703500753.310130,1703500753.310908,29.000000,0.000000,4273.846191,4274.230957,4287.692383,4228.589844,4247.820313,4246.282227,4253.205078,4258.717773,4247.563965,4240.769043,4437.179688,4493.589844,4351.922852,4400.769043,0.000000,3.000000,71.000000,,,,0.000000,4.000000,4.000000,4.000000,4.000000,4.000000,4.000000,4.000000,4.000000,4.000000,4.000000,4.000000,4.000000,4.000000,4.000000,100.000000,,,,,,,,,,,,,,,,,,,,,,,,,,,,
1703500753.317938,1703500753.318716,30.000000,0.000000,4278.974121,4281.282227,4295.897461,4235.897461,4246.153809,4245.000000,4250.256348,4248.974121,4241.538574,4227.179688,4438.589844,4490.897461,4356.025879,4401.922852,0.000000,3.000000,71.000000,,,,0.000000,4.000000,4.000000,4.000000,4.000000,4.000000,4.000000,4.000000,4.000000,4.000000,4.000000,4.000000,4.000000,4.000000,4.000000,100.000000,,,,,,,,,,,,,,,,,,,,,,,,,,,,
1703500753.325746,1703500753.326424,31.000000,0.000000,4288.717773,4290.641113,4297.307617,4246.538574,4243.974121,4245.384766,4250.512695,4248.589844,4235.769043,4230.384766,4439.358887,4491.410156,4358.846191,4412.179688,0.000000,3.000000,71.000000,,,,0.000000,4.000000,4.000000,4.000000,4.000000,4.000000,4.000000,4.000000,4.000000,4.000000,4.000000,4.000000,4.000000,4.000000,4.000000,100.000000,,,,,,,,,,,,,,,,,,,,,,,,,,,,
1703500753.333554,1703500753.334232,32.000000,0.000000,4291.794922,4290.384766,4296.410156,4248.717773,4247.563965,4246.666504,4250.000000,4243.461426,4234.358887,4234.487305,4433.589844,4487.179688,4352.307617,4412.179688,0.000000,3.000000,71.000000,,,,0.000000,4.000000,4.000000,4.000000,4.000000,4.000000,4.000000,4.000000,4.000000,4.000000,4.000000,4.000000,4.000000,4.000000,4.000000,100.000000,,,,,,,,,,,,,,,,,8.000000,0.000000,0.642098,0.267029,-0.637878,0.330933,0.981565,-0.092296,0.044439,-13.385153,-35.708923,62.476460
1703500753.341362,1703500753.341940,33.000000,0.000000,4289.871582,4284.230957,4297.692383,4246.282227,4257.051270,4249.102539,4255.769043,4234.230957,4227.179688,4218.717773,4430.256348,4477.307617,4352.820313,4408.205078,0.000000,3.000000,71.000000,,,,0.000000,4.000000,4.000000,4.000000,4.000000,4.000000,4.000000,4.000000,4.000000,4.000000,4.000000,4.000000,4.000000,4.000000,4.000000,100.000000,,,,,,,,,,,,,,,,,,,,,,,,,,,,
1703500753.349170,1703500753.349748,34.000000,0.000000,4284.358887,4278.333496,4297.179688,4245.256348,4262.692383,4256.282227,4260.128418,4231.282227,4220.256348,4199.871582,4426.922852,4472.948730,4351.282227,4409.615234,0.000000,3.000000,71.000000,,,,0.000000,4.000000,4.000000,4.000000,4.000000,4.000000,4.000000,4.000000,4.000000,4.000000,4.000000,4.000000,4.000000,4.000000,4.000000,100.000000,,,,,,,,,,,,,,,,,,,,,,,,,,,,
1703500753.356978,1703500753.357456,35.000000,0.000000,4283.974121,4278.974121,4294.487305,4246.410156,4256.922852,4259.487305,4254.871582,4233.589844,4226.538574,4207.820313,4424.487305,4471.282227,4341.794922,4411.922852,0.000000,3.000000,71.000000,,,,0.000000,4.000000,4.000000,4.000000,4.000000,4.000000,4.000000,4.000000,4.000000,4.000000,4.000000,4.000000,4.000000,4.000000,4.000000,100.000000,,,,,,,,,,,,,,,,,,,,,,,,,,,,
1703500753.364786,1703500753.365264,36.000000,0.000000,4290.897461,4280.769043,4292.563965,4244.871582,4248.461426,4252.436035,4253.333496,4238.205078,4234.743652,4228.333496,4425.512695,4466.153809,4340.128418,4408.589844,0.000000,3.000000,71.000000,,,,0.000000,4.000000,4.000000,4.000000,4.000000,4.000000,4.000000,4.000000,4.000000,4.000000,4.000000,4.000000,4.000000,4.000000,4.000000,100.000000,,,,,,,,,,,,,,,,,9.000000,0.000000,0.642165,0.267090,-0.637817,0.330872,1.003052,-0.078623,0.045904,-13.396638,-35.821365,62.395481
1703500753.372594,1703500753.372973,37.000000,0.000000,4297.563965,4286.025879,4293.846191,4244.230957,4253.461426,4251.794922,4259.487305,4246.666504,4241.666504,4232.948730,4428.205078,4474.487305,4346.282227,4414.102539,0.000000,3.000000,71.000000,,,,0.000000,4.000000,4.000000,4.000000,4.000000,4.000000,4.000000,4.000000,4.000000,4.000000,4.000000,4.000000,4.000000,4.000000,4.000000,100.000000,,,,,,,,,,,,,,,,,,,,,,,,,,,,
1703500753.380402,1703500753.380781,38.000000,0.000000,4303.846191,4294.615234,4301.538574,4252.051270,4258.205078,4256.794922,4261.538574,4253.333496,4249.615234,4231.153809,4434.487305,4489.358887,4353.717773,4429.487305,0.000000,3.000000,71.000000,,,,0.000000,4.000000,4.000000,4.000000,4.000000,4.000000,4.000000,4.000000,4.000000,4.000000,4.000000,4.000000,4.000000,4.000000,4.000000,100.000000,,,,,,,,,,,,,,,,,,,,,,,,,,,,
1703500753.388210,1703500753.388489,39.000000,0.000000,4308.077148,4296.025879,4306.282227,4261.922852,4246.922852,4250.256348,4259.358887,4251.282227,4243.205078,4228.717773,4433.717773,4483.077148,4347.307617,4425.000000,0.000000,3.000000,71.000000,,,,0.000000,4.000000,4.000000,4.000000,4.000000,4.000000,4.000000,4.000000,4.000000,4.000000,4.000000,4.000000,4.000000,4.000000,4.000000,100.000000,,,,,,,,,,,,,,,,,,,,,,,,,,,,
1703500753.396018,1703500753.396297,40.000000,0.000000,4302.948730,4295.512695,4303.461426,4264.102539,4243.333496,4244.102539,4258.077148,4245.641113,4229.230957,4222.051270,4424.615234,4471.538574,4327.563965,4407.051270,0.000000,3.000000,71.000000,,,,0.000000,4.000000,4.000000,4.000000,4.000000,4.000000,4.000000,4.000000,4.000000,4.000000,4.000000,4.000000,4.000000,4.000000,4.000000,100.000000,,,,,,,,,,,,,,,,,10.000000,0.000000,0.642418,0.267151,-0.637695,0.330566,0.996704,-0.090343,0.047857,-13.490307,-35.839230,62.355930
1703500753.403826,1703500753.404005,41.000000,0.000000,4296.922852,4298.333496,4303.461426,4262.820313,4260.000000,4252.948730,4259.615234,4246.922852,4232.820313,4218.205078,4427.179688,4480.384766,4326.922852,4410.000000,0.000000,3.000000,71.000000,,,,0.000000,4.000000,4.000000,4.000000,4.000000,4.000000,4.000000,4.000000,4.000000,4.000000,4.000000,4.000000,4.000000,4.000000,4.000000,100.000000,,,,,,,,,,,,,,,,,,,,,,,,,,,,
1703500753.411634,1703500753.411813,42.000000,0.000000,4296.410156,4298.077148,4305.256348,4264.358887,4268.974121,4260.641113,4262.948730,4248.333496,4236.410156,4216.922852,4435.256348,4483.461426,4337.179688,4417.563965,0.000000,3.000000,71.000000,,,,0.000000,4.000000,4.000000,4.000000,4.000000,4.000000,4.000000,4.000000,4.000000,4.000000,4.000000,4.000000,4.000000,4.000000,4.000000,100.000000,,,,,,,,,,,,,,,,,,,,,,,,,,,,
1703500753.419442,1703500753.419521,43.000000,0.000000,4288.077148,4292.051270,4296.922852,4263.077148,4260.641113,4254.358887,4261.410156,4238.077148,4220.769043,4208.717773,4422.051270,4461.666504,4320.256348,4397.948730,0.000000,3.000000,71.000000,,,,0.000000,4.000000,4.000000,4.000000,4.000000,4.000000,4.000000,4.000000,4.000000,4.000000,4.000000,4.000000,4.000000,4.000000,4.000000,100.000000,,,,,,,,,,,,,,,,,,,,,,,,,,,,
1703500753.427251,1703500753.427429,44.000000,0.000000,4277.692383,4288.333496,4294.487305,4261.410156,4256.666504,4247.948730,4259.871582,4227.051270,4211.025879,4203.974121,4406.538574,4448.717773,4300.128418,4377.820313,0.000000,3.000000,71.000000,,,,0.000000,4.000000,4.000000,4.000000,4.000000,4.000000,4.000000,4.000000,4.000000,4.000000,4.000000,4.000000,4.000000,4.000000,4.000000,100.000000,,,,,,,,,,,,,,,,,11.000000,0.000000,0.642403,0.267273,-0.637817,0.330261,0.976682,-0.087901,0.038091,-13.574610,-35.888641,62.320339
1703500753.435058,1703500753.435237,45.000000,0.000000,4279.743652,4288.717773,4305.641113,4263.461426,4264.358887,4254.871582,4263.333496,4228.717773,4214.615234,4200.384766,4417.307617,4458.717773,4315.897461,4386.922852,0.000000,3.000000,71.000000,,,,0.000000,4.000000,4.000000,4.000000,4.000000,4.000000,4.000000,4.000000,4.000000,4.000000,4.000000,4.000000,4.000000,4.000000,4.000000,100.000000,,,,,,,,,,,,,,,,,,,,,,,,,,,,
1703500753.442866,1703500753.443144,46.000000,0.000000,4285.384766,4288.846191,4310.384766,4265.000000,4270.769043,4265.769043,4265.256348,4231.025879,4217.436035,4196.282227,4430.384766,4465.128418,4330.512695,4398.846191,0.000000,3.000000,71.000000,,,,0.000000,4.000000,4.000000,4.000000,4.000000,4.000000,4.000000,4.000000,4.000000,4.000000,4.000000,4.000000,4.000000,4.000000,4.000000,100.000000,,,,,,,,,,,,,,,,,,,,,,,,,,,,
1703500753.450675,1703500753.450952,47.000000,0.000000,4283.205078,4283.974121,4304.615234,4265.384766,4261.153809,4261.794922,4263.974121,4230.897461,4219.743652,4207.948730,4426.282227,4460.512695,4316.410156,4391.666504,0.000000,3.000000,71.000000,,,,0.000000,4.000000,4.000000,4.000000,4.000000,4.000000,4.000000,4.000000,4.000000,4.000000,4.000000,4.000000,4.000000,4.000000,4.000000,100.000000,,,,,,,,,,,,,,,,,,,,,,,,,,,,
1703500753.458483,1703500753.458860,48.000000,0.000000,4275.256348,4277.436035,4298.077148,4262.563965,4251.922852,4251.922852,4261.922852,4237.948730,4231.025879,4224.487305,4423.589844,4458.333496,4311.538574,4382.179688,0.000000,3.000000,71.000000,,,,0.000000,4.000000,4.000000,4.000000,4.000000,4.000000,4.000000,4.000000,4.000000,4.000000,4.000000,4.000000,4.000000,4.000000,4.000000,100.000000,,,,,,,,,,,,,,,,,12.000000,0.000000,0.642386,0.267395,-0.637878,0.330078,0.984495,-0.080088,0.042974,-13.633816,-35.883110,62.304974
1703500753.466291,1703500753.466668,49.000000,0.000000,4273.717773,4275.769043,4298.589844,4259.358887,4260.641113,4249.615234,4262.692383,4249.230957,4242.051270,4228.717773,4432.307617,4468.077148,4322.436035,4381.538574,0.000000,3.000000,71.000000,,,,0.000000,4.000000,4.000000,4.000000,4.000000,4.000000,4.000000,4.000000,4.000000,4.000000,4.000000,4.000000,4.000000,4.000000,4.000000,100.000000,,,,,,,,,,,,,,,,,,,,,,,,,,,,
1703500753.474099,1703500753.474576,50.000000,0.000000,4278.205078,4276.538574,4302.948730,4259.743652,4266.410156,4251.153809,4261.666504,4259.102539,4249.743652,4229.230957,4438.717773,4476.282227,4326.538574,4384.358887,0.000000,3.000000,71.000000,,,,0.000000,4.000000,4.000000,4.000000,4.000000,4.000000,4.000000,4.000000,4.000000,4.000000,4.000000,4.000000,4.000000,4.000000,4.000000,100.000000,,,,,,,,,,,,,,,,,,,,,,,,,,,,
1703500753.481907,1703500753.482384,51.000000,0.000000,4280.512695,4277.436035,4304.230957,4262.563965,4260.512695,4254.358887,4261.794922,4266.153809,4259.102539,4234.487305,4445.000000,4476.922852,4328.974121,4391.794922,0.000000,3.000000,71.000000,,,,0.000000,4.000000,4.000000,4.000000,4.000000,4.000000,4.000000,4.000000,4.000000,4.000000,4.000000,4.000000,4.000000,4.000000,4.000000,100.000000,,,,,,,,,,,,,,,,,,,,,,,,,,,,
1703500753.489715,1703500753.490292,52.000000,0.000000,4280.000000,4278.717773,4307.179688,4262.179688,4263.974121,4260.256348,4266.794922,4268.589844,4258.461426,4237.179688,4455.384766,4480.128418,4333.589844,4396.538574,0.000000,3.000000,71.000000,,,,0.000000,4.000000,4.000000,4.000000,4.000000,4.000000,4.000000,4.000000,4.000000,4.000000,4.000000,4.000000,4.000000,4.000000,4.000000,100.000000,,,,,,,,,,,,,,,,,13.000000,0.000000,0.642155,0.267578,-0.637939,0.330261,0.983030,-0.076670,0.036626,-13.703767,-36.011463,62.491142
1703500753.497523,1703500753.498100,53.000000,0.000000,4278.333496,4278.077148,4310.384766,4260.769043,4266.410156,4261.025879,4267.307617,4264.230957,4250.000000,4234.358887,4458.461426,4484.102539,4331.922852,4395.641113,0.000000,3.000000,71.000000,,,,0.000000,4.000000,4.000000,4.000000,4.000000,4.000000,4.000000,4.000000,4.000000,4.000000,4.000000,4.000000,4.000000,4.000000,4.000000,100.000000,,,,,,,,,,,,,,,,,,,,,,,,,,,,
1703500753.505331,1703500753.506008,54.000000,0.000000,4278.205078,4277.692383,4308.461426,4262.692383,4253.589844,4253.589844,4263.333496,4253.077148,4242.307617,4223.461426,4448.589844,4477.820313,4324.743652,4386.153809,0.000000,3.000000,71.000000,,,,0.000000,4.000000,4.000000,4.000000,4.000000,4.000000,4.000000,4.000000,4.000000,4.000000,4.000000,4.000000,4.000000,4.000000,4.000000,100.000000,,,,,,,,,,,,,,,,,,,,,,,,,,,,
1703500753.513139,1703500753.513816,55.000000,0.000000,4278.974121,4277.692383,4309.358887,4263.333496,4255.897461,4253.333496,4266.153809,4247.436035,4235.256348,4212.436035,4441.666504,4472.948730,4320.128418,4376.538574,0.000000,3.000000,71.000000,,,,0.000000,4.000000,4.000000,4.000000,4.000000,4.000000,4.000000,4.000000,4.000000,4.000000,4.000000,4.000000,4.000000,4.000000,4.000000,100.000000,,,,,,,,,,,,,,,,,,,,,,,,,,,,
1703500753.520947,1703500753.521524,56.000000,0.000000,4275.769043,4275.256348,4311.794922,4259.871582,4269.743652,4259.871582,4273.205078,4250.256348,4230.512695,4220.128418,4443.589844,4474.743652,4319.871582,4379.358887,0.000000,3.000000,71.000000,,,,0.000000,4.000000,4.000000,4.000000,4.000000,4.000000,4.000000,4.000000,4.000000,4.000000,4.000000,4.000000,4.000000,4.000000,4.000000,100.000000,,,,,,,,,,,,,,,,,14.000000,0.000000,0.642074,0.267761,-0.637817,0.330505,0.993285,-0.087413,0.042974,-13.666724,-36.026985,62.542027
1703500753.528755,1703500753.529332,57.000000,0.000000,4274.102539,4274.871582,4309.743652,4258.077148,4266.538574,4261.153809,4276.538574,4248.589844,4231.538574,4232.179688,4443.077148,4473.077148,4324.743652,4384.230957,0.000000,3.000000,71.000000,,,,0.000000,4.000000,4.000000,4.000000,4.000000,4.000000,4.000000,4.000000,4.000000,4.000000,4.000000,4.000000,4.000000,4.000000,4.000000,100.000000,,,,,,,,,,,,,,,,,,,,,,,,,,,,
1703500753.536563,1703500753.537040,58.000000,0.000000,4278.589844,4277.307617,4313.717773,4263.077148,4263.846191,4261.794922,4277.436035,4244.358887,4240.256348,4233.589844,4449.871582,4475.897461,4332.948730,4387.051270,0.000000,3.000000,71.000000,,,,0.000000,4.000000,4.000000,4.000000,4.000000,4.000000,4.000000,4.000000,4.000000,4.000000,4.000000,4.000000,4.000000,4.000000,4.000000,100.000000,,,,,,,,,,,,,,,,,,,,,,,,,,,,
1703500753.544371,1703500753.544848,59.000000,0.000000,4278.846191,4280.000000,4318.589844,4267.307617,4269.615234,4264.358887,4280.769043,4248.846191,4247.563965,4233.333496,4460.000000,4485.769043,4334.487305,4394.102539,0.000000,3.000000,71.000000,,,,0.000000,4.000000,4.000000,4.000000,4.000000,4.000000,4.000000,4.000000,4.000000,4.000000,4.000000,4.000000,4.000000,4.000000,4.000000,100.000000,,,,,,,,,,,,,,,,,,,,,,,,,,,,
1703500753.552179,1703500753.552556,60.000000,0.000000,4275.512695,4278.846191,4314.358887,4263.589844,4267.307617,4263.846191,4280.128418,4253.589844,4248.333496,4234.230957,4452.948730,4488.333496,4331.410156,4394.487305,0.000000,3.000000,71.000000,,,,0.000000,4.000000,4.000000,4.000000,4.000000,4.000000,4.000000,4.000000,4.000000,4.000000,4.000000,4.000000,4.000000,4.000000,4.000000,100.000000,,,,,,,,,,,,,,,,,15.000000,0.000000,0.642129,0.267700,-0.637756,0.330566,0.983518,-0.080088,0.049322,-13.650051,-36.140953,62.487823
1703500753.559987,1703500753.560364,61.000000,0.000000,4274.615234,4269.615234,4310.512695,4258.461426,4260.000000,4258.461426,4268.974121,4250.512695,4244.871582,4226.410156,4442.563965,4482.436035,4325.000000,4380.384766,0.000000,3.000000,71.000000,,,,0.000000,4.000000,4.000000,4.000000,4.000000,4.000000,4.000000,4.000000,4.000000,4.000000,4.000000,4.000000,4.000000,4.000000,4.000000,100.000000,,,,,,,,,,,,,,,,,,,,,,,,,,,,
1703500753.567795,1703500753.568072,62.000000,0.000000,4269.230957,4262.179688,4312.563965,4257.948730,4250.512695,4252.563965,4261.282227,4248.974121,4241.410156,4217.948730,4444.230957,4477.563965,4315.256348,4373.461426,0.000000,3.000000,71.000000,,,,0.000000,4.000000,4.000000,4.000000,4.000000,4.000000,4.000000,4.000000,4.000000,4.000000,4.000000,4.000000,4.000000,4.000000,4.000000,100.000000,,,,,,,,,,,,,,,,,,,,,,,,,,,,
1703500753.575603,1703500753.575980,63.000000,0.000000,4264.358887,4263.974121,4311.410156,4261.410156,4244.615234,4247.051270,4262.820313,4252.563965,4239.615234,4226.666504,4447.692383,4474.615234,4316.025879,4378.846191,0.000000,3.000000,71.000000,,,,0.000000,4.000000,4.000000,4.000000,4.000000,4.000000,4.000000,4.000000,4.000000,4.000000,4.000000,4.000000,4.000000,4.000000,4.000000,100.000000,,,,,,,,,,,,,,,,,,,,,,,,,,,,
1703500753.583411,1703500753.583788,64.000000,0.000000,4267.563965,4266.666504,4309.615234,4262.948730,4256.025879,4249.358887,4265.128418,4260.000000,4244.102539,4232.563965,4448.077148,4479.102539,4323.333496,4377.436035,5637.000000,3.000000,71.000000,,,,0.000000,4.000000,4.000000,4.000000,4.000000,4.000000,4.000000,4.000000,4.000000,4.000000,4.000000,4.000000,4.000000,4.000000,4.000000,100.000000,,,,,,,,,,,,,,,,,16.000000,0.000000,0.642099,0.267700,-0.637817,0.330505,0.992309,-0.087901,0.041021,-13.651713,-36.060192,62.422375
1703500753.591220,1703500753.591696,65.000000,0.000000,4268.846191,4269.487305,4317.436035,4261.282227,4268.333496,4257.948730,4269.743652,4262.307617,4245.256348,4220.512695,4446.666504,4487.051270,4318.077148,4372.307617,5592.000000,3.000000,71.000000,,,,0.000000,4.000000,4.000000,4.000000,4.000000,4.000000,4.000000,4.000000,4.000000,4.000000,4.000000,4.000000,4.000000,4.000000,4.000000,100.000000,,,,,,,,,,,,,,,,,,,,,,,,,,,,
1703500753.599028,1703500753.599505,66.000000,0.000000,4271.410156,4277.307617,4325.384766,4266.025879,4272.051270,4264.615234,4275.256348,4255.128418,4239.102539,4224.487305,4446.153809,4485.128418,4308.974121,4376.282227,5419.000000,3.000000,71.000000,,,,0.000000,4.000000,4.000000,4.000000,4.000000,4.000000,4.000000,4.000000,4.000000,4.000000,4.000000,4.000000,4.000000,4.000000,4.000000,100.000000,,,,,,,,,,,,,,,,,,,,,,,,,,,,
1703500753.606835,1703500753.607313,67.000000,0.000000,4276.153809,4276.410156,4324.230957,4271.153809,4272.820313,4266.025879,4276.025879,4246.666504,4231.025879,4234.871582,4443.589844,4478.077148,4307.820313,4379.358887,5412.000000,3.000000,71.000000,,,,0.000000,4.000000,4.000000,4.000000,4.000000,4.000000,4.000000,4.000000,4.000000,4.000000,4.000000,4.000000,4.000000,4.000000,4.000000,100.000000,,,,,,,,,,,,,,,,,,,,,,,,,,,,
1703500753.614644,1703500753.615021,68.000000,0.000000,4269.230957,4266.410156,4318.589844,4268.205078,4269.358887,4263.846191,4273.077148,4239.871582,4220.512695,4211.666504,4433.077148,4470.384766,4304.743652,4368.205078,5340.000000,3.000000,71.000000,,,,0.000000,4.000000,4.000000,4.000000,4.000000,4.000000,4.000000,4.000000,4.000000,4.000000,4.000000,4.000000,4.000000,4.000000,4.000000,100.000000,,,,,,,,,,,,,,,,,17.000000,0.000000,0.642213,0.267578,-0.637817,0.330383,0.995727,-0.077646,0.037602,-13.553208,-36.170837,62.430138
1703500753.622452,1703500753.622829,69.000000,0.000000,4261.922852,4265.384766,4313.974121,4267.563965,4268.717773,4265.128418,4274.615234,4239.358887,4219.871582,4196.410156,4427.051270,4462.051270,4301.153809,4356.410156,5310.000000,3.000000,71.000000,,,,0.000000,4.000000,4.000000,4.000000,4.000000,4.000000,4.000000,4.000000,4.000000,4.000000,4.000000,4.000000,4.000000,4.000000,4.000000,100.000000,,,,,,,,,,,,,,,,,,,,,,,,,,,,
1703500753.630260,1703500753.630537,70.000000,0.000000,4259.743652,4267.692383,4310.512695,4269.743652,4268.077148,4266.282227,4277.563965,4242.948730,4228.846191,4212.179688,4427.692383,4459.487305,4298.717773,4348.717773,4425.000000,3.000000,71.000000,,,,0.000000,4.000000,4.000000,4.000000,4.000000,4.000000,4.000000,4.000000,4.000000,4.000000,4.000000,4.000000,4.000000,4.000000,4.000000,100.000000,,,,,,,,,,,,,,,,,,,,,,,,,,,,
1703500753.638068,1703500753.638445,71.000000,0.000000,4253.717773,4264.743652,4308.974121,4263.974121,4258.589844,4262.179688,4271.282227,4245.000000,4236.794922,4219.230957,4429.487305,4467.307617,4296.538574,4350.256348,5262.000000,3.000000,71.000000,,,,0.000000,4.000000,4.000000,4.000000,4.000000,4.000000,4.000000,4.000000,4.000000,4.000000,4.000000,4.000000,4.000000,4.000000,4.000000,100.000000,,,,,,,,,,,,,,,,,,,,,,,,,,,,
1703500753.645876,1703500753.646253,72.000000,0.000000,4255.769043,4264.102539,4310.128418,4262.436035,4260.000000,4259.102539,4263.974121,4253.717773,4246.410156,4225.000000,4444.230957,4477.307617,4311.410156,4365.512695,5435.000000,3.000000,71.000000,,,,0.000000,4.000000,4.000000,4.000000,4.000000,4.000000,4.000000,4.000000,4.000000,4.000000,4.000000,4.000000,4.000000,4.000000,4.000000,100.000000,1.000000,100.000000,4.000000,4.000000,4.000000,4.000000,4.000000,4.000000,4.000000,4.000000,4.000000,4.000000,4.000000,4.000000,4.000000,4.000000,18.000000,0.000000,0.642413,0.267395,-0.637756,0.330261,0.988402,-0.083995,0.046392,-13.597887,-36.070423,62.270458
1703500753.653684,1703500753.654161,73.000000,0.000000,4267.692383,4268.589844,4313.077148,4271.153809,4276.153809,4259.487305,4267.820313,4264.487305,4253.589844,4235.384766,4461.025879,4480.641113,4328.077148,4375.256348,5437.000000,3.000000,71.000000,,,,0.000000,4.000000,4.000000,4.000000,4.000000,4.000000,4.000000,4.000000,4.000000,4.000000,4.000000,4.000000,4.000000,4.000000,4.000000,100.000000,,,,,,,,,,,,,,,,,,,,,,,,,,,,
1703500753.661492,1703500753.661969,74.000000,0.000000,4268.717773,4275.512695,4315.384766,4277.051270,4279.615234,4259.743652,4268.974121,4266.282227,4255.128418,4231.025879,4460.384766,4480.897461,4324.871582,4375.512695,6082.000000,3.000000,71.000000,,,,0.000000,4.000000,4.000000,4.000000,4.000000,4.000000,4.000000,4.000000,4.000000,4.000000,4.000000,4.000000,4.000000,4.000000,4.000000,100.000000,,,,,,,,,,,,,,,,,,,,,,,,,,,,
1703500753.669300,1703500753.669876,75.000000,0.000000,4265.384766,4280.512695,4322.692383,4280.512695,4276.794922,4258.205078,4264.230957,4260.256348,4257.051270,4236.538574,4457.948730,4480.897461,4325.897461,4377.051270,6335.000000,3.000000,71.000000,,,,0.000000,4.000000,4.000000,4.000000,4.000000,4.000000,4.000000,4.000000,4.000000,4.000000,4.000000,4.000000,4.000000,4.000000,4.000000,100.000000,,,,,,,,,,,,,,,,,,,,,,,,,,,,
1703500753.677108,1703500753.677684,76.000000,0.000000,4268.461426,4279.871582,4325.128418,4282.051270,4276.410156,4255.641113,4266.282227,4254.230957,4255.641113,4250.641113,4459.358887,4479.743652,4330.128418,4373.461426,6867.000000,3.000000,71.000000,,,,0.000000,4.000000,4.000000,4.000000,4.000000,4.000000,4.000000,4.000000,4.000000,4.000000,4.000000,4.000000,4.000000,4.000000,4.000000,100.000000,,,,,,,,,,,,,,,,,19.000000,0.000000,0.642565,0.267395,-0.637634,0.330200,0.990844,-0.084483,0.031254,-13.604765,-36.046711,62.176746
1703500753.684916,1703500753.685592,77.000000,0.000000,4265.384766,4276.282227,4315.000000,4278.717773,4266.153809,4254.743652,4269.358887,4248.461426,4243.717773,4239.358887,4450.256348,4474.102539,4320.384766,4366.538574,7428.000000,3.000000,71.000000,,,,0.000000,4.000000,4.000000,4.000000,4.000000,4.000000,4.000000,4.000000,4.000000,4.000000,4.000000,4.000000,4.000000,4.000000,4.000000,100.000000,,,,,,,,,,,,,,,,,,,,,,,,,,,,
1703500753.692724,1703500753.693500,78.000000,0.000000,4262.692383,4273.974121,4312.692383,4278.461426,4261.025879,4260.128418,4273.974121,4246.410156,4239.487305,4218.717773,4442.307617,4472.179688,4314.230957,4367.692383,6082.000000,3.000000,71.000000,,,,0.000000,4.000000,4.000000,4.000000,4.000000,4.000000,4.000000,4.000000,4.000000,4.000000,4.000000,4.000000,4.000000,4.000000,4.000000,100.000000,,,,,,,,,,,,,,,,,,,,,,,,,,,,
1703500753.700532,1703500753.701309,79.000000,0.000000,4262.179688,4270.769043,4316.794922,4279.871582,4272.307617,4266.025879,4280.897461,4250.256348,4245.256348,4214.102539,4447.179688,4475.512695,4319.358887,4363.974121,6335.000000,3.000000,71.000000,,,,0.000000,4.000000,4.000000,4.000000,4.000000,4.000000,4.000000,4.000000,4.000000,4.000000,4.000000,4.000000,4.000000,4.000000,4.000000,100.000000,,,,,,,,,,,,,,,,,,,,,,,,,,,,
1703500753.708340,1703500753.709117,80.000000,0.000000,4263.205078,4269.743652,4310.769043,4278.717773,4281.666504,4266.922852,4281.153809,4256.153809,4248.717773,4222.692383,4455.256348,4477.051270,4323.461426,4363.333496,6867.000000,3.000000,71.000000,,,,0.000000,4.000000,4.000000,4.000000,4.000000,4.000000,4.000000,4.000000,4.000000,4.000000,4.000000,4.000000,4.000000,4.000000,4.000000,100.000000,,,,,,,,,,,,,,,,,20.000000,0.000000,0.642540,0.267456,-0.637634,0.330200,0.979612,-0.082530,0.043951,-13.727622,-35.958710,62.325737
1703500753.716148,1703500753.716825,81.000000,0.000000,4272.563965,4275.897461,4308.589844,4280.000000,4278.205078,4265.641113,4277.051270,4260.769043,4252.179688,4237.179688,4459.615234,4477.179688,4324.871582,4376.794922,7428.000000,3.000000,71.000000,,,,0.000000,4.000000,4.000000,4.000000,4.000000,4.000000,4.000000,4.000000,4.000000,4.000000,4.000000,4.000000,4.000000,4.000000,4.000000,100.000000,,,,,,,,,,,,,,,,,,,,,,,,,,,,
1703500753.723956,1703500753.724633,82.000000,0.000000,4274.487305,4279.615234,4314.487305,4283.461426,4278.077148,4266.025879,4272.179688,4259.230957,4259.230957,4248.717773,4461.025879,4478.077148,4331.794922,4381.025879,6082.000000,3.000000,71.000000,,,,0.000000,4.000000,4.000000,4.000000,4.000000,4.000000,4.000000,4.000000,4.000000,4.000000,4.000000,4.000000,4.000000,4.000000,4.000000,100.000000,,,,,,,,,,,,,,,,,,,,,,,,,,,,
1703500753.731764,1703500753.732341,83.000000,0.000000,4261.538574,4274.615234,4311.922852,4279.743652,4275.128418,4264.871582,4267.307617,4256.282227,4264.358887,4248.589844,4461.538574,4473.974121,4335.000000,4369.743652,6335.000000,3.000000,71.000000,,,,0.000000,4.000000,4.000000,4.000000,4.000000,4.000000,4.000000,4.000000,4.000000,4.000000,4.000000,4.000000,4.000000,4.000000,4.000000,100.000000,,,,,,,,,,,,,,,,,,,,,,,,,,,,
1703500753.739572,1703500753.740149,84.000000,0.000000,4258.461426,4272.820313,4307.692383,4276.666504,4265.256348,4263.589844,4264.102539,4259.743652,4263.589844,4248.333496,4467.051270,4470.897461,4336.410156,4368.461426,6867.000000,3.000000,71.000000,,,,0.000000,4.000000,4.000000,4.000000,4.000000,4.000000,4.000000,4.000000,4.000000,4.000000,4.000000,4.000000,4.000000,4.000000,4.000000,100.000000,,,,,,,,,,,,,,,,,21.000000,0.000000,0.642620,0.267334,-0.637573,0.330261,0.974728,-0.083995,0.049322,-13.688193,-36.062836,62.276497
1703500753.747380,1703500753.747857,85.000000,0.000000,4270.641113,4280.512695,4310.897461,4287.820313,4271.025879,4265.128418,4268.205078,4265.000000,4265.897461,4247.563965,4476.410156,4480.897461,4342.563965,4380.769043,7428.000000,3.000000,71.000000,,,,0.000000,4.000000,4.000000,4.000000,4.000000,4.000000,4.000000,4.000000,4.000000,4.000000,4.000000,4.000000,4.000000,4.000000,4.000000,100.000000,,,,,,,,,,,,,,,,,,,,,,,,,,,,
1703500753.755189,1703500753.755665,86.000000,0.000000,4272.307617,4283.205078,4316.153809,4294.743652,4283.589844,4264.743652,4274.487305,4266.538574,4269.487305,4243.333496,4478.461426,4489.871582,4345.256348,4381.153809,6082.000000,3.000000,71.000000,,,,0.000000,4.000000,4.000000,4.000000,4.000000,4.000000,4.000000,4.000000,4.000000,4.000000,4.000000,4.000000,4.000000,4.000000,4.000000,100.000000,,,,,,,,,,,,,,,,,,,,,,,,,,,,
1703500753.762997,1703500753.763373,87.000000,0.000000,4260.641113,4276.538574,4318.461426,4285.256348,4281.666504,4260.769043,4268.461426,4265.641113,4264.743652,4251.282227,4474.743652,4487.307617,4343.717773,4369.615234,6335.000000,3.000000,71.000000,,,,0.000000,4.000000,4.000000,4.000000,4.000000,4.000000,4.000000,4.000000,4.000000,4.000000,4.000000,4.000000,4.000000,4.000000,4.000000,100.000000,,,,,,,,,,,,,,,,,,,,,,,,,,,,
1703500753.770805,1703500753.771181,88.000000,0.000000,4257.307617,4274.615234,4314.743652,4281.922852,4274.358887,4260.897461,4263.589844,4265.384766,4262.179688,4261.282227,4476.025879,4486.794922,4341.025879,4366.538574,6867.000000,3.000000,71.000000,,,,0.000000,4.000000,4.000000,4.000000,4.000000,4.000000,4.000000,4.000000,4.000000,4.000000,4.000000,4.000000,4.000000,4.000000,4.000000,100.000000,,,,,,,,,,,,,,,,,22.000000,0.000000,0.642706,0.267273,-0.637512,0.330261,0.989379,-0.079111,0.041509,-13.619374,-36.056553,62.332180
1703500753.778613,1703500753.778889,89.000000,0.000000,4265.256348,4280.000000,4310.769043,4287.948730,4277.692383,4265.000000,4270.256348,4264.615234,4261.538574,4257.820313,4477.307617,4490.128418,4342.948730,4374.615234,7428.000000,3.000000,71.000000,,,,0.000000,4.000000,4.000000,4.000000,4.000000,4.000000,4.000000,4.000000,4.000000,4.000000,4.000000,4.000000,4.000000,4.000000,4.000000,100.000000,,,,,,,,,,,,,,,,,,,,,,,,,,,,
1703500753.786421,1703500753.786697,90.000000,0.000000,4266.794922,4280.000000,4310.641113,4284.230957,4280.512695,4264.743652,4271.410156,4262.563965,4252.820313,4243.846191,4472.948730,4487.563965,4342.692383,4377.820313,6082.000000,3.000000,71.000000,,,,0.000000,4.000000,4.000000,4.000000,4.000000,4.000000,4.000000,4.000000,4.000000,4.000000,4.000000,4.000000,4.000000,4.000000,4.000000,100.000000,,,,,,,,,,,,,,,,,,,,,,,,,,,,
1703500753.794229,1703500753.794405,91.000000,0.000000,4266.410156,4275.641113,4317.436035,4278.974121,4267.563965,4261.410156,4269.102539,4261.410156,4246.922852,4232.948730,4471.922852,4486.282227,4334.230957,4377.820313,6335.000000,3.000000,71.000000,,,,0.000000,4.000000,4.000000,4.000000,4.000000,4.000000,4.000000,4.000000,4.000000,4.000000,4.000000,4.000000,4.000000,4.000000,4.000000,100.000000,,,,,,,,,,,,,,,,,,,,,,,,,,,,
1703500753.802037,1703500753.802213,92.000000,0.000000,4272.692383,4277.307617,4323.333496,4285.897461,4259.487305,4263.077148,4276.410156,4267.563965,4256.410156,4237.820313,4476.410156,4492.820313,4331.922852,4381.410156,6867.000000,3.000000,71.000000,,,,0.000000,4.000000,4.000000,4.000000,4.000000,4.000000,4.000000,4.000000,4.000000,4.000000,4.000000,4.000000,4.000000,4.000000,4.000000,100.000000,,,,,,,,,,,,,,,,,23.000000,0.000000,0.642706,0.267273,-0.637512,0.330261,0.978635,-0.087901,0.038091,-13.757437,-36.117565,62.315628
1703500753.809845,1703500753.809921,93.000000,0.000000,4272.563965,4278.333496,4317.436035,4292.051270,4271.794922,4268.333496,4282.692383,4273.717773,4264.615234,4250.769043,4478.589844,4493.717773,4337.563965,4378.333496,7428.000000,3.000000,71.000000,,,,0.000000,4.000000,4.000000,4.000000,4.000000,4.000000,4.000000,4.000000,4.000000,4.000000,4.000000,4.000000,4.000000,4.000000,4.000000,100.000000,,,,,,,,,,,,,,,,,,,,,,,,,,,,
1703500753.817653,1703500753.817829,94.000000,0.000000,4269.743652,4264.358887,4308.589844,4291.025879,4282.051270,4263.461426,4278.589844,4269.615234,4261.153809,4249.615234,4476.538574,4483.461426,4337.436035,4371.282227,6082.000000,3.000000,71.000000,,,,0.000000,4.000000,4.000000,4.000000,4.000000,4.000000,4.000000,4.000000,4.000000,4.000000,4.000000,4.000000,4.000000,4.000000,4.000000,100.000000,,,,,,,,,,,,,,,,,,,,,,,,,,,,
1703500753.825461,1703500753.825637,95.000000,0.000000,4274.615234,4248.461426,4309.487305,4292.563965,4273.333496,4250.512695,4271.025879,4260.641113,4259.871582,4238.717773,4473.461426,4471.794922,4335.128418,4376.025879,6335.000000,3.000000,71.000000,,,,0.000000,4.000000,4.000000,4.000000,4.000000,4.000000,4.000000,4.000000,4.000000,4.000000,4.000000,4.000000,4.000000,4.000000,4.000000,100.000000,,,,,,,,,,,,,,,,,,,,,,,,,,,,
1703500753.833269,1703500753.833545,96.000000,0.000000,4275.000000,4248.846191,4311.025879,4295.256348,4267.820313,4246.538574,4271.282227,4253.333496,4256.666504,4235.769043,4465.897461,4466.153809,4334.743652,4377.051270,6867.000000,3.000000,71.000000,,,,0.000000,4.000000,4.000000,4.000000,4.000000,4.000000,4.000000,4.000000,4.000000,4.000000,4.000000,4.000000,4.000000,4.000000,4.000000,100.000000,,,,,,,,,,,,,,,,,24.000000,0.000000,0.642645,0.267273,-0.637573,0.330261,0.987425,-0.090831,0.041021,-13.815026,-36.055809,62.200733
1703500753.841077,1703500753.841353,97.000000,0.000000,4268.974121,4252.563965,4308.846191,4295.384766,4274.615234,4251.153809,4276.282227,4247.820313,4248.717773,4228.333496,4458.717773,4467.436035,4329.615234,4360.384766,7428.000000,3.000000,71.000000,,,,0.000000,4.000000,4.000000,4.000000,4.000000,4.000000,4.000000,4.000000,4.000000,4.000000,4.000000,4.000000,4.000000,4.000000,4.000000,100.000000,,,,,,,,,,,,,,,,,,,,,,,,,,,,
1703500753.848885,1703500753.849261,98.000000,0.000000,4265.256348,4246.025879,4308.974121,4293.974121,4274.487305,4251.922852,4271.153809,4248.589844,4247.563965,4225.384766,4461.922852,4473.333496,4324.743652,4357.692383,6082.000000,3.000000,71.000000,,,,0.000000,4.000000,4.000000,4.000000,4.000000,4.000000,4.000000,4.000000,4.000000,4.000000,4.000000,4.000000,4.000000,4.000000,4.000000,100.000000,,,,,,,,,,,,,,,,,,,,,,,,,,,,
1703500753.856693,1703500753.857069,99.000000,0.000000,4266.153809,4242.051270,4311.282227,4294.871582,4264.871582,4246.153809,4267.436035,4249.487305,4248.461426,4237.179688,4465.769043,4477.820313,4327.820313,4372.179688,6335.000000,3.000000,71.000000,,,,0.000000,4.000000,4.000000,4.000000,4.000000,4.000000,4.000000,4.000000,4.000000,4.000000,4.000000,4.000000,4.000000,4.000000,4.000000,100.000000,,,,,,,,,,,,,,,,,,,,,,,,,,,,
1703500753.864501,1703500753.864976,100.000000,0.000000,4274.615234,4248.461426,4313.205078,4296.538574,4259.871582,4249.102539,4277.563965,4248.461426,4247.948730,4245.641113,4467.051270,4480.128418,4333.717773,4375.384766,6867.000000,3.000000,71.000000,,,,0.000000,4.000000,4.000000,4.000000,4.000000,4.000000,4.000000,4.000000,4.000000,4.000000,4.000000,4.000000,4.000000,4.000000,4.000000,100.000000,,,,,,,,,,,,,,,,,25.000000,0.000000,0.642885,0.266907,-0.637390,0.330444,0.988890,-0.077646,0.057136,-13.633524,-36.033562,62.113995
1703500753.872309,1703500753.872784,101.000000,0.000000,4277.179688,4245.769043,4310.000000,4294.743652,4262.948730,4258.717773,4280.897461,4256.025879,4247.307617,4244.615234,4470.512695,4482.436035,4335.641113,4372.820313,7428.000000,3.000000,71.000000,,,,0.000000,4.000000,4.000000,4.000000,4.000000,4.000000,4.000000,4.000000,4.000000,4.000000,4.000000,4.000000,4.000000,4.000000,4.000000,100.000000,,,,,,,,,,,,,,,,,,,,,,,,,,,,
1703500753.880117,1703500753.880692,102.000000,0.000000,4267.563965,4232.692383,4309.743652,4292.692383,4266.410156,4259.102539,4274.102539,4265.128418,4249.358887,4242.820313,4473.974121,4483.205078,4334.358887,4378.717773,6082.000000,3.000000,71.000000,,,,0.000000,4.000000,4.000000,4.000000,4.000000,4.000000,4.000000,4.000000,4.000000,4.000000,4.000000,4.000000,4.000000,4.000000,4.000000,100.000000,,,,,,,,,,,,,,,,,,,,,,,,,,,,
1703500753.887925,1703500753.888500,103.000000,0.000000,4263.333496,4229.743652,4311.538574,4291.153809,4267.179688,4257.307617,4275.128418,4266.538574,4257.692383,4241.666504,4477.948730,4481.410156,4336.410156,4383.717773,6335.000000,3.000000,71.000000,,,,0.000000,4.000000,4.000000,4.000000,4.000000,4.000000,4.000000,4.000000,4.000000,4.000000,4.000000,4.000000,4.000000,4.000000,4.000000,100.000000,,,,,,,,,,,,,,,,,,,,,,,,,,,,
1703500753.895733,1703500753.896208,104.000000,0.000000,4263.077148,4231.025879,4302.179688,4284.102539,4265.641113,4259.487305,4278.589844,4266.282227,4260.769043,4233.589844,4475.512695,4479.615234,4330.128418,4373.077148,6867.000000,3.000000,71.000000,,,,0.000000,4.000000,4.000000,4.000000,4.000000,4.000000,4.000000,4.000000,4.000000,4.000000,4.000000,4.000000,4.000000,4.000000,4.000000,100.000000,,,,,,,,,,,,,,,,,26.000000,0.000000,0.642900,0.266357,-0.637573,0.330505,0.982053,-0.081065,0.048346,-13.470171,-36.013538,62.169262
1703500753.903541,1703500753.904116,105.000000,0.000000,4259.743652,4227.051270,4292.563965,4277.179688,4261.410156,4255.512695,4272.051270,4265.000000,4251.153809,4231.025879,4467.436035,4476.025879,4319.743652,4363.846191,7428.000000,3.000000,71.000000,,,,0.000000,4.000000,4.000000,4.000000,4.000000,4.000000,4.000000,4.000000,4.000000,4.000000,4.000000,4.000000,4.000000,4.000000,4.000000,100.000000,,,,,,,,,,,,,,,,,,,,,,,,,,,,
1703500753.911349,1703500753.911925,106.000000,0.000000,4259.743652,4227.692383,4293.461426,4281.282227,4260.641113,4248.077148,4263.974121,4262.436035,4247.436035,4240.897461,4471.025879,4474.102539,4326.922852,4369.487305,6082.000000,3.000000,71.000000,,,,0.000000,4.000000,4.000000,4.000000,4.000000,4.000000,4.000000,4.000000,4.000000,4.000000,4.000000,4.000000,4.000000,4.000000,4.000000,100.000000,,,,,,,,,,,,,,,,,,,,,,,,,,,,
1703500753.919158,1703500753.919733,107.000000,0.000000,4265.000000,4234.871582,4296.282227,4290.000000,4262.820313,4252.948730,4271.153809,4263.717773,4253.333496,4248.717773,4481.666504,4478.077148,4337.179688,4374.615234,6335.000000,3.000000,71.000000,,,,0.000000,4.000000,4.000000,4.000000,4.000000,4.000000,4.000000,4.000000,4.000000,4.000000,4.000000,4.000000,4.000000,4.000000,4.000000,100.000000,,,,,,,,,,,,,,,,,,,,,,,,,,,,
1703500753.926966,1703500753.927441,108.000000,0.000000,4261.922852,4236.282227,4293.077148,4292.948730,4262.179688,4259.358887,4278.846191,4267.692383,4255.769043,4248.846191,4479.871582,4481.153809,4335.384766,4369.487305,6867.000000,3.000000,71.000000,,,,0.000000,4.000000,4.000000,4.000000,4.000000,4.000000,4.000000,4.000000,4.000000,4.000000,4.000000,4.000000,4.000000,4.000000,4.000000,100.000000,,,,,,,,,,,,,,,,,27.000000,0.000000,0.642819,0.266113,-0.637756,0.330505,0.985960,-0.078135,0.039556,-13.423154,-36.012184,62.235668
1703500753.934774,1703500753.935249,109.000000,0.000000,4251.922852,4232.051270,4285.000000,4288.205078,4261.666504,4255.128418,4271.153809,4262.051270,4249.230957,4239.615234,4474.102539,4475.128418,4331.794922,4361.410156,7428.000000,3.000000,71.000000,,,,0.000000,4.000000,4.000000,4.000000,4.000000,4.000000,4.000000,4.000000,4.000000,4.000000,4.000000,4.000000,4.000000,4.000000,4.000000,100.000000,,,,,,,,,,,,,,,,,,,,,,,,,,,,
1703500753.942582,1703500753.942957,110.000000,0.000000,4246.410156,4230.128418,4276.538574,4282.436035,4264.230957,4248.077148,4263.717773,4250.512695,4236.282227,4227.692383,4473.077148,4464.615234,4326.025879,4357.307617,6082.000000,3.000000,71.000000,,,,0.000000,4.000000,4.000000,4.000000,4.000000,4.000000,4.000000,4.000000,4.000000,4.000000,4.000000,4.000000,4.000000,4.000000,4.000000,100.000000,,,,,,,,,,,,,,,,,,,,,,,,,,,,
1703500753.950390,1703500753.950765,111.000000,0.000000,4248.717773,4230.897461,4275.641113,4283.589844,4265.641113,4248.077148,4263.846191,4246.282227,4235.384766,4231.410156,4471.282227,4463.205078,4325.384766,4362.436035,6335.000000,3.000000,71.000000,,,,0.000000,4.000000,4.000000,4.000000,4.000000,4.000000,4.000000,4.000000,4.000000,4.000000,4.000000,4.000000,4.000000,4.000000,4.000000,100.000000,,,,,,,,,,,,,,,,,,,,,,,,,,,,
1703500753.958198,1703500753.958473,112.000000,0.000000,4255.000000,4232.179688,4278.077148,4290.000000,4264.615234,4256.153809,4268.717773,4249.743652,4247.436035,4244.487305,4476.410156,4470.512695,4338.205078,4373.077148,6867.000000,3.000000,71.000000,,,,0.000000,4.000000,4.000000,4.000000,4.000000,4.000000,4.000000,4.000000,4.000000,4.000000,4.000000,4.000000,4.000000,4.000000,4.000000,100.000000,,,,,,,,,,,,,,,,,28.000000,0.000000,0.642614,0.266235,-0.637817,0.330688,0.994750,-0.086436,0.048346,-13.297505,-36.094299,62.262100
1703500753.966006,1703500753.966381,113.000000,0.000000,4258.974121,4232.051270,4276.282227,4293.205078,4262.948730,4260.769043,4274.358887,4254.102539,4248.461426,4237.563965,4483.589844,4473.717773,4344.743652,4376.282227,7428.000000,3.000000,71.000000,,,,0.000000,4.000000,4.000000,4.000000,4.000000,4.000000,4.000000,4.000000,4.000000,4.000000,4.000000,4.000000,4.000000,4.000000,4.000000,100.000000,,,,,,,,,,,,,,,,,,,,,,,,,,,,
1703500753.973814,1703500753.974189,114.000000,0.000000,4262.948730,4233.205078,4277.179688,4294.871582,4265.000000,4261.794922,4276.025879,4257.820313,4244.743652,4227.436035,4483.333496,4472.179688,4339.615234,4370.769043,6082.000000,3.000000,71.000000,,,,0.000000,4.000000,4.000000,4.000000,4.000000,4.000000,4.000000,4.000000,4.000000,4.000000,4.000000,4.000000,4.000000,4.000000,4.000000,100.000000,,,,,,,,,,,,,,,,,,,,,,,,,,,,
1703500753.981622,1703500753.982097,115.000000,0.000000,4262.692383,4238.846191,4281.922852,4297.563965,4267.051270,4265.384766,4277.820313,4260.769043,4248.461426,4242.692383,4480.000000,4473.589844,4339.743652,4367.307617,6335.000000,3.000000,71.000000,,,,0.000000,4.000000,4.000000,4.000000,4.000000,4.000000,4.000000,4.000000,4.000000,4.000000,4.000000,4.000000,4.000000,4.000000,4.000000,100.000000,,,,,,,,,,,,,,,,,,,,,,,,,,,,
1703500753.989430,1703500753.989906,116.000000,0.000000,4256.794922,4245.000000,4281.410156,4297.436035,4262.563965,4265.512695,4279.743652,4260.897461,4248.717773,4253.974121,4480.512695,4475.000000,4342.692383,4369.102539,6867.000000,3.000000,71.000000,,,,0.000000,4.000000,4.000000,4.000000,4.000000,4.000000,4.000000,4.000000,4.000000,4.000000,4.000000,4.000000,4.000000,4.000000,4.000000,100.000000,,,,,,,,,,,,,,,,,29.000000,0.000000,0.642180,0.266541,-0.638000,0.330933,0.980100,-0.104017,0.038579,-13.384421,-36.068203,62.135891
1703500753.997238,1703500753.997814,117.000000,0.000000,4255.128418,4248.717773,4278.077148,4296.282227,4261.666504,4262.948730,4279.102539,4256.794922,4246.410156,4236.794922,4481.794922,4473.077148,4341.410156,4372.436035,7428.000000,3.000000,71.000000,,,,0.000000,4.000000,4.000000,4.000000,4.000000,4.000000,4.000000,4.000000,4.000000,4.000000,4.000000,4.000000,4.000000,4.000000,4.000000,100.000000,,,,,,,,,,,,,,,,,,,,,,,,,,,,
1703500754.005046,1703500754.005621,118.000000,0.000000,4264.743652,4243.589844,4279.487305,4297.051270,4267.051270,4261.794922,4276.153809,4250.000000,4248.461426,4228.461426,4478.205078,4473.461426,4338.461426,4370.769043,6082.000000,3.000000,71.000000,,,,0.000000,4.000000,4.000000,4.000000,4.000000,4.000000,4.000000,4.000000,4.000000,4.000000,4.000000,4.000000,4.000000,4.000000,4.000000,100.000000,,,,,,,,,,,,,,,,,,,,,,,,,,,,
1703500754.012854,1703500754.013529,119.000000,0.000000,4265.641113,4236.153809,4281.282227,4297.051270,4267.563965,4258.974121,4270.128418,4248.589844,4247.179688,4240.384766,4475.256348,4474.487305,4339.871582,4371.922852,6335.000000,3.000000,71.000000,,,,0.000000,4.000000,4.000000,4.000000,4.000000,4.000000,4.000000,4.000000,4.000000,4.000000,4.000000,4.000000,4.000000,4.000000,4.000000,100.000000,,,,,,,,,,,,,,,,,,,,,,,,,,,,
1703500754.020662,1703500754.021337,120.000000,0.000000,4250.641113,4238.589844,4279.487305,4295.769043,4262.436035,4251.922852,4264.358887,4251.666504,4244.230957,4237.563965,4478.461426,4472.307617,4341.153809,4375.897461,6867.000000,3.000000,71.000000,,,,0.000000,4.000000,4.000000,4.000000,4.000000,4.000000,4.000000,4.000000,4.000000,4.000000,4.000000,4.000000,4.000000,4.000000,4.000000,100.000000,,,,,,,,,,,,,,,,,30.000000,0.000000,0.642010,0.266724,-0.638000,0.331116,0.978635,-0.079111,0.042974,-13.195979,-36.044716,62.055634
1703500754.028470,1703500754.029245,121.000000,0.000000,4249.487305,4246.538574,4280.128418,4297.436035,4259.358887,4246.538574,4263.077148,4251.282227,4246.794922,4237.563965,4486.538574,4474.102539,4342.948730,4380.384766,7428.000000,3.000000,71.000000,,,,0.000000,4.000000,4.000000,4.000000,4.000000,4.000000,4.000000,4.000000,4.000000,4.000000,4.000000,4.000000,4.000000,4.000000,4.000000,100.000000,,,,,,,,,,,,,,,,,,,,,,,,,,,,
1703500754.036278,1703500754.037053,122.000000,0.000000,4258.717773,4248.461426,4282.692383,4303.846191,4265.256348,4250.128418,4265.641113,4251.153809,4252.307617,4258.461426,4493.717773,4483.333496,4349.615234,4391.538574,6082.000000,3.000000,71.000000,,,,0.000000,4.000000,4.000000,4.000000,4.000000,4.000000,4.000000,4.000000,4.000000,4.000000,4.000000,4.000000,4.000000,4.000000,4.000000,100.000000,,,,,,,,,,,,,,,,,,,,,,,,,,,,
1703500754.044086,1703500754.044961,123.000000,0.000000,4253.461426,4243.589844,4282.563965,4307.436035,4265.384766,4258.077148,4267.051270,4251.666504,4249.102539,4262.820313,4488.846191,4485.641113,4351.410156,4391.282227,6335.000000,3.000000,71.000000,,,,0.000000,4.000000,4.000000,4.000000,4.000000,4.000000,4.000000,4.000000,4.000000,4.000000,4.000000,4.000000,4.000000,4.000000,4.000000,100.000000,,,,,,,,,,,,,,,,,,,,,,,,,,,,
1703500754.051894,1703500754.052769,124.000000,0.000000,4245.512695,4241.153809,4281.794922,4304.871582,4251.282227,4257.948730,4266.282227,4247.307617,4236.538574,4243.333496,4477.051270,4475.256348,4341.538574,4373.846191,6867.000000,3.000000,71.000000,,,,0.000000,4.000000,4.000000,4.000000,4.000000,4.000000,4.000000,4.000000,4.000000,4.000000,4.000000,4.000000,4.000000,4.000000,4.000000,100.000000,,,,,,,,,,,,,,,,,31.000000,0.000000,0.641955,0.266785,-0.638062,0.331055,0.979612,-0.090343,0.026859,-13.326382,-35.973576,61.983406
1703500754.059703,1703500754.060677,125.000000,0.000000,4254.871582,4242.563965,4287.307617,4305.769043,4252.307617,4257.563965,4270.512695,4248.333496,4231.410156,4231.538574,4472.307617,4472.051270,4332.692383,4373.205078,7428.000000,3.000000,71.000000,,,,0.000000,4.000000,4.000000,4.000000,4.000000,4.000000,4.000000,4.000000,4.000000,4.000000,4.000000,4.000000,4.000000,4.000000,4.000000,100.000000,,,,,,,,,,,,,,,,,,,,,,,,,,,,
1703500754.067510,1703500754.068485,126.000000,0.000000,4266.794922,4246.282227,4296.538574,4312.179688,4274.743652,4266.410156,4279.743652,4259.743652,4242.436035,4232.563965,4479.358887,4480.897461,4337.436035,4388.589844,6082.000000,3.000000,71.000000,,,,0.000000,4.000000,4.000000,4.000000,4.000000,4.000000,4.000000,4.000000,4.000000,4.000000,4.000000,4.000000,4.000000,4.000000,4.000000,100.000000,,,,,,,,,,,,,,,,,,,,,,,,,,,,
1703500754.075318,1703500754.076193,127.000000,0.000000,4257.820313,4247.948730,4296.538574,4313.077148,4277.051270,4269.615234,4281.153809,4266.666504,4251.794922,4232.948730,4483.077148,4484.487305,4342.948730,4387.051270,71.000000,3.000000,71.000000,,,,0.000000,4.000000,4.000000,4.000000,4.000000,4.000000,4.000000,4.000000,4.000000,4.000000,4.000000,4.000000,4.000000,4.000000,4.000000,100.000000,,,,,,,,,,,,,,,,,,,,,,,,,,,,
1703500754.083127,1703500754.084001,0.000000,0.000000,4249.230957,4245.000000,4291.538574,4308.717773,4262.820313,4262.948730,4275.897461,4263.589844,4248.717773,4233.717773,4478.717773,4482.436035,4339.102539,4380.512695,5644.000000,3.000000,71.000000,,,,0.000000,4.000000,4.000000,4.000000,4.000000,4.000000,4.000000,4.000000,4.000000,4.000000,4.000000,4.000000,4.000000,4.000000,4.000000,100.000000,,,,,,,,,,,,,,,,,0.000000,0.000000,0.642114,0.266846,-0.637939,0.330933,0.986937,-0.091808,0.055183,-13.410410,-35.959553,61.968399
1703500754.090935,1703500754.091709,1.000000,0.000000,4260.128418,4246.282227,4293.846191,4308.461426,4262.307617,4261.282227,4276.025879,4263.077148,4247.948730,4241.153809,4482.948730,4485.256348,4342.563965,4389.871582,5592.000000,3.000000,71.000000,,,,0.000000,4.000000,4.000000,4.000000,4.000000,4.000000,4.000000,4.000000,4.000000,4.000000,4.000000,4.000000,4.000000,4.000000,4.000000,100.000000,,,,,,,,,,,,,,,,,,,,,,,,,,,,
1703500754.098743,1703500754.099517,2.000000,0.000000,4267.820313,4247.948730,4295.641113,4310.641113,4257.307617,4261.025879,4274.615234,4265.128418,4251.282227,4249.743652,4492.307617,4489.358887,4352.051270,4395.256348,5420.000000,3.000000,71.000000,,,,0.000000,4.000000,4.000000,4.000000,4.000000,4.000000,4.000000,4.000000,4.000000,4.000000,4.000000,4.000000,4.000000,4.000000,4.000000,100.000000,,,,,,,,,,,,,,,,,,,,,,,,,,,,
1703500754.106551,1703500754.107225,3.000000,0.000000,4265.256348,4246.922852,4296.153809,4310.384766,4247.692383,4257.436035,4273.077148,4261.538574,4252.307617,4250.897461,4493.333496,4490.256348,4353.461426,4393.846191,5414.000000,3.000000,71.000000,,,,0.000000,4.000000,4.000000,4.000000,4.000000,4.000000,4.000000,4.000000,4.000000,4.000000,4.000000,4.000000,4.000000,4.000000,4.000000,100.000000,,,,,,,,,,,,,,,,,,,,,,,,,,,,
1703500754.114359,1703500754.115033,4.000000,0.000000,4272.948730,4252.307617,4303.846191,4312.179688,4262.436035,4264.230957,4277.692383,4259.487305,4256.538574,4250.769043,4496.025879,4492.051270,4357.179688,4397.436035,5352.000000,3.000000,71.000000,,,,0.000000,4.000000,4.000000,4.000000,4.000000,4.000000,4.000000,4.000000,4.000000,4.000000,4.000000,4.000000,4.000000,4.000000,4.000000,100.000000,,,,,,,,,,,,,,,,,1.000000,0.000000,0.642302,0.266846,-0.637939,0.330566,0.998657,-0.082530,0.052741,-13.402702,-35.946930,61.954891
1703500754.122167,1703500754.122741,5.000000,0.000000,4281.666504,4262.692383,4311.410156,4320.000000,4280.769043,4273.461426,4280.128418,4263.846191,4259.615234,4249.358887,4503.333496,4494.743652,4364.102539,4398.846191,5310.000000,3.000000,71.000000,,,,0.000000,4.000000,4.000000,4.000000,4.000000,4.000000,4.000000,4.000000,4.000000,4.000000,4.000000,4.000000,4.000000,4.000000,4.000000,100.000000,,,,,,,,,,,,,,,,,,,,,,,,,,,,
1703500754.129975,1703500754.130649,6.000000,0.000000,4279.615234,4267.692383,4312.051270,4325.641113,4280.384766,4270.128418,4279.615234,4265.384766,4260.769043,4251.153809,4507.692383,4498.077148,4365.641113,4399.615234,4425.000000,3.000000,71.000000,,,,0.000000,4.000000,4.000000,4.000000,4.000000,4.000000,4.000000,4.000000,4.000000,4.000000,4.000000,4.000000,4.000000,4.000000,4.000000,100.000000,,,,,,,,,,,,,,,,,,,,,,,,,,,,
1703500754.137783,1703500754.138457,7.000000,0.000000,4279.358887,4260.897461,4310.000000,4319.102539,4275.384766,4264.743652,4280.128418,4263.077148,4265.384766,4268.333496,4508.077148,4498.974121,4365.000000,4405.384766,5272.000000,3.000000,71.000000,,,,0.000000,4.000000,4.000000,4.000000,4.000000,4.000000,4.000000,4.000000,4.000000,4.000000,4.000000,4.000000,4.000000,4.000000,4.000000,100.000000,,,,,,,,,,,,,,,,,,,,,,,,,,,,
1703500754.145591,1703500754.146365,8.000000,0.000000,4277.307617,4251.025879,4307.179688,4308.333496,4270.897461,4265.512695,4280.769043,4261.153809,4258.461426,4268.205078,4498.846191,4493.717773,4355.384766,4395.512695,5447.000000,3.000000,71.000000,,,,0.000000,4.000000,4.000000,4.000000,4.000000,4.000000,4.000000,4.000000,4.000000,4.000000,4.000000,4.000000,4.000000,4.000000,4.000000,100.000000,1.000000,100.000000,4.000000,4.000000,4.000000,4.000000,4.000000,4.000000,4.000000,4.000000,4.000000,4.000000,4.000000,4.000000,4.000000,4.000000,2.000000,0.000000,0.642291,0.266663,-0.638123,0.330383,0.982053,-0.082530,0.039067,-13.395765,-36.018906,61.942734
1703500754.153399,1703500754.154174,9.000000,0.000000,4273.205078,4251.794922,4306.282227,4308.077148,4263.205078,4266.410156,4278.846191,4261.666504,4247.692383,4248.974121,4487.436035,4490.256348,4346.538574,4384.871582,5449.000000,3.000000,71.000000,,,,0.000000,4.000000,4.000000,4.000000,4.000000,4.000000,4.000000,4.000000,4.000000,4.000000,4.000000,4.000000,4.000000,4.000000,4.000000,100.000000,,,,,,,,,,,,,,,,,,,,,,,,,,,,
1703500754.161207,1703500754.162082,10.000000,0.000000,4279.871582,4263.077148,4312.436035,4314.487305,4262.307617,4265.384766,4279.871582,4263.461426,4252.563965,4249.102539,4492.179688,4493.974121,4353.846191,4398.846191,6090.000000,3.000000,71.000000,,,,0.000000,4.000000,4.000000,4.000000,4.000000,4.000000,4.000000,4.000000,4.000000,4.000000,4.000000,4.000000,4.000000,4.000000,4.000000,100.000000,,,,,,,,,,,,,,,,,,,,,,,,,,,,
1703500754.169015,1703500754.169890,11.000000,0.000000,4279.743652,4263.461426,4314.102539,4313.461426,4267.563965,4266.153809,4282.436035,4263.589844,4254.487305,4248.846191,4492.051270,4492.563965,4353.974121,4402.948730,6346.000000,3.000000,71.000000,,,,0.000000,4.000000,4.000000,4.000000,4.000000,4.000000,4.000000,4.000000,4.000000,4.000000,4.000000,4.000000,4.000000,4.000000,4.000000,100.000000,,,,,,,,,,,,,,,,,,,,,,,,,,,,
1703500754.176823,1703500754.177698,12.000000,0.000000,4269.871582,4251.410156,4307.307617,4308.461426,4267.563965,4266.153809,4280.000000,4261.153809,4246.025879,4237.563965,4481.153809,4485.512695,4344.230957,4388.077148,6875.000000,3.000000,71.000000,,,,0.000000,4.000000,4.000000,4.000000,4.000000,4.000000,4.000000,4.000000,4.000000,4.000000,4.000000,4.000000,4.000000,4.000000,4.000000,100.000000,,,,,,,,,,,,,,,,,3.000000,0.000000,0.642185,0.266479,-0.638306,0.330383,0.984007,-0.088878,0.039556,-13.339522,-35.950348,61.931797
1703500754.184631,1703500754.185406,13.000000,0.000000,4271.282227,4250.641113,4307.179688,4308.846191,4264.743652,4265.384766,4281.025879,4260.641113,4246.538574,4241.794922,4484.615234,4488.461426,4350.128418,4391.025879,7438.000000,3.000000,71.000000,,,,0.000000,4.000000,4.000000,4.000000,4.000000,4.000000,4.000000,4.000000,4.000000,4.000000,4.000000,4.000000,4.000000,4.000000,4.000000,100.000000,,,,,,,,,,,,,,,,,,,,,,,,,,,,
1703500754.192439,1703500754.193314,14.000000,0.000000,4272.307617,4260.000000,4312.307617,4311.410156,4269.871582,4266.922852,4286.794922,4264.615234,4253.077148,4254.102539,4495.384766,4494.615234,4360.000000,4402.692383,6090.000000,3.000000,71.000000,,,,0.000000,4.000000,4.000000,4.000000,4.000000,4.000000,4.000000,4.000000,4.000000,4.000000,4.000000,4.000000,4.000000,4.000000,4.000000,100.000000,,,,,,,,,,,,,,,,,,,,,,,,,,,,
1703500754.200247,1703500754.201222,15.000000,0.000000,4265.897461,4261.538574,4308.205078,4311.666504,4269.871582,4266.410156,4283.461426,4264.871582,4252.051270,4250.256348,4493.589844,4485.769043,4356.922852,4392.692383,6346.000000,3.000000,71.000000,,,,0.000000,4.000000,4.000000,4.000000,4.000000,4.000000,4.000000,4.000000,4.000000,4.000000,4.000000,4.000000,4.000000,4.000000,4.000000,100.000000,,,,,,,,,,,,,,,,,,,,,,,,,,,,
1703500754.208055,1703500754.209030,16.000000,0.000000,4271.666504,4259.487305,4302.307617,4311.282227,4258.589844,4261.410156,4275.897461,4259.230957,4247.692383,4233.974121,4486.410156,4476.153809,4350.384766,4386.153809,0.000000,3.000000,71.000000,,,,0.000000,4.000000,4.000000,4.000000,4.000000,4.000000,4.000000,4.000000,4.000000,4.000000,4.000000,4.000000,4.000000,4.000000,4.000000,100.000000,,,,,,,,,,,,,,,,,4.000000,0.000000,0.641963,0.266418,-0.638428,0.330627,0.987914,-0.081065,0.035649,-13.488903,-35.871979,61.855282
1703500754.215863,1703500754.216839,17.000000,0.000000,4282.436035,4263.205078,4307.051270,4314.230957,4260.256348,4258.333496,4276.922852,4258.333496,4246.666504,4228.974121,4485.512695,4483.205078,4352.820313,4395.128418,0.000000,3.000000,71.000000,,,,0.000000,4.000000,4.000000,4.000000,4.000000,4.000000,4.000000,4.000000,4.000000,4.000000,4.000000,4.000000,4.000000,4.000000,4.000000,100.000000,,,,,,,,,,,,,,,,,,,,,,,,,,,,
1703500754.223672,1703500754.224747,18.000000,0.000000,4283.077148,4267.307617,4312.051270,4321.153809,4277.051270,4262.948730,4280.897461,4263.205078,4248.846191,4241.538574,4494.743652,4493.205078,4362.436035,4402.948730,0.000000,3.000000,71.000000,,,,0.000000,4.000000,4.000000,4.000000,4.000000,4.000000,4.000000,4.000000,4.000000,4.000000,4.000000,4.000000,4.000000,4.000000,4.000000,100.000000,,,,,,,,,,,,,,,,,,,,,,,,,,,,
1703500754.231480,1703500754.232655,19.000000,0.000000,4280.641113,4266.153809,4312.179688,4326.538574,4280.769043,4266.410156,4279.487305,4263.717773,4250.256348,4254.487305,4502.820313,4489.487305,4368.974121,4410.384766,0.000000,3.000000,71.000000,,,,0.000000,4.000000,4.000000,4.000000,4.000000,4.000000,4.000000,4.000000,4.000000,4.000000,4.000000,4.000000,4.000000,4.000000,4.000000,100.000000,,,,,,,,,,,,,,,,,,,,,,,,,,,,
1703500754.239288,1703500754.240463,20.000000,0.000000,4280.000000,4264.230957,4308.589844,4321.794922,4273.461426,4265.641113,4277.307617,4260.384766,4250.256348,4255.128418,4499.615234,4480.641113,4366.666504,4412.179688,0.000000,3.000000,71.000000,,,,0.000000,4.000000,4.000000,4.000000,4.000000,4.000000,4.000000,4.000000,4.000000,4.000000,4.000000,4.000000,4.000000,4.000000,4.000000,100.000000,,,,,,,,,,,,,,,,,5.000000,0.000000,0.641735,0.266296,-0.638550,0.330933,0.963985,-0.083018,0.042486,-13.473347,-35.818115,61.803089
1703500754.247096,1703500754.248271,21.000000,0.000000,4277.820313,4261.922852,4300.512695,4313.077148,4272.948730,4266.794922,4280.641113,4261.025879,4249.871582,4251.410156,4489.615234,4478.461426,4358.077148,4396.922852,0.000000,3.000000,71.000000,,,,0.000000,4.000000,4.000000,4.000000,4.000000,4.000000,4.000000,4.000000,4.000000,4.000000,4.000000,4.000000,4.000000,4.000000,4.000000,100.000000,,,,,,,,,,,,,,,,,,,,,,,,,,,,
1703500754.254904,1703500754.256179,22.000000,0.000000,4276.666504,4261.282227,4295.128418,4311.025879,4271.282227,4268.846191,4281.922852,4262.820313,4251.025879,4252.179688,4482.948730,4477.179688,4352.563965,4384.487305,0.000000,3.000000,71.000000,,,,0.000000,4.000000,4.000000,4.000000,4.000000,4.000000,4.000000,4.000000,4.000000,4.000000,4.000000,4.000000,4.000000,4.000000,4.000000,100.000000,,,,,,,,,,,,,,,,,,,,,,,,,,,,
1703500754.262712,1703500754.263987,23.000000,0.000000,4277.307617,4262.307617,4300.384766,4313.461426,4261.666504,4268.461426,4281.153809,4261.410156,4253.205078,4245.769043,4479.102539,4474.487305,4353.333496,4391.666504,0.000000,3.000000,71.000000,,,,0.000000,4.000000,4.000000,4.000000,4.000000,4.000000,4.000000,4.000000,4.000000,4.000000,4.000000,4.000000,4.000000,4.000000,4.000000,100.000000,,,,,,,,,,,,,,,,,,,,,,,,,,,,
1703500754.270520,1703500754.271695,24.000000,0.000000,4276.922852,4261.922852,4307.563965,4312.692383,4263.717773,4266.282227,4283.846191,4260.512695,4252.436035,4233.205078,4477.179688,4477.179688,4353.717773,4391.666504,0.000000,3.000000,71.000000,,,,0.000000,4.000000,4.000000,4.000000,4.000000,4.000000,4.000000,4.000000,4.000000,4.000000,4.000000,4.000000,4.000000,4.000000,4.000000,100.000000,,,,,,,,,,,,,,,,,6.000000,0.000000,0.641672,0.266296,-0.638550,0.331055,0.979612,-0.091808,0.048346,-13.626012,-35.686302,61.756111
1703500754.278328,1703500754.279603,25.000000,0.000000,4274.487305,4260.384766,4307.563965,4311.922852,4276.666504,4266.538574,4283.846191,4263.461426,4256.282227,4241.922852,4483.846191,4480.384766,4353.974121,4386.794922,0.000000,3.000000,71.000000,,,,0.000000,4.000000,4.000000,4.000000,4.000000,4.000000,4.000000,4.000000,4.000000,4.000000,4.000000,4.000000,4.000000,4.000000,4.000000,100.000000,,,,,,,,,,,,,,,,,,,,,,,,,,,,
1703500754.286136,1703500754.287411,26.000000,0.000000,4273.846191,4260.128418,4305.512695,4316.025879,4273.461426,4266.153809,4279.615234,4266.538574,4262.563965,4263.333496,4493.461426,4479.615234,4358.205078,4394.615234,0.000000,3.000000,71.000000,,,,0.000000,4.000000,4.000000,4.000000,4.000000,4.000000,4.000000,4.000000,4.000000,4.000000,4.000000,4.000000,4.000000,4.000000,4.000000,100.000000,,,,,,,,,,,,,,,,,,,,,,,,,,,,
1703500754.293944,1703500754.295219,27.000000,0.000000,4276.666504,4260.897461,4300.769043,4318.461426,4263.461426,4263.461426,4278.333496,4263.077148,4260.256348,4260.128418,4491.538574,4477.820313,4358.589844,4396.794922,0.000000,3.000000,71.000000,,,,0.000000,4.000000,4.000000,4.000000,4.000000,4.000000,4.000000,4.000000,4.000000,4.000000,4.000000,4.000000,4.000000,4.000000,4.000000,100.000000,,,,,,,,,,,,,,,,,,,,,,,,,,,,
1703500754.301752,1703500754.302928,28.000000,0.000000,4278.333496,4263.974121,4296.282227,4321.025879,4272.948730,4265.000000,4281.538574,4265.769043,4260.512695,4253.589844,4489.102539,4478.717773,4357.563965,4392.307617,0.000000,3.000000,71.000000,,,,0.000000,4.000000,4.000000,4.000000,4.000000,4.000000,4.000000,4.000000,4.000000,4.000000,4.000000,4.000000,4.000000,4.000000,4.000000,100.000000,,,,,,,,,,,,,,,,,7.000000,0.000000,0.641704,0.265991,-0.638550,0.331238,1.002075,-0.098645,0.042974,-13.746744,-35.717674,61.747166
1703500754.309560,1703500754.310736,29.000000,0.000000,4277.307617,4264.615234,4302.436035,4324.487305,4274.615234,4266.025879,4282.051270,4272.820313,4266.153809,4261.666504,4492.307617,4479.358887,4357.820313,4393.205078,0.000000,3.000000,71.000000,,,,0.000000,4.000000,4.000000,4.000000,4.000000,4.000000,4.000000,4.000000,4.000000,4.000000,4.000000,4.000000,4.000000,4.000000,4.000000,100.000000,,,,,,,,,,,,,,,,,,,,,,,,,,,,
1703500754.317368,1703500754.318444,30.000000,0.000000,4278.717773,4261.922852,4311.025879,4322.948730,4259.871582,4261.282227,4278.205078,4270.384766,4264.487305,4256.922852,4490.769043,4479.230957,4356.538574,4397.563965,0.000000,3.000000,71.000000,,,,0.000000,4.000000,4.000000,4.000000,4.000000,4.000000,4.000000,4.000000,4.000000,4.000000,4.000000,4.000000,4.000000,4.000000,4.000000,100.000000,,,,,,,,,,,,,,,,,,,,,,,,,,,,
1703500754.325176,1703500754.326252,31.000000,0.000000,4284.743652,4263.077148,4312.179688,4322.948730,4266.153809,4264.487305,4281.153809,4264.871582,4260.128418,4245.384766,4486.794922,4484.743652,4356.538574,4400.128418,0.000000,3.000000,71.000000,,,,0.000000,4.000000,4.000000,4.000000,4.000000,4.000000,4.000000,4.000000,4.000000,4.000000,4.000000,4.000000,4.000000,4.000000,4.000000,100.000000,,,,,,,,,,,,,,,,,,,,,,,,,,,,
1703500754.332984,1703500754.333960,32.000000,0.000000,4288.333496,4266.025879,4311.922852,4326.153809,4284.358887,4275.641113,4286.794922,4266.025879,4259.743652,4247.307617,4489.358887,4489.871582,4355.128418,4400.384766,0.000000,3.000000,71.000000,,,,0.000000,4.000000,4.000000,4.000000,4.000000,4.000000,4.000000,4.000000,4.000000,4.000000,4.000000,4.000000,4.000000,4.000000,4.000000,100.000000,,,,,,,,,,,,,,,,,8.000000,0.000000,0.641808,0.265747,-0.638611,0.331116,0.982053,-0.082530,0.038579,-13.638736,-35.829239,61.739117
1703500754.340792,1703500754.341768,33.000000,0.000000,4282.307617,4264.615234,4311.410156,4319.743652,4280.000000,4276.922852,4284.487305,4267.692383,4260.384766,4256.538574,4491.538574,4486.666504,4355.256348,4400.256348,0.000000,3.000000,71.000000,,,,0.000000,4.000000,4.000000,4.000000,4.000000,4.000000,4.000000,4.000000,4.000000,4.000000,4.000000,4.000000,4.000000,4.000000,4.000000,100.000000,,,,,,,,,,,,,,,,,,,,,,,,,,,,
1703500754.348600,1703500754.349476,34.000000,0.000000,4275.512695,4260.512695,4307.436035,4308.589844,4266.922852,4270.769043,4279.615234,4268.077148,4263.333496,4263.205078,4485.128418,4480.128418,4356.922852,4396.538574,0.000000,3.000000,71.000000,,,,0.000000,4.000000,4.000000,4.000000,4.000000,4.000000,4.000000,4.000000,4.000000,4.000000,4.000000,4.000000,4.000000,4.000000,4.000000,100.000000,,,,,,,,,,,,,,,,,,,,,,,,,,,,
1703500754.356408,1703500754.357284,35.000000,0.000000,4281.153809,4262.307617,4308.333496,4313.974121,4271.922852,4271.922852,4281.410156,4273.333496,4263.205078,4257.563965,4481.922852,4479.615234,4355.769043,4395.256348,0.000000,3.000000,71.000000,,,,0.000000,4.000000,4.000000,4.000000,4.000000,4.000000,4.000000,4.000000,4.000000,4.000000,4.000000,4.000000,4.000000,4.000000,4.000000,100.000000,,,,,,,,,,,,,,,,,,,,,,,,,,,,
1703500754.364216,1703500754.364992,36.000000,0.000000,4292.820313,4269.615234,4312.436035,4327.179688,4282.307617,4278.077148,4285.897461,4275.641113,4261.153809,4247.563965,4489.487305,4485.512695,4356.794922,4404.615234,0.000000,3.000000,71.000000,,,,0.000000,4.000000,4.000000,4.000000,4.000000,4.000000,4.000000,4.000000,4.000000,4.000000,4.000000,4.000000,4.000000,4.000000,4.000000,100.000000,,,,,,,,,,,,,,,,,9.000000,0.000000,0.642013,0.265625,-0.638550,0.330933,0.992797,-0.081065,0.048834,-13.474862,-35.779648,61.748539
1703500754.372024,1703500754.372900,37.000000,0.000000,4291.922852,4274.743652,4312.563965,4326.922852,4277.563965,4275.384766,4286.153809,4267.948730,4260.384766,4246.666504,4488.589844,4486.153809,4356.794922,4406.922852,0.000000,3.000000,71.000000,,,,0.000000,4.000000,4.000000,4.000000,4.000000,4.000000,4.000000,4.000000,4.000000,4.000000,4.000000,4.000000,4.000000,4.000000,4.000000,100.000000,,,,,,,,,,,,,,,,,,,,,,,,,,,,
1703500754.379832,1703500754.380708,38.000000,0.000000,4283.589844,4277.820313,4309.871582,4321.922852,4273.077148,4266.922852,4282.307617,4261.922852,4258.333496,4248.205078,4479.615234,4478.717773,4354.615234,4398.846191,0.000000,3.000000,71.000000,,,,0.000000,4.000000,4.000000,4.000000,4.000000,4.000000,4.000000,4.000000,4.000000,4.000000,4.000000,4.000000,4.000000,4.000000,4.000000,100.000000,,,,,,,,,,,,,,,,,,,,,,,,,,,,
1703500754.387641,1703500754.388615,39.000000,0.000000,4284.871582,4278.974121,4313.077148,4324.615234,4280.000000,4264.743652,4280.384766,4264.358887,4258.717773,4255.000000,4482.563965,4475.769043,4358.974121,4397.948730,0.000000,3.000000,71.000000,,,,0.000000,4.000000,4.000000,4.000000,4.000000,4.000000,4.000000,4.000000,4.000000,4.000000,4.000000,4.000000,4.000000,4.000000,4.000000,100.000000,,,,,,,,,,,,,,,,,,,,,,,,,,,,
1703500754.395449,1703500754.396423,40.000000,0.000000,4291.794922,4276.538574,4317.307617,4326.794922,4281.666504,4267.436035,4281.794922,4266.282227,4261.025879,4259.743652,4482.820313,4480.641113,4360.769043,4400.641113,0.000000,3.000000,71.000000,,,,0.000000,4.000000,4.000000,4.000000,4.000000,4.000000,4.000000,4.000000,4.000000,4.000000,4.000000,4.000000,4.000000,4.000000,4.000000,100.000000,,,,,,,,,,,,,,,,,10.000000,0.000000,0.642131,0.265564,-0.638489,0.330872,0.981565,-0.081553,0.037114,-13.527376,-35.718349,62.023685
1703500754.403257,1703500754.404331,41.000000,0.000000,4293.717773,4275.769043,4313.846191,4323.717773,4274.230957,4264.230957,4278.717773,4265.128418,4263.589844,4249.615234,4475.641113,4481.922852,4356.025879,4401.794922,0.000000,3.000000,71.000000,,,,0.000000,4.000000,4.000000,4.000000,4.000000,4.000000,4.000000,4.000000,4.000000,4.000000,4.000000,4.000000,4.000000,4.000000,4.000000,100.000000,,,,,,,,,,,,,,,,,,,,,,,,,,,,
1703500754.411065,1703500754.412139,42.000000,0.000000,4293.461426,4279.743652,4315.128418,4325.128418,4275.512695,4263.077148,4282.692383,4268.717773,4268.589844,4251.922852,4483.717773,4483.589844,4360.897461,4406.794922,0.000000,3.000000,71.000000,,,,0.000000,4.000000,4.000000,4.000000,4.000000,4.000000,4.000000,4.000000,4.000000,4.000000,4.000000,4.000000,4.000000,4.000000,4.000000,100.000000,,,,,,,,,,,,,,,,,,,,,,,,,,,,
1703500754.418873,1703500754.420047,43.000000,0.000000,4286.282227,4283.077148,4319.871582,4329.358887,4283.589844,4274.230957,4291.538574,4277.436035,4270.641113,4267.051270,4489.615234,4488.205078,4368.589844,4405.384766,0.000000,3.000000,71.000000,,,,0.000000,4.000000,4.000000,4.000000,4.000000,4.000000,4.000000,4.000000,4.000000,4.000000,4.000000,4.000000,4.000000,4.000000,4.000000,100.000000,,,,,,,,,,,,,,,,,,,,,,,,,,,,
1703500754.426681,1703500754.427855,44.000000,0.000000,4281.025879,4280.897461,4314.871582,4326.025879,4284.102539,4281.410156,4288.333496,4277.307617,4267.179688,4259.102539,4478.077148,4484.743652,4361.538574,4396.794922,0.000000,3.000000,71.000000,,,,0.000000,4.000000,4.000000,4.000000,4.000000,4.000000,4.000000,4.000000,4.000000,4.000000,4.000000,4.000000,4.000000,4.000000,4.000000,100.000000,,,,,,,,,,,,,,,,,11.000000,0.000000,0.642093,0.265503,-0.638489,0.330994,0.985960,-0.091320,0.042486,-13.507972,-35.929848,62.087982
