title:ليال اطفاء, start timestamp:1703407890.159094, stop timestamp:1703407900.973246, headset type:EPOCX, headset serial:E50206EF, headset firmware:720, channels:67, sampling rate:eeg_128;mot_32, samples:1386      , version:2.2, 
Timestamp,OriginalTimestamp,EEG.Counter,EEG.Interpolated,EEG.AF3,EEG.F7,EEG.F3,EEG.FC5,EEG.T7,EEG.P7,EEG.O1,EEG.O2,EEG.P8,EEG.T8,EEG.FC6,EEG.F4,EEG.F8,EEG.AF4,EEG.RawCq,EEG.Battery,EEG.BatteryPercent,MarkerIndex,MarkerType,MarkerValueInt,EEG.MarkerHardware,CQ.AF3,CQ.F7,CQ.F3,CQ.FC5,CQ.T7,CQ.P7,CQ.O1,CQ.O2,CQ.P8,CQ.T8,CQ.FC6,CQ.F4,CQ.F8,CQ.AF4,CQ.Overall,EQ.SampleRateQuality,EQ.OVERALL,EQ.AF3,EQ.F7,EQ.F3,EQ.FC5,EQ.T7,EQ.P7,EQ.O1,EQ.O2,EQ.P8,EQ.T8,EQ.FC6,EQ.F4,EQ.F8,EQ.AF4,MOT.CounterMems,MOT.InterpolatedMems,MOT.Q0,MOT.Q1,MOT.Q2,MOT.Q3,MOT.AccX,MOT.AccY,MOT.AccZ,MOT.MagX,MOT.MagY,MOT.MagZ
1703407890.159094,1703407890.159454,53.000000,0.000000,4188.333496,4168.974121,4272.948730,4237.307617,4181.025879,4152.692383,4187.179688,4167.948730,4175.769043,4175.512695,4632.948730,4468.589844,4403.589844,4527.948730,0.000000,4.000000,75.000000,,,,0.000000,4.000000,4.000000,4.000000,4.000000,4.000000,4.000000,4.000000,4.000000,4.000000,4.000000,4.000000,4.000000,4.000000,4.000000,100.000000,,,,,,,,,,,,,,,,,,,,,,,,,,,,
1703407890.166902,1703407890.167162,54.000000,0.000000,4184.743652,4170.128418,4274.230957,4236.282227,4178.846191,4152.820313,4187.692383,4175.000000,4175.384766,4177.307617,4641.410156,4471.410156,4411.282227,4543.717773,0.000000,4.000000,75.000000,,,,0.000000,4.000000,4.000000,4.000000,4.000000,4.000000,4.000000,4.000000,4.000000,4.000000,4.000000,4.000000,4.000000,4.000000,4.000000,100.000000,,,,,,,,,,,,,,,,,,,,,,,,,,,,
1703407890.174710,1703407890.175070,55.000000,0.000000,4170.000000,4168.077148,4277.307617,4226.025879,4170.512695,4150.512695,4185.641113,4177.307617,4170.384766,4172.436035,4636.410156,4472.948730,4408.333496,4535.897461,0.000000,4.000000,75.000000,,,,0.000000,4.000000,4.000000,4.000000,4.000000,4.000000,4.000000,4.000000,4.000000,4.000000,4.000000,4.000000,4.000000,4.000000,4.000000,100.000000,,,,,,,,,,,,,,,,,,,,,,,,,,,,
1703407890.182518,1703407890.182878,56.000000,0.000000,4176.025879,4168.589844,4277.051270,4229.871582,4167.948730,4150.128418,4184.102539,4176.794922,4171.538574,4170.256348,4636.025879,4474.487305,4410.512695,4539.102539,0.000000,4.000000,75.000000,,,,0.000000,4.000000,4.000000,4.000000,4.000000,4.000000,4.000000,4.000000,4.000000,4.000000,4.000000,4.000000,4.000000,4.000000,4.000000,100.000000,,,,,,,,,,,,,,,,,14.000000,0.000000,0.722099,-0.185120,-0.653442,-0.131592,0.975705,-0.103040,0.072763,-14.693742,-41.923790,65.675720
1703407890.190327,1703407890.190786,57.000000,0.000000,4187.948730,4173.974121,4278.333496,4247.563965,4175.897461,4150.641113,4183.333496,4170.512695,4169.102539,4171.282227,4642.179688,4477.051270,4415.256348,4556.282227,0.000000,4.000000,75.000000,,,,0.000000,4.000000,4.000000,4.000000,4.000000,4.000000,4.000000,4.000000,4.000000,4.000000,4.000000,4.000000,4.000000,4.000000,4.000000,100.000000,,,,,,,,,,,,,,,,,,,,,,,,,,,,
1703407890.198135,1703407890.198594,58.000000,0.000000,4188.846191,4173.333496,4283.333496,4254.230957,4182.051270,4150.897461,4183.589844,4165.512695,4160.897461,4171.025879,4643.589844,4478.589844,4413.461426,4563.333496,0.000000,4.000000,75.000000,,,,0.000000,4.000000,4.000000,4.000000,4.000000,4.000000,4.000000,4.000000,4.000000,4.000000,4.000000,4.000000,4.000000,4.000000,4.000000,100.000000,,,,,,,,,,,,,,,,,,,,,,,,,,,,
1703407890.205943,1703407890.206502,59.000000,0.000000,4185.256348,4163.589844,4284.230957,4244.487305,4176.666504,4151.153809,4184.615234,4168.333496,4157.307617,4168.461426,4641.282227,4469.487305,4410.256348,4564.102539,0.000000,4.000000,75.000000,,,,0.000000,4.000000,4.000000,4.000000,4.000000,4.000000,4.000000,4.000000,4.000000,4.000000,4.000000,4.000000,4.000000,4.000000,4.000000,100.000000,,,,,,,,,,,,,,,,,,,,,,,,,,,,
1703407890.213751,1703407890.214311,60.000000,0.000000,4186.153809,4155.897461,4280.897461,4239.487305,4167.948730,4149.358887,4182.948730,4168.589844,4154.102539,4163.589844,4638.846191,4464.743652,4407.692383,4559.358887,0.000000,4.000000,75.000000,,,,0.000000,4.000000,4.000000,4.000000,4.000000,4.000000,4.000000,4.000000,4.000000,4.000000,4.000000,4.000000,4.000000,4.000000,4.000000,100.000000,,,,,,,,,,,,,,,,,15.000000,0.000000,0.722244,-0.185547,-0.653198,-0.131409,0.987914,-0.102552,0.083506,-14.707701,-41.914745,65.724815
1703407890.221559,1703407890.222219,61.000000,0.000000,4197.307617,4156.025879,4280.128418,4247.051270,4169.102539,4147.563965,4183.461426,4167.051270,4148.974121,4162.820313,4641.922852,4472.820313,4407.820313,4550.256348,0.000000,4.000000,75.000000,,,,0.000000,4.000000,4.000000,4.000000,4.000000,4.000000,4.000000,4.000000,4.000000,4.000000,4.000000,4.000000,4.000000,4.000000,4.000000,100.000000,,,,,,,,,,,,,,,,,,,,,,,,,,,,
1703407890.229367,1703407890.230027,62.000000,0.000000,4203.333496,4158.717773,4286.794922,4251.794922,4172.051270,4152.179688,4187.436035,4171.666504,4151.666504,4170.000000,4651.794922,4481.922852,4414.615234,4557.179688,0.000000,4.000000,75.000000,,,,0.000000,4.000000,4.000000,4.000000,4.000000,4.000000,4.000000,4.000000,4.000000,4.000000,4.000000,4.000000,4.000000,4.000000,4.000000,100.000000,,,,,,,,,,,,,,,,,,,,,,,,,,,,
1703407890.237175,1703407890.237934,63.000000,0.000000,4188.205078,4159.102539,4289.358887,4247.692383,4171.794922,4163.205078,4187.820313,4175.256348,4154.615234,4173.333496,4650.769043,4477.051270,4415.897461,4561.410156,0.000000,4.000000,75.000000,,,,0.000000,4.000000,4.000000,4.000000,4.000000,4.000000,4.000000,4.000000,4.000000,4.000000,4.000000,4.000000,4.000000,4.000000,4.000000,100.000000,,,,,,,,,,,,,,,,,,,,,,,,,,,,
1703407890.244983,1703407890.245742,64.000000,0.000000,4180.769043,4152.179688,4275.384766,4244.487305,4169.871582,4170.512695,4190.256348,4163.717773,4152.820313,4165.128418,4638.205078,4460.384766,4403.589844,4538.846191,4969.000000,4.000000,75.000000,,,,0.000000,4.000000,4.000000,4.000000,4.000000,4.000000,4.000000,4.000000,4.000000,4.000000,4.000000,4.000000,4.000000,4.000000,4.000000,100.000000,,,,,,,,,,,,,,,,,16.000000,0.000000,0.722221,-0.185852,-0.653137,-0.131409,0.990844,-0.089855,0.079111,-14.753597,-41.873272,65.735664
1703407890.252791,1703407890.253650,65.000000,0.000000,4184.102539,4143.974121,4262.179688,4244.358887,4168.589844,4171.538574,4197.051270,4151.794922,4150.000000,4158.974121,4629.102539,4446.666504,4392.307617,4520.897461,5419.000000,4.000000,75.000000,,,,0.000000,4.000000,4.000000,4.000000,4.000000,4.000000,4.000000,4.000000,4.000000,4.000000,4.000000,4.000000,4.000000,4.000000,4.000000,100.000000,,,,,,,,,,,,,,,,,,,,,,,,,,,,
1703407890.260599,1703407890.261458,66.000000,0.000000,4167.563965,4140.128418,4266.025879,4239.615234,4172.179688,4172.051270,4200.128418,4159.102539,4152.948730,4163.717773,4627.820313,4444.615234,4393.077148,4519.871582,5213.000000,4.000000,75.000000,,,,0.000000,4.000000,4.000000,4.000000,4.000000,4.000000,4.000000,4.000000,4.000000,4.000000,4.000000,4.000000,4.000000,4.000000,4.000000,100.000000,,,,,,,,,,,,,,,,,,,,,,,,,,,,
1703407890.268407,1703407890.269166,67.000000,0.000000,4154.871582,4140.897461,4269.871582,4232.692383,4172.948730,4178.717773,4201.025879,4172.051270,4164.358887,4169.358887,4629.487305,4450.000000,4397.307617,4521.794922,5275.000000,4.000000,75.000000,,,,0.000000,4.000000,4.000000,4.000000,4.000000,4.000000,4.000000,4.000000,4.000000,4.000000,4.000000,4.000000,4.000000,4.000000,4.000000,100.000000,,,,,,,,,,,,,,,,,,,,,,,,,,,,
1703407890.276215,1703407890.276974,68.000000,0.000000,4167.948730,4146.538574,4270.384766,4232.692383,4171.282227,4183.974121,4204.743652,4178.077148,4172.948730,4169.358887,4629.615234,4450.512695,4395.384766,4524.871582,5111.000000,4.000000,75.000000,,,,0.000000,4.000000,4.000000,4.000000,4.000000,4.000000,4.000000,4.000000,4.000000,4.000000,4.000000,4.000000,4.000000,4.000000,4.000000,100.000000,,,,,,,,,,,,,,,,,17.000000,0.000000,0.722210,-0.185852,-0.653198,-0.131165,0.989867,-0.102063,0.078135,-14.694904,-41.935944,65.762100
1703407890.284023,1703407890.284682,69.000000,0.000000,4180.769043,4150.897461,4279.871582,4240.512695,4171.025879,4176.666504,4204.102539,4178.333496,4172.563965,4170.512695,4629.743652,4450.384766,4395.897461,4521.666504,4547.000000,4.000000,75.000000,,,,0.000000,4.000000,4.000000,4.000000,4.000000,4.000000,4.000000,4.000000,4.000000,4.000000,4.000000,4.000000,4.000000,4.000000,4.000000,100.000000,,,,,,,,,,,,,,,,,,,,,,,,,,,,
1703407890.291831,1703407890.292490,70.000000,0.000000,4180.128418,4156.794922,4291.025879,4251.282227,4174.102539,4167.820313,4200.512695,4175.641113,4172.179688,4174.102539,4638.461426,4465.384766,4406.922852,4522.179688,3071.000000,4.000000,75.000000,,,,0.000000,4.000000,4.000000,4.000000,4.000000,4.000000,4.000000,4.000000,4.000000,4.000000,4.000000,4.000000,4.000000,4.000000,4.000000,100.000000,,,,,,,,,,,,,,,,,,,,,,,,,,,,
1703407890.299639,1703407890.300198,71.000000,0.000000,4181.410156,4167.307617,4295.000000,4252.820313,4177.051270,4160.641113,4201.025879,4170.897461,4171.410156,4173.974121,4648.205078,4478.846191,4417.307617,4540.641113,5051.000000,4.000000,75.000000,,,,0.000000,4.000000,4.000000,4.000000,4.000000,4.000000,4.000000,4.000000,4.000000,4.000000,4.000000,4.000000,4.000000,4.000000,4.000000,100.000000,,,,,,,,,,,,,,,,,,,,,,,,,,,,
1703407890.307447,1703407890.308106,72.000000,0.000000,4195.512695,4169.358887,4296.794922,4246.153809,4174.487305,4153.333496,4201.025879,4165.384766,4160.769043,4170.000000,4643.589844,4471.153809,4416.922852,4560.384766,4856.000000,4.000000,75.000000,,,,0.000000,4.000000,4.000000,4.000000,4.000000,4.000000,4.000000,4.000000,4.000000,4.000000,4.000000,4.000000,4.000000,4.000000,4.000000,100.000000,,,,,,,,,,,,,,,,,18.000000,0.000000,0.722259,-0.185791,-0.653198,-0.130981,0.990355,-0.109877,0.076181,-14.858747,-41.859016,65.785889
1703407890.315255,1703407890.315915,73.000000,0.000000,4200.897461,4162.820313,4295.128418,4244.615234,4173.333496,4156.538574,4200.769043,4163.846191,4151.282227,4167.051270,4637.436035,4463.461426,4412.436035,4565.769043,5116.000000,4.000000,75.000000,,,,0.000000,4.000000,4.000000,4.000000,4.000000,4.000000,4.000000,4.000000,4.000000,4.000000,4.000000,4.000000,4.000000,4.000000,4.000000,100.000000,,,,,,,,,,,,,,,,,,,,,,,,,,,,
1703407890.323063,1703407890.323823,74.000000,0.000000,4189.743652,4165.769043,4291.538574,4248.589844,4182.820313,4165.897461,4201.153809,4167.179688,4157.051270,4168.589844,4644.102539,4468.974121,4413.846191,4559.230957,5898.000000,4.000000,75.000000,,,,0.000000,4.000000,4.000000,4.000000,4.000000,4.000000,4.000000,4.000000,4.000000,4.000000,4.000000,4.000000,4.000000,4.000000,4.000000,100.000000,,,,,,,,,,,,,,,,,,,,,,,,,,,,
1703407890.330871,1703407890.331631,75.000000,0.000000,4191.282227,4172.820313,4293.333496,4252.948730,4189.871582,4165.000000,4198.846191,4170.000000,4160.000000,4169.230957,4645.769043,4466.922852,4414.615234,4547.692383,6073.000000,4.000000,75.000000,,,,0.000000,4.000000,4.000000,4.000000,4.000000,4.000000,4.000000,4.000000,4.000000,4.000000,4.000000,4.000000,4.000000,4.000000,4.000000,100.000000,,,,,,,,,,,,,,,,,,,,,,,,,,,,
1703407890.338679,1703407890.339439,76.000000,0.000000,4203.077148,4166.538574,4292.820313,4250.769043,4179.615234,4165.897461,4199.487305,4165.769043,4152.436035,4168.077148,4638.205078,4458.589844,4409.102539,4537.179688,6599.000000,4.000000,75.000000,,,,0.000000,4.000000,4.000000,4.000000,4.000000,4.000000,4.000000,4.000000,4.000000,4.000000,4.000000,4.000000,4.000000,4.000000,4.000000,100.000000,,,,,,,,,,,,,,,,,19.000000,0.000000,0.722215,-0.185791,-0.653259,-0.130920,0.990355,-0.093761,0.076181,-14.889539,-41.773113,65.740631
1703407890.346488,1703407890.347147,77.000000,0.000000,4184.743652,4155.769043,4289.615234,4239.743652,4168.333496,4171.922852,4204.871582,4168.205078,4156.282227,4167.051270,4639.102539,4463.077148,4404.102539,4528.077148,7177.000000,4.000000,75.000000,,,,0.000000,4.000000,4.000000,4.000000,4.000000,4.000000,4.000000,4.000000,4.000000,4.000000,4.000000,4.000000,4.000000,4.000000,4.000000,100.000000,,,,,,,,,,,,,,,,,,,,,,,,,,,,
1703407890.354296,1703407890.354955,78.000000,0.000000,4163.974121,4150.128418,4287.051270,4232.436035,4167.692383,4170.641113,4208.461426,4179.230957,4169.871582,4166.538574,4643.717773,4468.461426,4399.102539,4519.743652,5898.000000,4.000000,75.000000,,,,0.000000,4.000000,4.000000,4.000000,4.000000,4.000000,4.000000,4.000000,4.000000,4.000000,4.000000,4.000000,4.000000,4.000000,4.000000,100.000000,,,,,,,,,,,,,,,,,,,,,,,,,,,,
1703407890.362104,1703407890.362663,79.000000,0.000000,4173.077148,4150.769043,4283.333496,4232.948730,4169.615234,4174.230957,4213.077148,4185.128418,4170.897461,4168.974121,4640.641113,4465.384766,4396.538574,4521.538574,6073.000000,4.000000,75.000000,,,,0.000000,4.000000,4.000000,4.000000,4.000000,4.000000,4.000000,4.000000,4.000000,4.000000,4.000000,4.000000,4.000000,4.000000,4.000000,100.000000,,,,,,,,,,,,,,,,,,,,,,,,,,,,
1703407890.369912,1703407890.370471,80.000000,0.000000,4177.948730,4152.436035,4278.077148,4236.410156,4174.230957,4182.051270,4217.563965,4185.641113,4169.358887,4172.563965,4638.589844,4461.794922,4402.179688,4526.794922,6599.000000,4.000000,75.000000,,,,0.000000,4.000000,4.000000,4.000000,4.000000,4.000000,4.000000,4.000000,4.000000,4.000000,4.000000,4.000000,4.000000,4.000000,4.000000,100.000000,,,,,,,,,,,,,,,,,20.000000,0.000000,0.722142,-0.185730,-0.653259,-0.131409,0.977658,-0.095226,0.069833,-14.750586,-41.829136,65.816566
1703407890.377720,1703407890.378179,81.000000,0.000000,4169.358887,4151.794922,4277.179688,4237.179688,4175.897461,4176.410156,4213.846191,4184.743652,4176.666504,4170.512695,4639.743652,4463.974121,4407.179688,4518.333496,7177.000000,4.000000,75.000000,,,,0.000000,4.000000,4.000000,4.000000,4.000000,4.000000,4.000000,4.000000,4.000000,4.000000,4.000000,4.000000,4.000000,4.000000,4.000000,100.000000,,,,,,,,,,,,,,,,,,,,,,,,,,,,
1703407890.385528,1703407890.385987,82.000000,0.000000,4177.179688,4160.384766,4289.615234,4238.717773,4173.974121,4169.358887,4206.282227,4185.769043,4182.948730,4170.512695,4645.128418,4478.077148,4409.615234,4527.307617,5898.000000,4.000000,75.000000,,,,0.000000,4.000000,4.000000,4.000000,4.000000,4.000000,4.000000,4.000000,4.000000,4.000000,4.000000,4.000000,4.000000,4.000000,4.000000,100.000000,,,,,,,,,,,,,,,,,,,,,,,,,,,,
1703407890.393336,1703407890.393695,83.000000,0.000000,4199.871582,4173.205078,4303.205078,4245.769043,4178.333496,4163.589844,4202.563965,4186.025879,4185.641113,4180.641113,4654.230957,4492.948730,4419.871582,4556.922852,6073.000000,4.000000,75.000000,,,,0.000000,4.000000,4.000000,4.000000,4.000000,4.000000,4.000000,4.000000,4.000000,4.000000,4.000000,4.000000,4.000000,4.000000,4.000000,100.000000,,,,,,,,,,,,,,,,,,,,,,,,,,,,
1703407890.401144,1703407890.401604,84.000000,0.000000,4202.692383,4173.717773,4305.897461,4251.794922,4182.692383,4153.846191,4202.820313,4186.410156,4183.205078,4187.692383,4655.641113,4488.974121,4425.384766,4553.461426,6599.000000,4.000000,75.000000,,,,0.000000,4.000000,4.000000,4.000000,4.000000,4.000000,4.000000,4.000000,4.000000,4.000000,4.000000,4.000000,4.000000,4.000000,4.000000,100.000000,,,,,,,,,,,,,,,,,21.000000,0.000000,0.722107,-0.185303,-0.653320,-0.131897,0.979612,-0.100110,0.081065,-14.708860,-41.746223,65.768250
1703407890.408952,1703407890.409412,85.000000,0.000000,4184.615234,4167.179688,4300.256348,4250.384766,4177.179688,4156.794922,4206.794922,4184.743652,4175.128418,4183.461426,4651.410156,4479.615234,4418.846191,4538.205078,7177.000000,4.000000,75.000000,,,,0.000000,4.000000,4.000000,4.000000,4.000000,4.000000,4.000000,4.000000,4.000000,4.000000,4.000000,4.000000,4.000000,4.000000,4.000000,100.000000,,,,,,,,,,,,,,,,,,,,,,,,,,,,
1703407890.416760,1703407890.417320,86.000000,0.000000,4185.384766,4168.717773,4290.769043,4247.563965,4175.512695,4170.512695,4212.051270,4176.666504,4169.615234,4175.769043,4648.205078,4477.179688,4414.230957,4556.538574,5898.000000,4.000000,75.000000,,,,0.000000,4.000000,4.000000,4.000000,4.000000,4.000000,4.000000,4.000000,4.000000,4.000000,4.000000,4.000000,4.000000,4.000000,4.000000,100.000000,,,,,,,,,,,,,,,,,,,,,,,,,,,,
1703407890.424568,1703407890.425128,87.000000,0.000000,4204.358887,4171.538574,4283.589844,4251.025879,4177.436035,4173.077148,4212.692383,4169.230957,4165.128418,4166.666504,4637.820313,4466.410156,4406.922852,4558.205078,6073.000000,4.000000,75.000000,,,,0.000000,4.000000,4.000000,4.000000,4.000000,4.000000,4.000000,4.000000,4.000000,4.000000,4.000000,4.000000,4.000000,4.000000,4.000000,100.000000,1.000000,75.000000,3.000000,4.000000,4.000000,4.000000,4.000000,4.000000,3.000000,4.000000,4.000000,4.000000,4.000000,4.000000,4.000000,3.000000,,,,,,,,,,,,
1703407890.432376,1703407890.433035,88.000000,0.000000,4200.384766,4170.769043,4283.974121,4248.589844,4176.025879,4170.897461,4216.538574,4169.358887,4158.974121,4162.179688,4632.307617,4460.512695,4402.307617,4524.615234,6599.000000,4.000000,75.000000,,,,0.000000,4.000000,4.000000,4.000000,4.000000,4.000000,4.000000,4.000000,4.000000,4.000000,4.000000,4.000000,4.000000,4.000000,4.000000,100.000000,,,,,,,,,,,,,,,,,22.000000,0.000000,0.722109,-0.185120,-0.653320,-0.132141,1.003052,-0.101087,0.078623,-14.721307,-41.754932,65.641418
1703407890.440184,1703407890.440843,89.000000,0.000000,4182.820313,4168.461426,4288.205078,4242.563965,4176.025879,4171.153809,4216.794922,4169.358887,4153.461426,4164.871582,4639.102539,4469.615234,4405.128418,4517.051270,7177.000000,4.000000,75.000000,,,,0.000000,4.000000,4.000000,4.000000,4.000000,4.000000,4.000000,4.000000,4.000000,4.000000,4.000000,4.000000,4.000000,4.000000,4.000000,100.000000,,,,,,,,,,,,,,,,,,,,,,,,,,,,
1703407890.447992,1703407890.448751,90.000000,0.000000,4182.307617,4161.025879,4284.358887,4243.717773,4176.410156,4168.846191,4206.153809,4168.589844,4157.820313,4168.333496,4637.820313,4470.256348,4400.512695,4523.589844,5898.000000,4.000000,75.000000,,,,0.000000,4.000000,4.000000,4.000000,4.000000,4.000000,4.000000,4.000000,4.000000,4.000000,4.000000,4.000000,4.000000,4.000000,4.000000,100.000000,,,,,,,,,,,,,,,,,,,,,,,,,,,,
1703407890.455800,1703407890.456559,91.000000,0.000000,4182.948730,4161.153809,4283.461426,4246.794922,4172.563965,4165.384766,4199.871582,4175.769043,4175.000000,4173.461426,4638.589844,4468.589844,4404.102539,4515.769043,6073.000000,4.000000,75.000000,,,,0.000000,4.000000,4.000000,4.000000,4.000000,4.000000,4.000000,4.000000,4.000000,4.000000,4.000000,4.000000,4.000000,4.000000,4.000000,100.000000,,,,,,,,,,,,,,,,,,,,,,,,,,,,
1703407890.463608,1703407890.464267,92.000000,0.000000,4185.512695,4169.230957,4291.282227,4246.666504,4172.692383,4159.615234,4202.948730,4185.641113,4187.436035,4183.846191,4658.717773,4484.615234,4428.974121,4531.025879,6599.000000,4.000000,75.000000,,,,0.000000,4.000000,4.000000,4.000000,4.000000,4.000000,4.000000,4.000000,4.000000,4.000000,4.000000,4.000000,4.000000,4.000000,4.000000,100.000000,,,,,,,,,,,,,,,,,23.000000,0.000000,0.722144,-0.184937,-0.653259,-0.132507,0.984007,-0.080576,0.082041,-14.732510,-41.812775,65.810616
1703407890.471416,1703407890.472075,93.000000,0.000000,4196.025879,4165.384766,4298.974121,4246.025879,4171.666504,4156.025879,4201.025879,4194.871582,4188.077148,4189.743652,4670.128418,4498.974121,4439.615234,4551.025879,7177.000000,4.000000,75.000000,,,,0.000000,4.000000,4.000000,4.000000,4.000000,4.000000,4.000000,4.000000,4.000000,4.000000,4.000000,4.000000,4.000000,4.000000,4.000000,100.000000,,,,,,,,,,,,,,,,,,,,,,,,,,,,
1703407890.479224,1703407890.479783,94.000000,0.000000,4194.871582,4152.692383,4301.410156,4244.358887,4166.922852,4157.692383,4201.282227,4200.256348,4189.615234,4181.153809,4658.077148,4493.205078,4428.717773,4543.589844,5898.000000,4.000000,75.000000,,,,0.000000,4.000000,4.000000,4.000000,4.000000,4.000000,4.000000,4.000000,4.000000,4.000000,4.000000,4.000000,4.000000,4.000000,4.000000,100.000000,,,,,,,,,,,,,,,,,,,,,,,,,,,,
1703407890.487033,1703407890.487591,95.000000,0.000000,4175.897461,4148.205078,4293.077148,4235.256348,4167.436035,4158.333496,4209.615234,4195.512695,4192.563965,4172.692383,4647.051270,4479.230957,4426.410156,4539.487305,6073.000000,4.000000,75.000000,,,,0.000000,4.000000,4.000000,4.000000,4.000000,4.000000,4.000000,4.000000,4.000000,4.000000,4.000000,4.000000,4.000000,4.000000,4.000000,100.000000,,,,,,,,,,,,,,,,,,,,,,,,,,,,
1703407890.494841,1703407890.495299,96.000000,0.000000,4170.641113,4150.256348,4281.410156,4225.641113,4169.358887,4161.666504,4210.000000,4190.128418,4189.743652,4175.256348,4645.641113,4470.641113,4430.641113,4537.692383,6599.000000,4.000000,75.000000,,,,0.000000,4.000000,4.000000,4.000000,4.000000,4.000000,4.000000,4.000000,4.000000,4.000000,4.000000,4.000000,4.000000,4.000000,4.000000,100.000000,,,,,,,,,,,,,,,,,24.000000,0.000000,0.722113,-0.185059,-0.653259,-0.132507,0.974240,-0.085948,0.079600,-14.659259,-41.898163,65.879555
1703407890.502648,1703407890.503107,97.000000,0.000000,4179.615234,4145.256348,4277.563965,4228.333496,4169.487305,4168.589844,4204.743652,4185.641113,4180.000000,4175.512695,4641.666504,4471.538574,4426.153809,4530.769043,7177.000000,4.000000,75.000000,,,,0.000000,4.000000,4.000000,4.000000,4.000000,4.000000,4.000000,4.000000,4.000000,4.000000,4.000000,4.000000,4.000000,4.000000,4.000000,100.000000,,,,,,,,,,,,,,,,,,,,,,,,,,,,
1703407890.510457,1703407890.510815,98.000000,0.000000,4177.563965,4140.897461,4278.077148,4231.794922,4170.512695,4169.230957,4205.512695,4175.256348,4163.205078,4168.461426,4636.538574,4469.358887,4419.230957,4537.307617,5898.000000,4.000000,75.000000,,,,0.000000,4.000000,4.000000,4.000000,4.000000,4.000000,4.000000,4.000000,4.000000,4.000000,4.000000,4.000000,4.000000,4.000000,4.000000,100.000000,,,,,,,,,,,,,,,,,,,,,,,,,,,,
1703407890.518265,1703407890.518623,99.000000,0.000000,4181.794922,4148.077148,4279.102539,4226.410156,4172.307617,4167.436035,4205.256348,4165.128418,4151.410156,4165.000000,4637.436035,4461.538574,4421.922852,4545.384766,6073.000000,4.000000,75.000000,,,,0.000000,4.000000,4.000000,4.000000,4.000000,4.000000,4.000000,4.000000,4.000000,4.000000,4.000000,4.000000,4.000000,4.000000,4.000000,100.000000,,,,,,,,,,,,,,,,,,,,,,,,,,,,
1703407890.526073,1703407890.526331,100.000000,0.000000,4195.000000,4155.769043,4285.769043,4229.487305,4172.179688,4167.563965,4201.025879,4162.436035,4148.205078,4163.589844,4641.538574,4459.102539,4426.922852,4538.589844,6599.000000,4.000000,75.000000,,,,0.000000,4.000000,4.000000,4.000000,4.000000,4.000000,4.000000,4.000000,4.000000,4.000000,4.000000,4.000000,4.000000,4.000000,4.000000,100.000000,,,,,,,,,,,,,,,,,25.000000,0.000000,0.722266,-0.184937,-0.653137,-0.132446,0.992309,-0.089855,0.088390,-14.676666,-41.975014,65.791595
1703407890.533881,1703407890.534139,101.000000,0.000000,4188.205078,4155.512695,4291.538574,4242.179688,4171.666504,4166.666504,4201.282227,4162.563965,4145.641113,4162.563965,4644.358887,4461.794922,4423.974121,4534.615234,7177.000000,4.000000,75.000000,,,,0.000000,4.000000,4.000000,4.000000,4.000000,4.000000,4.000000,4.000000,4.000000,4.000000,4.000000,4.000000,4.000000,4.000000,4.000000,100.000000,,,,,,,,,,,,,,,,,,,,,,,,,,,,
1703407890.541689,1703407890.541848,102.000000,0.000000,4176.666504,4160.000000,4289.102539,4247.307617,4177.948730,4169.358887,4205.128418,4166.410156,4151.666504,4171.794922,4655.256348,4470.256348,4430.641113,4540.256348,5898.000000,4.000000,75.000000,,,,0.000000,4.000000,4.000000,4.000000,4.000000,4.000000,4.000000,4.000000,4.000000,4.000000,4.000000,4.000000,4.000000,4.000000,4.000000,100.000000,,,,,,,,,,,,,,,,,,,,,,,,,,,,
1703407890.549497,1703407890.549756,103.000000,0.000000,4185.897461,4169.615234,4292.436035,4247.563965,4185.512695,4166.794922,4199.871582,4175.384766,4168.333496,4186.538574,4672.820313,4484.230957,4446.153809,4539.487305,6073.000000,4.000000,75.000000,,,,0.000000,4.000000,4.000000,4.000000,4.000000,4.000000,4.000000,4.000000,4.000000,4.000000,4.000000,4.000000,4.000000,4.000000,4.000000,100.000000,,,,,,,,,,,,,,,,,,,,,,,,,,,,
1703407890.557305,1703407890.557564,104.000000,0.000000,4194.102539,4169.102539,4297.563965,4248.717773,4187.179688,4155.641113,4192.692383,4181.538574,4180.128418,4197.948730,4678.589844,4492.948730,4451.666504,4540.384766,6599.000000,4.000000,75.000000,,,,0.000000,4.000000,4.000000,4.000000,4.000000,4.000000,4.000000,4.000000,4.000000,4.000000,4.000000,4.000000,4.000000,4.000000,4.000000,100.000000,,,,,,,,,,,,,,,,,26.000000,0.000000,0.722332,-0.184937,-0.653076,-0.132385,0.990844,-0.104505,0.084971,-14.658999,-41.860844,65.812439
1703407890.565113,1703407890.565372,105.000000,0.000000,4191.282227,4167.051270,4293.333496,4250.897461,4180.769043,4158.077148,4194.871582,4182.563965,4182.820313,4198.205078,4671.153809,4488.974121,4446.922852,4538.846191,7177.000000,4.000000,75.000000,,,,0.000000,4.000000,4.000000,4.000000,4.000000,4.000000,4.000000,4.000000,4.000000,4.000000,4.000000,4.000000,4.000000,4.000000,4.000000,100.000000,,,,,,,,,,,,,,,,,,,,,,,,,,,,
1703407890.572921,1703407890.573080,106.000000,0.000000,4190.641113,4170.128418,4292.179688,4248.077148,4174.743652,4165.897461,4201.153809,4184.487305,4184.743652,4190.256348,4664.615234,4482.436035,4440.384766,4530.897461,5898.000000,4.000000,75.000000,,,,0.000000,4.000000,4.000000,4.000000,4.000000,4.000000,4.000000,4.000000,4.000000,4.000000,4.000000,4.000000,4.000000,4.000000,4.000000,100.000000,,,,,,,,,,,,,,,,,,,,,,,,,,,,
1703407890.580729,1703407890.580988,107.000000,0.000000,4189.102539,4164.615234,4295.641113,4236.025879,4171.794922,4162.051270,4201.025879,4187.436035,4187.948730,4183.077148,4656.794922,4482.179688,4433.717773,4521.794922,6073.000000,4.000000,75.000000,,,,0.000000,4.000000,4.000000,4.000000,4.000000,4.000000,4.000000,4.000000,4.000000,4.000000,4.000000,4.000000,4.000000,4.000000,4.000000,100.000000,,,,,,,,,,,,,,,,,,,,,,,,,,,,
1703407890.588537,1703407890.588796,108.000000,0.000000,4186.282227,4154.743652,4292.307617,4229.102539,4171.282227,4162.692383,4201.922852,4188.333496,4190.384766,4177.179688,4647.948730,4480.512695,4427.307617,4512.307617,6599.000000,4.000000,75.000000,,,,0.000000,4.000000,4.000000,4.000000,4.000000,4.000000,4.000000,4.000000,4.000000,4.000000,4.000000,4.000000,4.000000,4.000000,4.000000,100.000000,,,,,,,,,,,,,,,,,27.000000,0.000000,0.722328,-0.184998,-0.653076,-0.132324,0.989379,-0.083995,0.075204,-14.743100,-41.924759,65.864525
1703407890.596345,1703407890.596705,109.000000,0.000000,4174.615234,4154.102539,4289.358887,4234.230957,4170.000000,4167.436035,4204.358887,4192.948730,4191.025879,4173.717773,4650.897461,4473.077148,4425.128418,4512.307617,7177.000000,4.000000,75.000000,,,,0.000000,4.000000,4.000000,4.000000,4.000000,4.000000,4.000000,4.000000,4.000000,4.000000,4.000000,4.000000,4.000000,4.000000,4.000000,100.000000,,,,,,,,,,,,,,,,,,,,,,,,,,,,
1703407890.604153,1703407890.604513,110.000000,0.000000,4161.794922,4155.000000,4292.563965,4230.000000,4163.589844,4161.538574,4202.307617,4196.922852,4184.358887,4171.922852,4657.948730,4472.563965,4428.589844,4520.384766,5898.000000,4.000000,75.000000,,,,0.000000,4.000000,4.000000,4.000000,4.000000,4.000000,4.000000,4.000000,4.000000,4.000000,4.000000,4.000000,4.000000,4.000000,4.000000,100.000000,,,,,,,,,,,,,,,,,,,,,,,,,,,,
1703407890.611961,1703407890.612421,111.000000,0.000000,4176.025879,4154.487305,4294.230957,4227.179688,4164.743652,4158.205078,4201.153809,4187.179688,4166.025879,4164.487305,4651.922852,4472.051270,4426.794922,4528.717773,6073.000000,4.000000,75.000000,,,,0.000000,4.000000,4.000000,4.000000,4.000000,4.000000,4.000000,4.000000,4.000000,4.000000,4.000000,4.000000,4.000000,4.000000,4.000000,100.000000,,,,,,,,,,,,,,,,,,,,,,,,,,,,
1703407890.619769,1703407890.620229,112.000000,0.000000,4191.410156,4158.589844,4294.743652,4240.512695,4170.256348,4160.897461,4202.563965,4173.846191,4151.282227,4154.102539,4640.897461,4463.205078,4414.230957,4518.205078,6599.000000,4.000000,75.000000,,,,0.000000,4.000000,4.000000,4.000000,4.000000,4.000000,4.000000,4.000000,4.000000,4.000000,4.000000,4.000000,4.000000,4.000000,4.000000,100.000000,,,,,,,,,,,,,,,,,28.000000,0.000000,0.722268,-0.185059,-0.653137,-0.132263,0.991820,-0.088390,0.081065,-14.685456,-41.982285,65.794739
1703407890.627577,1703407890.628136,113.000000,0.000000,4174.743652,4161.153809,4293.461426,4240.128418,4170.512695,4155.897461,4196.794922,4166.282227,4151.153809,4154.102539,4637.820313,4461.153809,4408.461426,4494.487305,7177.000000,4.000000,75.000000,,,,0.000000,4.000000,4.000000,4.000000,4.000000,4.000000,4.000000,4.000000,4.000000,4.000000,4.000000,4.000000,4.000000,4.000000,4.000000,100.000000,,,,,,,,,,,,,,,,,,,,,,,,,,,,
1703407890.635385,1703407890.635944,114.000000,0.000000,4163.974121,4160.256348,4289.230957,4233.333496,4175.000000,4152.051270,4187.563965,4160.641113,4153.589844,4161.025879,4639.102539,4462.179688,4416.282227,4492.436035,5898.000000,4.000000,75.000000,,,,0.000000,4.000000,4.000000,4.000000,4.000000,4.000000,4.000000,4.000000,4.000000,4.000000,4.000000,4.000000,4.000000,4.000000,4.000000,100.000000,,,,,,,,,,,,,,,,,,,,,,,,,,,,
1703407890.643194,1703407890.643752,115.000000,0.000000,4181.666504,4163.333496,4288.846191,4246.025879,4179.871582,4154.102539,4190.384766,4162.948730,4160.000000,4171.666504,4643.974121,4458.205078,4421.410156,4503.974121,6073.000000,4.000000,75.000000,,,,0.000000,4.000000,4.000000,4.000000,4.000000,4.000000,4.000000,4.000000,4.000000,4.000000,4.000000,4.000000,4.000000,4.000000,4.000000,100.000000,,,,,,,,,,,,,,,,,,,,,,,,,,,,
1703407890.651002,1703407890.651560,116.000000,0.000000,4187.436035,4167.051270,4291.153809,4251.538574,4179.358887,4155.384766,4200.512695,4175.384766,4172.051270,4184.615234,4654.102539,4465.897461,4425.641113,4506.666504,6599.000000,4.000000,75.000000,,,,0.000000,4.000000,4.000000,4.000000,4.000000,4.000000,4.000000,4.000000,4.000000,4.000000,4.000000,4.000000,4.000000,4.000000,4.000000,100.000000,,,,,,,,,,,,,,,,,29.000000,0.000000,0.722229,-0.184998,-0.653198,-0.132263,0.981565,-0.092296,0.078135,-14.650244,-41.850723,65.748596
1703407890.658810,1703407890.659268,117.000000,0.000000,4171.025879,4167.436035,4293.589844,4240.384766,4177.307617,4157.307617,4202.692383,4191.282227,4186.025879,4191.410156,4663.333496,4482.307617,4432.051270,4509.871582,7177.000000,4.000000,75.000000,,,,0.000000,4.000000,4.000000,4.000000,4.000000,4.000000,4.000000,4.000000,4.000000,4.000000,4.000000,4.000000,4.000000,4.000000,4.000000,100.000000,,,,,,,,,,,,,,,,,,,,,,,,,,,,
1703407890.666618,1703407890.667076,118.000000,0.000000,4173.974121,4169.358887,4294.743652,4243.333496,4177.307617,4157.948730,4201.794922,4200.769043,4197.692383,4192.051270,4661.794922,4482.179688,4432.948730,4516.282227,5898.000000,4.000000,75.000000,,,,0.000000,4.000000,4.000000,4.000000,4.000000,4.000000,4.000000,4.000000,4.000000,4.000000,4.000000,4.000000,4.000000,4.000000,4.000000,100.000000,,,,,,,,,,,,,,,,,,,,,,,,,,,,
1703407890.674426,1703407890.674784,119.000000,0.000000,4190.641113,4172.307617,4281.922852,4249.743652,4177.820313,4156.922852,4203.461426,4194.102539,4196.794922,4188.846191,4650.769043,4468.589844,4428.717773,4511.410156,6073.000000,4.000000,75.000000,,,,0.000000,4.000000,4.000000,4.000000,4.000000,4.000000,4.000000,4.000000,4.000000,4.000000,4.000000,4.000000,4.000000,4.000000,4.000000,100.000000,,,,,,,,,,,,,,,,,,,,,,,,,,,,
1703407890.682234,1703407890.682592,120.000000,0.000000,4176.153809,4165.128418,4266.538574,4230.897461,4178.717773,4156.922852,4202.820313,4186.153809,4188.974121,4178.589844,4641.538574,4459.230957,4421.282227,4503.717773,6599.000000,4.000000,75.000000,,,,0.000000,4.000000,4.000000,4.000000,4.000000,4.000000,4.000000,4.000000,4.000000,4.000000,4.000000,4.000000,4.000000,4.000000,4.000000,100.000000,,,,,,,,,,,,,,,,,30.000000,0.000000,0.722198,-0.184814,-0.653259,-0.132385,0.987914,-0.092785,0.078623,-14.701886,-41.848984,65.673737
1703407890.690042,1703407890.690301,121.000000,0.000000,4161.410156,4156.025879,4265.769043,4219.102539,4172.692383,4159.743652,4201.538574,4187.051270,4185.384766,4168.589844,4637.563965,4456.025879,4414.230957,4496.666504,7177.000000,4.000000,75.000000,,,,0.000000,4.000000,4.000000,4.000000,4.000000,4.000000,4.000000,4.000000,4.000000,4.000000,4.000000,4.000000,4.000000,4.000000,4.000000,100.000000,,,,,,,,,,,,,,,,,,,,,,,,,,,,
1703407890.697850,1703407890.698108,122.000000,0.000000,4181.282227,4160.256348,4269.615234,4230.256348,4166.025879,4166.666504,4203.589844,4185.000000,4177.820313,4166.794922,4629.743652,4456.282227,4409.871582,4490.000000,5898.000000,4.000000,75.000000,,,,0.000000,4.000000,4.000000,4.000000,4.000000,4.000000,4.000000,4.000000,4.000000,4.000000,4.000000,4.000000,4.000000,4.000000,4.000000,100.000000,,,,,,,,,,,,,,,,,,,,,,,,,,,,
1703407890.705658,1703407890.705817,123.000000,0.000000,4192.563965,4169.743652,4274.358887,4233.333496,4171.538574,4168.589844,4203.205078,4179.615234,4160.769043,4162.692383,4623.974121,4453.717773,4409.230957,4504.615234,6073.000000,4.000000,75.000000,,,,0.000000,4.000000,4.000000,4.000000,4.000000,4.000000,4.000000,4.000000,4.000000,4.000000,4.000000,4.000000,4.000000,4.000000,4.000000,100.000000,,,,,,,,,,,,,,,,,,,,,,,,,,,,
1703407890.713466,1703407890.713625,124.000000,0.000000,4192.820313,4173.846191,4286.922852,4232.692383,4174.358887,4161.153809,4201.666504,4176.025879,4152.563965,4156.025879,4631.282227,4457.051270,4414.615234,4531.538574,6599.000000,4.000000,75.000000,,,,0.000000,4.000000,4.000000,4.000000,4.000000,4.000000,4.000000,4.000000,4.000000,4.000000,4.000000,4.000000,4.000000,4.000000,4.000000,100.000000,,,,,,,,,,,,,,,,,31.000000,0.000000,0.722090,-0.184631,-0.653442,-0.132324,0.989379,-0.091808,0.071786,-14.631698,-42.064087,65.806366
1703407890.721274,1703407890.721333,125.000000,0.000000,4214.102539,4181.538574,4296.153809,4244.358887,4172.307617,4152.179688,4202.307617,4173.205078,4152.307617,4161.410156,4645.897461,4473.974121,4425.000000,4541.153809,7177.000000,4.000000,75.000000,,,,0.000000,4.000000,4.000000,4.000000,4.000000,4.000000,4.000000,4.000000,4.000000,4.000000,4.000000,4.000000,4.000000,4.000000,4.000000,100.000000,,,,,,,,,,,,,,,,,,,,,,,,,,,,
1703407890.729082,1703407890.729241,126.000000,0.000000,4220.384766,4189.871582,4296.922852,4251.794922,4172.179688,4142.307617,4193.589844,4168.974121,4150.512695,4171.794922,4650.256348,4481.025879,4431.794922,4531.922852,5898.000000,4.000000,75.000000,,,,0.000000,4.000000,4.000000,4.000000,4.000000,4.000000,4.000000,4.000000,4.000000,4.000000,4.000000,4.000000,4.000000,4.000000,4.000000,100.000000,,,,,,,,,,,,,,,,,,,,,,,,,,,,
1703407890.736890,1703407890.737049,127.000000,0.000000,4202.820313,4183.461426,4297.436035,4250.256348,4169.487305,4137.563965,4185.000000,4169.358887,4157.820313,4169.487305,4647.692383,4475.512695,4431.666504,4521.410156,75.000000,4.000000,75.000000,,,,0.000000,4.000000,4.000000,4.000000,4.000000,4.000000,4.000000,4.000000,4.000000,4.000000,4.000000,4.000000,4.000000,4.000000,4.000000,100.000000,,,,,,,,,,,,,,,,,,,,,,,,,,,,
1703407890.744698,1703407890.744957,0.000000,0.000000,4197.692383,4171.794922,4293.846191,4245.384766,4169.102539,4147.692383,4193.717773,4177.179688,4167.692383,4166.538574,4649.230957,4477.051270,4426.282227,4516.410156,4973.000000,4.000000,75.000000,,,,0.000000,4.000000,4.000000,4.000000,4.000000,4.000000,4.000000,4.000000,4.000000,4.000000,4.000000,4.000000,4.000000,4.000000,4.000000,100.000000,,,,,,,,,,,,,,,,,0.000000,0.000000,0.721947,-0.184631,-0.653625,-0.132202,0.976193,-0.094250,0.079111,-14.651861,-42.124344,65.842400
1703407890.752506,1703407890.752765,1.000000,0.000000,4192.436035,4167.307617,4284.615234,4234.743652,4170.256348,4154.871582,4197.179688,4180.641113,4169.487305,4168.974121,4646.153809,4475.769043,4417.179688,4510.384766,5419.000000,4.000000,75.000000,,,,0.000000,4.000000,4.000000,4.000000,4.000000,4.000000,4.000000,4.000000,4.000000,4.000000,4.000000,4.000000,4.000000,4.000000,4.000000,100.000000,,,,,,,,,,,,,,,,,,,,,,,,,,,,
1703407890.760314,1703407890.760673,2.000000,0.000000,4182.820313,4167.436035,4283.589844,4232.948730,4167.820313,4149.871582,4186.794922,4177.563965,4173.205078,4166.794922,4641.282227,4469.871582,4413.205078,4504.743652,5213.000000,4.000000,75.000000,,,,0.000000,4.000000,4.000000,4.000000,4.000000,4.000000,4.000000,4.000000,4.000000,4.000000,4.000000,4.000000,4.000000,4.000000,4.000000,100.000000,,,,,,,,,,,,,,,,,,,,,,,,,,,,
1703407890.768122,1703407890.768482,3.000000,0.000000,4193.589844,4170.641113,4289.487305,4243.717773,4165.512695,4150.000000,4185.769043,4181.282227,4185.641113,4169.487305,4643.461426,4470.769043,4417.051270,4503.974121,5280.000000,4.000000,75.000000,,,,0.000000,4.000000,4.000000,4.000000,4.000000,4.000000,4.000000,4.000000,4.000000,4.000000,4.000000,4.000000,4.000000,4.000000,4.000000,100.000000,,,,,,,,,,,,,,,,,,,,,,,,,,,,
1703407890.775930,1703407890.776390,4.000000,0.000000,4202.692383,4172.820313,4291.794922,4248.846191,4173.333496,4157.563965,4195.512695,4186.922852,4191.153809,4179.230957,4644.358887,4469.230957,4422.692383,4507.563965,5108.000000,4.000000,75.000000,,,,0.000000,4.000000,4.000000,4.000000,4.000000,4.000000,4.000000,4.000000,4.000000,4.000000,4.000000,4.000000,4.000000,4.000000,4.000000,100.000000,,,,,,,,,,,,,,,,,1.000000,0.000000,0.721963,-0.184570,-0.653625,-0.132202,0.987914,-0.089855,0.077646,-14.703341,-42.145241,65.791489
1703407890.783738,1703407890.784198,5.000000,0.000000,4197.051270,4171.794922,4285.000000,4240.769043,4183.974121,4164.358887,4200.128418,4184.487305,4186.666504,4177.179688,4638.461426,4462.692383,4423.717773,4517.051270,4547.000000,4.000000,75.000000,,,,0.000000,4.000000,4.000000,4.000000,4.000000,4.000000,4.000000,4.000000,4.000000,4.000000,4.000000,4.000000,4.000000,4.000000,4.000000,100.000000,,,,,,,,,,,,,,,,,,,,,,,,,,,,
1703407890.791546,1703407890.792106,6.000000,0.000000,4203.333496,4174.102539,4279.871582,4232.179688,4184.102539,4168.717773,4202.051270,4183.717773,4186.794922,4168.846191,4635.641113,4463.333496,4420.384766,4517.948730,3071.000000,4.000000,75.000000,,,,0.000000,4.000000,4.000000,4.000000,4.000000,4.000000,4.000000,4.000000,4.000000,4.000000,4.000000,4.000000,4.000000,4.000000,4.000000,100.000000,,,,,,,,,,,,,,,,,,,,,,,,,,,,
1703407890.799354,1703407890.799914,7.000000,0.000000,4216.153809,4182.436035,4282.692383,4237.820313,4182.051270,4169.615234,4203.333496,4185.641113,4183.846191,4174.102539,4637.307617,4466.794922,4421.282227,4503.461426,5051.000000,4.000000,75.000000,,,,0.000000,4.000000,4.000000,4.000000,4.000000,4.000000,4.000000,4.000000,4.000000,4.000000,4.000000,4.000000,4.000000,4.000000,4.000000,100.000000,,,,,,,,,,,,,,,,,,,,,,,,,,,,
1703407890.807163,1703407890.807822,8.000000,0.000000,4216.153809,4186.666504,4290.000000,4250.769043,4187.179688,4167.436035,4200.512695,4183.589844,4172.179688,4177.820313,4642.179688,4473.589844,4429.358887,4515.897461,4856.000000,4.000000,75.000000,,,,0.000000,4.000000,4.000000,4.000000,4.000000,4.000000,4.000000,4.000000,4.000000,4.000000,4.000000,4.000000,4.000000,4.000000,4.000000,100.000000,,,,,,,,,,,,,,,,,2.000000,0.000000,0.721919,-0.184570,-0.653687,-0.132141,0.982542,-0.085948,0.073251,-14.683007,-42.130718,65.645676
1703407890.814971,1703407890.815630,9.000000,0.000000,4211.410156,4185.000000,4297.051270,4251.410156,4188.974121,4162.179688,4198.077148,4185.256348,4167.436035,4169.615234,4652.307617,4482.948730,4432.436035,4554.871582,5116.000000,4.000000,75.000000,,,,0.000000,4.000000,4.000000,4.000000,4.000000,4.000000,4.000000,4.000000,4.000000,4.000000,4.000000,4.000000,4.000000,4.000000,4.000000,100.000000,,,,,,,,,,,,,,,,,,,,,,,,,,,,
1703407890.822779,1703407890.823537,10.000000,0.000000,4218.077148,4185.000000,4296.794922,4246.794922,4179.743652,4153.077148,4197.820313,4184.230957,4165.897461,4167.948730,4655.256348,4479.871582,4427.692383,4558.589844,5898.000000,4.000000,75.000000,,,,0.000000,4.000000,4.000000,4.000000,4.000000,4.000000,4.000000,4.000000,4.000000,4.000000,4.000000,4.000000,4.000000,4.000000,4.000000,100.000000,,,,,,,,,,,,,,,,,,,,,,,,,,,,
1703407890.830587,1703407890.831345,11.000000,0.000000,4224.743652,4190.769043,4293.974121,4252.436035,4176.538574,4147.820313,4192.948730,4172.563965,4158.333496,4171.538574,4647.051270,4473.974121,4425.769043,4520.897461,6072.000000,4.000000,75.000000,,,,0.000000,4.000000,4.000000,4.000000,4.000000,4.000000,4.000000,4.000000,4.000000,4.000000,4.000000,4.000000,4.000000,4.000000,4.000000,100.000000,,,,,,,,,,,,,,,,,,,,,,,,,,,,
1703407890.838395,1703407890.839053,12.000000,0.000000,4220.897461,4196.282227,4296.538574,4260.000000,4182.179688,4148.974121,4187.948730,4165.384766,4156.922852,4169.102539,4646.666504,4478.589844,4427.820313,4506.666504,6599.000000,4.000000,75.000000,,,,0.000000,4.000000,4.000000,4.000000,4.000000,4.000000,4.000000,4.000000,4.000000,4.000000,4.000000,4.000000,4.000000,4.000000,4.000000,100.000000,,,,,,,,,,,,,,,,,3.000000,0.000000,0.721863,-0.184570,-0.653748,-0.132141,0.985960,-0.104993,0.083018,-14.731374,-42.184315,65.581108
1703407890.846203,1703407890.846861,13.000000,0.000000,4217.436035,4194.102539,4300.897461,4259.358887,4183.077148,4152.436035,4191.538574,4175.769043,4168.077148,4171.794922,4657.563965,4482.051270,4428.461426,4521.922852,7172.000000,4.000000,75.000000,,,,0.000000,4.000000,4.000000,4.000000,4.000000,4.000000,4.000000,4.000000,4.000000,4.000000,4.000000,4.000000,4.000000,4.000000,4.000000,100.000000,,,,,,,,,,,,,,,,,,,,,,,,,,,,
1703407890.854011,1703407890.854569,14.000000,0.000000,4210.897461,4187.179688,4300.512695,4249.487305,4180.769043,4155.384766,4193.205078,4185.641113,4179.102539,4179.487305,4656.794922,4478.461426,4421.153809,4508.717773,5898.000000,4.000000,75.000000,,,,0.000000,4.000000,4.000000,4.000000,4.000000,4.000000,4.000000,4.000000,4.000000,4.000000,4.000000,4.000000,4.000000,4.000000,4.000000,100.000000,,,,,,,,,,,,,,,,,,,,,,,,,,,,
1703407890.861819,1703407890.862478,15.000000,0.000000,4198.589844,4183.717773,4294.487305,4242.820313,4178.333496,4156.666504,4190.128418,4183.333496,4181.025879,4174.487305,4640.000000,4471.282227,4408.717773,4481.282227,6072.000000,4.000000,75.000000,,,,0.000000,4.000000,4.000000,4.000000,4.000000,4.000000,4.000000,4.000000,4.000000,4.000000,4.000000,4.000000,4.000000,4.000000,4.000000,100.000000,,,,,,,,,,,,,,,,,,,,,,,,,,,,
1703407890.869627,1703407890.870286,16.000000,0.000000,4198.846191,4185.769043,4292.307617,4246.410156,4178.333496,4160.512695,4195.384766,4188.846191,4186.410156,4171.153809,4636.282227,4471.153809,4406.282227,4492.179688,0.000000,4.000000,75.000000,,,,0.000000,4.000000,4.000000,4.000000,4.000000,4.000000,4.000000,4.000000,4.000000,4.000000,4.000000,4.000000,4.000000,4.000000,4.000000,100.000000,,,,,,,,,,,,,,,,,4.000000,0.000000,0.721903,-0.184631,-0.653687,-0.132141,0.981077,-0.086436,0.071298,-14.774903,-42.149216,65.723000
1703407890.877435,1703407890.878194,17.000000,0.000000,4205.512695,4184.102539,4296.025879,4250.641113,4177.051270,4166.025879,4203.333496,4204.358887,4194.487305,4182.051270,4649.230957,4481.025879,4413.077148,4516.922852,0.000000,4.000000,75.000000,,,,0.000000,4.000000,4.000000,4.000000,4.000000,4.000000,4.000000,4.000000,4.000000,4.000000,4.000000,4.000000,4.000000,4.000000,4.000000,100.000000,,,,,,,,,,,,,,,,,,,,,,,,,,,,
1703407890.885243,1703407890.886002,18.000000,0.000000,4197.948730,4176.153809,4298.077148,4245.384766,4173.461426,4168.205078,4203.077148,4207.692383,4191.538574,4181.922852,4648.461426,4480.128418,4412.948730,4507.051270,0.000000,4.000000,75.000000,,,,0.000000,4.000000,4.000000,4.000000,4.000000,4.000000,4.000000,4.000000,4.000000,4.000000,4.000000,4.000000,4.000000,4.000000,4.000000,100.000000,,,,,,,,,,,,,,,,,,,,,,,,,,,,
1703407890.893051,1703407890.893810,19.000000,0.000000,4191.282227,4174.871582,4289.871582,4234.487305,4172.563965,4164.871582,4202.948730,4197.820313,4181.538574,4171.153809,4635.769043,4471.282227,4406.410156,4486.666504,0.000000,4.000000,75.000000,,,,0.000000,4.000000,4.000000,4.000000,4.000000,4.000000,4.000000,4.000000,4.000000,4.000000,4.000000,4.000000,4.000000,4.000000,4.000000,100.000000,,,,,,,,,,,,,,,,,,,,,,,,,,,,
1703407890.900859,1703407890.901518,20.000000,0.000000,4194.487305,4181.025879,4283.461426,4237.563965,4175.384766,4158.846191,4203.461426,4191.025879,4181.025879,4174.102539,4640.128418,4478.077148,4407.563965,4494.487305,0.000000,4.000000,75.000000,,,,0.000000,4.000000,4.000000,4.000000,4.000000,4.000000,4.000000,4.000000,4.000000,4.000000,4.000000,4.000000,4.000000,4.000000,4.000000,100.000000,,,,,,,,,,,,,,,,,5.000000,0.000000,0.721819,-0.184570,-0.653809,-0.132080,0.990355,-0.098645,0.070809,-14.814079,-42.167625,65.600693
1703407890.908667,1703407890.909326,21.000000,0.000000,4205.128418,4185.641113,4286.153809,4253.333496,4183.333496,4156.282227,4196.153809,4189.487305,4186.794922,4180.000000,4649.102539,4484.871582,4414.487305,4510.384766,0.000000,4.000000,75.000000,,,,0.000000,4.000000,4.000000,4.000000,4.000000,4.000000,4.000000,4.000000,4.000000,4.000000,4.000000,4.000000,4.000000,4.000000,4.000000,100.000000,,,,,,,,,,,,,,,,,,,,,,,,,,,,
1703407890.916475,1703407890.917034,22.000000,0.000000,4224.743652,4192.948730,4288.589844,4253.589844,4193.846191,4157.179688,4189.487305,4187.179688,4185.128418,4177.436035,4647.948730,4480.897461,4418.846191,4511.025879,0.000000,4.000000,75.000000,,,,0.000000,4.000000,4.000000,4.000000,4.000000,4.000000,4.000000,4.000000,4.000000,4.000000,4.000000,4.000000,4.000000,4.000000,4.000000,100.000000,,,,,,,,,,,,,,,,,,,,,,,,,,,,
1703407890.924283,1703407890.924943,23.000000,0.000000,4226.153809,4201.025879,4290.384766,4242.692383,4196.794922,4153.846191,4187.436035,4184.615234,4180.897461,4180.256348,4650.512695,4484.230957,4420.897461,4506.794922,0.000000,4.000000,75.000000,,,,0.000000,4.000000,4.000000,4.000000,4.000000,4.000000,4.000000,4.000000,4.000000,4.000000,4.000000,4.000000,4.000000,4.000000,4.000000,100.000000,1.000000,100.000000,4.000000,4.000000,4.000000,4.000000,4.000000,4.000000,4.000000,4.000000,4.000000,4.000000,4.000000,4.000000,4.000000,4.000000,,,,,,,,,,,,
1703407890.932091,1703407890.932751,24.000000,0.000000,4206.282227,4195.769043,4296.666504,4252.820313,4186.282227,4150.128418,4185.897461,4183.589844,4179.487305,4187.436035,4656.025879,4488.846191,4424.615234,4508.333496,0.000000,4.000000,75.000000,,,,0.000000,4.000000,4.000000,4.000000,4.000000,4.000000,4.000000,4.000000,4.000000,4.000000,4.000000,4.000000,4.000000,4.000000,4.000000,100.000000,,,,,,,,,,,,,,,,,6.000000,0.000000,0.721806,-0.184448,-0.653870,-0.132019,0.980588,-0.091320,0.076181,-14.749338,-42.117531,65.557297
1703407890.939900,1703407890.940559,25.000000,0.000000,4198.589844,4187.436035,4296.538574,4264.743652,4178.589844,4152.563965,4186.538574,4183.205078,4176.538574,4184.615234,4652.436035,4481.538574,4423.333496,4509.743652,0.000000,4.000000,75.000000,,,,0.000000,4.000000,4.000000,4.000000,4.000000,4.000000,4.000000,4.000000,4.000000,4.000000,4.000000,4.000000,4.000000,4.000000,4.000000,100.000000,,,,,,,,,,,,,,,,,,,,,,,,,,,,
1703407890.947708,1703407890.948267,26.000000,0.000000,4204.615234,4184.871582,4285.128418,4256.538574,4182.307617,4155.897461,4189.102539,4181.538574,4172.692383,4177.820313,4645.000000,4473.333496,4412.051270,4502.563965,0.000000,4.000000,75.000000,,,,0.000000,4.000000,4.000000,4.000000,4.000000,4.000000,4.000000,4.000000,4.000000,4.000000,4.000000,4.000000,4.000000,4.000000,4.000000,100.000000,,,,,,,,,,,,,,,,,,,,,,,,,,,,
1703407890.955516,1703407890.956175,27.000000,0.000000,4197.307617,4175.000000,4274.871582,4244.871582,4183.077148,4160.128418,4189.871582,4181.153809,4170.641113,4172.051270,4634.230957,4466.538574,4396.538574,4485.641113,0.000000,4.000000,75.000000,,,,0.000000,4.000000,4.000000,4.000000,4.000000,4.000000,4.000000,4.000000,4.000000,4.000000,4.000000,4.000000,4.000000,4.000000,4.000000,100.000000,,,,,,,,,,,,,,,,,,,,,,,,,,,,
1703407890.963324,1703407890.963983,28.000000,0.000000,4184.358887,4167.051270,4271.666504,4235.769043,4178.974121,4167.436035,4190.384766,4182.051270,4173.333496,4164.230957,4622.307617,4456.025879,4383.717773,4468.077148,0.000000,4.000000,75.000000,,,,0.000000,4.000000,4.000000,4.000000,4.000000,4.000000,4.000000,4.000000,4.000000,4.000000,4.000000,4.000000,4.000000,4.000000,4.000000,100.000000,,,,,,,,,,,,,,,,,7.000000,0.000000,0.721983,-0.184448,-0.653687,-0.131958,0.986937,-0.113295,0.068856,-14.691071,-42.155777,65.634895
1703407890.971132,1703407890.971891,29.000000,0.000000,4181.538574,4170.512695,4268.461426,4232.692383,4179.230957,4168.461426,4188.717773,4181.922852,4179.358887,4162.051270,4624.102539,4456.153809,4383.846191,4469.487305,0.000000,4.000000,75.000000,,,,0.000000,4.000000,4.000000,4.000000,4.000000,4.000000,4.000000,4.000000,4.000000,4.000000,4.000000,4.000000,4.000000,4.000000,4.000000,100.000000,,,,,,,,,,,,,,,,,,,,,,,,,,,,
1703407890.978940,1703407890.979699,30.000000,0.000000,4191.025879,4171.538574,4271.025879,4242.436035,4183.333496,4160.384766,4189.487305,4182.436035,4182.820313,4167.307617,4633.461426,4466.410156,4395.256348,4484.743652,0.000000,4.000000,75.000000,,,,0.000000,4.000000,4.000000,4.000000,4.000000,4.000000,4.000000,4.000000,4.000000,4.000000,4.000000,4.000000,4.000000,4.000000,4.000000,100.000000,,,,,,,,,,,,,,,,,,,,,,,,,,,,
1703407890.986748,1703407890.987607,31.000000,0.000000,4211.025879,4169.487305,4286.282227,4251.153809,4184.102539,4156.922852,4192.436035,4186.153809,4183.846191,4172.948730,4637.307617,4477.563965,4402.051270,4498.589844,0.000000,4.000000,75.000000,,,,0.000000,4.000000,4.000000,4.000000,4.000000,4.000000,4.000000,4.000000,4.000000,4.000000,4.000000,4.000000,4.000000,4.000000,4.000000,100.000000,,,,,,,,,,,,,,,,,,,,,,,,,,,,
1703407890.994556,1703407890.995415,32.000000,0.000000,4226.794922,4173.846191,4300.769043,4242.307617,4184.358887,4163.205078,4191.025879,4190.384766,4186.666504,4171.666504,4643.205078,4489.230957,4403.717773,4511.922852,0.000000,4.000000,75.000000,,,,0.000000,4.000000,4.000000,4.000000,4.000000,4.000000,4.000000,4.000000,4.000000,4.000000,4.000000,4.000000,4.000000,4.000000,4.000000,100.000000,,,,,,,,,,,,,,,,,8.000000,0.000000,0.722164,-0.184692,-0.653442,-0.131836,0.988402,-0.100110,0.084483,-14.721964,-42.140202,65.671410
1703407891.002364,1703407891.003323,33.000000,0.000000,4226.282227,4176.025879,4298.461426,4239.487305,4185.384766,4169.102539,4195.128418,4190.384766,4185.256348,4169.487305,4649.358887,4496.922852,4406.666504,4520.512695,0.000000,4.000000,75.000000,,,,0.000000,4.000000,4.000000,4.000000,4.000000,4.000000,4.000000,4.000000,4.000000,4.000000,4.000000,4.000000,4.000000,4.000000,4.000000,100.000000,,,,,,,,,,,,,,,,,,,,,,,,,,,,
1703407891.010172,1703407891.011131,34.000000,0.000000,4216.153809,4169.743652,4291.794922,4250.000000,4178.205078,4167.692383,4200.128418,4186.794922,4177.051270,4170.000000,4642.820313,4491.794922,4402.307617,4522.051270,0.000000,4.000000,75.000000,,,,0.000000,4.000000,4.000000,4.000000,4.000000,4.000000,4.000000,4.000000,4.000000,4.000000,4.000000,4.000000,4.000000,4.000000,4.000000,100.000000,,,,,,,,,,,,,,,,,,,,,,,,,,,,
1703407891.017980,1703407891.018839,35.000000,0.000000,4211.153809,4166.794922,4294.230957,4253.077148,4170.000000,4164.358887,4193.846191,4183.333496,4172.179688,4168.846191,4634.743652,4480.512695,4393.974121,4525.897461,0.000000,4.000000,75.000000,,,,0.000000,4.000000,4.000000,4.000000,4.000000,4.000000,4.000000,4.000000,4.000000,4.000000,4.000000,4.000000,4.000000,4.000000,4.000000,100.000000,,,,,,,,,,,,,,,,,,,,,,,,,,,,
1703407891.025788,1703407891.026647,36.000000,0.000000,4219.358887,4166.538574,4297.051270,4249.743652,4173.205078,4166.666504,4188.333496,4182.436035,4174.358887,4167.179688,4637.563965,4478.333496,4396.922852,4529.102539,0.000000,4.000000,75.000000,,,,0.000000,4.000000,4.000000,4.000000,4.000000,4.000000,4.000000,4.000000,4.000000,4.000000,4.000000,4.000000,4.000000,4.000000,4.000000,100.000000,,,,,,,,,,,,,,,,,9.000000,0.000000,0.722068,-0.184937,-0.653442,-0.132019,0.977658,-0.086925,0.072274,-14.649767,-42.159512,65.637604
1703407891.033596,1703407891.034355,37.000000,0.000000,4218.974121,4160.769043,4294.871582,4248.461426,4173.974121,4169.743652,4190.641113,4183.974121,4172.307617,4161.410156,4638.717773,4479.871582,4398.461426,4512.692383,0.000000,4.000000,75.000000,,,,0.000000,4.000000,4.000000,4.000000,4.000000,4.000000,4.000000,4.000000,4.000000,4.000000,4.000000,4.000000,4.000000,4.000000,4.000000,100.000000,,,,,,,,,,,,,,,,,,,,,,,,,,,,
1703407891.041404,1703407891.042163,38.000000,0.000000,4195.256348,4154.358887,4293.333496,4245.384766,4167.051270,4169.743652,4190.512695,4184.743652,4169.230957,4156.282227,4630.384766,4472.948730,4387.307617,4487.436035,0.000000,4.000000,75.000000,,,,0.000000,4.000000,4.000000,4.000000,4.000000,4.000000,4.000000,4.000000,4.000000,4.000000,4.000000,4.000000,4.000000,4.000000,4.000000,100.000000,,,,,,,,,,,,,,,,,,,,,,,,,,,,
1703407891.049212,1703407891.049871,39.000000,0.000000,4180.256348,4149.615234,4286.025879,4237.820313,4171.538574,4170.897461,4189.487305,4180.897461,4169.358887,4153.974121,4620.641113,4462.820313,4376.282227,4475.128418,0.000000,4.000000,75.000000,,,,0.000000,4.000000,4.000000,4.000000,4.000000,4.000000,4.000000,4.000000,4.000000,4.000000,4.000000,4.000000,4.000000,4.000000,4.000000,100.000000,,,,,,,,,,,,,,,,,,,,,,,,,,,,
1703407891.057020,1703407891.057679,40.000000,0.000000,4180.641113,4145.512695,4271.922852,4228.846191,4184.230957,4174.871582,4192.179688,4178.717773,4167.820313,4153.589844,4618.589844,4458.974121,4376.922852,4468.974121,0.000000,4.000000,75.000000,,,,0.000000,4.000000,4.000000,4.000000,4.000000,4.000000,4.000000,4.000000,4.000000,4.000000,4.000000,4.000000,4.000000,4.000000,4.000000,100.000000,,,,,,,,,,,,,,,,,10.000000,0.000000,0.722035,-0.184937,-0.653503,-0.131897,0.985960,-0.093273,0.077158,-14.634790,-42.110229,65.457176
1703407891.064828,1703407891.065387,41.000000,0.000000,4176.538574,4147.307617,4267.948730,4228.077148,4182.051270,4180.256348,4194.102539,4182.820313,4166.794922,4155.256348,4621.282227,4459.487305,4381.153809,4467.948730,0.000000,4.000000,75.000000,,,,0.000000,4.000000,4.000000,4.000000,4.000000,4.000000,4.000000,4.000000,4.000000,4.000000,4.000000,4.000000,4.000000,4.000000,4.000000,100.000000,,,,,,,,,,,,,,,,,,,,,,,,,,,,
1703407891.072636,1703407891.073195,42.000000,0.000000,4176.538574,4153.717773,4276.025879,4241.666504,4172.948730,4180.384766,4199.487305,4183.589844,4170.641113,4155.769043,4618.333496,4457.436035,4376.922852,4470.641113,0.000000,4.000000,75.000000,,,,0.000000,4.000000,4.000000,4.000000,4.000000,4.000000,4.000000,4.000000,4.000000,4.000000,4.000000,4.000000,4.000000,4.000000,4.000000,100.000000,,,,,,,,,,,,,,,,,,,,,,,,,,,,
1703407891.080444,1703407891.080903,43.000000,0.000000,4186.410156,4154.230957,4281.666504,4246.025879,4171.794922,4176.025879,4200.897461,4180.512695,4172.051270,4158.077148,4614.871582,4455.384766,4375.000000,4470.384766,0.000000,4.000000,75.000000,,,,0.000000,4.000000,4.000000,4.000000,4.000000,4.000000,4.000000,4.000000,4.000000,4.000000,4.000000,4.000000,4.000000,4.000000,4.000000,100.000000,,,,,,,,,,,,,,,,,,,,,,,,,,,,
1703407891.088252,1703407891.088711,44.000000,0.000000,4183.333496,4151.153809,4286.538574,4236.538574,4172.692383,4176.153809,4197.563965,4183.333496,4173.077148,4166.666504,4624.615234,4460.897461,4382.948730,4468.717773,0.000000,4.000000,75.000000,,,,0.000000,4.000000,4.000000,4.000000,4.000000,4.000000,4.000000,4.000000,4.000000,4.000000,4.000000,4.000000,4.000000,4.000000,4.000000,100.000000,,,,,,,,,,,,,,,,,11.000000,0.000000,0.722004,-0.185059,-0.653564,-0.131592,0.993285,-0.099133,0.077158,-14.621311,-42.232540,65.594788
1703407891.096060,1703407891.096419,45.000000,0.000000,4183.589844,4153.205078,4295.512695,4235.897461,4172.948730,4182.179688,4200.897461,4187.948730,4180.000000,4172.051270,4633.333496,4469.615234,4386.538574,4475.512695,0.000000,4.000000,75.000000,,,,0.000000,4.000000,4.000000,4.000000,4.000000,4.000000,4.000000,4.000000,4.000000,4.000000,4.000000,4.000000,4.000000,4.000000,4.000000,100.000000,,,,,,,,,,,,,,,,,,,,,,,,,,,,
1703407891.103869,1703407891.104227,46.000000,0.000000,4191.538574,4157.563965,4297.563965,4235.512695,4171.538574,4181.282227,4203.974121,4187.179688,4181.410156,4163.461426,4624.615234,4471.666504,4380.128418,4480.641113,0.000000,4.000000,75.000000,,,,0.000000,4.000000,4.000000,4.000000,4.000000,4.000000,4.000000,4.000000,4.000000,4.000000,4.000000,4.000000,4.000000,4.000000,4.000000,100.000000,,,,,,,,,,,,,,,,,,,,,,,,,,,,
1703407891.111677,1703407891.111935,47.000000,0.000000,4179.487305,4156.153809,4287.692383,4228.205078,4170.256348,4172.307617,4201.922852,4184.230957,4179.102539,4156.794922,4614.871582,4462.051270,4372.179688,4467.820313,0.000000,4.000000,75.000000,,,,0.000000,4.000000,4.000000,4.000000,4.000000,4.000000,4.000000,4.000000,4.000000,4.000000,4.000000,4.000000,4.000000,4.000000,4.000000,100.000000,,,,,,,,,,,,,,,,,,,,,,,,,,,,
1703407891.119485,1703407891.119843,48.000000,0.000000,4170.641113,4151.538574,4281.410156,4230.512695,4175.128418,4169.743652,4200.384766,4184.487305,4183.974121,4164.102539,4619.487305,4454.743652,4372.436035,4455.512695,0.000000,4.000000,75.000000,,,,0.000000,4.000000,4.000000,4.000000,4.000000,4.000000,4.000000,4.000000,4.000000,4.000000,4.000000,4.000000,4.000000,4.000000,4.000000,100.000000,,,,,,,,,,,,,,,,,12.000000,0.000000,0.721984,-0.185181,-0.653564,-0.131531,0.983030,-0.098157,0.074716,-14.592514,-42.359283,65.735313
1703407891.127293,1703407891.127652,49.000000,0.000000,4174.102539,4151.794922,4283.589844,4236.538574,4177.436035,4172.051270,4200.000000,4185.128418,4183.333496,4170.000000,4628.846191,4460.256348,4380.769043,4457.948730,0.000000,4.000000,75.000000,,,,0.000000,4.000000,4.000000,4.000000,4.000000,4.000000,4.000000,4.000000,4.000000,4.000000,4.000000,4.000000,4.000000,4.000000,4.000000,100.000000,,,,,,,,,,,,,,,,,,,,,,,,,,,,
1703407891.135101,1703407891.135560,50.000000,0.000000,4169.615234,4152.692383,4286.538574,4232.051270,4171.025879,4169.487305,4196.282227,4186.794922,4178.333496,4168.717773,4630.000000,4464.230957,4383.205078,4462.051270,0.000000,4.000000,75.000000,,,,0.000000,4.000000,4.000000,4.000000,4.000000,4.000000,4.000000,4.000000,4.000000,4.000000,4.000000,4.000000,4.000000,4.000000,4.000000,100.000000,,,,,,,,,,,,,,,,,,,,,,,,,,,,
1703407891.142909,1703407891.143368,51.000000,0.000000,4168.205078,4151.410156,4291.282227,4230.256348,4167.820313,4166.922852,4194.230957,4192.692383,4179.358887,4170.384766,4630.000000,4466.922852,4379.871582,4458.205078,0.000000,4.000000,75.000000,,,,0.000000,4.000000,4.000000,4.000000,4.000000,4.000000,4.000000,4.000000,4.000000,4.000000,4.000000,4.000000,4.000000,4.000000,4.000000,100.000000,,,,,,,,,,,,,,,,,,,,,,,,,,,,
1703407891.150717,1703407891.151276,52.000000,0.000000,4178.461426,4155.256348,4292.307617,4236.153809,4173.589844,4171.922852,4200.256348,4197.948730,4181.410156,4172.820313,4637.436035,4475.641113,4388.846191,4458.077148,0.000000,4.000000,75.000000,,,,0.000000,4.000000,4.000000,4.000000,4.000000,4.000000,4.000000,4.000000,4.000000,4.000000,4.000000,4.000000,4.000000,4.000000,4.000000,100.000000,,,,,,,,,,,,,,,,,13.000000,0.000000,0.721929,-0.185181,-0.653625,-0.131531,0.994750,-0.098157,0.074716,-14.549929,-42.406689,65.711777
1703407891.158525,1703407891.159084,53.000000,0.000000,4185.512695,4161.282227,4288.333496,4239.743652,4176.794922,4175.769043,4203.077148,4198.974121,4181.922852,4170.000000,4645.512695,4476.153809,4396.666504,4462.692383,0.000000,4.000000,75.000000,,,,0.000000,4.000000,4.000000,4.000000,4.000000,4.000000,4.000000,4.000000,4.000000,4.000000,4.000000,4.000000,4.000000,4.000000,4.000000,100.000000,,,,,,,,,,,,,,,,,,,,,,,,,,,,
1703407891.166333,1703407891.166992,54.000000,0.000000,4177.179688,4158.717773,4286.794922,4235.641113,4174.615234,4173.077148,4199.743652,4197.307617,4183.333496,4170.128418,4640.256348,4464.615234,4387.307617,4456.153809,0.000000,4.000000,75.000000,,,,0.000000,4.000000,4.000000,4.000000,4.000000,4.000000,4.000000,4.000000,4.000000,4.000000,4.000000,4.000000,4.000000,4.000000,4.000000,100.000000,,,,,,,,,,,,,,,,,,,,,,,,,,,,
1703407891.174141,1703407891.174800,55.000000,0.000000,4171.025879,4153.846191,4283.461426,4230.512695,4172.820313,4173.461426,4200.000000,4187.820313,4175.512695,4167.563965,4625.000000,4454.230957,4379.743652,4445.897461,0.000000,4.000000,75.000000,,,,0.000000,4.000000,4.000000,4.000000,4.000000,4.000000,4.000000,4.000000,4.000000,4.000000,4.000000,4.000000,4.000000,4.000000,4.000000,100.000000,,,,,,,,,,,,,,,,,,,,,,,,,,,,
1703407891.181949,1703407891.182708,56.000000,0.000000,4171.922852,4155.128418,4281.410156,4234.615234,4171.666504,4175.512695,4203.717773,4173.461426,4168.205078,4156.538574,4613.461426,4450.384766,4377.436035,4445.512695,0.000000,4.000000,75.000000,,,,0.000000,4.000000,4.000000,4.000000,4.000000,4.000000,4.000000,4.000000,4.000000,4.000000,4.000000,4.000000,4.000000,4.000000,4.000000,100.000000,,,,,,,,,,,,,,,,,14.000000,0.000000,0.721814,-0.184937,-0.653748,-0.131897,0.982053,-0.083995,0.065438,-14.494936,-42.432686,65.757271
1703407891.189757,1703407891.190516,57.000000,0.000000,4167.692383,4156.794922,4286.025879,4232.179688,4170.000000,4172.948730,4203.974121,4173.333496,4167.307617,4150.000000,4608.589844,4447.563965,4368.974121,4448.846191,0.000000,4.000000,75.000000,,,,0.000000,4.000000,4.000000,4.000000,4.000000,4.000000,4.000000,4.000000,4.000000,4.000000,4.000000,4.000000,4.000000,4.000000,4.000000,100.000000,,,,,,,,,,,,,,,,,,,,,,,,,,,,
1703407891.197565,1703407891.198424,58.000000,0.000000,4163.846191,4154.102539,4285.512695,4221.538574,4170.384766,4168.205078,4201.410156,4183.589844,4164.615234,4153.846191,4610.256348,4447.307617,4365.128418,4449.743652,0.000000,4.000000,75.000000,,,,0.000000,4.000000,4.000000,4.000000,4.000000,4.000000,4.000000,4.000000,4.000000,4.000000,4.000000,4.000000,4.000000,4.000000,4.000000,100.000000,,,,,,,,,,,,,,,,,,,,,,,,,,,,
1703407891.205373,1703407891.206232,59.000000,0.000000,4175.000000,4154.358887,4281.153809,4230.512695,4172.179688,4165.897461,4200.000000,4187.692383,4172.563965,4165.256348,4620.384766,4453.589844,4375.769043,4458.333496,0.000000,4.000000,75.000000,,,,0.000000,4.000000,4.000000,4.000000,4.000000,4.000000,4.000000,4.000000,4.000000,4.000000,4.000000,4.000000,4.000000,4.000000,4.000000,100.000000,,,,,,,,,,,,,,,,,,,,,,,,,,,,
1703407891.213181,1703407891.214140,60.000000,0.000000,4187.820313,4164.358887,4288.974121,4250.128418,4173.205078,4167.179688,4202.563965,4194.102539,4188.846191,4181.666504,4632.436035,4465.897461,4388.717773,4474.615234,0.000000,4.000000,75.000000,,,,0.000000,4.000000,4.000000,4.000000,4.000000,4.000000,4.000000,4.000000,4.000000,4.000000,4.000000,4.000000,4.000000,4.000000,4.000000,100.000000,,,,,,,,,,,,,,,,,15.000000,0.000000,0.721766,-0.184692,-0.653809,-0.132202,0.989379,-0.099133,0.083018,-14.678776,-42.472752,65.698212
1703407891.220989,1703407891.221947,61.000000,0.000000,4186.025879,4168.717773,4297.563965,4245.641113,4174.102539,4169.743652,4203.461426,4197.820313,4192.948730,4187.179688,4631.410156,4466.025879,4388.846191,4475.512695,0.000000,4.000000,75.000000,,,,0.000000,4.000000,4.000000,4.000000,4.000000,4.000000,4.000000,4.000000,4.000000,4.000000,4.000000,4.000000,4.000000,4.000000,4.000000,100.000000,,,,,,,,,,,,,,,,,,,,,,,,,,,,
1703407891.228797,1703407891.229656,62.000000,0.000000,4182.563965,4163.589844,4291.410156,4233.205078,4174.743652,4170.256348,4201.025879,4188.333496,4181.794922,4175.641113,4621.922852,4450.897461,4380.256348,4462.179688,0.000000,4.000000,75.000000,,,,0.000000,4.000000,4.000000,4.000000,4.000000,4.000000,4.000000,4.000000,4.000000,4.000000,4.000000,4.000000,4.000000,4.000000,4.000000,100.000000,,,,,,,,,,,,,,,,,,,,,,,,,,,,
1703407891.236606,1703407891.237464,63.000000,0.000000,4172.179688,4162.948730,4280.512695,4232.051270,4175.000000,4170.000000,4200.256348,4181.410156,4171.153809,4167.307617,4617.179688,4442.692383,4374.743652,4441.025879,0.000000,4.000000,75.000000,,,,0.000000,4.000000,4.000000,4.000000,4.000000,4.000000,4.000000,4.000000,4.000000,4.000000,4.000000,4.000000,4.000000,4.000000,4.000000,100.000000,,,,,,,,,,,,,,,,,,,,,,,,,,,,
1703407891.244414,1703407891.245172,64.000000,0.000000,4155.897461,4163.717773,4273.205078,4229.743652,4179.871582,4171.666504,4201.538574,4181.666504,4169.615234,4167.179688,4617.051270,4444.615234,4372.563965,4425.897461,4973.000000,4.000000,75.000000,,,,0.000000,4.000000,4.000000,4.000000,4.000000,4.000000,4.000000,4.000000,4.000000,4.000000,4.000000,4.000000,4.000000,4.000000,4.000000,100.000000,,,,,,,,,,,,,,,,,16.000000,0.000000,0.721772,-0.184753,-0.653748,-0.132385,0.993774,-0.092785,0.071786,-14.794231,-42.308811,65.678391
1703407891.252221,1703407891.252980,65.000000,0.000000,4160.512695,4165.897461,4274.871582,4235.641113,4187.692383,4173.077148,4203.077148,4178.589844,4172.051270,4168.589844,4617.692383,4447.307617,4375.512695,4445.256348,5420.000000,4.000000,75.000000,,,,0.000000,4.000000,4.000000,4.000000,4.000000,4.000000,4.000000,4.000000,4.000000,4.000000,4.000000,4.000000,4.000000,4.000000,4.000000,100.000000,,,,,,,,,,,,,,,,,,,,,,,,,,,,
1703407891.260030,1703407891.260688,66.000000,0.000000,4171.410156,4168.846191,4278.333496,4247.820313,4185.128418,4172.179688,4203.589844,4179.230957,4171.922852,4167.563965,4616.282227,4448.077148,4379.615234,4462.179688,5222.000000,4.000000,75.000000,,,,0.000000,4.000000,4.000000,4.000000,4.000000,4.000000,4.000000,4.000000,4.000000,4.000000,4.000000,4.000000,4.000000,4.000000,4.000000,100.000000,,,,,,,,,,,,,,,,,,,,,,,,,,,,
1703407891.267838,1703407891.268496,67.000000,0.000000,4166.666504,4163.717773,4269.358887,4242.948730,4175.128418,4171.153809,4202.179688,4185.256348,4172.307617,4161.794922,4611.153809,4447.179688,4374.230957,4447.051270,5280.000000,4.000000,75.000000,,,,0.000000,4.000000,4.000000,4.000000,4.000000,4.000000,4.000000,4.000000,4.000000,4.000000,4.000000,4.000000,4.000000,4.000000,4.000000,100.000000,,,,,,,,,,,,,,,,,,,,,,,,,,,,
1703407891.275646,1703407891.276204,68.000000,0.000000,4163.717773,4155.384766,4266.282227,4230.512695,4172.436035,4169.230957,4201.025879,4185.512695,4173.717773,4157.436035,4603.974121,4445.769043,4365.641113,4437.051270,5108.000000,4.000000,75.000000,,,,0.000000,4.000000,4.000000,4.000000,4.000000,4.000000,4.000000,4.000000,4.000000,4.000000,4.000000,4.000000,4.000000,4.000000,4.000000,100.000000,,,,,,,,,,,,,,,,,17.000000,0.000000,0.721725,-0.184937,-0.653748,-0.132385,0.980588,-0.087901,0.079600,-14.898142,-42.194595,65.543884
1703407891.283454,1703407891.284012,69.000000,0.000000,4168.333496,4155.512695,4277.948730,4230.256348,4174.102539,4167.179688,4201.538574,4180.512695,4171.538574,4155.769043,4599.102539,4446.282227,4363.077148,4433.974121,4547.000000,4.000000,75.000000,,,,0.000000,4.000000,4.000000,4.000000,4.000000,4.000000,4.000000,4.000000,4.000000,4.000000,4.000000,4.000000,4.000000,4.000000,4.000000,100.000000,,,,,,,,,,,,,,,,,,,,,,,,,,,,
1703407891.291262,1703407891.291720,70.000000,0.000000,4156.538574,4155.000000,4275.512695,4232.051270,4170.384766,4167.563965,4200.384766,4174.615234,4168.589844,4154.743652,4598.589844,4444.102539,4358.461426,4424.487305,3071.000000,4.000000,75.000000,,,,0.000000,4.000000,4.000000,4.000000,4.000000,4.000000,4.000000,4.000000,4.000000,4.000000,4.000000,4.000000,4.000000,4.000000,4.000000,100.000000,,,,,,,,,,,,,,,,,,,,,,,,,,,,
1703407891.299070,1703407891.299628,71.000000,0.000000,4146.538574,4149.358887,4265.769043,4231.538574,4164.230957,4166.025879,4198.589844,4174.358887,4169.102539,4159.487305,4605.128418,4439.615234,4361.538574,4430.769043,5056.000000,4.000000,75.000000,,,,0.000000,4.000000,4.000000,4.000000,4.000000,4.000000,4.000000,4.000000,4.000000,4.000000,4.000000,4.000000,4.000000,4.000000,4.000000,100.000000,,,,,,,,,,,,,,,,,,,,,,,,,,,,
1703407891.306878,1703407891.307436,72.000000,0.000000,4163.077148,4157.307617,4277.179688,4231.794922,4167.692383,4163.974121,4199.743652,4183.077148,4176.153809,4171.153809,4618.333496,4441.794922,4378.333496,4447.179688,4856.000000,4.000000,75.000000,,,,0.000000,4.000000,4.000000,4.000000,4.000000,4.000000,4.000000,4.000000,4.000000,4.000000,4.000000,4.000000,4.000000,4.000000,4.000000,100.000000,,,,,,,,,,,,,,,,,18.000000,0.000000,0.721794,-0.184753,-0.653748,-0.132263,0.979123,-0.101575,0.076181,-14.841660,-42.075138,65.406158
1703407891.314686,1703407891.315344,73.000000,0.000000,4173.461426,4169.615234,4285.000000,4231.794922,4180.256348,4166.794922,4197.563965,4187.179688,4185.384766,4180.641113,4629.102539,4448.846191,4385.512695,4455.128418,5116.000000,4.000000,75.000000,,,,0.000000,4.000000,4.000000,4.000000,4.000000,4.000000,4.000000,4.000000,4.000000,4.000000,4.000000,4.000000,4.000000,4.000000,4.000000,100.000000,,,,,,,,,,,,,,,,,,,,,,,,,,,,
1703407891.322494,1703407891.323152,74.000000,0.000000,4168.333496,4172.948730,4273.589844,4240.641113,4184.743652,4167.051270,4190.641113,4186.410156,4188.461426,4185.769043,4631.410156,4452.692383,4383.333496,4453.974121,5898.000000,4.000000,75.000000,,,,0.000000,4.000000,4.000000,4.000000,4.000000,4.000000,4.000000,4.000000,4.000000,4.000000,4.000000,4.000000,4.000000,4.000000,4.000000,100.000000,,,,,,,,,,,,,,,,,,,,,,,,,,,,
1703407891.330302,1703407891.331060,75.000000,0.000000,4172.436035,4172.051270,4272.563965,4249.230957,4176.794922,4158.846191,4187.307617,4186.282227,4188.974121,4186.153809,4624.871582,4448.333496,4384.487305,4439.615234,6073.000000,4.000000,75.000000,,,,0.000000,4.000000,4.000000,4.000000,4.000000,4.000000,4.000000,4.000000,4.000000,4.000000,4.000000,4.000000,4.000000,4.000000,4.000000,100.000000,,,,,,,,,,,,,,,,,,,,,,,,,,,,
1703407891.338110,1703407891.338869,76.000000,0.000000,4177.051270,4172.051270,4283.461426,4249.615234,4174.871582,4155.769043,4184.743652,4178.846191,4187.692383,4178.589844,4618.717773,4443.461426,4383.846191,4434.358887,6599.000000,4.000000,75.000000,,,,0.000000,4.000000,4.000000,4.000000,4.000000,4.000000,4.000000,4.000000,4.000000,4.000000,4.000000,4.000000,4.000000,4.000000,4.000000,100.000000,,,,,,,,,,,,,,,,,19.000000,0.000000,0.721845,-0.184814,-0.653687,-0.132202,0.996215,-0.093761,0.068856,-14.790828,-42.017624,65.482208
1703407891.345918,1703407891.346777,77.000000,0.000000,4164.743652,4169.102539,4282.820313,4246.794922,4180.128418,4164.615234,4180.000000,4171.410156,4180.000000,4169.230957,4617.179688,4443.333496,4381.922852,4450.769043,7179.000000,4.000000,75.000000,,,,0.000000,4.000000,4.000000,4.000000,4.000000,4.000000,4.000000,4.000000,4.000000,4.000000,4.000000,4.000000,4.000000,4.000000,4.000000,100.000000,,,,,,,,,,,,,,,,,,,,,,,,,,,,
1703407891.353726,1703407891.354585,78.000000,0.000000,4152.179688,4160.384766,4271.666504,4237.948730,4176.282227,4172.436035,4181.153809,4174.102539,4172.820313,4162.179688,4612.307617,4439.230957,4375.897461,4447.307617,5898.000000,4.000000,75.000000,,,,0.000000,4.000000,4.000000,4.000000,4.000000,4.000000,4.000000,4.000000,4.000000,4.000000,4.000000,4.000000,4.000000,4.000000,4.000000,100.000000,,,,,,,,,,,,,,,,,,,,,,,,,,,,
1703407891.361534,1703407891.362493,79.000000,0.000000,4148.461426,4153.077148,4262.948730,4227.948730,4168.846191,4171.666504,4187.948730,4175.000000,4166.538574,4150.769043,4598.589844,4430.641113,4360.641113,4421.794922,6073.000000,4.000000,75.000000,,,,0.000000,4.000000,4.000000,4.000000,4.000000,4.000000,4.000000,4.000000,4.000000,4.000000,4.000000,4.000000,4.000000,4.000000,4.000000,100.000000,,,,,,,,,,,,,,,,,,,,,,,,,,,,
1703407891.369342,1703407891.370301,80.000000,0.000000,4147.179688,4150.000000,4264.102539,4225.384766,4169.871582,4169.358887,4188.205078,4170.384766,4155.769043,4138.717773,4586.153809,4424.487305,4352.692383,4417.436035,6599.000000,4.000000,75.000000,,,,0.000000,4.000000,4.000000,4.000000,4.000000,4.000000,4.000000,4.000000,4.000000,4.000000,4.000000,4.000000,4.000000,4.000000,4.000000,100.000000,,,,,,,,,,,,,,,,,20.000000,0.000000,0.721772,-0.184753,-0.653809,-0.132080,0.993285,-0.083018,0.081065,-14.878412,-42.082527,65.433990
1703407891.377150,1703407891.378209,81.000000,0.000000,4150.384766,4153.974121,4272.179688,4226.410156,4171.410156,4169.871582,4184.358887,4170.769043,4156.282227,4139.358887,4588.974121,4428.974121,4357.820313,4422.692383,7179.000000,4.000000,75.000000,,,,0.000000,4.000000,4.000000,4.000000,4.000000,4.000000,4.000000,4.000000,4.000000,4.000000,4.000000,4.000000,4.000000,4.000000,4.000000,100.000000,,,,,,,,,,,,,,,,,,,,,,,,,,,,
1703407891.384958,1703407891.386017,82.000000,0.000000,4162.692383,4167.307617,4281.538574,4233.846191,4173.077148,4169.743652,4184.743652,4173.589844,4167.948730,4150.384766,4604.615234,4444.871582,4364.743652,4427.307617,5898.000000,4.000000,75.000000,,,,0.000000,4.000000,4.000000,4.000000,4.000000,4.000000,4.000000,4.000000,4.000000,4.000000,4.000000,4.000000,4.000000,4.000000,4.000000,100.000000,,,,,,,,,,,,,,,,,,,,,,,,,,,,
1703407891.392766,1703407891.393925,83.000000,0.000000,4189.743652,4183.589844,4287.820313,4249.487305,4181.922852,4165.641113,4184.102539,4169.743652,4170.512695,4160.769043,4617.051270,4461.666504,4377.948730,4450.897461,6073.000000,4.000000,75.000000,,,,0.000000,4.000000,4.000000,4.000000,4.000000,4.000000,4.000000,4.000000,4.000000,4.000000,4.000000,4.000000,4.000000,4.000000,4.000000,100.000000,,,,,,,,,,,,,,,,,,,,,,,,,,,,
1703407891.400575,1703407891.401733,84.000000,0.000000,4205.512695,4190.128418,4287.563965,4251.794922,4183.461426,4160.384766,4181.282227,4170.512695,4168.846191,4169.230957,4617.563965,4464.102539,4388.846191,4480.641113,6599.000000,4.000000,75.000000,,,,0.000000,4.000000,4.000000,4.000000,4.000000,4.000000,4.000000,4.000000,4.000000,4.000000,4.000000,4.000000,4.000000,4.000000,4.000000,100.000000,,,,,,,,,,,,,,,,,21.000000,0.000000,0.721792,-0.184937,-0.653748,-0.132019,0.985472,-0.094738,0.081553,-14.873904,-41.940941,65.540588
1703407891.408383,1703407891.409441,85.000000,0.000000,4193.846191,4181.794922,4283.974121,4243.589844,4175.000000,4156.538574,4181.538574,4179.615234,4174.615234,4167.692383,4611.538574,4455.000000,4380.256348,4483.205078,7179.000000,4.000000,75.000000,,,,0.000000,4.000000,4.000000,4.000000,4.000000,4.000000,4.000000,4.000000,4.000000,4.000000,4.000000,4.000000,4.000000,4.000000,4.000000,100.000000,,,,,,,,,,,,,,,,,,,,,,,,,,,,
1703407891.416191,1703407891.417249,86.000000,0.000000,4183.205078,4171.153809,4281.666504,4242.436035,4168.717773,4155.128418,4182.436035,4180.128418,4169.102539,4158.717773,4605.000000,4448.333496,4371.538574,4472.179688,5898.000000,4.000000,75.000000,,,,0.000000,4.000000,4.000000,4.000000,4.000000,4.000000,4.000000,4.000000,4.000000,4.000000,4.000000,4.000000,4.000000,4.000000,4.000000,100.000000,,,,,,,,,,,,,,,,,,,,,,,,,,,,
1703407891.423999,1703407891.424957,87.000000,0.000000,4186.153809,4168.717773,4279.615234,4239.102539,4165.384766,4154.615234,4182.563965,4171.153809,4157.436035,4160.384766,4602.307617,4445.256348,4377.820313,4479.871582,6073.000000,4.000000,75.000000,,,,0.000000,4.000000,4.000000,4.000000,4.000000,4.000000,4.000000,4.000000,4.000000,4.000000,4.000000,4.000000,4.000000,4.000000,4.000000,100.000000,1.000000,100.000000,4.000000,4.000000,4.000000,4.000000,4.000000,4.000000,4.000000,4.000000,4.000000,4.000000,4.000000,4.000000,4.000000,4.000000,,,,,,,,,,,,
1703407891.431807,1703407891.432765,88.000000,0.000000,4186.282227,4171.666504,4272.179688,4231.153809,4163.461426,4155.000000,4184.358887,4169.102539,4163.717773,4169.615234,4608.717773,4444.487305,4381.282227,4481.153809,6599.000000,4.000000,75.000000,,,,0.000000,4.000000,4.000000,4.000000,4.000000,4.000000,4.000000,4.000000,4.000000,4.000000,4.000000,4.000000,4.000000,4.000000,4.000000,100.000000,,,,,,,,,,,,,,,,,22.000000,0.000000,0.721789,-0.185120,-0.653687,-0.132080,0.982053,-0.100110,0.083506,-14.936514,-42.030182,65.503197
1703407891.439615,1703407891.440473,89.000000,0.000000,4185.000000,4171.666504,4267.179688,4229.358887,4166.922852,4155.384766,4186.538574,4167.563965,4168.461426,4169.871582,4611.794922,4445.769043,4377.179688,4459.615234,7179.000000,4.000000,75.000000,,,,0.000000,4.000000,4.000000,4.000000,4.000000,4.000000,4.000000,4.000000,4.000000,4.000000,4.000000,4.000000,4.000000,4.000000,4.000000,100.000000,,,,,,,,,,,,,,,,,,,,,,,,,,,,
1703407891.447423,1703407891.448381,90.000000,0.000000,4187.179688,4171.538574,4271.153809,4232.051270,4172.692383,4154.487305,4186.538574,4158.077148,4159.743652,4170.000000,4607.563965,4444.871582,4377.307617,4454.871582,5898.000000,4.000000,75.000000,,,,0.000000,4.000000,4.000000,4.000000,4.000000,4.000000,4.000000,4.000000,4.000000,4.000000,4.000000,4.000000,4.000000,4.000000,4.000000,100.000000,,,,,,,,,,,,,,,,,,,,,,,,,,,,
1703407891.455231,1703407891.456189,91.000000,0.000000,4180.384766,4170.256348,4270.000000,4231.153809,4170.000000,4151.922852,4187.948730,4153.205078,4155.000000,4167.307617,4601.410156,4435.128418,4375.769043,4462.820313,6073.000000,4.000000,75.000000,,,,0.000000,4.000000,4.000000,4.000000,4.000000,4.000000,4.000000,4.000000,4.000000,4.000000,4.000000,4.000000,4.000000,4.000000,4.000000,100.000000,,,,,,,,,,,,,,,,,,,,,,,,,,,,
1703407891.463039,1703407891.463998,92.000000,0.000000,4161.794922,4163.461426,4262.307617,4227.563965,4161.666504,4149.743652,4187.436035,4154.487305,4156.410156,4153.974121,4595.641113,4424.487305,4366.538574,4444.743652,6599.000000,4.000000,75.000000,,,,0.000000,4.000000,4.000000,4.000000,4.000000,4.000000,4.000000,4.000000,4.000000,4.000000,4.000000,4.000000,4.000000,4.000000,4.000000,100.000000,,,,,,,,,,,,,,,,,23.000000,0.000000,0.721820,-0.184998,-0.653687,-0.132080,0.992309,-0.087901,0.079600,-14.959529,-41.977161,65.402878
1703407891.470847,1703407891.471706,93.000000,0.000000,4151.153809,4161.538574,4267.051270,4231.410156,4159.358887,4150.897461,4185.512695,4162.563965,4161.538574,4154.102539,4598.974121,4433.077148,4366.794922,4426.922852,7179.000000,4.000000,75.000000,,,,0.000000,4.000000,4.000000,4.000000,4.000000,4.000000,4.000000,4.000000,4.000000,4.000000,4.000000,4.000000,4.000000,4.000000,4.000000,100.000000,,,,,,,,,,,,,,,,,,,,,,,,,,,,
1703407891.478655,1703407891.479514,94.000000,0.000000,4159.358887,4169.487305,4279.871582,4239.230957,4166.025879,4154.358887,4192.948730,4180.128418,4172.820313,4170.128418,4608.077148,4449.102539,4378.461426,4446.538574,5898.000000,4.000000,75.000000,,,,0.000000,4.000000,4.000000,4.000000,4.000000,4.000000,4.000000,4.000000,4.000000,4.000000,4.000000,4.000000,4.000000,4.000000,4.000000,100.000000,,,,,,,,,,,,,,,,,,,,,,,,,,,,
1703407891.486463,1703407891.487222,95.000000,0.000000,4171.666504,4172.563965,4277.692383,4237.692383,4172.820313,4161.666504,4199.358887,4183.461426,4175.769043,4168.589844,4607.179688,4449.102539,4379.358887,4465.512695,6073.000000,4.000000,75.000000,,,,0.000000,4.000000,4.000000,4.000000,4.000000,4.000000,4.000000,4.000000,4.000000,4.000000,4.000000,4.000000,4.000000,4.000000,4.000000,100.000000,,,,,,,,,,,,,,,,,,,,,,,,,,,,
1703407891.494271,1703407891.495030,96.000000,0.000000,4173.589844,4168.589844,4269.615234,4231.282227,4170.128418,4166.666504,4194.102539,4171.410156,4168.461426,4156.666504,4600.000000,4441.922852,4371.153809,4452.563965,6599.000000,4.000000,75.000000,,,,0.000000,4.000000,4.000000,4.000000,4.000000,4.000000,4.000000,4.000000,4.000000,4.000000,4.000000,4.000000,4.000000,4.000000,4.000000,100.000000,,,,,,,,,,,,,,,,,24.000000,0.000000,0.721812,-0.184814,-0.653748,-0.132080,0.983518,-0.088878,0.080576,-14.913576,-41.812778,65.295921
1703407891.502079,1703407891.502738,97.000000,0.000000,4175.000000,4172.307617,4275.000000,4231.282227,4170.769043,4162.563965,4188.205078,4169.487305,4170.641113,4158.589844,4600.000000,4444.102539,4373.461426,4439.487305,7179.000000,4.000000,75.000000,,,,0.000000,4.000000,4.000000,4.000000,4.000000,4.000000,4.000000,4.000000,4.000000,4.000000,4.000000,4.000000,4.000000,4.000000,4.000000,100.000000,,,,,,,,,,,,,,,,,,,,,,,,,,,,
1703407891.509887,1703407891.510546,98.000000,0.000000,4183.333496,4174.615234,4282.051270,4232.179688,4174.230957,4156.282227,4188.461426,4170.256348,4168.589844,4161.666504,4598.333496,4447.948730,4378.589844,4451.025879,5898.000000,4.000000,75.000000,,,,0.000000,4.000000,4.000000,4.000000,4.000000,4.000000,4.000000,4.000000,4.000000,4.000000,4.000000,4.000000,4.000000,4.000000,4.000000,100.000000,,,,,,,,,,,,,,,,,,,,,,,,,,,,
1703407891.517695,1703407891.518254,99.000000,0.000000,4190.384766,4170.000000,4274.871582,4230.512695,4172.051270,4155.128418,4186.153809,4156.922852,4153.589844,4153.461426,4590.897461,4442.948730,4372.820313,4461.282227,6073.000000,4.000000,75.000000,,,,0.000000,4.000000,4.000000,4.000000,4.000000,4.000000,4.000000,4.000000,4.000000,4.000000,4.000000,4.000000,4.000000,4.000000,4.000000,100.000000,,,,,,,,,,,,,,,,,,,,,,,,,,,,
1703407891.525503,1703407891.526162,100.000000,0.000000,4181.922852,4175.128418,4267.948730,4233.846191,4171.025879,4150.512695,4181.410156,4153.589844,4152.563965,4150.000000,4595.512695,4439.102539,4371.025879,4445.000000,6599.000000,4.000000,75.000000,,,,0.000000,4.000000,4.000000,4.000000,4.000000,4.000000,4.000000,4.000000,4.000000,4.000000,4.000000,4.000000,4.000000,4.000000,4.000000,100.000000,,,,,,,,,,,,,,,,,25.000000,0.000000,0.721839,-0.184753,-0.653748,-0.132019,0.993774,-0.100110,0.079111,-14.772219,-41.814835,65.299667
1703407891.533311,1703407891.533970,101.000000,0.000000,4169.871582,4186.538574,4276.282227,4240.128418,4172.179688,4142.436035,4183.333496,4170.000000,4168.846191,4162.436035,4608.333496,4445.384766,4381.282227,4438.589844,7179.000000,4.000000,75.000000,,,,0.000000,4.000000,4.000000,4.000000,4.000000,4.000000,4.000000,4.000000,4.000000,4.000000,4.000000,4.000000,4.000000,4.000000,4.000000,100.000000,,,,,,,,,,,,,,,,,,,,,,,,,,,,
1703407891.541119,1703407891.541878,102.000000,0.000000,4176.538574,4186.922852,4281.666504,4239.615234,4171.666504,4141.922852,4185.769043,4176.666504,4175.384766,4173.974121,4608.589844,4448.589844,4384.102539,4455.384766,5898.000000,4.000000,75.000000,,,,0.000000,4.000000,4.000000,4.000000,4.000000,4.000000,4.000000,4.000000,4.000000,4.000000,4.000000,4.000000,4.000000,4.000000,4.000000,100.000000,,,,,,,,,,,,,,,,,,,,,,,,,,,,
1703407891.548927,1703407891.549686,103.000000,0.000000,4188.846191,4178.205078,4279.230957,4240.256348,4169.487305,4142.179688,4183.717773,4167.820313,4166.922852,4167.436035,4600.641113,4442.948730,4377.179688,4458.333496,6073.000000,4.000000,75.000000,,,,0.000000,4.000000,4.000000,4.000000,4.000000,4.000000,4.000000,4.000000,4.000000,4.000000,4.000000,4.000000,4.000000,4.000000,4.000000,100.000000,,,,,,,,,,,,,,,,,,,,,,,,,,,,
1703407891.556736,1703407891.557594,104.000000,0.000000,4186.153809,4178.717773,4282.179688,4244.743652,4169.358887,4142.051270,4182.179688,4162.820313,4162.563965,4160.384766,4601.794922,4443.205078,4380.000000,4446.666504,6599.000000,4.000000,75.000000,,,,0.000000,4.000000,4.000000,4.000000,4.000000,4.000000,4.000000,4.000000,4.000000,4.000000,4.000000,4.000000,4.000000,4.000000,4.000000,100.000000,,,,,,,,,,,,,,,,,26.000000,0.000000,0.721823,-0.184814,-0.653748,-0.132019,0.988890,-0.089855,0.075204,-14.794996,-41.916683,65.319702
1703407891.564544,1703407891.565402,105.000000,0.000000,4177.820313,4184.615234,4281.410156,4241.153809,4170.512695,4149.358887,4184.487305,4166.794922,4161.538574,4166.538574,4603.717773,4442.307617,4385.000000,4447.179688,7179.000000,4.000000,75.000000,,,,0.000000,4.000000,4.000000,4.000000,4.000000,4.000000,4.000000,4.000000,4.000000,4.000000,4.000000,4.000000,4.000000,4.000000,4.000000,100.000000,,,,,,,,,,,,,,,,,,,,,,,,,,,,
1703407891.572352,1703407891.573310,106.000000,0.000000,4175.641113,4180.000000,4278.077148,4231.538574,4171.794922,4157.051270,4187.051270,4168.589844,4158.077148,4165.641113,4597.820313,4434.871582,4377.692383,4446.666504,5898.000000,4.000000,75.000000,,,,0.000000,4.000000,4.000000,4.000000,4.000000,4.000000,4.000000,4.000000,4.000000,4.000000,4.000000,4.000000,4.000000,4.000000,4.000000,100.000000,,,,,,,,,,,,,,,,,,,,,,,,,,,,
1703407891.580160,1703407891.581118,107.000000,0.000000,4170.256348,4169.615234,4277.563965,4230.256348,4170.641113,4155.384766,4185.384766,4168.461426,4157.051270,4154.487305,4596.025879,4435.256348,4369.487305,4433.205078,6073.000000,4.000000,75.000000,,,,0.000000,4.000000,4.000000,4.000000,4.000000,4.000000,4.000000,4.000000,4.000000,4.000000,4.000000,4.000000,4.000000,4.000000,4.000000,100.000000,,,,,,,,,,,,,,,,,,,,,,,,,,,,
1703407891.587968,1703407891.589026,108.000000,0.000000,4158.589844,4166.282227,4269.358887,4232.563965,4166.153809,4154.230957,4184.230957,4169.358887,4159.615234,4152.563965,4592.563965,4438.205078,4365.769043,4418.717773,6599.000000,4.000000,75.000000,,,,0.000000,4.000000,4.000000,4.000000,4.000000,4.000000,4.000000,4.000000,4.000000,4.000000,4.000000,4.000000,4.000000,4.000000,4.000000,100.000000,,,,,,,,,,,,,,,,,27.000000,0.000000,0.721830,-0.184875,-0.653748,-0.131897,0.987425,-0.088390,0.073251,-14.865497,-41.891682,65.304398
1703407891.595776,1703407891.596834,109.000000,0.000000,4153.589844,4167.179688,4258.974121,4229.358887,4167.563965,4157.436035,4187.051270,4170.000000,4165.256348,4154.487305,4587.051270,4435.000000,4362.051270,4416.794922,7179.000000,4.000000,75.000000,,,,0.000000,4.000000,4.000000,4.000000,4.000000,4.000000,4.000000,4.000000,4.000000,4.000000,4.000000,4.000000,4.000000,4.000000,4.000000,100.000000,,,,,,,,,,,,,,,,,,,,,,,,,,,,
1703407891.603584,1703407891.604542,110.000000,0.000000,4161.666504,4167.307617,4265.256348,4231.666504,4172.820313,4158.077148,4189.102539,4173.974121,4171.794922,4153.589844,4592.948730,4438.846191,4366.025879,4428.333496,5898.000000,4.000000,75.000000,,,,0.000000,4.000000,4.000000,4.000000,4.000000,4.000000,4.000000,4.000000,4.000000,4.000000,4.000000,4.000000,4.000000,4.000000,4.000000,100.000000,,,,,,,,,,,,,,,,,,,,,,,,,,,,
1703407891.611392,1703407891.612350,111.000000,0.000000,4176.153809,4170.000000,4275.512695,4234.230957,4172.692383,4155.641113,4183.974121,4168.974121,4167.692383,4153.974121,4595.641113,4446.922852,4368.846191,4427.692383,6073.000000,4.000000,75.000000,,,,0.000000,4.000000,4.000000,4.000000,4.000000,4.000000,4.000000,4.000000,4.000000,4.000000,4.000000,4.000000,4.000000,4.000000,4.000000,100.000000,,,,,,,,,,,,,,,,,,,,,,,,,,,,
1703407891.619200,1703407891.620058,112.000000,0.000000,4178.846191,4170.897461,4274.487305,4231.666504,4168.461426,4153.717773,4179.487305,4154.487305,4153.846191,4151.153809,4584.615234,4440.769043,4361.538574,4426.282227,6599.000000,4.000000,75.000000,,,,0.000000,4.000000,4.000000,4.000000,4.000000,4.000000,4.000000,4.000000,4.000000,4.000000,4.000000,4.000000,4.000000,4.000000,4.000000,100.000000,,,,,,,,,,,,,,,,,28.000000,0.000000,0.721752,-0.185181,-0.653748,-0.131897,0.983518,-0.097180,0.068856,-14.928947,-41.902515,65.457291
1703407891.627008,1703407891.627866,113.000000,0.000000,4176.410156,4172.307617,4274.230957,4233.333496,4167.820313,4153.205078,4183.077148,4155.897461,4150.897461,4150.256348,4583.077148,4433.077148,4360.897461,4449.102539,7179.000000,4.000000,75.000000,,,,0.000000,4.000000,4.000000,4.000000,4.000000,4.000000,4.000000,4.000000,4.000000,4.000000,4.000000,4.000000,4.000000,4.000000,4.000000,100.000000,,,,,,,,,,,,,,,,,,,,,,,,,,,,
1703407891.634816,1703407891.635574,114.000000,0.000000,4179.102539,4175.897461,4278.077148,4235.000000,4172.179688,4153.333496,4186.666504,4169.487305,4162.563965,4160.384766,4596.794922,4438.333496,4371.025879,4463.717773,5898.000000,4.000000,75.000000,,,,0.000000,4.000000,4.000000,4.000000,4.000000,4.000000,4.000000,4.000000,4.000000,4.000000,4.000000,4.000000,4.000000,4.000000,4.000000,100.000000,,,,,,,,,,,,,,,,,,,,,,,,,,,,
1703407891.642624,1703407891.643382,115.000000,0.000000,4186.025879,4173.589844,4279.102539,4232.436035,4168.846191,4154.358887,4185.512695,4170.512695,4170.384766,4166.153809,4602.436035,4446.153809,4374.358887,4460.897461,6073.000000,4.000000,75.000000,,,,0.000000,4.000000,4.000000,4.000000,4.000000,4.000000,4.000000,4.000000,4.000000,4.000000,4.000000,4.000000,4.000000,4.000000,4.000000,100.000000,,,,,,,,,,,,,,,,,,,,,,,,,,,,
1703407891.650432,1703407891.651090,116.000000,0.000000,4189.871582,4173.333496,4279.358887,4231.282227,4160.384766,4149.743652,4186.153809,4166.538574,4169.487305,4158.077148,4598.846191,4448.333496,4370.128418,4457.948730,6599.000000,4.000000,75.000000,,,,0.000000,4.000000,4.000000,4.000000,4.000000,4.000000,4.000000,4.000000,4.000000,4.000000,4.000000,4.000000,4.000000,4.000000,4.000000,100.000000,,,,,,,,,,,,,,,,,29.000000,0.000000,0.721870,-0.185364,-0.653564,-0.131897,0.984495,-0.103040,0.078623,-14.869386,-41.978931,65.494896
1703407891.658240,1703407891.658898,117.000000,0.000000,4185.512695,4178.589844,4284.358887,4233.717773,4162.820313,4144.230957,4187.436035,4170.512695,4167.948730,4153.974121,4599.487305,4448.077148,4371.282227,4451.922852,7179.000000,4.000000,75.000000,,,,0.000000,4.000000,4.000000,4.000000,4.000000,4.000000,4.000000,4.000000,4.000000,4.000000,4.000000,4.000000,4.000000,4.000000,4.000000,100.000000,,,,,,,,,,,,,,,,,,,,,,,,,,,,
1703407891.666048,1703407891.666606,118.000000,0.000000,4186.410156,4176.922852,4285.256348,4235.000000,4171.410156,4148.846191,4186.410156,4170.000000,4167.563965,4158.974121,4601.794922,4449.230957,4376.538574,4446.538574,5898.000000,4.000000,75.000000,,,,0.000000,4.000000,4.000000,4.000000,4.000000,4.000000,4.000000,4.000000,4.000000,4.000000,4.000000,4.000000,4.000000,4.000000,4.000000,100.000000,,,,,,,,,,,,,,,,,,,,,,,,,,,,
1703407891.673856,1703407891.674414,119.000000,0.000000,4184.615234,4169.230957,4273.974121,4232.820313,4169.743652,4157.436035,4187.436035,4169.230957,4169.230957,4158.846191,4598.333496,4447.563965,4373.077148,4451.410156,6073.000000,4.000000,75.000000,,,,0.000000,4.000000,4.000000,4.000000,4.000000,4.000000,4.000000,4.000000,4.000000,4.000000,4.000000,4.000000,4.000000,4.000000,4.000000,100.000000,,,,,,,,,,,,,,,,,,,,,,,,,,,,
1703407891.681664,1703407891.682122,120.000000,0.000000,4170.000000,4167.563965,4269.743652,4231.410156,4166.025879,4158.077148,4189.102539,4168.333496,4168.461426,4155.128418,4591.410156,4440.256348,4363.846191,4443.205078,6599.000000,4.000000,75.000000,,,,0.000000,4.000000,4.000000,4.000000,4.000000,4.000000,4.000000,4.000000,4.000000,4.000000,4.000000,4.000000,4.000000,4.000000,4.000000,100.000000,,,,,,,,,,,,,,,,,30.000000,0.000000,0.721727,-0.185364,-0.653748,-0.131775,0.991820,-0.090831,0.075204,-14.965780,-42.031036,65.495407
1703407891.689472,1703407891.689930,121.000000,0.000000,4161.025879,4171.538574,4273.205078,4231.922852,4168.846191,4155.128418,4187.692383,4159.487305,4162.948730,4155.000000,4587.563965,4432.179688,4362.692383,4423.205078,7179.000000,4.000000,75.000000,,,,0.000000,4.000000,4.000000,4.000000,4.000000,4.000000,4.000000,4.000000,4.000000,4.000000,4.000000,4.000000,4.000000,4.000000,4.000000,100.000000,,,,,,,,,,,,,,,,,,,,,,,,,,,,
1703407891.697281,1703407891.697638,122.000000,0.000000,4170.384766,4171.282227,4269.615234,4229.615234,4169.615234,4156.153809,4186.794922,4153.589844,4158.077148,4151.794922,4584.487305,4428.974121,4365.512695,4417.051270,5898.000000,4.000000,75.000000,,,,0.000000,4.000000,4.000000,4.000000,4.000000,4.000000,4.000000,4.000000,4.000000,4.000000,4.000000,4.000000,4.000000,4.000000,4.000000,100.000000,,,,,,,,,,,,,,,,,,,,,,,,,,,,
1703407891.705089,1703407891.705546,123.000000,0.000000,4178.974121,4170.512695,4267.692383,4228.717773,4168.461426,4156.666504,4186.410156,4158.717773,4157.051270,4149.358887,4586.410156,4434.743652,4364.102539,4425.128418,6073.000000,4.000000,75.000000,,,,0.000000,4.000000,4.000000,4.000000,4.000000,4.000000,4.000000,4.000000,4.000000,4.000000,4.000000,4.000000,4.000000,4.000000,4.000000,100.000000,,,,,,,,,,,,,,,,,,,,,,,,,,,,
1703407891.712897,1703407891.713355,124.000000,0.000000,4177.948730,4177.820313,4276.153809,4241.153809,4169.871582,4155.897461,4185.256348,4167.307617,4162.436035,4153.077148,4598.717773,4444.102539,4367.820313,4439.871582,6599.000000,4.000000,75.000000,,,,0.000000,4.000000,4.000000,4.000000,4.000000,4.000000,4.000000,4.000000,4.000000,4.000000,4.000000,4.000000,4.000000,4.000000,4.000000,100.000000,,,,,,,,,,,,,,,,,31.000000,0.000000,0.721774,-0.185181,-0.653748,-0.131775,0.978635,-0.093273,0.083018,-14.952536,-41.977932,65.562531
1703407891.720705,1703407891.721163,125.000000,0.000000,4183.461426,4181.922852,4280.769043,4249.487305,4169.743652,4156.025879,4193.461426,4169.102539,4165.128418,4155.897461,4600.897461,4443.333496,4372.179688,4434.487305,7179.000000,4.000000,75.000000,,,,0.000000,4.000000,4.000000,4.000000,4.000000,4.000000,4.000000,4.000000,4.000000,4.000000,4.000000,4.000000,4.000000,4.000000,4.000000,100.000000,,,,,,,,,,,,,,,,,,,,,,,,,,,,
1703407891.728513,1703407891.728871,126.000000,0.000000,4184.615234,4173.717773,4277.179688,4237.948730,4169.230957,4156.538574,4197.051270,4165.769043,4158.333496,4153.589844,4587.563965,4436.538574,4367.307617,4420.256348,5898.000000,4.000000,75.000000,,,,0.000000,4.000000,4.000000,4.000000,4.000000,4.000000,4.000000,4.000000,4.000000,4.000000,4.000000,4.000000,4.000000,4.000000,4.000000,100.000000,,,,,,,,,,,,,,,,,,,,,,,,,,,,
1703407891.736321,1703407891.736779,127.000000,0.000000,4173.974121,4167.307617,4281.025879,4226.922852,4170.128418,4155.384766,4189.743652,4166.153809,4157.051270,4151.153809,4588.589844,4438.333496,4363.717773,4432.563965,75.000000,4.000000,75.000000,,,,0.000000,4.000000,4.000000,4.000000,4.000000,4.000000,4.000000,4.000000,4.000000,4.000000,4.000000,4.000000,4.000000,4.000000,4.000000,100.000000,,,,,,,,,,,,,,,,,,,,,,,,,,,,
1703407891.744129,1703407891.744587,0.000000,0.000000,4170.000000,4171.410156,4289.615234,4234.487305,4171.153809,4152.179688,4190.641113,4171.282227,4167.692383,4152.948730,4602.692383,4445.897461,4371.538574,4446.025879,4973.000000,4.000000,75.000000,,,,0.000000,4.000000,4.000000,4.000000,4.000000,4.000000,4.000000,4.000000,4.000000,4.000000,4.000000,4.000000,4.000000,4.000000,4.000000,100.000000,,,,,,,,,,,,,,,,,0.000000,0.000000,0.721920,-0.185303,-0.653564,-0.131714,0.994750,-0.107435,0.077646,-14.907282,-41.980141,65.606277
1703407891.751937,1703407891.752495,1.000000,0.000000,4180.128418,4173.077148,4288.077148,4245.384766,4170.897461,4154.615234,4196.282227,4173.461426,4173.717773,4161.666504,4606.922852,4452.051270,4379.615234,4438.589844,5425.000000,4.000000,75.000000,,,,0.000000,4.000000,4.000000,4.000000,4.000000,4.000000,4.000000,4.000000,4.000000,4.000000,4.000000,4.000000,4.000000,4.000000,4.000000,100.000000,,,,,,,,,,,,,,,,,,,,,,,,,,,,
1703407891.759745,1703407891.760303,2.000000,0.000000,4186.153809,4165.897461,4283.846191,4239.230957,4171.922852,4164.358887,4196.025879,4173.333496,4171.410156,4168.205078,4604.615234,4456.410156,4381.794922,4437.307617,5218.000000,4.000000,75.000000,,,,0.000000,4.000000,4.000000,4.000000,4.000000,4.000000,4.000000,4.000000,4.000000,4.000000,4.000000,4.000000,4.000000,4.000000,4.000000,100.000000,,,,,,,,,,,,,,,,,,,,,,,,,,,,
1703407891.767553,1703407891.768211,3.000000,0.000000,4177.179688,4156.922852,4288.077148,4226.666504,4169.615234,4170.641113,4193.974121,4172.820313,4172.051270,4162.436035,4605.128418,4453.461426,4378.846191,4447.179688,5282.000000,4.000000,75.000000,,,,0.000000,4.000000,4.000000,4.000000,4.000000,4.000000,4.000000,4.000000,4.000000,4.000000,4.000000,4.000000,4.000000,4.000000,4.000000,100.000000,,,,,,,,,,,,,,,,,,,,,,,,,,,,
1703407891.775361,1703407891.776019,4.000000,0.000000,4171.025879,4153.589844,4289.743652,4236.153809,4166.025879,4171.410156,4195.384766,4172.051270,4173.846191,4157.820313,4602.692383,4447.051270,4374.871582,4445.769043,5108.000000,4.000000,75.000000,,,,0.000000,4.000000,4.000000,4.000000,4.000000,4.000000,4.000000,4.000000,4.000000,4.000000,4.000000,4.000000,4.000000,4.000000,4.000000,100.000000,,,,,,,,,,,,,,,,,1.000000,0.000000,0.721837,-0.185669,-0.653564,-0.131653,0.979123,-0.108412,0.075204,-15.033220,-41.882126,65.545647
1703407891.783169,1703407891.783927,5.000000,0.000000,4178.717773,4155.000000,4284.102539,4249.487305,4168.333496,4173.974121,4198.589844,4171.025879,4167.179688,4157.307617,4596.922852,4443.333496,4371.922852,4438.205078,4547.000000,4.000000,75.000000,,,,0.000000,4.000000,4.000000,4.000000,4.000000,4.000000,4.000000,4.000000,4.000000,4.000000,4.000000,4.000000,4.000000,4.000000,4.000000,100.000000,,,,,,,,,,,,,,,,,,,,,,,,,,,,
1703407891.790977,1703407891.791735,6.000000,0.000000,4183.205078,4151.538574,4277.692383,4239.358887,4170.512695,4174.102539,4196.922852,4169.615234,4158.205078,4152.051270,4594.102539,4434.871582,4365.897461,4430.000000,3071.000000,4.000000,75.000000,,,,0.000000,4.000000,4.000000,4.000000,4.000000,4.000000,4.000000,4.000000,4.000000,4.000000,4.000000,4.000000,4.000000,4.000000,4.000000,100.000000,,,,,,,,,,,,,,,,,,,,,,,,,,,,
1703407891.798785,1703407891.799443,7.000000,0.000000,4178.205078,4148.205078,4270.897461,4231.922852,4167.179688,4170.000000,4189.615234,4174.871582,4162.307617,4153.205078,4598.077148,4431.538574,4364.102539,4423.461426,5056.000000,4.000000,75.000000,,,,0.000000,4.000000,4.000000,4.000000,4.000000,4.000000,4.000000,4.000000,4.000000,4.000000,4.000000,4.000000,4.000000,4.000000,4.000000,100.000000,,,,,,,,,,,,,,,,,,,,,,,,,,,,
1703407891.806593,1703407891.807251,8.000000,0.000000,4180.000000,4152.307617,4272.051270,4241.922852,4165.384766,4168.333496,4191.153809,4182.563965,4172.307617,4160.641113,4606.282227,4443.589844,4374.230957,4430.512695,4858.000000,4.000000,75.000000,,,,0.000000,4.000000,4.000000,4.000000,4.000000,4.000000,4.000000,4.000000,4.000000,4.000000,4.000000,4.000000,4.000000,4.000000,4.000000,100.000000,,,,,,,,,,,,,,,,,2.000000,0.000000,0.721816,-0.185791,-0.653564,-0.131592,0.983030,-0.083018,0.078623,-14.979898,-41.860580,65.674416
1703407891.814401,1703407891.814959,9.000000,0.000000,4186.153809,4155.512695,4277.692383,4244.743652,4168.461426,4169.743652,4200.256348,4178.461426,4171.025879,4157.307617,4604.487305,4447.436035,4378.205078,4442.948730,5116.000000,4.000000,75.000000,,,,0.000000,4.000000,4.000000,4.000000,4.000000,4.000000,4.000000,4.000000,4.000000,4.000000,4.000000,4.000000,4.000000,4.000000,4.000000,100.000000,,,,,,,,,,,,,,,,,,,,,,,,,,,,
1703407891.822209,1703407891.822767,10.000000,0.000000,4181.666504,4152.307617,4274.230957,4241.025879,4170.000000,4174.743652,4201.410156,4171.153809,4162.179688,4151.025879,4596.666504,4439.102539,4368.205078,4445.384766,5898.000000,4.000000,75.000000,,,,0.000000,4.000000,4.000000,4.000000,4.000000,4.000000,4.000000,4.000000,4.000000,4.000000,4.000000,4.000000,4.000000,4.000000,4.000000,100.000000,,,,,,,,,,,,,,,,,,,,,,,,,,,,
1703407891.830017,1703407891.830475,11.000000,0.000000,4176.282227,4152.179688,4272.436035,4244.487305,4170.769043,4184.230957,4202.179688,4174.230957,4157.563965,4152.692383,4597.692383,4440.000000,4367.307617,4439.871582,6075.000000,4.000000,75.000000,,,,0.000000,4.000000,4.000000,4.000000,4.000000,4.000000,4.000000,4.000000,4.000000,4.000000,4.000000,4.000000,4.000000,4.000000,4.000000,100.000000,,,,,,,,,,,,,,,,,,,,,,,,,,,,
1703407891.837825,1703407891.838283,12.000000,0.000000,4191.410156,4159.615234,4281.794922,4248.974121,4173.717773,4187.051270,4209.102539,4175.769043,4156.538574,4151.538574,4602.948730,4451.794922,4376.538574,4448.974121,6599.000000,4.000000,75.000000,,,,0.000000,4.000000,4.000000,4.000000,4.000000,4.000000,4.000000,4.000000,4.000000,4.000000,4.000000,4.000000,4.000000,4.000000,4.000000,100.000000,,,,,,,,,,,,,,,,,3.000000,0.000000,0.721821,-0.185730,-0.653625,-0.131348,0.984007,-0.101575,0.077646,-15.031909,-41.924522,65.706978
1703407891.845633,1703407891.845991,13.000000,0.000000,4202.436035,4163.077148,4286.666504,4245.769043,4172.563965,4182.820313,4212.051270,4169.743652,4156.153809,4151.282227,4601.538574,4449.102539,4375.000000,4462.948730,7179.000000,4.000000,75.000000,,,,0.000000,4.000000,4.000000,4.000000,4.000000,4.000000,4.000000,4.000000,4.000000,4.000000,4.000000,4.000000,4.000000,4.000000,4.000000,100.000000,,,,,,,,,,,,,,,,,,,,,,,,,,,,
1703407891.853442,1703407891.853799,14.000000,0.000000,4188.205078,4158.461426,4283.846191,4241.025879,4168.846191,4182.179688,4206.666504,4167.436035,4156.153809,4151.538574,4594.615234,4432.051270,4364.871582,4458.974121,5898.000000,4.000000,75.000000,,,,0.000000,4.000000,4.000000,4.000000,4.000000,4.000000,4.000000,4.000000,4.000000,4.000000,4.000000,4.000000,4.000000,4.000000,4.000000,100.000000,,,,,,,,,,,,,,,,,,,,,,,,,,,,
1703407891.861250,1703407891.861507,15.000000,0.000000,4183.974121,4153.077148,4282.051270,4239.358887,4169.487305,4183.974121,4205.256348,4172.307617,4157.051270,4143.974121,4590.897461,4430.000000,4360.384766,4464.358887,6075.000000,4.000000,75.000000,,,,0.000000,4.000000,4.000000,4.000000,4.000000,4.000000,4.000000,4.000000,4.000000,4.000000,4.000000,4.000000,4.000000,4.000000,4.000000,100.000000,,,,,,,,,,,,,,,,,,,,,,,,,,,,
1703407891.869058,1703407891.869315,16.000000,0.000000,4206.282227,4156.025879,4281.025879,4243.205078,4172.436035,4182.563965,4206.794922,4175.512695,4158.461426,4142.436035,4596.282227,4443.077148,4368.205078,4480.256348,0.000000,4.000000,75.000000,,,,0.000000,4.000000,4.000000,4.000000,4.000000,4.000000,4.000000,4.000000,4.000000,4.000000,4.000000,4.000000,4.000000,4.000000,4.000000,100.000000,,,,,,,,,,,,,,,,,4.000000,0.000000,0.721899,-0.185730,-0.653625,-0.130920,0.984495,-0.109388,0.076181,-14.862051,-41.848736,65.686279
1703407891.876866,1703407891.877023,17.000000,0.000000,4218.205078,4167.051270,4284.615234,4247.948730,4171.794922,4181.666504,4206.538574,4172.307617,4162.948730,4153.717773,4604.615234,4449.358887,4380.512695,4472.307617,0.000000,4.000000,75.000000,,,,0.000000,4.000000,4.000000,4.000000,4.000000,4.000000,4.000000,4.000000,4.000000,4.000000,4.000000,4.000000,4.000000,4.000000,4.000000,100.000000,,,,,,,,,,,,,,,,,,,,,,,,,,,,
1703407891.884674,1703407891.884931,18.000000,0.000000,4204.102539,4166.794922,4285.512695,4245.897461,4170.897461,4184.102539,4209.358887,4170.641113,4167.307617,4158.461426,4604.358887,4440.512695,4379.358887,4458.077148,0.000000,4.000000,75.000000,,,,0.000000,4.000000,4.000000,4.000000,4.000000,4.000000,4.000000,4.000000,4.000000,4.000000,4.000000,4.000000,4.000000,4.000000,4.000000,100.000000,,,,,,,,,,,,,,,,,,,,,,,,,,,,
1703407891.892482,1703407891.892739,19.000000,0.000000,4196.410156,4158.589844,4281.410156,4241.025879,4171.025879,4184.487305,4214.743652,4172.436035,4166.025879,4153.846191,4599.743652,4432.436035,4370.256348,4464.743652,0.000000,4.000000,75.000000,,,,0.000000,4.000000,4.000000,4.000000,4.000000,4.000000,4.000000,4.000000,4.000000,4.000000,4.000000,4.000000,4.000000,4.000000,4.000000,100.000000,,,,,,,,,,,,,,,,,,,,,,,,,,,,
1703407891.900290,1703407891.900647,20.000000,0.000000,4200.512695,4161.282227,4283.846191,4243.205078,4169.102539,4183.077148,4214.230957,4172.307617,4165.000000,4151.025879,4600.384766,4437.563965,4371.794922,4462.179688,0.000000,4.000000,75.000000,,,,0.000000,4.000000,4.000000,4.000000,4.000000,4.000000,4.000000,4.000000,4.000000,4.000000,4.000000,4.000000,4.000000,4.000000,4.000000,100.000000,,,,,,,,,,,,,,,,,5.000000,0.000000,0.721839,-0.185791,-0.653687,-0.130859,0.978147,-0.092785,0.070321,-14.875846,-41.830528,65.717651
1703407891.908098,1703407891.908456,21.000000,0.000000,4199.743652,4172.051270,4293.974121,4250.897461,4169.358887,4185.769043,4213.333496,4171.282227,4167.948730,4153.974121,4603.589844,4445.897461,4379.358887,4447.051270,0.000000,4.000000,75.000000,,,,0.000000,4.000000,4.000000,4.000000,4.000000,4.000000,4.000000,4.000000,4.000000,4.000000,4.000000,4.000000,4.000000,4.000000,4.000000,100.000000,,,,,,,,,,,,,,,,,,,,,,,,,,,,
1703407891.915906,1703407891.916364,22.000000,0.000000,4198.974121,4178.461426,4299.487305,4251.666504,4173.461426,4188.974121,4217.563965,4172.436035,4169.871582,4162.692383,4608.461426,4447.563965,4383.717773,4462.692383,0.000000,4.000000,75.000000,,,,0.000000,4.000000,4.000000,4.000000,4.000000,4.000000,4.000000,4.000000,4.000000,4.000000,4.000000,4.000000,4.000000,4.000000,4.000000,100.000000,,,,,,,,,,,,,,,,,,,,,,,,,,,,
1703407891.923714,1703407891.924172,23.000000,0.000000,4202.563965,4178.846191,4297.051270,4247.692383,4174.102539,4186.282227,4216.025879,4170.128418,4166.153809,4166.153809,4614.871582,4445.000000,4385.641113,4480.384766,0.000000,4.000000,75.000000,,,,0.000000,4.000000,4.000000,4.000000,4.000000,4.000000,4.000000,4.000000,4.000000,4.000000,4.000000,4.000000,4.000000,4.000000,4.000000,100.000000,1.000000,100.000000,4.000000,4.000000,4.000000,4.000000,4.000000,4.000000,4.000000,4.000000,4.000000,4.000000,4.000000,4.000000,4.000000,4.000000,,,,,,,,,,,,
1703407891.931522,1703407891.932080,24.000000,0.000000,4203.717773,4179.487305,4293.077148,4248.846191,4169.487305,4178.461426,4212.820313,4167.051270,4161.025879,4161.282227,4617.051270,4451.794922,4388.333496,4463.589844,0.000000,4.000000,75.000000,,,,0.000000,4.000000,4.000000,4.000000,4.000000,4.000000,4.000000,4.000000,4.000000,4.000000,4.000000,4.000000,4.000000,4.000000,4.000000,100.000000,,,,,,,,,,,,,,,,,6.000000,0.000000,0.721798,-0.185608,-0.653748,-0.131042,0.984007,-0.095715,0.076181,-14.804928,-41.897476,65.695885
1703407891.939330,1703407891.939888,25.000000,0.000000,4198.974121,4178.589844,4283.974121,4247.563965,4167.948730,4172.436035,4213.333496,4171.922852,4157.692383,4164.615234,4617.436035,4458.846191,4393.589844,4450.384766,0.000000,4.000000,75.000000,,,,0.000000,4.000000,4.000000,4.000000,4.000000,4.000000,4.000000,4.000000,4.000000,4.000000,4.000000,4.000000,4.000000,4.000000,4.000000,100.000000,,,,,,,,,,,,,,,,,,,,,,,,,,,,
1703407891.947138,1703407891.947796,26.000000,0.000000,4203.589844,4175.128418,4277.179688,4246.153809,4173.077148,4169.871582,4214.230957,4177.948730,4160.256348,4167.820313,4616.282227,4453.717773,4392.179688,4461.538574,0.000000,4.000000,75.000000,,,,0.000000,4.000000,4.000000,4.000000,4.000000,4.000000,4.000000,4.000000,4.000000,4.000000,4.000000,4.000000,4.000000,4.000000,4.000000,100.000000,,,,,,,,,,,,,,,,,,,,,,,,,,,,
1703407891.954946,1703407891.955604,27.000000,0.000000,4207.051270,4171.153809,4280.384766,4251.794922,4176.410156,4172.948730,4216.538574,4175.256348,4164.487305,4158.974121,4608.589844,4446.666504,4382.179688,4465.000000,0.000000,4.000000,75.000000,,,,0.000000,4.000000,4.000000,4.000000,4.000000,4.000000,4.000000,4.000000,4.000000,4.000000,4.000000,4.000000,4.000000,4.000000,4.000000,100.000000,,,,,,,,,,,,,,,,,,,,,,,,,,,,
1703407891.962754,1703407891.963512,28.000000,0.000000,4192.948730,4170.128418,4279.743652,4253.717773,4172.179688,4179.615234,4217.051270,4171.282227,4163.846191,4151.153809,4600.769043,4439.615234,4378.077148,4449.871582,0.000000,4.000000,75.000000,,,,0.000000,4.000000,4.000000,4.000000,4.000000,4.000000,4.000000,4.000000,4.000000,4.000000,4.000000,4.000000,4.000000,4.000000,4.000000,100.000000,,,,,,,,,,,,,,,,,7.000000,0.000000,0.721714,-0.185242,-0.653870,-0.131409,0.965938,-0.092785,0.079111,-14.724436,-41.941063,65.776299
1703407891.970562,1703407891.971319,29.000000,0.000000,4184.743652,4172.563965,4274.615234,4246.538574,4172.179688,4185.641113,4217.436035,4174.871582,4165.128418,4155.256348,4601.538574,4432.948730,4381.153809,4442.436035,0.000000,4.000000,75.000000,,,,0.000000,4.000000,4.000000,4.000000,4.000000,4.000000,4.000000,4.000000,4.000000,4.000000,4.000000,4.000000,4.000000,4.000000,4.000000,100.000000,,,,,,,,,,,,,,,,,,,,,,,,,,,,
1703407891.978370,1703407891.979028,30.000000,0.000000,4189.615234,4172.948730,4277.051270,4247.436035,4182.820313,4188.461426,4217.307617,4176.410156,4170.000000,4163.205078,4608.461426,4435.000000,4382.948730,4447.948730,0.000000,4.000000,75.000000,,,,0.000000,4.000000,4.000000,4.000000,4.000000,4.000000,4.000000,4.000000,4.000000,4.000000,4.000000,4.000000,4.000000,4.000000,4.000000,100.000000,,,,,,,,,,,,,,,,,,,,,,,,,,,,
1703407891.986179,1703407891.986836,31.000000,0.000000,4189.230957,4175.769043,4287.051270,4246.922852,4182.948730,4183.205078,4216.410156,4173.077148,4173.846191,4166.025879,4612.179688,4443.846191,4385.512695,4445.384766,0.000000,4.000000,75.000000,,,,0.000000,4.000000,4.000000,4.000000,4.000000,4.000000,4.000000,4.000000,4.000000,4.000000,4.000000,4.000000,4.000000,4.000000,4.000000,100.000000,,,,,,,,,,,,,,,,,,,,,,,,,,,,
1703407891.993986,1703407891.994544,32.000000,0.000000,4187.820313,4181.282227,4295.384766,4237.436035,4171.538574,4173.717773,4216.538574,4177.436035,4173.077148,4163.974121,4612.948730,4449.230957,4390.641113,4439.230957,0.000000,4.000000,75.000000,,,,0.000000,4.000000,4.000000,4.000000,4.000000,4.000000,4.000000,4.000000,4.000000,4.000000,4.000000,4.000000,4.000000,4.000000,4.000000,100.000000,,,,,,,,,,,,,,,,,8.000000,0.000000,0.721885,-0.184875,-0.653687,-0.131897,0.989379,-0.104505,0.077158,-14.668658,-41.863621,65.798668
1703407892.001794,1703407892.002352,33.000000,0.000000,4197.179688,4185.897461,4295.769043,4242.563965,4170.256348,4171.025879,4216.922852,4181.153809,4171.025879,4165.897461,4617.051270,4450.512695,4395.641113,4451.794922,0.000000,4.000000,75.000000,,,,0.000000,4.000000,4.000000,4.000000,4.000000,4.000000,4.000000,4.000000,4.000000,4.000000,4.000000,4.000000,4.000000,4.000000,4.000000,100.000000,,,,,,,,,,,,,,,,,,,,,,,,,,,,
1703407892.009603,1703407892.010060,34.000000,0.000000,4204.487305,4185.128418,4285.384766,4254.487305,4172.692383,4172.948730,4215.256348,4174.230957,4169.230957,4170.128418,4618.589844,4449.743652,4398.333496,4468.589844,0.000000,4.000000,75.000000,,,,0.000000,4.000000,4.000000,4.000000,4.000000,4.000000,4.000000,4.000000,4.000000,4.000000,4.000000,4.000000,4.000000,4.000000,4.000000,100.000000,,,,,,,,,,,,,,,,,,,,,,,,,,,,
1703407892.017411,1703407892.017968,35.000000,0.000000,4203.461426,4182.436035,4279.487305,4252.179688,4169.102539,4169.358887,4213.846191,4169.487305,4165.897461,4170.128418,4615.128418,4450.128418,4400.128418,4460.384766,0.000000,4.000000,75.000000,,,,0.000000,4.000000,4.000000,4.000000,4.000000,4.000000,4.000000,4.000000,4.000000,4.000000,4.000000,4.000000,4.000000,4.000000,4.000000,100.000000,,,,,,,,,,,,,,,,,,,,,,,,,,,,
1703407892.025219,1703407892.025776,36.000000,0.000000,4203.589844,4185.641113,4291.025879,4248.461426,4169.615234,4164.487305,4214.487305,4172.820313,4162.307617,4167.179688,4617.051270,4460.769043,4402.179688,4450.512695,0.000000,4.000000,75.000000,,,,0.000000,4.000000,4.000000,4.000000,4.000000,4.000000,4.000000,4.000000,4.000000,4.000000,4.000000,4.000000,4.000000,4.000000,4.000000,100.000000,,,,,,,,,,,,,,,,,9.000000,0.000000,0.721803,-0.184937,-0.653748,-0.131958,0.980100,-0.091808,0.078135,-14.768459,-41.827259,65.752136
1703407892.033027,1703407892.033584,37.000000,0.000000,4202.436035,4188.205078,4298.461426,4251.794922,4171.025879,4166.025879,4211.025879,4171.025879,4160.512695,4161.666504,4621.153809,4465.128418,4401.153809,4467.179688,0.000000,4.000000,75.000000,,,,0.000000,4.000000,4.000000,4.000000,4.000000,4.000000,4.000000,4.000000,4.000000,4.000000,4.000000,4.000000,4.000000,4.000000,4.000000,100.000000,,,,,,,,,,,,,,,,,,,,,,,,,,,,
1703407892.040835,1703407892.041292,38.000000,0.000000,4201.025879,4180.256348,4288.333496,4251.025879,4165.641113,4165.641113,4209.102539,4168.589844,4163.717773,4156.922852,4615.769043,4455.256348,4394.102539,4478.205078,0.000000,4.000000,75.000000,,,,0.000000,4.000000,4.000000,4.000000,4.000000,4.000000,4.000000,4.000000,4.000000,4.000000,4.000000,4.000000,4.000000,4.000000,4.000000,100.000000,,,,,,,,,,,,,,,,,,,,,,,,,,,,
1703407892.048643,1703407892.049100,39.000000,0.000000,4202.436035,4171.153809,4279.102539,4249.358887,4165.000000,4168.333496,4214.871582,4180.512695,4169.743652,4161.666504,4614.743652,4453.717773,4392.563965,4461.538574,0.000000,4.000000,75.000000,,,,0.000000,4.000000,4.000000,4.000000,4.000000,4.000000,4.000000,4.000000,4.000000,4.000000,4.000000,4.000000,4.000000,4.000000,4.000000,100.000000,,,,,,,,,,,,,,,,,,,,,,,,,,,,
1703407892.056451,1703407892.056808,40.000000,0.000000,4202.436035,4173.077148,4280.000000,4244.358887,4170.512695,4179.230957,4220.384766,4193.974121,4177.563965,4169.615234,4625.384766,4461.794922,4407.051270,4460.512695,0.000000,4.000000,75.000000,,,,0.000000,4.000000,4.000000,4.000000,4.000000,4.000000,4.000000,4.000000,4.000000,4.000000,4.000000,4.000000,4.000000,4.000000,4.000000,100.000000,,,,,,,,,,,,,,,,,10.000000,0.000000,0.721776,-0.184998,-0.653748,-0.132019,0.985472,-0.083018,0.066414,-14.624947,-41.727867,65.776924
1703407892.064259,1703407892.064616,41.000000,0.000000,4202.179688,4172.563965,4278.077148,4233.461426,4169.102539,4184.487305,4225.128418,4191.922852,4183.333496,4171.025879,4626.282227,4460.384766,4411.410156,4486.666504,0.000000,4.000000,75.000000,,,,0.000000,4.000000,4.000000,4.000000,4.000000,4.000000,4.000000,4.000000,4.000000,4.000000,4.000000,4.000000,4.000000,4.000000,4.000000,100.000000,,,,,,,,,,,,,,,,,,,,,,,,,,,,
1703407892.072067,1703407892.072324,42.000000,0.000000,4210.897461,4168.461426,4275.256348,4237.436035,4167.820313,4184.230957,4231.410156,4184.487305,4185.769043,4170.000000,4619.230957,4455.128418,4404.615234,4499.871582,0.000000,4.000000,75.000000,,,,0.000000,4.000000,4.000000,4.000000,4.000000,4.000000,4.000000,4.000000,4.000000,4.000000,4.000000,4.000000,4.000000,4.000000,4.000000,100.000000,,,,,,,,,,,,,,,,,,,,,,,,,,,,
1703407892.079875,1703407892.080132,43.000000,0.000000,4218.589844,4177.820313,4284.102539,4246.410156,4173.461426,4186.410156,4228.974121,4186.153809,4183.717773,4173.589844,4627.051270,4464.871582,4416.794922,4501.025879,0.000000,4.000000,75.000000,,,,0.000000,4.000000,4.000000,4.000000,4.000000,4.000000,4.000000,4.000000,4.000000,4.000000,4.000000,4.000000,4.000000,4.000000,4.000000,100.000000,,,,,,,,,,,,,,,,,,,,,,,,,,,,
1703407892.087683,1703407892.087840,44.000000,0.000000,4218.974121,4189.102539,4301.538574,4246.666504,4176.922852,4180.897461,4219.487305,4183.846191,4176.922852,4178.077148,4636.922852,4476.282227,4430.384766,4509.358887,0.000000,4.000000,75.000000,,,,0.000000,4.000000,4.000000,4.000000,4.000000,4.000000,4.000000,4.000000,4.000000,4.000000,4.000000,4.000000,4.000000,4.000000,4.000000,100.000000,,,,,,,,,,,,,,,,,11.000000,0.000000,0.721796,-0.184875,-0.653748,-0.132080,0.976193,-0.101575,0.078135,-14.579119,-41.671749,65.832565
1703407892.095491,1703407892.095648,45.000000,0.000000,4226.282227,4191.794922,4313.333496,4254.230957,4178.846191,4167.179688,4217.563965,4177.179688,4169.743652,4176.538574,4636.153809,4477.436035,4423.846191,4511.410156,0.000000,4.000000,75.000000,,,,0.000000,4.000000,4.000000,4.000000,4.000000,4.000000,4.000000,4.000000,4.000000,4.000000,4.000000,4.000000,4.000000,4.000000,4.000000,100.000000,,,,,,,,,,,,,,,,,,,,,,,,,,,,
1703407892.103299,1703407892.103356,46.000000,0.000000,4235.000000,4198.717773,4313.205078,4267.436035,4180.769043,4164.743652,4216.922852,4180.256348,4169.871582,4171.794922,4637.051270,4480.769043,4424.102539,4512.051270,0.000000,4.000000,75.000000,,,,0.000000,4.000000,4.000000,4.000000,4.000000,4.000000,4.000000,4.000000,4.000000,4.000000,4.000000,4.000000,4.000000,4.000000,4.000000,100.000000,,,,,,,,,,,,,,,,,,,,,,,,,,,,
1703407892.111107,1703407892.111265,47.000000,0.000000,4237.179688,4206.153809,4310.769043,4268.974121,4175.512695,4166.410156,4213.974121,4189.358887,4174.743652,4173.077148,4640.256348,4485.000000,4430.897461,4516.666504,0.000000,4.000000,75.000000,,,,0.000000,4.000000,4.000000,4.000000,4.000000,4.000000,4.000000,4.000000,4.000000,4.000000,4.000000,4.000000,4.000000,4.000000,4.000000,100.000000,,,,,,,,,,,,,,,,,,,,,,,,,,,,
1703407892.118915,1703407892.119073,48.000000,0.000000,4234.743652,4199.102539,4311.410156,4261.282227,4167.051270,4157.179688,4215.128418,4188.461426,4171.410156,4171.922852,4634.358887,4479.230957,4417.179688,4501.025879,0.000000,4.000000,75.000000,,,,0.000000,4.000000,4.000000,4.000000,4.000000,4.000000,4.000000,4.000000,4.000000,4.000000,4.000000,4.000000,4.000000,4.000000,4.000000,100.000000,,,,,,,,,,,,,,,,,12.000000,0.000000,0.721863,-0.184875,-0.653687,-0.132019,0.986937,-0.094250,0.083506,-14.604540,-41.771240,65.699303
1703407892.126723,1703407892.126981,49.000000,0.000000,4222.948730,4184.358887,4301.153809,4251.922852,4166.922852,4153.589844,4217.051270,4175.769043,4159.743652,4155.128418,4618.589844,4461.282227,4395.769043,4475.000000,0.000000,4.000000,75.000000,,,,0.000000,4.000000,4.000000,4.000000,4.000000,4.000000,4.000000,4.000000,4.000000,4.000000,4.000000,4.000000,4.000000,4.000000,4.000000,100.000000,,,,,,,,,,,,,,,,,,,,,,,,,,,,
1703407892.134531,1703407892.134789,50.000000,0.000000,4203.333496,4171.410156,4283.589844,4241.153809,4170.641113,4162.948730,4217.436035,4165.897461,4151.153809,4142.563965,4601.794922,4443.333496,4384.358887,4470.769043,0.000000,4.000000,75.000000,,,,0.000000,4.000000,4.000000,4.000000,4.000000,4.000000,4.000000,4.000000,4.000000,4.000000,4.000000,4.000000,4.000000,4.000000,4.000000,100.000000,,,,,,,,,,,,,,,,,,,,,,,,,,,,
1703407892.142339,1703407892.142696,51.000000,0.000000,4194.615234,4165.897461,4281.538574,4239.230957,4165.000000,4171.025879,4218.846191,4164.102539,4151.922852,4148.077148,4595.128418,4436.282227,4381.025879,4477.692383,0.000000,4.000000,75.000000,,,,0.000000,4.000000,4.000000,4.000000,4.000000,4.000000,4.000000,4.000000,4.000000,4.000000,4.000000,4.000000,4.000000,4.000000,4.000000,100.000000,,,,,,,,,,,,,,,,,,,,,,,,,,,,
1703407892.150148,1703407892.150504,52.000000,0.000000,4202.307617,4171.410156,4291.153809,4241.538574,4160.641113,4172.051270,4219.871582,4166.666504,4159.102539,4155.641113,4600.128418,4440.897461,4388.717773,4477.307617,0.000000,4.000000,75.000000,,,,0.000000,4.000000,4.000000,4.000000,4.000000,4.000000,4.000000,4.000000,4.000000,4.000000,4.000000,4.000000,4.000000,4.000000,4.000000,100.000000,,,,,,,,,,,,,,,,,13.000000,0.000000,0.721874,-0.184875,-0.653687,-0.131958,0.986937,-0.097180,0.075693,-14.560753,-41.710781,65.729378
1703407892.157956,1703407892.158412,53.000000,0.000000,4217.563965,4173.846191,4293.205078,4244.102539,4165.769043,4172.051270,4218.717773,4169.743652,4166.794922,4159.102539,4608.846191,4449.358887,4396.794922,4481.025879,0.000000,4.000000,75.000000,,,,0.000000,4.000000,4.000000,4.000000,4.000000,4.000000,4.000000,4.000000,4.000000,4.000000,4.000000,4.000000,4.000000,4.000000,4.000000,100.000000,,,,,,,,,,,,,,,,,,,,,,,,,,,,
1703407892.165764,1703407892.166220,54.000000,0.000000,4218.846191,4171.410156,4292.692383,4245.128418,4171.282227,4170.512695,4219.358887,4172.692383,4170.641113,4166.794922,4618.589844,4457.051270,4399.358887,4490.512695,0.000000,4.000000,75.000000,,,,0.000000,4.000000,4.000000,4.000000,4.000000,4.000000,4.000000,4.000000,4.000000,4.000000,4.000000,4.000000,4.000000,4.000000,4.000000,100.000000,,,,,,,,,,,,,,,,,,,,,,,,,,,,
1703407892.173572,1703407892.173928,55.000000,0.000000,4202.948730,4177.051270,4294.871582,4237.307617,4168.589844,4168.846191,4217.820313,4171.025879,4168.589844,4170.769043,4619.871582,4462.692383,4405.128418,4500.128418,0.000000,4.000000,75.000000,,,,0.000000,4.000000,4.000000,4.000000,4.000000,4.000000,4.000000,4.000000,4.000000,4.000000,4.000000,4.000000,4.000000,4.000000,4.000000,100.000000,,,,,,,,,,,,,,,,,,,,,,,,,,,,
