title:حازم اطفاء 2, start timestamp:1703494464.265345, stop timestamp:1703494475.001414, headset type:EPOCX, headset serial:E50206EF, headset firmware:720, channels:67, sampling rate:eeg_128;mot_32, samples:1376      , version:2.2, 
Timestamp,OriginalTimestamp,EEG.Counter,EEG.Interpolated,EEG.AF3,EEG.F7,EEG.F3,EEG.FC5,EEG.T7,EEG.P7,EEG.O1,EEG.O2,EEG.P8,EEG.T8,EEG.FC6,EEG.F4,EEG.F8,EEG.AF4,EEG.RawCq,EEG.Battery,EEG.BatteryPercent,MarkerIndex,MarkerType,MarkerValueInt,EEG.MarkerHardware,CQ.AF3,CQ.F7,CQ.F3,CQ.FC5,CQ.T7,CQ.P7,CQ.O1,CQ.O2,CQ.P8,CQ.T8,CQ.FC6,CQ.F4,CQ.F8,CQ.AF4,CQ.Overall,EQ.SampleRateQuality,EQ.OVERALL,EQ.AF3,EQ.F7,EQ.F3,EQ.FC5,EQ.T7,EQ.P7,EQ.O1,EQ.O2,EQ.P8,EQ.T8,EQ.FC6,EQ.F4,EQ.F8,EQ.AF4,MOT.CounterMems,MOT.InterpolatedMems,MOT.Q0,MOT.Q1,MOT.Q2,MOT.Q3,MOT.AccX,MOT.AccY,MOT.AccZ,MOT.MagX,MOT.MagY,MOT.MagZ
1703494464.265345,1703494464.265613,64.000000,0.000000,4271.153809,4248.974121,4309.230957,4284.358887,4231.794922,4215.769043,4369.230957,4216.538574,4223.205078,4195.000000,4509.615234,4479.487305,4374.743652,4449.102539,4832.000000,4.000000,79.000000,,,,0.000000,4.000000,4.000000,4.000000,4.000000,4.000000,4.000000,4.000000,4.000000,4.000000,4.000000,4.000000,4.000000,4.000000,4.000000,100.000000,,,,,,,,,,,,,,,,,16.000000,0.000000,0.695683,0.075073,-0.670959,0.245361,0.963985,-0.239287,0.082530,-12.630922,-47.403957,66.639191
1703494464.273152,1703494464.273521,65.000000,0.000000,4260.512695,4245.000000,4298.589844,4271.794922,4222.948730,4217.820313,4365.641113,4213.461426,4224.871582,4195.000000,4500.512695,4475.769043,4366.025879,4434.230957,5442.000000,4.000000,79.000000,,,,0.000000,4.000000,4.000000,4.000000,4.000000,4.000000,4.000000,4.000000,4.000000,4.000000,4.000000,4.000000,4.000000,4.000000,4.000000,100.000000,,,,,,,,,,,,,,,,,,,,,,,,,,,,
1703494464.280960,1703494464.281329,66.000000,0.000000,4244.871582,4231.410156,4286.922852,4261.794922,4219.743652,4225.000000,4369.230957,4207.436035,4213.846191,4179.615234,4483.589844,4463.461426,4343.205078,4411.410156,5420.000000,4.000000,79.000000,,,,0.000000,4.000000,4.000000,4.000000,4.000000,4.000000,4.000000,4.000000,4.000000,4.000000,4.000000,4.000000,4.000000,4.000000,4.000000,100.000000,,,,,,,,,,,,,,,,,,,,,,,,,,,,
1703494464.288769,1703494464.289237,67.000000,0.000000,4247.436035,4232.563965,4287.436035,4266.666504,4229.102539,4235.512695,4382.307617,4212.307617,4217.179688,4175.000000,4490.128418,4464.102539,4346.025879,4419.871582,5422.000000,4.000000,79.000000,,,,0.000000,4.000000,4.000000,4.000000,4.000000,4.000000,4.000000,4.000000,4.000000,4.000000,4.000000,4.000000,4.000000,4.000000,4.000000,100.000000,,,,,,,,,,,,,,,,,,,,,,,,,,,,
1703494464.296577,1703494464.297045,68.000000,0.000000,4251.153809,4234.743652,4284.487305,4267.692383,4231.025879,4235.384766,4385.000000,4220.128418,4230.641113,4185.000000,4494.871582,4465.769043,4356.410156,4424.743652,5268.000000,4.000000,79.000000,,,,0.000000,4.000000,4.000000,4.000000,4.000000,4.000000,4.000000,4.000000,4.000000,4.000000,4.000000,4.000000,4.000000,4.000000,4.000000,100.000000,,,,,,,,,,,,,,,,,17.000000,0.000000,0.695550,0.074768,-0.671021,0.245667,0.963497,-0.237334,0.083018,-12.517830,-47.380226,66.575272
1703494464.304385,1703494464.304953,69.000000,0.000000,4244.743652,4230.512695,4278.589844,4264.230957,4226.538574,4230.641113,4379.230957,4224.871582,4240.000000,4188.974121,4485.769043,4460.769043,4345.256348,4412.563965,5016.000000,4.000000,79.000000,,,,0.000000,4.000000,4.000000,4.000000,4.000000,4.000000,4.000000,4.000000,4.000000,4.000000,4.000000,4.000000,4.000000,4.000000,4.000000,100.000000,,,,,,,,,,,,,,,,,,,,,,,,,,,,
1703494464.312193,1703494464.312761,70.000000,0.000000,4244.230957,4230.128418,4282.436035,4272.436035,4229.743652,4232.948730,4380.384766,4235.769043,4245.128418,4190.641113,4493.333496,4466.282227,4343.974121,4420.256348,4270.000000,4.000000,79.000000,,,,0.000000,4.000000,4.000000,4.000000,4.000000,4.000000,4.000000,4.000000,4.000000,4.000000,4.000000,4.000000,4.000000,4.000000,4.000000,100.000000,,,,,,,,,,,,,,,,,,,,,,,,,,,,
1703494464.320001,1703494464.320669,71.000000,0.000000,4251.153809,4231.666504,4289.358887,4279.230957,4236.666504,4236.282227,4382.563965,4248.589844,4249.743652,4200.897461,4508.717773,4476.666504,4359.230957,4436.922852,4896.000000,4.000000,79.000000,,,,0.000000,4.000000,4.000000,4.000000,4.000000,4.000000,4.000000,4.000000,4.000000,4.000000,4.000000,4.000000,4.000000,4.000000,4.000000,100.000000,,,,,,,,,,,,,,,,,,,,,,,,,,,,
1703494464.327809,1703494464.328477,72.000000,0.000000,4258.333496,4241.922852,4289.743652,4281.153809,4244.615234,4238.205078,4380.769043,4251.025879,4250.641113,4203.077148,4503.589844,4475.128418,4355.769043,4433.974121,5230.000000,4.000000,79.000000,,,,0.000000,4.000000,4.000000,4.000000,4.000000,4.000000,4.000000,4.000000,4.000000,4.000000,4.000000,4.000000,4.000000,4.000000,4.000000,100.000000,,,,,,,,,,,,,,,,,18.000000,0.000000,0.695295,0.074341,-0.671265,0.245850,0.954706,-0.253937,0.085948,-12.482714,-47.408871,66.534409
1703494464.335617,1703494464.336185,73.000000,0.000000,4264.743652,4252.948730,4287.820313,4289.102539,4250.384766,4235.897461,4378.717773,4243.589844,4245.384766,4198.589844,4502.436035,4473.333496,4353.717773,4432.436035,5482.000000,4.000000,79.000000,,,,0.000000,4.000000,4.000000,4.000000,4.000000,4.000000,4.000000,4.000000,4.000000,4.000000,4.000000,4.000000,4.000000,4.000000,4.000000,100.000000,,,,,,,,,,,,,,,,,,,,,,,,,,,,
1703494464.343425,1703494464.343993,74.000000,0.000000,4267.307617,4245.897461,4285.256348,4293.846191,4244.871582,4231.025879,4369.487305,4235.512695,4236.794922,4201.025879,4516.922852,4480.256348,4378.333496,4443.974121,5945.000000,4.000000,79.000000,,,,0.000000,4.000000,4.000000,4.000000,4.000000,4.000000,4.000000,4.000000,4.000000,4.000000,4.000000,4.000000,4.000000,4.000000,4.000000,100.000000,,,,,,,,,,,,,,,,,,,,,,,,,,,,
1703494464.351233,1703494464.351701,75.000000,0.000000,4272.179688,4243.461426,4288.974121,4298.205078,4236.666504,4227.436035,4359.487305,4231.794922,4231.282227,4202.436035,4516.025879,4480.641113,4381.410156,4442.692383,6229.000000,4.000000,79.000000,,,,0.000000,4.000000,4.000000,4.000000,4.000000,4.000000,4.000000,4.000000,4.000000,4.000000,4.000000,4.000000,4.000000,4.000000,4.000000,100.000000,,,,,,,,,,,,,,,,,,,,,,,,,,,,
1703494464.359041,1703494464.359509,76.000000,0.000000,4281.025879,4254.615234,4300.128418,4306.794922,4235.769043,4223.077148,4359.230957,4227.820313,4228.589844,4197.820313,4502.563965,4477.179688,4357.179688,4431.025879,6688.000000,4.000000,79.000000,,,,0.000000,4.000000,4.000000,4.000000,4.000000,4.000000,4.000000,4.000000,4.000000,4.000000,4.000000,4.000000,4.000000,4.000000,4.000000,100.000000,,,,,,,,,,,,,,,,,19.000000,0.000000,0.695185,0.073914,-0.671448,0.245789,0.968868,-0.229520,0.080088,-12.451109,-47.351318,66.497635
1703494464.366849,1703494464.367217,77.000000,0.000000,4277.051270,4248.717773,4302.948730,4303.717773,4235.000000,4221.922852,4363.846191,4226.153809,4227.820313,4197.692383,4503.077148,4482.179688,4353.589844,4425.384766,7008.000000,4.000000,79.000000,,,,0.000000,4.000000,4.000000,4.000000,4.000000,4.000000,4.000000,4.000000,4.000000,4.000000,4.000000,4.000000,4.000000,4.000000,4.000000,100.000000,,,,,,,,,,,,,,,,,,,,,,,,,,,,
1703494464.374657,1703494464.375025,78.000000,0.000000,4267.307617,4230.897461,4300.128418,4293.846191,4230.256348,4226.153809,4367.307617,4237.692383,4235.897461,4202.820313,4510.641113,4486.410156,4370.769043,4426.922852,5945.000000,4.000000,79.000000,,,,0.000000,4.000000,4.000000,4.000000,4.000000,4.000000,4.000000,4.000000,4.000000,4.000000,4.000000,4.000000,4.000000,4.000000,4.000000,100.000000,,,,,,,,,,,,,,,,,,,,,,,,,,,,
1703494464.382465,1703494464.382733,79.000000,0.000000,4266.153809,4226.153809,4297.948730,4294.358887,4229.102539,4229.871582,4370.000000,4248.846191,4245.000000,4204.230957,4508.205078,4480.641113,4370.897461,4428.589844,6229.000000,4.000000,79.000000,,,,0.000000,4.000000,4.000000,4.000000,4.000000,4.000000,4.000000,4.000000,4.000000,4.000000,4.000000,4.000000,4.000000,4.000000,4.000000,100.000000,,,,,,,,,,,,,,,,,,,,,,,,,,,,
1703494464.390273,1703494464.390541,80.000000,0.000000,4265.897461,4231.922852,4294.230957,4296.025879,4233.717773,4231.922852,4372.692383,4248.333496,4245.000000,4203.589844,4505.128418,4474.743652,4362.436035,4425.641113,6688.000000,4.000000,79.000000,,,,0.000000,4.000000,4.000000,4.000000,4.000000,4.000000,4.000000,4.000000,4.000000,4.000000,4.000000,4.000000,4.000000,4.000000,4.000000,100.000000,,,,,,,,,,,,,,,,,20.000000,0.000000,0.695295,0.073486,-0.671448,0.245605,0.974240,-0.238799,0.070321,-12.505998,-47.382851,66.431206
1703494464.398081,1703494464.398249,81.000000,0.000000,4264.358887,4236.666504,4293.205078,4292.307617,4236.153809,4233.974121,4373.846191,4253.589844,4242.948730,4201.666504,4508.205078,4477.820313,4370.512695,4420.897461,7008.000000,4.000000,79.000000,,,,0.000000,4.000000,4.000000,4.000000,4.000000,4.000000,4.000000,4.000000,4.000000,4.000000,4.000000,4.000000,4.000000,4.000000,4.000000,100.000000,,,,,,,,,,,,,,,,,,,,,,,,,,,,
1703494464.405889,1703494464.406057,82.000000,0.000000,4257.692383,4228.717773,4288.717773,4285.128418,4233.846191,4233.333496,4374.230957,4265.000000,4247.307617,4200.384766,4507.307617,4476.794922,4372.563965,4412.179688,5945.000000,4.000000,79.000000,,,,0.000000,4.000000,4.000000,4.000000,4.000000,4.000000,4.000000,4.000000,4.000000,4.000000,4.000000,4.000000,4.000000,4.000000,4.000000,100.000000,,,,,,,,,,,,,,,,,,,,,,,,,,,,
1703494464.413697,1703494464.413765,83.000000,0.000000,4247.307617,4217.948730,4281.538574,4277.820313,4231.282227,4231.794922,4374.743652,4268.077148,4259.358887,4209.358887,4512.948730,4475.256348,4376.025879,4412.307617,6229.000000,4.000000,79.000000,,,,0.000000,4.000000,4.000000,4.000000,4.000000,4.000000,4.000000,4.000000,4.000000,4.000000,4.000000,4.000000,4.000000,4.000000,4.000000,100.000000,,,,,,,,,,,,,,,,,,,,,,,,,,,,
1703494464.421506,1703494464.421573,84.000000,0.000000,4252.948730,4227.948730,4284.615234,4282.436035,4233.717773,4233.974121,4377.692383,4268.846191,4269.102539,4223.974121,4526.794922,4484.871582,4394.358887,4427.948730,6688.000000,4.000000,79.000000,,,,0.000000,4.000000,4.000000,4.000000,4.000000,4.000000,4.000000,4.000000,4.000000,4.000000,4.000000,4.000000,4.000000,4.000000,4.000000,100.000000,,,,,,,,,,,,,,,,,21.000000,0.000000,0.695227,0.073425,-0.671570,0.245483,0.963008,-0.228055,0.073739,-12.472065,-47.577900,66.404755
1703494464.429314,1703494464.429281,85.000000,0.000000,4265.769043,4245.128418,4289.743652,4291.538574,4236.794922,4233.974121,4380.128418,4267.820313,4262.948730,4218.205078,4524.743652,4486.282227,4389.358887,4427.948730,7008.000000,4.000000,79.000000,,,,0.000000,4.000000,4.000000,4.000000,4.000000,4.000000,4.000000,4.000000,4.000000,4.000000,4.000000,4.000000,4.000000,4.000000,4.000000,100.000000,,,,,,,,,,,,,,,,,,,,,,,,,,,,
1703494464.437122,1703494464.437189,86.000000,0.000000,4265.256348,4242.051270,4289.871582,4290.256348,4234.230957,4231.538574,4374.102539,4257.948730,4244.871582,4204.871582,4517.820313,4480.641113,4367.051270,4415.897461,5945.000000,4.000000,79.000000,,,,0.000000,4.000000,4.000000,4.000000,4.000000,4.000000,4.000000,4.000000,4.000000,4.000000,4.000000,4.000000,4.000000,4.000000,4.000000,100.000000,,,,,,,,,,,,,,,,,,,,,,,,,,,,
1703494464.444930,1703494464.444997,87.000000,0.000000,4265.897461,4241.538574,4299.615234,4291.025879,4232.179688,4230.641113,4364.358887,4246.025879,4235.384766,4207.692383,4526.153809,4486.153809,4374.358887,4423.589844,6229.000000,4.000000,79.000000,,,,0.000000,4.000000,4.000000,4.000000,4.000000,4.000000,4.000000,4.000000,4.000000,4.000000,4.000000,4.000000,4.000000,4.000000,4.000000,100.000000,,,,,,,,,,,,,,,,,,,,,,,,,,,,
1703494464.452738,1703494464.452905,88.000000,0.000000,4276.666504,4260.128418,4308.077148,4304.358887,4233.846191,4224.615234,4357.051270,4236.538574,4230.384766,4208.333496,4523.717773,4488.589844,4393.077148,4435.512695,6688.000000,4.000000,79.000000,,,,0.000000,4.000000,4.000000,4.000000,4.000000,4.000000,4.000000,4.000000,4.000000,4.000000,4.000000,4.000000,4.000000,4.000000,4.000000,100.000000,,,,,,,,,,,,,,,,,22.000000,0.000000,0.695291,0.073486,-0.671631,0.245117,0.966915,-0.240752,0.086436,-12.524858,-47.720112,66.347610
1703494464.460546,1703494464.460713,89.000000,0.000000,4282.436035,4270.897461,4302.307617,4310.769043,4234.743652,4218.589844,4352.948730,4229.487305,4219.615234,4197.436035,4506.025879,4478.461426,4390.769043,4428.589844,7008.000000,4.000000,79.000000,,,,0.000000,4.000000,4.000000,4.000000,4.000000,4.000000,4.000000,4.000000,4.000000,4.000000,4.000000,4.000000,4.000000,4.000000,4.000000,100.000000,,,,,,,,,,,,,,,,,,,,,,,,,,,,
1703494464.468354,1703494464.468621,90.000000,0.000000,4279.615234,4268.077148,4297.820313,4302.563965,4232.436035,4224.358887,4354.358887,4229.487305,4219.871582,4196.153809,4503.717773,4473.846191,4390.641113,4419.102539,5945.000000,4.000000,79.000000,,,,0.000000,4.000000,4.000000,4.000000,4.000000,4.000000,4.000000,4.000000,4.000000,4.000000,4.000000,4.000000,4.000000,4.000000,4.000000,100.000000,,,,,,,,,,,,,,,,,,,,,,,,,,,,
1703494464.476162,1703494464.476429,91.000000,0.000000,4270.256348,4260.000000,4291.538574,4296.153809,4231.153809,4232.051270,4359.871582,4236.025879,4231.922852,4201.153809,4509.743652,4475.897461,4396.794922,4414.230957,6229.000000,4.000000,79.000000,,,,0.000000,4.000000,4.000000,4.000000,4.000000,4.000000,4.000000,4.000000,4.000000,4.000000,4.000000,4.000000,4.000000,4.000000,4.000000,100.000000,,,,,,,,,,,,,,,,,,,,,,,,,,,,
1703494464.483970,1703494464.484336,92.000000,0.000000,4261.922852,4252.436035,4286.538574,4296.794922,4231.922852,4229.358887,4365.641113,4242.563965,4235.769043,4194.230957,4507.563965,4477.051270,4395.384766,4409.487305,6688.000000,4.000000,79.000000,,,,0.000000,4.000000,4.000000,4.000000,4.000000,4.000000,4.000000,4.000000,4.000000,4.000000,4.000000,4.000000,4.000000,4.000000,4.000000,100.000000,,,,,,,,,,,,,,,,,23.000000,0.000000,0.695482,0.073608,-0.671509,0.244873,0.960078,-0.228055,0.093761,-12.622373,-47.764767,66.212852
1703494464.491778,1703494464.492144,93.000000,0.000000,4261.282227,4246.794922,4292.179688,4296.794922,4232.051270,4231.153809,4374.102539,4246.922852,4230.512695,4183.717773,4505.000000,4478.974121,4396.794922,4408.717773,7008.000000,4.000000,79.000000,,,,0.000000,4.000000,4.000000,4.000000,4.000000,4.000000,4.000000,4.000000,4.000000,4.000000,4.000000,4.000000,4.000000,4.000000,4.000000,100.000000,,,,,,,,,,,,,,,,,,,,,,,,,,,,
1703494464.499586,1703494464.500052,94.000000,0.000000,4254.871582,4237.436035,4288.205078,4293.333496,4231.538574,4243.461426,4377.179688,4251.922852,4231.282227,4182.692383,4504.615234,4477.307617,4394.102539,4403.974121,5945.000000,4.000000,79.000000,,,,0.000000,4.000000,4.000000,4.000000,4.000000,4.000000,4.000000,4.000000,4.000000,4.000000,4.000000,4.000000,4.000000,4.000000,4.000000,100.000000,1.000000,100.000000,4.000000,4.000000,4.000000,4.000000,4.000000,4.000000,4.000000,4.000000,4.000000,4.000000,4.000000,4.000000,4.000000,4.000000,,,,,,,,,,,,
1703494464.507394,1703494464.507860,95.000000,0.000000,4243.205078,4231.666504,4276.153809,4291.282227,4231.794922,4247.948730,4366.538574,4254.615234,4239.358887,4189.743652,4501.666504,4471.922852,4389.871582,4396.025879,6229.000000,4.000000,79.000000,,,,0.000000,4.000000,4.000000,4.000000,4.000000,4.000000,4.000000,4.000000,4.000000,4.000000,4.000000,4.000000,4.000000,4.000000,4.000000,100.000000,,,,,,,,,,,,,,,,,,,,,,,,,,,,
1703494464.515202,1703494464.515768,96.000000,0.000000,4244.487305,4237.820313,4278.461426,4293.077148,4232.051270,4244.487305,4357.179688,4256.025879,4246.666504,4196.794922,4501.922852,4467.436035,4404.615234,4398.589844,6688.000000,4.000000,79.000000,,,,0.000000,4.000000,4.000000,4.000000,4.000000,4.000000,4.000000,4.000000,4.000000,4.000000,4.000000,4.000000,4.000000,4.000000,4.000000,100.000000,,,,,,,,,,,,,,,,,24.000000,0.000000,0.695600,0.073914,-0.671509,0.244446,0.967403,-0.230497,0.083506,-12.560135,-47.871624,66.108231
1703494464.523010,1703494464.523576,97.000000,0.000000,4254.743652,4246.025879,4283.974121,4294.871582,4233.333496,4246.282227,4357.051270,4257.563965,4250.128418,4203.077148,4515.000000,4465.256348,4416.410156,4408.077148,7008.000000,4.000000,79.000000,,,,0.000000,4.000000,4.000000,4.000000,4.000000,4.000000,4.000000,4.000000,4.000000,4.000000,4.000000,4.000000,4.000000,4.000000,4.000000,100.000000,,,,,,,,,,,,,,,,,,,,,,,,,,,,
1703494464.530818,1703494464.531284,98.000000,0.000000,4259.230957,4252.948730,4283.589844,4295.512695,4236.282227,4245.256348,4357.948730,4258.589844,4249.358887,4210.384766,4528.333496,4465.641113,4409.743652,4415.256348,5945.000000,4.000000,79.000000,,,,0.000000,4.000000,4.000000,4.000000,4.000000,4.000000,4.000000,4.000000,4.000000,4.000000,4.000000,4.000000,4.000000,4.000000,4.000000,100.000000,,,,,,,,,,,,,,,,,,,,,,,,,,,,
1703494464.538626,1703494464.539092,99.000000,0.000000,4258.205078,4257.436035,4290.641113,4298.717773,4233.333496,4235.897461,4357.948730,4258.846191,4250.897461,4211.025879,4523.589844,4468.461426,4413.461426,4418.333496,6229.000000,4.000000,79.000000,,,,0.000000,4.000000,4.000000,4.000000,4.000000,4.000000,4.000000,4.000000,4.000000,4.000000,4.000000,4.000000,4.000000,4.000000,4.000000,100.000000,,,,,,,,,,,,,,,,,,,,,,,,,,,,
1703494464.546434,1703494464.546800,100.000000,0.000000,4263.589844,4255.384766,4304.230957,4305.769043,4227.692383,4231.538574,4358.846191,4257.692383,4250.897461,4210.000000,4519.615234,4477.307617,4434.743652,4425.512695,6688.000000,4.000000,79.000000,,,,0.000000,4.000000,4.000000,4.000000,4.000000,4.000000,4.000000,4.000000,4.000000,4.000000,4.000000,4.000000,4.000000,4.000000,4.000000,100.000000,,,,,,,,,,,,,,,,,25.000000,0.000000,0.695887,0.074280,-0.671326,0.244019,0.959101,-0.228055,0.082041,-12.704122,-47.901127,66.114075
1703494464.554242,1703494464.554608,101.000000,0.000000,4275.512695,4258.846191,4313.846191,4311.025879,4230.256348,4234.615234,4357.436035,4252.563965,4244.487305,4208.589844,4526.153809,4483.461426,4438.205078,4432.051270,7008.000000,4.000000,79.000000,,,,0.000000,4.000000,4.000000,4.000000,4.000000,4.000000,4.000000,4.000000,4.000000,4.000000,4.000000,4.000000,4.000000,4.000000,4.000000,100.000000,,,,,,,,,,,,,,,,,,,,,,,,,,,,
1703494464.562050,1703494464.562316,102.000000,0.000000,4280.512695,4269.615234,4310.641113,4309.743652,4233.461426,4233.461426,4354.743652,4249.615234,4241.025879,4202.307617,4524.871582,4476.025879,4424.743652,4429.102539,5945.000000,4.000000,79.000000,,,,0.000000,4.000000,4.000000,4.000000,4.000000,4.000000,4.000000,4.000000,4.000000,4.000000,4.000000,4.000000,4.000000,4.000000,4.000000,100.000000,,,,,,,,,,,,,,,,,,,,,,,,,,,,
1703494464.569858,1703494464.570124,103.000000,0.000000,4276.153809,4267.563965,4300.128418,4304.102539,4232.436035,4231.666504,4349.743652,4246.922852,4246.282227,4198.717773,4520.000000,4467.051270,4431.538574,4424.871582,6229.000000,4.000000,79.000000,,,,0.000000,4.000000,4.000000,4.000000,4.000000,4.000000,4.000000,4.000000,4.000000,4.000000,4.000000,4.000000,4.000000,4.000000,4.000000,100.000000,,,,,,,,,,,,,,,,,,,,,,,,,,,,
1703494464.577666,1703494464.577832,104.000000,0.000000,4274.230957,4263.333496,4296.410156,4304.358887,4237.948730,4236.794922,4343.461426,4237.692383,4255.000000,4208.589844,4521.025879,4460.897461,4445.769043,4423.974121,6688.000000,4.000000,79.000000,,,,0.000000,4.000000,4.000000,4.000000,4.000000,4.000000,4.000000,4.000000,4.000000,4.000000,4.000000,4.000000,4.000000,4.000000,4.000000,100.000000,,,,,,,,,,,,,,,,,26.000000,0.000000,0.696167,0.074463,-0.671082,0.243835,0.959101,-0.231962,0.085460,-12.633710,-47.861015,66.136002
1703494464.585475,1703494464.585640,105.000000,0.000000,4265.769043,4264.615234,4291.410156,4307.563965,4245.897461,4245.512695,4345.897461,4237.179688,4263.461426,4216.025879,4513.333496,4446.538574,4436.922852,4411.538574,7008.000000,4.000000,79.000000,,,,0.000000,4.000000,4.000000,4.000000,4.000000,4.000000,4.000000,4.000000,4.000000,4.000000,4.000000,4.000000,4.000000,4.000000,4.000000,100.000000,,,,,,,,,,,,,,,,,,,,,,,,,,,,
1703494464.593283,1703494464.593348,106.000000,0.000000,4251.153809,4261.666504,4279.230957,4302.051270,4244.743652,4248.717773,4354.871582,4241.410156,4262.051270,4205.000000,4494.102539,4430.641113,4414.102539,4390.000000,5945.000000,4.000000,79.000000,,,,0.000000,4.000000,4.000000,4.000000,4.000000,4.000000,4.000000,4.000000,4.000000,4.000000,4.000000,4.000000,4.000000,4.000000,4.000000,100.000000,,,,,,,,,,,,,,,,,,,,,,,,,,,,
1703494464.601091,1703494464.601156,107.000000,0.000000,4249.743652,4262.307617,4275.000000,4295.128418,4243.846191,4248.717773,4361.666504,4239.358887,4249.871582,4194.487305,4485.897461,4427.563965,4409.487305,4387.436035,6229.000000,4.000000,79.000000,,,,0.000000,4.000000,4.000000,4.000000,4.000000,4.000000,4.000000,4.000000,4.000000,4.000000,4.000000,4.000000,4.000000,4.000000,4.000000,100.000000,,,,,,,,,,,,,,,,,,,,,,,,,,,,
1703494464.608899,1703494464.608864,108.000000,0.000000,4256.922852,4263.077148,4283.077148,4294.743652,4243.846191,4250.769043,4365.512695,4247.692383,4250.512695,4199.102539,4499.102539,4441.282227,4422.692383,4406.794922,6688.000000,4.000000,79.000000,,,,0.000000,4.000000,4.000000,4.000000,4.000000,4.000000,4.000000,4.000000,4.000000,4.000000,4.000000,4.000000,4.000000,4.000000,4.000000,100.000000,,,,,,,,,,,,,,,,,27.000000,0.000000,0.696264,0.074707,-0.671021,0.243652,0.962520,-0.227567,0.075693,-12.537005,-47.891579,66.222404
1703494464.616707,1703494464.616672,109.000000,0.000000,4260.256348,4262.948730,4289.871582,4297.051270,4238.077148,4252.563965,4367.051270,4260.128418,4264.615234,4207.051270,4511.025879,4457.051270,4431.666504,4418.974121,7008.000000,4.000000,79.000000,,,,0.000000,4.000000,4.000000,4.000000,4.000000,4.000000,4.000000,4.000000,4.000000,4.000000,4.000000,4.000000,4.000000,4.000000,4.000000,100.000000,,,,,,,,,,,,,,,,,,,,,,,,,,,,
1703494464.624515,1703494464.624380,110.000000,0.000000,4259.358887,4267.820313,4289.102539,4295.512695,4231.282227,4247.179688,4361.153809,4257.307617,4262.436035,4202.692383,4506.922852,4461.282227,4431.282227,4415.641113,5945.000000,4.000000,79.000000,,,,0.000000,4.000000,4.000000,4.000000,4.000000,4.000000,4.000000,4.000000,4.000000,4.000000,4.000000,4.000000,4.000000,4.000000,4.000000,100.000000,,,,,,,,,,,,,,,,,,,,,,,,,,,,
1703494464.632323,1703494464.632288,111.000000,0.000000,4265.256348,4274.230957,4288.974121,4291.794922,4230.897461,4242.436035,4350.256348,4246.153809,4242.307617,4197.051270,4508.461426,4462.948730,4424.358887,4416.538574,6229.000000,4.000000,79.000000,,,,0.000000,4.000000,4.000000,4.000000,4.000000,4.000000,4.000000,4.000000,4.000000,4.000000,4.000000,4.000000,4.000000,4.000000,4.000000,100.000000,,,,,,,,,,,,,,,,,,,,,,,,,,,,
1703494464.640131,1703494464.640096,112.000000,0.000000,4274.102539,4277.307617,4296.410156,4298.077148,4237.820313,4244.102539,4342.179688,4236.282227,4230.512695,4200.000000,4516.410156,4471.410156,4421.666504,4426.666504,6688.000000,4.000000,79.000000,,,,0.000000,4.000000,4.000000,4.000000,4.000000,4.000000,4.000000,4.000000,4.000000,4.000000,4.000000,4.000000,4.000000,4.000000,4.000000,100.000000,,,,,,,,,,,,,,,,,28.000000,0.000000,0.696403,0.074707,-0.670898,0.243591,0.967403,-0.224637,0.082530,-12.583304,-47.952423,66.300163
1703494464.647939,1703494464.648004,113.000000,0.000000,4273.333496,4281.922852,4304.358887,4311.794922,4246.538574,4245.897461,4334.102539,4227.563965,4229.615234,4197.820313,4511.794922,4477.820313,4419.871582,4438.461426,7008.000000,4.000000,79.000000,,,,0.000000,4.000000,4.000000,4.000000,4.000000,4.000000,4.000000,4.000000,4.000000,4.000000,4.000000,4.000000,4.000000,4.000000,4.000000,100.000000,,,,,,,,,,,,,,,,,,,,,,,,,,,,
1703494464.655747,1703494464.655812,114.000000,0.000000,4267.948730,4285.128418,4306.410156,4311.410156,4249.230957,4247.948730,4326.025879,4228.205078,4230.128418,4193.974121,4503.846191,4472.820313,4403.846191,4440.128418,5945.000000,4.000000,79.000000,,,,0.000000,4.000000,4.000000,4.000000,4.000000,4.000000,4.000000,4.000000,4.000000,4.000000,4.000000,4.000000,4.000000,4.000000,4.000000,100.000000,,,,,,,,,,,,,,,,,,,,,,,,,,,,
1703494464.663555,1703494464.663720,115.000000,0.000000,4265.128418,4273.589844,4303.846191,4297.563965,4245.641113,4244.230957,4321.410156,4230.641113,4235.769043,4197.179688,4504.615234,4468.717773,4386.794922,4429.230957,6229.000000,4.000000,79.000000,,,,0.000000,4.000000,4.000000,4.000000,4.000000,4.000000,4.000000,4.000000,4.000000,4.000000,4.000000,4.000000,4.000000,4.000000,4.000000,100.000000,,,,,,,,,,,,,,,,,,,,,,,,,,,,
1703494464.671363,1703494464.671528,116.000000,0.000000,4266.666504,4266.153809,4301.025879,4294.871582,4243.717773,4235.128418,4318.846191,4227.692383,4245.641113,4203.333496,4507.179688,4469.615234,4385.897461,4427.051270,6688.000000,4.000000,79.000000,,,,0.000000,4.000000,4.000000,4.000000,4.000000,4.000000,4.000000,4.000000,4.000000,4.000000,4.000000,4.000000,4.000000,4.000000,4.000000,100.000000,,,,,,,,,,,,,,,,,29.000000,0.000000,0.696416,0.074585,-0.670898,0.243591,0.958613,-0.221218,0.079111,-12.608308,-47.823845,66.270142
1703494464.679171,1703494464.679436,117.000000,0.000000,4267.563965,4271.794922,4299.743652,4300.256348,4246.538574,4237.948730,4320.641113,4235.769043,4257.051270,4211.282227,4511.153809,4469.102539,4388.461426,4439.102539,7008.000000,4.000000,79.000000,,,,0.000000,4.000000,4.000000,4.000000,4.000000,4.000000,4.000000,4.000000,4.000000,4.000000,4.000000,4.000000,4.000000,4.000000,4.000000,100.000000,,,,,,,,,,,,,,,,,,,,,,,,,,,,
1703494464.686979,1703494464.687244,118.000000,0.000000,4264.871582,4270.256348,4292.820313,4296.922852,4245.384766,4245.128418,4322.307617,4246.153809,4268.077148,4219.487305,4507.307617,4464.358887,4378.461426,4438.461426,5945.000000,4.000000,79.000000,,,,0.000000,4.000000,4.000000,4.000000,4.000000,4.000000,4.000000,4.000000,4.000000,4.000000,4.000000,4.000000,4.000000,4.000000,4.000000,100.000000,,,,,,,,,,,,,,,,,,,,,,,,,,,,
1703494464.694787,1703494464.695152,119.000000,0.000000,4258.846191,4260.897461,4286.025879,4291.282227,4236.666504,4239.102539,4316.538574,4240.641113,4267.436035,4213.589844,4497.436035,4457.051270,4354.743652,4425.769043,6229.000000,4.000000,79.000000,,,,0.000000,4.000000,4.000000,4.000000,4.000000,4.000000,4.000000,4.000000,4.000000,4.000000,4.000000,4.000000,4.000000,4.000000,4.000000,100.000000,,,,,,,,,,,,,,,,,,,,,,,,,,,,
1703494464.702595,1703494464.702960,120.000000,0.000000,4261.666504,4261.410156,4293.205078,4292.563965,4230.128418,4231.153809,4310.769043,4235.769043,4257.179688,4203.589844,4505.897461,4463.589844,4342.307617,4436.025879,6688.000000,4.000000,79.000000,,,,0.000000,4.000000,4.000000,4.000000,4.000000,4.000000,4.000000,4.000000,4.000000,4.000000,4.000000,4.000000,4.000000,4.000000,4.000000,100.000000,,,,,,,,,,,,,,,,,30.000000,0.000000,0.696457,0.074402,-0.670898,0.243530,0.969845,-0.224148,0.078623,-12.614143,-47.858128,66.293129
1703494464.710403,1703494464.710668,121.000000,0.000000,4270.256348,4264.230957,4298.589844,4294.230957,4230.128418,4233.333496,4312.948730,4240.769043,4248.974121,4200.641113,4507.436035,4469.102539,4350.512695,4451.538574,7008.000000,4.000000,79.000000,,,,0.000000,4.000000,4.000000,4.000000,4.000000,4.000000,4.000000,4.000000,4.000000,4.000000,4.000000,4.000000,4.000000,4.000000,4.000000,100.000000,,,,,,,,,,,,,,,,,,,,,,,,,,,,
1703494464.718211,1703494464.718476,122.000000,0.000000,4261.538574,4261.666504,4290.512695,4289.230957,4232.307617,4238.846191,4312.820313,4232.436035,4236.794922,4188.205078,4475.769043,4448.846191,4333.974121,4433.717773,5945.000000,4.000000,79.000000,,,,0.000000,4.000000,4.000000,4.000000,4.000000,4.000000,4.000000,4.000000,4.000000,4.000000,4.000000,4.000000,4.000000,4.000000,4.000000,100.000000,,,,,,,,,,,,,,,,,,,,,,,,,,,,
1703494464.726020,1703494464.726383,123.000000,0.000000,4252.051270,4268.974121,4284.487305,4286.282227,4240.256348,4244.487305,4309.615234,4214.871582,4220.384766,4177.436035,4460.384766,4432.820313,4311.922852,4416.410156,6229.000000,4.000000,79.000000,,,,0.000000,4.000000,4.000000,4.000000,4.000000,4.000000,4.000000,4.000000,4.000000,4.000000,4.000000,4.000000,4.000000,4.000000,4.000000,100.000000,,,,,,,,,,,,,,,,,,,,,,,,,,,,
1703494464.733827,1703494464.734191,124.000000,0.000000,4259.871582,4277.692383,4288.974121,4291.153809,4250.641113,4248.077148,4310.512695,4214.487305,4214.487305,4182.307617,4476.025879,4442.179688,4331.794922,4424.871582,6688.000000,4.000000,79.000000,,,,0.000000,4.000000,4.000000,4.000000,4.000000,4.000000,4.000000,4.000000,4.000000,4.000000,4.000000,4.000000,4.000000,4.000000,4.000000,100.000000,,,,,,,,,,,,,,,,,31.000000,0.000000,0.696452,0.074097,-0.670959,0.243469,0.965938,-0.214382,0.085948,-12.586062,-47.955650,66.430481
1703494464.741635,1703494464.741900,125.000000,0.000000,4267.820313,4281.153809,4294.358887,4296.922852,4253.461426,4246.410156,4308.205078,4215.128418,4209.358887,4187.948730,4484.230957,4447.307617,4352.436035,4428.333496,7008.000000,4.000000,79.000000,,,,0.000000,4.000000,4.000000,4.000000,4.000000,4.000000,4.000000,4.000000,4.000000,4.000000,4.000000,4.000000,4.000000,4.000000,4.000000,100.000000,,,,,,,,,,,,,,,,,,,,,,,,,,,,
1703494464.749444,1703494464.749808,126.000000,0.000000,4266.922852,4286.282227,4299.358887,4297.563965,4250.512695,4245.128418,4295.897461,4202.692383,4202.692383,4188.589844,4485.769043,4443.717773,4353.077148,4430.256348,5945.000000,4.000000,79.000000,,,,0.000000,4.000000,4.000000,4.000000,4.000000,4.000000,4.000000,4.000000,4.000000,4.000000,4.000000,4.000000,4.000000,4.000000,4.000000,100.000000,,,,,,,,,,,,,,,,,,,,,,,,,,,,
1703494464.757252,1703494464.757616,127.000000,0.000000,4266.794922,4286.666504,4300.512695,4294.871582,4247.563965,4244.358887,4285.000000,4196.282227,4205.256348,4188.974121,4491.794922,4446.538574,4358.589844,4441.410156,79.000000,4.000000,79.000000,,,,0.000000,4.000000,4.000000,4.000000,4.000000,4.000000,4.000000,4.000000,4.000000,4.000000,4.000000,4.000000,4.000000,4.000000,4.000000,100.000000,,,,,,,,,,,,,,,,,,,,,,,,,,,,
1703494464.765060,1703494464.765524,0.000000,0.000000,4265.897461,4280.256348,4296.282227,4293.589844,4246.666504,4242.307617,4282.692383,4208.077148,4222.051270,4194.615234,4492.563965,4446.922852,4359.871582,4438.461426,4832.000000,4.000000,79.000000,,,,0.000000,4.000000,4.000000,4.000000,4.000000,4.000000,4.000000,4.000000,4.000000,4.000000,4.000000,4.000000,4.000000,4.000000,4.000000,100.000000,,,,,,,,,,,,,,,,,0.000000,0.000000,0.696348,0.073975,-0.671082,0.243469,0.959590,-0.219265,0.081553,-12.677456,-47.926750,66.520767
1703494464.772868,1703494464.773332,1.000000,0.000000,4261.538574,4274.871582,4295.128418,4294.487305,4243.333496,4241.666504,4282.051270,4225.384766,4249.871582,4202.563965,4491.282227,4444.487305,4358.846191,4428.846191,5442.000000,4.000000,79.000000,,,,0.000000,4.000000,4.000000,4.000000,4.000000,4.000000,4.000000,4.000000,4.000000,4.000000,4.000000,4.000000,4.000000,4.000000,4.000000,100.000000,,,,,,,,,,,,,,,,,,,,,,,,,,,,
1703494464.780676,1703494464.781240,2.000000,0.000000,4260.641113,4275.000000,4294.743652,4288.077148,4236.922852,4243.205078,4282.692383,4235.512695,4267.051270,4205.641113,4490.769043,4443.974121,4369.230957,4436.025879,5420.000000,4.000000,79.000000,,,,0.000000,4.000000,4.000000,4.000000,4.000000,4.000000,4.000000,4.000000,4.000000,4.000000,4.000000,4.000000,4.000000,4.000000,4.000000,100.000000,,,,,,,,,,,,,,,,,,,,,,,,,,,,
1703494464.788484,1703494464.789048,3.000000,0.000000,4263.589844,4278.974121,4291.025879,4280.641113,4237.563965,4246.025879,4283.717773,4244.230957,4265.384766,4210.897461,4500.256348,4444.743652,4368.205078,4445.128418,5422.000000,4.000000,79.000000,,,,0.000000,4.000000,4.000000,4.000000,4.000000,4.000000,4.000000,4.000000,4.000000,4.000000,4.000000,4.000000,4.000000,4.000000,4.000000,100.000000,,,,,,,,,,,,,,,,,,,,,,,,,,,,
1703494464.796292,1703494464.796957,4.000000,0.000000,4265.769043,4278.974121,4290.769043,4284.615234,4248.717773,4248.077148,4284.102539,4249.230957,4264.102539,4218.461426,4510.384766,4448.461426,4361.153809,4445.256348,5268.000000,4.000000,79.000000,,,,0.000000,4.000000,4.000000,4.000000,4.000000,4.000000,4.000000,4.000000,4.000000,4.000000,4.000000,4.000000,4.000000,4.000000,4.000000,100.000000,,,,,,,,,,,,,,,,,1.000000,0.000000,0.696248,0.073853,-0.671265,0.243286,0.973263,-0.227078,0.088390,-12.759710,-47.900742,66.452026
1703494464.804100,1703494464.804765,5.000000,0.000000,4262.436035,4270.128418,4289.102539,4285.256348,4247.948730,4247.563965,4282.436035,4241.282227,4256.922852,4209.230957,4498.333496,4446.538574,4364.487305,4441.922852,5013.000000,4.000000,79.000000,,,,0.000000,4.000000,4.000000,4.000000,4.000000,4.000000,4.000000,4.000000,4.000000,4.000000,4.000000,4.000000,4.000000,4.000000,4.000000,100.000000,,,,,,,,,,,,,,,,,,,,,,,,,,,,
1703494464.811908,1703494464.812673,6.000000,0.000000,4257.307617,4262.436035,4285.897461,4276.282227,4234.615234,4244.102539,4273.077148,4225.897461,4236.666504,4197.820313,4485.000000,4441.794922,4361.666504,4435.769043,4270.000000,4.000000,79.000000,,,,0.000000,4.000000,4.000000,4.000000,4.000000,4.000000,4.000000,4.000000,4.000000,4.000000,4.000000,4.000000,4.000000,4.000000,4.000000,100.000000,,,,,,,,,,,,,,,,,,,,,,,,,,,,
1703494464.819716,1703494464.820481,7.000000,0.000000,4260.641113,4263.333496,4290.384766,4280.512695,4237.051270,4242.051270,4264.230957,4217.307617,4224.102539,4198.333496,4486.025879,4443.333496,4358.846191,4432.179688,4896.000000,4.000000,79.000000,,,,0.000000,4.000000,4.000000,4.000000,4.000000,4.000000,4.000000,4.000000,4.000000,4.000000,4.000000,4.000000,4.000000,4.000000,4.000000,100.000000,,,,,,,,,,,,,,,,,,,,,,,,,,,,
1703494464.827524,1703494464.828389,8.000000,0.000000,4266.025879,4262.179688,4297.179688,4294.487305,4250.000000,4246.282227,4261.922852,4213.589844,4218.974121,4190.641113,4479.743652,4444.743652,4356.538574,4431.666504,5228.000000,4.000000,79.000000,,,,0.000000,4.000000,4.000000,4.000000,4.000000,4.000000,4.000000,4.000000,4.000000,4.000000,4.000000,4.000000,4.000000,4.000000,4.000000,100.000000,,,,,,,,,,,,,,,,,2.000000,0.000000,0.696128,0.073669,-0.671387,0.243347,0.963985,-0.219265,0.085460,-12.850407,-47.694000,66.606819
1703494464.835332,1703494464.836197,9.000000,0.000000,4265.256348,4252.692383,4297.692383,4295.641113,4250.384766,4249.487305,4255.256348,4212.051270,4210.641113,4178.077148,4475.256348,4442.948730,4351.538574,4429.871582,5474.000000,4.000000,79.000000,,,,0.000000,4.000000,4.000000,4.000000,4.000000,4.000000,4.000000,4.000000,4.000000,4.000000,4.000000,4.000000,4.000000,4.000000,4.000000,100.000000,,,,,,,,,,,,,,,,,,,,,,,,,,,,
1703494464.843140,1703494464.844105,10.000000,0.000000,4268.846191,4242.948730,4300.769043,4292.051270,4245.512695,4247.179688,4246.153809,4213.461426,4213.077148,4183.333496,4490.512695,4443.589844,4361.538574,4434.871582,5951.000000,4.000000,79.000000,,,,0.000000,4.000000,4.000000,4.000000,4.000000,4.000000,4.000000,4.000000,4.000000,4.000000,4.000000,4.000000,4.000000,4.000000,4.000000,100.000000,,,,,,,,,,,,,,,,,,,,,,,,,,,,
1703494464.850948,1703494464.851913,11.000000,0.000000,4278.974121,4247.820313,4304.358887,4296.794922,4248.077148,4246.410156,4245.897461,4211.922852,4216.153809,4191.666504,4495.769043,4444.487305,4378.846191,4445.769043,6229.000000,4.000000,79.000000,,,,0.000000,4.000000,4.000000,4.000000,4.000000,4.000000,4.000000,4.000000,4.000000,4.000000,4.000000,4.000000,4.000000,4.000000,4.000000,100.000000,,,,,,,,,,,,,,,,,,,,,,,,,,,,
1703494464.858756,1703494464.859821,12.000000,0.000000,4276.666504,4259.871582,4301.922852,4299.358887,4249.615234,4246.410156,4234.487305,4211.794922,4213.717773,4188.461426,4486.410156,4443.205078,4373.333496,4444.615234,6700.000000,4.000000,79.000000,,,,0.000000,4.000000,4.000000,4.000000,4.000000,4.000000,4.000000,4.000000,4.000000,4.000000,4.000000,4.000000,4.000000,4.000000,4.000000,100.000000,,,,,,,,,,,,,,,,,3.000000,0.000000,0.696066,0.073547,-0.671509,0.243225,0.959590,-0.224148,0.082530,-12.698699,-47.574600,66.679474
1703494464.866564,1703494464.867629,13.000000,0.000000,4266.666504,4261.794922,4303.205078,4296.794922,4247.051270,4242.692383,4208.846191,4213.333496,4220.000000,4187.948730,4495.641113,4448.717773,4352.179688,4438.589844,7007.000000,4.000000,79.000000,,,,0.000000,4.000000,4.000000,4.000000,4.000000,4.000000,4.000000,4.000000,4.000000,4.000000,4.000000,4.000000,4.000000,4.000000,4.000000,100.000000,,,,,,,,,,,,,,,,,,,,,,,,,,,,
1703494464.874372,1703494464.875536,14.000000,0.000000,4269.230957,4255.769043,4309.358887,4295.000000,4247.179688,4243.333496,4199.230957,4216.922852,4234.487305,4199.615234,4513.205078,4461.666504,4359.102539,4447.948730,5951.000000,4.000000,79.000000,,,,0.000000,4.000000,4.000000,4.000000,4.000000,4.000000,4.000000,4.000000,4.000000,4.000000,4.000000,4.000000,4.000000,4.000000,4.000000,100.000000,,,,,,,,,,,,,,,,,,,,,,,,,,,,
1703494464.882181,1703494464.883445,15.000000,0.000000,4274.230957,4260.897461,4310.000000,4298.333496,4247.179688,4242.820313,4198.974121,4225.512695,4243.717773,4212.563965,4511.666504,4468.205078,4384.743652,4463.717773,6229.000000,4.000000,79.000000,,,,0.000000,4.000000,4.000000,4.000000,4.000000,4.000000,4.000000,4.000000,4.000000,4.000000,4.000000,4.000000,4.000000,4.000000,4.000000,100.000000,,,,,,,,,,,,,,,,,,,,,,,,,,,,
1703494464.889989,1703494464.891253,16.000000,0.000000,4269.230957,4267.820313,4306.282227,4298.846191,4247.563965,4235.641113,4190.769043,4232.820313,4247.563965,4217.051270,4503.205078,4465.384766,4388.077148,4462.820313,0.000000,4.000000,79.000000,,,,0.000000,4.000000,4.000000,4.000000,4.000000,4.000000,4.000000,4.000000,4.000000,4.000000,4.000000,4.000000,4.000000,4.000000,4.000000,100.000000,,,,,,,,,,,,,,,,,4.000000,0.000000,0.696078,0.073486,-0.671570,0.243042,0.966427,-0.240752,0.079111,-12.695496,-47.667141,66.428192
1703494464.897797,1703494464.899061,17.000000,0.000000,4261.666504,4257.692383,4299.230957,4286.538574,4243.461426,4236.410156,4185.512695,4235.384766,4256.666504,4217.563965,4505.641113,4462.948730,4377.179688,4447.820313,0.000000,4.000000,79.000000,,,,0.000000,4.000000,4.000000,4.000000,4.000000,4.000000,4.000000,4.000000,4.000000,4.000000,4.000000,4.000000,4.000000,4.000000,4.000000,100.000000,,,,,,,,,,,,,,,,,,,,,,,,,,,,
1703494464.905605,1703494464.906769,18.000000,0.000000,4260.641113,4245.641113,4291.153809,4275.897461,4240.384766,4243.846191,4185.128418,4236.410156,4267.051270,4219.102539,4511.153809,4461.282227,4382.948730,4446.410156,0.000000,4.000000,79.000000,,,,0.000000,4.000000,4.000000,4.000000,4.000000,4.000000,4.000000,4.000000,4.000000,4.000000,4.000000,4.000000,4.000000,4.000000,4.000000,100.000000,,,,,,,,,,,,,,,,,,,,,,,,,,,,
1703494464.913413,1703494464.914577,19.000000,0.000000,4260.897461,4246.282227,4288.461426,4279.615234,4244.871582,4244.743652,4179.230957,4235.769043,4263.461426,4220.256348,4509.871582,4458.205078,4391.538574,4437.179688,0.000000,4.000000,79.000000,,,,0.000000,4.000000,4.000000,4.000000,4.000000,4.000000,4.000000,4.000000,4.000000,4.000000,4.000000,4.000000,4.000000,4.000000,4.000000,100.000000,,,,,,,,,,,,,,,,,,,,,,,,,,,,
1703494464.921221,1703494464.922285,20.000000,0.000000,4256.153809,4248.205078,4292.563965,4282.179688,4247.436035,4244.230957,4169.358887,4234.358887,4249.358887,4215.512695,4504.358887,4456.538574,4386.922852,4391.666504,0.000000,4.000000,79.000000,,,,0.000000,4.000000,4.000000,4.000000,4.000000,4.000000,4.000000,4.000000,4.000000,4.000000,4.000000,4.000000,4.000000,4.000000,4.000000,100.000000,,,,,,,,,,,,,,,,,5.000000,0.000000,0.696201,0.073486,-0.671509,0.242859,0.966915,-0.217800,0.070321,-12.759279,-47.567093,66.418709
1703494464.929029,1703494464.930093,21.000000,0.000000,4254.487305,4247.051270,4296.025879,4279.487305,4243.589844,4246.922852,4160.512695,4229.358887,4240.000000,4205.000000,4508.846191,4455.000000,4388.589844,4361.153809,0.000000,4.000000,79.000000,,,,0.000000,4.000000,4.000000,4.000000,4.000000,4.000000,4.000000,4.000000,4.000000,4.000000,4.000000,4.000000,4.000000,4.000000,4.000000,100.000000,,,,,,,,,,,,,,,,,,,,,,,,,,,,
1703494464.936837,1703494464.937801,22.000000,0.000000,4261.666504,4248.974121,4299.871582,4283.846191,4245.000000,4248.205078,4150.128418,4220.769043,4233.589844,4198.333496,4518.205078,4458.461426,4397.692383,4378.461426,0.000000,4.000000,79.000000,,,,0.000000,4.000000,4.000000,4.000000,4.000000,4.000000,4.000000,4.000000,4.000000,4.000000,4.000000,4.000000,4.000000,4.000000,4.000000,100.000000,,,,,,,,,,,,,,,,,,,,,,,,,,,,
1703494464.944645,1703494464.945609,23.000000,0.000000,4268.077148,4250.128418,4306.153809,4292.436035,4249.615234,4250.000000,4140.384766,4219.743652,4226.538574,4197.820313,4515.769043,4468.717773,4397.948730,4395.641113,0.000000,4.000000,79.000000,,,,0.000000,4.000000,4.000000,4.000000,4.000000,4.000000,4.000000,4.000000,4.000000,4.000000,4.000000,4.000000,4.000000,4.000000,4.000000,100.000000,,,,,,,,,,,,,,,,,,,,,,,,,,,,
1703494464.952453,1703494464.953317,24.000000,0.000000,4266.666504,4248.846191,4306.666504,4291.922852,4248.589844,4253.077148,4135.897461,4231.153809,4234.230957,4207.436035,4514.615234,4474.487305,4393.589844,4393.589844,0.000000,4.000000,79.000000,,,,0.000000,4.000000,4.000000,4.000000,4.000000,4.000000,4.000000,4.000000,4.000000,4.000000,4.000000,4.000000,4.000000,4.000000,4.000000,100.000000,,,,,,,,,,,,,,,,,6.000000,0.000000,0.696364,0.073303,-0.671448,0.242615,0.961543,-0.233427,0.090831,-12.883351,-47.827049,66.476837
1703494464.960261,1703494464.961125,25.000000,0.000000,4267.051270,4250.512695,4305.000000,4285.000000,4248.461426,4252.563965,4137.307617,4241.153809,4249.615234,4218.077148,4522.436035,4474.358887,4394.615234,4398.077148,0.000000,4.000000,79.000000,,,,0.000000,4.000000,4.000000,4.000000,4.000000,4.000000,4.000000,4.000000,4.000000,4.000000,4.000000,4.000000,4.000000,4.000000,4.000000,100.000000,,,,,,,,,,,,,,,,,,,,,,,,,,,,
1703494464.968069,1703494464.968833,26.000000,0.000000,4268.077148,4249.102539,4305.512695,4281.794922,4248.974121,4249.871582,4135.256348,4243.717773,4251.538574,4216.282227,4523.589844,4477.307617,4384.102539,4400.641113,0.000000,4.000000,79.000000,,,,0.000000,4.000000,4.000000,4.000000,4.000000,4.000000,4.000000,4.000000,4.000000,4.000000,4.000000,4.000000,4.000000,4.000000,4.000000,100.000000,,,,,,,,,,,,,,,,,,,,,,,,,,,,
1703494464.975877,1703494464.976641,27.000000,0.000000,4265.769043,4244.615234,4305.512695,4284.358887,4248.077148,4246.025879,4125.512695,4245.897461,4248.333496,4212.307617,4523.717773,4480.000000,4366.666504,4403.589844,0.000000,4.000000,79.000000,,,,0.000000,4.000000,4.000000,4.000000,4.000000,4.000000,4.000000,4.000000,4.000000,4.000000,4.000000,4.000000,4.000000,4.000000,4.000000,100.000000,,,,,,,,,,,,,,,,,,,,,,,,,,,,
1703494464.983685,1703494464.984349,28.000000,0.000000,4264.358887,4240.512695,4304.615234,4283.846191,4246.410156,4244.358887,4122.051270,4249.358887,4255.384766,4215.641113,4523.077148,4477.692383,4364.615234,4411.794922,0.000000,4.000000,79.000000,,,,0.000000,4.000000,4.000000,4.000000,4.000000,4.000000,4.000000,4.000000,4.000000,4.000000,4.000000,4.000000,4.000000,4.000000,4.000000,100.000000,,,,,,,,,,,,,,,,,7.000000,0.000000,0.696522,0.073120,-0.671326,0.242554,0.966427,-0.217800,0.085460,-12.695016,-47.844345,66.379150
1703494464.991493,1703494464.992157,29.000000,0.000000,4253.589844,4232.563965,4298.974121,4276.538574,4238.461426,4243.846191,4122.692383,4250.384766,4262.563965,4216.153809,4508.974121,4484.358887,4370.769043,4405.512695,0.000000,4.000000,79.000000,,,,0.000000,4.000000,4.000000,4.000000,4.000000,4.000000,4.000000,4.000000,4.000000,4.000000,4.000000,4.000000,4.000000,4.000000,4.000000,100.000000,,,,,,,,,,,,,,,,,,,,,,,,,,,,
1703494464.999301,1703494464.999865,30.000000,0.000000,4248.333496,4234.358887,4294.615234,4275.769043,4230.897461,4243.974121,4116.153809,4250.384766,4263.333496,4214.102539,4506.666504,4503.589844,4376.538574,4400.897461,0.000000,4.000000,79.000000,,,,0.000000,4.000000,4.000000,4.000000,4.000000,4.000000,4.000000,4.000000,4.000000,4.000000,4.000000,4.000000,4.000000,4.000000,4.000000,100.000000,1.000000,75.000000,4.000000,4.000000,4.000000,4.000000,4.000000,4.000000,1.000000,4.000000,4.000000,4.000000,4.000000,4.000000,4.000000,4.000000,,,,,,,,,,,,
1703494465.007109,1703494465.007773,31.000000,0.000000,4258.846191,4244.102539,4298.717773,4281.410156,4233.333496,4246.794922,4108.846191,4252.179688,4267.307617,4217.307617,4520.384766,4515.000000,4379.615234,4409.743652,0.000000,4.000000,79.000000,,,,0.000000,4.000000,4.000000,4.000000,4.000000,4.000000,4.000000,4.000000,4.000000,4.000000,4.000000,4.000000,4.000000,4.000000,4.000000,100.000000,,,,,,,,,,,,,,,,,,,,,,,,,,,,
1703494465.014917,1703494465.015581,32.000000,0.000000,4257.179688,4239.871582,4303.333496,4277.820313,4235.384766,4247.179688,4102.307617,4250.256348,4269.230957,4215.769043,4521.794922,4512.051270,4383.077148,4414.487305,0.000000,4.000000,79.000000,,,,0.000000,4.000000,4.000000,4.000000,4.000000,4.000000,4.000000,4.000000,4.000000,4.000000,4.000000,4.000000,4.000000,4.000000,4.000000,100.000000,,,,,,,,,,,,,,,,,8.000000,0.000000,0.696628,0.072876,-0.671265,0.242493,0.963008,-0.227567,0.078623,-12.708848,-47.809910,66.257904
1703494465.022725,1703494465.023489,33.000000,0.000000,4248.333496,4235.000000,4303.205078,4273.205078,4233.717773,4244.230957,4093.076904,4234.358887,4252.436035,4204.102539,4507.179688,4507.692383,4379.871582,4407.563965,0.000000,4.000000,79.000000,,,,0.000000,4.000000,4.000000,4.000000,4.000000,4.000000,4.000000,4.000000,4.000000,4.000000,4.000000,4.000000,4.000000,4.000000,4.000000,100.000000,,,,,,,,,,,,,,,,,,,,,,,,,,,,
1703494465.030533,1703494465.031297,34.000000,0.000000,4257.820313,4249.871582,4301.922852,4277.692383,4239.230957,4245.641113,4090.256348,4218.461426,4231.410156,4195.769043,4494.487305,4506.410156,4369.102539,4401.410156,0.000000,4.000000,79.000000,,,,0.000000,4.000000,4.000000,4.000000,4.000000,4.000000,4.000000,4.000000,4.000000,4.000000,4.000000,4.000000,4.000000,4.000000,4.000000,100.000000,,,,,,,,,,,,,,,,,,,,,,,,,,,,
1703494465.038341,1703494465.039205,35.000000,0.000000,4267.307617,4264.358887,4302.307617,4281.025879,4247.436035,4246.794922,4091.153809,4214.230957,4227.820313,4197.436035,4495.000000,4496.794922,4363.974121,4403.974121,0.000000,4.000000,79.000000,,,,0.000000,4.000000,4.000000,4.000000,4.000000,4.000000,4.000000,4.000000,4.000000,4.000000,4.000000,4.000000,4.000000,4.000000,4.000000,100.000000,,,,,,,,,,,,,,,,,,,,,,,,,,,,
1703494465.046150,1703494465.047113,36.000000,0.000000,4261.025879,4264.487305,4302.436035,4278.717773,4248.589844,4244.358887,4085.128174,4215.000000,4233.717773,4199.615234,4500.897461,4472.179688,4364.102539,4407.820313,0.000000,4.000000,79.000000,,,,0.000000,4.000000,4.000000,4.000000,4.000000,4.000000,4.000000,4.000000,4.000000,4.000000,4.000000,4.000000,4.000000,4.000000,4.000000,100.000000,,,,,,,,,,,,,,,,,9.000000,0.000000,0.696569,0.072876,-0.671326,0.242493,0.966915,-0.228055,0.081065,-12.537963,-47.912254,66.315445
1703494465.053958,1703494465.055021,37.000000,0.000000,4260.769043,4269.743652,4303.974121,4279.743652,4248.205078,4244.871582,4077.820557,4219.358887,4240.384766,4205.384766,4510.512695,4457.179688,4367.820313,4413.717773,0.000000,4.000000,79.000000,,,,0.000000,4.000000,4.000000,4.000000,4.000000,4.000000,4.000000,4.000000,4.000000,4.000000,4.000000,4.000000,4.000000,4.000000,4.000000,100.000000,,,,,,,,,,,,,,,,,,,,,,,,,,,,
1703494465.061766,1703494465.062830,38.000000,0.000000,4269.102539,4272.436035,4303.589844,4281.025879,4249.230957,4247.563965,4075.769287,4230.128418,4248.717773,4216.282227,4521.666504,4466.282227,4377.563965,4423.717773,0.000000,4.000000,79.000000,,,,0.000000,4.000000,4.000000,4.000000,4.000000,4.000000,4.000000,4.000000,4.000000,4.000000,4.000000,4.000000,4.000000,4.000000,4.000000,100.000000,,,,,,,,,,,,,,,,,,,,,,,,,,,,
1703494465.069574,1703494465.070638,39.000000,0.000000,4268.205078,4266.666504,4299.871582,4278.461426,4250.769043,4248.589844,4075.769287,4234.743652,4247.948730,4217.948730,4520.512695,4470.128418,4382.563965,4429.487305,0.000000,4.000000,79.000000,,,,0.000000,4.000000,4.000000,4.000000,4.000000,4.000000,4.000000,4.000000,4.000000,4.000000,4.000000,4.000000,4.000000,4.000000,4.000000,100.000000,,,,,,,,,,,,,,,,,,,,,,,,,,,,
1703494465.077382,1703494465.078447,40.000000,0.000000,4265.128418,4270.512695,4298.589844,4279.358887,4251.666504,4248.461426,4076.794922,4233.333496,4240.641113,4211.794922,4511.025879,4465.512695,4370.384766,4428.846191,0.000000,4.000000,79.000000,,,,0.000000,4.000000,4.000000,4.000000,4.000000,4.000000,4.000000,4.000000,4.000000,4.000000,4.000000,4.000000,4.000000,4.000000,4.000000,100.000000,,,,,,,,,,,,,,,,,10.000000,0.000000,0.696322,0.072937,-0.671509,0.242676,0.961055,-0.229032,0.083995,-12.450833,-47.804363,66.217239
1703494465.085190,1703494465.086255,41.000000,0.000000,4263.846191,4276.025879,4303.077148,4276.794922,4248.589844,4245.769043,4072.435791,4241.666504,4245.641113,4213.333496,4515.128418,4471.282227,4360.769043,4429.871582,0.000000,4.000000,79.000000,,,,0.000000,4.000000,4.000000,4.000000,4.000000,4.000000,4.000000,4.000000,4.000000,4.000000,4.000000,4.000000,4.000000,4.000000,4.000000,100.000000,,,,,,,,,,,,,,,,,,,,,,,,,,,,
1703494465.092998,1703494465.094064,42.000000,0.000000,4257.051270,4269.102539,4302.948730,4266.153809,4241.666504,4242.436035,4063.333252,4251.025879,4252.563965,4219.102539,4525.256348,4473.589844,4367.948730,4432.436035,0.000000,4.000000,79.000000,,,,0.000000,4.000000,4.000000,4.000000,4.000000,4.000000,4.000000,4.000000,4.000000,4.000000,4.000000,4.000000,4.000000,4.000000,4.000000,100.000000,,,,,,,,,,,,,,,,,,,,,,,,,,,,
1703494465.100806,1703494465.101772,43.000000,0.000000,4247.820313,4257.051270,4295.256348,4260.000000,4240.128418,4244.230957,4058.461426,4244.615234,4246.922852,4216.153809,4519.487305,4465.384766,4367.307617,4428.589844,0.000000,4.000000,79.000000,,,,0.000000,4.000000,4.000000,4.000000,4.000000,4.000000,4.000000,4.000000,4.000000,4.000000,4.000000,4.000000,4.000000,4.000000,4.000000,100.000000,,,,,,,,,,,,,,,,,,,,,,,,,,,,
1703494465.108614,1703494465.109580,44.000000,0.000000,4245.256348,4257.563965,4293.461426,4263.077148,4245.769043,4246.922852,4056.794922,4234.487305,4246.538574,4206.153809,4507.179688,4458.717773,4342.436035,4420.512695,0.000000,4.000000,79.000000,,,,0.000000,4.000000,4.000000,4.000000,4.000000,4.000000,4.000000,4.000000,4.000000,4.000000,4.000000,4.000000,4.000000,4.000000,4.000000,100.000000,,,,,,,,,,,,,,,,,11.000000,0.000000,0.696267,0.073059,-0.671509,0.242798,0.976193,-0.225613,0.088390,-12.289083,-47.673923,66.128845
1703494465.116422,1703494465.117288,45.000000,0.000000,4245.256348,4262.692383,4297.307617,4262.948730,4248.333496,4245.000000,4045.769287,4232.051270,4246.666504,4200.384766,4495.512695,4453.974121,4321.025879,4412.820313,0.000000,4.000000,79.000000,,,,0.000000,4.000000,4.000000,4.000000,4.000000,4.000000,4.000000,4.000000,4.000000,4.000000,4.000000,4.000000,4.000000,4.000000,4.000000,100.000000,,,,,,,,,,,,,,,,,,,,,,,,,,,,
1703494465.124230,1703494465.125096,46.000000,0.000000,4242.948730,4260.512695,4298.077148,4261.794922,4248.461426,4246.538574,4032.564209,4229.743652,4236.153809,4200.384766,4486.282227,4447.436035,4327.307617,4410.000000,0.000000,4.000000,79.000000,,,,0.000000,4.000000,4.000000,4.000000,4.000000,4.000000,4.000000,4.000000,4.000000,4.000000,4.000000,4.000000,4.000000,4.000000,4.000000,100.000000,,,,,,,,,,,,,,,,,,,,,,,,,,,,
1703494465.132038,1703494465.132804,47.000000,0.000000,4249.102539,4263.333496,4300.641113,4273.589844,4259.102539,4255.128418,4035.384521,4226.282227,4235.512695,4209.358887,4494.102539,4448.974121,4348.974121,4418.974121,0.000000,4.000000,79.000000,,,,0.000000,4.000000,4.000000,4.000000,4.000000,4.000000,4.000000,4.000000,4.000000,4.000000,4.000000,4.000000,4.000000,4.000000,4.000000,100.000000,,,,,,,,,,,,,,,,,,,,,,,,,,,,
1703494465.139846,1703494465.140612,48.000000,0.000000,4260.897461,4267.820313,4308.205078,4280.897461,4266.794922,4257.179688,4038.974365,4228.333496,4245.512695,4223.205078,4514.743652,4457.307617,4366.282227,4430.000000,0.000000,4.000000,79.000000,,,,0.000000,4.000000,4.000000,4.000000,4.000000,4.000000,4.000000,4.000000,4.000000,4.000000,4.000000,4.000000,4.000000,4.000000,4.000000,100.000000,,,,,,,,,,,,,,,,,12.000000,0.000000,0.696165,0.073059,-0.671570,0.242920,0.979123,-0.228544,0.073251,-12.276842,-47.589867,66.299294
1703494465.147654,1703494465.148320,49.000000,0.000000,4262.307617,4258.461426,4309.230957,4269.871582,4259.487305,4248.974121,4027.948730,4231.282227,4246.794922,4225.769043,4520.000000,4460.512695,4368.589844,4434.230957,0.000000,4.000000,79.000000,,,,0.000000,4.000000,4.000000,4.000000,4.000000,4.000000,4.000000,4.000000,4.000000,4.000000,4.000000,4.000000,4.000000,4.000000,4.000000,100.000000,,,,,,,,,,,,,,,,,,,,,,,,,,,,
1703494465.155462,1703494465.156128,50.000000,0.000000,4262.051270,4245.384766,4304.487305,4265.641113,4254.743652,4247.051270,4017.692383,4234.871582,4245.641113,4224.358887,4515.384766,4460.769043,4361.538574,4440.000000,0.000000,4.000000,79.000000,,,,0.000000,4.000000,4.000000,4.000000,4.000000,4.000000,4.000000,4.000000,4.000000,4.000000,4.000000,4.000000,4.000000,4.000000,4.000000,100.000000,,,,,,,,,,,,,,,,,,,,,,,,,,,,
1703494465.163270,1703494465.163836,51.000000,0.000000,4270.256348,4251.153809,4307.436035,4278.589844,4256.025879,4247.563965,4012.692383,4243.333496,4248.333496,4228.077148,4520.256348,4465.256348,4363.717773,4448.589844,0.000000,4.000000,79.000000,,,,0.000000,4.000000,4.000000,4.000000,4.000000,4.000000,4.000000,4.000000,4.000000,4.000000,4.000000,4.000000,4.000000,4.000000,4.000000,100.000000,,,,,,,,,,,,,,,,,,,,,,,,,,,,
1703494465.171078,1703494465.171644,52.000000,0.000000,4274.487305,4256.538574,4313.717773,4282.948730,4251.153809,4238.846191,4008.205078,4249.487305,4255.000000,4230.769043,4527.436035,4471.666504,4374.230957,4449.487305,0.000000,4.000000,79.000000,,,,0.000000,4.000000,4.000000,4.000000,4.000000,4.000000,4.000000,4.000000,4.000000,4.000000,4.000000,4.000000,4.000000,4.000000,4.000000,100.000000,,,,,,,,,,,,,,,,,13.000000,0.000000,0.695952,0.072998,-0.671753,0.243042,0.961055,-0.224148,0.079111,-12.215824,-47.480881,66.369362
1703494465.178886,1703494465.179352,53.000000,0.000000,4265.897461,4245.000000,4311.538574,4277.179688,4245.641113,4232.436035,4003.846191,4250.897461,4264.102539,4228.461426,4524.358887,4471.794922,4371.153809,4445.256348,0.000000,4.000000,79.000000,,,,0.000000,4.000000,4.000000,4.000000,4.000000,4.000000,4.000000,4.000000,4.000000,4.000000,4.000000,4.000000,4.000000,4.000000,4.000000,100.000000,,,,,,,,,,,,,,,,,,,,,,,,,,,,
1703494465.186695,1703494465.187260,54.000000,0.000000,4258.974121,4237.436035,4306.410156,4276.794922,4245.000000,4233.461426,3996.794922,4254.102539,4268.846191,4224.743652,4516.666504,4465.897461,4359.871582,4445.512695,0.000000,4.000000,79.000000,,,,0.000000,4.000000,4.000000,4.000000,4.000000,4.000000,4.000000,4.000000,4.000000,4.000000,4.000000,4.000000,4.000000,4.000000,4.000000,100.000000,,,,,,,,,,,,,,,,,,,,,,,,,,,,
1703494465.194502,1703494465.195068,55.000000,0.000000,4261.025879,4244.487305,4304.230957,4278.717773,4247.307617,4234.743652,3989.102539,4250.000000,4261.025879,4217.051270,4511.282227,4457.436035,4354.230957,4439.615234,0.000000,4.000000,79.000000,,,,0.000000,4.000000,4.000000,4.000000,4.000000,4.000000,4.000000,4.000000,4.000000,4.000000,4.000000,4.000000,4.000000,4.000000,4.000000,100.000000,,,,,,,,,,,,,,,,,,,,,,,,,,,,
1703494465.202311,1703494465.202976,56.000000,0.000000,4261.282227,4250.384766,4300.128418,4282.948730,4253.717773,4240.641113,3983.846191,4238.205078,4253.846191,4214.230957,4508.077148,4451.666504,4356.282227,4430.256348,0.000000,4.000000,79.000000,,,,0.000000,4.000000,4.000000,4.000000,4.000000,4.000000,4.000000,4.000000,4.000000,4.000000,4.000000,4.000000,4.000000,4.000000,4.000000,100.000000,,,,,,,,,,,,,,,,,14.000000,0.000000,0.695811,0.072815,-0.671875,0.243164,0.957148,-0.240752,0.067879,-12.427575,-47.332790,66.432426
1703494465.210119,1703494465.210784,57.000000,0.000000,4258.717773,4249.230957,4298.589844,4291.410156,4262.179688,4249.743652,3977.435791,4234.487305,4254.743652,4220.897461,4509.230957,4455.641113,4362.948730,4434.615234,0.000000,4.000000,79.000000,,,,0.000000,4.000000,4.000000,4.000000,4.000000,4.000000,4.000000,4.000000,4.000000,4.000000,4.000000,4.000000,4.000000,4.000000,4.000000,100.000000,,,,,,,,,,,,,,,,,,,,,,,,,,,,
1703494465.217927,1703494465.218692,58.000000,0.000000,4262.563965,4255.641113,4302.436035,4297.307617,4263.333496,4248.717773,3970.384521,4235.897461,4251.922852,4219.871582,4511.794922,4461.922852,4361.538574,4442.948730,0.000000,4.000000,79.000000,,,,0.000000,4.000000,4.000000,4.000000,4.000000,4.000000,4.000000,4.000000,4.000000,4.000000,4.000000,4.000000,4.000000,4.000000,4.000000,100.000000,,,,,,,,,,,,,,,,,,,,,,,,,,,,
1703494465.225735,1703494465.226500,59.000000,0.000000,4268.077148,4267.563965,4304.615234,4298.717773,4259.358887,4244.102539,3968.333252,4228.717773,4240.769043,4217.051270,4514.487305,4460.000000,4358.077148,4444.615234,0.000000,4.000000,79.000000,,,,0.000000,4.000000,4.000000,4.000000,4.000000,4.000000,4.000000,4.000000,4.000000,4.000000,4.000000,4.000000,4.000000,4.000000,4.000000,100.000000,,,,,,,,,,,,,,,,,,,,,,,,,,,,
1703494465.233543,1703494465.234408,60.000000,0.000000,4266.922852,4266.922852,4302.563965,4297.307617,4255.512695,4246.410156,3968.333252,4218.717773,4231.025879,4217.948730,4514.230957,4455.769043,4357.179688,4439.358887,0.000000,4.000000,79.000000,,,,0.000000,4.000000,4.000000,4.000000,4.000000,4.000000,4.000000,4.000000,4.000000,4.000000,4.000000,4.000000,4.000000,4.000000,4.000000,100.000000,,,,,,,,,,,,,,,,,15.000000,0.000000,0.695854,0.072449,-0.671936,0.242981,0.966427,-0.242217,0.084971,-12.551484,-47.399513,66.339188
1703494465.241351,1703494465.242216,61.000000,0.000000,4263.846191,4264.615234,4306.025879,4297.436035,4253.205078,4248.846191,3972.564209,4217.820313,4227.820313,4214.615234,4510.384766,4456.538574,4352.436035,4432.820313,0.000000,4.000000,79.000000,,,,0.000000,4.000000,4.000000,4.000000,4.000000,4.000000,4.000000,4.000000,4.000000,4.000000,4.000000,4.000000,4.000000,4.000000,4.000000,100.000000,,,,,,,,,,,,,,,,,,,,,,,,,,,,
1703494465.249159,1703494465.250124,62.000000,0.000000,4268.077148,4271.410156,4311.922852,4298.205078,4250.512695,4248.846191,3974.871826,4221.538574,4224.615234,4211.794922,4510.641113,4460.897461,4350.641113,4433.589844,0.000000,4.000000,79.000000,,,,0.000000,4.000000,4.000000,4.000000,4.000000,4.000000,4.000000,4.000000,4.000000,4.000000,4.000000,4.000000,4.000000,4.000000,4.000000,100.000000,,,,,,,,,,,,,,,,,,,,,,,,,,,,
1703494465.256967,1703494465.257932,63.000000,0.000000,4264.230957,4264.102539,4305.000000,4290.384766,4247.692383,4248.461426,3964.230713,4225.769043,4228.461426,4216.538574,4511.538574,4462.051270,4349.743652,4434.615234,0.000000,4.000000,79.000000,,,,0.000000,4.000000,4.000000,4.000000,4.000000,4.000000,4.000000,4.000000,4.000000,4.000000,4.000000,4.000000,4.000000,4.000000,4.000000,100.000000,,,,,,,,,,,,,,,,,,,,,,,,,,,,
1703494465.264775,1703494465.265739,64.000000,0.000000,4248.589844,4246.666504,4294.230957,4278.717773,4244.743652,4244.615234,3957.948730,4234.358887,4238.717773,4214.230957,4504.487305,4454.487305,4336.025879,4420.384766,4834.000000,4.000000,79.000000,,,,0.000000,4.000000,4.000000,4.000000,4.000000,4.000000,4.000000,4.000000,4.000000,4.000000,4.000000,4.000000,4.000000,4.000000,4.000000,100.000000,,,,,,,,,,,,,,,,,16.000000,0.000000,0.695826,0.072205,-0.672058,0.242798,0.963008,-0.221218,0.077158,-12.629669,-47.409561,66.388603
1703494465.272583,1703494465.273547,65.000000,0.000000,4247.948730,4252.692383,4295.641113,4279.230957,4243.461426,4243.461426,3958.333252,4242.436035,4244.358887,4203.717773,4498.461426,4448.846191,4320.641113,4408.461426,5442.000000,4.000000,79.000000,,,,0.000000,4.000000,4.000000,4.000000,4.000000,4.000000,4.000000,4.000000,4.000000,4.000000,4.000000,4.000000,4.000000,4.000000,4.000000,100.000000,,,,,,,,,,,,,,,,,,,,,,,,,,,,
1703494465.280391,1703494465.281256,66.000000,0.000000,4255.897461,4267.820313,4299.102539,4283.974121,4246.922852,4247.692383,3952.307617,4250.384766,4260.897461,4215.512695,4509.102539,4456.025879,4329.871582,4419.358887,5420.000000,4.000000,79.000000,,,,0.000000,4.000000,4.000000,4.000000,4.000000,4.000000,4.000000,4.000000,4.000000,4.000000,4.000000,4.000000,4.000000,4.000000,4.000000,100.000000,,,,,,,,,,,,,,,,,,,,,,,,,,,,
1703494465.288199,1703494465.289064,67.000000,0.000000,4251.025879,4262.948730,4295.128418,4281.025879,4249.102539,4244.743652,3939.615479,4258.333496,4281.794922,4237.307617,4523.333496,4460.769043,4350.000000,4429.102539,5422.000000,4.000000,79.000000,,,,0.000000,4.000000,4.000000,4.000000,4.000000,4.000000,4.000000,4.000000,4.000000,4.000000,4.000000,4.000000,4.000000,4.000000,4.000000,100.000000,,,,,,,,,,,,,,,,,,,,,,,,,,,,
1703494465.296007,1703494465.296772,68.000000,0.000000,4248.974121,4260.897461,4292.436035,4281.025879,4248.205078,4236.025879,3932.692383,4257.436035,4278.461426,4238.717773,4524.102539,4458.846191,4357.179688,4425.000000,5268.000000,4.000000,79.000000,,,,0.000000,4.000000,4.000000,4.000000,4.000000,4.000000,4.000000,4.000000,4.000000,4.000000,4.000000,4.000000,4.000000,4.000000,4.000000,100.000000,,,,,,,,,,,,,,,,,17.000000,0.000000,0.695887,0.072021,-0.672058,0.242676,0.960566,-0.230985,0.080088,-12.583369,-47.435272,66.249741
1703494465.303815,1703494465.304580,69.000000,0.000000,4265.384766,4276.538574,4299.615234,4291.025879,4250.641113,4241.794922,3937.307617,4255.000000,4263.846191,4236.922852,4530.256348,4473.717773,4362.820313,4433.589844,5013.000000,4.000000,79.000000,,,,0.000000,4.000000,4.000000,4.000000,4.000000,4.000000,4.000000,4.000000,4.000000,4.000000,4.000000,4.000000,4.000000,4.000000,4.000000,100.000000,,,,,,,,,,,,,,,,,,,,,,,,,,,,
1703494465.311623,1703494465.312288,70.000000,0.000000,4278.846191,4282.051270,4310.128418,4296.922852,4246.025879,4248.333496,3939.102539,4261.538574,4267.820313,4250.128418,4553.461426,4494.615234,4379.487305,4459.487305,4310.000000,4.000000,79.000000,,,,0.000000,4.000000,4.000000,4.000000,4.000000,4.000000,4.000000,4.000000,4.000000,4.000000,4.000000,4.000000,4.000000,4.000000,4.000000,100.000000,,,,,,,,,,,,,,,,,,,,,,,,,,,,
1703494465.319431,1703494465.320196,71.000000,0.000000,4274.358887,4273.205078,4311.025879,4294.743652,4235.256348,4238.589844,3931.281982,4261.153809,4272.563965,4256.282227,4561.922852,4491.282227,4383.846191,4466.922852,4896.000000,4.000000,79.000000,,,,0.000000,4.000000,4.000000,4.000000,4.000000,4.000000,4.000000,4.000000,4.000000,4.000000,4.000000,4.000000,4.000000,4.000000,4.000000,100.000000,,,,,,,,,,,,,,,,,,,,,,,,,,,,
1703494465.327239,1703494465.328004,72.000000,0.000000,4267.051270,4270.897461,4304.615234,4293.589844,4233.205078,4230.641113,3926.923096,4242.179688,4252.307617,4241.025879,4541.410156,4474.358887,4369.102539,4449.871582,5225.000000,4.000000,79.000000,,,,0.000000,4.000000,4.000000,4.000000,4.000000,4.000000,4.000000,4.000000,4.000000,4.000000,4.000000,4.000000,4.000000,4.000000,4.000000,100.000000,,,,,,,,,,,,,,,,,18.000000,0.000000,0.695980,0.071899,-0.671997,0.242615,0.965450,-0.218288,0.081553,-12.658365,-47.491745,66.224770
1703494465.335047,1703494465.335912,73.000000,0.000000,4264.871582,4271.153809,4303.589844,4294.743652,4236.282227,4234.230957,3927.948730,4221.025879,4223.717773,4220.641113,4524.871582,4466.153809,4355.128418,4438.077148,5474.000000,4.000000,79.000000,,,,0.000000,4.000000,4.000000,4.000000,4.000000,4.000000,4.000000,4.000000,4.000000,4.000000,4.000000,4.000000,4.000000,4.000000,4.000000,100.000000,,,,,,,,,,,,,,,,,,,,,,,,,,,,
1703494465.342856,1703494465.343720,74.000000,0.000000,4266.282227,4267.307617,4302.820313,4293.077148,4233.974121,4233.589844,3922.692383,4213.077148,4216.410156,4210.384766,4519.871582,4458.846191,4343.974121,4432.692383,5950.000000,4.000000,79.000000,,,,0.000000,4.000000,4.000000,4.000000,4.000000,4.000000,4.000000,4.000000,4.000000,4.000000,4.000000,4.000000,4.000000,4.000000,4.000000,100.000000,,,,,,,,,,,,,,,,,,,,,,,,,,,,
1703494465.350664,1703494465.351628,75.000000,0.000000,4260.769043,4265.000000,4295.641113,4292.307617,4235.897461,4232.307617,3921.025635,4219.615234,4226.666504,4212.051270,4509.230957,4449.487305,4340.256348,4426.410156,6235.000000,4.000000,79.000000,,,,0.000000,4.000000,4.000000,4.000000,4.000000,4.000000,4.000000,4.000000,4.000000,4.000000,4.000000,4.000000,4.000000,4.000000,4.000000,100.000000,,,,,,,,,,,,,,,,,,,,,,,,,,,,
1703494465.358472,1703494465.359437,76.000000,0.000000,4249.358887,4264.358887,4290.897461,4294.743652,4244.102539,4239.230957,3924.358887,4231.538574,4233.077148,4213.461426,4504.230957,4448.717773,4346.153809,4424.743652,6700.000000,4.000000,79.000000,,,,0.000000,4.000000,4.000000,4.000000,4.000000,4.000000,4.000000,4.000000,4.000000,4.000000,4.000000,4.000000,4.000000,4.000000,4.000000,100.000000,,,,,,,,,,,,,,,,,19.000000,0.000000,0.696025,0.071716,-0.672058,0.242371,0.959590,-0.222195,0.073251,-12.542529,-47.542568,66.318954
1703494465.366280,1703494465.367245,77.000000,0.000000,4248.333496,4262.563965,4290.000000,4293.974121,4245.512695,4242.436035,3916.410156,4239.615234,4237.820313,4215.000000,4513.461426,4451.410156,4349.230957,4423.974121,7007.000000,4.000000,79.000000,,,,0.000000,4.000000,4.000000,4.000000,4.000000,4.000000,4.000000,4.000000,4.000000,4.000000,4.000000,4.000000,4.000000,4.000000,4.000000,100.000000,,,,,,,,,,,,,,,,,,,,,,,,,,,,
1703494465.374088,1703494465.374953,78.000000,0.000000,4257.820313,4264.358887,4288.461426,4290.512695,4244.871582,4243.077148,3907.948730,4248.333496,4252.307617,4223.974121,4521.666504,4454.230957,4353.461426,4428.461426,5950.000000,4.000000,79.000000,,,,0.000000,4.000000,4.000000,4.000000,4.000000,4.000000,4.000000,4.000000,4.000000,4.000000,4.000000,4.000000,4.000000,4.000000,4.000000,100.000000,,,,,,,,,,,,,,,,,,,,,,,,,,,,
1703494465.381896,1703494465.382861,79.000000,0.000000,4263.974121,4267.563965,4290.512695,4289.487305,4246.666504,4242.563965,3909.743652,4252.436035,4265.256348,4236.153809,4528.717773,4459.102539,4366.666504,4441.153809,6235.000000,4.000000,79.000000,,,,0.000000,4.000000,4.000000,4.000000,4.000000,4.000000,4.000000,4.000000,4.000000,4.000000,4.000000,4.000000,4.000000,4.000000,4.000000,100.000000,,,,,,,,,,,,,,,,,,,,,,,,,,,,
1703494465.389704,1703494465.390669,80.000000,0.000000,4265.128418,4269.230957,4295.128418,4291.282227,4244.743652,4237.179688,3911.666748,4249.743652,4267.436035,4244.230957,4537.179688,4463.333496,4377.051270,4446.666504,6700.000000,4.000000,79.000000,,,,0.000000,4.000000,4.000000,4.000000,4.000000,4.000000,4.000000,4.000000,4.000000,4.000000,4.000000,4.000000,4.000000,4.000000,4.000000,100.000000,,,,,,,,,,,,,,,,,20.000000,0.000000,0.696142,0.071777,-0.671997,0.242188,0.955683,-0.234404,0.073251,-12.588276,-47.521645,66.387062
1703494465.397512,1703494465.398577,81.000000,0.000000,4263.205078,4268.461426,4297.436035,4290.641113,4238.205078,4238.846191,3910.512939,4252.563965,4264.487305,4243.205078,4536.153809,4464.487305,4376.922852,4445.256348,7007.000000,4.000000,79.000000,,,,0.000000,4.000000,4.000000,4.000000,4.000000,4.000000,4.000000,4.000000,4.000000,4.000000,4.000000,4.000000,4.000000,4.000000,4.000000,100.000000,,,,,,,,,,,,,,,,,,,,,,,,,,,,
1703494465.405320,1703494465.406385,82.000000,0.000000,4256.025879,4261.025879,4298.077148,4283.846191,4234.487305,4246.922852,3913.974365,4249.871582,4256.794922,4231.153809,4529.102539,4463.205078,4366.282227,4442.820313,5950.000000,4.000000,79.000000,,,,0.000000,4.000000,4.000000,4.000000,4.000000,4.000000,4.000000,4.000000,4.000000,4.000000,4.000000,4.000000,4.000000,4.000000,4.000000,100.000000,,,,,,,,,,,,,,,,,,,,,,,,,,,,
1703494465.413128,1703494465.414292,83.000000,0.000000,4248.717773,4255.000000,4297.436035,4279.487305,4234.743652,4246.666504,3923.846191,4235.512695,4241.410156,4217.820313,4520.384766,4456.922852,4353.589844,4431.794922,6235.000000,4.000000,79.000000,,,,0.000000,4.000000,4.000000,4.000000,4.000000,4.000000,4.000000,4.000000,4.000000,4.000000,4.000000,4.000000,4.000000,4.000000,4.000000,100.000000,,,,,,,,,,,,,,,,,,,,,,,,,,,,
1703494465.420936,1703494465.422100,84.000000,0.000000,4251.922852,4259.615234,4298.333496,4284.615234,4235.128418,4240.769043,3927.435791,4225.000000,4230.256348,4214.358887,4510.641113,4451.025879,4354.230957,4423.077148,6700.000000,4.000000,79.000000,,,,0.000000,4.000000,4.000000,4.000000,4.000000,4.000000,4.000000,4.000000,4.000000,4.000000,4.000000,4.000000,4.000000,4.000000,4.000000,100.000000,,,,,,,,,,,,,,,,,21.000000,0.000000,0.696327,0.071899,-0.671814,0.242126,0.962031,-0.221218,0.083995,-12.596115,-47.502815,66.448357
1703494465.428744,1703494465.430008,85.000000,0.000000,4257.436035,4265.641113,4306.025879,4290.769043,4235.000000,4244.230957,3918.076904,4221.794922,4229.102539,4213.077148,4508.846191,4458.461426,4358.846191,4426.410156,7007.000000,4.000000,79.000000,,,,0.000000,4.000000,4.000000,4.000000,4.000000,4.000000,4.000000,4.000000,4.000000,4.000000,4.000000,4.000000,4.000000,4.000000,4.000000,100.000000,,,,,,,,,,,,,,,,,,,,,,,,,,,,
1703494465.436552,1703494465.437816,86.000000,0.000000,4252.948730,4264.230957,4304.487305,4292.563965,4237.692383,4246.282227,3909.743652,4216.922852,4225.641113,4205.641113,4510.000000,4460.128418,4350.384766,4428.717773,5950.000000,4.000000,79.000000,,,,0.000000,4.000000,4.000000,4.000000,4.000000,4.000000,4.000000,4.000000,4.000000,4.000000,4.000000,4.000000,4.000000,4.000000,4.000000,100.000000,,,,,,,,,,,,,,,,,,,,,,,,,,,,
1703494465.444360,1703494465.445624,87.000000,0.000000,4245.128418,4262.563965,4291.538574,4288.461426,4242.179688,4239.230957,3912.692383,4214.615234,4220.128418,4199.871582,4505.512695,4448.333496,4338.461426,4425.000000,6235.000000,4.000000,79.000000,,,,0.000000,4.000000,4.000000,4.000000,4.000000,4.000000,4.000000,4.000000,4.000000,4.000000,4.000000,4.000000,4.000000,4.000000,4.000000,100.000000,,,,,,,,,,,,,,,,,,,,,,,,,,,,
1703494465.452168,1703494465.453432,88.000000,0.000000,4244.871582,4265.128418,4290.769043,4281.153809,4241.538574,4232.436035,3913.333252,4226.538574,4231.666504,4209.615234,4508.077148,4449.358887,4346.410156,4425.512695,6700.000000,4.000000,79.000000,,,,0.000000,4.000000,4.000000,4.000000,4.000000,4.000000,4.000000,4.000000,4.000000,4.000000,4.000000,4.000000,4.000000,4.000000,4.000000,100.000000,,,,,,,,,,,,,,,,,22.000000,0.000000,0.696401,0.071960,-0.671753,0.242065,0.962520,-0.225125,0.067391,-12.753170,-47.669201,66.320183
1703494465.459976,1703494465.461140,89.000000,0.000000,4248.846191,4267.563965,4296.282227,4283.589844,4243.717773,4232.948730,3909.102539,4243.846191,4256.666504,4229.230957,4523.205078,4463.589844,4364.871582,4434.230957,7007.000000,4.000000,79.000000,,,,0.000000,4.000000,4.000000,4.000000,4.000000,4.000000,4.000000,4.000000,4.000000,4.000000,4.000000,4.000000,4.000000,4.000000,4.000000,100.000000,,,,,,,,,,,,,,,,,,,,,,,,,,,,
1703494465.467784,1703494465.468948,90.000000,0.000000,4250.512695,4268.461426,4294.358887,4293.333496,4246.922852,4235.512695,3910.512939,4251.282227,4268.205078,4237.179688,4533.461426,4468.205078,4366.538574,4439.102539,5950.000000,4.000000,79.000000,,,,0.000000,4.000000,4.000000,4.000000,4.000000,4.000000,4.000000,4.000000,4.000000,4.000000,4.000000,4.000000,4.000000,4.000000,4.000000,100.000000,,,,,,,,,,,,,,,,,,,,,,,,,,,,
1703494465.475592,1703494465.476656,91.000000,0.000000,4250.512695,4267.563965,4293.974121,4287.820313,4240.128418,4231.666504,3912.948730,4248.077148,4261.410156,4232.820313,4528.974121,4462.051270,4360.128418,4432.692383,6235.000000,4.000000,79.000000,,,,0.000000,4.000000,4.000000,4.000000,4.000000,4.000000,4.000000,4.000000,4.000000,4.000000,4.000000,4.000000,4.000000,4.000000,4.000000,100.000000,,,,,,,,,,,,,,,,,,,,,,,,,,,,
1703494465.483400,1703494465.484464,92.000000,0.000000,4252.563965,4265.384766,4298.333496,4277.436035,4232.692383,4229.358887,3909.230713,4244.230957,4253.333496,4229.871582,4522.307617,4458.974121,4364.102539,4429.230957,6700.000000,4.000000,79.000000,,,,0.000000,4.000000,4.000000,4.000000,4.000000,4.000000,4.000000,4.000000,4.000000,4.000000,4.000000,4.000000,4.000000,4.000000,4.000000,100.000000,,,,,,,,,,,,,,,,,23.000000,0.000000,0.696485,0.071716,-0.671692,0.242065,0.961055,-0.216823,0.091808,-12.777853,-47.635612,66.388168
1703494465.491208,1703494465.492172,93.000000,0.000000,4258.846191,4263.589844,4299.230957,4286.538574,4234.358887,4233.077148,3909.230713,4241.666504,4251.410156,4234.102539,4522.820313,4459.358887,4367.948730,4433.846191,7007.000000,4.000000,79.000000,,,,0.000000,4.000000,4.000000,4.000000,4.000000,4.000000,4.000000,4.000000,4.000000,4.000000,4.000000,4.000000,4.000000,4.000000,4.000000,100.000000,,,,,,,,,,,,,,,,,,,,,,,,,,,,
1703494465.499016,1703494465.499980,94.000000,0.000000,4264.102539,4262.948730,4299.615234,4293.333496,4233.974121,4236.666504,3917.435791,4231.538574,4245.000000,4230.897461,4525.769043,4458.461426,4364.743652,4435.641113,5950.000000,4.000000,79.000000,,,,0.000000,4.000000,4.000000,4.000000,4.000000,4.000000,4.000000,4.000000,4.000000,4.000000,4.000000,4.000000,4.000000,4.000000,4.000000,100.000000,1.000000,58.333332,4.000000,4.000000,3.000000,4.000000,4.000000,4.000000,0.000000,4.000000,4.000000,4.000000,4.000000,4.000000,4.000000,4.000000,,,,,,,,,,,,
1703494465.506825,1703494465.507688,95.000000,0.000000,4260.128418,4262.436035,4303.205078,4283.974121,4231.666504,4236.538574,3925.000000,4221.410156,4232.307617,4221.794922,4521.410156,4454.871582,4365.256348,4436.153809,6235.000000,4.000000,79.000000,,,,0.000000,4.000000,4.000000,4.000000,4.000000,4.000000,4.000000,4.000000,4.000000,4.000000,4.000000,4.000000,4.000000,4.000000,4.000000,100.000000,,,,,,,,,,,,,,,,,,,,,,,,,,,,
1703494465.514633,1703494465.515496,96.000000,0.000000,4252.307617,4256.538574,4302.436035,4279.487305,4230.512695,4233.205078,3925.128174,4218.077148,4227.692383,4213.461426,4511.410156,4449.743652,4358.205078,4435.128418,6700.000000,4.000000,79.000000,,,,0.000000,4.000000,4.000000,4.000000,4.000000,4.000000,4.000000,4.000000,4.000000,4.000000,4.000000,4.000000,4.000000,4.000000,4.000000,100.000000,,,,,,,,,,,,,,,,,24.000000,0.000000,0.696525,0.071533,-0.671692,0.242004,0.963985,-0.221218,0.079600,-12.700068,-47.672050,66.466019
1703494465.522441,1703494465.523204,97.000000,0.000000,4248.333496,4248.846191,4297.563965,4280.897461,4223.974121,4232.179688,3924.487061,4218.461426,4228.205078,4204.230957,4504.615234,4447.051270,4343.846191,4425.384766,7007.000000,4.000000,79.000000,,,,0.000000,4.000000,4.000000,4.000000,4.000000,4.000000,4.000000,4.000000,4.000000,4.000000,4.000000,4.000000,4.000000,4.000000,4.000000,100.000000,,,,,,,,,,,,,,,,,,,,,,,,,,,,
1703494465.530249,1703494465.531012,98.000000,0.000000,4246.794922,4246.538574,4293.205078,4277.307617,4219.487305,4232.692383,3922.307617,4222.692383,4226.153809,4200.000000,4502.820313,4446.410156,4341.538574,4415.128418,5950.000000,4.000000,79.000000,,,,0.000000,4.000000,4.000000,4.000000,4.000000,4.000000,4.000000,4.000000,4.000000,4.000000,4.000000,4.000000,4.000000,4.000000,4.000000,100.000000,,,,,,,,,,,,,,,,,,,,,,,,,,,,
1703494465.538057,1703494465.538720,99.000000,0.000000,4241.922852,4248.589844,4291.922852,4273.846191,4225.641113,4229.487305,3915.897461,4228.846191,4229.230957,4204.487305,4507.179688,4447.692383,4343.717773,4416.153809,6235.000000,4.000000,79.000000,,,,0.000000,4.000000,4.000000,4.000000,4.000000,4.000000,4.000000,4.000000,4.000000,4.000000,4.000000,4.000000,4.000000,4.000000,4.000000,100.000000,,,,,,,,,,,,,,,,,,,,,,,,,,,,
1703494465.545865,1703494465.546528,100.000000,0.000000,4234.487305,4248.077148,4288.333496,4276.794922,4231.538574,4225.769043,3911.923096,4233.077148,4235.897461,4206.153809,4509.102539,4444.615234,4340.384766,4417.948730,6700.000000,4.000000,79.000000,,,,0.000000,4.000000,4.000000,4.000000,4.000000,4.000000,4.000000,4.000000,4.000000,4.000000,4.000000,4.000000,4.000000,4.000000,4.000000,100.000000,,,,,,,,,,,,,,,,,25.000000,0.000000,0.696594,0.071228,-0.671631,0.242065,0.972287,-0.229032,0.081065,-12.630061,-47.788181,66.419418
1703494465.553673,1703494465.554236,101.000000,0.000000,4227.692383,4249.615234,4282.051270,4277.948730,4232.948730,4229.615234,3912.820557,4233.077148,4234.615234,4206.282227,4505.256348,4434.102539,4344.102539,4406.282227,7007.000000,4.000000,79.000000,,,,0.000000,4.000000,4.000000,4.000000,4.000000,4.000000,4.000000,4.000000,4.000000,4.000000,4.000000,4.000000,4.000000,4.000000,4.000000,100.000000,,,,,,,,,,,,,,,,,,,,,,,,,,,,
1703494465.561481,1703494465.562044,102.000000,0.000000,4226.794922,4258.205078,4283.717773,4278.717773,4238.461426,4234.102539,3912.179443,4227.692383,4232.563965,4210.384766,4503.461426,4428.846191,4350.512695,4396.153809,5950.000000,4.000000,79.000000,,,,0.000000,4.000000,4.000000,4.000000,4.000000,4.000000,4.000000,4.000000,4.000000,4.000000,4.000000,4.000000,4.000000,4.000000,4.000000,100.000000,,,,,,,,,,,,,,,,,,,,,,,,,,,,
1703494465.569289,1703494465.569753,103.000000,0.000000,4230.769043,4260.128418,4289.743652,4278.974121,4246.153809,4231.666504,3907.307617,4219.102539,4232.820313,4206.666504,4504.230957,4432.307617,4346.153809,4397.948730,6235.000000,4.000000,79.000000,,,,0.000000,4.000000,4.000000,4.000000,4.000000,4.000000,4.000000,4.000000,4.000000,4.000000,4.000000,4.000000,4.000000,4.000000,4.000000,100.000000,,,,,,,,,,,,,,,,,,,,,,,,,,,,
1703494465.577097,1703494465.577660,104.000000,0.000000,4230.769043,4250.512695,4289.743652,4273.077148,4244.615234,4229.615234,3904.871826,4215.769043,4231.153809,4207.307617,4503.205078,4434.615234,4344.230957,4400.128418,6700.000000,4.000000,79.000000,,,,0.000000,4.000000,4.000000,4.000000,4.000000,4.000000,4.000000,4.000000,4.000000,4.000000,4.000000,4.000000,4.000000,4.000000,4.000000,100.000000,,,,,,,,,,,,,,,,,26.000000,0.000000,0.696597,0.070984,-0.671631,0.242126,0.956171,-0.225125,0.082041,-12.583722,-47.742695,66.427475
1703494465.584905,1703494465.585468,105.000000,0.000000,4232.307617,4244.743652,4288.846191,4270.512695,4237.563965,4230.512695,3907.820557,4217.948730,4229.358887,4214.615234,4501.025879,4433.717773,4346.794922,4402.563965,7007.000000,4.000000,79.000000,,,,0.000000,4.000000,4.000000,4.000000,4.000000,4.000000,4.000000,4.000000,4.000000,4.000000,4.000000,4.000000,4.000000,4.000000,4.000000,100.000000,,,,,,,,,,,,,,,,,,,,,,,,,,,,
1703494465.592713,1703494465.593376,106.000000,0.000000,4243.461426,4250.128418,4296.666504,4276.153809,4233.846191,4230.128418,3911.281982,4215.897461,4223.461426,4207.436035,4502.563965,4434.743652,4343.717773,4411.025879,5950.000000,4.000000,79.000000,,,,0.000000,4.000000,4.000000,4.000000,4.000000,4.000000,4.000000,4.000000,4.000000,4.000000,4.000000,4.000000,4.000000,4.000000,4.000000,100.000000,,,,,,,,,,,,,,,,,,,,,,,,,,,,
1703494465.600521,1703494465.601184,107.000000,0.000000,4251.410156,4254.487305,4301.794922,4281.025879,4234.102539,4231.025879,3911.666748,4212.563965,4216.922852,4204.615234,4506.538574,4442.692383,4345.256348,4417.820313,6235.000000,4.000000,79.000000,,,,0.000000,4.000000,4.000000,4.000000,4.000000,4.000000,4.000000,4.000000,4.000000,4.000000,4.000000,4.000000,4.000000,4.000000,4.000000,100.000000,,,,,,,,,,,,,,,,,,,,,,,,,,,,
1703494465.608329,1703494465.608992,108.000000,0.000000,4248.846191,4253.333496,4298.205078,4279.615234,4234.358887,4233.333496,3911.025635,4215.128418,4222.692383,4216.538574,4508.589844,4454.102539,4348.461426,4418.461426,6700.000000,4.000000,79.000000,,,,0.000000,4.000000,4.000000,4.000000,4.000000,4.000000,4.000000,4.000000,4.000000,4.000000,4.000000,4.000000,4.000000,4.000000,4.000000,100.000000,,,,,,,,,,,,,,,,,27.000000,0.000000,0.696518,0.070557,-0.671692,0.242310,0.969845,-0.243194,0.080576,-12.475349,-47.685093,66.468063
1703494465.616137,1703494465.616700,109.000000,0.000000,4244.615234,4249.871582,4295.256348,4271.153809,4233.846191,4233.717773,3914.230713,4222.948730,4231.922852,4215.769043,4507.692383,4454.487305,4345.256348,4415.769043,7007.000000,4.000000,79.000000,,,,0.000000,4.000000,4.000000,4.000000,4.000000,4.000000,4.000000,4.000000,4.000000,4.000000,4.000000,4.000000,4.000000,4.000000,4.000000,100.000000,,,,,,,,,,,,,,,,,,,,,,,,,,,,
1703494465.623945,1703494465.624608,110.000000,0.000000,4240.897461,4247.563965,4297.820313,4265.128418,4234.102539,4233.589844,3920.128174,4230.256348,4233.205078,4207.179688,4505.769043,4448.333496,4348.461426,4411.410156,5950.000000,4.000000,79.000000,,,,0.000000,4.000000,4.000000,4.000000,4.000000,4.000000,4.000000,4.000000,4.000000,4.000000,4.000000,4.000000,4.000000,4.000000,4.000000,100.000000,,,,,,,,,,,,,,,,,,,,,,,,,,,,
1703494465.631753,1703494465.632416,111.000000,0.000000,4241.794922,4254.615234,4302.563965,4272.948730,4238.974121,4234.230957,3927.435791,4235.641113,4237.179688,4213.589844,4509.230957,4454.358887,4357.051270,4417.307617,6235.000000,4.000000,79.000000,,,,0.000000,4.000000,4.000000,4.000000,4.000000,4.000000,4.000000,4.000000,4.000000,4.000000,4.000000,4.000000,4.000000,4.000000,4.000000,100.000000,,,,,,,,,,,,,,,,,,,,,,,,,,,,
1703494465.639562,1703494465.640324,112.000000,0.000000,4245.769043,4259.102539,4302.051270,4281.666504,4238.589844,4232.820313,3928.846191,4236.666504,4245.641113,4221.025879,4517.436035,4465.897461,4356.025879,4428.461426,6700.000000,4.000000,79.000000,,,,0.000000,4.000000,4.000000,4.000000,4.000000,4.000000,4.000000,4.000000,4.000000,4.000000,4.000000,4.000000,4.000000,4.000000,4.000000,100.000000,,,,,,,,,,,,,,,,,28.000000,0.000000,0.696389,0.070251,-0.671814,0.242432,0.962520,-0.240752,0.085460,-12.461148,-47.799915,66.504585
1703494465.647370,1703494465.648132,113.000000,0.000000,4241.538574,4252.948730,4297.307617,4276.794922,4236.410156,4232.692383,3916.025635,4234.871582,4245.512695,4220.769043,4521.538574,4461.666504,4354.871582,4428.717773,7007.000000,4.000000,79.000000,,,,0.000000,4.000000,4.000000,4.000000,4.000000,4.000000,4.000000,4.000000,4.000000,4.000000,4.000000,4.000000,4.000000,4.000000,4.000000,100.000000,,,,,,,,,,,,,,,,,,,,,,,,,,,,
1703494465.655177,1703494465.656040,114.000000,0.000000,4239.871582,4254.102539,4297.692383,4274.230957,4239.358887,4233.717773,3909.871826,4233.974121,4237.948730,4220.641113,4522.051270,4453.589844,4359.102539,4425.512695,5950.000000,4.000000,79.000000,,,,0.000000,4.000000,4.000000,4.000000,4.000000,4.000000,4.000000,4.000000,4.000000,4.000000,4.000000,4.000000,4.000000,4.000000,4.000000,100.000000,,,,,,,,,,,,,,,,,,,,,,,,,,,,
1703494465.662986,1703494465.663848,115.000000,0.000000,4247.051270,4263.333496,4303.077148,4279.615234,4239.871582,4232.692383,3920.769287,4229.743652,4233.077148,4217.820313,4520.384766,4457.948730,4357.307617,4427.948730,6235.000000,4.000000,79.000000,,,,0.000000,4.000000,4.000000,4.000000,4.000000,4.000000,4.000000,4.000000,4.000000,4.000000,4.000000,4.000000,4.000000,4.000000,4.000000,100.000000,,,,,,,,,,,,,,,,,,,,,,,,,,,,
1703494465.670794,1703494465.671556,116.000000,0.000000,4247.563965,4265.512695,4303.333496,4280.000000,4241.153809,4237.307617,3920.512939,4219.487305,4231.794922,4214.615234,4513.717773,4457.051270,4351.794922,4429.487305,6700.000000,4.000000,79.000000,,,,0.000000,4.000000,4.000000,4.000000,4.000000,4.000000,4.000000,4.000000,4.000000,4.000000,4.000000,4.000000,4.000000,4.000000,4.000000,100.000000,,,,,,,,,,,,,,,,,29.000000,0.000000,0.696376,0.070007,-0.671875,0.242371,0.964473,-0.235869,0.072274,-12.365033,-47.736591,66.620796
1703494465.678602,1703494465.679364,117.000000,0.000000,4245.384766,4259.743652,4301.153809,4279.102539,4246.922852,4244.102539,3908.076904,4212.436035,4227.179688,4217.820313,4506.410156,4447.692383,4350.000000,4428.974121,7007.000000,4.000000,79.000000,,,,0.000000,4.000000,4.000000,4.000000,4.000000,4.000000,4.000000,4.000000,4.000000,4.000000,4.000000,4.000000,4.000000,4.000000,4.000000,100.000000,,,,,,,,,,,,,,,,,,,,,,,,,,,,
1703494465.686410,1703494465.687072,118.000000,0.000000,4248.333496,4253.589844,4303.205078,4279.615234,4246.025879,4239.487305,3908.461426,4213.461426,4216.922852,4215.000000,4506.794922,4448.333496,4340.384766,4429.102539,5950.000000,4.000000,79.000000,,,,0.000000,4.000000,4.000000,4.000000,4.000000,4.000000,4.000000,4.000000,4.000000,4.000000,4.000000,4.000000,4.000000,4.000000,4.000000,100.000000,,,,,,,,,,,,,,,,,,,,,,,,,,,,
1703494465.694218,1703494465.694880,119.000000,0.000000,4249.487305,4255.641113,4305.769043,4278.461426,4240.769043,4230.769043,3913.589844,4212.436035,4211.794922,4201.153809,4508.846191,4457.948730,4329.487305,4427.436035,6235.000000,4.000000,79.000000,,,,0.000000,4.000000,4.000000,4.000000,4.000000,4.000000,4.000000,4.000000,4.000000,4.000000,4.000000,4.000000,4.000000,4.000000,4.000000,100.000000,,,,,,,,,,,,,,,,,,,,,,,,,,,,
1703494465.702026,1703494465.702588,120.000000,0.000000,4249.615234,4262.948730,4307.179688,4280.128418,4241.410156,4233.974121,3913.974365,4214.871582,4221.794922,4200.897461,4507.820313,4462.179688,4337.692383,4430.897461,6700.000000,4.000000,79.000000,,,,0.000000,4.000000,4.000000,4.000000,4.000000,4.000000,4.000000,4.000000,4.000000,4.000000,4.000000,4.000000,4.000000,4.000000,4.000000,100.000000,,,,,,,,,,,,,,,,,30.000000,0.000000,0.696212,0.069885,-0.672058,0.242371,0.959101,-0.239775,0.073739,-12.345197,-47.696266,66.492050
1703494465.709834,1703494465.710396,121.000000,0.000000,4251.410156,4258.589844,4306.666504,4278.846191,4239.230957,4236.410156,3920.512939,4226.153809,4232.051270,4216.025879,4511.025879,4464.102539,4355.897461,4440.641113,7007.000000,4.000000,79.000000,,,,0.000000,4.000000,4.000000,4.000000,4.000000,4.000000,4.000000,4.000000,4.000000,4.000000,4.000000,4.000000,4.000000,4.000000,4.000000,100.000000,,,,,,,,,,,,,,,,,,,,,,,,,,,,
1703494465.717642,1703494465.718104,122.000000,0.000000,4248.974121,4239.487305,4302.820313,4268.205078,4231.922852,4230.256348,3927.179443,4236.410156,4235.128418,4220.641113,4527.692383,4467.563965,4361.538574,4445.641113,5950.000000,4.000000,79.000000,,,,0.000000,4.000000,4.000000,4.000000,4.000000,4.000000,4.000000,4.000000,4.000000,4.000000,4.000000,4.000000,4.000000,4.000000,4.000000,100.000000,,,,,,,,,,,,,,,,,,,,,,,,,,,,
1703494465.725450,1703494465.725912,123.000000,0.000000,4242.692383,4231.153809,4296.282227,4260.000000,4230.897461,4230.769043,3929.102539,4241.153809,4242.051270,4214.743652,4520.641113,4463.077148,4348.974121,4441.410156,6235.000000,4.000000,79.000000,,,,0.000000,4.000000,4.000000,4.000000,4.000000,4.000000,4.000000,4.000000,4.000000,4.000000,4.000000,4.000000,4.000000,4.000000,4.000000,100.000000,,,,,,,,,,,,,,,,,,,,,,,,,,,,
1703494465.733258,1703494465.733620,124.000000,0.000000,4241.410156,4239.230957,4293.717773,4263.461426,4232.948730,4235.384766,3929.871826,4243.461426,4248.846191,4217.436035,4451.025879,4456.666504,4342.436035,4436.666504,6700.000000,4.000000,79.000000,,,,0.000000,4.000000,4.000000,4.000000,4.000000,4.000000,4.000000,4.000000,4.000000,4.000000,4.000000,4.000000,4.000000,4.000000,4.000000,100.000000,,,,,,,,,,,,,,,,,31.000000,0.000000,0.696127,0.069763,-0.672180,0.242310,0.959590,-0.228055,0.072763,-12.410677,-47.576641,66.376175
1703494465.741066,1703494465.741428,125.000000,0.000000,4245.641113,4247.692383,4299.615234,4265.769043,4234.743652,4236.282227,3928.718018,4247.179688,4249.102539,4228.205078,4388.333496,4464.487305,4357.307617,4445.256348,7007.000000,4.000000,79.000000,,,,0.000000,4.000000,4.000000,4.000000,4.000000,4.000000,4.000000,4.000000,4.000000,4.000000,4.000000,4.000000,4.000000,4.000000,4.000000,100.000000,,,,,,,,,,,,,,,,,,,,,,,,,,,,
1703494465.748874,1703494465.749136,126.000000,0.000000,4251.153809,4249.743652,4303.846191,4265.000000,4236.410156,4239.358887,3933.333252,4246.666504,4249.871582,4236.410156,4393.077148,4475.769043,4375.000000,4461.410156,5950.000000,4.000000,79.000000,,,,0.000000,4.000000,4.000000,4.000000,4.000000,4.000000,4.000000,4.000000,4.000000,4.000000,4.000000,4.000000,4.000000,4.000000,4.000000,100.000000,,,,,,,,,,,,,,,,,,,,,,,,,,,,
1703494465.756682,1703494465.757044,127.000000,0.000000,4257.563965,4247.307617,4304.102539,4272.051270,4237.563965,4245.512695,3942.820557,4240.769043,4248.205078,4233.077148,4408.974121,4472.820313,4372.820313,4462.820313,79.000000,4.000000,79.000000,,,,0.000000,4.000000,4.000000,4.000000,4.000000,4.000000,4.000000,4.000000,4.000000,4.000000,4.000000,4.000000,4.000000,4.000000,4.000000,100.000000,,,,,,,,,,,,,,,,,,,,,,,,,,,,
1703494465.764490,1703494465.764852,0.000000,0.000000,4264.358887,4245.641113,4307.692383,4280.256348,4237.051270,4242.563965,3944.358887,4229.615234,4234.871582,4224.871582,4403.333496,4468.333496,4369.102539,4456.538574,4834.000000,4.000000,79.000000,,,,0.000000,4.000000,4.000000,4.000000,4.000000,4.000000,4.000000,4.000000,4.000000,4.000000,4.000000,4.000000,4.000000,4.000000,4.000000,100.000000,,,,,,,,,,,,,,,,,0.000000,0.000000,0.696064,0.069641,-0.672302,0.242188,0.955683,-0.218777,0.073739,-12.536276,-47.652309,66.538559
1703494465.772298,1703494465.772760,1.000000,0.000000,4269.487305,4242.307617,4315.256348,4282.179688,4233.461426,4235.000000,3936.153809,4220.000000,4222.948730,4226.794922,4410.641113,4475.769043,4378.077148,4470.256348,5442.000000,4.000000,79.000000,,,,0.000000,4.000000,4.000000,4.000000,4.000000,4.000000,4.000000,4.000000,4.000000,4.000000,4.000000,4.000000,4.000000,4.000000,4.000000,100.000000,,,,,,,,,,,,,,,,,,,,,,,,,,,,
1703494465.780106,1703494465.780568,2.000000,0.000000,4268.717773,4235.769043,4317.563965,4282.820313,4232.179688,4231.922852,3929.487061,4217.051270,4215.256348,4221.538574,4416.025879,4476.922852,4371.794922,4480.512695,5420.000000,4.000000,79.000000,,,,0.000000,4.000000,4.000000,4.000000,4.000000,4.000000,4.000000,4.000000,4.000000,4.000000,4.000000,4.000000,4.000000,4.000000,4.000000,100.000000,,,,,,,,,,,,,,,,,,,,,,,,,,,,
1703494465.787914,1703494465.788476,3.000000,0.000000,4263.589844,4229.487305,4314.102539,4282.436035,4232.307617,4229.871582,3926.666748,4212.948730,4204.615234,4200.641113,4399.615234,4465.512695,4353.974121,4464.615234,5422.000000,4.000000,79.000000,,,,0.000000,4.000000,4.000000,4.000000,4.000000,4.000000,4.000000,4.000000,4.000000,4.000000,4.000000,4.000000,4.000000,4.000000,4.000000,100.000000,,,,,,,,,,,,,,,,,,,,,,,,,,,,
1703494465.795722,1703494465.796284,4.000000,0.000000,4261.794922,4225.000000,4311.922852,4278.589844,4232.436035,4230.769043,3926.538574,4214.102539,4209.615234,4193.974121,4392.179688,4462.051270,4353.589844,4456.666504,5268.000000,4.000000,79.000000,,,,0.000000,4.000000,4.000000,4.000000,4.000000,4.000000,4.000000,4.000000,4.000000,4.000000,4.000000,4.000000,4.000000,4.000000,4.000000,100.000000,,,,,,,,,,,,,,,,,1.000000,0.000000,0.696043,0.069641,-0.672302,0.242249,0.969357,-0.237334,0.077158,-12.515982,-47.603745,66.484703
1703494465.803531,1703494465.804191,5.000000,0.000000,4263.974121,4227.692383,4309.743652,4277.820313,4239.358887,4233.461426,3933.974365,4228.846191,4227.692383,4210.000000,4397.820313,4466.153809,4366.282227,4463.589844,5013.000000,4.000000,79.000000,,,,0.000000,4.000000,4.000000,4.000000,4.000000,4.000000,4.000000,4.000000,4.000000,4.000000,4.000000,4.000000,4.000000,4.000000,4.000000,100.000000,,,,,,,,,,,,,,,,,,,,,,,,,,,,
1703494465.811339,1703494465.811999,6.000000,0.000000,4258.974121,4231.538574,4303.205078,4280.897461,4248.717773,4234.102539,3942.179443,4243.461426,4236.282227,4219.615234,4404.871582,4461.025879,4366.922852,4456.666504,4320.000000,4.000000,79.000000,,,,0.000000,4.000000,4.000000,4.000000,4.000000,4.000000,4.000000,4.000000,4.000000,4.000000,4.000000,4.000000,4.000000,4.000000,4.000000,100.000000,,,,,,,,,,,,,,,,,,,,,,,,,,,,
1703494465.819147,1703494465.819907,7.000000,0.000000,4247.307617,4226.794922,4293.589844,4273.974121,4249.743652,4237.179688,3940.128174,4245.384766,4241.153809,4215.000000,4410.128418,4452.948730,4360.256348,4447.051270,4896.000000,4.000000,79.000000,,,,0.000000,4.000000,4.000000,4.000000,4.000000,4.000000,4.000000,4.000000,4.000000,4.000000,4.000000,4.000000,4.000000,4.000000,4.000000,100.000000,,,,,,,,,,,,,,,,,,,,,,,,,,,,
1703494465.826955,1703494465.827715,8.000000,0.000000,4242.692383,4224.358887,4290.128418,4266.153809,4246.410156,4244.230957,3938.974365,4246.025879,4249.743652,4221.153809,4411.666504,4455.000000,4366.922852,4454.743652,5222.000000,4.000000,79.000000,,,,0.000000,4.000000,4.000000,4.000000,4.000000,4.000000,4.000000,4.000000,4.000000,4.000000,4.000000,4.000000,4.000000,4.000000,4.000000,100.000000,,,,,,,,,,,,,,,,,2.000000,0.000000,0.695991,0.069519,-0.672302,0.242432,0.961543,-0.227078,0.083506,-12.364384,-47.760036,66.386230
1703494465.834763,1703494465.835623,9.000000,0.000000,4246.538574,4229.871582,4295.256348,4269.230957,4247.307617,4247.051270,3945.512939,4250.384766,4252.563965,4233.077148,4413.717773,4462.179688,4374.871582,4461.666504,5464.000000,4.000000,79.000000,,,,0.000000,4.000000,4.000000,4.000000,4.000000,4.000000,4.000000,4.000000,4.000000,4.000000,4.000000,4.000000,4.000000,4.000000,4.000000,100.000000,,,,,,,,,,,,,,,,,,,,,,,,,,,,
1703494465.842571,1703494465.843431,10.000000,0.000000,4253.077148,4232.051270,4301.025879,4274.871582,4249.487305,4242.179688,3946.794922,4246.410156,4247.820313,4231.794922,4422.820313,4469.102539,4374.102539,4459.102539,5935.000000,4.000000,79.000000,,,,0.000000,4.000000,4.000000,4.000000,4.000000,4.000000,4.000000,4.000000,4.000000,4.000000,4.000000,4.000000,4.000000,4.000000,4.000000,100.000000,,,,,,,,,,,,,,,,,,,,,,,,,,,,
1703494465.850379,1703494465.851339,11.000000,0.000000,4261.410156,4237.307617,4302.948730,4280.128418,4248.333496,4235.641113,3943.974365,4236.282227,4237.820313,4225.256348,4428.589844,4473.974121,4375.384766,4460.512695,6235.000000,4.000000,79.000000,,,,0.000000,4.000000,4.000000,4.000000,4.000000,4.000000,4.000000,4.000000,4.000000,4.000000,4.000000,4.000000,4.000000,4.000000,4.000000,100.000000,,,,,,,,,,,,,,,,,,,,,,,,,,,,
1703494465.858187,1703494465.859147,12.000000,0.000000,4272.307617,4246.922852,4308.333496,4286.282227,4246.922852,4231.794922,3942.948730,4228.974121,4228.717773,4228.333496,4427.820313,4475.769043,4386.666504,4471.666504,6683.000000,4.000000,79.000000,,,,0.000000,4.000000,4.000000,4.000000,4.000000,4.000000,4.000000,4.000000,4.000000,4.000000,4.000000,4.000000,4.000000,4.000000,4.000000,100.000000,,,,,,,,,,,,,,,,,3.000000,0.000000,0.695913,0.069336,-0.672424,0.242371,0.961055,-0.243682,0.085948,-12.344612,-47.800701,66.397614
1703494465.865995,1703494465.866855,13.000000,0.000000,4283.077148,4240.256348,4313.461426,4285.128418,4245.256348,4232.051270,3939.487061,4225.128418,4228.974121,4231.666504,4435.897461,4476.282227,4396.922852,4485.000000,7007.000000,4.000000,79.000000,,,,0.000000,4.000000,4.000000,4.000000,4.000000,4.000000,4.000000,4.000000,4.000000,4.000000,4.000000,4.000000,4.000000,4.000000,4.000000,100.000000,,,,,,,,,,,,,,,,,,,,,,,,,,,,
1703494465.873803,1703494465.874663,14.000000,0.000000,4279.871582,4229.102539,4307.179688,4277.948730,4245.769043,4232.307617,3938.205078,4216.538574,4223.717773,4222.051270,4433.205078,4468.205078,4388.461426,4478.461426,5935.000000,4.000000,79.000000,,,,0.000000,4.000000,4.000000,4.000000,4.000000,4.000000,4.000000,4.000000,4.000000,4.000000,4.000000,4.000000,4.000000,4.000000,4.000000,100.000000,,,,,,,,,,,,,,,,,,,,,,,,,,,,
1703494465.881611,1703494465.882371,15.000000,0.000000,4264.871582,4230.384766,4301.410156,4278.205078,4247.307617,4232.051270,3939.871826,4210.769043,4212.051270,4211.410156,4417.820313,4460.897461,4370.000000,4458.205078,6235.000000,4.000000,79.000000,,,,0.000000,4.000000,4.000000,4.000000,4.000000,4.000000,4.000000,4.000000,4.000000,4.000000,4.000000,4.000000,4.000000,4.000000,4.000000,100.000000,,,,,,,,,,,,,,,,,,,,,,,,,,,,
1703494465.889419,1703494465.890179,16.000000,0.000000,4263.461426,4223.846191,4304.230957,4277.307617,4240.769043,4233.717773,3943.718018,4224.615234,4219.743652,4215.384766,4427.179688,4470.897461,4372.051270,4459.230957,0.000000,4.000000,79.000000,,,,0.000000,4.000000,4.000000,4.000000,4.000000,4.000000,4.000000,4.000000,4.000000,4.000000,4.000000,4.000000,4.000000,4.000000,4.000000,100.000000,,,,,,,,,,,,,,,,,4.000000,0.000000,0.695765,0.069092,-0.672668,0.242188,0.968380,-0.231474,0.086925,-12.260151,-47.903965,66.441185
1703494465.897227,1703494465.897887,17.000000,0.000000,4263.974121,4209.871582,4303.846191,4266.794922,4232.563965,4234.487305,3952.179443,4246.282227,4238.205078,4220.512695,4442.179688,4482.051270,4384.487305,4468.333496,0.000000,4.000000,79.000000,,,,0.000000,4.000000,4.000000,4.000000,4.000000,4.000000,4.000000,4.000000,4.000000,4.000000,4.000000,4.000000,4.000000,4.000000,4.000000,100.000000,,,,,,,,,,,,,,,,,,,,,,,,,,,,
1703494465.905035,1703494465.905795,18.000000,0.000000,4252.307617,4213.846191,4298.461426,4263.461426,4233.461426,4234.230957,3958.718018,4256.282227,4243.461426,4216.794922,4435.512695,4479.487305,4379.615234,4461.538574,0.000000,4.000000,79.000000,,,,0.000000,4.000000,4.000000,4.000000,4.000000,4.000000,4.000000,4.000000,4.000000,4.000000,4.000000,4.000000,4.000000,4.000000,4.000000,100.000000,,,,,,,,,,,,,,,,,,,,,,,,,,,,
1703494465.912843,1703494465.913603,19.000000,0.000000,4252.948730,4223.461426,4297.820313,4267.179688,4237.179688,4235.769043,3958.974365,4262.436035,4248.077148,4222.692383,4438.205078,4478.077148,4374.871582,4459.102539,0.000000,4.000000,79.000000,,,,0.000000,4.000000,4.000000,4.000000,4.000000,4.000000,4.000000,4.000000,4.000000,4.000000,4.000000,4.000000,4.000000,4.000000,4.000000,100.000000,,,,,,,,,,,,,,,,,,,,,,,,,,,,
1703494465.920651,1703494465.921511,20.000000,0.000000,4262.948730,4217.948730,4297.179688,4263.974121,4238.077148,4236.153809,3958.974365,4265.769043,4256.922852,4235.897461,4453.077148,4480.641113,4381.666504,4466.410156,0.000000,4.000000,79.000000,,,,0.000000,4.000000,4.000000,4.000000,4.000000,4.000000,4.000000,4.000000,4.000000,4.000000,4.000000,4.000000,4.000000,4.000000,4.000000,100.000000,,,,,,,,,,,,,,,,,5.000000,0.000000,0.695682,0.069214,-0.672852,0.241882,0.965450,-0.226590,0.079111,-12.367469,-47.913567,66.397064
1703494465.928459,1703494465.929320,21.000000,0.000000,4260.897461,4212.179688,4291.666504,4259.743652,4244.358887,4234.615234,3958.846191,4257.436035,4254.358887,4236.410156,4447.948730,4473.717773,4382.948730,4463.205078,0.000000,4.000000,79.000000,,,,0.000000,4.000000,4.000000,4.000000,4.000000,4.000000,4.000000,4.000000,4.000000,4.000000,4.000000,4.000000,4.000000,4.000000,4.000000,100.000000,,,,,,,,,,,,,,,,,,,,,,,,,,,,
1703494465.936267,1703494465.937128,22.000000,0.000000,4256.666504,4222.307617,4293.717773,4266.025879,4247.179688,4235.128418,3957.564209,4249.102539,4245.256348,4231.538574,4441.794922,4465.641113,4377.820313,4457.436035,0.000000,4.000000,79.000000,,,,0.000000,4.000000,4.000000,4.000000,4.000000,4.000000,4.000000,4.000000,4.000000,4.000000,4.000000,4.000000,4.000000,4.000000,4.000000,100.000000,,,,,,,,,,,,,,,,,,,,,,,,,,,,
1703494465.944075,1703494465.944836,23.000000,0.000000,4266.282227,4236.538574,4301.410156,4274.102539,4239.743652,4235.641113,3958.974365,4246.666504,4242.179688,4235.256348,4455.512695,4468.077148,4380.512695,4464.871582,0.000000,4.000000,79.000000,,,,0.000000,4.000000,4.000000,4.000000,4.000000,4.000000,4.000000,4.000000,4.000000,4.000000,4.000000,4.000000,4.000000,4.000000,4.000000,100.000000,,,,,,,,,,,,,,,,,,,,,,,,,,,,
1703494465.951883,1703494465.952744,24.000000,0.000000,4273.205078,4236.794922,4300.000000,4275.897461,4240.641113,4232.692383,3961.025635,4238.589844,4236.153809,4234.102539,4456.538574,4467.948730,4378.974121,4467.051270,0.000000,4.000000,79.000000,,,,0.000000,4.000000,4.000000,4.000000,4.000000,4.000000,4.000000,4.000000,4.000000,4.000000,4.000000,4.000000,4.000000,4.000000,4.000000,100.000000,,,,,,,,,,,,,,,,,6.000000,0.000000,0.695561,0.069458,-0.672974,0.241821,0.942986,-0.222195,0.065438,-12.297389,-47.938877,66.340691
1703494465.959691,1703494465.960552,25.000000,0.000000,4267.820313,4230.897461,4294.743652,4277.563965,4244.871582,4230.256348,3960.256348,4224.871582,4221.794922,4218.077148,4436.666504,4453.205078,4364.102539,4452.436035,0.000000,4.000000,79.000000,,,,0.000000,4.000000,4.000000,4.000000,4.000000,4.000000,4.000000,4.000000,4.000000,4.000000,4.000000,4.000000,4.000000,4.000000,4.000000,100.000000,,,,,,,,,,,,,,,,,,,,,,,,,,,,
1703494465.967500,1703494465.968460,26.000000,0.000000,4268.717773,4240.128418,4298.077148,4279.230957,4240.128418,4230.512695,3959.615479,4218.077148,4215.256348,4209.615234,4430.769043,4443.077148,4364.615234,4447.948730,0.000000,4.000000,79.000000,,,,0.000000,4.000000,4.000000,4.000000,4.000000,4.000000,4.000000,4.000000,4.000000,4.000000,4.000000,4.000000,4.000000,4.000000,4.000000,100.000000,,,,,,,,,,,,,,,,,,,,,,,,,,,,
1703494465.975308,1703494465.976268,27.000000,0.000000,4279.743652,4249.230957,4304.743652,4277.948730,4237.436035,4230.256348,3958.974365,4216.153809,4213.846191,4214.102539,4444.615234,4450.256348,4376.538574,4459.743652,0.000000,4.000000,79.000000,,,,0.000000,4.000000,4.000000,4.000000,4.000000,4.000000,4.000000,4.000000,4.000000,4.000000,4.000000,4.000000,4.000000,4.000000,4.000000,100.000000,,,,,,,,,,,,,,,,,,,,,,,,,,,,
1703494465.983116,1703494465.984175,28.000000,0.000000,4283.077148,4240.641113,4304.871582,4279.615234,4242.948730,4229.358887,3958.076904,4215.512695,4209.871582,4211.282227,4447.307617,4458.589844,4372.948730,4466.025879,0.000000,4.000000,79.000000,,,,0.000000,4.000000,4.000000,4.000000,4.000000,4.000000,4.000000,4.000000,4.000000,4.000000,4.000000,4.000000,4.000000,4.000000,4.000000,100.000000,,,,,,,,,,,,,,,,,7.000000,0.000000,0.695634,0.069641,-0.672791,0.242065,0.962520,-0.230009,0.076181,-12.300983,-48.061657,66.389954
1703494465.990924,1703494465.991983,29.000000,0.000000,4278.333496,4236.153809,4301.538574,4290.128418,4248.077148,4230.512695,3957.307617,4221.666504,4214.230957,4207.948730,4444.230957,4461.410156,4362.179688,4459.871582,0.000000,4.000000,79.000000,,,,0.000000,4.000000,4.000000,4.000000,4.000000,4.000000,4.000000,4.000000,4.000000,4.000000,4.000000,4.000000,4.000000,4.000000,4.000000,100.000000,,,,,,,,,,,,,,,,,,,,,,,,,,,,
1703494465.998732,1703494465.999891,30.000000,0.000000,4275.256348,4243.333496,4304.230957,4295.128418,4249.230957,4231.410156,3957.051270,4234.615234,4229.743652,4222.051270,4454.743652,4464.487305,4364.487305,4450.897461,0.000000,4.000000,79.000000,,,,0.000000,4.000000,4.000000,4.000000,4.000000,4.000000,4.000000,4.000000,4.000000,4.000000,4.000000,4.000000,4.000000,4.000000,4.000000,100.000000,1.000000,66.666664,4.000000,4.000000,4.000000,4.000000,4.000000,4.000000,0.000000,4.000000,4.000000,4.000000,4.000000,4.000000,4.000000,4.000000,,,,,,,,,,,,
1703494466.006540,1703494466.007699,31.000000,0.000000,4269.871582,4234.871582,4306.538574,4286.282227,4247.692383,4230.128418,3956.666748,4248.846191,4245.897461,4236.282227,4461.794922,4464.615234,4370.128418,4442.563965,0.000000,4.000000,79.000000,,,,0.000000,4.000000,4.000000,4.000000,4.000000,4.000000,4.000000,4.000000,4.000000,4.000000,4.000000,4.000000,4.000000,4.000000,4.000000,100.000000,,,,,,,,,,,,,,,,,,,,,,,,,,,,
1703494466.014348,1703494466.015607,32.000000,0.000000,4269.230957,4222.692383,4301.794922,4284.615234,4246.153809,4230.256348,3957.820557,4252.948730,4251.538574,4233.077148,4459.487305,4462.179688,4366.410156,4439.615234,0.000000,4.000000,79.000000,,,,0.000000,4.000000,4.000000,4.000000,4.000000,4.000000,4.000000,4.000000,4.000000,4.000000,4.000000,4.000000,4.000000,4.000000,4.000000,100.000000,,,,,,,,,,,,,,,,,8.000000,0.000000,0.695575,0.069641,-0.672852,0.242065,0.968868,-0.238310,0.077646,-12.270885,-47.838825,66.517624
1703494466.022156,1703494466.023415,33.000000,0.000000,4277.692383,4230.512695,4303.461426,4295.128418,4249.230957,4232.692383,3963.974365,4250.128418,4250.000000,4229.230957,4461.666504,4466.025879,4361.922852,4442.563965,0.000000,4.000000,79.000000,,,,0.000000,4.000000,4.000000,4.000000,4.000000,4.000000,4.000000,4.000000,4.000000,4.000000,4.000000,4.000000,4.000000,4.000000,4.000000,100.000000,,,,,,,,,,,,,,,,,,,,,,,,,,,,
1703494466.029964,1703494466.031123,34.000000,0.000000,4281.922852,4236.538574,4314.871582,4298.333496,4251.538574,4234.743652,3971.410156,4252.307617,4250.641113,4234.487305,4468.589844,4472.692383,4367.563965,4444.615234,0.000000,4.000000,79.000000,,,,0.000000,4.000000,4.000000,4.000000,4.000000,4.000000,4.000000,4.000000,4.000000,4.000000,4.000000,4.000000,4.000000,4.000000,4.000000,100.000000,,,,,,,,,,,,,,,,,,,,,,,,,,,,
1703494466.037772,1703494466.038931,35.000000,0.000000,4283.589844,4225.641113,4321.666504,4296.538574,4249.358887,4234.230957,3973.076904,4250.512695,4247.948730,4234.230957,4468.974121,4472.820313,4376.410156,4448.077148,0.000000,4.000000,79.000000,,,,0.000000,4.000000,4.000000,4.000000,4.000000,4.000000,4.000000,4.000000,4.000000,4.000000,4.000000,4.000000,4.000000,4.000000,4.000000,100.000000,,,,,,,,,,,,,,,,,,,,,,,,,,,,
1703494466.045580,1703494466.046639,36.000000,0.000000,4282.692383,4216.025879,4317.179688,4296.025879,4245.256348,4231.282227,3965.384521,4238.846191,4230.769043,4221.153809,4458.333496,4465.384766,4359.743652,4441.410156,0.000000,4.000000,79.000000,,,,0.000000,4.000000,4.000000,4.000000,4.000000,4.000000,4.000000,4.000000,4.000000,4.000000,4.000000,4.000000,4.000000,4.000000,4.000000,100.000000,,,,,,,,,,,,,,,,,9.000000,0.000000,0.695554,0.069519,-0.672974,0.241821,0.953730,-0.233427,0.071298,-12.127130,-47.788273,66.449196
1703494466.053388,1703494466.054447,37.000000,0.000000,4281.410156,4222.051270,4312.179688,4293.333496,4243.717773,4228.461426,3959.615479,4228.205078,4216.666504,4210.384766,4457.820313,4460.000000,4344.871582,4433.333496,0.000000,4.000000,79.000000,,,,0.000000,4.000000,4.000000,4.000000,4.000000,4.000000,4.000000,4.000000,4.000000,4.000000,4.000000,4.000000,4.000000,4.000000,4.000000,100.000000,,,,,,,,,,,,,,,,,,,,,,,,,,,,
1703494466.061196,1703494466.062155,38.000000,0.000000,4291.794922,4232.948730,4314.230957,4295.769043,4247.307617,4230.256348,3961.794922,4223.205078,4217.051270,4216.025879,4475.384766,4468.333496,4370.641113,4450.512695,0.000000,4.000000,79.000000,,,,0.000000,4.000000,4.000000,4.000000,4.000000,4.000000,4.000000,4.000000,4.000000,4.000000,4.000000,4.000000,4.000000,4.000000,4.000000,100.000000,,,,,,,,,,,,,,,,,,,,,,,,,,,,
1703494466.069004,1703494466.069963,39.000000,0.000000,4297.563965,4231.922852,4315.256348,4302.436035,4250.769043,4236.410156,3959.102539,4213.717773,4214.615234,4220.384766,4478.846191,4471.538574,4385.769043,4461.282227,0.000000,4.000000,79.000000,,,,0.000000,4.000000,4.000000,4.000000,4.000000,4.000000,4.000000,4.000000,4.000000,4.000000,4.000000,4.000000,4.000000,4.000000,4.000000,100.000000,,,,,,,,,,,,,,,,,,,,,,,,,,,,
1703494466.076812,1703494466.077671,40.000000,0.000000,4289.871582,4226.538574,4309.871582,4306.410156,4251.666504,4244.615234,3954.871826,4209.615234,4210.000000,4214.615234,4468.974121,4459.743652,4363.589844,4448.205078,0.000000,4.000000,79.000000,,,,0.000000,4.000000,4.000000,4.000000,4.000000,4.000000,4.000000,4.000000,4.000000,4.000000,4.000000,4.000000,4.000000,4.000000,4.000000,100.000000,,,,,,,,,,,,,,,,,10.000000,0.000000,0.695585,0.069092,-0.673096,0.241516,0.958125,-0.232450,0.083506,-12.047750,-47.859447,66.420944
1703494466.084620,1703494466.085479,41.000000,0.000000,4291.410156,4233.974121,4307.563965,4311.410156,4253.077148,4246.922852,3957.820557,4221.666504,4215.128418,4216.666504,4475.000000,4453.205078,4360.128418,4448.974121,0.000000,4.000000,79.000000,,,,0.000000,4.000000,4.000000,4.000000,4.000000,4.000000,4.000000,4.000000,4.000000,4.000000,4.000000,4.000000,4.000000,4.000000,4.000000,100.000000,,,,,,,,,,,,,,,,,,,,,,,,,,,,
1703494466.092428,1703494466.093187,42.000000,0.000000,4296.025879,4244.871582,4311.153809,4312.436035,4252.436035,4238.589844,3959.615479,4235.769043,4225.512695,4223.077148,4484.615234,4460.256348,4377.820313,4459.230957,0.000000,4.000000,79.000000,,,,0.000000,4.000000,4.000000,4.000000,4.000000,4.000000,4.000000,4.000000,4.000000,4.000000,4.000000,4.000000,4.000000,4.000000,4.000000,100.000000,,,,,,,,,,,,,,,,,,,,,,,,,,,,
1703494466.100237,1703494466.100995,43.000000,0.000000,4290.512695,4247.692383,4313.717773,4309.230957,4249.102539,4232.051270,3962.051270,4245.256348,4231.538574,4223.461426,4485.128418,4469.871582,4378.974121,4450.384766,0.000000,4.000000,79.000000,,,,0.000000,4.000000,4.000000,4.000000,4.000000,4.000000,4.000000,4.000000,4.000000,4.000000,4.000000,4.000000,4.000000,4.000000,4.000000,100.000000,,,,,,,,,,,,,,,,,,,,,,,,,,,,
1703494466.108045,1703494466.108703,44.000000,0.000000,4288.974121,4245.769043,4313.333496,4305.128418,4249.615234,4234.487305,3967.435791,4255.128418,4237.692383,4224.743652,4488.717773,4474.743652,4375.897461,4444.358887,0.000000,4.000000,79.000000,,,,0.000000,4.000000,4.000000,4.000000,4.000000,4.000000,4.000000,4.000000,4.000000,4.000000,4.000000,4.000000,4.000000,4.000000,4.000000,100.000000,,,,,,,,,,,,,,,,,11.000000,0.000000,0.695664,0.068726,-0.673096,0.241394,0.968868,-0.224637,0.079600,-12.042975,-47.823502,66.378853
1703494466.115852,1703494466.116511,45.000000,0.000000,4291.666504,4238.846191,4308.333496,4298.846191,4246.666504,4235.897461,3967.051270,4262.436035,4249.615234,4232.563965,4494.230957,4478.717773,4380.384766,4449.871582,0.000000,4.000000,79.000000,,,,0.000000,4.000000,4.000000,4.000000,4.000000,4.000000,4.000000,4.000000,4.000000,4.000000,4.000000,4.000000,4.000000,4.000000,4.000000,100.000000,,,,,,,,,,,,,,,,,,,,,,,,,,,,
1703494466.123661,1703494466.124219,46.000000,0.000000,4291.025879,4232.820313,4303.461426,4293.205078,4236.153809,4232.563965,3961.410156,4260.769043,4253.846191,4236.538574,4496.794922,4485.897461,4383.717773,4448.077148,0.000000,4.000000,79.000000,,,,0.000000,4.000000,4.000000,4.000000,4.000000,4.000000,4.000000,4.000000,4.000000,4.000000,4.000000,4.000000,4.000000,4.000000,4.000000,100.000000,,,,,,,,,,,,,,,,,,,,,,,,,,,,
1703494466.131469,1703494466.132027,47.000000,0.000000,4292.179688,4232.179688,4308.717773,4294.615234,4231.282227,4231.666504,3959.743652,4254.102539,4244.102539,4229.615234,4496.410156,4489.615234,4381.410156,4446.410156,0.000000,4.000000,79.000000,,,,0.000000,4.000000,4.000000,4.000000,4.000000,4.000000,4.000000,4.000000,4.000000,4.000000,4.000000,4.000000,4.000000,4.000000,4.000000,100.000000,,,,,,,,,,,,,,,,,,,,,,,,,,,,
1703494466.139277,1703494466.139736,48.000000,0.000000,4296.666504,4230.897461,4317.436035,4296.025879,4232.179688,4232.692383,3965.128174,4247.179688,4232.307617,4220.000000,4491.538574,4485.128418,4376.025879,4451.025879,0.000000,4.000000,79.000000,,,,0.000000,4.000000,4.000000,4.000000,4.000000,4.000000,4.000000,4.000000,4.000000,4.000000,4.000000,4.000000,4.000000,4.000000,4.000000,100.000000,,,,,,,,,,,,,,,,,12.000000,0.000000,0.695701,0.068604,-0.673157,0.241150,0.973263,-0.224637,0.068368,-12.072011,-47.874485,66.340965
1703494466.147085,1703494466.147543,49.000000,0.000000,4296.538574,4227.436035,4319.487305,4295.384766,4232.948730,4233.461426,3972.692383,4237.307617,4226.153809,4219.102539,4490.897461,4482.307617,4376.666504,4457.179688,0.000000,4.000000,79.000000,,,,0.000000,4.000000,4.000000,4.000000,4.000000,4.000000,4.000000,4.000000,4.000000,4.000000,4.000000,4.000000,4.000000,4.000000,4.000000,100.000000,,,,,,,,,,,,,,,,,,,,,,,,,,,,
1703494466.154893,1703494466.155252,50.000000,0.000000,4295.128418,4229.871582,4317.436035,4299.487305,4239.871582,4238.205078,3977.179443,4228.717773,4218.974121,4221.922852,4493.717773,4480.897461,4376.153809,4460.128418,0.000000,4.000000,79.000000,,,,0.000000,4.000000,4.000000,4.000000,4.000000,4.000000,4.000000,4.000000,4.000000,4.000000,4.000000,4.000000,4.000000,4.000000,4.000000,100.000000,,,,,,,,,,,,,,,,,,,,,,,,,,,,
1703494466.162701,1703494466.163159,51.000000,0.000000,4301.538574,4233.333496,4319.230957,4305.000000,4251.153809,4246.282227,3975.769287,4226.153809,4211.282227,4218.461426,4495.000000,4477.179688,4380.256348,4460.769043,0.000000,4.000000,79.000000,,,,0.000000,4.000000,4.000000,4.000000,4.000000,4.000000,4.000000,4.000000,4.000000,4.000000,4.000000,4.000000,4.000000,4.000000,4.000000,100.000000,,,,,,,,,,,,,,,,,,,,,,,,,,,,
1703494466.170509,1703494466.170967,52.000000,0.000000,4306.282227,4227.948730,4317.051270,4304.358887,4254.358887,4251.794922,3966.794922,4223.589844,4209.487305,4215.897461,4497.563965,4473.717773,4393.461426,4464.743652,0.000000,4.000000,79.000000,,,,0.000000,4.000000,4.000000,4.000000,4.000000,4.000000,4.000000,4.000000,4.000000,4.000000,4.000000,4.000000,4.000000,4.000000,4.000000,100.000000,,,,,,,,,,,,,,,,,13.000000,0.000000,0.695663,0.068604,-0.673218,0.241089,0.969357,-0.229032,0.076670,-11.948143,-47.770370,66.206871
1703494466.178317,1703494466.178875,53.000000,0.000000,4297.820313,4228.589844,4303.333496,4300.512695,4251.538574,4247.051270,3955.256348,4218.333496,4211.282227,4213.589844,4492.563965,4464.102539,4388.077148,4458.846191,0.000000,4.000000,79.000000,,,,0.000000,4.000000,4.000000,4.000000,4.000000,4.000000,4.000000,4.000000,4.000000,4.000000,4.000000,4.000000,4.000000,4.000000,4.000000,100.000000,,,,,,,,,,,,,,,,,,,,,,,,,,,,
1703494466.186125,1703494466.186683,54.000000,0.000000,4290.128418,4243.205078,4297.563965,4303.717773,4251.153809,4237.307617,3953.205078,4225.256348,4220.769043,4211.025879,4490.641113,4460.256348,4374.358887,4450.512695,0.000000,4.000000,79.000000,,,,0.000000,4.000000,4.000000,4.000000,4.000000,4.000000,4.000000,4.000000,4.000000,4.000000,4.000000,4.000000,4.000000,4.000000,4.000000,100.000000,,,,,,,,,,,,,,,,,,,,,,,,,,,,
1703494466.193933,1703494466.194591,55.000000,0.000000,4293.974121,4249.487305,4306.922852,4310.128418,4247.820313,4231.922852,3957.179443,4241.153809,4237.820313,4225.000000,4505.769043,4472.563965,4388.461426,4459.743652,0.000000,4.000000,79.000000,,,,0.000000,4.000000,4.000000,4.000000,4.000000,4.000000,4.000000,4.000000,4.000000,4.000000,4.000000,4.000000,4.000000,4.000000,4.000000,100.000000,,,,,,,,,,,,,,,,,,,,,,,,,,,,
1703494466.201741,1703494466.202399,56.000000,0.000000,4294.487305,4240.384766,4311.410156,4309.871582,4244.871582,4230.256348,3958.076904,4251.922852,4254.230957,4239.102539,4513.205078,4477.436035,4395.512695,4460.128418,0.000000,4.000000,79.000000,,,,0.000000,4.000000,4.000000,4.000000,4.000000,4.000000,4.000000,4.000000,4.000000,4.000000,4.000000,4.000000,4.000000,4.000000,4.000000,100.000000,,,,,,,,,,,,,,,,,14.000000,0.000000,0.695528,0.069031,-0.673401,0.240845,0.963985,-0.230009,0.075693,-11.903329,-47.793335,66.136185
1703494466.209549,1703494466.210307,57.000000,0.000000,4292.563965,4243.333496,4310.641113,4311.153809,4245.897461,4228.974121,3964.743652,4259.743652,4262.179688,4236.922852,4508.717773,4476.666504,4385.128418,4449.102539,0.000000,4.000000,79.000000,,,,0.000000,4.000000,4.000000,4.000000,4.000000,4.000000,4.000000,4.000000,4.000000,4.000000,4.000000,4.000000,4.000000,4.000000,4.000000,100.000000,,,,,,,,,,,,,,,,,,,,,,,,,,,,
1703494466.217357,1703494466.218115,58.000000,0.000000,4293.717773,4247.820313,4312.820313,4310.128418,4238.846191,4229.102539,3972.179443,4259.358887,4257.948730,4232.692383,4508.974121,4481.922852,4387.307617,4454.230957,0.000000,4.000000,79.000000,,,,0.000000,4.000000,4.000000,4.000000,4.000000,4.000000,4.000000,4.000000,4.000000,4.000000,4.000000,4.000000,4.000000,4.000000,4.000000,100.000000,,,,,,,,,,,,,,,,,,,,,,,,,,,,
1703494466.225165,1703494466.226023,59.000000,0.000000,4282.948730,4233.717773,4307.051270,4296.153809,4229.487305,4228.333496,3973.076904,4250.897461,4245.769043,4228.461426,4498.974121,4472.948730,4374.743652,4448.974121,0.000000,4.000000,79.000000,,,,0.000000,4.000000,4.000000,4.000000,4.000000,4.000000,4.000000,4.000000,4.000000,4.000000,4.000000,4.000000,4.000000,4.000000,4.000000,100.000000,,,,,,,,,,,,,,,,,,,,,,,,,,,,
1703494466.232973,1703494466.233831,60.000000,0.000000,4270.512695,4225.897461,4295.000000,4285.512695,4235.641113,4231.922852,3974.743652,4245.769043,4238.333496,4218.077148,4482.179688,4456.410156,4357.436035,4428.205078,0.000000,4.000000,79.000000,,,,0.000000,4.000000,4.000000,4.000000,4.000000,4.000000,4.000000,4.000000,4.000000,4.000000,4.000000,4.000000,4.000000,4.000000,4.000000,100.000000,,,,,,,,,,,,,,,,,15.000000,0.000000,0.695513,0.069824,-0.673401,0.240662,0.964473,-0.225613,0.070321,-11.996329,-47.813999,66.122566
1703494466.240781,1703494466.241539,61.000000,0.000000,4272.948730,4230.512695,4291.410156,4290.641113,4245.641113,4241.794922,3976.281982,4236.538574,4232.436035,4208.205078,4477.692383,4455.384766,4366.153809,4424.871582,0.000000,4.000000,79.000000,,,,0.000000,4.000000,4.000000,4.000000,4.000000,4.000000,4.000000,4.000000,4.000000,4.000000,4.000000,4.000000,4.000000,4.000000,4.000000,100.000000,,,,,,,,,,,,,,,,,,,,,,,,,,,,
1703494466.248589,1703494466.249347,62.000000,0.000000,4279.487305,4231.282227,4297.307617,4296.025879,4244.358887,4242.179688,3974.871826,4219.358887,4215.256348,4201.666504,4477.051270,4457.820313,4368.717773,4431.025879,0.000000,4.000000,79.000000,,,,0.000000,4.000000,4.000000,4.000000,4.000000,4.000000,4.000000,4.000000,4.000000,4.000000,4.000000,4.000000,4.000000,4.000000,4.000000,100.000000,,,,,,,,,,,,,,,,,,,,,,,,,,,,
1703494466.256397,1703494466.257055,63.000000,0.000000,4282.307617,4236.282227,4308.205078,4293.717773,4244.871582,4235.128418,3974.358887,4211.666504,4199.487305,4197.051270,4480.128418,4456.666504,4362.307617,4435.256348,0.000000,4.000000,79.000000,,,,0.000000,4.000000,4.000000,4.000000,4.000000,4.000000,4.000000,4.000000,4.000000,4.000000,4.000000,4.000000,4.000000,4.000000,4.000000,100.000000,,,,,,,,,,,,,,,,,,,,,,,,,,,,
1703494466.264206,1703494466.264863,64.000000,0.000000,4290.384766,4247.820313,4316.153809,4297.948730,4246.025879,4235.641113,3973.333252,4211.794922,4197.179688,4198.846191,4488.974121,4461.153809,4374.743652,4444.615234,4834.000000,4.000000,79.000000,,,,0.000000,4.000000,4.000000,4.000000,4.000000,4.000000,4.000000,4.000000,4.000000,4.000000,4.000000,4.000000,4.000000,4.000000,4.000000,100.000000,,,,,,,,,,,,,,,,,16.000000,0.000000,0.695491,0.070251,-0.673401,0.240601,0.972775,-0.218777,0.077158,-11.963363,-47.682598,66.160309
1703494466.272014,1703494466.272571,65.000000,0.000000,4300.641113,4250.256348,4318.461426,4308.333496,4236.025879,4235.641113,3970.769287,4213.589844,4205.769043,4208.974121,4496.282227,4471.153809,4386.282227,4453.846191,5442.000000,4.000000,79.000000,,,,0.000000,4.000000,4.000000,4.000000,4.000000,4.000000,4.000000,4.000000,4.000000,4.000000,4.000000,4.000000,4.000000,4.000000,4.000000,100.000000,,,,,,,,,,,,,,,,,,,,,,,,,,,,
1703494466.279822,1703494466.280379,66.000000,0.000000,4302.436035,4250.256348,4320.897461,4310.512695,4228.974121,4230.256348,3970.641113,4228.717773,4224.743652,4227.307617,4506.153809,4481.153809,4383.333496,4460.769043,5420.000000,4.000000,79.000000,,,,0.000000,4.000000,4.000000,4.000000,4.000000,4.000000,4.000000,4.000000,4.000000,4.000000,4.000000,4.000000,4.000000,4.000000,4.000000,100.000000,,,,,,,,,,,,,,,,,,,,,,,,,,,,
1703494466.287630,1703494466.288087,67.000000,0.000000,4298.333496,4252.692383,4322.563965,4308.589844,4230.000000,4229.871582,3970.769287,4247.563965,4244.743652,4239.743652,4517.307617,4485.769043,4384.487305,4464.230957,5427.000000,4.000000,79.000000,,,,0.000000,4.000000,4.000000,4.000000,4.000000,4.000000,4.000000,4.000000,4.000000,4.000000,4.000000,4.000000,4.000000,4.000000,4.000000,100.000000,,,,,,,,,,,,,,,,,,,,,,,,,,,,
