title:اسيد اطفاء, start timestamp:1703502212.027286, stop timestamp:1703502222.716516, headset type:EPOCX, headset serial:E50206EF, headset firmware:720, channels:67, sampling rate:eeg_128;mot_32, samples:1370      , version:2.2, 
Timestamp,OriginalTimestamp,EEG.Counter,EEG.Interpolated,EEG.AF3,EEG.F7,EEG.F3,EEG.FC5,EEG.T7,EEG.P7,EEG.O1,EEG.O2,EEG.P8,EEG.T8,EEG.FC6,EEG.F4,EEG.F8,EEG.AF4,EEG.RawCq,EEG.Battery,EEG.BatteryPercent,MarkerIndex,MarkerType,MarkerValueInt,EEG.MarkerHardware,CQ.AF3,CQ.F7,CQ.F3,CQ.FC5,CQ.T7,CQ.P7,CQ.O1,CQ.O2,CQ.P8,CQ.T8,CQ.FC6,CQ.F4,CQ.F8,CQ.AF4,CQ.Overall,EQ.SampleRateQuality,EQ.OVERALL,EQ.AF3,EQ.F7,EQ.F3,EQ.FC5,EQ.T7,EQ.P7,EQ.O1,EQ.O2,EQ.P8,EQ.T8,EQ.FC6,EQ.F4,EQ.F8,EQ.AF4,MOT.CounterMems,MOT.InterpolatedMems,MOT.Q0,MOT.Q1,MOT.Q2,MOT.Q3,MOT.AccX,MOT.AccY,MOT.AccZ,MOT.MagX,MOT.MagY,MOT.MagZ
1703502212.027286,1703502212.027737,16.000000,0.000000,4283.846191,4263.846191,4314.230957,4309.102539,4245.769043,4239.743652,4261.922852,4264.615234,4248.205078,4209.487305,4524.615234,4481.666504,4338.461426,4432.436035,0.000000,3.000000,66.000000,,,,0.000000,4.000000,4.000000,4.000000,4.000000,4.000000,4.000000,4.000000,4.000000,4.000000,4.000000,4.000000,4.000000,4.000000,4.000000,100.000000,,,,,,,,,,,,,,,,,4.000000,0.000000,0.707624,-0.244995,-0.653442,-0.110718,0.974240,-0.206080,0.017092,-11.906437,-42.429028,60.519932
1703502212.035094,1703502212.035445,17.000000,0.000000,4286.410156,4267.820313,4316.666504,4314.102539,4250.256348,4247.436035,4265.641113,4265.384766,4249.230957,4213.333496,4527.692383,4484.230957,4339.615234,4434.871582,0.000000,3.000000,66.000000,,,,0.000000,4.000000,4.000000,4.000000,4.000000,4.000000,4.000000,4.000000,4.000000,4.000000,4.000000,4.000000,4.000000,4.000000,4.000000,100.000000,,,,,,,,,,,,,,,,,,,,,,,,,,,,
1703502212.042902,1703502212.043253,18.000000,0.000000,4282.563965,4268.589844,4314.102539,4312.692383,4258.461426,4249.358887,4269.102539,4266.153809,4249.358887,4211.922852,4528.205078,4483.974121,4337.563965,4432.436035,0.000000,3.000000,66.000000,,,,0.000000,4.000000,4.000000,4.000000,4.000000,4.000000,4.000000,4.000000,4.000000,4.000000,4.000000,4.000000,4.000000,4.000000,4.000000,100.000000,,,,,,,,,,,,,,,,,,,,,,,,,,,,
1703502212.050710,1703502212.050961,19.000000,0.000000,4277.179688,4263.077148,4310.769043,4311.025879,4258.077148,4246.282227,4266.794922,4263.589844,4248.974121,4211.794922,4520.769043,4480.128418,4337.563965,4427.436035,0.000000,3.000000,66.000000,,,,0.000000,4.000000,4.000000,4.000000,4.000000,4.000000,4.000000,4.000000,4.000000,4.000000,4.000000,4.000000,4.000000,4.000000,4.000000,100.000000,,,,,,,,,,,,,,,,,,,,,,,,,,,,
1703502212.058518,1703502212.058869,20.000000,0.000000,4276.794922,4263.205078,4308.589844,4311.666504,4250.897461,4244.358887,4264.615234,4263.846191,4248.846191,4216.282227,4520.641113,4473.717773,4337.179688,4426.025879,0.000000,3.000000,66.000000,,,,0.000000,4.000000,4.000000,4.000000,4.000000,4.000000,4.000000,4.000000,4.000000,4.000000,4.000000,4.000000,4.000000,4.000000,4.000000,100.000000,,,,,,,,,,,,,,,,,5.000000,0.000000,0.707680,-0.244751,-0.653442,-0.110901,0.963008,-0.202661,0.032230,-12.015794,-42.419456,60.584606
1703502212.066326,1703502212.066677,21.000000,0.000000,4275.128418,4263.461426,4308.589844,4312.179688,4248.717773,4245.000000,4265.641113,4262.563965,4246.153809,4212.051270,4518.461426,4470.256348,4330.128418,4424.871582,0.000000,3.000000,66.000000,,,,0.000000,4.000000,4.000000,4.000000,4.000000,4.000000,4.000000,4.000000,4.000000,4.000000,4.000000,4.000000,4.000000,4.000000,4.000000,100.000000,,,,,,,,,,,,,,,,,,,,,,,,,,,,
1703502212.074134,1703502212.074585,22.000000,0.000000,4270.000000,4253.846191,4308.717773,4311.922852,4251.025879,4246.282227,4263.974121,4253.974121,4243.205078,4201.282227,4507.948730,4469.615234,4324.487305,4419.615234,0.000000,3.000000,66.000000,,,,0.000000,4.000000,4.000000,4.000000,4.000000,4.000000,4.000000,4.000000,4.000000,4.000000,4.000000,4.000000,4.000000,4.000000,4.000000,100.000000,,,,,,,,,,,,,,,,,,,,,,,,,,,,
1703502212.081942,1703502212.082393,23.000000,0.000000,4271.282227,4252.820313,4306.922852,4316.025879,4251.153809,4245.897461,4262.692383,4247.820313,4243.589844,4203.333496,4508.846191,4468.205078,4328.974121,4418.077148,0.000000,3.000000,66.000000,,,,0.000000,4.000000,4.000000,4.000000,4.000000,4.000000,4.000000,4.000000,4.000000,4.000000,4.000000,4.000000,4.000000,4.000000,4.000000,100.000000,,,,,,,,,,,,,,,,,,,,,,,,,,,,
1703502212.089750,1703502212.090302,24.000000,0.000000,4277.179688,4263.077148,4309.102539,4317.948730,4250.000000,4243.333496,4265.128418,4255.897461,4246.794922,4212.692383,4519.487305,4472.179688,4336.025879,4425.384766,0.000000,3.000000,66.000000,,,,0.000000,4.000000,4.000000,4.000000,4.000000,4.000000,4.000000,4.000000,4.000000,4.000000,4.000000,4.000000,4.000000,4.000000,4.000000,100.000000,,,,,,,,,,,,,,,,,6.000000,0.000000,0.707635,-0.244690,-0.653503,-0.110962,0.975705,-0.201685,0.027835,-12.047547,-42.544178,60.542812
1703502212.097558,1703502212.098110,25.000000,0.000000,4278.461426,4265.000000,4313.205078,4315.897461,4250.128418,4246.410156,4265.641113,4263.333496,4249.358887,4218.846191,4523.846191,4478.333496,4339.743652,4431.538574,0.000000,3.000000,66.000000,,,,0.000000,4.000000,4.000000,4.000000,4.000000,4.000000,4.000000,4.000000,4.000000,4.000000,4.000000,4.000000,4.000000,4.000000,4.000000,100.000000,,,,,,,,,,,,,,,,,,,,,,,,,,,,
1703502212.105367,1703502212.106018,26.000000,0.000000,4276.538574,4264.358887,4314.358887,4316.410156,4250.384766,4249.487305,4265.769043,4261.282227,4248.589844,4219.102539,4520.897461,4480.641113,4339.487305,4429.102539,0.000000,3.000000,66.000000,,,,0.000000,4.000000,4.000000,4.000000,4.000000,4.000000,4.000000,4.000000,4.000000,4.000000,4.000000,4.000000,4.000000,4.000000,4.000000,100.000000,,,,,,,,,,,,,,,,,,,,,,,,,,,,
1703502212.113175,1703502212.113826,27.000000,0.000000,4276.666504,4268.077148,4314.487305,4315.769043,4251.538574,4245.000000,4264.615234,4256.922852,4246.538574,4213.846191,4514.871582,4474.871582,4336.666504,4426.410156,0.000000,3.000000,66.000000,,,,0.000000,4.000000,4.000000,4.000000,4.000000,4.000000,4.000000,4.000000,4.000000,4.000000,4.000000,4.000000,4.000000,4.000000,4.000000,100.000000,1.000000,100.000000,4.000000,4.000000,4.000000,4.000000,4.000000,4.000000,4.000000,4.000000,4.000000,4.000000,4.000000,4.000000,4.000000,4.000000,,,,,,,,,,,,
1703502212.120983,1703502212.121534,28.000000,0.000000,4277.820313,4269.487305,4314.230957,4312.051270,4251.282227,4242.051270,4260.897461,4254.358887,4248.333496,4211.282227,4515.641113,4472.436035,4337.948730,4430.128418,0.000000,3.000000,66.000000,,,,0.000000,4.000000,4.000000,4.000000,4.000000,4.000000,4.000000,4.000000,4.000000,4.000000,4.000000,4.000000,4.000000,4.000000,4.000000,100.000000,,,,,,,,,,,,,,,,,7.000000,0.000000,0.707590,-0.244873,-0.653442,-0.111206,0.970822,-0.209010,0.024905,-11.942793,-42.539761,60.505199
1703502212.128791,1703502212.129342,29.000000,0.000000,4280.256348,4269.487305,4313.333496,4310.384766,4249.230957,4241.538574,4260.512695,4252.820313,4247.307617,4208.974121,4519.358887,4479.102539,4338.717773,4432.051270,0.000000,3.000000,66.000000,,,,0.000000,4.000000,4.000000,4.000000,4.000000,4.000000,4.000000,4.000000,4.000000,4.000000,4.000000,4.000000,4.000000,4.000000,4.000000,100.000000,,,,,,,,,,,,,,,,,,,,,,,,,,,,
1703502212.136599,1703502212.137050,30.000000,0.000000,4281.410156,4270.384766,4312.307617,4311.025879,4250.769043,4238.589844,4262.948730,4252.948730,4241.410156,4207.051270,4517.307617,4477.948730,4339.102539,4430.641113,0.000000,3.000000,66.000000,,,,0.000000,4.000000,4.000000,4.000000,4.000000,4.000000,4.000000,4.000000,4.000000,4.000000,4.000000,4.000000,4.000000,4.000000,4.000000,100.000000,,,,,,,,,,,,,,,,,,,,,,,,,,,,
1703502212.144407,1703502212.144858,31.000000,0.000000,4280.769043,4267.436035,4311.538574,4311.666504,4250.512695,4236.666504,4263.461426,4251.025879,4242.563965,4207.692383,4512.948730,4470.384766,4343.717773,4430.512695,0.000000,3.000000,66.000000,,,,0.000000,4.000000,4.000000,4.000000,4.000000,4.000000,4.000000,4.000000,4.000000,4.000000,4.000000,4.000000,4.000000,4.000000,4.000000,100.000000,,,,,,,,,,,,,,,,,,,,,,,,,,,,
1703502212.152215,1703502212.152566,32.000000,0.000000,4279.102539,4265.256348,4308.846191,4307.948730,4246.538574,4237.051270,4262.436035,4248.461426,4244.358887,4207.179688,4508.205078,4471.153809,4343.589844,4427.820313,0.000000,3.000000,66.000000,,,,0.000000,4.000000,4.000000,4.000000,4.000000,4.000000,4.000000,4.000000,4.000000,4.000000,4.000000,4.000000,4.000000,4.000000,4.000000,100.000000,,,,,,,,,,,,,,,,,8.000000,0.000000,0.707512,-0.244934,-0.653503,-0.111206,0.980100,-0.204126,0.028812,-11.898514,-42.402451,60.504677
1703502212.160023,1703502212.160374,33.000000,0.000000,4270.641113,4264.743652,4301.922852,4298.205078,4247.051270,4235.641113,4261.538574,4247.563965,4237.307617,4201.794922,4501.410156,4468.974121,4333.717773,4420.128418,0.000000,3.000000,66.000000,,,,0.000000,4.000000,4.000000,4.000000,4.000000,4.000000,4.000000,4.000000,4.000000,4.000000,4.000000,4.000000,4.000000,4.000000,4.000000,100.000000,,,,,,,,,,,,,,,,,,,,,,,,,,,,
1703502212.167831,1703502212.168082,34.000000,0.000000,4262.051270,4259.487305,4294.487305,4292.436035,4246.794922,4232.820313,4261.410156,4245.128418,4230.512695,4196.794922,4494.487305,4458.461426,4324.871582,4411.922852,0.000000,3.000000,66.000000,,,,0.000000,4.000000,4.000000,4.000000,4.000000,4.000000,4.000000,4.000000,4.000000,4.000000,4.000000,4.000000,4.000000,4.000000,4.000000,100.000000,,,,,,,,,,,,,,,,,,,,,,,,,,,,
1703502212.175639,1703502212.175990,35.000000,0.000000,4262.948730,4254.871582,4292.307617,4288.589844,4243.333496,4235.256348,4261.538574,4244.358887,4232.051270,4198.717773,4491.922852,4453.461426,4326.922852,4409.615234,0.000000,3.000000,66.000000,,,,0.000000,4.000000,4.000000,4.000000,4.000000,4.000000,4.000000,4.000000,4.000000,4.000000,4.000000,4.000000,4.000000,4.000000,4.000000,100.000000,,,,,,,,,,,,,,,,,,,,,,,,,,,,
1703502212.183447,1703502212.183798,36.000000,0.000000,4264.230957,4250.512695,4294.358887,4282.179688,4246.538574,4244.487305,4261.538574,4248.077148,4236.922852,4199.743652,4495.641113,4455.897461,4329.615234,4410.256348,0.000000,3.000000,66.000000,,,,0.000000,4.000000,4.000000,4.000000,4.000000,4.000000,4.000000,4.000000,4.000000,4.000000,4.000000,4.000000,4.000000,4.000000,4.000000,100.000000,,,,,,,,,,,,,,,,,9.000000,0.000000,0.707522,-0.244934,-0.653503,-0.111145,0.969357,-0.204615,0.023929,-11.808662,-42.445541,60.637543
1703502212.191255,1703502212.191606,37.000000,0.000000,4257.820313,4246.025879,4293.974121,4281.922852,4251.153809,4247.948730,4260.256348,4250.641113,4239.487305,4198.205078,4500.384766,4457.563965,4328.589844,4408.846191,0.000000,3.000000,66.000000,,,,0.000000,4.000000,4.000000,4.000000,4.000000,4.000000,4.000000,4.000000,4.000000,4.000000,4.000000,4.000000,4.000000,4.000000,4.000000,100.000000,,,,,,,,,,,,,,,,,,,,,,,,,,,,
1703502212.199063,1703502212.199314,38.000000,0.000000,4260.769043,4255.769043,4293.077148,4289.230957,4247.307617,4239.871582,4255.512695,4245.769043,4236.794922,4199.102539,4498.974121,4455.512695,4330.769043,4410.384766,0.000000,3.000000,66.000000,,,,0.000000,4.000000,4.000000,4.000000,4.000000,4.000000,4.000000,4.000000,4.000000,4.000000,4.000000,4.000000,4.000000,4.000000,4.000000,100.000000,,,,,,,,,,,,,,,,,,,,,,,,,,,,
1703502212.206871,1703502212.207223,39.000000,0.000000,4273.589844,4273.333496,4295.641113,4297.948730,4244.743652,4237.051270,4254.102539,4239.230957,4228.461426,4197.307617,4496.666504,4455.128418,4329.743652,4416.282227,0.000000,3.000000,66.000000,,,,0.000000,4.000000,4.000000,4.000000,4.000000,4.000000,4.000000,4.000000,4.000000,4.000000,4.000000,4.000000,4.000000,4.000000,4.000000,100.000000,,,,,,,,,,,,,,,,,,,,,,,,,,,,
1703502212.214679,1703502212.215031,40.000000,0.000000,4282.436035,4282.563965,4303.077148,4304.615234,4250.256348,4244.743652,4260.000000,4243.589844,4231.538574,4199.102539,4505.000000,4463.589844,4337.563965,4426.666504,0.000000,3.000000,66.000000,,,,0.000000,4.000000,4.000000,4.000000,4.000000,4.000000,4.000000,4.000000,4.000000,4.000000,4.000000,4.000000,4.000000,4.000000,4.000000,100.000000,,,,,,,,,,,,,,,,,10.000000,0.000000,0.707591,-0.244873,-0.653503,-0.110840,0.978147,-0.204126,0.022952,-11.761129,-42.600986,60.490456
1703502212.222487,1703502212.222939,41.000000,0.000000,4286.538574,4283.077148,4311.794922,4308.846191,4253.205078,4249.358887,4263.077148,4251.794922,4245.384766,4204.230957,4511.538574,4472.563965,4350.512695,4434.487305,0.000000,3.000000,66.000000,,,,0.000000,4.000000,4.000000,4.000000,4.000000,4.000000,4.000000,4.000000,4.000000,4.000000,4.000000,4.000000,4.000000,4.000000,4.000000,100.000000,,,,,,,,,,,,,,,,,,,,,,,,,,,,
1703502212.230296,1703502212.230747,42.000000,0.000000,4283.974121,4282.051270,4313.846191,4305.512695,4250.384766,4243.333496,4260.512695,4249.871582,4245.384766,4204.487305,4507.692383,4470.384766,4348.077148,4431.538574,0.000000,3.000000,66.000000,,,,0.000000,4.000000,4.000000,4.000000,4.000000,4.000000,4.000000,4.000000,4.000000,4.000000,4.000000,4.000000,4.000000,4.000000,4.000000,100.000000,,,,,,,,,,,,,,,,,,,,,,,,,,,,
1703502212.238104,1703502212.238655,43.000000,0.000000,4280.256348,4281.922852,4307.051270,4298.717773,4247.051270,4234.487305,4255.769043,4241.666504,4233.205078,4200.384766,4505.256348,4460.897461,4341.410156,4427.948730,0.000000,3.000000,66.000000,,,,0.000000,4.000000,4.000000,4.000000,4.000000,4.000000,4.000000,4.000000,4.000000,4.000000,4.000000,4.000000,4.000000,4.000000,4.000000,100.000000,,,,,,,,,,,,,,,,,,,,,,,,,,,,
1703502212.245911,1703502212.246463,44.000000,0.000000,4281.282227,4276.922852,4300.769043,4293.077148,4246.666504,4238.205078,4253.846191,4241.794922,4230.641113,4201.410156,4510.641113,4462.179688,4350.769043,4432.051270,0.000000,3.000000,66.000000,,,,0.000000,4.000000,4.000000,4.000000,4.000000,4.000000,4.000000,4.000000,4.000000,4.000000,4.000000,4.000000,4.000000,4.000000,4.000000,100.000000,,,,,,,,,,,,,,,,,11.000000,0.000000,0.707563,-0.244873,-0.653564,-0.110657,0.967403,-0.204126,0.023440,-11.685017,-42.707554,60.574745
1703502212.253720,1703502212.254371,45.000000,0.000000,4274.358887,4261.410156,4297.179688,4286.153809,4246.922852,4247.179688,4257.051270,4245.384766,4235.769043,4200.256348,4512.820313,4464.871582,4357.563965,4429.230957,0.000000,3.000000,66.000000,,,,0.000000,4.000000,4.000000,4.000000,4.000000,4.000000,4.000000,4.000000,4.000000,4.000000,4.000000,4.000000,4.000000,4.000000,4.000000,100.000000,,,,,,,,,,,,,,,,,,,,,,,,,,,,
1703502212.261528,1703502212.262180,46.000000,0.000000,4258.717773,4249.102539,4291.538574,4277.563965,4245.000000,4243.333496,4259.743652,4244.230957,4232.948730,4196.794922,4506.794922,4457.051270,4346.538574,4419.615234,0.000000,3.000000,66.000000,,,,0.000000,4.000000,4.000000,4.000000,4.000000,4.000000,4.000000,4.000000,4.000000,4.000000,4.000000,4.000000,4.000000,4.000000,4.000000,100.000000,,,,,,,,,,,,,,,,,,,,,,,,,,,,
1703502212.269336,1703502212.270088,47.000000,0.000000,4259.615234,4258.717773,4291.153809,4279.230957,4242.948730,4236.410156,4260.128418,4242.820313,4228.589844,4196.153809,4500.128418,4453.974121,4340.512695,4420.512695,0.000000,3.000000,66.000000,,,,0.000000,4.000000,4.000000,4.000000,4.000000,4.000000,4.000000,4.000000,4.000000,4.000000,4.000000,4.000000,4.000000,4.000000,4.000000,100.000000,,,,,,,,,,,,,,,,,,,,,,,,,,,,
1703502212.277144,1703502212.277896,48.000000,0.000000,4269.615234,4275.384766,4293.461426,4291.410156,4246.794922,4244.102539,4261.025879,4241.410156,4230.769043,4193.846191,4489.871582,4452.948730,4332.820313,4417.692383,0.000000,3.000000,66.000000,,,,0.000000,4.000000,4.000000,4.000000,4.000000,4.000000,4.000000,4.000000,4.000000,4.000000,4.000000,4.000000,4.000000,4.000000,4.000000,100.000000,,,,,,,,,,,,,,,,,12.000000,0.000000,0.707557,-0.244812,-0.653625,-0.110474,0.958613,-0.200220,0.030765,-11.716515,-42.553467,60.533936
1703502212.284952,1703502212.285804,49.000000,0.000000,4265.000000,4274.358887,4290.769043,4292.692383,4248.589844,4247.179688,4257.692383,4236.922852,4231.666504,4193.333496,4481.666504,4447.051270,4319.102539,4405.000000,0.000000,3.000000,66.000000,,,,0.000000,4.000000,4.000000,4.000000,4.000000,4.000000,4.000000,4.000000,4.000000,4.000000,4.000000,4.000000,4.000000,4.000000,4.000000,100.000000,,,,,,,,,,,,,,,,,,,,,,,,,,,,
1703502212.292760,1703502212.293612,50.000000,0.000000,4259.615234,4269.230957,4290.897461,4290.000000,4241.025879,4236.153809,4250.641113,4232.563965,4227.563965,4192.692383,4483.461426,4447.307617,4320.641113,4404.743652,0.000000,3.000000,66.000000,,,,0.000000,4.000000,4.000000,4.000000,4.000000,4.000000,4.000000,4.000000,4.000000,4.000000,4.000000,4.000000,4.000000,4.000000,4.000000,100.000000,,,,,,,,,,,,,,,,,,,,,,,,,,,,
1703502212.300568,1703502212.301420,51.000000,0.000000,4266.794922,4278.205078,4295.128418,4294.102539,4239.358887,4230.000000,4248.333496,4232.948730,4226.282227,4195.256348,4494.615234,4454.871582,4338.589844,4418.461426,0.000000,3.000000,66.000000,,,,0.000000,4.000000,4.000000,4.000000,4.000000,4.000000,4.000000,4.000000,4.000000,4.000000,4.000000,4.000000,4.000000,4.000000,4.000000,100.000000,,,,,,,,,,,,,,,,,,,,,,,,,,,,
1703502212.308376,1703502212.309228,52.000000,0.000000,4276.666504,4277.820313,4300.000000,4295.128418,4245.769043,4233.333496,4252.820313,4238.077148,4231.922852,4207.307617,4512.563965,4464.871582,4356.666504,4432.948730,0.000000,3.000000,66.000000,,,,0.000000,4.000000,4.000000,4.000000,4.000000,4.000000,4.000000,4.000000,4.000000,4.000000,4.000000,4.000000,4.000000,4.000000,4.000000,100.000000,,,,,,,,,,,,,,,,,13.000000,0.000000,0.707516,-0.244873,-0.653625,-0.110596,0.967403,-0.198755,0.031254,-11.894863,-42.698120,60.430542
1703502212.316184,1703502212.316936,53.000000,0.000000,4276.794922,4263.077148,4303.461426,4292.051270,4248.205078,4236.794922,4256.153809,4245.512695,4237.563965,4219.871582,4523.974121,4469.743652,4365.769043,4442.820313,0.000000,3.000000,66.000000,,,,0.000000,4.000000,4.000000,4.000000,4.000000,4.000000,4.000000,4.000000,4.000000,4.000000,4.000000,4.000000,4.000000,4.000000,4.000000,100.000000,,,,,,,,,,,,,,,,,,,,,,,,,,,,
1703502212.323992,1703502212.324744,54.000000,0.000000,4275.256348,4267.436035,4302.563965,4293.077148,4246.794922,4235.384766,4254.615234,4243.205078,4239.743652,4221.538574,4520.000000,4467.179688,4372.179688,4445.256348,0.000000,3.000000,66.000000,,,,0.000000,4.000000,4.000000,4.000000,4.000000,4.000000,4.000000,4.000000,4.000000,4.000000,4.000000,4.000000,4.000000,4.000000,4.000000,100.000000,,,,,,,,,,,,,,,,,,,,,,,,,,,,
1703502212.331800,1703502212.332452,55.000000,0.000000,4286.153809,4289.487305,4302.563965,4301.153809,4247.436035,4232.307617,4253.846191,4232.948730,4235.897461,4215.384766,4511.538574,4461.282227,4372.307617,4445.128418,0.000000,3.000000,66.000000,,,,0.000000,4.000000,4.000000,4.000000,4.000000,4.000000,4.000000,4.000000,4.000000,4.000000,4.000000,4.000000,4.000000,4.000000,4.000000,100.000000,,,,,,,,,,,,,,,,,,,,,,,,,,,,
1703502212.339608,1703502212.340360,56.000000,0.000000,4291.794922,4296.410156,4303.205078,4306.282227,4250.512695,4235.000000,4257.051270,4231.922852,4223.589844,4205.769043,4499.487305,4453.974121,4352.563965,4440.000000,0.000000,3.000000,66.000000,,,,0.000000,4.000000,4.000000,4.000000,4.000000,4.000000,4.000000,4.000000,4.000000,4.000000,4.000000,4.000000,4.000000,4.000000,4.000000,100.000000,,,,,,,,,,,,,,,,,14.000000,0.000000,0.707394,-0.244873,-0.653748,-0.110657,0.962520,-0.205591,0.033696,-11.938710,-42.678307,60.287487
1703502212.347416,1703502212.348168,57.000000,0.000000,4281.666504,4288.589844,4300.769043,4306.538574,4250.641113,4238.589844,4257.692383,4231.922852,4215.641113,4195.128418,4486.153809,4451.025879,4331.025879,4425.512695,0.000000,3.000000,66.000000,,,,0.000000,4.000000,4.000000,4.000000,4.000000,4.000000,4.000000,4.000000,4.000000,4.000000,4.000000,4.000000,4.000000,4.000000,4.000000,100.000000,,,,,,,,,,,,,,,,,,,,,,,,,,,,
1703502212.355224,1703502212.355976,58.000000,0.000000,4276.794922,4283.717773,4299.102539,4303.717773,4249.230957,4235.128418,4257.820313,4228.717773,4225.769043,4201.025879,4494.743652,4455.128418,4346.025879,4424.102539,0.000000,3.000000,66.000000,,,,0.000000,4.000000,4.000000,4.000000,4.000000,4.000000,4.000000,4.000000,4.000000,4.000000,4.000000,4.000000,4.000000,4.000000,4.000000,100.000000,,,,,,,,,,,,,,,,,,,,,,,,,,,,
1703502212.363032,1703502212.363684,59.000000,0.000000,4283.589844,4285.384766,4301.153809,4299.743652,4252.179688,4236.922852,4262.563965,4236.794922,4235.769043,4213.717773,4510.512695,4457.820313,4370.000000,4439.230957,0.000000,3.000000,66.000000,,,,0.000000,4.000000,4.000000,4.000000,4.000000,4.000000,4.000000,4.000000,4.000000,4.000000,4.000000,4.000000,4.000000,4.000000,4.000000,100.000000,,,,,,,,,,,,,,,,,,,,,,,,,,,,
1703502212.370840,1703502212.371492,60.000000,0.000000,4281.666504,4280.897461,4299.230957,4294.487305,4255.256348,4247.563965,4262.436035,4247.436035,4233.077148,4215.897461,4508.333496,4456.922852,4367.051270,4440.512695,0.000000,3.000000,66.000000,,,,0.000000,4.000000,4.000000,4.000000,4.000000,4.000000,4.000000,4.000000,4.000000,4.000000,4.000000,4.000000,4.000000,4.000000,4.000000,100.000000,,,,,,,,,,,,,,,,,15.000000,0.000000,0.707478,-0.244873,-0.653625,-0.110840,0.963985,-0.213405,0.022952,-11.844839,-42.660477,60.308739
1703502212.378649,1703502212.379201,61.000000,0.000000,4267.179688,4264.102539,4294.358887,4288.077148,4251.922852,4249.102539,4260.769043,4248.461426,4237.436035,4216.282227,4506.282227,4460.384766,4365.128418,4430.384766,0.000000,3.000000,66.000000,,,,0.000000,4.000000,4.000000,4.000000,4.000000,4.000000,4.000000,4.000000,4.000000,4.000000,4.000000,4.000000,4.000000,4.000000,4.000000,100.000000,,,,,,,,,,,,,,,,,,,,,,,,,,,,
1703502212.386457,1703502212.387008,62.000000,0.000000,4262.692383,4261.410156,4294.615234,4288.461426,4249.230957,4244.230957,4265.512695,4248.333496,4247.692383,4217.436035,4507.179688,4465.000000,4364.743652,4428.717773,0.000000,3.000000,66.000000,,,,0.000000,4.000000,4.000000,4.000000,4.000000,4.000000,4.000000,4.000000,4.000000,4.000000,4.000000,4.000000,4.000000,4.000000,4.000000,100.000000,,,,,,,,,,,,,,,,,,,,,,,,,,,,
1703502212.394265,1703502212.394717,63.000000,0.000000,4274.487305,4279.102539,4299.230957,4295.256348,4248.846191,4245.641113,4266.025879,4250.641113,4245.641113,4217.051270,4506.025879,4461.666504,4357.307617,4433.333496,0.000000,3.000000,66.000000,,,,0.000000,4.000000,4.000000,4.000000,4.000000,4.000000,4.000000,4.000000,4.000000,4.000000,4.000000,4.000000,4.000000,4.000000,4.000000,100.000000,,,,,,,,,,,,,,,,,,,,,,,,,,,,
1703502212.402073,1703502212.402525,64.000000,0.000000,4281.794922,4282.563965,4302.563965,4297.436035,4249.871582,4247.307617,4263.333496,4249.487305,4242.179688,4216.666504,4509.358887,4459.230957,4360.769043,4438.333496,5156.000000,3.000000,66.000000,,,,0.000000,4.000000,4.000000,4.000000,4.000000,4.000000,4.000000,4.000000,4.000000,4.000000,4.000000,4.000000,4.000000,4.000000,4.000000,100.000000,,,,,,,,,,,,,,,,,16.000000,0.000000,0.707565,-0.244812,-0.653564,-0.110779,0.969357,-0.205591,0.025394,-11.927022,-42.627762,60.311199
1703502212.409881,1703502212.410233,65.000000,0.000000,4277.436035,4274.615234,4300.000000,4293.333496,4254.487305,4246.282227,4263.846191,4244.871582,4242.563965,4217.307617,4509.230957,4467.436035,4366.025879,4442.948730,5512.000000,3.000000,66.000000,,,,0.000000,4.000000,4.000000,4.000000,4.000000,4.000000,4.000000,4.000000,4.000000,4.000000,4.000000,4.000000,4.000000,4.000000,4.000000,100.000000,,,,,,,,,,,,,,,,,,,,,,,,,,,,
1703502212.417689,1703502212.418141,66.000000,0.000000,4277.436035,4278.077148,4300.512695,4295.128418,4257.051270,4249.230957,4263.846191,4245.512695,4239.230957,4218.205078,4508.333496,4471.794922,4362.179688,4447.051270,5362.000000,3.000000,66.000000,,,,0.000000,4.000000,4.000000,4.000000,4.000000,4.000000,4.000000,4.000000,4.000000,4.000000,4.000000,4.000000,4.000000,4.000000,4.000000,100.000000,,,,,,,,,,,,,,,,,,,,,,,,,,,,
1703502212.425497,1703502212.425949,67.000000,0.000000,4282.820313,4282.179688,4308.974121,4298.461426,4252.692383,4244.358887,4261.538574,4245.512695,4239.487305,4217.051270,4510.769043,4467.179688,4361.025879,4446.794922,5427.000000,3.000000,66.000000,,,,0.000000,4.000000,4.000000,4.000000,4.000000,4.000000,4.000000,4.000000,4.000000,4.000000,4.000000,4.000000,4.000000,4.000000,4.000000,100.000000,,,,,,,,,,,,,,,,,,,,,,,,,,,,
1703502212.433305,1703502212.433857,68.000000,0.000000,4281.666504,4279.871582,4312.692383,4296.153809,4248.205078,4235.000000,4260.769043,4238.077148,4243.333496,4215.897461,4506.410156,4466.410156,4363.974121,4445.897461,5315.000000,3.000000,66.000000,,,,0.000000,4.000000,4.000000,4.000000,4.000000,4.000000,4.000000,4.000000,4.000000,4.000000,4.000000,4.000000,4.000000,4.000000,4.000000,100.000000,,,,,,,,,,,,,,,,,17.000000,0.000000,0.707565,-0.244812,-0.653564,-0.110779,0.969845,-0.211452,0.020022,-11.900987,-42.631653,60.363411
1703502212.441113,1703502212.441665,69.000000,0.000000,4279.358887,4281.794922,4308.077148,4296.410156,4248.205078,4238.461426,4263.205078,4236.282227,4237.692383,4217.692383,4502.692383,4465.641113,4363.846191,4446.153809,4876.000000,3.000000,66.000000,,,,0.000000,4.000000,4.000000,4.000000,4.000000,4.000000,4.000000,4.000000,4.000000,4.000000,4.000000,4.000000,4.000000,4.000000,4.000000,100.000000,,,,,,,,,,,,,,,,,,,,,,,,,,,,
1703502212.448921,1703502212.449573,70.000000,0.000000,4275.256348,4278.205078,4298.846191,4296.025879,4251.282227,4248.333496,4264.358887,4237.307617,4230.512695,4212.436035,4501.282227,4458.589844,4359.487305,4438.717773,3992.000000,3.000000,66.000000,,,,0.000000,4.000000,4.000000,4.000000,4.000000,4.000000,4.000000,4.000000,4.000000,4.000000,4.000000,4.000000,4.000000,4.000000,4.000000,100.000000,,,,,,,,,,,,,,,,,,,,,,,,,,,,
1703502212.456729,1703502212.457382,71.000000,0.000000,4267.820313,4267.436035,4292.051270,4290.384766,4253.846191,4248.333496,4263.717773,4235.256348,4231.538574,4202.436035,4493.461426,4450.384766,4354.615234,4429.230957,5282.000000,3.000000,66.000000,,,,0.000000,4.000000,4.000000,4.000000,4.000000,4.000000,4.000000,4.000000,4.000000,4.000000,4.000000,4.000000,4.000000,4.000000,4.000000,100.000000,,,,,,,,,,,,,,,,,,,,,,,,,,,,
1703502212.464537,1703502212.465289,72.000000,0.000000,4262.436035,4263.974121,4292.692383,4286.282227,4250.256348,4244.102539,4264.102539,4239.615234,4233.846191,4203.846191,4488.205078,4450.384766,4353.205078,4426.410156,5405.000000,3.000000,66.000000,,,,0.000000,4.000000,4.000000,4.000000,4.000000,4.000000,4.000000,4.000000,4.000000,4.000000,4.000000,4.000000,4.000000,4.000000,4.000000,100.000000,,,,,,,,,,,,,,,,,18.000000,0.000000,0.707520,-0.244751,-0.653625,-0.110840,0.974728,-0.212428,0.015627,-11.877555,-42.685154,60.327072
1703502212.472345,1703502212.473097,73.000000,0.000000,4264.615234,4271.666504,4295.897461,4288.589844,4246.666504,4246.410156,4265.256348,4247.563965,4233.717773,4211.794922,4494.615234,4453.974121,4357.563965,4428.461426,5467.000000,3.000000,66.000000,,,,0.000000,4.000000,4.000000,4.000000,4.000000,4.000000,4.000000,4.000000,4.000000,4.000000,4.000000,4.000000,4.000000,4.000000,4.000000,100.000000,,,,,,,,,,,,,,,,,,,,,,,,,,,,
1703502212.480153,1703502212.480805,74.000000,0.000000,4269.102539,4277.307617,4293.846191,4292.307617,4248.974121,4247.307617,4264.615234,4246.025879,4234.487305,4212.307617,4495.384766,4455.384766,4362.179688,4432.563965,6053.000000,3.000000,66.000000,,,,0.000000,4.000000,4.000000,4.000000,4.000000,4.000000,4.000000,4.000000,4.000000,4.000000,4.000000,4.000000,4.000000,4.000000,4.000000,100.000000,,,,,,,,,,,,,,,,,,,,,,,,,,,,
1703502212.487961,1703502212.488613,75.000000,0.000000,4269.871582,4272.307617,4294.487305,4291.922852,4247.692383,4241.922852,4262.436035,4242.948730,4236.410156,4208.205078,4488.589844,4456.794922,4362.051270,4436.282227,6374.000000,3.000000,66.000000,,,,0.000000,4.000000,4.000000,4.000000,4.000000,4.000000,4.000000,4.000000,4.000000,4.000000,4.000000,4.000000,4.000000,4.000000,4.000000,100.000000,,,,,,,,,,,,,,,,,,,,,,,,,,,,
1703502212.495769,1703502212.496521,76.000000,0.000000,4275.128418,4274.615234,4301.153809,4297.307617,4250.897461,4241.410156,4263.589844,4247.820313,4243.974121,4214.871582,4497.948730,4460.384766,4366.794922,4442.820313,6908.000000,3.000000,66.000000,,,,0.000000,4.000000,4.000000,4.000000,4.000000,4.000000,4.000000,4.000000,4.000000,4.000000,4.000000,4.000000,4.000000,4.000000,4.000000,100.000000,,,,,,,,,,,,,,,,,19.000000,0.000000,0.707499,-0.244812,-0.653625,-0.110840,0.988890,-0.186546,0.027347,-12.139799,-42.749973,60.344364
1703502212.503577,1703502212.504329,77.000000,0.000000,4282.051270,4286.282227,4305.384766,4303.077148,4260.512695,4247.563965,4266.410156,4249.230957,4250.000000,4225.384766,4512.436035,4468.205078,4375.128418,4449.230957,6659.000000,3.000000,66.000000,,,,0.000000,4.000000,4.000000,4.000000,4.000000,4.000000,4.000000,4.000000,4.000000,4.000000,4.000000,4.000000,4.000000,4.000000,4.000000,100.000000,,,,,,,,,,,,,,,,,,,,,,,,,,,,
1703502212.511386,1703502212.512137,78.000000,0.000000,4280.512695,4287.820313,4305.128418,4299.743652,4261.282227,4245.769043,4265.256348,4245.897461,4245.512695,4220.897461,4513.077148,4471.025879,4376.922852,4447.179688,6053.000000,3.000000,66.000000,,,,0.000000,4.000000,4.000000,4.000000,4.000000,4.000000,4.000000,4.000000,4.000000,4.000000,4.000000,4.000000,4.000000,4.000000,4.000000,100.000000,,,,,,,,,,,,,,,,,,,,,,,,,,,,
1703502212.519194,1703502212.519945,79.000000,0.000000,4281.025879,4280.897461,4308.077148,4298.461426,4251.666504,4238.205078,4262.307617,4242.692383,4241.922852,4215.256348,4509.358887,4468.589844,4378.077148,4448.589844,6374.000000,3.000000,66.000000,,,,0.000000,4.000000,4.000000,4.000000,4.000000,4.000000,4.000000,4.000000,4.000000,4.000000,4.000000,4.000000,4.000000,4.000000,4.000000,100.000000,,,,,,,,,,,,,,,,,,,,,,,,,,,,
1703502212.527002,1703502212.527653,80.000000,0.000000,4286.025879,4279.230957,4315.769043,4303.974121,4247.820313,4241.794922,4262.820313,4243.077148,4246.025879,4222.307617,4510.000000,4473.333496,4381.538574,4454.615234,6908.000000,3.000000,66.000000,,,,0.000000,4.000000,4.000000,4.000000,4.000000,4.000000,4.000000,4.000000,4.000000,4.000000,4.000000,4.000000,4.000000,4.000000,4.000000,100.000000,,,,,,,,,,,,,,,,,20.000000,0.000000,0.707342,-0.244751,-0.653809,-0.110901,0.973263,-0.195825,0.021487,-12.092485,-42.741642,60.393261
1703502212.534810,1703502212.535461,81.000000,0.000000,4282.179688,4282.948730,4313.461426,4301.538574,4251.922852,4248.846191,4265.000000,4245.512695,4248.205078,4223.461426,4507.563965,4472.692383,4376.922852,4449.102539,6659.000000,3.000000,66.000000,,,,0.000000,4.000000,4.000000,4.000000,4.000000,4.000000,4.000000,4.000000,4.000000,4.000000,4.000000,4.000000,4.000000,4.000000,4.000000,100.000000,,,,,,,,,,,,,,,,,,,,,,,,,,,,
1703502212.542618,1703502212.543169,82.000000,0.000000,4277.436035,4281.922852,4302.692383,4293.077148,4250.512695,4246.410156,4265.384766,4244.615234,4246.922852,4214.487305,4501.153809,4466.282227,4368.333496,4442.436035,6053.000000,3.000000,66.000000,,,,0.000000,4.000000,4.000000,4.000000,4.000000,4.000000,4.000000,4.000000,4.000000,4.000000,4.000000,4.000000,4.000000,4.000000,4.000000,100.000000,,,,,,,,,,,,,,,,,,,,,,,,,,,,
1703502212.550426,1703502212.550977,83.000000,0.000000,4280.256348,4274.615234,4298.077148,4292.307617,4247.563965,4243.205078,4265.384766,4247.563965,4246.410156,4214.487305,4497.820313,4465.256348,4362.307617,4441.410156,6374.000000,3.000000,66.000000,,,,0.000000,4.000000,4.000000,4.000000,4.000000,4.000000,4.000000,4.000000,4.000000,4.000000,4.000000,4.000000,4.000000,4.000000,4.000000,100.000000,,,,,,,,,,,,,,,,,,,,,,,,,,,,
1703502212.558234,1703502212.558685,84.000000,0.000000,4273.077148,4271.153809,4294.743652,4289.358887,4249.743652,4245.000000,4263.846191,4248.205078,4240.897461,4209.230957,4491.153809,4458.205078,4355.000000,4431.410156,6908.000000,3.000000,66.000000,,,,0.000000,4.000000,4.000000,4.000000,4.000000,4.000000,4.000000,4.000000,4.000000,4.000000,4.000000,4.000000,4.000000,4.000000,4.000000,100.000000,,,,,,,,,,,,,,,,,21.000000,0.000000,0.707336,-0.244385,-0.653931,-0.111023,0.972287,-0.204615,0.029300,-12.149904,-42.700809,60.470600
1703502212.566042,1703502212.566493,85.000000,0.000000,4263.461426,4273.077148,4293.333496,4282.179688,4249.871582,4242.948730,4263.077148,4235.641113,4231.538574,4197.820313,4484.615234,4451.922852,4357.948730,4426.025879,6659.000000,3.000000,66.000000,,,,0.000000,4.000000,4.000000,4.000000,4.000000,4.000000,4.000000,4.000000,4.000000,4.000000,4.000000,4.000000,4.000000,4.000000,4.000000,100.000000,,,,,,,,,,,,,,,,,,,,,,,,,,,,
1703502212.573850,1703502212.574201,86.000000,0.000000,4269.230957,4269.230957,4297.820313,4283.333496,4250.512695,4239.743652,4263.205078,4231.538574,4233.461426,4207.692383,4493.333496,4458.717773,4376.410156,4439.743652,6053.000000,3.000000,66.000000,,,,0.000000,4.000000,4.000000,4.000000,4.000000,4.000000,4.000000,4.000000,4.000000,4.000000,4.000000,4.000000,4.000000,4.000000,4.000000,100.000000,,,,,,,,,,,,,,,,,,,,,,,,,,,,
1703502212.581658,1703502212.582009,87.000000,0.000000,4277.051270,4267.563965,4301.025879,4289.615234,4254.358887,4242.051270,4260.897461,4241.922852,4244.743652,4221.025879,4507.692383,4465.769043,4390.384766,4452.436035,6374.000000,3.000000,66.000000,,,,0.000000,4.000000,4.000000,4.000000,4.000000,4.000000,4.000000,4.000000,4.000000,4.000000,4.000000,4.000000,4.000000,4.000000,4.000000,100.000000,,,,,,,,,,,,,,,,,,,,,,,,,,,,
1703502212.589466,1703502212.589717,88.000000,0.000000,4281.153809,4279.743652,4299.743652,4296.282227,4252.948730,4241.922852,4259.871582,4239.871582,4246.922852,4216.538574,4505.384766,4466.538574,4389.871582,4454.487305,6908.000000,3.000000,66.000000,,,,0.000000,4.000000,4.000000,4.000000,4.000000,4.000000,4.000000,4.000000,4.000000,4.000000,4.000000,4.000000,4.000000,4.000000,4.000000,100.000000,,,,,,,,,,,,,,,,,22.000000,0.000000,0.707427,-0.244202,-0.653870,-0.111206,0.961543,-0.195825,0.028324,-12.018247,-42.614063,60.423542
1703502212.597274,1703502212.597525,89.000000,0.000000,4281.410156,4285.256348,4301.410156,4300.769043,4249.487305,4236.666504,4261.025879,4230.384766,4237.436035,4210.384766,4489.487305,4464.615234,4372.692383,4446.922852,6659.000000,3.000000,66.000000,,,,0.000000,4.000000,4.000000,4.000000,4.000000,4.000000,4.000000,4.000000,4.000000,4.000000,4.000000,4.000000,4.000000,4.000000,4.000000,100.000000,,,,,,,,,,,,,,,,,,,,,,,,,,,,
1703502212.605082,1703502212.605233,90.000000,0.000000,4277.051270,4284.743652,4308.333496,4306.666504,4254.230957,4233.205078,4260.769043,4236.282227,4236.922852,4214.358887,4490.897461,4466.922852,4365.000000,4442.820313,6053.000000,3.000000,66.000000,,,,0.000000,4.000000,4.000000,4.000000,4.000000,4.000000,4.000000,4.000000,4.000000,4.000000,4.000000,4.000000,4.000000,4.000000,4.000000,100.000000,,,,,,,,,,,,,,,,,,,,,,,,,,,,
1703502212.612890,1703502212.613142,91.000000,0.000000,4281.922852,4292.692383,4311.538574,4313.077148,4254.358887,4233.589844,4259.102539,4245.384766,4244.743652,4220.128418,4508.077148,4473.077148,4391.025879,4457.436035,6374.000000,3.000000,66.000000,,,,0.000000,4.000000,4.000000,4.000000,4.000000,4.000000,4.000000,4.000000,4.000000,4.000000,4.000000,4.000000,4.000000,4.000000,4.000000,100.000000,1.000000,91.666664,4.000000,4.000000,4.000000,4.000000,4.000000,3.000000,4.000000,4.000000,4.000000,4.000000,4.000000,4.000000,4.000000,4.000000,,,,,,,,,,,,
1703502212.620698,1703502212.620950,92.000000,0.000000,4288.205078,4293.205078,4311.025879,4311.922852,4247.948730,4234.230957,4259.743652,4245.256348,4241.794922,4219.615234,4511.153809,4475.000000,4406.282227,4466.538574,6908.000000,3.000000,66.000000,,,,0.000000,4.000000,4.000000,4.000000,4.000000,4.000000,4.000000,4.000000,4.000000,4.000000,4.000000,4.000000,4.000000,4.000000,4.000000,100.000000,,,,,,,,,,,,,,,,,23.000000,0.000000,0.707545,-0.244324,-0.653687,-0.111267,0.959590,-0.212917,0.022464,-11.966422,-42.602657,60.481186
1703502212.628506,1703502212.628858,93.000000,0.000000,4281.922852,4284.102539,4310.128418,4306.153809,4250.512695,4234.871582,4261.282227,4242.948730,4235.256348,4214.871582,4500.512695,4471.666504,4391.282227,4455.128418,6659.000000,3.000000,66.000000,,,,0.000000,4.000000,4.000000,4.000000,4.000000,4.000000,4.000000,4.000000,4.000000,4.000000,4.000000,4.000000,4.000000,4.000000,4.000000,100.000000,,,,,,,,,,,,,,,,,,,,,,,,,,,,
1703502212.636315,1703502212.636666,94.000000,0.000000,4280.897461,4289.358887,4309.615234,4309.487305,4255.512695,4236.794922,4259.743652,4242.436035,4237.563965,4216.282227,4496.282227,4471.025879,4390.512695,4454.871582,6053.000000,3.000000,66.000000,,,,0.000000,4.000000,4.000000,4.000000,4.000000,4.000000,4.000000,4.000000,4.000000,4.000000,4.000000,4.000000,4.000000,4.000000,4.000000,100.000000,,,,,,,,,,,,,,,,,,,,,,,,,,,,
1703502212.644122,1703502212.644574,95.000000,0.000000,4288.717773,4299.358887,4311.282227,4313.717773,4251.538574,4235.641113,4259.487305,4242.179688,4237.179688,4218.846191,4499.358887,4472.436035,4399.743652,4459.871582,6374.000000,3.000000,66.000000,,,,0.000000,4.000000,4.000000,4.000000,4.000000,4.000000,4.000000,4.000000,4.000000,4.000000,4.000000,4.000000,4.000000,4.000000,4.000000,100.000000,,,,,,,,,,,,,,,,,,,,,,,,,,,,
1703502212.651930,1703502212.652382,96.000000,0.000000,4282.436035,4294.615234,4307.436035,4304.358887,4247.179688,4232.692383,4257.436035,4236.410156,4231.410156,4208.461426,4495.256348,4465.897461,4388.717773,4443.974121,6908.000000,3.000000,66.000000,,,,0.000000,4.000000,4.000000,4.000000,4.000000,4.000000,4.000000,4.000000,4.000000,4.000000,4.000000,4.000000,4.000000,4.000000,4.000000,100.000000,,,,,,,,,,,,,,,,,24.000000,0.000000,0.707545,-0.244812,-0.653503,-0.111267,0.963497,-0.191430,0.025394,-12.053113,-42.675724,60.399734
1703502212.659739,1703502212.660291,97.000000,0.000000,4273.077148,4288.974121,4300.384766,4293.846191,4246.538574,4231.153809,4253.205078,4231.410156,4230.256348,4203.333496,4490.897461,4459.871582,4380.641113,4434.487305,6659.000000,3.000000,66.000000,,,,0.000000,4.000000,4.000000,4.000000,4.000000,4.000000,4.000000,4.000000,4.000000,4.000000,4.000000,4.000000,4.000000,4.000000,4.000000,100.000000,,,,,,,,,,,,,,,,,,,,,,,,,,,,
1703502212.667547,1703502212.668099,98.000000,0.000000,4279.615234,4293.846191,4301.153809,4295.000000,4247.051270,4232.179688,4256.410156,4237.820313,4233.205078,4209.743652,4492.820313,4463.589844,4385.256348,4440.256348,6053.000000,3.000000,66.000000,,,,0.000000,4.000000,4.000000,4.000000,4.000000,4.000000,4.000000,4.000000,4.000000,4.000000,4.000000,4.000000,4.000000,4.000000,4.000000,100.000000,,,,,,,,,,,,,,,,,,,,,,,,,,,,
1703502212.675355,1703502212.675807,99.000000,0.000000,4282.051270,4293.717773,4302.948730,4298.077148,4248.077148,4232.307617,4260.384766,4240.128418,4233.846191,4208.333496,4494.487305,4464.358887,4383.461426,4433.333496,6374.000000,3.000000,66.000000,,,,0.000000,4.000000,4.000000,4.000000,4.000000,4.000000,4.000000,4.000000,4.000000,4.000000,4.000000,4.000000,4.000000,4.000000,4.000000,100.000000,,,,,,,,,,,,,,,,,,,,,,,,,,,,
1703502212.683163,1703502212.683615,100.000000,0.000000,4275.641113,4282.051270,4298.846191,4290.641113,4246.666504,4227.948730,4253.461426,4232.436035,4229.358887,4204.615234,4496.794922,4461.538574,4383.846191,4426.666504,6908.000000,3.000000,66.000000,,,,0.000000,4.000000,4.000000,4.000000,4.000000,4.000000,4.000000,4.000000,4.000000,4.000000,4.000000,4.000000,4.000000,4.000000,4.000000,100.000000,,,,,,,,,,,,,,,,,25.000000,0.000000,0.707472,-0.244995,-0.653503,-0.111328,0.976682,-0.201196,0.014162,-12.214469,-42.691486,60.376427
1703502212.690971,1703502212.691323,101.000000,0.000000,4274.487305,4274.615234,4300.256348,4279.743652,4247.307617,4226.410156,4246.538574,4235.256348,4231.153809,4212.436035,4500.769043,4465.000000,4390.128418,4436.538574,6659.000000,3.000000,66.000000,,,,0.000000,4.000000,4.000000,4.000000,4.000000,4.000000,4.000000,4.000000,4.000000,4.000000,4.000000,4.000000,4.000000,4.000000,4.000000,100.000000,,,,,,,,,,,,,,,,,,,,,,,,,,,,
1703502212.698779,1703502212.699131,102.000000,0.000000,4277.179688,4278.333496,4305.641113,4278.461426,4250.384766,4230.000000,4252.179688,4246.410156,4241.922852,4222.051270,4506.282227,4469.358887,4391.153809,4442.051270,6053.000000,3.000000,66.000000,,,,0.000000,4.000000,4.000000,4.000000,4.000000,4.000000,4.000000,4.000000,4.000000,4.000000,4.000000,4.000000,4.000000,4.000000,4.000000,100.000000,,,,,,,,,,,,,,,,,,,,,,,,,,,,
1703502212.706587,1703502212.706839,103.000000,0.000000,4278.205078,4281.666504,4304.102539,4282.948730,4248.589844,4232.436035,4256.025879,4246.410156,4243.846191,4218.077148,4503.333496,4468.205078,4385.128418,4435.384766,6374.000000,3.000000,66.000000,,,,0.000000,4.000000,4.000000,4.000000,4.000000,4.000000,4.000000,4.000000,4.000000,4.000000,4.000000,4.000000,4.000000,4.000000,4.000000,100.000000,,,,,,,,,,,,,,,,,,,,,,,,,,,,
1703502212.714395,1703502212.714647,104.000000,0.000000,4277.179688,4278.846191,4304.230957,4283.717773,4248.589844,4230.897461,4249.743652,4241.666504,4234.358887,4209.358887,4495.512695,4466.666504,4380.769043,4436.282227,6908.000000,3.000000,66.000000,,,,0.000000,4.000000,4.000000,4.000000,4.000000,4.000000,4.000000,4.000000,4.000000,4.000000,4.000000,4.000000,4.000000,4.000000,4.000000,100.000000,,,,,,,,,,,,,,,,,26.000000,0.000000,0.707347,-0.245300,-0.653503,-0.111450,0.971310,-0.198755,0.031254,-12.259688,-42.655670,60.588787
1703502212.722203,1703502212.722355,105.000000,0.000000,4279.230957,4278.717773,4310.512695,4285.897461,4252.948730,4230.897461,4250.000000,4243.589844,4233.205078,4210.128418,4495.512695,4470.769043,4382.563965,4441.282227,6659.000000,3.000000,66.000000,,,,0.000000,4.000000,4.000000,4.000000,4.000000,4.000000,4.000000,4.000000,4.000000,4.000000,4.000000,4.000000,4.000000,4.000000,4.000000,100.000000,,,,,,,,,,,,,,,,,,,,,,,,,,,,
1703502212.730011,1703502212.730163,106.000000,0.000000,4286.794922,4288.974121,4313.077148,4293.333496,4253.846191,4234.487305,4256.410156,4248.846191,4240.000000,4216.025879,4502.692383,4474.230957,4385.897461,4443.205078,6053.000000,3.000000,66.000000,,,,0.000000,4.000000,4.000000,4.000000,4.000000,4.000000,4.000000,4.000000,4.000000,4.000000,4.000000,4.000000,4.000000,4.000000,4.000000,100.000000,,,,,,,,,,,,,,,,,,,,,,,,,,,,
1703502212.737819,1703502212.737871,107.000000,0.000000,4289.358887,4294.102539,4310.000000,4291.282227,4251.538574,4235.897461,4255.897461,4247.307617,4240.000000,4211.410156,4501.922852,4471.282227,4384.871582,4445.256348,6374.000000,3.000000,66.000000,,,,0.000000,4.000000,4.000000,4.000000,4.000000,4.000000,4.000000,4.000000,4.000000,4.000000,4.000000,4.000000,4.000000,4.000000,4.000000,100.000000,,,,,,,,,,,,,,,,,,,,,,,,,,,,
1703502212.745627,1703502212.745679,108.000000,0.000000,4281.153809,4283.974121,4302.820313,4278.077148,4249.358887,4231.410156,4249.358887,4236.025879,4229.871582,4198.461426,4491.538574,4462.692383,4375.769043,4438.205078,6908.000000,3.000000,66.000000,,,,0.000000,4.000000,4.000000,4.000000,4.000000,4.000000,4.000000,4.000000,4.000000,4.000000,4.000000,4.000000,4.000000,4.000000,4.000000,100.000000,,,,,,,,,,,,,,,,,27.000000,0.000000,0.707364,-0.245361,-0.653503,-0.111206,0.979612,-0.201685,0.025394,-12.167053,-42.623436,60.613239
1703502212.753435,1703502212.753387,109.000000,0.000000,4275.769043,4275.256348,4294.871582,4271.538574,4249.487305,4231.922852,4247.051270,4230.769043,4221.666504,4196.922852,4488.205078,4454.358887,4371.538574,4427.820313,6659.000000,3.000000,66.000000,,,,0.000000,4.000000,4.000000,4.000000,4.000000,4.000000,4.000000,4.000000,4.000000,4.000000,4.000000,4.000000,4.000000,4.000000,4.000000,100.000000,,,,,,,,,,,,,,,,,,,,,,,,,,,,
1703502212.761243,1703502212.761195,110.000000,0.000000,4279.358887,4276.794922,4293.717773,4275.641113,4253.205078,4242.436035,4252.563965,4238.974121,4225.128418,4205.000000,4490.512695,4457.692383,4375.897461,4430.128418,6053.000000,3.000000,66.000000,,,,0.000000,4.000000,4.000000,4.000000,4.000000,4.000000,4.000000,4.000000,4.000000,4.000000,4.000000,4.000000,4.000000,4.000000,4.000000,100.000000,,,,,,,,,,,,,,,,,,,,,,,,,,,,
1703502212.769051,1703502212.768903,111.000000,0.000000,4278.589844,4281.025879,4298.717773,4278.846191,4256.410156,4249.102539,4258.333496,4247.307617,4236.538574,4211.410156,4495.769043,4464.871582,4378.589844,4436.025879,6374.000000,3.000000,66.000000,,,,0.000000,4.000000,4.000000,4.000000,4.000000,4.000000,4.000000,4.000000,4.000000,4.000000,4.000000,4.000000,4.000000,4.000000,4.000000,100.000000,,,,,,,,,,,,,,,,,,,,,,,,,,,,
1703502212.776859,1703502212.776811,112.000000,0.000000,4278.846191,4282.563965,4300.769043,4281.538574,4258.461426,4247.436035,4259.743652,4255.384766,4247.051270,4221.922852,4510.000000,4467.692383,4387.948730,4437.948730,6908.000000,3.000000,66.000000,,,,0.000000,4.000000,4.000000,4.000000,4.000000,4.000000,4.000000,4.000000,4.000000,4.000000,4.000000,4.000000,4.000000,4.000000,4.000000,100.000000,,,,,,,,,,,,,,,,,28.000000,0.000000,0.707506,-0.245117,-0.653503,-0.110840,0.977658,-0.203638,0.022952,-12.000347,-42.594425,60.635250
1703502212.784668,1703502212.784619,113.000000,0.000000,4284.871582,4281.922852,4302.051270,4290.769043,4262.948730,4246.282227,4263.846191,4263.333496,4252.307617,4231.538574,4518.333496,4473.974121,4400.769043,4443.846191,6659.000000,3.000000,66.000000,,,,0.000000,4.000000,4.000000,4.000000,4.000000,4.000000,4.000000,4.000000,4.000000,4.000000,4.000000,4.000000,4.000000,4.000000,4.000000,100.000000,,,,,,,,,,,,,,,,,,,,,,,,,,,,
1703502212.792476,1703502212.792527,114.000000,0.000000,4283.461426,4282.436035,4300.256348,4297.436035,4265.000000,4247.948730,4262.563965,4259.230957,4249.487305,4226.922852,4513.077148,4473.205078,4394.871582,4446.666504,6053.000000,3.000000,66.000000,,,,0.000000,4.000000,4.000000,4.000000,4.000000,4.000000,4.000000,4.000000,4.000000,4.000000,4.000000,4.000000,4.000000,4.000000,4.000000,100.000000,,,,,,,,,,,,,,,,,,,,,,,,,,,,
1703502212.800284,1703502212.800336,115.000000,0.000000,4277.692383,4283.846191,4295.256348,4290.641113,4262.948730,4243.974121,4253.589844,4247.436035,4239.230957,4213.974121,4503.717773,4463.461426,4378.974121,4434.743652,6374.000000,3.000000,66.000000,,,,0.000000,4.000000,4.000000,4.000000,4.000000,4.000000,4.000000,4.000000,4.000000,4.000000,4.000000,4.000000,4.000000,4.000000,4.000000,100.000000,,,,,,,,,,,,,,,,,,,,,,,,,,,,
1703502212.808092,1703502212.808244,116.000000,0.000000,4279.871582,4282.051270,4300.128418,4281.922852,4262.051270,4234.615234,4254.230957,4245.128418,4232.820313,4210.769043,4497.948730,4465.512695,4378.333496,4429.615234,6908.000000,3.000000,66.000000,,,,0.000000,4.000000,4.000000,4.000000,4.000000,4.000000,4.000000,4.000000,4.000000,4.000000,4.000000,4.000000,4.000000,4.000000,4.000000,100.000000,,,,,,,,,,,,,,,,,29.000000,0.000000,0.707479,-0.245117,-0.653564,-0.110657,0.975217,-0.221218,0.019534,-11.950313,-42.584984,60.621723
1703502212.815900,1703502212.816052,117.000000,0.000000,4284.615234,4277.948730,4305.769043,4285.256348,4261.410156,4233.205078,4256.666504,4248.589844,4233.461426,4216.410156,4498.846191,4470.897461,4380.769043,4438.974121,6659.000000,3.000000,66.000000,,,,0.000000,4.000000,4.000000,4.000000,4.000000,4.000000,4.000000,4.000000,4.000000,4.000000,4.000000,4.000000,4.000000,4.000000,4.000000,100.000000,,,,,,,,,,,,,,,,,,,,,,,,,,,,
1703502212.823708,1703502212.823960,118.000000,0.000000,4281.922852,4275.897461,4302.179688,4289.615234,4259.358887,4238.077148,4251.666504,4245.256348,4231.410156,4212.436035,4501.410156,4466.282227,4373.717773,4440.512695,6053.000000,3.000000,66.000000,,,,0.000000,4.000000,4.000000,4.000000,4.000000,4.000000,4.000000,4.000000,4.000000,4.000000,4.000000,4.000000,4.000000,4.000000,4.000000,100.000000,,,,,,,,,,,,,,,,,,,,,,,,,,,,
1703502212.831516,1703502212.831768,119.000000,0.000000,4277.179688,4276.410156,4302.692383,4288.589844,4259.871582,4238.077148,4252.820313,4244.487305,4230.512695,4203.077148,4498.077148,4465.000000,4369.615234,4434.743652,6374.000000,3.000000,66.000000,,,,0.000000,4.000000,4.000000,4.000000,4.000000,4.000000,4.000000,4.000000,4.000000,4.000000,4.000000,4.000000,4.000000,4.000000,4.000000,100.000000,,,,,,,,,,,,,,,,,,,,,,,,,,,,
1703502212.839324,1703502212.839676,120.000000,0.000000,4275.641113,4276.153809,4310.000000,4287.307617,4260.384766,4234.743652,4258.717773,4247.436035,4231.025879,4205.384766,4495.512695,4468.974121,4368.846191,4432.948730,6908.000000,3.000000,66.000000,,,,0.000000,4.000000,4.000000,4.000000,4.000000,4.000000,4.000000,4.000000,4.000000,4.000000,4.000000,4.000000,4.000000,4.000000,4.000000,100.000000,,,,,,,,,,,,,,,,,30.000000,0.000000,0.707490,-0.245056,-0.653564,-0.110718,0.964473,-0.206080,0.017092,-11.905282,-42.609818,60.609550
1703502212.847132,1703502212.847485,121.000000,0.000000,4276.282227,4270.256348,4309.487305,4286.538574,4255.384766,4232.692383,4255.384766,4246.794922,4232.692383,4213.589844,4500.000000,4470.000000,4366.282227,4431.282227,6659.000000,3.000000,66.000000,,,,0.000000,4.000000,4.000000,4.000000,4.000000,4.000000,4.000000,4.000000,4.000000,4.000000,4.000000,4.000000,4.000000,4.000000,4.000000,100.000000,,,,,,,,,,,,,,,,,,,,,,,,,,,,
1703502212.854940,1703502212.855393,122.000000,0.000000,4278.461426,4267.051270,4306.410156,4288.077148,4251.282227,4234.871582,4252.692383,4251.922852,4241.666504,4219.615234,4507.820313,4472.820313,4371.538574,4433.589844,6053.000000,3.000000,66.000000,,,,0.000000,4.000000,4.000000,4.000000,4.000000,4.000000,4.000000,4.000000,4.000000,4.000000,4.000000,4.000000,4.000000,4.000000,4.000000,100.000000,,,,,,,,,,,,,,,,,,,,,,,,,,,,
1703502212.862748,1703502212.863200,123.000000,0.000000,4279.487305,4274.358887,4309.615234,4294.102539,4257.307617,4240.000000,4259.230957,4262.307617,4250.384766,4227.307617,4511.666504,4480.641113,4379.230957,4440.641113,6374.000000,3.000000,66.000000,,,,0.000000,4.000000,4.000000,4.000000,4.000000,4.000000,4.000000,4.000000,4.000000,4.000000,4.000000,4.000000,4.000000,4.000000,4.000000,100.000000,,,,,,,,,,,,,,,,,,,,,,,,,,,,
1703502212.870556,1703502212.871108,124.000000,0.000000,4280.000000,4279.743652,4311.410156,4297.692383,4265.641113,4239.358887,4261.794922,4267.692383,4253.333496,4236.025879,4514.871582,4482.563965,4378.846191,4444.615234,6908.000000,3.000000,66.000000,,,,0.000000,4.000000,4.000000,4.000000,4.000000,4.000000,4.000000,4.000000,4.000000,4.000000,4.000000,4.000000,4.000000,4.000000,4.000000,100.000000,,,,,,,,,,,,,,,,,31.000000,0.000000,0.707547,-0.245056,-0.653503,-0.110718,0.970333,-0.198755,0.029300,-11.814754,-42.548836,60.681931
1703502212.878364,1703502212.878916,125.000000,0.000000,4280.897461,4276.666504,4309.615234,4294.743652,4263.461426,4237.563965,4260.384766,4264.487305,4254.871582,4234.487305,4512.692383,4477.820313,4375.897461,4441.666504,6659.000000,3.000000,66.000000,,,,0.000000,4.000000,4.000000,4.000000,4.000000,4.000000,4.000000,4.000000,4.000000,4.000000,4.000000,4.000000,4.000000,4.000000,4.000000,100.000000,,,,,,,,,,,,,,,,,,,,,,,,,,,,
1703502212.886172,1703502212.886624,126.000000,0.000000,4278.717773,4274.615234,4301.922852,4292.948730,4257.692383,4242.563965,4260.512695,4254.487305,4245.641113,4219.615234,4498.974121,4470.128418,4365.769043,4434.230957,6053.000000,3.000000,66.000000,,,,0.000000,4.000000,4.000000,4.000000,4.000000,4.000000,4.000000,4.000000,4.000000,4.000000,4.000000,4.000000,4.000000,4.000000,4.000000,100.000000,,,,,,,,,,,,,,,,,,,,,,,,,,,,
1703502212.893980,1703502212.894532,127.000000,0.000000,4276.153809,4274.615234,4293.589844,4291.666504,4261.922852,4247.820313,4260.512695,4245.769043,4232.307617,4205.128418,4489.102539,4459.230957,4353.717773,4427.820313,66.000000,3.000000,66.000000,,,,0.000000,4.000000,4.000000,4.000000,4.000000,4.000000,4.000000,4.000000,4.000000,4.000000,4.000000,4.000000,4.000000,4.000000,4.000000,100.000000,,,,,,,,,,,,,,,,,,,,,,,,,,,,
1703502212.901788,1703502212.902341,0.000000,0.000000,4273.461426,4267.692383,4296.282227,4286.410156,4263.205078,4241.666504,4260.128418,4243.846191,4227.051270,4199.615234,4485.897461,4458.077148,4348.974121,4427.179688,5156.000000,3.000000,66.000000,,,,0.000000,4.000000,4.000000,4.000000,4.000000,4.000000,4.000000,4.000000,4.000000,4.000000,4.000000,4.000000,4.000000,4.000000,4.000000,100.000000,,,,,,,,,,,,,,,,,0.000000,0.000000,0.707586,-0.245239,-0.653381,-0.110779,0.974728,-0.205103,0.017580,-11.933278,-42.560619,60.697071
1703502212.909596,1703502212.910249,1.000000,0.000000,4267.948730,4262.820313,4297.692383,4280.128418,4253.846191,4235.512695,4258.846191,4237.563965,4220.384766,4196.794922,4477.436035,4459.615234,4346.025879,4424.230957,5516.000000,3.000000,66.000000,,,,0.000000,4.000000,4.000000,4.000000,4.000000,4.000000,4.000000,4.000000,4.000000,4.000000,4.000000,4.000000,4.000000,4.000000,4.000000,100.000000,,,,,,,,,,,,,,,,,,,,,,,,,,,,
1703502212.917405,1703502212.918057,2.000000,0.000000,4266.410156,4268.717773,4295.128418,4277.948730,4252.307617,4238.077148,4255.641113,4230.897461,4217.563965,4194.358887,4475.769043,4456.025879,4347.692383,4420.897461,5362.000000,3.000000,66.000000,,,,0.000000,4.000000,4.000000,4.000000,4.000000,4.000000,4.000000,4.000000,4.000000,4.000000,4.000000,4.000000,4.000000,4.000000,4.000000,100.000000,,,,,,,,,,,,,,,,,,,,,,,,,,,,
1703502212.925213,1703502212.925965,3.000000,0.000000,4273.333496,4274.102539,4300.256348,4281.410156,4257.820313,4237.051270,4252.307617,4239.102539,4227.948730,4200.256348,4486.410156,4462.307617,4355.128418,4424.102539,5429.000000,3.000000,66.000000,,,,0.000000,4.000000,4.000000,4.000000,4.000000,4.000000,4.000000,4.000000,4.000000,4.000000,4.000000,4.000000,4.000000,4.000000,4.000000,100.000000,,,,,,,,,,,,,,,,,,,,,,,,,,,,
1703502212.933021,1703502212.933773,4.000000,0.000000,4279.230957,4276.794922,4306.410156,4282.948730,4257.820313,4232.948730,4255.897461,4248.077148,4234.487305,4211.922852,4492.820313,4471.025879,4363.589844,4430.897461,5315.000000,3.000000,66.000000,,,,0.000000,4.000000,4.000000,4.000000,4.000000,4.000000,4.000000,4.000000,4.000000,4.000000,4.000000,4.000000,4.000000,4.000000,4.000000,100.000000,,,,,,,,,,,,,,,,,1.000000,0.000000,0.707657,-0.245361,-0.653259,-0.110779,0.971798,-0.219753,0.030277,-11.956617,-42.621223,60.710697
1703502212.940829,1703502212.941582,5.000000,0.000000,4278.717773,4279.487305,4307.307617,4281.282227,4258.846191,4241.282227,4264.871582,4247.179688,4234.102539,4215.128418,4495.641113,4469.358887,4365.384766,4436.410156,4876.000000,3.000000,66.000000,,,,0.000000,4.000000,4.000000,4.000000,4.000000,4.000000,4.000000,4.000000,4.000000,4.000000,4.000000,4.000000,4.000000,4.000000,4.000000,100.000000,,,,,,,,,,,,,,,,,,,,,,,,,,,,
1703502212.948637,1703502212.949290,6.000000,0.000000,4278.205078,4273.846191,4308.589844,4281.922852,4258.333496,4249.102539,4263.205078,4248.974121,4242.179688,4218.461426,4507.563965,4468.461426,4369.358887,4438.333496,3992.000000,3.000000,66.000000,,,,0.000000,4.000000,4.000000,4.000000,4.000000,4.000000,4.000000,4.000000,4.000000,4.000000,4.000000,4.000000,4.000000,4.000000,4.000000,100.000000,,,,,,,,,,,,,,,,,,,,,,,,,,,,
1703502212.956445,1703502212.957098,7.000000,0.000000,4278.333496,4266.153809,4306.666504,4280.000000,4251.922852,4237.820313,4253.461426,4252.307617,4247.692383,4228.846191,4513.205078,4472.436035,4379.743652,4438.717773,5285.000000,3.000000,66.000000,,,,0.000000,4.000000,4.000000,4.000000,4.000000,4.000000,4.000000,4.000000,4.000000,4.000000,4.000000,4.000000,4.000000,4.000000,4.000000,100.000000,,,,,,,,,,,,,,,,,,,,,,,,,,,,
1703502212.964253,1703502212.964806,8.000000,0.000000,4279.871582,4268.846191,4305.128418,4275.128418,4252.563965,4234.871582,4255.384766,4250.384766,4240.256348,4229.871582,4506.666504,4472.179688,4382.948730,4441.794922,5407.000000,3.000000,66.000000,,,,0.000000,4.000000,4.000000,4.000000,4.000000,4.000000,4.000000,4.000000,4.000000,4.000000,4.000000,4.000000,4.000000,4.000000,4.000000,100.000000,,,,,,,,,,,,,,,,,2.000000,0.000000,0.707746,-0.245483,-0.653137,-0.110657,0.968380,-0.210475,0.024417,-11.927622,-42.542435,60.722961
1703502212.972061,1703502212.972614,9.000000,0.000000,4289.358887,4281.410156,4308.461426,4281.538574,4261.922852,4246.025879,4262.692383,4246.794922,4235.128418,4221.410156,4507.563965,4468.461426,4382.948730,4449.743652,5480.000000,3.000000,66.000000,,,,0.000000,4.000000,4.000000,4.000000,4.000000,4.000000,4.000000,4.000000,4.000000,4.000000,4.000000,4.000000,4.000000,4.000000,4.000000,100.000000,,,,,,,,,,,,,,,,,,,,,,,,,,,,
1703502212.979869,1703502212.980322,10.000000,0.000000,4300.384766,4293.589844,4309.615234,4290.512695,4266.538574,4247.179688,4261.410156,4246.922852,4233.974121,4216.794922,4507.436035,4467.820313,4372.692383,4446.153809,6057.000000,3.000000,66.000000,,,,0.000000,4.000000,4.000000,4.000000,4.000000,4.000000,4.000000,4.000000,4.000000,4.000000,4.000000,4.000000,4.000000,4.000000,4.000000,100.000000,,,,,,,,,,,,,,,,,,,,,,,,,,,,
1703502212.987677,1703502212.988230,11.000000,0.000000,4295.512695,4291.410156,4307.179688,4284.615234,4264.102539,4244.871582,4258.077148,4242.692383,4231.538574,4213.077148,4490.897461,4463.077148,4353.077148,4431.410156,6374.000000,3.000000,66.000000,,,,0.000000,4.000000,4.000000,4.000000,4.000000,4.000000,4.000000,4.000000,4.000000,4.000000,4.000000,4.000000,4.000000,4.000000,4.000000,100.000000,,,,,,,,,,,,,,,,,,,,,,,,,,,,
1703502212.995485,1703502212.996038,12.000000,0.000000,4282.692383,4279.358887,4300.256348,4272.692383,4255.128418,4243.077148,4257.307617,4234.615234,4227.820313,4204.487305,4479.743652,4455.256348,4347.307617,4425.641113,6912.000000,3.000000,66.000000,,,,0.000000,4.000000,4.000000,4.000000,4.000000,4.000000,4.000000,4.000000,4.000000,4.000000,4.000000,4.000000,4.000000,4.000000,4.000000,100.000000,,,,,,,,,,,,,,,,,3.000000,0.000000,0.707808,-0.245605,-0.653076,-0.110352,0.976682,-0.203150,0.021975,-11.934859,-42.454857,60.867332
1703502213.003293,1703502213.003946,13.000000,0.000000,4282.436035,4275.128418,4295.641113,4268.717773,4244.871582,4238.974121,4255.641113,4234.615234,4224.487305,4196.794922,4489.487305,4456.282227,4359.487305,4428.717773,6663.000000,3.000000,66.000000,,,,0.000000,4.000000,4.000000,4.000000,4.000000,4.000000,4.000000,4.000000,4.000000,4.000000,4.000000,4.000000,4.000000,4.000000,4.000000,100.000000,,,,,,,,,,,,,,,,,,,,,,,,,,,,
1703502213.011101,1703502213.011754,14.000000,0.000000,4285.641113,4270.256348,4302.948730,4266.025879,4247.948730,4242.948730,4258.717773,4246.922852,4231.922852,4206.282227,4505.000000,4465.256348,4373.333496,4434.871582,6057.000000,3.000000,66.000000,,,,0.000000,4.000000,4.000000,4.000000,4.000000,4.000000,4.000000,4.000000,4.000000,4.000000,4.000000,4.000000,4.000000,4.000000,4.000000,100.000000,,,,,,,,,,,,,,,,,,,,,,,,,,,,
1703502213.018909,1703502213.019662,15.000000,0.000000,4280.128418,4256.025879,4311.538574,4265.256348,4256.025879,4248.974121,4264.358887,4260.384766,4246.153809,4225.641113,4513.846191,4477.436035,4382.051270,4442.051270,6374.000000,3.000000,66.000000,,,,0.000000,4.000000,4.000000,4.000000,4.000000,4.000000,4.000000,4.000000,4.000000,4.000000,4.000000,4.000000,4.000000,4.000000,4.000000,100.000000,,,,,,,,,,,,,,,,,,,,,,,,,,,,
1703502213.026717,1703502213.027471,16.000000,0.000000,4279.871582,4259.615234,4309.615234,4272.436035,4257.307617,4245.384766,4262.948730,4258.077148,4244.487305,4224.871582,4510.256348,4480.512695,4378.333496,4441.666504,0.000000,3.000000,66.000000,,,,0.000000,4.000000,4.000000,4.000000,4.000000,4.000000,4.000000,4.000000,4.000000,4.000000,4.000000,4.000000,4.000000,4.000000,4.000000,100.000000,,,,,,,,,,,,,,,,,4.000000,0.000000,0.707902,-0.245605,-0.653015,-0.110107,0.956660,-0.204126,0.028812,-11.908040,-42.276039,61.030598
1703502213.034525,1703502213.035379,17.000000,0.000000,4288.589844,4277.563965,4304.358887,4278.205078,4259.230957,4244.358887,4263.205078,4249.230957,4232.563965,4209.487305,4501.538574,4468.974121,4364.102539,4436.538574,0.000000,3.000000,66.000000,,,,0.000000,4.000000,4.000000,4.000000,4.000000,4.000000,4.000000,4.000000,4.000000,4.000000,4.000000,4.000000,4.000000,4.000000,4.000000,100.000000,,,,,,,,,,,,,,,,,,,,,,,,,,,,
1703502213.042333,1703502213.043186,18.000000,0.000000,4295.128418,4280.897461,4309.230957,4280.256348,4262.948730,4248.846191,4266.153809,4253.589844,4237.820313,4217.563965,4509.615234,4469.230957,4370.512695,4442.179688,0.000000,3.000000,66.000000,,,,0.000000,4.000000,4.000000,4.000000,4.000000,4.000000,4.000000,4.000000,4.000000,4.000000,4.000000,4.000000,4.000000,4.000000,4.000000,100.000000,,,,,,,,,,,,,,,,,,,,,,,,,,,,
1703502213.050141,1703502213.050895,19.000000,0.000000,4298.205078,4276.538574,4316.282227,4282.436035,4262.820313,4249.487305,4265.641113,4265.769043,4251.666504,4239.102539,4527.948730,4484.871582,4393.077148,4454.615234,0.000000,3.000000,66.000000,,,,0.000000,4.000000,4.000000,4.000000,4.000000,4.000000,4.000000,4.000000,4.000000,4.000000,4.000000,4.000000,4.000000,4.000000,4.000000,100.000000,,,,,,,,,,,,,,,,,,,,,,,,,,,,
1703502213.057949,1703502213.058703,20.000000,0.000000,4296.922852,4276.538574,4314.615234,4281.410156,4260.000000,4246.794922,4264.743652,4265.769043,4250.769043,4237.436035,4528.974121,4487.307617,4391.410156,4456.410156,0.000000,3.000000,66.000000,,,,0.000000,4.000000,4.000000,4.000000,4.000000,4.000000,4.000000,4.000000,4.000000,4.000000,4.000000,4.000000,4.000000,4.000000,4.000000,100.000000,,,,,,,,,,,,,,,,,5.000000,0.000000,0.708048,-0.245483,-0.652893,-0.110168,0.971798,-0.211940,0.030765,-11.850570,-42.281769,61.094204
1703502213.065758,1703502213.066411,21.000000,0.000000,4297.307617,4277.692383,4312.307617,4285.256348,4261.922852,4246.666504,4264.102539,4257.692383,4244.230957,4228.205078,4517.051270,4479.487305,4378.974121,4451.153809,0.000000,3.000000,66.000000,,,,0.000000,4.000000,4.000000,4.000000,4.000000,4.000000,4.000000,4.000000,4.000000,4.000000,4.000000,4.000000,4.000000,4.000000,4.000000,100.000000,,,,,,,,,,,,,,,,,,,,,,,,,,,,
1703502213.073566,1703502213.074219,22.000000,0.000000,4301.794922,4278.205078,4314.615234,4291.922852,4264.743652,4248.717773,4264.230957,4259.358887,4247.820313,4233.077148,4511.410156,4480.384766,4380.641113,4450.769043,0.000000,3.000000,66.000000,,,,0.000000,4.000000,4.000000,4.000000,4.000000,4.000000,4.000000,4.000000,4.000000,4.000000,4.000000,4.000000,4.000000,4.000000,4.000000,100.000000,,,,,,,,,,,,,,,,,,,,,,,,,,,,
1703502213.081374,1703502213.081927,23.000000,0.000000,4298.974121,4276.794922,4315.256348,4287.692383,4261.410156,4247.692383,4263.974121,4258.717773,4246.922852,4231.666504,4508.333496,4480.641113,4382.179688,4450.769043,0.000000,3.000000,66.000000,,,,0.000000,4.000000,4.000000,4.000000,4.000000,4.000000,4.000000,4.000000,4.000000,4.000000,4.000000,4.000000,4.000000,4.000000,4.000000,100.000000,,,,,,,,,,,,,,,,,,,,,,,,,,,,
1703502213.089182,1703502213.089735,24.000000,0.000000,4293.205078,4274.615234,4310.641113,4282.307617,4260.384766,4246.282227,4262.948730,4250.000000,4236.794922,4220.641113,4505.000000,4474.102539,4372.179688,4447.179688,0.000000,3.000000,66.000000,,,,0.000000,4.000000,4.000000,4.000000,4.000000,4.000000,4.000000,4.000000,4.000000,4.000000,4.000000,4.000000,4.000000,4.000000,4.000000,100.000000,,,,,,,,,,,,,,,,,6.000000,0.000000,0.708130,-0.245544,-0.652771,-0.110229,0.965938,-0.209010,0.022952,-11.765512,-42.303593,61.168118
1703502213.096990,1703502213.097443,25.000000,0.000000,4294.615234,4274.871582,4310.641113,4288.205078,4262.820313,4248.333496,4262.563965,4247.692383,4237.692383,4220.897461,4505.128418,4471.025879,4367.820313,4442.948730,0.000000,3.000000,66.000000,,,,0.000000,4.000000,4.000000,4.000000,4.000000,4.000000,4.000000,4.000000,4.000000,4.000000,4.000000,4.000000,4.000000,4.000000,4.000000,100.000000,,,,,,,,,,,,,,,,,,,,,,,,,,,,
1703502213.104798,1703502213.105251,26.000000,0.000000,4299.102539,4276.794922,4313.717773,4291.794922,4263.589844,4248.205078,4267.051270,4252.436035,4248.461426,4230.384766,4510.000000,4474.615234,4374.615234,4440.128418,0.000000,3.000000,66.000000,,,,0.000000,4.000000,4.000000,4.000000,4.000000,4.000000,4.000000,4.000000,4.000000,4.000000,4.000000,4.000000,4.000000,4.000000,4.000000,100.000000,,,,,,,,,,,,,,,,,,,,,,,,,,,,
1703502213.112606,1703502213.112959,27.000000,0.000000,4303.846191,4280.000000,4311.282227,4290.512695,4268.717773,4249.615234,4270.128418,4253.461426,4249.230957,4234.102539,4517.179688,4477.179688,4382.948730,4446.794922,0.000000,3.000000,66.000000,,,,0.000000,4.000000,4.000000,4.000000,4.000000,4.000000,4.000000,4.000000,4.000000,4.000000,4.000000,4.000000,4.000000,4.000000,4.000000,100.000000,1.000000,100.000000,4.000000,4.000000,4.000000,4.000000,4.000000,4.000000,4.000000,4.000000,4.000000,4.000000,4.000000,4.000000,4.000000,4.000000,,,,,,,,,,,,
1703502213.120414,1703502213.120767,28.000000,0.000000,4309.743652,4282.436035,4313.717773,4294.358887,4275.769043,4258.589844,4270.256348,4254.871582,4247.051270,4232.179688,4521.282227,4480.897461,4388.974121,4457.436035,0.000000,3.000000,66.000000,,,,0.000000,4.000000,4.000000,4.000000,4.000000,4.000000,4.000000,4.000000,4.000000,4.000000,4.000000,4.000000,4.000000,4.000000,4.000000,100.000000,,,,,,,,,,,,,,,,,7.000000,0.000000,0.708188,-0.245728,-0.652649,-0.110168,0.966427,-0.200708,0.029789,-11.755629,-42.223232,61.217972
1703502213.128222,1703502213.128475,29.000000,0.000000,4311.794922,4281.922852,4317.948730,4298.461426,4272.436035,4261.410156,4272.179688,4263.077148,4251.025879,4233.333496,4522.948730,4483.333496,4389.230957,4457.563965,0.000000,3.000000,66.000000,,,,0.000000,4.000000,4.000000,4.000000,4.000000,4.000000,4.000000,4.000000,4.000000,4.000000,4.000000,4.000000,4.000000,4.000000,4.000000,100.000000,,,,,,,,,,,,,,,,,,,,,,,,,,,,
1703502213.136030,1703502213.136283,30.000000,0.000000,4308.974121,4280.256348,4315.128418,4291.025879,4264.615234,4253.333496,4271.794922,4264.102539,4251.538574,4240.256348,4523.333496,4477.820313,4387.692383,4452.820313,0.000000,3.000000,66.000000,,,,0.000000,4.000000,4.000000,4.000000,4.000000,4.000000,4.000000,4.000000,4.000000,4.000000,4.000000,4.000000,4.000000,4.000000,4.000000,100.000000,,,,,,,,,,,,,,,,,,,,,,,,,,,,
1703502213.143838,1703502213.143991,31.000000,0.000000,4306.794922,4278.077148,4309.358887,4282.948730,4260.641113,4247.948730,4267.563965,4260.384766,4252.948730,4245.512695,4523.333496,4474.743652,4388.974121,4453.846191,0.000000,3.000000,66.000000,,,,0.000000,4.000000,4.000000,4.000000,4.000000,4.000000,4.000000,4.000000,4.000000,4.000000,4.000000,4.000000,4.000000,4.000000,4.000000,100.000000,,,,,,,,,,,,,,,,,,,,,,,,,,,,
1703502213.151646,1703502213.151799,32.000000,0.000000,4305.384766,4276.666504,4308.461426,4286.922852,4260.897461,4250.769043,4264.102539,4263.717773,4258.333496,4246.794922,4523.589844,4477.948730,4389.358887,4453.461426,0.000000,3.000000,66.000000,,,,0.000000,4.000000,4.000000,4.000000,4.000000,4.000000,4.000000,4.000000,4.000000,4.000000,4.000000,4.000000,4.000000,4.000000,4.000000,100.000000,,,,,,,,,,,,,,,,,8.000000,0.000000,0.708235,-0.245728,-0.652588,-0.110229,0.971798,-0.194848,0.024905,-11.813398,-42.200909,61.196175
1703502213.159454,1703502213.159507,33.000000,0.000000,4305.128418,4278.077148,4316.666504,4295.384766,4268.589844,4255.897461,4267.948730,4266.666504,4260.384766,4243.717773,4524.615234,4484.487305,4387.692383,4453.333496,0.000000,3.000000,66.000000,,,,0.000000,4.000000,4.000000,4.000000,4.000000,4.000000,4.000000,4.000000,4.000000,4.000000,4.000000,4.000000,4.000000,4.000000,4.000000,100.000000,,,,,,,,,,,,,,,,,,,,,,,,,,,,
1703502213.167262,1703502213.167415,34.000000,0.000000,4307.820313,4281.410156,4323.846191,4297.179688,4274.615234,4259.358887,4273.717773,4264.487305,4258.717773,4238.205078,4521.794922,4487.179688,4386.025879,4455.256348,0.000000,3.000000,66.000000,,,,0.000000,4.000000,4.000000,4.000000,4.000000,4.000000,4.000000,4.000000,4.000000,4.000000,4.000000,4.000000,4.000000,4.000000,4.000000,100.000000,,,,,,,,,,,,,,,,,,,,,,,,,,,,
1703502213.175070,1703502213.175223,35.000000,0.000000,4305.897461,4279.487305,4319.230957,4293.461426,4268.077148,4262.307617,4275.256348,4262.436035,4252.307617,4234.230957,4513.717773,4478.205078,4377.820313,4449.743652,0.000000,3.000000,66.000000,,,,0.000000,4.000000,4.000000,4.000000,4.000000,4.000000,4.000000,4.000000,4.000000,4.000000,4.000000,4.000000,4.000000,4.000000,4.000000,100.000000,,,,,,,,,,,,,,,,,,,,,,,,,,,,
1703502213.182878,1703502213.183131,36.000000,0.000000,4296.794922,4271.922852,4310.769043,4291.666504,4263.717773,4259.230957,4275.256348,4260.769043,4244.871582,4227.692383,4502.948730,4471.153809,4363.333496,4439.358887,0.000000,3.000000,66.000000,,,,0.000000,4.000000,4.000000,4.000000,4.000000,4.000000,4.000000,4.000000,4.000000,4.000000,4.000000,4.000000,4.000000,4.000000,4.000000,100.000000,,,,,,,,,,,,,,,,,9.000000,0.000000,0.708392,-0.245789,-0.652405,-0.110168,0.974240,-0.213893,0.025882,-11.865392,-42.264153,61.176559
1703502213.190687,1703502213.190939,37.000000,0.000000,4291.410156,4266.666504,4310.000000,4289.871582,4266.153809,4253.077148,4270.384766,4259.358887,4245.897461,4219.230957,4495.128418,4470.000000,4359.358887,4431.922852,0.000000,3.000000,66.000000,,,,0.000000,4.000000,4.000000,4.000000,4.000000,4.000000,4.000000,4.000000,4.000000,4.000000,4.000000,4.000000,4.000000,4.000000,4.000000,100.000000,,,,,,,,,,,,,,,,,,,,,,,,,,,,
1703502213.198495,1703502213.198848,38.000000,0.000000,4291.794922,4263.846191,4310.000000,4284.487305,4263.333496,4254.230957,4265.000000,4258.846191,4247.436035,4219.102539,4497.307617,4466.538574,4362.436035,4429.487305,0.000000,3.000000,66.000000,,,,0.000000,4.000000,4.000000,4.000000,4.000000,4.000000,4.000000,4.000000,4.000000,4.000000,4.000000,4.000000,4.000000,4.000000,4.000000,100.000000,,,,,,,,,,,,,,,,,,,,,,,,,,,,
1703502213.206303,1703502213.206656,39.000000,0.000000,4292.179688,4262.436035,4307.179688,4279.615234,4258.974121,4254.358887,4263.974121,4260.000000,4245.897461,4228.717773,4504.358887,4465.128418,4364.615234,4433.717773,0.000000,3.000000,66.000000,,,,0.000000,4.000000,4.000000,4.000000,4.000000,4.000000,4.000000,4.000000,4.000000,4.000000,4.000000,4.000000,4.000000,4.000000,4.000000,100.000000,,,,,,,,,,,,,,,,,,,,,,,,,,,,
1703502213.214111,1703502213.214564,40.000000,0.000000,4293.077148,4263.846191,4309.871582,4280.897461,4259.615234,4251.153809,4265.000000,4262.948730,4254.487305,4236.025879,4508.461426,4469.871582,4370.128418,4440.128418,0.000000,3.000000,66.000000,,,,0.000000,4.000000,4.000000,4.000000,4.000000,4.000000,4.000000,4.000000,4.000000,4.000000,4.000000,4.000000,4.000000,4.000000,4.000000,100.000000,,,,,,,,,,,,,,,,,10.000000,0.000000,0.708508,-0.245911,-0.652222,-0.110229,0.968380,-0.216823,0.033696,-11.828853,-42.371071,61.108902
1703502213.221919,1703502213.222372,41.000000,0.000000,4293.717773,4264.487305,4311.282227,4283.205078,4261.153809,4251.153809,4266.025879,4264.358887,4261.282227,4233.461426,4513.461426,4473.974121,4376.794922,4442.692383,0.000000,3.000000,66.000000,,,,0.000000,4.000000,4.000000,4.000000,4.000000,4.000000,4.000000,4.000000,4.000000,4.000000,4.000000,4.000000,4.000000,4.000000,4.000000,100.000000,,,,,,,,,,,,,,,,,,,,,,,,,,,,
1703502213.229727,1703502213.230280,42.000000,0.000000,4299.487305,4268.461426,4311.538574,4281.922852,4264.102539,4256.153809,4269.230957,4264.102539,4261.153809,4235.256348,4523.589844,4477.307617,4382.948730,4446.153809,0.000000,3.000000,66.000000,,,,0.000000,4.000000,4.000000,4.000000,4.000000,4.000000,4.000000,4.000000,4.000000,4.000000,4.000000,4.000000,4.000000,4.000000,4.000000,100.000000,,,,,,,,,,,,,,,,,,,,,,,,,,,,
1703502213.237535,1703502213.238088,43.000000,0.000000,4305.641113,4272.820313,4313.717773,4282.948730,4265.769043,4257.820313,4270.384766,4264.230957,4261.410156,4242.436035,4524.871582,4479.358887,4384.487305,4446.410156,0.000000,3.000000,66.000000,,,,0.000000,4.000000,4.000000,4.000000,4.000000,4.000000,4.000000,4.000000,4.000000,4.000000,4.000000,4.000000,4.000000,4.000000,4.000000,100.000000,,,,,,,,,,,,,,,,,,,,,,,,,,,,
1703502213.245343,1703502213.245796,44.000000,0.000000,4300.128418,4267.948730,4311.282227,4280.000000,4261.153809,4250.384766,4267.051270,4261.922852,4256.025879,4238.205078,4509.743652,4471.794922,4377.051270,4441.410156,0.000000,3.000000,66.000000,,,,0.000000,4.000000,4.000000,4.000000,4.000000,4.000000,4.000000,4.000000,4.000000,4.000000,4.000000,4.000000,4.000000,4.000000,4.000000,100.000000,,,,,,,,,,,,,,,,,11.000000,0.000000,0.708513,-0.246033,-0.652161,-0.110291,0.968868,-0.208522,0.020510,-11.812634,-42.617294,61.114677
1703502213.253151,1703502213.253604,45.000000,0.000000,4296.538574,4263.333496,4307.692383,4278.205078,4259.230957,4248.461426,4267.307617,4259.487305,4247.820313,4228.461426,4504.615234,4466.794922,4371.922852,4442.051270,0.000000,3.000000,66.000000,,,,0.000000,4.000000,4.000000,4.000000,4.000000,4.000000,4.000000,4.000000,4.000000,4.000000,4.000000,4.000000,4.000000,4.000000,4.000000,100.000000,,,,,,,,,,,,,,,,,,,,,,,,,,,,
1703502213.260959,1703502213.261313,46.000000,0.000000,4301.410156,4266.410156,4310.641113,4287.307617,4263.205078,4253.205078,4271.153809,4260.128418,4247.051270,4229.230957,4511.410156,4474.487305,4376.538574,4444.358887,0.000000,3.000000,66.000000,,,,0.000000,4.000000,4.000000,4.000000,4.000000,4.000000,4.000000,4.000000,4.000000,4.000000,4.000000,4.000000,4.000000,4.000000,4.000000,100.000000,,,,,,,,,,,,,,,,,,,,,,,,,,,,
1703502213.268767,1703502213.269121,47.000000,0.000000,4301.538574,4265.897461,4315.512695,4293.205078,4265.512695,4255.256348,4272.692383,4261.794922,4251.410156,4233.461426,4511.025879,4477.948730,4380.256348,4443.846191,0.000000,3.000000,66.000000,,,,0.000000,4.000000,4.000000,4.000000,4.000000,4.000000,4.000000,4.000000,4.000000,4.000000,4.000000,4.000000,4.000000,4.000000,4.000000,100.000000,,,,,,,,,,,,,,,,,,,,,,,,,,,,
1703502213.276575,1703502213.276829,48.000000,0.000000,4302.436035,4265.897461,4317.948730,4293.717773,4266.153809,4255.769043,4274.358887,4263.846191,4257.692383,4240.000000,4514.230957,4480.128418,4385.512695,4445.000000,0.000000,3.000000,66.000000,,,,0.000000,4.000000,4.000000,4.000000,4.000000,4.000000,4.000000,4.000000,4.000000,4.000000,4.000000,4.000000,4.000000,4.000000,4.000000,100.000000,,,,,,,,,,,,,,,,,12.000000,0.000000,0.708550,-0.246033,-0.652100,-0.110413,0.965938,-0.205591,0.028324,-11.731371,-42.605568,61.186543
1703502213.284383,1703502213.284637,49.000000,0.000000,4304.615234,4270.000000,4319.358887,4292.563965,4265.256348,4257.436035,4276.410156,4265.641113,4267.307617,4248.333496,4523.333496,4482.436035,4388.974121,4444.358887,0.000000,3.000000,66.000000,,,,0.000000,4.000000,4.000000,4.000000,4.000000,4.000000,4.000000,4.000000,4.000000,4.000000,4.000000,4.000000,4.000000,4.000000,4.000000,100.000000,,,,,,,,,,,,,,,,,,,,,,,,,,,,
1703502213.292191,1703502213.292345,50.000000,0.000000,4297.692383,4269.102539,4314.487305,4286.025879,4264.871582,4257.692383,4277.307617,4264.871582,4267.307617,4246.025879,4520.128418,4474.487305,4382.563965,4439.358887,0.000000,3.000000,66.000000,,,,0.000000,4.000000,4.000000,4.000000,4.000000,4.000000,4.000000,4.000000,4.000000,4.000000,4.000000,4.000000,4.000000,4.000000,4.000000,100.000000,,,,,,,,,,,,,,,,,,,,,,,,,,,,
1703502213.299999,1703502213.300153,51.000000,0.000000,4295.128418,4268.333496,4310.641113,4283.461426,4268.205078,4257.436035,4278.333496,4263.333496,4259.230957,4237.051270,4512.051270,4473.077148,4376.794922,4437.051270,0.000000,3.000000,66.000000,,,,0.000000,4.000000,4.000000,4.000000,4.000000,4.000000,4.000000,4.000000,4.000000,4.000000,4.000000,4.000000,4.000000,4.000000,4.000000,100.000000,,,,,,,,,,,,,,,,,,,,,,,,,,,,
1703502213.307807,1703502213.307861,52.000000,0.000000,4304.487305,4275.000000,4316.153809,4291.410156,4274.615234,4261.794922,4279.487305,4262.563965,4260.256348,4237.820313,4520.000000,4480.641113,4382.692383,4443.077148,0.000000,3.000000,66.000000,,,,0.000000,4.000000,4.000000,4.000000,4.000000,4.000000,4.000000,4.000000,4.000000,4.000000,4.000000,4.000000,4.000000,4.000000,4.000000,100.000000,,,,,,,,,,,,,,,,,13.000000,0.000000,0.708573,-0.245911,-0.652100,-0.110535,0.961543,-0.208033,0.031254,-11.724900,-42.661678,61.184555
1703502213.315615,1703502213.315669,53.000000,0.000000,4309.743652,4280.512695,4321.666504,4297.436035,4277.179688,4262.307617,4281.666504,4263.333496,4265.256348,4244.487305,4527.307617,4482.820313,4390.000000,4450.128418,0.000000,3.000000,66.000000,,,,0.000000,4.000000,4.000000,4.000000,4.000000,4.000000,4.000000,4.000000,4.000000,4.000000,4.000000,4.000000,4.000000,4.000000,4.000000,100.000000,,,,,,,,,,,,,,,,,,,,,,,,,,,,
1703502213.323424,1703502213.323377,54.000000,0.000000,4310.128418,4280.769043,4323.333496,4297.307617,4276.922852,4263.205078,4281.025879,4265.512695,4264.743652,4243.974121,4521.538574,4483.589844,4388.717773,4450.641113,0.000000,3.000000,66.000000,,,,0.000000,4.000000,4.000000,4.000000,4.000000,4.000000,4.000000,4.000000,4.000000,4.000000,4.000000,4.000000,4.000000,4.000000,4.000000,100.000000,,,,,,,,,,,,,,,,,,,,,,,,,,,,
1703502213.331231,1703502213.331285,55.000000,0.000000,4309.871582,4279.871582,4320.897461,4297.692383,4278.717773,4265.000000,4279.487305,4265.512695,4263.205078,4242.563965,4522.436035,4482.307617,4386.410156,4448.077148,0.000000,3.000000,66.000000,,,,0.000000,4.000000,4.000000,4.000000,4.000000,4.000000,4.000000,4.000000,4.000000,4.000000,4.000000,4.000000,4.000000,4.000000,4.000000,100.000000,,,,,,,,,,,,,,,,,,,,,,,,,,,,
1703502213.339040,1703502213.339093,56.000000,0.000000,4305.128418,4276.282227,4316.025879,4295.384766,4272.692383,4260.897461,4278.846191,4263.077148,4263.974121,4244.487305,4522.436035,4479.230957,4383.461426,4446.025879,0.000000,3.000000,66.000000,,,,0.000000,4.000000,4.000000,4.000000,4.000000,4.000000,4.000000,4.000000,4.000000,4.000000,4.000000,4.000000,4.000000,4.000000,4.000000,100.000000,,,,,,,,,,,,,,,,,14.000000,0.000000,0.708693,-0.245728,-0.652039,-0.110535,0.980588,-0.210963,0.031254,-11.769077,-42.662174,61.266102
1703502213.346848,1703502213.347001,57.000000,0.000000,4303.589844,4271.538574,4315.512695,4294.487305,4263.974121,4258.589844,4276.410156,4261.025879,4262.179688,4241.794922,4511.153809,4478.589844,4380.384766,4444.615234,0.000000,3.000000,66.000000,,,,0.000000,4.000000,4.000000,4.000000,4.000000,4.000000,4.000000,4.000000,4.000000,4.000000,4.000000,4.000000,4.000000,4.000000,4.000000,100.000000,,,,,,,,,,,,,,,,,,,,,,,,,,,,
1703502213.354656,1703502213.354809,58.000000,0.000000,4306.794922,4272.692383,4316.922852,4299.615234,4269.743652,4260.256348,4277.179688,4263.333496,4262.307617,4240.897461,4512.563965,4480.512695,4386.025879,4447.563965,0.000000,3.000000,66.000000,,,,0.000000,4.000000,4.000000,4.000000,4.000000,4.000000,4.000000,4.000000,4.000000,4.000000,4.000000,4.000000,4.000000,4.000000,4.000000,100.000000,,,,,,,,,,,,,,,,,,,,,,,,,,,,
1703502213.362464,1703502213.362717,59.000000,0.000000,4302.563965,4273.077148,4315.769043,4303.589844,4272.948730,4261.025879,4279.743652,4265.769043,4263.974121,4242.051270,4519.230957,4481.922852,4386.794922,4448.205078,0.000000,3.000000,66.000000,,,,0.000000,4.000000,4.000000,4.000000,4.000000,4.000000,4.000000,4.000000,4.000000,4.000000,4.000000,4.000000,4.000000,4.000000,4.000000,100.000000,,,,,,,,,,,,,,,,,,,,,,,,,,,,
1703502213.370272,1703502213.370526,60.000000,0.000000,4297.051270,4270.897461,4315.256348,4306.538574,4265.641113,4258.717773,4278.589844,4265.512695,4262.948730,4237.820313,4511.282227,4481.153809,4379.102539,4445.256348,0.000000,3.000000,66.000000,,,,0.000000,4.000000,4.000000,4.000000,4.000000,4.000000,4.000000,4.000000,4.000000,4.000000,4.000000,4.000000,4.000000,4.000000,4.000000,100.000000,,,,,,,,,,,,,,,,,15.000000,0.000000,0.708789,-0.245667,-0.651978,-0.110413,0.968868,-0.205591,0.023929,-11.675503,-42.545959,61.256157
1703502213.378080,1703502213.378434,61.000000,0.000000,4300.769043,4272.692383,4321.025879,4310.512695,4268.077148,4258.846191,4278.205078,4265.384766,4261.666504,4238.205078,4509.871582,4482.563965,4380.641113,4446.153809,0.000000,3.000000,66.000000,,,,0.000000,4.000000,4.000000,4.000000,4.000000,4.000000,4.000000,4.000000,4.000000,4.000000,4.000000,4.000000,4.000000,4.000000,4.000000,100.000000,,,,,,,,,,,,,,,,,,,,,,,,,,,,
1703502213.385888,1703502213.386242,62.000000,0.000000,4304.358887,4276.410156,4322.051270,4311.794922,4274.615234,4259.487305,4280.897461,4264.358887,4258.461426,4245.000000,4520.384766,4483.077148,4390.512695,4449.358887,0.000000,3.000000,66.000000,,,,0.000000,4.000000,4.000000,4.000000,4.000000,4.000000,4.000000,4.000000,4.000000,4.000000,4.000000,4.000000,4.000000,4.000000,4.000000,100.000000,,,,,,,,,,,,,,,,,,,,,,,,,,,,
1703502213.393696,1703502213.394150,63.000000,0.000000,4302.692383,4274.358887,4315.256348,4310.897461,4267.563965,4253.846191,4275.128418,4263.846191,4251.922852,4238.461426,4516.922852,4480.128418,4392.051270,4447.692383,0.000000,3.000000,66.000000,,,,0.000000,4.000000,4.000000,4.000000,4.000000,4.000000,4.000000,4.000000,4.000000,4.000000,4.000000,4.000000,4.000000,4.000000,4.000000,100.000000,,,,,,,,,,,,,,,,,,,,,,,,,,,,
1703502213.401504,1703502213.401958,64.000000,0.000000,4301.282227,4269.102539,4311.410156,4307.051270,4259.102539,4247.948730,4269.102539,4257.563965,4248.077148,4230.000000,4505.897461,4476.025879,4386.666504,4443.333496,5163.000000,3.000000,66.000000,,,,0.000000,4.000000,4.000000,4.000000,4.000000,4.000000,4.000000,4.000000,4.000000,4.000000,4.000000,4.000000,4.000000,4.000000,4.000000,100.000000,,,,,,,,,,,,,,,,,16.000000,0.000000,0.709028,-0.245789,-0.651672,-0.110413,0.965938,-0.205103,0.035161,-11.591286,-42.474697,61.163876
1703502213.409312,1703502213.409866,65.000000,0.000000,4297.051270,4264.871582,4308.589844,4300.384766,4261.410156,4246.794922,4272.179688,4251.538574,4248.205078,4234.358887,4506.025879,4473.461426,4384.615234,4440.256348,5519.000000,3.000000,66.000000,,,,0.000000,4.000000,4.000000,4.000000,4.000000,4.000000,4.000000,4.000000,4.000000,4.000000,4.000000,4.000000,4.000000,4.000000,4.000000,100.000000,,,,,,,,,,,,,,,,,,,,,,,,,,,,
1703502213.417120,1703502213.417674,66.000000,0.000000,4293.333496,4262.692383,4310.128418,4298.205078,4263.589844,4246.922852,4275.769043,4254.230957,4246.922852,4232.563965,4506.410156,4474.358887,4383.461426,4439.487305,5362.000000,3.000000,66.000000,,,,0.000000,4.000000,4.000000,4.000000,4.000000,4.000000,4.000000,4.000000,4.000000,4.000000,4.000000,4.000000,4.000000,4.000000,4.000000,100.000000,,,,,,,,,,,,,,,,,,,,,,,,,,,,
1703502213.424928,1703502213.425582,67.000000,0.000000,4298.461426,4265.897461,4317.948730,4301.410156,4258.974121,4247.692383,4276.282227,4258.205078,4247.563965,4229.487305,4507.307617,4474.615234,4384.230957,4443.974121,5429.000000,3.000000,66.000000,,,,0.000000,4.000000,4.000000,4.000000,4.000000,4.000000,4.000000,4.000000,4.000000,4.000000,4.000000,4.000000,4.000000,4.000000,4.000000,100.000000,,,,,,,,,,,,,,,,,,,,,,,,,,,,
1703502213.432736,1703502213.433390,68.000000,0.000000,4299.615234,4267.692383,4319.871582,4299.230957,4256.794922,4248.589844,4276.153809,4257.436035,4250.897461,4233.974121,4510.128418,4470.769043,4390.000000,4446.282227,5315.000000,3.000000,66.000000,,,,0.000000,4.000000,4.000000,4.000000,4.000000,4.000000,4.000000,4.000000,4.000000,4.000000,4.000000,4.000000,4.000000,4.000000,4.000000,100.000000,,,,,,,,,,,,,,,,,17.000000,0.000000,0.709090,-0.246094,-0.651489,-0.110413,0.969845,-0.206568,0.032719,-11.565491,-42.460560,61.130821
1703502213.440544,1703502213.441298,69.000000,0.000000,4295.000000,4264.487305,4312.051270,4294.230957,4259.615234,4247.307617,4274.487305,4254.102539,4248.717773,4232.307617,4505.897461,4469.487305,4390.256348,4442.307617,4878.000000,3.000000,66.000000,,,,0.000000,4.000000,4.000000,4.000000,4.000000,4.000000,4.000000,4.000000,4.000000,4.000000,4.000000,4.000000,4.000000,4.000000,4.000000,100.000000,,,,,,,,,,,,,,,,,,,,,,,,,,,,
1703502213.448352,1703502213.449106,70.000000,0.000000,4295.000000,4266.025879,4308.846191,4293.974121,4262.436035,4247.307617,4272.692383,4252.436035,4246.282227,4230.384766,4505.897461,4470.769043,4386.282227,4441.153809,3992.000000,3.000000,66.000000,,,,0.000000,4.000000,4.000000,4.000000,4.000000,4.000000,4.000000,4.000000,4.000000,4.000000,4.000000,4.000000,4.000000,4.000000,4.000000,100.000000,,,,,,,,,,,,,,,,,,,,,,,,,,,,
1703502213.456160,1703502213.456814,71.000000,0.000000,4296.025879,4266.538574,4312.051270,4291.666504,4261.025879,4246.922852,4273.589844,4249.230957,4247.307617,4231.794922,4508.846191,4466.410156,4383.846191,4441.794922,5287.000000,3.000000,66.000000,,,,0.000000,4.000000,4.000000,4.000000,4.000000,4.000000,4.000000,4.000000,4.000000,4.000000,4.000000,4.000000,4.000000,4.000000,4.000000,100.000000,,,,,,,,,,,,,,,,,,,,,,,,,,,,
1703502213.463968,1703502213.464722,72.000000,0.000000,4293.589844,4263.333496,4310.641113,4287.948730,4260.000000,4245.641113,4275.384766,4250.000000,4244.871582,4228.846191,4500.641113,4463.974121,4383.589844,4437.307617,5410.000000,3.000000,66.000000,,,,0.000000,4.000000,4.000000,4.000000,4.000000,4.000000,4.000000,4.000000,4.000000,4.000000,4.000000,4.000000,4.000000,4.000000,4.000000,100.000000,,,,,,,,,,,,,,,,,18.000000,0.000000,0.709096,-0.246399,-0.651367,-0.110413,0.973263,-0.199731,0.024417,-11.642275,-42.464504,61.034405
1703502213.471777,1703502213.472530,73.000000,0.000000,4293.333496,4263.589844,4308.589844,4290.256348,4259.743652,4246.538574,4275.897461,4253.717773,4243.461426,4228.974121,4496.282227,4466.538574,4379.615234,4435.000000,5477.000000,3.000000,66.000000,,,,0.000000,4.000000,4.000000,4.000000,4.000000,4.000000,4.000000,4.000000,4.000000,4.000000,4.000000,4.000000,4.000000,4.000000,4.000000,100.000000,,,,,,,,,,,,,,,,,,,,,,,,,,,,
1703502213.479585,1703502213.480338,74.000000,0.000000,4294.871582,4266.153809,4312.179688,4295.384766,4260.256348,4247.563965,4276.794922,4250.641113,4242.436035,4230.512695,4500.897461,4466.282227,4375.641113,4434.230957,6058.000000,3.000000,66.000000,,,,0.000000,4.000000,4.000000,4.000000,4.000000,4.000000,4.000000,4.000000,4.000000,4.000000,4.000000,4.000000,4.000000,4.000000,4.000000,100.000000,,,,,,,,,,,,,,,,,,,,,,,,,,,,
1703502213.487393,1703502213.488046,75.000000,0.000000,4294.358887,4266.153809,4318.333496,4296.282227,4262.563965,4248.461426,4278.205078,4249.358887,4238.333496,4225.641113,4502.051270,4467.436035,4380.641113,4435.384766,6379.000000,3.000000,66.000000,,,,0.000000,4.000000,4.000000,4.000000,4.000000,4.000000,4.000000,4.000000,4.000000,4.000000,4.000000,4.000000,4.000000,4.000000,4.000000,100.000000,,,,,,,,,,,,,,,,,,,,,,,,,,,,
1703502213.495201,1703502213.495854,76.000000,0.000000,4294.743652,4269.487305,4323.717773,4295.128418,4261.538574,4251.153809,4280.384766,4257.948730,4239.743652,4225.512695,4503.589844,4472.692383,4386.153809,4442.179688,6912.000000,3.000000,66.000000,,,,0.000000,4.000000,4.000000,4.000000,4.000000,4.000000,4.000000,4.000000,4.000000,4.000000,4.000000,4.000000,4.000000,4.000000,4.000000,100.000000,,,,,,,,,,,,,,,,,19.000000,0.000000,0.709114,-0.246643,-0.651245,-0.110474,0.966915,-0.218777,0.028812,-11.678047,-42.551388,61.030964
1703502213.503009,1703502213.503562,77.000000,0.000000,4296.025879,4275.000000,4323.846191,4296.410156,4262.436035,4252.563965,4279.487305,4265.000000,4246.410156,4233.205078,4506.922852,4474.230957,4383.589844,4441.538574,6666.000000,3.000000,66.000000,,,,0.000000,4.000000,4.000000,4.000000,4.000000,4.000000,4.000000,4.000000,4.000000,4.000000,4.000000,4.000000,4.000000,4.000000,4.000000,100.000000,,,,,,,,,,,,,,,,,,,,,,,,,,,,
1703502213.510817,1703502213.511370,78.000000,0.000000,4293.589844,4273.589844,4317.179688,4295.769043,4264.230957,4249.871582,4275.897461,4257.692383,4247.436035,4236.538574,4505.000000,4468.717773,4376.153809,4436.025879,6058.000000,3.000000,66.000000,,,,0.000000,4.000000,4.000000,4.000000,4.000000,4.000000,4.000000,4.000000,4.000000,4.000000,4.000000,4.000000,4.000000,4.000000,4.000000,100.000000,,,,,,,,,,,,,,,,,,,,,,,,,,,,
1703502213.518625,1703502213.519079,79.000000,0.000000,4292.563965,4270.256348,4310.897461,4293.333496,4260.384766,4246.410156,4275.384766,4250.384766,4243.077148,4231.410156,4500.769043,4465.000000,4375.384766,4438.205078,6379.000000,3.000000,66.000000,,,,0.000000,4.000000,4.000000,4.000000,4.000000,4.000000,4.000000,4.000000,4.000000,4.000000,4.000000,4.000000,4.000000,4.000000,4.000000,100.000000,,,,,,,,,,,,,,,,,,,,,,,,,,,,
1703502213.526433,1703502213.526887,80.000000,0.000000,4295.769043,4269.743652,4310.256348,4293.974121,4260.512695,4247.692383,4277.436035,4249.230957,4236.666504,4224.102539,4496.922852,4460.512695,4377.436035,4438.589844,6912.000000,3.000000,66.000000,,,,0.000000,4.000000,4.000000,4.000000,4.000000,4.000000,4.000000,4.000000,4.000000,4.000000,4.000000,4.000000,4.000000,4.000000,4.000000,100.000000,,,,,,,,,,,,,,,,,20.000000,0.000000,0.709203,-0.246521,-0.651184,-0.110535,0.976682,-0.211940,0.029789,-11.593575,-42.612915,61.094536
1703502213.534241,1703502213.534595,81.000000,0.000000,4295.000000,4267.436035,4309.871582,4293.846191,4264.230957,4250.256348,4278.205078,4248.974121,4231.538574,4223.077148,4492.307617,4456.922852,4371.025879,4431.538574,6666.000000,3.000000,66.000000,,,,0.000000,4.000000,4.000000,4.000000,4.000000,4.000000,4.000000,4.000000,4.000000,4.000000,4.000000,4.000000,4.000000,4.000000,4.000000,100.000000,,,,,,,,,,,,,,,,,,,,,,,,,,,,
1703502213.542049,1703502213.542403,82.000000,0.000000,4291.538574,4263.589844,4308.974121,4293.205078,4263.077148,4247.820313,4277.307617,4255.000000,4239.487305,4229.615234,4497.307617,4463.974121,4368.077148,4433.974121,6058.000000,3.000000,66.000000,,,,0.000000,4.000000,4.000000,4.000000,4.000000,4.000000,4.000000,4.000000,4.000000,4.000000,4.000000,4.000000,4.000000,4.000000,4.000000,100.000000,,,,,,,,,,,,,,,,,,,,,,,,,,,,
1703502213.549857,1703502213.550111,83.000000,0.000000,4293.589844,4266.153809,4312.051270,4296.410156,4261.153809,4246.794922,4278.205078,4264.615234,4253.077148,4237.179688,4510.128418,4473.717773,4376.282227,4447.179688,6379.000000,3.000000,66.000000,,,,0.000000,4.000000,4.000000,4.000000,4.000000,4.000000,4.000000,4.000000,4.000000,4.000000,4.000000,4.000000,4.000000,4.000000,4.000000,100.000000,,,,,,,,,,,,,,,,,,,,,,,,,,,,
1703502213.557665,1703502213.558019,84.000000,0.000000,4296.153809,4270.000000,4315.256348,4298.205078,4262.692383,4247.692383,4278.974121,4265.128418,4248.846191,4232.051270,4508.461426,4472.948730,4376.025879,4447.692383,6912.000000,3.000000,66.000000,,,,0.000000,4.000000,4.000000,4.000000,4.000000,4.000000,4.000000,4.000000,4.000000,4.000000,4.000000,4.000000,4.000000,4.000000,4.000000,100.000000,,,,,,,,,,,,,,,,,21.000000,0.000000,0.709205,-0.246460,-0.651184,-0.110657,0.963008,-0.205591,0.029300,-11.717551,-42.518291,61.085083
1703502213.565473,1703502213.565827,85.000000,0.000000,4293.589844,4267.051270,4312.692383,4296.922852,4260.000000,4245.897461,4277.692383,4259.743652,4235.641113,4219.615234,4494.102539,4465.256348,4364.487305,4437.948730,6666.000000,3.000000,66.000000,,,,0.000000,4.000000,4.000000,4.000000,4.000000,4.000000,4.000000,4.000000,4.000000,4.000000,4.000000,4.000000,4.000000,4.000000,4.000000,100.000000,,,,,,,,,,,,,,,,,,,,,,,,,,,,
1703502213.573281,1703502213.573735,86.000000,0.000000,4292.820313,4264.102539,4309.871582,4296.282227,4257.692383,4246.153809,4277.820313,4261.282227,4237.307617,4220.128418,4492.179688,4463.974121,4364.871582,4436.282227,6058.000000,3.000000,66.000000,,,,0.000000,4.000000,4.000000,4.000000,4.000000,4.000000,4.000000,4.000000,4.000000,4.000000,4.000000,4.000000,4.000000,4.000000,4.000000,100.000000,,,,,,,,,,,,,,,,,,,,,,,,,,,,
1703502213.581089,1703502213.581543,87.000000,0.000000,4296.282227,4265.256348,4310.641113,4295.384766,4261.282227,4248.717773,4282.051270,4261.538574,4243.461426,4226.153809,4500.128418,4468.717773,4370.769043,4443.205078,6379.000000,3.000000,66.000000,,,,0.000000,4.000000,4.000000,4.000000,4.000000,4.000000,4.000000,4.000000,4.000000,4.000000,4.000000,4.000000,4.000000,4.000000,4.000000,100.000000,,,,,,,,,,,,,,,,,,,,,,,,,,,,
1703502213.588897,1703502213.589451,88.000000,0.000000,4295.897461,4268.461426,4310.384766,4295.897461,4262.563965,4250.000000,4284.102539,4255.128418,4237.307617,4221.922852,4497.307617,4465.769043,4366.922852,4444.871582,6912.000000,3.000000,66.000000,,,,0.000000,4.000000,4.000000,4.000000,4.000000,4.000000,4.000000,4.000000,4.000000,4.000000,4.000000,4.000000,4.000000,4.000000,4.000000,100.000000,,,,,,,,,,,,,,,,,22.000000,0.000000,0.709191,-0.246338,-0.651245,-0.110657,0.963985,-0.208522,0.032230,-11.612463,-42.549793,61.193241
1703502213.596706,1703502213.597260,89.000000,0.000000,4296.153809,4272.051270,4309.102539,4297.179688,4261.025879,4248.717773,4283.461426,4253.333496,4233.717773,4219.871582,4495.256348,4462.820313,4367.307617,4441.153809,6666.000000,3.000000,66.000000,,,,0.000000,4.000000,4.000000,4.000000,4.000000,4.000000,4.000000,4.000000,4.000000,4.000000,4.000000,4.000000,4.000000,4.000000,4.000000,100.000000,,,,,,,,,,,,,,,,,,,,,,,,,,,,
1703502213.604514,1703502213.605167,90.000000,0.000000,4300.128418,4275.128418,4310.000000,4298.333496,4263.589844,4250.256348,4286.153809,4260.256348,4243.846191,4230.384766,4506.666504,4468.589844,4374.743652,4443.205078,6058.000000,3.000000,66.000000,,,,0.000000,4.000000,4.000000,4.000000,4.000000,4.000000,4.000000,4.000000,4.000000,4.000000,4.000000,4.000000,4.000000,4.000000,4.000000,100.000000,,,,,,,,,,,,,,,,,,,,,,,,,,,,
1703502213.612322,1703502213.612975,91.000000,0.000000,4299.487305,4275.000000,4309.615234,4303.589844,4266.666504,4256.794922,4287.307617,4262.820313,4250.000000,4232.948730,4507.948730,4468.205078,4373.461426,4446.153809,6379.000000,3.000000,66.000000,,,,0.000000,4.000000,4.000000,4.000000,4.000000,4.000000,4.000000,4.000000,4.000000,4.000000,4.000000,4.000000,4.000000,4.000000,4.000000,100.000000,1.000000,100.000000,4.000000,4.000000,4.000000,4.000000,4.000000,4.000000,4.000000,4.000000,4.000000,4.000000,4.000000,4.000000,4.000000,4.000000,,,,,,,,,,,,
1703502213.620130,1703502213.620683,92.000000,0.000000,4299.487305,4272.692383,4309.487305,4309.871582,4266.025879,4258.717773,4285.897461,4261.794922,4248.974121,4229.230957,4500.897461,4466.282227,4371.153809,4445.000000,6912.000000,3.000000,66.000000,,,,0.000000,4.000000,4.000000,4.000000,4.000000,4.000000,4.000000,4.000000,4.000000,4.000000,4.000000,4.000000,4.000000,4.000000,4.000000,100.000000,,,,,,,,,,,,,,,,,23.000000,0.000000,0.709250,-0.246033,-0.651245,-0.110962,0.973263,-0.195336,0.026370,-11.601217,-42.544815,61.290581
1703502213.627938,1703502213.628491,93.000000,0.000000,4306.282227,4276.282227,4312.179688,4310.512695,4265.641113,4252.436035,4285.897461,4267.051270,4252.179688,4234.615234,4507.307617,4473.589844,4380.897461,4449.358887,6666.000000,3.000000,66.000000,,,,0.000000,4.000000,4.000000,4.000000,4.000000,4.000000,4.000000,4.000000,4.000000,4.000000,4.000000,4.000000,4.000000,4.000000,4.000000,100.000000,,,,,,,,,,,,,,,,,,,,,,,,,,,,
1703502213.635746,1703502213.636200,94.000000,0.000000,4305.256348,4276.922852,4313.846191,4310.128418,4264.102539,4247.820313,4283.717773,4266.666504,4253.461426,4236.794922,4510.897461,4477.307617,4382.563965,4456.410156,6058.000000,3.000000,66.000000,,,,0.000000,4.000000,4.000000,4.000000,4.000000,4.000000,4.000000,4.000000,4.000000,4.000000,4.000000,4.000000,4.000000,4.000000,4.000000,100.000000,,,,,,,,,,,,,,,,,,,,,,,,,,,,
1703502213.643554,1703502213.644007,95.000000,0.000000,4296.538574,4268.077148,4311.794922,4311.794922,4261.666504,4248.589844,4279.615234,4262.563965,4249.358887,4233.717773,4505.128418,4471.538574,4377.436035,4456.282227,6379.000000,3.000000,66.000000,,,,0.000000,4.000000,4.000000,4.000000,4.000000,4.000000,4.000000,4.000000,4.000000,4.000000,4.000000,4.000000,4.000000,4.000000,4.000000,100.000000,,,,,,,,,,,,,,,,,,,,,,,,,,,,
1703502213.651362,1703502213.651716,96.000000,0.000000,4295.641113,4267.563965,4310.128418,4312.179688,4263.205078,4249.871582,4280.256348,4265.256348,4248.333496,4234.487305,4506.153809,4467.563965,4381.025879,4450.000000,6912.000000,3.000000,66.000000,,,,0.000000,4.000000,4.000000,4.000000,4.000000,4.000000,4.000000,4.000000,4.000000,4.000000,4.000000,4.000000,4.000000,4.000000,4.000000,100.000000,,,,,,,,,,,,,,,,,24.000000,0.000000,0.709240,-0.246033,-0.651245,-0.111023,0.977658,-0.215358,0.030765,-11.774428,-42.573666,61.211525
1703502213.659170,1703502213.659524,97.000000,0.000000,4296.922852,4272.948730,4308.974121,4308.461426,4265.128418,4250.512695,4281.282227,4260.769043,4249.743652,4235.641113,4503.717773,4464.230957,4378.589844,4445.256348,6666.000000,3.000000,66.000000,,,,0.000000,4.000000,4.000000,4.000000,4.000000,4.000000,4.000000,4.000000,4.000000,4.000000,4.000000,4.000000,4.000000,4.000000,4.000000,100.000000,,,,,,,,,,,,,,,,,,,,,,,,,,,,
1703502213.666978,1703502213.667232,98.000000,0.000000,4290.256348,4267.820313,4303.589844,4304.743652,4262.307617,4248.589844,4278.333496,4249.487305,4244.743652,4230.897461,4491.538574,4456.025879,4369.743652,4443.846191,6058.000000,3.000000,66.000000,,,,0.000000,4.000000,4.000000,4.000000,4.000000,4.000000,4.000000,4.000000,4.000000,4.000000,4.000000,4.000000,4.000000,4.000000,4.000000,100.000000,,,,,,,,,,,,,,,,,,,,,,,,,,,,
1703502213.674786,1703502213.675040,99.000000,0.000000,4287.948730,4263.717773,4301.922852,4303.717773,4259.487305,4244.487305,4277.820313,4249.102539,4240.769043,4226.794922,4488.461426,4457.307617,4372.179688,4443.974121,6379.000000,3.000000,66.000000,,,,0.000000,4.000000,4.000000,4.000000,4.000000,4.000000,4.000000,4.000000,4.000000,4.000000,4.000000,4.000000,4.000000,4.000000,4.000000,100.000000,,,,,,,,,,,,,,,,,,,,,,,,,,,,
1703502213.682594,1703502213.682748,100.000000,0.000000,4294.102539,4270.384766,4306.410156,4300.897461,4261.538574,4245.384766,4278.333496,4250.641113,4245.256348,4230.769043,4498.974121,4466.282227,4379.743652,4445.897461,6912.000000,3.000000,66.000000,,,,0.000000,4.000000,4.000000,4.000000,4.000000,4.000000,4.000000,4.000000,4.000000,4.000000,4.000000,4.000000,4.000000,4.000000,4.000000,100.000000,,,,,,,,,,,,,,,,,25.000000,0.000000,0.709111,-0.246216,-0.651306,-0.111084,0.963985,-0.204126,0.034672,-11.763652,-42.716301,61.207039
1703502213.690402,1703502213.690556,101.000000,0.000000,4300.384766,4277.179688,4310.384766,4302.051270,4265.128418,4248.461426,4278.333496,4251.153809,4249.487305,4235.384766,4508.333496,4470.897461,4383.974121,4454.358887,6666.000000,3.000000,66.000000,,,,0.000000,4.000000,4.000000,4.000000,4.000000,4.000000,4.000000,4.000000,4.000000,4.000000,4.000000,4.000000,4.000000,4.000000,4.000000,100.000000,,,,,,,,,,,,,,,,,,,,,,,,,,,,
1703502213.698210,1703502213.698264,102.000000,0.000000,4301.025879,4278.846191,4312.563965,4309.102539,4265.128418,4248.974121,4281.025879,4256.410156,4248.077148,4234.358887,4508.717773,4475.897461,4383.974121,4458.333496,6058.000000,3.000000,66.000000,,,,0.000000,4.000000,4.000000,4.000000,4.000000,4.000000,4.000000,4.000000,4.000000,4.000000,4.000000,4.000000,4.000000,4.000000,4.000000,100.000000,,,,,,,,,,,,,,,,,,,,,,,,,,,,
1703502213.706018,1703502213.706072,103.000000,0.000000,4298.077148,4276.666504,4311.794922,4306.922852,4262.948730,4248.205078,4280.769043,4257.563965,4246.538574,4233.333496,4505.384766,4475.256348,4381.282227,4451.794922,6379.000000,3.000000,66.000000,,,,0.000000,4.000000,4.000000,4.000000,4.000000,4.000000,4.000000,4.000000,4.000000,4.000000,4.000000,4.000000,4.000000,4.000000,4.000000,100.000000,,,,,,,,,,,,,,,,,,,,,,,,,,,,
1703502213.713826,1703502213.713780,104.000000,0.000000,4293.974121,4271.538574,4306.153809,4296.922852,4261.025879,4247.051270,4275.769043,4255.384766,4247.436035,4234.102539,4503.461426,4466.410156,4376.794922,4445.384766,6912.000000,3.000000,66.000000,,,,0.000000,4.000000,4.000000,4.000000,4.000000,4.000000,4.000000,4.000000,4.000000,4.000000,4.000000,4.000000,4.000000,4.000000,4.000000,100.000000,,,,,,,,,,,,,,,,,26.000000,0.000000,0.709022,-0.246338,-0.651367,-0.111023,0.972775,-0.199243,0.035161,-11.820621,-42.611336,61.303001
1703502213.721634,1703502213.721588,105.000000,0.000000,4292.692383,4269.487305,4305.128418,4295.000000,4259.102539,4246.794922,4275.128418,4252.948730,4245.256348,4230.641113,4499.230957,4464.871582,4372.436035,4441.153809,6666.000000,3.000000,66.000000,,,,0.000000,4.000000,4.000000,4.000000,4.000000,4.000000,4.000000,4.000000,4.000000,4.000000,4.000000,4.000000,4.000000,4.000000,4.000000,100.000000,,,,,,,,,,,,,,,,,,,,,,,,,,,,
1703502213.729442,1703502213.729296,106.000000,0.000000,4293.461426,4267.820313,4307.051270,4296.922852,4261.538574,4248.846191,4277.436035,4251.666504,4245.769043,4230.769043,4494.102539,4467.820313,4370.384766,4439.230957,6058.000000,3.000000,66.000000,,,,0.000000,4.000000,4.000000,4.000000,4.000000,4.000000,4.000000,4.000000,4.000000,4.000000,4.000000,4.000000,4.000000,4.000000,4.000000,100.000000,,,,,,,,,,,,,,,,,,,,,,,,,,,,
1703502213.737250,1703502213.737204,107.000000,0.000000,4287.563965,4264.487305,4304.230957,4293.717773,4262.948730,4249.358887,4279.358887,4255.897461,4248.846191,4234.487305,4492.820313,4465.000000,4369.743652,4437.948730,6379.000000,3.000000,66.000000,,,,0.000000,4.000000,4.000000,4.000000,4.000000,4.000000,4.000000,4.000000,4.000000,4.000000,4.000000,4.000000,4.000000,4.000000,4.000000,100.000000,,,,,,,,,,,,,,,,,,,,,,,,,,,,
1703502213.745059,1703502213.745012,108.000000,0.000000,4280.256348,4264.230957,4299.230957,4291.282227,4257.820313,4246.025879,4277.436035,4256.025879,4246.538574,4229.871582,4493.461426,4460.897461,4367.820313,4433.589844,6912.000000,3.000000,66.000000,,,,0.000000,4.000000,4.000000,4.000000,4.000000,4.000000,4.000000,4.000000,4.000000,4.000000,4.000000,4.000000,4.000000,4.000000,4.000000,100.000000,,,,,,,,,,,,,,,,,27.000000,0.000000,0.708902,-0.246338,-0.651550,-0.110718,0.978147,-0.203150,0.032230,-11.855225,-42.616871,61.256035
1703502213.752867,1703502213.752920,109.000000,0.000000,4284.487305,4263.846191,4297.692383,4291.025879,4257.820313,4245.641113,4270.641113,4248.333496,4242.307617,4225.512695,4490.000000,4460.769043,4365.256348,4433.717773,6666.000000,3.000000,66.000000,,,,0.000000,4.000000,4.000000,4.000000,4.000000,4.000000,4.000000,4.000000,4.000000,4.000000,4.000000,4.000000,4.000000,4.000000,4.000000,100.000000,,,,,,,,,,,,,,,,,,,,,,,,,,,,
1703502213.760675,1703502213.760728,110.000000,0.000000,4291.666504,4261.922852,4299.487305,4290.641113,4258.333496,4247.820313,4268.077148,4244.230957,4239.358887,4223.077148,4485.769043,4457.563965,4364.358887,4436.666504,6058.000000,3.000000,66.000000,,,,0.000000,4.000000,4.000000,4.000000,4.000000,4.000000,4.000000,4.000000,4.000000,4.000000,4.000000,4.000000,4.000000,4.000000,4.000000,100.000000,,,,,,,,,,,,,,,,,,,,,,,,,,,,
1703502213.768483,1703502213.768637,111.000000,0.000000,4289.615234,4261.410156,4303.717773,4291.410156,4253.077148,4246.025879,4271.538574,4247.436035,4234.743652,4219.487305,4488.974121,4452.563965,4366.153809,4435.256348,6379.000000,3.000000,66.000000,,,,0.000000,4.000000,4.000000,4.000000,4.000000,4.000000,4.000000,4.000000,4.000000,4.000000,4.000000,4.000000,4.000000,4.000000,4.000000,100.000000,,,,,,,,,,,,,,,,,,,,,,,,,,,,
1703502213.776291,1703502213.776445,112.000000,0.000000,4291.538574,4268.333496,4309.487305,4297.436035,4255.128418,4245.897461,4276.538574,4248.461426,4234.102539,4222.820313,4492.563965,4460.897461,4369.871582,4437.307617,6912.000000,3.000000,66.000000,,,,0.000000,4.000000,4.000000,4.000000,4.000000,4.000000,4.000000,4.000000,4.000000,4.000000,4.000000,4.000000,4.000000,4.000000,4.000000,100.000000,,,,,,,,,,,,,,,,,28.000000,0.000000,0.708795,-0.246216,-0.651733,-0.110596,0.969845,-0.206568,0.023440,-11.803036,-42.671848,61.297096
1703502213.784099,1703502213.784353,113.000000,0.000000,4293.974121,4275.128418,4310.769043,4302.307617,4263.974121,4248.846191,4277.692383,4251.410156,4242.563965,4231.153809,4491.794922,4469.743652,4374.487305,4446.922852,6666.000000,3.000000,66.000000,,,,0.000000,4.000000,4.000000,4.000000,4.000000,4.000000,4.000000,4.000000,4.000000,4.000000,4.000000,4.000000,4.000000,4.000000,4.000000,100.000000,,,,,,,,,,,,,,,,,,,,,,,,,,,,
1703502213.791907,1703502213.792161,114.000000,0.000000,4286.666504,4268.589844,4307.307617,4297.820313,4263.205078,4246.153809,4274.871582,4256.025879,4247.307617,4232.179688,4497.307617,4465.384766,4376.666504,4446.666504,6058.000000,3.000000,66.000000,,,,0.000000,4.000000,4.000000,4.000000,4.000000,4.000000,4.000000,4.000000,4.000000,4.000000,4.000000,4.000000,4.000000,4.000000,4.000000,100.000000,,,,,,,,,,,,,,,,,,,,,,,,,,,,
1703502213.799715,1703502213.800068,115.000000,0.000000,4281.538574,4262.563965,4306.922852,4293.974121,4260.000000,4245.384766,4276.410156,4261.153809,4246.794922,4230.769043,4503.589844,4464.743652,4377.563965,4440.128418,6379.000000,3.000000,66.000000,,,,0.000000,4.000000,4.000000,4.000000,4.000000,4.000000,4.000000,4.000000,4.000000,4.000000,4.000000,4.000000,4.000000,4.000000,4.000000,100.000000,,,,,,,,,,,,,,,,,,,,,,,,,,,,
1703502213.807523,1703502213.807876,116.000000,0.000000,4281.538574,4265.512695,4305.128418,4297.820313,4262.436035,4247.436035,4277.179688,4266.410156,4249.743652,4235.512695,4497.307617,4468.333496,4377.820313,4443.717773,6912.000000,3.000000,66.000000,,,,0.000000,4.000000,4.000000,4.000000,4.000000,4.000000,4.000000,4.000000,4.000000,4.000000,4.000000,4.000000,4.000000,4.000000,4.000000,100.000000,,,,,,,,,,,,,,,,,29.000000,0.000000,0.708664,-0.245972,-0.651978,-0.110535,0.968868,-0.221218,0.036626,-11.856066,-42.571331,61.267387
1703502213.815331,1703502213.815784,117.000000,0.000000,4280.000000,4263.717773,4301.282227,4297.179688,4259.358887,4242.307617,4271.410156,4260.000000,4249.487305,4234.230957,4488.589844,4466.025879,4372.563965,4443.077148,6666.000000,3.000000,66.000000,,,,0.000000,4.000000,4.000000,4.000000,4.000000,4.000000,4.000000,4.000000,4.000000,4.000000,4.000000,4.000000,4.000000,4.000000,4.000000,100.000000,,,,,,,,,,,,,,,,,,,,,,,,,,,,
1703502213.823139,1703502213.823592,118.000000,0.000000,4277.436035,4260.897461,4300.256348,4295.128418,4256.410156,4240.384766,4266.666504,4250.128418,4246.153809,4227.820313,4487.563965,4463.077148,4367.179688,4433.974121,6058.000000,3.000000,66.000000,,,,0.000000,4.000000,4.000000,4.000000,4.000000,4.000000,4.000000,4.000000,4.000000,4.000000,4.000000,4.000000,4.000000,4.000000,4.000000,100.000000,,,,,,,,,,,,,,,,,,,,,,,,,,,,
1703502213.830947,1703502213.831500,119.000000,0.000000,4282.179688,4264.102539,4303.974121,4302.948730,4261.538574,4247.179688,4270.128418,4255.128418,4248.974121,4232.563965,4494.743652,4465.000000,4373.846191,4435.641113,6379.000000,3.000000,66.000000,,,,0.000000,4.000000,4.000000,4.000000,4.000000,4.000000,4.000000,4.000000,4.000000,4.000000,4.000000,4.000000,4.000000,4.000000,4.000000,100.000000,,,,,,,,,,,,,,,,,,,,,,,,,,,,
1703502213.838755,1703502213.839308,120.000000,0.000000,4289.102539,4265.000000,4306.153809,4309.487305,4264.230957,4247.820313,4274.487305,4261.666504,4251.794922,4240.641113,4499.230957,4470.384766,4380.384766,4445.384766,6912.000000,3.000000,66.000000,,,,0.000000,4.000000,4.000000,4.000000,4.000000,4.000000,4.000000,4.000000,4.000000,4.000000,4.000000,4.000000,4.000000,4.000000,4.000000,100.000000,,,,,,,,,,,,,,,,,30.000000,0.000000,0.708629,-0.245911,-0.652039,-0.110535,0.966915,-0.210475,0.020999,-11.937126,-42.464199,61.307316
1703502213.846563,1703502213.847016,121.000000,0.000000,4285.512695,4263.205078,4303.461426,4307.948730,4261.794922,4242.563965,4270.641113,4259.358887,4249.615234,4236.794922,4494.871582,4469.743652,4376.282227,4446.025879,6666.000000,3.000000,66.000000,,,,0.000000,4.000000,4.000000,4.000000,4.000000,4.000000,4.000000,4.000000,4.000000,4.000000,4.000000,4.000000,4.000000,4.000000,4.000000,100.000000,,,,,,,,,,,,,,,,,,,,,,,,,,,,
1703502213.854371,1703502213.854824,122.000000,0.000000,4279.358887,4264.615234,4303.846191,4306.922852,4260.641113,4244.358887,4265.897461,4258.461426,4248.333496,4230.512695,4495.000000,4466.025879,4376.666504,4443.974121,6058.000000,3.000000,66.000000,,,,0.000000,4.000000,4.000000,4.000000,4.000000,4.000000,4.000000,4.000000,4.000000,4.000000,4.000000,4.000000,4.000000,4.000000,4.000000,100.000000,,,,,,,,,,,,,,,,,,,,,,,,,,,,
1703502213.862179,1703502213.862532,123.000000,0.000000,4286.410156,4265.384766,4307.692383,4309.871582,4263.205078,4248.461426,4268.589844,4258.717773,4247.179688,4232.563965,4500.128418,4468.974121,4382.179688,4447.051270,6379.000000,3.000000,66.000000,,,,0.000000,4.000000,4.000000,4.000000,4.000000,4.000000,4.000000,4.000000,4.000000,4.000000,4.000000,4.000000,4.000000,4.000000,4.000000,100.000000,,,,,,,,,,,,,,,,,,,,,,,,,,,,
1703502213.869987,1703502213.870340,124.000000,0.000000,4294.487305,4267.948730,4308.205078,4313.077148,4264.358887,4245.128418,4272.179688,4251.666504,4242.820313,4233.205078,4494.871582,4472.051270,4379.230957,4448.717773,6912.000000,3.000000,66.000000,,,,0.000000,4.000000,4.000000,4.000000,4.000000,4.000000,4.000000,4.000000,4.000000,4.000000,4.000000,4.000000,4.000000,4.000000,4.000000,100.000000,,,,,,,,,,,,,,,,,31.000000,0.000000,0.708529,-0.245850,-0.652161,-0.110596,0.969357,-0.211452,0.024417,-11.826747,-42.534443,61.343250
1703502213.877796,1703502213.878048,125.000000,0.000000,4291.153809,4270.000000,4308.974121,4312.436035,4261.538574,4242.179688,4268.077148,4244.358887,4242.051270,4229.102539,4485.897461,4467.563965,4372.820313,4445.256348,6666.000000,3.000000,66.000000,,,,0.000000,4.000000,4.000000,4.000000,4.000000,4.000000,4.000000,4.000000,4.000000,4.000000,4.000000,4.000000,4.000000,4.000000,4.000000,100.000000,,,,,,,,,,,,,,,,,,,,,,,,,,,,
1703502213.885604,1703502213.885856,126.000000,0.000000,4290.897461,4265.769043,4306.794922,4308.974121,4260.256348,4245.384766,4261.922852,4246.410156,4244.743652,4228.205078,4489.871582,4462.436035,4375.256348,4443.205078,6058.000000,3.000000,66.000000,,,,0.000000,4.000000,4.000000,4.000000,4.000000,4.000000,4.000000,4.000000,4.000000,4.000000,4.000000,4.000000,4.000000,4.000000,4.000000,100.000000,,,,,,,,,,,,,,,,,,,,,,,,,,,,
1703502213.893412,1703502213.893564,127.000000,0.000000,4295.641113,4269.102539,4302.179688,4307.820313,4262.051270,4247.179688,4266.538574,4255.897461,4249.102539,4232.179688,4496.666504,4467.051270,4383.461426,4451.282227,66.000000,3.000000,66.000000,,,,0.000000,4.000000,4.000000,4.000000,4.000000,4.000000,4.000000,4.000000,4.000000,4.000000,4.000000,4.000000,4.000000,4.000000,4.000000,100.000000,,,,,,,,,,,,,,,,,,,,,,,,,,,,
1703502213.901220,1703502213.901372,0.000000,0.000000,4297.307617,4278.077148,4306.410156,4312.051270,4264.102539,4244.871582,4271.282227,4265.384766,4256.025879,4235.128418,4494.743652,4473.077148,4382.820313,4458.846191,5165.000000,3.000000,66.000000,,,,0.000000,4.000000,4.000000,4.000000,4.000000,4.000000,4.000000,4.000000,4.000000,4.000000,4.000000,4.000000,4.000000,4.000000,4.000000,100.000000,,,,,,,,,,,,,,,,,0.000000,0.000000,0.708432,-0.245911,-0.652222,-0.110718,0.980100,-0.199731,0.032719,-12.044072,-42.547668,61.158924
1703502213.909028,1703502213.909080,1.000000,0.000000,4295.128418,4269.358887,4308.077148,4311.794922,4263.974121,4250.384766,4269.743652,4266.666504,4260.384766,4234.358887,4491.922852,4473.974121,4376.922852,4455.000000,5521.000000,3.000000,66.000000,,,,0.000000,4.000000,4.000000,4.000000,4.000000,4.000000,4.000000,4.000000,4.000000,4.000000,4.000000,4.000000,4.000000,4.000000,4.000000,100.000000,,,,,,,,,,,,,,,,,,,,,,,,,,,,
1703502213.916836,1703502213.916988,2.000000,0.000000,4291.538574,4261.538574,4301.282227,4306.282227,4265.000000,4258.846191,4272.051270,4264.871582,4260.128418,4231.153809,4493.717773,4475.769043,4376.282227,4453.333496,5362.000000,3.000000,66.000000,,,,0.000000,4.000000,4.000000,4.000000,4.000000,4.000000,4.000000,4.000000,4.000000,4.000000,4.000000,4.000000,4.000000,4.000000,4.000000,100.000000,,,,,,,,,,,,,,,,,,,,,,,,,,,,
1703502213.924644,1703502213.924797,3.000000,0.000000,4293.846191,4274.615234,4303.333496,4311.282227,4266.666504,4255.512695,4273.461426,4266.410156,4257.692383,4228.717773,4495.641113,4475.512695,4371.922852,4458.077148,5429.000000,3.000000,66.000000,,,,0.000000,4.000000,4.000000,4.000000,4.000000,4.000000,4.000000,4.000000,4.000000,4.000000,4.000000,4.000000,4.000000,4.000000,4.000000,100.000000,,,,,,,,,,,,,,,,,,,,,,,,,,,,
1703502213.932452,1703502213.932705,4.000000,0.000000,4303.461426,4285.512695,4313.461426,4319.871582,4265.641113,4247.179688,4267.820313,4262.051270,4250.256348,4228.205078,4492.563965,4472.051270,4369.487305,4459.102539,5315.000000,3.000000,66.000000,,,,0.000000,4.000000,4.000000,4.000000,4.000000,4.000000,4.000000,4.000000,4.000000,4.000000,4.000000,4.000000,4.000000,4.000000,4.000000,100.000000,,,,,,,,,,,,,,,,,1.000000,0.000000,0.708380,-0.246033,-0.652222,-0.110779,0.962031,-0.202173,0.026859,-11.889665,-42.559566,61.126366
1703502213.940260,1703502213.940513,5.000000,0.000000,4309.615234,4282.307617,4316.538574,4315.897461,4264.615234,4246.666504,4263.333496,4251.538574,4242.436035,4226.153809,4490.256348,4469.871582,4382.307617,4459.743652,4878.000000,3.000000,66.000000,,,,0.000000,4.000000,4.000000,4.000000,4.000000,4.000000,4.000000,4.000000,4.000000,4.000000,4.000000,4.000000,4.000000,4.000000,4.000000,100.000000,,,,,,,,,,,,,,,,,,,,,,,,,,,,
1703502213.948068,1703502213.948421,6.000000,0.000000,4306.666504,4276.794922,4313.717773,4308.717773,4263.461426,4249.871582,4266.282227,4249.230957,4243.077148,4225.000000,4495.128418,4469.871582,4393.717773,4461.922852,3992.000000,3.000000,66.000000,,,,0.000000,4.000000,4.000000,4.000000,4.000000,4.000000,4.000000,4.000000,4.000000,4.000000,4.000000,4.000000,4.000000,4.000000,4.000000,100.000000,,,,,,,,,,,,,,,,,,,,,,,,,,,,
1703502213.955876,1703502213.956229,7.000000,0.000000,4304.743652,4269.615234,4313.205078,4307.436035,4260.512695,4248.846191,4266.153809,4255.384766,4247.051270,4228.205078,4501.794922,4473.974121,4392.307617,4463.974121,5287.000000,3.000000,66.000000,,,,0.000000,4.000000,4.000000,4.000000,4.000000,4.000000,4.000000,4.000000,4.000000,4.000000,4.000000,4.000000,4.000000,4.000000,4.000000,100.000000,,,,,,,,,,,,,,,,,,,,,,,,,,,,
1703502213.963684,1703502213.964137,8.000000,0.000000,4309.743652,4271.794922,4315.128418,4311.153809,4260.897461,4247.436035,4262.563965,4259.871582,4249.102539,4232.820313,4502.692383,4478.589844,4394.358887,4472.948730,5410.000000,3.000000,66.000000,,,,0.000000,4.000000,4.000000,4.000000,4.000000,4.000000,4.000000,4.000000,4.000000,4.000000,4.000000,4.000000,4.000000,4.000000,4.000000,100.000000,,,,,,,,,,,,,,,,,2.000000,0.000000,0.708411,-0.245972,-0.652222,-0.110718,0.976193,-0.212428,0.031254,-11.900698,-42.553612,61.280396
1703502213.971492,1703502213.971946,9.000000,0.000000,4313.205078,4284.871582,4317.436035,4316.410156,4264.487305,4250.256348,4267.179688,4260.897461,4250.256348,4232.179688,4502.436035,4478.205078,4396.922852,4478.077148,5470.000000,3.000000,66.000000,,,,0.000000,4.000000,4.000000,4.000000,4.000000,4.000000,4.000000,4.000000,4.000000,4.000000,4.000000,4.000000,4.000000,4.000000,4.000000,100.000000,,,,,,,,,,,,,,,,,,,,,,,,,,,,
1703502213.979300,1703502213.979854,10.000000,0.000000,4313.205078,4287.948730,4314.615234,4317.179688,4263.077148,4251.025879,4268.205078,4261.666504,4249.102539,4231.282227,4503.205078,4473.846191,4395.000000,4473.974121,6058.000000,3.000000,66.000000,,,,0.000000,4.000000,4.000000,4.000000,4.000000,4.000000,4.000000,4.000000,4.000000,4.000000,4.000000,4.000000,4.000000,4.000000,4.000000,100.000000,,,,,,,,,,,,,,,,,,,,,,,,,,,,
1703502213.987108,1703502213.987662,11.000000,0.000000,4312.436035,4276.410156,4306.794922,4310.897461,4259.358887,4247.563965,4263.333496,4262.436035,4249.230957,4235.000000,4501.794922,4472.436035,4395.512695,4473.717773,6379.000000,3.000000,66.000000,,,,0.000000,4.000000,4.000000,4.000000,4.000000,4.000000,4.000000,4.000000,4.000000,4.000000,4.000000,4.000000,4.000000,4.000000,4.000000,100.000000,,,,,,,,,,,,,,,,,,,,,,,,,,,,
1703502213.994916,1703502213.995570,12.000000,0.000000,4305.128418,4267.307617,4303.205078,4309.230957,4258.333496,4246.666504,4262.307617,4261.922852,4249.358887,4231.282227,4495.128418,4473.589844,4387.692383,4469.487305,6912.000000,3.000000,66.000000,,,,0.000000,4.000000,4.000000,4.000000,4.000000,4.000000,4.000000,4.000000,4.000000,4.000000,4.000000,4.000000,4.000000,4.000000,4.000000,100.000000,,,,,,,,,,,,,,,,,3.000000,0.000000,0.708381,-0.246033,-0.652283,-0.110413,0.968380,-0.204126,0.026859,-11.810628,-42.498249,61.202358
1703502214.002725,1703502214.003378,13.000000,0.000000,4297.436035,4266.282227,4305.128418,4312.307617,4258.846191,4249.743652,4264.358887,4262.179688,4248.077148,4226.410156,4494.743652,4470.769043,4384.743652,4463.205078,6668.000000,3.000000,66.000000,,,,0.000000,4.000000,4.000000,4.000000,4.000000,4.000000,4.000000,4.000000,4.000000,4.000000,4.000000,4.000000,4.000000,4.000000,4.000000,100.000000,,,,,,,,,,,,,,,,,,,,,,,,,,,,
1703502214.010533,1703502214.011286,14.000000,0.000000,4296.794922,4264.615234,4304.743652,4310.384766,4261.153809,4249.487305,4264.102539,4261.282227,4249.871582,4230.897461,4500.512695,4467.051270,4393.717773,4463.333496,6058.000000,3.000000,66.000000,,,,0.000000,4.000000,4.000000,4.000000,4.000000,4.000000,4.000000,4.000000,4.000000,4.000000,4.000000,4.000000,4.000000,4.000000,4.000000,100.000000,,,,,,,,,,,,,,,,,,,,,,,,,,,,
1703502214.018340,1703502214.019094,15.000000,0.000000,4293.717773,4258.846191,4301.282227,4302.179688,4258.205078,4247.051270,4261.410156,4255.128418,4246.666504,4228.846191,4490.384766,4463.717773,4382.436035,4454.487305,6379.000000,3.000000,66.000000,,,,0.000000,4.000000,4.000000,4.000000,4.000000,4.000000,4.000000,4.000000,4.000000,4.000000,4.000000,4.000000,4.000000,4.000000,4.000000,100.000000,,,,,,,,,,,,,,,,,,,,,,,,,,,,
1703502214.026149,1703502214.026802,16.000000,0.000000,4290.000000,4260.512695,4299.743652,4298.846191,4255.000000,4247.948730,4262.436035,4247.563965,4236.666504,4219.102539,4479.230957,4458.717773,4368.205078,4445.256348,0.000000,3.000000,66.000000,,,,0.000000,4.000000,4.000000,4.000000,4.000000,4.000000,4.000000,4.000000,4.000000,4.000000,4.000000,4.000000,4.000000,4.000000,4.000000,100.000000,,,,,,,,,,,,,,,,,4.000000,0.000000,0.708234,-0.245972,-0.652466,-0.110413,0.970822,-0.192406,0.023929,-11.696232,-42.581757,61.265453
1703502214.033957,1703502214.034710,17.000000,0.000000,4295.641113,4267.179688,4300.641113,4301.538574,4255.897461,4247.563965,4263.846191,4243.589844,4231.410156,4216.025879,4485.256348,4459.743652,4381.153809,4452.820313,0.000000,3.000000,66.000000,,,,0.000000,4.000000,4.000000,4.000000,4.000000,4.000000,4.000000,4.000000,4.000000,4.000000,4.000000,4.000000,4.000000,4.000000,4.000000,100.000000,,,,,,,,,,,,,,,,,,,,,,,,,,,,
1703502214.041765,1703502214.042518,18.000000,0.000000,4298.974121,4262.436035,4303.974121,4298.205078,4253.974121,4246.025879,4262.436035,4246.025879,4231.538574,4217.692383,4495.641113,4467.051270,4395.384766,4462.563965,0.000000,3.000000,66.000000,,,,0.000000,4.000000,4.000000,4.000000,4.000000,4.000000,4.000000,4.000000,4.000000,4.000000,4.000000,4.000000,4.000000,4.000000,4.000000,100.000000,,,,,,,,,,,,,,,,,,,,,,,,,,,,
