title:aya اطفاء, start timestamp:1702803413.049092, stop timestamp:1702803425.292160, headset type:EPOCX, headset serial:E50206EF, headset firmware:720, channels:67, sampling rate:eeg_128;mot_32, samples:1569      , version:2.2, 
Timestamp,OriginalTimestamp,EEG.Counter,EEG.Interpolated,EEG.AF3,EEG.F7,EEG.F3,EEG.FC5,EEG.T7,EEG.P7,EEG.O1,EEG.O2,EEG.P8,EEG.T8,EEG.FC6,EEG.F4,EEG.F8,EEG.AF4,EEG.RawCq,EEG.Battery,EEG.BatteryPercent,MarkerIndex,MarkerType,MarkerValueInt,EEG.MarkerHardware,CQ.AF3,CQ.F7,CQ.F3,CQ.FC5,CQ.T7,CQ.P7,CQ.O1,CQ.O2,CQ.P8,CQ.T8,CQ.FC6,CQ.F4,CQ.F8,CQ.AF4,CQ.Overall,EQ.SampleRateQuality,EQ.OVERALL,EQ.AF3,EQ.F7,EQ.F3,EQ.FC5,EQ.T7,EQ.P7,EQ.O1,EQ.O2,EQ.P8,EQ.T8,EQ.FC6,EQ.F4,EQ.F8,EQ.AF4,MOT.CounterMems,MOT.InterpolatedMems,MOT.Q0,MOT.Q1,MOT.Q2,MOT.Q3,MOT.AccX,MOT.AccY,MOT.AccZ,MOT.MagX,MOT.MagY,MOT.MagZ
1702803413.049092,1702803413.401018,47.000000,0.000000,4167.179688,4144.230957,4266.922852,4220.641113,4137.692383,4134.230957,4241.153809,4129.487305,4123.205078,4137.948730,4641.282227,4449.358887,4405.512695,4526.153809,0.000000,3.000000,74.000000,,,,0.000000,4.000000,4.000000,4.000000,4.000000,4.000000,4.000000,2.000000,4.000000,4.000000,4.000000,4.000000,4.000000,4.000000,4.000000,83.333336,,,,,,,,,,,,,,,,,,,,,,,,,,,,
1702803413.056900,1702803413.408926,48.000000,0.000000,4167.179688,4143.974121,4271.666504,4227.948730,4136.025879,4118.077148,4238.717773,4135.256348,4118.846191,4138.717773,4637.820313,4450.256348,4394.743652,4525.897461,0.000000,3.000000,74.000000,,,,0.000000,4.000000,4.000000,4.000000,4.000000,4.000000,4.000000,2.000000,4.000000,4.000000,4.000000,4.000000,4.000000,4.000000,4.000000,83.333336,,,,,,,,,,,,,,,,,12.000000,0.000000,0.719739,0.174072,-0.649475,0.172791,0.984495,0.015627,0.108412,-4.989607,14.953543,98.613708
1702803413.064708,1702803413.416734,49.000000,0.000000,4172.436035,4149.615234,4282.948730,4237.692383,4129.230957,4111.025879,4235.897461,4149.615234,4132.436035,4143.974121,4644.615234,4462.692383,4398.077148,4536.666504,0.000000,3.000000,74.000000,,,,0.000000,4.000000,4.000000,4.000000,4.000000,4.000000,4.000000,2.000000,4.000000,4.000000,4.000000,4.000000,4.000000,4.000000,4.000000,83.333336,,,,,,,,,,,,,,,,,,,,,,,,,,,,
1702803413.072516,1702803413.424642,50.000000,0.000000,4169.615234,4144.358887,4280.384766,4232.307617,4128.717773,4111.922852,4236.538574,4165.512695,4153.333496,4148.077148,4653.333496,4468.846191,4409.102539,4535.128418,0.000000,3.000000,74.000000,,,,0.000000,4.000000,4.000000,4.000000,4.000000,4.000000,4.000000,2.000000,4.000000,4.000000,4.000000,4.000000,4.000000,4.000000,4.000000,83.333336,,,,,,,,,,,,,,,,,,,,,,,,,,,,
1702803413.080324,1702803413.432450,51.000000,0.000000,4169.743652,4141.153809,4276.282227,4231.025879,4134.487305,4120.128418,4243.077148,4171.153809,4162.051270,4156.538574,4662.820313,4467.948730,4418.205078,4536.282227,0.000000,3.000000,74.000000,,,,0.000000,4.000000,4.000000,4.000000,4.000000,4.000000,4.000000,2.000000,4.000000,4.000000,4.000000,4.000000,4.000000,4.000000,4.000000,83.333336,,,,,,,,,,,,,,,,,,,,,,,,,,,,
1702803413.088133,1702803413.440358,52.000000,0.000000,4167.051270,4142.692383,4270.769043,4230.384766,4133.077148,4124.615234,4247.820313,4159.230957,4148.333496,4158.077148,4661.666504,4454.358887,4410.512695,4534.102539,0.000000,3.000000,74.000000,,,,0.000000,4.000000,4.000000,4.000000,4.000000,4.000000,4.000000,2.000000,4.000000,4.000000,4.000000,4.000000,4.000000,4.000000,4.000000,83.333336,,,,,,,,,,,,,,,,,13.000000,0.000000,0.719780,0.174011,-0.649414,0.172913,0.985472,0.020510,0.094250,-5.023980,15.024856,98.535667
1702803413.095940,1702803413.448167,53.000000,0.000000,4159.743652,4140.128418,4263.846191,4223.205078,4134.743652,4131.794922,4246.410156,4153.333496,4135.897461,4153.589844,4647.563965,4444.230957,4399.230957,4523.846191,0.000000,3.000000,74.000000,,,,0.000000,4.000000,4.000000,4.000000,4.000000,4.000000,4.000000,2.000000,4.000000,4.000000,4.000000,4.000000,4.000000,4.000000,4.000000,83.333336,,,,,,,,,,,,,,,,,,,,,,,,,,,,
1702803413.103748,1702803413.455875,54.000000,0.000000,4157.563965,4135.256348,4262.948730,4220.641113,4138.333496,4144.615234,4246.538574,4158.333496,4138.077148,4145.897461,4643.077148,4448.333496,4398.077148,4520.769043,0.000000,3.000000,74.000000,,,,0.000000,4.000000,4.000000,4.000000,4.000000,4.000000,4.000000,2.000000,4.000000,4.000000,4.000000,4.000000,4.000000,4.000000,4.000000,83.333336,,,,,,,,,,,,,,,,,,,,,,,,,,,,
1702803413.111557,1702803413.463683,55.000000,0.000000,4163.974121,4138.461426,4265.769043,4224.615234,4143.589844,4144.487305,4246.025879,4148.846191,4129.743652,4136.794922,4645.128418,4447.179688,4395.641113,4524.615234,0.000000,3.000000,74.000000,,,,0.000000,4.000000,4.000000,4.000000,4.000000,4.000000,4.000000,2.000000,4.000000,4.000000,4.000000,4.000000,4.000000,4.000000,4.000000,83.333336,,,,,,,,,,,,,,,,,,,,,,,,,,,,
1702803413.119365,1702803413.471391,56.000000,0.000000,4176.794922,4159.102539,4279.743652,4237.948730,4151.794922,4137.436035,4241.794922,4136.025879,4116.922852,4142.948730,4645.641113,4447.436035,4399.230957,4532.051270,0.000000,3.000000,74.000000,,,,0.000000,4.000000,4.000000,4.000000,4.000000,4.000000,4.000000,2.000000,4.000000,4.000000,4.000000,4.000000,4.000000,4.000000,4.000000,83.333336,,,,,,,,,,,,,,,,,14.000000,0.000000,0.719835,0.174011,-0.649353,0.172913,0.989379,0.024417,0.091320,-4.838248,14.872370,98.465431
1702803413.127173,1702803413.479200,57.000000,0.000000,4174.743652,4159.615234,4283.077148,4236.922852,4144.487305,4125.641113,4239.487305,4130.000000,4104.358887,4139.871582,4639.615234,4445.000000,4396.410156,4526.025879,0.000000,3.000000,74.000000,,,,0.000000,4.000000,4.000000,4.000000,4.000000,4.000000,4.000000,2.000000,4.000000,4.000000,4.000000,4.000000,4.000000,4.000000,4.000000,83.333336,,,,,,,,,,,,,,,,,,,,,,,,,,,,
1702803413.134981,1702803413.486908,58.000000,0.000000,4169.102539,4145.512695,4275.897461,4230.641113,4135.000000,4116.922852,4239.102539,4125.769043,4099.102539,4128.846191,4638.846191,4443.077148,4390.384766,4521.025879,0.000000,3.000000,74.000000,,,,0.000000,4.000000,4.000000,4.000000,4.000000,4.000000,4.000000,2.000000,4.000000,4.000000,4.000000,4.000000,4.000000,4.000000,4.000000,83.333336,,,,,,,,,,,,,,,,,,,,,,,,,,,,
1702803413.142789,1702803413.494716,59.000000,0.000000,4171.922852,4149.743652,4278.589844,4238.846191,4136.282227,4118.077148,4240.641113,4124.358887,4113.333496,4137.692383,4647.051270,4451.410156,4393.077148,4527.563965,0.000000,3.000000,74.000000,,,,0.000000,4.000000,4.000000,4.000000,4.000000,4.000000,4.000000,2.000000,4.000000,4.000000,4.000000,4.000000,4.000000,4.000000,4.000000,83.333336,,,,,,,,,,,,,,,,,,,,,,,,,,,,
1702803413.150597,1702803413.502425,60.000000,0.000000,4165.769043,4145.512695,4274.230957,4230.641113,4132.820313,4115.256348,4241.025879,4130.641113,4124.615234,4137.692383,4636.153809,4448.974121,4383.717773,4520.897461,0.000000,3.000000,74.000000,,,,0.000000,4.000000,4.000000,4.000000,4.000000,4.000000,4.000000,2.000000,4.000000,4.000000,4.000000,4.000000,4.000000,4.000000,4.000000,83.333336,,,,,,,,,,,,,,,,,15.000000,0.000000,0.719805,0.174011,-0.649353,0.173035,0.985472,0.018557,0.095715,-4.871090,14.968466,98.468895
1702803413.158405,1702803413.510233,61.000000,0.000000,4164.230957,4139.615234,4270.512695,4220.512695,4128.589844,4118.461426,4240.256348,4155.641113,4140.128418,4130.897461,4633.717773,4449.871582,4382.563965,4516.025879,0.000000,3.000000,74.000000,,,,0.000000,4.000000,4.000000,4.000000,4.000000,4.000000,4.000000,2.000000,4.000000,4.000000,4.000000,4.000000,4.000000,4.000000,4.000000,83.333336,,,,,,,,,,,,,,,,,,,,,,,,,,,,
1702803413.166213,1702803413.517941,62.000000,0.000000,4171.666504,4149.358887,4277.179688,4227.692383,4130.897461,4119.743652,4242.820313,4172.692383,4154.871582,4138.461426,4652.179688,4461.666504,4396.025879,4525.000000,0.000000,3.000000,74.000000,,,,0.000000,4.000000,4.000000,4.000000,4.000000,4.000000,4.000000,2.000000,4.000000,4.000000,4.000000,4.000000,4.000000,4.000000,4.000000,83.333336,,,,,,,,,,,,,,,,,,,,,,,,,,,,
1702803413.174021,1702803413.525749,63.000000,0.000000,4176.025879,4159.230957,4282.179688,4236.410156,4138.205078,4116.025879,4244.358887,4169.358887,4151.538574,4143.333496,4663.077148,4471.282227,4400.641113,4535.641113,0.000000,3.000000,74.000000,,,,0.000000,4.000000,4.000000,4.000000,4.000000,4.000000,4.000000,2.000000,4.000000,4.000000,4.000000,4.000000,4.000000,4.000000,4.000000,83.333336,,,,,,,,,,,,,,,,,,,,,,,,,,,,
1702803413.181829,1702803413.533457,64.000000,0.000000,4181.666504,4163.205078,4285.897461,4241.666504,4140.769043,4126.922852,4245.897461,4171.282227,4144.743652,4145.512695,4668.077148,4480.769043,4407.436035,4544.487305,5198.000000,3.000000,74.000000,,,,0.000000,4.000000,4.000000,4.000000,4.000000,4.000000,4.000000,2.000000,4.000000,4.000000,4.000000,4.000000,4.000000,4.000000,4.000000,83.333336,,,,,,,,,,,,,,,,,16.000000,0.000000,0.719765,0.174133,-0.649414,0.172852,0.986449,0.021975,0.084971,-4.750648,15.038286,98.372002
1702803413.189638,1702803413.541265,65.000000,0.000000,4177.436035,4155.769043,4285.000000,4236.025879,4138.205078,4134.102539,4248.717773,4168.717773,4137.820313,4145.641113,4663.333496,4474.230957,4407.820313,4537.179688,5400.000000,3.000000,74.000000,,,,0.000000,4.000000,4.000000,4.000000,4.000000,4.000000,4.000000,2.000000,4.000000,4.000000,4.000000,4.000000,4.000000,4.000000,4.000000,83.333336,,,,,,,,,,,,,,,,,,,,,,,,,,,,
1702803413.197446,1702803413.548973,66.000000,0.000000,4170.641113,4151.666504,4279.743652,4231.922852,4137.692383,4128.846191,4247.307617,4153.333496,4132.692383,4140.641113,4648.333496,4456.666504,4395.512695,4523.846191,4761.000000,3.000000,74.000000,,,,0.000000,4.000000,4.000000,4.000000,4.000000,4.000000,4.000000,2.000000,4.000000,4.000000,4.000000,4.000000,4.000000,4.000000,4.000000,83.333336,,,,,,,,,,,,,,,,,,,,,,,,,,,,
1702803413.205253,1702803413.556781,67.000000,0.000000,4174.230957,4155.641113,4278.846191,4235.897461,4137.820313,4127.051270,4243.974121,4145.000000,4130.256348,4140.512695,4636.538574,4455.128418,4392.307617,4524.102539,5217.000000,3.000000,74.000000,,,,0.000000,4.000000,4.000000,4.000000,4.000000,4.000000,4.000000,2.000000,4.000000,4.000000,4.000000,4.000000,4.000000,4.000000,4.000000,83.333336,,,,,,,,,,,,,,,,,,,,,,,,,,,,
1702803413.213062,1702803413.564489,68.000000,0.000000,4183.589844,4161.794922,4287.179688,4237.692383,4145.384766,4131.538574,4243.461426,4146.794922,4130.384766,4148.717773,4649.871582,4467.436035,4409.102539,4535.384766,5088.000000,3.000000,74.000000,,,,0.000000,4.000000,4.000000,4.000000,4.000000,4.000000,4.000000,2.000000,4.000000,4.000000,4.000000,4.000000,4.000000,4.000000,4.000000,83.333336,,,,,,,,,,,,,,,,,17.000000,0.000000,0.719650,0.174438,-0.649475,0.172791,1.005005,0.021975,0.096691,-4.925583,15.117791,98.418137
1702803413.220870,1702803413.572297,69.000000,0.000000,4189.743652,4171.282227,4299.487305,4245.128418,4150.384766,4138.077148,4244.102539,4147.179688,4137.692383,4158.205078,4672.820313,4479.615234,4424.871582,4546.666504,5088.000000,3.000000,74.000000,,,,0.000000,4.000000,4.000000,4.000000,4.000000,4.000000,4.000000,2.000000,4.000000,4.000000,4.000000,4.000000,4.000000,4.000000,4.000000,83.333336,,,,,,,,,,,,,,,,,,,,,,,,,,,,
1702803413.228678,1702803413.580005,70.000000,0.000000,4182.179688,4167.948730,4296.922852,4244.230957,4142.051270,4132.948730,4241.025879,4139.615234,4140.897461,4155.384766,4662.563965,4475.256348,4415.769043,4542.948730,1372.000000,3.000000,74.000000,,,,0.000000,4.000000,4.000000,4.000000,4.000000,4.000000,4.000000,2.000000,4.000000,4.000000,4.000000,4.000000,4.000000,4.000000,4.000000,83.333336,,,,,,,,,,,,,,,,,,,,,,,,,,,,
1702803413.236486,1702803413.587913,71.000000,0.000000,4178.461426,4163.974121,4291.922852,4240.512695,4137.436035,4124.358887,4238.205078,4142.051270,4142.692383,4151.538574,4652.692383,4472.307617,4412.179688,4541.922852,4841.000000,3.000000,74.000000,,,,0.000000,4.000000,4.000000,4.000000,4.000000,4.000000,4.000000,2.000000,4.000000,4.000000,4.000000,4.000000,4.000000,4.000000,4.000000,83.333336,,,,,,,,,,,,,,,,,,,,,,,,,,,,
1702803413.244294,1702803413.595721,72.000000,0.000000,4185.256348,4175.128418,4301.153809,4249.102539,4140.000000,4125.512695,4240.512695,4159.230957,4152.436035,4154.743652,4660.128418,4482.051270,4418.974121,4550.512695,5121.000000,3.000000,74.000000,,,,0.000000,4.000000,4.000000,4.000000,4.000000,4.000000,4.000000,2.000000,4.000000,4.000000,4.000000,4.000000,4.000000,4.000000,4.000000,83.333336,,,,,,,,,,,,,,,,,18.000000,0.000000,0.719481,0.174561,-0.649597,0.172913,0.984007,0.013674,0.082041,-4.999691,15.356012,98.509659
1702803413.252102,1702803413.603629,73.000000,0.000000,4182.436035,4174.102539,4302.307617,4248.589844,4140.384766,4126.794922,4242.820313,4167.436035,4156.282227,4150.384766,4657.051270,4482.051270,4410.384766,4544.615234,5223.000000,3.000000,74.000000,,,,0.000000,4.000000,4.000000,4.000000,4.000000,4.000000,4.000000,2.000000,4.000000,4.000000,4.000000,4.000000,4.000000,4.000000,4.000000,83.333336,,,,,,,,,,,,,,,,,,,,,,,,,,,,
1702803413.259910,1702803413.611438,74.000000,0.000000,4178.974121,4166.538574,4298.205078,4243.846191,4140.512695,4131.025879,4245.128418,4168.333496,4154.487305,4149.230957,4662.307617,4483.077148,4409.358887,4542.563965,5791.000000,3.000000,74.000000,,,,0.000000,4.000000,4.000000,4.000000,4.000000,4.000000,4.000000,2.000000,4.000000,4.000000,4.000000,4.000000,4.000000,4.000000,4.000000,83.333336,,,,,,,,,,,,,,,,,,,,,,,,,,,,
1702803413.267718,1702803413.619346,75.000000,0.000000,4180.384766,4168.974121,4299.230957,4245.128418,4140.512695,4138.333496,4249.102539,4166.410156,4149.102539,4148.077148,4666.538574,4484.615234,4413.077148,4547.436035,5851.000000,3.000000,74.000000,,,,0.000000,4.000000,4.000000,4.000000,4.000000,4.000000,4.000000,2.000000,4.000000,4.000000,4.000000,4.000000,4.000000,4.000000,4.000000,83.333336,,,,,,,,,,,,,,,,,,,,,,,,,,,,
1702803413.275526,1702803413.627154,76.000000,0.000000,4177.307617,4167.692383,4297.307617,4246.410156,4140.128418,4141.666504,4249.743652,4158.077148,4135.256348,4137.820313,4649.487305,4474.743652,4400.641113,4538.077148,6755.000000,3.000000,74.000000,,,,0.000000,4.000000,4.000000,4.000000,4.000000,4.000000,4.000000,2.000000,4.000000,4.000000,4.000000,4.000000,4.000000,4.000000,4.000000,83.333336,,,,,,,,,,,,,,,,,19.000000,0.000000,0.719452,0.174500,-0.649597,0.173096,0.991332,0.019534,0.100598,-5.066389,15.487078,98.508690
1702803413.283334,1702803413.635062,77.000000,0.000000,4172.948730,4156.794922,4295.000000,4242.307617,4137.307617,4137.436035,4245.897461,4150.512695,4118.589844,4128.461426,4639.358887,4467.948730,4393.077148,4530.384766,6895.000000,3.000000,74.000000,,,,0.000000,4.000000,4.000000,4.000000,4.000000,4.000000,4.000000,2.000000,4.000000,4.000000,4.000000,4.000000,4.000000,4.000000,4.000000,83.333336,,,,,,,,,,,,,,,,,,,,,,,,,,,,
1702803413.291142,1702803413.642870,78.000000,0.000000,4174.230957,4152.307617,4297.692383,4239.743652,4136.794922,4126.666504,4242.307617,4144.615234,4107.307617,4125.769043,4638.205078,4473.205078,4400.641113,4533.461426,5791.000000,3.000000,74.000000,,,,0.000000,4.000000,4.000000,4.000000,4.000000,4.000000,4.000000,2.000000,4.000000,4.000000,4.000000,4.000000,4.000000,4.000000,4.000000,83.333336,,,,,,,,,,,,,,,,,,,,,,,,,,,,
1702803413.298951,1702803413.650778,79.000000,0.000000,4182.179688,4167.563965,4305.512695,4251.538574,4143.846191,4126.794922,4241.922852,4142.820313,4118.333496,4139.487305,4647.563965,4485.769043,4414.615234,4545.769043,5851.000000,3.000000,74.000000,,,,0.000000,4.000000,4.000000,4.000000,4.000000,4.000000,4.000000,2.000000,4.000000,4.000000,4.000000,4.000000,4.000000,4.000000,4.000000,83.333336,,,,,,,,,,,,,,,,,,,,,,,,,,,,
1702803413.306759,1702803413.658587,80.000000,0.000000,4180.000000,4171.025879,4300.769043,4254.487305,4144.102539,4128.077148,4238.589844,4140.384766,4133.589844,4148.974121,4658.974121,4481.794922,4411.666504,4550.256348,6755.000000,3.000000,74.000000,,,,0.000000,4.000000,4.000000,4.000000,4.000000,4.000000,4.000000,2.000000,4.000000,4.000000,4.000000,4.000000,4.000000,4.000000,4.000000,83.333336,,,,,,,,,,,,,,,,,20.000000,0.000000,0.719522,0.174438,-0.649536,0.173096,1.002075,0.023929,0.097668,-4.959750,15.421703,98.574486
1702803413.314567,1702803413.666295,81.000000,0.000000,4168.717773,4156.538574,4291.922852,4245.641113,4136.666504,4121.153809,4235.641113,4138.974121,4130.128418,4139.615234,4653.846191,4468.461426,4395.769043,4539.102539,6895.000000,3.000000,74.000000,,,,0.000000,4.000000,4.000000,4.000000,4.000000,4.000000,4.000000,2.000000,4.000000,4.000000,4.000000,4.000000,4.000000,4.000000,4.000000,83.333336,,,,,,,,,,,,,,,,,,,,,,,,,,,,
1702803413.322375,1702803413.674103,82.000000,0.000000,4166.538574,4154.487305,4293.461426,4245.512695,4133.846191,4122.051270,4239.615234,4146.410156,4128.717773,4138.589844,4650.769043,4474.871582,4399.230957,4536.410156,5791.000000,3.000000,74.000000,,,,0.000000,4.000000,4.000000,4.000000,4.000000,4.000000,4.000000,2.000000,4.000000,4.000000,4.000000,4.000000,4.000000,4.000000,4.000000,83.333336,,,,,,,,,,,,,,,,,,,,,,,,,,,,
1702803413.330183,1702803413.681811,83.000000,0.000000,4165.000000,4156.410156,4289.743652,4239.102539,4137.307617,4125.512695,4243.461426,4153.461426,4132.307617,4142.948730,4650.512695,4479.102539,4407.563965,4540.256348,5851.000000,3.000000,74.000000,,,,0.000000,4.000000,4.000000,4.000000,4.000000,4.000000,4.000000,2.000000,4.000000,4.000000,4.000000,4.000000,4.000000,4.000000,4.000000,83.333336,,,,,,,,,,,,,,,,,,,,,,,,,,,,
1702803413.337991,1702803413.689620,84.000000,0.000000,4162.948730,4154.487305,4288.589844,4233.846191,4143.846191,4127.820313,4242.820313,4158.333496,4132.948730,4142.051270,4647.051270,4473.077148,4404.358887,4538.589844,6755.000000,3.000000,74.000000,,,,0.000000,4.000000,4.000000,4.000000,4.000000,4.000000,4.000000,2.000000,4.000000,4.000000,4.000000,4.000000,4.000000,4.000000,4.000000,83.333336,,,,,,,,,,,,,,,,,21.000000,0.000000,0.719522,0.174377,-0.649536,0.173157,0.991332,0.031742,0.094250,-5.097108,15.279532,98.550369
1702803413.345799,1702803413.697328,85.000000,0.000000,4161.153809,4154.743652,4292.692383,4240.641113,4143.717773,4129.871582,4241.025879,4154.743652,4130.000000,4135.897461,4644.743652,4468.974121,4396.666504,4531.538574,6895.000000,3.000000,74.000000,,,,0.000000,4.000000,4.000000,4.000000,4.000000,4.000000,4.000000,2.000000,4.000000,4.000000,4.000000,4.000000,4.000000,4.000000,4.000000,83.333336,,,,,,,,,,,,,,,,,,,,,,,,,,,,
1702803413.353607,1702803413.705136,86.000000,0.000000,4153.461426,4150.769043,4282.179688,4234.102539,4137.179688,4125.384766,4240.128418,4140.128418,4120.384766,4122.692383,4630.641113,4456.025879,4382.948730,4519.230957,5791.000000,3.000000,74.000000,,,,0.000000,4.000000,4.000000,4.000000,4.000000,4.000000,4.000000,2.000000,4.000000,4.000000,4.000000,4.000000,4.000000,4.000000,4.000000,83.333336,,,,,,,,,,,,,,,,,,,,,,,,,,,,
1702803413.361415,1702803413.712844,87.000000,0.000000,4144.615234,4141.410156,4267.692383,4218.846191,4133.846191,4124.615234,4241.025879,4133.589844,4112.436035,4110.128418,4609.487305,4439.358887,4367.692383,4502.692383,5851.000000,3.000000,74.000000,,,,0.000000,4.000000,4.000000,4.000000,4.000000,4.000000,4.000000,2.000000,4.000000,4.000000,4.000000,4.000000,4.000000,4.000000,4.000000,83.333336,,,,,,,,,,,,,,,,,,,,,,,,,,,,
1702803413.369223,1702803413.720752,88.000000,0.000000,4142.948730,4132.179688,4271.025879,4218.717773,4136.922852,4127.179688,4241.153809,4134.743652,4110.256348,4106.025879,4610.769043,4436.282227,4365.000000,4495.256348,6755.000000,3.000000,74.000000,,,,0.000000,4.000000,4.000000,4.000000,4.000000,4.000000,4.000000,2.000000,4.000000,4.000000,4.000000,4.000000,4.000000,4.000000,4.000000,83.333336,,,,,,,,,,,,,,,,,22.000000,0.000000,0.719496,0.174377,-0.649597,0.173035,0.995727,0.024417,0.094738,-5.154064,15.334912,98.412003
1702803413.377031,1702803413.728560,89.000000,0.000000,4154.615234,4136.538574,4286.025879,4227.307617,4139.102539,4128.846191,4238.974121,4135.256348,4112.692383,4123.461426,4628.717773,4450.897461,4382.948730,4512.692383,6895.000000,3.000000,74.000000,,,,0.000000,4.000000,4.000000,4.000000,4.000000,4.000000,4.000000,2.000000,4.000000,4.000000,4.000000,4.000000,4.000000,4.000000,4.000000,83.333336,,,,,,,,,,,,,,,,,,,,,,,,,,,,
1702803413.384839,1702803413.736469,90.000000,0.000000,4160.128418,4145.000000,4284.871582,4226.282227,4132.692383,4121.538574,4235.641113,4130.769043,4110.384766,4139.615234,4628.333496,4456.282227,4390.897461,4522.820313,5791.000000,3.000000,74.000000,,,,0.000000,4.000000,4.000000,4.000000,4.000000,4.000000,4.000000,2.000000,4.000000,4.000000,4.000000,4.000000,4.000000,4.000000,4.000000,83.333336,1.000000,83.333336,4.000000,4.000000,4.000000,4.000000,4.000000,4.000000,2.000000,4.000000,4.000000,4.000000,4.000000,4.000000,4.000000,4.000000,,,,,,,,,,,,
1702803413.392647,1702803413.744277,91.000000,0.000000,4154.230957,4148.589844,4272.692383,4222.436035,4132.051270,4113.717773,4234.743652,4125.000000,4111.025879,4131.922852,4623.461426,4447.436035,4381.794922,4513.846191,5851.000000,3.000000,74.000000,,,,0.000000,4.000000,4.000000,4.000000,4.000000,4.000000,4.000000,2.000000,4.000000,4.000000,4.000000,4.000000,4.000000,4.000000,4.000000,83.333336,,,,,,,,,,,,,,,,,,,,,,,,,,,,
1702803413.400456,1702803413.752085,92.000000,0.000000,4160.256348,4156.282227,4282.436035,4231.538574,4138.846191,4121.794922,4236.410156,4133.717773,4131.025879,4128.333496,4636.538574,4455.512695,4388.974121,4518.077148,6755.000000,3.000000,74.000000,,,,0.000000,4.000000,4.000000,4.000000,4.000000,4.000000,4.000000,2.000000,4.000000,4.000000,4.000000,4.000000,4.000000,4.000000,4.000000,83.333336,,,,,,,,,,,,,,,,,23.000000,0.000000,0.719566,0.174438,-0.649536,0.172913,0.987425,0.027347,0.090831,-5.071991,15.301421,98.420799
1702803413.408264,1702803413.759793,93.000000,0.000000,4162.179688,4151.922852,4292.051270,4232.948730,4133.846191,4124.487305,4233.846191,4145.897461,4138.461426,4128.846191,4633.205078,4460.128418,4392.820313,4521.666504,6895.000000,3.000000,74.000000,,,,0.000000,4.000000,4.000000,4.000000,4.000000,4.000000,4.000000,2.000000,4.000000,4.000000,4.000000,4.000000,4.000000,4.000000,4.000000,83.333336,,,,,,,,,,,,,,,,,,,,,,,,,,,,
1702803413.416072,1702803413.767701,94.000000,0.000000,4152.692383,4142.563965,4280.384766,4227.563965,4129.487305,4120.512695,4233.589844,4146.410156,4127.307617,4120.769043,4616.922852,4450.128418,4378.205078,4512.820313,5791.000000,3.000000,74.000000,,,,0.000000,4.000000,4.000000,4.000000,4.000000,4.000000,4.000000,2.000000,4.000000,4.000000,4.000000,4.000000,4.000000,4.000000,4.000000,83.333336,,,,,,,,,,,,,,,,,,,,,,,,,,,,
1702803413.423880,1702803413.775509,95.000000,0.000000,4147.436035,4144.615234,4269.743652,4225.512695,4133.846191,4126.794922,4241.282227,4141.153809,4123.589844,4112.948730,4616.666504,4445.000000,4372.179688,4505.256348,5851.000000,3.000000,74.000000,,,,0.000000,4.000000,4.000000,4.000000,4.000000,4.000000,4.000000,2.000000,4.000000,4.000000,4.000000,4.000000,4.000000,4.000000,4.000000,83.333336,,,,,,,,,,,,,,,,,,,,,,,,,,,,
1702803413.431688,1702803413.783418,96.000000,0.000000,4145.897461,4141.025879,4269.230957,4219.102539,4133.717773,4133.461426,4242.692383,4137.179688,4118.846191,4109.615234,4609.230957,4437.948730,4370.512695,4498.205078,6755.000000,3.000000,74.000000,,,,0.000000,4.000000,4.000000,4.000000,4.000000,4.000000,4.000000,2.000000,4.000000,4.000000,4.000000,4.000000,4.000000,4.000000,4.000000,83.333336,,,,,,,,,,,,,,,,,24.000000,0.000000,0.719481,0.174622,-0.649597,0.172852,0.984495,0.033696,0.089855,-5.014792,15.454613,98.328720
1702803413.439496,1702803413.791226,97.000000,0.000000,4151.282227,4139.615234,4272.051270,4221.282227,4134.230957,4136.922852,4239.102539,4135.897461,4108.333496,4113.974121,4598.205078,4429.358887,4366.153809,4497.563965,6895.000000,3.000000,74.000000,,,,0.000000,4.000000,4.000000,4.000000,4.000000,4.000000,4.000000,2.000000,4.000000,4.000000,4.000000,4.000000,4.000000,4.000000,4.000000,83.333336,,,,,,,,,,,,,,,,,,,,,,,,,,,,
1702803413.447304,1702803413.799134,98.000000,0.000000,4152.820313,4145.512695,4268.974121,4229.230957,4142.051270,4140.384766,4243.077148,4136.666504,4109.871582,4121.282227,4606.282227,4428.205078,4370.128418,4499.615234,5791.000000,3.000000,74.000000,,,,0.000000,4.000000,4.000000,4.000000,4.000000,4.000000,4.000000,2.000000,4.000000,4.000000,4.000000,4.000000,4.000000,4.000000,4.000000,83.333336,,,,,,,,,,,,,,,,,,,,,,,,,,,,
1702803413.455112,1702803413.806942,99.000000,0.000000,4147.820313,4143.717773,4260.897461,4225.000000,4145.769043,4142.436035,4246.922852,4139.102539,4123.333496,4126.282227,4620.641113,4430.641113,4378.846191,4501.922852,5851.000000,3.000000,74.000000,,,,0.000000,4.000000,4.000000,4.000000,4.000000,4.000000,4.000000,2.000000,4.000000,4.000000,4.000000,4.000000,4.000000,4.000000,4.000000,83.333336,,,,,,,,,,,,,,,,,,,,,,,,,,,,
1702803413.462920,1702803413.814850,100.000000,0.000000,4151.282227,4140.769043,4260.256348,4221.025879,4142.307617,4140.512695,4244.615234,4139.102539,4127.692383,4132.307617,4625.512695,4434.743652,4384.615234,4511.153809,6755.000000,3.000000,74.000000,,,,0.000000,4.000000,4.000000,4.000000,4.000000,4.000000,4.000000,2.000000,4.000000,4.000000,4.000000,4.000000,4.000000,4.000000,4.000000,83.333336,,,,,,,,,,,,,,,,,25.000000,0.000000,0.719422,0.174805,-0.649597,0.172913,0.998169,0.024905,0.093761,-5.113313,15.292484,98.295853
1702803413.470728,1702803413.822658,101.000000,0.000000,4152.179688,4148.333496,4271.922852,4228.974121,4140.897461,4135.769043,4243.717773,4132.563965,4119.358887,4135.000000,4619.615234,4441.282227,4384.615234,4506.666504,6895.000000,3.000000,74.000000,,,,0.000000,4.000000,4.000000,4.000000,4.000000,4.000000,4.000000,2.000000,4.000000,4.000000,4.000000,4.000000,4.000000,4.000000,4.000000,83.333336,,,,,,,,,,,,,,,,,,,,,,,,,,,,
1702803413.478536,1702803413.830566,102.000000,0.000000,4148.846191,4154.487305,4279.615234,4235.256348,4141.794922,4129.230957,4243.461426,4127.692383,4114.487305,4129.615234,4615.000000,4445.641113,4380.512695,4494.102539,5791.000000,3.000000,74.000000,,,,0.000000,4.000000,4.000000,4.000000,4.000000,4.000000,4.000000,2.000000,4.000000,4.000000,4.000000,4.000000,4.000000,4.000000,4.000000,83.333336,,,,,,,,,,,,,,,,,,,,,,,,,,,,
1702803413.486344,1702803413.838375,103.000000,0.000000,4154.871582,4148.974121,4272.820313,4231.538574,4139.871582,4123.589844,4241.153809,4131.025879,4117.051270,4122.179688,4617.948730,4439.743652,4376.666504,4502.692383,5851.000000,3.000000,74.000000,,,,0.000000,4.000000,4.000000,4.000000,4.000000,4.000000,4.000000,2.000000,4.000000,4.000000,4.000000,4.000000,4.000000,4.000000,4.000000,83.333336,,,,,,,,,,,,,,,,,,,,,,,,,,,,
1702803413.494152,1702803413.846083,104.000000,0.000000,4160.512695,4142.563965,4267.820313,4228.205078,4138.333496,4128.846191,4241.410156,4139.615234,4121.410156,4117.820313,4624.102539,4436.025879,4377.563965,4513.846191,6755.000000,3.000000,74.000000,,,,0.000000,4.000000,4.000000,4.000000,4.000000,4.000000,4.000000,2.000000,4.000000,4.000000,4.000000,4.000000,4.000000,4.000000,4.000000,83.333336,,,,,,,,,,,,,,,,,26.000000,0.000000,0.719448,0.174805,-0.649536,0.173035,0.983030,0.026370,0.093761,-5.035315,15.263236,98.349594
1702803413.501961,1702803413.853891,105.000000,0.000000,4155.641113,4142.051270,4268.846191,4229.230957,4141.282227,4140.384766,4244.230957,4144.871582,4125.256348,4118.205078,4620.384766,4440.897461,4379.358887,4511.282227,6895.000000,3.000000,74.000000,,,,0.000000,4.000000,4.000000,4.000000,4.000000,4.000000,4.000000,2.000000,4.000000,4.000000,4.000000,4.000000,4.000000,4.000000,4.000000,83.333336,,,,,,,,,,,,,,,,,,,,,,,,,,,,
1702803413.509769,1702803413.861599,106.000000,0.000000,4145.384766,4142.948730,4266.410156,4228.589844,4143.717773,4141.025879,4244.871582,4143.717773,4121.666504,4118.333496,4612.563965,4439.358887,4372.820313,4507.820313,5791.000000,3.000000,74.000000,,,,0.000000,4.000000,4.000000,4.000000,4.000000,4.000000,4.000000,2.000000,4.000000,4.000000,4.000000,4.000000,4.000000,4.000000,4.000000,83.333336,,,,,,,,,,,,,,,,,,,,,,,,,,,,
1702803413.517577,1702803413.869408,107.000000,0.000000,4138.974121,4142.563965,4267.820313,4225.128418,4141.153809,4136.794922,4245.256348,4143.333496,4114.871582,4115.256348,4611.794922,4431.025879,4366.025879,4503.077148,5851.000000,3.000000,74.000000,,,,0.000000,4.000000,4.000000,4.000000,4.000000,4.000000,4.000000,2.000000,4.000000,4.000000,4.000000,4.000000,4.000000,4.000000,4.000000,83.333336,,,,,,,,,,,,,,,,,,,,,,,,,,,,
1702803413.525385,1702803413.877116,108.000000,0.000000,4142.692383,4138.589844,4270.641113,4223.974121,4138.333496,4133.205078,4247.179688,4143.974121,4109.230957,4109.871582,4602.436035,4425.256348,4362.948730,4495.512695,6755.000000,3.000000,74.000000,,,,0.000000,4.000000,4.000000,4.000000,4.000000,4.000000,4.000000,2.000000,4.000000,4.000000,4.000000,4.000000,4.000000,4.000000,4.000000,83.333336,,,,,,,,,,,,,,,,,27.000000,0.000000,0.719353,0.174622,-0.649658,0.173157,0.997680,0.018557,0.093761,-4.848450,15.336912,98.431305
1702803413.533193,1702803413.884924,109.000000,0.000000,4145.384766,4133.589844,4259.871582,4221.538574,4137.820313,4126.025879,4247.051270,4136.538574,4097.692383,4101.282227,4590.000000,4415.000000,4350.256348,4492.436035,6895.000000,3.000000,74.000000,,,,0.000000,4.000000,4.000000,4.000000,4.000000,4.000000,4.000000,2.000000,4.000000,4.000000,4.000000,4.000000,4.000000,4.000000,4.000000,83.333336,,,,,,,,,,,,,,,,,,,,,,,,,,,,
1702803413.541001,1702803413.892632,110.000000,0.000000,4136.922852,4131.794922,4250.897461,4218.077148,4136.538574,4125.769043,4244.743652,4127.179688,4091.666748,4092.820557,4587.692383,4401.922852,4337.179688,4488.333496,5791.000000,3.000000,74.000000,,,,0.000000,4.000000,4.000000,4.000000,4.000000,4.000000,4.000000,2.000000,4.000000,4.000000,4.000000,4.000000,4.000000,4.000000,4.000000,83.333336,,,,,,,,,,,,,,,,,,,,,,,,,,,,
1702803413.548809,1702803413.900540,111.000000,0.000000,4136.025879,4134.358887,4255.897461,4218.846191,4136.538574,4127.948730,4242.179688,4127.948730,4102.563965,4093.974365,4589.615234,4403.461426,4339.615234,4481.025879,5851.000000,3.000000,74.000000,,,,0.000000,4.000000,4.000000,4.000000,4.000000,4.000000,4.000000,2.000000,4.000000,4.000000,4.000000,4.000000,4.000000,4.000000,4.000000,83.333336,,,,,,,,,,,,,,,,,,,,,,,,,,,,
1702803413.556617,1702803413.908349,112.000000,0.000000,4149.487305,4140.256348,4265.384766,4225.128418,4140.000000,4120.769043,4240.897461,4138.205078,4120.897461,4107.179688,4601.794922,4418.077148,4353.205078,4487.051270,6755.000000,3.000000,74.000000,,,,0.000000,4.000000,4.000000,4.000000,4.000000,4.000000,4.000000,2.000000,4.000000,4.000000,4.000000,4.000000,4.000000,4.000000,4.000000,83.333336,,,,,,,,,,,,,,,,,28.000000,0.000000,0.719342,0.174561,-0.649719,0.173035,0.972287,0.015627,0.101087,-4.863605,15.236555,98.454842
1702803413.564425,1702803413.916157,113.000000,0.000000,4151.153809,4143.333496,4270.384766,4228.205078,4138.974121,4113.589844,4239.487305,4144.487305,4128.077148,4115.128418,4612.692383,4426.922852,4359.487305,4497.307617,6895.000000,3.000000,74.000000,,,,0.000000,4.000000,4.000000,4.000000,4.000000,4.000000,4.000000,2.000000,4.000000,4.000000,4.000000,4.000000,4.000000,4.000000,4.000000,83.333336,,,,,,,,,,,,,,,,,,,,,,,,,,,,
1702803413.572233,1702803413.923865,114.000000,0.000000,4142.051270,4139.358887,4267.179688,4220.384766,4132.179688,4113.205078,4236.666504,4140.256348,4118.846191,4108.974121,4601.538574,4427.307617,4354.358887,4494.871582,5791.000000,3.000000,74.000000,,,,0.000000,4.000000,4.000000,4.000000,4.000000,4.000000,4.000000,2.000000,4.000000,4.000000,4.000000,4.000000,4.000000,4.000000,4.000000,83.333336,,,,,,,,,,,,,,,,,,,,,,,,,,,,
1702803413.580041,1702803413.931773,115.000000,0.000000,4144.102539,4141.282227,4266.666504,4218.461426,4131.410156,4116.666504,4233.077148,4138.589844,4112.307617,4106.410156,4597.820313,4428.846191,4354.615234,4491.922852,5851.000000,3.000000,74.000000,,,,0.000000,4.000000,4.000000,4.000000,4.000000,4.000000,4.000000,2.000000,4.000000,4.000000,4.000000,4.000000,4.000000,4.000000,4.000000,83.333336,,,,,,,,,,,,,,,,,,,,,,,,,,,,
1702803413.587850,1702803413.939581,116.000000,0.000000,4152.692383,4151.282227,4275.384766,4228.589844,4137.051270,4122.051270,4235.512695,4143.077148,4117.820313,4115.897461,4613.717773,4431.410156,4363.077148,4496.538574,6755.000000,3.000000,74.000000,,,,0.000000,4.000000,4.000000,4.000000,4.000000,4.000000,4.000000,2.000000,4.000000,4.000000,4.000000,4.000000,4.000000,4.000000,4.000000,83.333336,,,,,,,,,,,,,,,,,29.000000,0.000000,0.719356,0.174561,-0.649719,0.172974,0.994262,0.016115,0.095715,-4.877244,15.312900,98.526024
1702803413.595657,1702803413.947489,117.000000,0.000000,4156.410156,4154.102539,4279.102539,4235.128418,4138.846191,4123.205078,4240.384766,4142.051270,4123.589844,4119.743652,4612.820313,4427.692383,4365.641113,4499.102539,6895.000000,3.000000,74.000000,,,,0.000000,4.000000,4.000000,4.000000,4.000000,4.000000,4.000000,2.000000,4.000000,4.000000,4.000000,4.000000,4.000000,4.000000,4.000000,83.333336,,,,,,,,,,,,,,,,,,,,,,,,,,,,
1702803413.603466,1702803413.955298,118.000000,0.000000,4152.820313,4149.615234,4271.153809,4230.384766,4137.692383,4120.769043,4240.769043,4139.230957,4119.230957,4114.102539,4605.512695,4424.358887,4363.333496,4495.256348,5791.000000,3.000000,74.000000,,,,0.000000,4.000000,4.000000,4.000000,4.000000,4.000000,4.000000,2.000000,4.000000,4.000000,4.000000,4.000000,4.000000,4.000000,4.000000,83.333336,,,,,,,,,,,,,,,,,,,,,,,,,,,,
1702803413.611274,1702803413.963206,119.000000,0.000000,4151.025879,4150.000000,4269.615234,4225.512695,4139.615234,4122.051270,4241.025879,4138.205078,4107.307617,4108.846191,4606.794922,4427.948730,4364.487305,4493.333496,5851.000000,3.000000,74.000000,,,,0.000000,4.000000,4.000000,4.000000,4.000000,4.000000,4.000000,2.000000,4.000000,4.000000,4.000000,4.000000,4.000000,4.000000,4.000000,83.333336,,,,,,,,,,,,,,,,,,,,,,,,,,,,
1702803413.619082,1702803413.971014,120.000000,0.000000,4157.307617,4152.692383,4276.922852,4228.461426,4140.256348,4124.615234,4240.897461,4133.589844,4093.333252,4103.717773,4594.615234,4431.410156,4360.256348,4493.846191,6755.000000,3.000000,74.000000,,,,0.000000,4.000000,4.000000,4.000000,4.000000,4.000000,4.000000,2.000000,4.000000,4.000000,4.000000,4.000000,4.000000,4.000000,4.000000,83.333336,,,,,,,,,,,,,,,,,30.000000,0.000000,0.719231,0.174744,-0.649841,0.172852,0.990844,0.024905,0.090343,-4.972853,15.298276,98.623421
1702803413.626890,1702803413.978922,121.000000,0.000000,4161.538574,4154.358887,4277.563965,4230.512695,4141.794922,4126.153809,4239.487305,4131.538574,4097.179688,4107.179688,4593.974121,4429.102539,4359.102539,4499.487305,6895.000000,3.000000,74.000000,,,,0.000000,4.000000,4.000000,4.000000,4.000000,4.000000,4.000000,2.000000,4.000000,4.000000,4.000000,4.000000,4.000000,4.000000,4.000000,83.333336,,,,,,,,,,,,,,,,,,,,,,,,,,,,
1702803413.634698,1702803413.986730,122.000000,0.000000,4155.769043,4155.384766,4271.025879,4230.000000,4148.077148,4130.128418,4240.769043,4138.589844,4123.846191,4126.922852,4616.666504,4430.000000,4374.230957,4509.871582,5791.000000,3.000000,74.000000,,,,0.000000,4.000000,4.000000,4.000000,4.000000,4.000000,4.000000,2.000000,4.000000,4.000000,4.000000,4.000000,4.000000,4.000000,4.000000,83.333336,,,,,,,,,,,,,,,,,,,,,,,,,,,,
1702803413.642506,1702803413.994638,123.000000,0.000000,4147.051270,4148.846191,4263.974121,4226.025879,4148.333496,4127.563965,4240.512695,4144.102539,4141.153809,4138.077148,4620.000000,4434.487305,4380.256348,4509.358887,5851.000000,3.000000,74.000000,,,,0.000000,4.000000,4.000000,4.000000,4.000000,4.000000,4.000000,2.000000,4.000000,4.000000,4.000000,4.000000,4.000000,4.000000,4.000000,83.333336,,,,,,,,,,,,,,,,,,,,,,,,,,,,
1702803413.650314,1702803414.002446,124.000000,0.000000,4148.461426,4141.538574,4264.615234,4224.871582,4141.538574,4118.974121,4236.153809,4145.128418,4139.871582,4130.384766,4611.410156,4432.948730,4374.487305,4504.487305,6755.000000,3.000000,74.000000,,,,0.000000,4.000000,4.000000,4.000000,4.000000,4.000000,4.000000,2.000000,4.000000,4.000000,4.000000,4.000000,4.000000,4.000000,4.000000,83.333336,,,,,,,,,,,,,,,,,31.000000,0.000000,0.719257,0.174866,-0.649780,0.172852,1.004517,0.028324,0.092296,-4.925568,15.285115,98.594414
1702803413.658122,1702803414.010355,125.000000,0.000000,4157.179688,4145.512695,4273.589844,4230.769043,4142.307617,4121.538574,4235.512695,4149.102539,4140.512695,4130.256348,4620.128418,4434.487305,4379.358887,4510.897461,6895.000000,3.000000,74.000000,,,,0.000000,4.000000,4.000000,4.000000,4.000000,4.000000,4.000000,2.000000,4.000000,4.000000,4.000000,4.000000,4.000000,4.000000,4.000000,83.333336,,,,,,,,,,,,,,,,,,,,,,,,,,,,
1702803413.665930,1702803414.018163,126.000000,0.000000,4157.436035,4152.692383,4276.666504,4234.230957,4148.461426,4130.897461,4240.769043,4148.974121,4140.384766,4136.794922,4629.615234,4443.846191,4383.974121,4517.948730,5791.000000,3.000000,74.000000,,,,0.000000,4.000000,4.000000,4.000000,4.000000,4.000000,4.000000,2.000000,4.000000,4.000000,4.000000,4.000000,4.000000,4.000000,4.000000,83.333336,,,,,,,,,,,,,,,,,,,,,,,,,,,,
1702803413.673738,1702803414.025871,127.000000,0.000000,4145.256348,4146.282227,4263.974121,4227.436035,4144.358887,4128.077148,4241.538574,4140.256348,4124.358887,4127.051270,4621.410156,4439.487305,4372.948730,4509.102539,74.000000,3.000000,74.000000,,,,0.000000,4.000000,4.000000,4.000000,4.000000,4.000000,4.000000,2.000000,4.000000,4.000000,4.000000,4.000000,4.000000,4.000000,4.000000,83.333336,,,,,,,,,,,,,,,,,,,,,,,,,,,,
1702803413.681546,1702803414.033679,0.000000,0.000000,4137.307617,4137.307617,4252.436035,4218.846191,4138.333496,4123.589844,4239.358887,4133.333496,4110.256348,4117.179688,4609.358887,4421.025879,4364.743652,4495.641113,5185.000000,3.000000,74.000000,,,,0.000000,4.000000,4.000000,4.000000,4.000000,4.000000,4.000000,2.000000,4.000000,4.000000,4.000000,4.000000,4.000000,4.000000,4.000000,83.333336,,,,,,,,,,,,,,,,,0.000000,0.000000,0.719297,0.174988,-0.649719,0.172791,0.977658,0.021975,0.099622,-5.033011,15.306603,98.701637
1702803413.689355,1702803414.041388,1.000000,0.000000,4142.307617,4141.153809,4253.846191,4220.000000,4145.256348,4130.512695,4241.666504,4132.563965,4114.743652,4124.358887,4606.282227,4414.615234,4367.948730,4496.666504,5384.000000,3.000000,74.000000,,,,0.000000,4.000000,4.000000,4.000000,4.000000,4.000000,4.000000,2.000000,4.000000,4.000000,4.000000,4.000000,4.000000,4.000000,4.000000,83.333336,,,,,,,,,,,,,,,,,,,,,,,,,,,,
1702803413.697163,1702803414.049196,2.000000,0.000000,4146.282227,4145.512695,4257.692383,4221.538574,4152.436035,4130.384766,4243.461426,4134.230957,4120.512695,4131.666504,4611.410156,4419.230957,4367.820313,4503.589844,4747.000000,3.000000,74.000000,,,,0.000000,4.000000,4.000000,4.000000,4.000000,4.000000,4.000000,2.000000,4.000000,4.000000,4.000000,4.000000,4.000000,4.000000,4.000000,83.333336,,,,,,,,,,,,,,,,,,,,,,,,,,,,
1702803413.704971,1702803414.056904,3.000000,0.000000,4147.563965,4146.153809,4262.179688,4226.025879,4152.051270,4124.743652,4242.563965,4135.000000,4117.692383,4132.307617,4610.897461,4423.589844,4364.871582,4504.358887,5207.000000,3.000000,74.000000,,,,0.000000,4.000000,4.000000,4.000000,4.000000,4.000000,4.000000,2.000000,4.000000,4.000000,4.000000,4.000000,4.000000,4.000000,4.000000,83.333336,,,,,,,,,,,,,,,,,,,,,,,,,,,,
1702803413.712779,1702803414.064712,4.000000,0.000000,4155.641113,4153.717773,4270.000000,4237.436035,4155.128418,4127.563965,4241.410156,4131.794922,4113.589844,4132.820313,4610.256348,4427.436035,4373.077148,4505.128418,5081.000000,3.000000,74.000000,,,,0.000000,4.000000,4.000000,4.000000,4.000000,4.000000,4.000000,2.000000,4.000000,4.000000,4.000000,4.000000,4.000000,4.000000,4.000000,83.333336,,,,,,,,,,,,,,,,,1.000000,0.000000,0.719252,0.175110,-0.649719,0.172852,0.993774,0.016115,0.090831,-4.963044,15.359277,98.631477
1702803413.720587,1702803414.072420,5.000000,0.000000,4161.153809,4161.666504,4274.871582,4241.666504,4156.538574,4123.974121,4240.641113,4127.948730,4106.794922,4129.615234,4625.256348,4430.769043,4383.461426,4511.025879,5085.000000,3.000000,74.000000,,,,0.000000,4.000000,4.000000,4.000000,4.000000,4.000000,4.000000,2.000000,4.000000,4.000000,4.000000,4.000000,4.000000,4.000000,4.000000,83.333336,,,,,,,,,,,,,,,,,,,,,,,,,,,,
1702803413.728395,1702803414.080228,6.000000,0.000000,4157.179688,4156.922852,4272.948730,4234.102539,4148.846191,4111.410156,4239.230957,4131.922852,4102.179688,4124.871582,4633.461426,4435.000000,4380.128418,4512.563965,1357.000000,3.000000,74.000000,,,,0.000000,4.000000,4.000000,4.000000,4.000000,4.000000,4.000000,2.000000,4.000000,4.000000,4.000000,4.000000,4.000000,4.000000,4.000000,83.333336,,,,,,,,,,,,,,,,,,,,,,,,,,,,
1702803413.736203,1702803414.087936,7.000000,0.000000,4155.384766,4149.743652,4269.230957,4227.307617,4143.077148,4109.487305,4238.717773,4143.846191,4116.538574,4123.589844,4624.102539,4438.461426,4372.692383,4510.384766,4843.000000,3.000000,74.000000,,,,0.000000,4.000000,4.000000,4.000000,4.000000,4.000000,4.000000,2.000000,4.000000,4.000000,4.000000,4.000000,4.000000,4.000000,4.000000,83.333336,,,,,,,,,,,,,,,,,,,,,,,,,,,,
1702803413.744011,1702803414.095744,8.000000,0.000000,4155.000000,4149.615234,4267.051270,4227.436035,4145.512695,4118.205078,4240.641113,4150.128418,4133.077148,4124.230957,4618.333496,4434.358887,4370.256348,4508.974121,5111.000000,3.000000,74.000000,,,,0.000000,4.000000,4.000000,4.000000,4.000000,4.000000,4.000000,2.000000,4.000000,4.000000,4.000000,4.000000,4.000000,4.000000,4.000000,83.333336,,,,,,,,,,,,,,,,,2.000000,0.000000,0.719267,0.175049,-0.649719,0.172852,0.972287,0.023929,0.096203,-4.983406,15.373349,98.734993
1702803413.751819,1702803414.103452,9.000000,0.000000,4149.358887,4149.358887,4265.256348,4222.563965,4146.922852,4123.205078,4240.128418,4143.717773,4132.179688,4123.333496,4616.025879,4427.307617,4368.077148,4505.256348,5205.000000,3.000000,74.000000,,,,0.000000,4.000000,4.000000,4.000000,4.000000,4.000000,4.000000,2.000000,4.000000,4.000000,4.000000,4.000000,4.000000,4.000000,4.000000,83.333336,,,,,,,,,,,,,,,,,,,,,,,,,,,,
1702803413.759627,1702803414.111260,10.000000,0.000000,4154.358887,4148.205078,4267.948730,4219.230957,4143.846191,4124.871582,4238.077148,4138.333496,4128.974121,4126.282227,4613.461426,4432.051270,4370.512695,4507.820313,5794.000000,3.000000,74.000000,,,,0.000000,4.000000,4.000000,4.000000,4.000000,4.000000,4.000000,2.000000,4.000000,4.000000,4.000000,4.000000,4.000000,4.000000,4.000000,83.333336,,,,,,,,,,,,,,,,,,,,,,,,,,,,
1702803413.767435,1702803414.118969,11.000000,0.000000,4166.922852,4149.743652,4273.461426,4227.307617,4141.922852,4126.666504,4239.102539,4138.974121,4132.051270,4132.820313,4623.205078,4440.384766,4377.307617,4515.128418,5845.000000,3.000000,74.000000,,,,0.000000,4.000000,4.000000,4.000000,4.000000,4.000000,4.000000,2.000000,4.000000,4.000000,4.000000,4.000000,4.000000,4.000000,4.000000,83.333336,,,,,,,,,,,,,,,,,,,,,,,,,,,,
1702803413.775243,1702803414.126777,12.000000,0.000000,4164.230957,4150.769043,4275.769043,4232.179688,4143.205078,4123.974121,4243.717773,4129.358887,4120.128418,4128.974121,4629.743652,4432.436035,4373.077148,4512.820313,6713.000000,3.000000,74.000000,,,,0.000000,4.000000,4.000000,4.000000,4.000000,4.000000,4.000000,2.000000,4.000000,4.000000,4.000000,4.000000,4.000000,4.000000,4.000000,83.333336,,,,,,,,,,,,,,,,,3.000000,0.000000,0.719326,0.174927,-0.649719,0.172729,0.986449,0.013674,0.085948,-4.935065,15.402680,98.644829
1702803413.783051,1702803414.134485,13.000000,0.000000,4160.641113,4151.794922,4278.333496,4228.846191,4142.307617,4116.666504,4245.512695,4117.692383,4098.077148,4119.487305,4617.563965,4424.743652,4367.051270,4508.205078,6888.000000,3.000000,74.000000,,,,0.000000,4.000000,4.000000,4.000000,4.000000,4.000000,4.000000,2.000000,4.000000,4.000000,4.000000,4.000000,4.000000,4.000000,4.000000,83.333336,,,,,,,,,,,,,,,,,,,,,,,,,,,,
1702803413.790860,1702803414.142293,14.000000,0.000000,4172.179688,4155.384766,4283.717773,4229.871582,4140.256348,4118.333496,4242.179688,4122.948730,4095.256348,4120.000000,4613.205078,4432.179688,4373.846191,4514.871582,5794.000000,3.000000,74.000000,,,,0.000000,4.000000,4.000000,4.000000,4.000000,4.000000,4.000000,2.000000,4.000000,4.000000,4.000000,4.000000,4.000000,4.000000,4.000000,83.333336,,,,,,,,,,,,,,,,,,,,,,,,,,,,
1702803413.798668,1702803414.150001,15.000000,0.000000,4172.948730,4152.948730,4282.692383,4229.102539,4142.179688,4128.846191,4240.256348,4136.410156,4109.358887,4124.102539,4620.897461,4439.102539,4377.436035,4514.871582,5845.000000,3.000000,74.000000,,,,0.000000,4.000000,4.000000,4.000000,4.000000,4.000000,4.000000,2.000000,4.000000,4.000000,4.000000,4.000000,4.000000,4.000000,4.000000,83.333336,,,,,,,,,,,,,,,,,,,,,,,,,,,,
1702803413.806476,1702803414.157909,16.000000,0.000000,4165.512695,4146.538574,4278.717773,4221.794922,4142.820313,4130.000000,4243.717773,4149.358887,4124.487305,4125.128418,4622.051270,4442.948730,4373.974121,4510.512695,0.000000,3.000000,74.000000,,,,0.000000,4.000000,4.000000,4.000000,4.000000,4.000000,4.000000,2.000000,4.000000,4.000000,4.000000,4.000000,4.000000,4.000000,4.000000,83.333336,,,,,,,,,,,,,,,,,4.000000,0.000000,0.719157,0.175049,-0.649841,0.172852,0.991332,0.032230,0.095226,-4.841558,15.429079,98.563675
1702803413.814284,1702803414.165717,17.000000,0.000000,4169.871582,4147.307617,4285.256348,4222.948730,4137.179688,4121.666504,4246.922852,4157.307617,4137.948730,4130.769043,4627.307617,4450.897461,4376.666504,4520.641113,0.000000,3.000000,74.000000,,,,0.000000,4.000000,4.000000,4.000000,4.000000,4.000000,4.000000,2.000000,4.000000,4.000000,4.000000,4.000000,4.000000,4.000000,4.000000,83.333336,,,,,,,,,,,,,,,,,,,,,,,,,,,,
1702803413.822092,1702803414.173625,18.000000,0.000000,4174.871582,4149.871582,4291.922852,4229.102539,4134.102539,4118.461426,4245.641113,4152.563965,4147.563965,4138.077148,4639.871582,4453.974121,4384.230957,4529.487305,0.000000,3.000000,74.000000,,,,0.000000,4.000000,4.000000,4.000000,4.000000,4.000000,4.000000,2.000000,4.000000,4.000000,4.000000,4.000000,4.000000,4.000000,4.000000,83.333336,,,,,,,,,,,,,,,,,,,,,,,,,,,,
1702803413.829900,1702803414.181433,19.000000,0.000000,4174.358887,4147.307617,4287.948730,4227.948730,4134.743652,4120.897461,4243.333496,4142.820313,4142.179688,4134.487305,4637.179688,4449.102539,4383.589844,4524.615234,0.000000,3.000000,74.000000,,,,0.000000,4.000000,4.000000,4.000000,4.000000,4.000000,4.000000,2.000000,4.000000,4.000000,4.000000,4.000000,4.000000,4.000000,4.000000,83.333336,,,,,,,,,,,,,,,,,,,,,,,,,,,,
1702803413.837708,1702803414.189341,20.000000,0.000000,4176.794922,4144.871582,4282.948730,4227.051270,4137.563965,4123.846191,4243.846191,4137.820313,4124.102539,4125.000000,4621.666504,4441.538574,4373.589844,4515.256348,0.000000,3.000000,74.000000,,,,0.000000,4.000000,4.000000,4.000000,4.000000,4.000000,4.000000,2.000000,4.000000,4.000000,4.000000,4.000000,4.000000,4.000000,4.000000,83.333336,,,,,,,,,,,,,,,,,5.000000,0.000000,0.719032,0.174927,-0.649963,0.173035,0.984007,0.027835,0.085948,-4.857403,15.402838,98.540642
1702803413.845516,1702803414.197150,21.000000,0.000000,4168.333496,4141.666504,4278.333496,4226.538574,4141.794922,4132.307617,4247.307617,4137.307617,4117.948730,4122.563965,4612.436035,4436.153809,4363.974121,4505.256348,0.000000,3.000000,74.000000,,,,0.000000,4.000000,4.000000,4.000000,4.000000,4.000000,4.000000,2.000000,4.000000,4.000000,4.000000,4.000000,4.000000,4.000000,4.000000,83.333336,,,,,,,,,,,,,,,,,,,,,,,,,,,,
1702803413.853324,1702803414.205058,22.000000,0.000000,4152.179688,4135.000000,4268.461426,4218.846191,4143.846191,4139.615234,4247.692383,4137.307617,4120.256348,4126.410156,4615.256348,4437.179688,4365.384766,4500.641113,0.000000,3.000000,74.000000,,,,0.000000,4.000000,4.000000,4.000000,4.000000,4.000000,4.000000,2.000000,4.000000,4.000000,4.000000,4.000000,4.000000,4.000000,4.000000,83.333336,,,,,,,,,,,,,,,,,,,,,,,,,,,,
1702803413.861132,1702803414.212866,23.000000,0.000000,4160.256348,4140.641113,4267.436035,4220.000000,4146.153809,4134.230957,4244.102539,4134.487305,4110.641113,4128.077148,4625.512695,4442.692383,4379.615234,4515.897461,0.000000,3.000000,74.000000,,,,0.000000,4.000000,4.000000,4.000000,4.000000,4.000000,4.000000,2.000000,4.000000,4.000000,4.000000,4.000000,4.000000,4.000000,4.000000,83.333336,,,,,,,,,,,,,,,,,,,,,,,,,,,,
1702803413.868940,1702803414.220774,24.000000,0.000000,4178.333496,4151.282227,4281.410156,4232.307617,4145.897461,4125.641113,4244.615234,4130.128418,4097.563965,4123.846191,4632.692383,4447.948730,4392.307617,4534.102539,0.000000,3.000000,74.000000,,,,0.000000,4.000000,4.000000,4.000000,4.000000,4.000000,4.000000,2.000000,4.000000,4.000000,4.000000,4.000000,4.000000,4.000000,4.000000,83.333336,,,,,,,,,,,,,,,,,6.000000,0.000000,0.719043,0.174988,-0.649902,0.173157,0.994750,0.016604,0.092785,-4.838329,15.445888,98.486580
1702803413.876748,1702803414.228582,25.000000,0.000000,4173.717773,4143.974121,4284.871582,4229.358887,4140.512695,4121.922852,4246.922852,4129.230957,4100.384766,4120.769043,4627.051270,4444.615234,4389.230957,4526.794922,0.000000,3.000000,74.000000,,,,0.000000,4.000000,4.000000,4.000000,4.000000,4.000000,4.000000,2.000000,4.000000,4.000000,4.000000,4.000000,4.000000,4.000000,4.000000,83.333336,,,,,,,,,,,,,,,,,,,,,,,,,,,,
1702803413.884556,1702803414.236291,26.000000,0.000000,4167.948730,4141.153809,4277.179688,4226.282227,4141.538574,4123.974121,4244.871582,4137.563965,4122.179688,4128.205078,4628.077148,4440.897461,4381.922852,4521.282227,0.000000,3.000000,74.000000,,,,0.000000,4.000000,4.000000,4.000000,4.000000,4.000000,4.000000,2.000000,4.000000,4.000000,4.000000,4.000000,4.000000,4.000000,4.000000,83.333336,1.000000,66.666664,4.000000,4.000000,4.000000,4.000000,4.000000,3.000000,1.000000,4.000000,4.000000,4.000000,4.000000,4.000000,4.000000,4.000000,,,,,,,,,,,,
1702803413.892365,1702803414.244099,27.000000,0.000000,4175.512695,4155.384766,4278.077148,4238.461426,4149.487305,4126.410156,4244.871582,4151.666504,4149.230957,4140.512695,4640.000000,4447.820313,4387.307617,4532.948730,0.000000,3.000000,74.000000,,,,0.000000,4.000000,4.000000,4.000000,4.000000,4.000000,4.000000,2.000000,4.000000,4.000000,4.000000,4.000000,4.000000,4.000000,4.000000,83.333336,,,,,,,,,,,,,,,,,,,,,,,,,,,,
1702803413.900173,1702803414.251807,28.000000,0.000000,4169.615234,4153.717773,4278.974121,4235.897461,4148.333496,4122.436035,4247.051270,4155.512695,4157.436035,4137.307617,4639.871582,4447.563965,4390.897461,4528.461426,0.000000,3.000000,74.000000,,,,0.000000,4.000000,4.000000,4.000000,4.000000,4.000000,4.000000,2.000000,4.000000,4.000000,4.000000,4.000000,4.000000,4.000000,4.000000,83.333336,,,,,,,,,,,,,,,,,7.000000,0.000000,0.718959,0.174927,-0.649963,0.173340,0.992797,0.035161,0.100110,-4.754496,15.467965,98.504585
1702803413.907981,1702803414.259615,29.000000,0.000000,4157.436035,4139.871582,4272.179688,4219.743652,4141.153809,4116.666504,4243.974121,4145.384766,4144.615234,4127.307617,4634.743652,4436.666504,4381.410156,4510.000000,0.000000,3.000000,74.000000,,,,0.000000,4.000000,4.000000,4.000000,4.000000,4.000000,4.000000,2.000000,4.000000,4.000000,4.000000,4.000000,4.000000,4.000000,4.000000,83.333336,,,,,,,,,,,,,,,,,,,,,,,,,,,,
1702803413.915789,1702803414.267323,30.000000,0.000000,4160.769043,4138.205078,4269.615234,4218.717773,4136.794922,4117.820313,4242.307617,4139.358887,4133.846191,4129.743652,4637.179688,4434.358887,4375.000000,4508.974121,0.000000,3.000000,74.000000,,,,0.000000,4.000000,4.000000,4.000000,4.000000,4.000000,4.000000,2.000000,4.000000,4.000000,4.000000,4.000000,4.000000,4.000000,4.000000,83.333336,,,,,,,,,,,,,,,,,,,,,,,,,,,,
1702803413.923597,1702803414.275231,31.000000,0.000000,4162.820313,4140.384766,4273.846191,4225.897461,4132.307617,4120.897461,4244.871582,4139.230957,4127.948730,4128.589844,4633.974121,4438.717773,4375.769043,4514.743652,0.000000,3.000000,74.000000,,,,0.000000,4.000000,4.000000,4.000000,4.000000,4.000000,4.000000,2.000000,4.000000,4.000000,4.000000,4.000000,4.000000,4.000000,4.000000,83.333336,,,,,,,,,,,,,,,,,,,,,,,,,,,,
1702803413.931405,1702803414.283040,32.000000,0.000000,4164.871582,4144.615234,4280.384766,4225.128418,4134.743652,4121.410156,4244.743652,4133.333496,4115.641113,4120.641113,4627.692383,4438.077148,4376.025879,4515.897461,0.000000,3.000000,74.000000,,,,0.000000,4.000000,4.000000,4.000000,4.000000,4.000000,4.000000,2.000000,4.000000,4.000000,4.000000,4.000000,4.000000,4.000000,4.000000,83.333336,,,,,,,,,,,,,,,,,8.000000,0.000000,0.718948,0.174683,-0.650024,0.173401,0.981077,0.025394,0.093761,-4.845713,15.471169,98.420799
1702803413.939213,1702803414.290948,33.000000,0.000000,4174.230957,4153.461426,4288.461426,4228.077148,4141.794922,4122.436035,4241.794922,4121.794922,4098.846191,4120.897461,4623.589844,4435.641113,4376.025879,4518.846191,0.000000,3.000000,74.000000,,,,0.000000,4.000000,4.000000,4.000000,4.000000,4.000000,4.000000,2.000000,4.000000,4.000000,4.000000,4.000000,4.000000,4.000000,4.000000,83.333336,,,,,,,,,,,,,,,,,,,,,,,,,,,,
1702803413.947021,1702803414.298756,34.000000,0.000000,4176.025879,4153.717773,4292.563965,4234.615234,4141.025879,4121.153809,4240.512695,4117.563965,4090.641113,4121.666504,4616.794922,4436.025879,4378.589844,4518.461426,0.000000,3.000000,74.000000,,,,0.000000,4.000000,4.000000,4.000000,4.000000,4.000000,4.000000,2.000000,4.000000,4.000000,4.000000,4.000000,4.000000,4.000000,4.000000,83.333336,,,,,,,,,,,,,,,,,,,,,,,,,,,,
1702803413.954829,1702803414.306664,35.000000,0.000000,4168.846191,4146.922852,4286.922852,4232.436035,4140.641113,4120.897461,4241.538574,4125.512695,4101.922852,4119.358887,4623.846191,4437.692383,4378.077148,4515.128418,0.000000,3.000000,74.000000,,,,0.000000,4.000000,4.000000,4.000000,4.000000,4.000000,4.000000,2.000000,4.000000,4.000000,4.000000,4.000000,4.000000,4.000000,4.000000,83.333336,,,,,,,,,,,,,,,,,,,,,,,,,,,,
1702803413.962637,1702803414.314472,36.000000,0.000000,4166.153809,4144.743652,4276.025879,4225.128418,4143.846191,4125.641113,4244.358887,4132.051270,4117.948730,4118.205078,4637.820313,4436.666504,4374.743652,4514.102539,0.000000,3.000000,74.000000,,,,0.000000,4.000000,4.000000,4.000000,4.000000,4.000000,4.000000,2.000000,4.000000,4.000000,4.000000,4.000000,4.000000,4.000000,4.000000,83.333336,,,,,,,,,,,,,,,,,9.000000,0.000000,0.718893,0.174622,-0.650085,0.173462,0.991820,0.010743,0.081065,-5.077809,15.357386,98.245384
1702803413.970445,1702803414.322280,37.000000,0.000000,4169.871582,4145.000000,4276.794922,4222.051270,4140.769043,4127.820313,4246.666504,4135.641113,4124.743652,4122.179688,4635.897461,4437.948730,4376.282227,4515.897461,0.000000,3.000000,74.000000,,,,0.000000,4.000000,4.000000,4.000000,4.000000,4.000000,4.000000,2.000000,4.000000,4.000000,4.000000,4.000000,4.000000,4.000000,4.000000,83.333336,,,,,,,,,,,,,,,,,,,,,,,,,,,,
1702803413.978253,1702803414.329989,38.000000,0.000000,4173.717773,4146.282227,4288.589844,4223.974121,4138.205078,4126.666504,4246.538574,4148.717773,4136.153809,4135.769043,4642.563965,4448.846191,4388.077148,4524.743652,0.000000,3.000000,74.000000,,,,0.000000,4.000000,4.000000,4.000000,4.000000,4.000000,4.000000,2.000000,4.000000,4.000000,4.000000,4.000000,4.000000,4.000000,4.000000,83.333336,,,,,,,,,,,,,,,,,,,,,,,,,,,,
1702803413.986061,1702803414.337897,39.000000,0.000000,4170.512695,4143.974121,4286.922852,4220.897461,4138.974121,4125.128418,4246.153809,4161.794922,4151.922852,4147.948730,4657.692383,4457.820313,4396.153809,4529.358887,0.000000,3.000000,74.000000,,,,0.000000,4.000000,4.000000,4.000000,4.000000,4.000000,4.000000,2.000000,4.000000,4.000000,4.000000,4.000000,4.000000,4.000000,4.000000,83.333336,,,,,,,,,,,,,,,,,,,,,,,,,,,,
1702803413.993870,1702803414.345705,40.000000,0.000000,4161.538574,4135.256348,4273.589844,4211.922852,4135.897461,4123.974121,4244.487305,4158.846191,4149.615234,4139.358887,4645.512695,4448.846191,4384.871582,4515.897461,0.000000,3.000000,74.000000,,,,0.000000,4.000000,4.000000,4.000000,4.000000,4.000000,4.000000,2.000000,4.000000,4.000000,4.000000,4.000000,4.000000,4.000000,4.000000,83.333336,,,,,,,,,,,,,,,,,10.000000,0.000000,0.718812,0.174438,-0.650208,0.173523,0.979612,0.028812,0.087413,-5.203361,15.471647,98.254181
1702803414.001678,1702803414.353613,41.000000,0.000000,4163.205078,4133.461426,4273.461426,4208.333496,4135.512695,4130.000000,4242.436035,4148.717773,4136.794922,4125.256348,4627.051270,4435.384766,4374.358887,4505.000000,0.000000,3.000000,74.000000,,,,0.000000,4.000000,4.000000,4.000000,4.000000,4.000000,4.000000,2.000000,4.000000,4.000000,4.000000,4.000000,4.000000,4.000000,4.000000,83.333336,,,,,,,,,,,,,,,,,,,,,,,,,,,,
1702803414.009486,1702803414.361421,42.000000,0.000000,4170.128418,4136.666504,4279.102539,4210.897461,4138.333496,4137.436035,4241.410156,4138.974121,4127.307617,4125.641113,4632.051270,4430.769043,4376.922852,4507.820313,0.000000,3.000000,74.000000,,,,0.000000,4.000000,4.000000,4.000000,4.000000,4.000000,4.000000,2.000000,4.000000,4.000000,4.000000,4.000000,4.000000,4.000000,4.000000,83.333336,,,,,,,,,,,,,,,,,,,,,,,,,,,,
1702803414.017294,1702803414.369329,43.000000,0.000000,4168.333496,4137.563965,4274.871582,4215.897461,4137.307617,4135.384766,4240.384766,4126.922852,4107.563965,4132.307617,4634.743652,4433.205078,4378.846191,4512.307617,0.000000,3.000000,74.000000,,,,0.000000,4.000000,4.000000,4.000000,4.000000,4.000000,4.000000,2.000000,4.000000,4.000000,4.000000,4.000000,4.000000,4.000000,4.000000,83.333336,,,,,,,,,,,,,,,,,,,,,,,,,,,,
1702803414.025102,1702803414.377137,44.000000,0.000000,4165.769043,4136.153809,4272.307617,4219.358887,4135.769043,4128.589844,4240.641113,4121.282227,4087.564209,4131.666504,4628.846191,4435.769043,4378.077148,4514.743652,0.000000,3.000000,74.000000,,,,0.000000,4.000000,4.000000,4.000000,4.000000,4.000000,4.000000,2.000000,4.000000,4.000000,4.000000,4.000000,4.000000,4.000000,4.000000,83.333336,,,,,,,,,,,,,,,,,11.000000,0.000000,0.718602,0.174438,-0.650391,0.173706,0.997192,0.019534,0.092296,-5.199692,15.591148,98.278763
1702803414.032910,1702803414.385046,45.000000,0.000000,4166.153809,4133.077148,4275.000000,4217.948730,4134.230957,4123.589844,4243.205078,4128.333496,4095.000000,4122.563965,4627.692383,4438.589844,4379.871582,4517.436035,0.000000,3.000000,74.000000,,,,0.000000,4.000000,4.000000,4.000000,4.000000,4.000000,4.000000,2.000000,4.000000,4.000000,4.000000,4.000000,4.000000,4.000000,4.000000,83.333336,,,,,,,,,,,,,,,,,,,,,,,,,,,,
1702803414.040718,1702803414.392854,46.000000,0.000000,4169.102539,4137.563965,4277.051270,4219.487305,4135.128418,4125.769043,4246.025879,4141.666504,4117.820313,4123.205078,4630.384766,4446.794922,4384.358887,4521.666504,0.000000,3.000000,74.000000,,,,0.000000,4.000000,4.000000,4.000000,4.000000,4.000000,4.000000,2.000000,4.000000,4.000000,4.000000,4.000000,4.000000,4.000000,4.000000,83.333336,,,,,,,,,,,,,,,,,,,,,,,,,,,,
1702803414.048526,1702803414.400762,47.000000,0.000000,4172.820313,4144.743652,4277.692383,4227.179688,4139.230957,4134.615234,4246.282227,4146.410156,4128.461426,4132.179688,4637.307617,4445.000000,4385.128418,4520.897461,0.000000,3.000000,74.000000,,,,0.000000,4.000000,4.000000,4.000000,4.000000,4.000000,4.000000,2.000000,4.000000,4.000000,4.000000,4.000000,4.000000,4.000000,4.000000,83.333336,,,,,,,,,,,,,,,,,,,,,,,,,,,,
1702803414.056334,1702803414.408570,48.000000,0.000000,4175.769043,4147.307617,4279.871582,4230.128418,4141.153809,4135.256348,4244.743652,4147.179688,4134.743652,4134.487305,4641.410156,4435.000000,4381.794922,4515.000000,0.000000,3.000000,74.000000,,,,0.000000,4.000000,4.000000,4.000000,4.000000,4.000000,4.000000,2.000000,4.000000,4.000000,4.000000,4.000000,4.000000,4.000000,4.000000,83.333336,,,,,,,,,,,,,,,,,12.000000,0.000000,0.718514,0.174500,-0.650391,0.174011,0.993774,0.001465,0.085948,-5.179722,15.465367,98.367554
1702803414.064142,1702803414.416278,49.000000,0.000000,4178.461426,4150.256348,4283.974121,4230.000000,4140.000000,4124.615234,4243.333496,4153.205078,4144.615234,4134.871582,4644.871582,4437.948730,4380.512695,4514.487305,0.000000,3.000000,74.000000,,,,0.000000,4.000000,4.000000,4.000000,4.000000,4.000000,4.000000,2.000000,4.000000,4.000000,4.000000,4.000000,4.000000,4.000000,4.000000,83.333336,,,,,,,,,,,,,,,,,,,,,,,,,,,,
1702803414.071950,1702803414.424187,50.000000,0.000000,4185.384766,4159.358887,4290.897461,4240.256348,4145.128418,4123.077148,4243.846191,4156.922852,4146.282227,4142.307617,4652.563965,4451.794922,4389.487305,4525.897461,0.000000,3.000000,74.000000,,,,0.000000,4.000000,4.000000,4.000000,4.000000,4.000000,4.000000,2.000000,4.000000,4.000000,4.000000,4.000000,4.000000,4.000000,4.000000,83.333336,,,,,,,,,,,,,,,,,,,,,,,,,,,,
1702803414.079759,1702803414.431995,51.000000,0.000000,4196.282227,4170.769043,4299.615234,4253.333496,4150.512695,4128.461426,4245.128418,4149.358887,4138.846191,4146.538574,4653.461426,4457.820313,4397.051270,4534.487305,0.000000,3.000000,74.000000,,,,0.000000,4.000000,4.000000,4.000000,4.000000,4.000000,4.000000,2.000000,4.000000,4.000000,4.000000,4.000000,4.000000,4.000000,4.000000,83.333336,,,,,,,,,,,,,,,,,,,,,,,,,,,,
1702803414.087567,1702803414.439803,52.000000,0.000000,4194.487305,4170.000000,4301.025879,4250.897461,4144.102539,4121.153809,4242.692383,4137.051270,4125.641113,4132.948730,4642.820313,4448.333496,4384.743652,4525.897461,0.000000,3.000000,74.000000,,,,0.000000,4.000000,4.000000,4.000000,4.000000,4.000000,4.000000,2.000000,4.000000,4.000000,4.000000,4.000000,4.000000,4.000000,4.000000,83.333336,,,,,,,,,,,,,,,,,13.000000,0.000000,0.718388,0.174500,-0.650513,0.174072,0.979612,0.017092,0.088390,-5.178417,15.418831,98.330795
1702803414.095375,1702803414.447511,53.000000,0.000000,4182.948730,4158.717773,4293.589844,4242.436035,4135.384766,4115.512695,4239.358887,4132.563965,4113.589844,4114.102539,4633.461426,4435.128418,4370.512695,4516.922852,0.000000,3.000000,74.000000,,,,0.000000,4.000000,4.000000,4.000000,4.000000,4.000000,4.000000,2.000000,4.000000,4.000000,4.000000,4.000000,4.000000,4.000000,4.000000,83.333336,,,,,,,,,,,,,,,,,,,,,,,,,,,,
1702803414.103183,1702803414.455319,54.000000,0.000000,4181.025879,4155.128418,4290.128418,4240.128418,4136.538574,4124.615234,4241.025879,4132.051270,4107.179688,4111.666504,4630.128418,4431.666504,4372.307617,4520.256348,0.000000,3.000000,74.000000,,,,0.000000,4.000000,4.000000,4.000000,4.000000,4.000000,4.000000,2.000000,4.000000,4.000000,4.000000,4.000000,4.000000,4.000000,4.000000,83.333336,,,,,,,,,,,,,,,,,,,,,,,,,,,,
1702803414.110991,1702803414.463027,55.000000,0.000000,4186.153809,4159.230957,4294.743652,4239.358887,4140.000000,4128.589844,4245.128418,4127.436035,4105.000000,4124.743652,4630.000000,4436.282227,4380.256348,4523.846191,0.000000,3.000000,74.000000,,,,0.000000,4.000000,4.000000,4.000000,4.000000,4.000000,4.000000,2.000000,4.000000,4.000000,4.000000,4.000000,4.000000,4.000000,4.000000,83.333336,,,,,,,,,,,,,,,,,,,,,,,,,,,,
1702803414.118799,1702803414.470835,56.000000,0.000000,4186.538574,4157.692383,4298.717773,4240.641113,4137.692383,4123.846191,4247.820313,4125.897461,4108.846191,4129.487305,4638.333496,4438.461426,4381.538574,4522.436035,0.000000,3.000000,74.000000,,,,0.000000,4.000000,4.000000,4.000000,4.000000,4.000000,4.000000,2.000000,4.000000,4.000000,4.000000,4.000000,4.000000,4.000000,4.000000,83.333336,,,,,,,,,,,,,,,,,14.000000,0.000000,0.718407,0.174377,-0.650574,0.173889,0.999145,0.012209,0.099133,-5.193909,15.526947,98.414383
1702803414.126607,1702803414.478544,57.000000,0.000000,4183.205078,4152.820313,4295.897461,4240.897461,4136.666504,4125.897461,4246.794922,4131.794922,4114.487305,4122.820313,4638.333496,4439.487305,4379.487305,4524.102539,0.000000,3.000000,74.000000,,,,0.000000,4.000000,4.000000,4.000000,4.000000,4.000000,4.000000,2.000000,4.000000,4.000000,4.000000,4.000000,4.000000,4.000000,4.000000,83.333336,,,,,,,,,,,,,,,,,,,,,,,,,,,,
1702803414.134415,1702803414.486352,58.000000,0.000000,4181.794922,4153.461426,4292.307617,4237.051270,4139.102539,4130.256348,4244.102539,4141.666504,4122.051270,4122.436035,4634.102539,4443.717773,4380.128418,4524.230957,0.000000,3.000000,74.000000,,,,0.000000,4.000000,4.000000,4.000000,4.000000,4.000000,4.000000,2.000000,4.000000,4.000000,4.000000,4.000000,4.000000,4.000000,4.000000,83.333336,,,,,,,,,,,,,,,,,,,,,,,,,,,,
1702803414.142223,1702803414.494060,59.000000,0.000000,4177.820313,4152.692383,4290.641113,4231.922852,4138.205078,4128.589844,4241.922852,4150.128418,4135.512695,4126.153809,4642.436035,4444.102539,4380.897461,4517.820313,0.000000,3.000000,74.000000,,,,0.000000,4.000000,4.000000,4.000000,4.000000,4.000000,4.000000,2.000000,4.000000,4.000000,4.000000,4.000000,4.000000,4.000000,4.000000,83.333336,,,,,,,,,,,,,,,,,,,,,,,,,,,,
1702803414.150031,1702803414.501868,60.000000,0.000000,4176.794922,4149.230957,4288.077148,4226.666504,4139.743652,4127.820313,4239.102539,4151.922852,4143.974121,4125.897461,4645.641113,4440.897461,4380.384766,4517.820313,0.000000,3.000000,74.000000,,,,0.000000,4.000000,4.000000,4.000000,4.000000,4.000000,4.000000,2.000000,4.000000,4.000000,4.000000,4.000000,4.000000,4.000000,4.000000,83.333336,,,,,,,,,,,,,,,,,15.000000,0.000000,0.718381,0.174377,-0.650635,0.173767,0.990355,0.025882,0.093273,-5.041184,15.324253,98.406281
1702803414.157839,1702803414.509576,61.000000,0.000000,4184.102539,4155.000000,4291.538574,4234.102539,4144.871582,4132.820313,4239.102539,4151.666504,4148.205078,4132.307617,4649.487305,4448.717773,4389.358887,4531.922852,0.000000,3.000000,74.000000,,,,0.000000,4.000000,4.000000,4.000000,4.000000,4.000000,4.000000,2.000000,4.000000,4.000000,4.000000,4.000000,4.000000,4.000000,4.000000,83.333336,,,,,,,,,,,,,,,,,,,,,,,,,,,,
1702803414.165647,1702803414.517384,62.000000,0.000000,4182.948730,4157.820313,4290.000000,4240.256348,4143.205078,4131.282227,4240.641113,4147.948730,4144.358887,4138.846191,4655.000000,4452.051270,4396.538574,4534.102539,0.000000,3.000000,74.000000,,,,0.000000,4.000000,4.000000,4.000000,4.000000,4.000000,4.000000,2.000000,4.000000,4.000000,4.000000,4.000000,4.000000,4.000000,4.000000,83.333336,,,,,,,,,,,,,,,,,,,,,,,,,,,,
1702803414.173455,1702803414.525092,63.000000,0.000000,4175.641113,4152.948730,4281.794922,4228.077148,4137.563965,4123.846191,4240.128418,4135.256348,4126.410156,4131.282227,4640.000000,4437.563965,4386.282227,4519.230957,0.000000,3.000000,74.000000,,,,0.000000,4.000000,4.000000,4.000000,4.000000,4.000000,4.000000,2.000000,4.000000,4.000000,4.000000,4.000000,4.000000,4.000000,4.000000,83.333336,,,,,,,,,,,,,,,,,,,,,,,,,,,,
1702803414.181264,1702803414.533000,64.000000,0.000000,4181.794922,4155.512695,4287.948730,4225.512695,4138.974121,4128.589844,4240.897461,4132.563965,4120.641113,4127.948730,4626.153809,4435.897461,4381.025879,4518.333496,5190.000000,3.000000,74.000000,,,,0.000000,4.000000,4.000000,4.000000,4.000000,4.000000,4.000000,2.000000,4.000000,4.000000,4.000000,4.000000,4.000000,4.000000,4.000000,83.333336,,,,,,,,,,,,,,,,,16.000000,0.000000,0.718341,0.174438,-0.650696,0.173645,1.002075,0.013674,0.092785,-5.053732,15.375161,98.498985
1702803414.189072,1702803414.540808,65.000000,0.000000,4186.922852,4160.000000,4294.230957,4238.461426,4147.692383,4137.436035,4242.051270,4137.307617,4129.743652,4132.820313,4635.897461,4442.179688,4385.512695,4524.358887,5409.000000,3.000000,74.000000,,,,0.000000,4.000000,4.000000,4.000000,4.000000,4.000000,4.000000,2.000000,4.000000,4.000000,4.000000,4.000000,4.000000,4.000000,4.000000,83.333336,,,,,,,,,,,,,,,,,,,,,,,,,,,,
1702803414.196880,1702803414.548716,66.000000,0.000000,4184.487305,4161.025879,4289.871582,4242.179688,4151.538574,4136.666504,4240.128418,4131.922852,4125.128418,4132.948730,4643.846191,4440.128418,4385.128418,4522.563965,4754.000000,3.000000,74.000000,,,,0.000000,4.000000,4.000000,4.000000,4.000000,4.000000,4.000000,2.000000,4.000000,4.000000,4.000000,4.000000,4.000000,4.000000,4.000000,83.333336,,,,,,,,,,,,,,,,,,,,,,,,,,,,
1702803414.204688,1702803414.556524,67.000000,0.000000,4182.436035,4156.282227,4287.051270,4237.051270,4141.153809,4127.692383,4240.641113,4122.563965,4110.769043,4124.487305,4629.871582,4437.307617,4378.846191,4516.153809,5210.000000,3.000000,74.000000,,,,0.000000,4.000000,4.000000,4.000000,4.000000,4.000000,4.000000,2.000000,4.000000,4.000000,4.000000,4.000000,4.000000,4.000000,4.000000,83.333336,,,,,,,,,,,,,,,,,,,,,,,,,,,,
1702803414.212496,1702803414.564432,68.000000,0.000000,4180.769043,4148.333496,4286.410156,4237.563965,4132.051270,4122.820313,4245.128418,4122.948730,4111.282227,4115.769043,4616.922852,4436.153809,4372.307617,4508.974121,5095.000000,3.000000,74.000000,,,,0.000000,4.000000,4.000000,4.000000,4.000000,4.000000,4.000000,2.000000,4.000000,4.000000,4.000000,4.000000,4.000000,4.000000,4.000000,83.333336,,,,,,,,,,,,,,,,,17.000000,0.000000,0.718425,0.174683,-0.650635,0.173279,0.989379,0.032719,0.085460,-5.181693,15.404311,98.432419
1702803414.220304,1702803414.572241,69.000000,0.000000,4183.717773,4149.615234,4284.358887,4236.410156,4135.384766,4127.563965,4246.922852,4135.897461,4128.333496,4121.282227,4624.615234,4434.743652,4372.307617,4511.025879,5100.000000,3.000000,74.000000,,,,0.000000,4.000000,4.000000,4.000000,4.000000,4.000000,4.000000,2.000000,4.000000,4.000000,4.000000,4.000000,4.000000,4.000000,4.000000,83.333336,,,,,,,,,,,,,,,,,,,,,,,,,,,,
1702803414.228112,1702803414.580149,70.000000,0.000000,4171.922852,4138.333496,4273.461426,4217.692383,4134.358887,4126.538574,4245.512695,4151.666504,4141.025879,4125.512695,4625.897461,4424.487305,4366.922852,4508.077148,1359.000000,3.000000,74.000000,,,,0.000000,4.000000,4.000000,4.000000,4.000000,4.000000,4.000000,2.000000,4.000000,4.000000,4.000000,4.000000,4.000000,4.000000,4.000000,83.333336,,,,,,,,,,,,,,,,,,,,,,,,,,,,
1702803414.235920,1702803414.587957,71.000000,0.000000,4155.897461,4122.051270,4265.256348,4208.077148,4130.769043,4124.743652,4242.563965,4159.615234,4141.153809,4126.282227,4615.512695,4422.692383,4362.692383,4496.794922,4837.000000,3.000000,74.000000,,,,0.000000,4.000000,4.000000,4.000000,4.000000,4.000000,4.000000,2.000000,4.000000,4.000000,4.000000,4.000000,4.000000,4.000000,4.000000,83.333336,,,,,,,,,,,,,,,,,,,,,,,,,,,,
1702803414.243728,1702803414.595765,72.000000,0.000000,4172.307617,4138.717773,4275.000000,4226.410156,4135.256348,4126.410156,4240.769043,4150.897461,4133.846191,4133.589844,4621.410156,4435.897461,4370.384766,4501.538574,5116.000000,3.000000,74.000000,,,,0.000000,4.000000,4.000000,4.000000,4.000000,4.000000,4.000000,2.000000,4.000000,4.000000,4.000000,4.000000,4.000000,4.000000,4.000000,83.333336,,,,,,,,,,,,,,,,,18.000000,0.000000,0.718310,0.174988,-0.650696,0.173218,1.000122,0.022952,0.087413,-5.263524,15.413880,98.439178
1702803414.251536,1702803414.603573,73.000000,0.000000,4196.025879,4163.846191,4291.025879,4245.128418,4140.512695,4120.256348,4241.794922,4136.794922,4126.153809,4134.871582,4635.769043,4440.128418,4375.000000,4515.897461,5223.000000,3.000000,74.000000,,,,0.000000,4.000000,4.000000,4.000000,4.000000,4.000000,4.000000,2.000000,4.000000,4.000000,4.000000,4.000000,4.000000,4.000000,4.000000,83.333336,,,,,,,,,,,,,,,,,,,,,,,,,,,,
1702803414.259344,1702803414.611282,74.000000,0.000000,4193.077148,4166.538574,4297.179688,4249.358887,4143.205078,4117.948730,4242.436035,4134.102539,4125.897461,4134.358887,4640.384766,4441.794922,4377.563965,4521.282227,5796.000000,3.000000,74.000000,,,,0.000000,4.000000,4.000000,4.000000,4.000000,4.000000,4.000000,2.000000,4.000000,4.000000,4.000000,4.000000,4.000000,4.000000,4.000000,83.333336,,,,,,,,,,,,,,,,,,,,,,,,,,,,
1702803414.267152,1702803414.619090,75.000000,0.000000,4183.589844,4161.922852,4292.563965,4246.153809,4147.692383,4123.333496,4239.358887,4126.922852,4124.102539,4138.461426,4634.102539,4443.205078,4381.410156,4519.230957,5845.000000,3.000000,74.000000,,,,0.000000,4.000000,4.000000,4.000000,4.000000,4.000000,4.000000,2.000000,4.000000,4.000000,4.000000,4.000000,4.000000,4.000000,4.000000,83.333336,,,,,,,,,,,,,,,,,,,,,,,,,,,,
1702803414.274960,1702803414.626798,76.000000,0.000000,4185.897461,4162.307617,4288.461426,4245.641113,4153.589844,4130.641113,4236.025879,4116.025879,4121.922852,4139.487305,4631.538574,4432.051270,4379.871582,4516.922852,6758.000000,3.000000,74.000000,,,,0.000000,4.000000,4.000000,4.000000,4.000000,4.000000,4.000000,2.000000,4.000000,4.000000,4.000000,4.000000,4.000000,4.000000,4.000000,83.333336,,,,,,,,,,,,,,,,,19.000000,0.000000,0.718447,0.174988,-0.650513,0.173340,0.988890,0.017580,0.105970,-5.120504,15.505826,98.278595
1702803414.282769,1702803414.634706,77.000000,0.000000,4185.512695,4160.256348,4286.666504,4245.512695,4155.769043,4136.410156,4239.358887,4118.333496,4125.641113,4141.794922,4633.333496,4425.128418,4378.589844,4517.820313,6885.000000,3.000000,74.000000,,,,0.000000,4.000000,4.000000,4.000000,4.000000,4.000000,4.000000,2.000000,4.000000,4.000000,4.000000,4.000000,4.000000,4.000000,4.000000,83.333336,,,,,,,,,,,,,,,,,,,,,,,,,,,,
1702803414.290577,1702803414.642515,78.000000,0.000000,4182.820313,4156.025879,4284.102539,4236.538574,4151.794922,4133.846191,4244.871582,4124.230957,4120.512695,4145.641113,4630.128418,4436.282227,4378.974121,4521.794922,5796.000000,3.000000,74.000000,,,,0.000000,4.000000,4.000000,4.000000,4.000000,4.000000,4.000000,2.000000,4.000000,4.000000,4.000000,4.000000,4.000000,4.000000,4.000000,83.333336,,,,,,,,,,,,,,,,,,,,,,,,,,,,
1702803414.298385,1702803414.650323,79.000000,0.000000,4184.615234,4152.051270,4286.282227,4231.794922,4143.589844,4129.102539,4245.641113,4132.051270,4117.436035,4142.051270,4632.692383,4444.358887,4376.922852,4521.666504,5845.000000,3.000000,74.000000,,,,0.000000,4.000000,4.000000,4.000000,4.000000,4.000000,4.000000,2.000000,4.000000,4.000000,4.000000,4.000000,4.000000,4.000000,4.000000,83.333336,,,,,,,,,,,,,,,,,,,,,,,,,,,,
1702803414.306193,1702803414.658031,80.000000,0.000000,4177.307617,4140.512695,4286.922852,4230.000000,4136.666504,4123.974121,4243.846191,4147.051270,4127.948730,4129.615234,4637.051270,4429.871582,4371.025879,4508.717773,6758.000000,3.000000,74.000000,,,,0.000000,4.000000,4.000000,4.000000,4.000000,4.000000,4.000000,2.000000,4.000000,4.000000,4.000000,4.000000,4.000000,4.000000,4.000000,83.333336,,,,,,,,,,,,,,,,,20.000000,0.000000,0.718351,0.174805,-0.650635,0.173462,1.005005,0.022464,0.093273,-5.258454,15.421909,98.300735
1702803414.314001,1702803414.665839,81.000000,0.000000,4173.846191,4136.794922,4285.128418,4225.641113,4138.077148,4121.282227,4243.077148,4160.641113,4139.743652,4129.358887,4642.307617,4426.410156,4375.000000,4507.948730,6885.000000,3.000000,74.000000,,,,0.000000,4.000000,4.000000,4.000000,4.000000,4.000000,4.000000,2.000000,4.000000,4.000000,4.000000,4.000000,4.000000,4.000000,4.000000,83.333336,,,,,,,,,,,,,,,,,,,,,,,,,,,,
1702803414.321809,1702803414.673547,82.000000,0.000000,4184.358887,4145.512695,4289.230957,4227.307617,4139.230957,4124.358887,4243.589844,4163.974121,4148.077148,4144.487305,4651.282227,4449.743652,4387.436035,4524.102539,5796.000000,3.000000,74.000000,,,,0.000000,4.000000,4.000000,4.000000,4.000000,4.000000,4.000000,2.000000,4.000000,4.000000,4.000000,4.000000,4.000000,4.000000,4.000000,83.333336,,,,,,,,,,,,,,,,,,,,,,,,,,,,
1702803414.329617,1702803414.681455,83.000000,0.000000,4183.461426,4146.025879,4290.769043,4226.922852,4138.589844,4121.922852,4240.641113,4157.051270,4146.794922,4147.179688,4653.333496,4458.205078,4387.948730,4524.743652,5845.000000,3.000000,74.000000,,,,0.000000,4.000000,4.000000,4.000000,4.000000,4.000000,4.000000,2.000000,4.000000,4.000000,4.000000,4.000000,4.000000,4.000000,4.000000,83.333336,,,,,,,,,,,,,,,,,,,,,,,,,,,,
1702803414.337425,1702803414.689263,84.000000,0.000000,4177.436035,4149.743652,4292.692383,4228.589844,4146.025879,4120.641113,4235.384766,4149.487305,4139.743652,4143.077148,4650.000000,4452.307617,4388.717773,4521.153809,6758.000000,3.000000,74.000000,,,,0.000000,4.000000,4.000000,4.000000,4.000000,4.000000,4.000000,2.000000,4.000000,4.000000,4.000000,4.000000,4.000000,4.000000,4.000000,83.333336,,,,,,,,,,,,,,,,,21.000000,0.000000,0.718337,0.174805,-0.650635,0.173523,0.996215,0.020022,0.098645,-5.265942,15.446385,98.387329
1702803414.345233,1702803414.697071,85.000000,0.000000,4182.179688,4159.230957,4294.358887,4237.820313,4152.051270,4122.563965,4233.717773,4138.846191,4126.666504,4138.461426,4640.128418,4445.769043,4386.282227,4519.871582,6885.000000,3.000000,74.000000,,,,0.000000,4.000000,4.000000,4.000000,4.000000,4.000000,4.000000,2.000000,4.000000,4.000000,4.000000,4.000000,4.000000,4.000000,4.000000,83.333336,,,,,,,,,,,,,,,,,,,,,,,,,,,,
1702803414.353041,1702803414.704779,86.000000,0.000000,4186.538574,4157.307617,4290.000000,4239.743652,4150.897461,4122.436035,4233.333496,4124.487305,4116.666504,4130.512695,4630.512695,4433.077148,4371.538574,4510.256348,5796.000000,3.000000,74.000000,,,,0.000000,4.000000,4.000000,4.000000,4.000000,4.000000,4.000000,2.000000,4.000000,4.000000,4.000000,4.000000,4.000000,4.000000,4.000000,83.333336,,,,,,,,,,,,,,,,,,,,,,,,,,,,
1702803414.360849,1702803414.712688,87.000000,0.000000,4184.487305,4152.692383,4286.282227,4229.230957,4150.384766,4125.769043,4233.077148,4116.410156,4120.512695,4131.538574,4627.820313,4421.153809,4366.153809,4502.179688,5845.000000,3.000000,74.000000,,,,0.000000,4.000000,4.000000,4.000000,4.000000,4.000000,4.000000,2.000000,4.000000,4.000000,4.000000,4.000000,4.000000,4.000000,4.000000,83.333336,,,,,,,,,,,,,,,,,,,,,,,,,,,,
1702803414.368657,1702803414.720496,88.000000,0.000000,4175.897461,4143.589844,4280.000000,4219.487305,4148.589844,4124.358887,4234.102539,4106.153809,4114.871582,4134.743652,4618.205078,4412.051270,4369.358887,4495.000000,6758.000000,3.000000,74.000000,,,,0.000000,4.000000,4.000000,4.000000,4.000000,4.000000,4.000000,2.000000,4.000000,4.000000,4.000000,4.000000,4.000000,4.000000,4.000000,83.333336,,,,,,,,,,,,,,,,,22.000000,0.000000,0.718396,0.174683,-0.650635,0.173401,0.997680,0.021487,0.085948,-5.106014,15.418413,98.465263
1702803414.376465,1702803414.728404,89.000000,0.000000,4175.512695,4138.974121,4278.461426,4226.794922,4148.846191,4127.692383,4235.512695,4105.384766,4112.307617,4140.128418,4622.563965,4421.538574,4376.282227,4499.102539,6885.000000,3.000000,74.000000,,,,0.000000,4.000000,4.000000,4.000000,4.000000,4.000000,4.000000,2.000000,4.000000,4.000000,4.000000,4.000000,4.000000,4.000000,4.000000,83.333336,,,,,,,,,,,,,,,,,,,,,,,,,,,,
1702803414.384273,1702803414.736212,90.000000,0.000000,4180.897461,4147.436035,4283.077148,4231.410156,4147.692383,4133.846191,4236.666504,4126.794922,4129.743652,4143.205078,4638.333496,4439.358887,4380.512695,4509.871582,5796.000000,3.000000,74.000000,,,,0.000000,4.000000,4.000000,4.000000,4.000000,4.000000,4.000000,2.000000,4.000000,4.000000,4.000000,4.000000,4.000000,4.000000,4.000000,83.333336,1.000000,66.666664,4.000000,4.000000,4.000000,4.000000,4.000000,4.000000,0.000000,4.000000,4.000000,4.000000,4.000000,4.000000,4.000000,4.000000,,,,,,,,,,,,
1702803414.392082,1702803414.744120,91.000000,0.000000,4180.512695,4146.922852,4279.615234,4220.769043,4141.794922,4127.307617,4235.256348,4141.282227,4137.563965,4135.769043,4627.179688,4437.820313,4375.384766,4509.102539,5845.000000,3.000000,74.000000,,,,0.000000,4.000000,4.000000,4.000000,4.000000,4.000000,4.000000,2.000000,4.000000,4.000000,4.000000,4.000000,4.000000,4.000000,4.000000,83.333336,,,,,,,,,,,,,,,,,,,,,,,,,,,,
1702803414.399890,1702803414.751928,92.000000,0.000000,4181.153809,4141.282227,4275.256348,4222.179688,4137.820313,4121.666504,4234.487305,4141.410156,4136.794922,4132.692383,4622.179688,4435.000000,4376.922852,4511.666504,6758.000000,3.000000,74.000000,,,,0.000000,4.000000,4.000000,4.000000,4.000000,4.000000,4.000000,2.000000,4.000000,4.000000,4.000000,4.000000,4.000000,4.000000,4.000000,83.333336,,,,,,,,,,,,,,,,,23.000000,0.000000,0.718396,0.174622,-0.650635,0.173462,0.991332,0.016604,0.091320,-5.162080,15.543239,98.552071
1702803414.407698,1702803414.759836,93.000000,0.000000,4178.077148,4144.871582,4274.358887,4228.333496,4140.128418,4118.974121,4234.102539,4143.589844,4138.461426,4127.436035,4631.410156,4431.282227,4374.487305,4508.717773,6885.000000,3.000000,74.000000,,,,0.000000,4.000000,4.000000,4.000000,4.000000,4.000000,4.000000,2.000000,4.000000,4.000000,4.000000,4.000000,4.000000,4.000000,4.000000,83.333336,,,,,,,,,,,,,,,,,,,,,,,,,,,,
1702803414.415506,1702803414.767645,94.000000,0.000000,4176.410156,4152.820313,4275.512695,4228.205078,4144.615234,4117.179688,4232.307617,4146.282227,4137.051270,4125.256348,4625.000000,4416.666504,4367.820313,4499.230957,5796.000000,3.000000,74.000000,,,,0.000000,4.000000,4.000000,4.000000,4.000000,4.000000,4.000000,2.000000,4.000000,4.000000,4.000000,4.000000,4.000000,4.000000,4.000000,83.333336,,,,,,,,,,,,,,,,,,,,,,,,,,,,
1702803414.423314,1702803414.775553,95.000000,0.000000,4178.205078,4148.589844,4278.205078,4228.974121,4142.948730,4120.256348,4232.820313,4139.358887,4130.128418,4136.025879,4620.641113,4413.974121,4371.410156,4502.692383,5845.000000,3.000000,74.000000,,,,0.000000,4.000000,4.000000,4.000000,4.000000,4.000000,4.000000,2.000000,4.000000,4.000000,4.000000,4.000000,4.000000,4.000000,4.000000,83.333336,,,,,,,,,,,,,,,,,,,,,,,,,,,,
1702803414.431122,1702803414.783361,96.000000,0.000000,4179.743652,4142.820313,4280.769043,4230.512695,4144.615234,4125.512695,4232.948730,4129.102539,4126.794922,4139.871582,4631.538574,4432.563965,4375.897461,4512.051270,6758.000000,3.000000,74.000000,,,,0.000000,4.000000,4.000000,4.000000,4.000000,4.000000,4.000000,2.000000,4.000000,4.000000,4.000000,4.000000,4.000000,4.000000,4.000000,83.333336,,,,,,,,,,,,,,,,,24.000000,0.000000,0.718396,0.174622,-0.650635,0.173462,0.981077,0.014162,0.088878,-5.295872,15.572248,98.713524
1702803414.438930,1702803414.791069,97.000000,0.000000,4189.743652,4157.307617,4292.436035,4240.641113,4153.461426,4134.615234,4233.461426,4128.974121,4135.000000,4141.794922,4637.820313,4453.077148,4382.307617,4521.538574,6885.000000,3.000000,74.000000,,,,0.000000,4.000000,4.000000,4.000000,4.000000,4.000000,4.000000,2.000000,4.000000,4.000000,4.000000,4.000000,4.000000,4.000000,4.000000,83.333336,,,,,,,,,,,,,,,,,,,,,,,,,,,,
1702803414.446738,1702803414.798878,98.000000,0.000000,4194.102539,4161.410156,4296.538574,4239.871582,4154.743652,4133.846191,4235.641113,4125.384766,4136.538574,4146.410156,4630.897461,4446.666504,4386.153809,4523.205078,5796.000000,3.000000,74.000000,,,,0.000000,4.000000,4.000000,4.000000,4.000000,4.000000,4.000000,2.000000,4.000000,4.000000,4.000000,4.000000,4.000000,4.000000,4.000000,83.333336,,,,,,,,,,,,,,,,,,,,,,,,,,,,
1702803414.454546,1702803414.806586,99.000000,0.000000,4192.179688,4156.282227,4290.384766,4233.205078,4155.384766,4123.974121,4233.974121,4117.820313,4130.256348,4151.025879,4639.230957,4435.769043,4389.487305,4523.461426,5845.000000,3.000000,74.000000,,,,0.000000,4.000000,4.000000,4.000000,4.000000,4.000000,4.000000,2.000000,4.000000,4.000000,4.000000,4.000000,4.000000,4.000000,4.000000,83.333336,,,,,,,,,,,,,,,,,,,,,,,,,,,,
1702803414.462354,1702803414.814394,100.000000,0.000000,4188.333496,4162.436035,4286.153809,4239.615234,4154.358887,4123.461426,4230.641113,4117.307617,4124.358887,4150.641113,4643.846191,4435.512695,4389.230957,4524.743652,6758.000000,3.000000,74.000000,,,,0.000000,4.000000,4.000000,4.000000,4.000000,4.000000,4.000000,2.000000,4.000000,4.000000,4.000000,4.000000,4.000000,4.000000,4.000000,83.333336,,,,,,,,,,,,,,,,,25.000000,0.000000,0.718352,0.174683,-0.650635,0.173584,0.981565,0.023929,0.095226,-5.216284,15.665024,98.625511
1702803414.470162,1702803414.822102,101.000000,0.000000,4171.538574,4150.641113,4270.256348,4229.358887,4145.128418,4122.692383,4233.461426,4118.589844,4114.743652,4130.897461,4619.743652,4416.153809,4372.051270,4509.871582,6885.000000,3.000000,74.000000,,,,0.000000,4.000000,4.000000,4.000000,4.000000,4.000000,4.000000,2.000000,4.000000,4.000000,4.000000,4.000000,4.000000,4.000000,4.000000,83.333336,,,,,,,,,,,,,,,,,,,,,,,,,,,,
1702803414.477970,1702803414.829911,102.000000,0.000000,4165.641113,4135.897461,4262.307617,4215.000000,4141.025879,4122.948730,4239.871582,4130.384766,4117.563965,4121.025879,4612.307617,4409.871582,4367.948730,4502.563965,5796.000000,3.000000,74.000000,,,,0.000000,4.000000,4.000000,4.000000,4.000000,4.000000,4.000000,2.000000,4.000000,4.000000,4.000000,4.000000,4.000000,4.000000,4.000000,83.333336,,,,,,,,,,,,,,,,,,,,,,,,,,,,
1702803414.485778,1702803414.837619,103.000000,0.000000,4176.410156,4141.794922,4273.589844,4221.025879,4142.563965,4123.717773,4240.256348,4141.666504,4125.384766,4129.743652,4626.153809,4427.563965,4376.282227,4510.000000,5845.000000,3.000000,74.000000,,,,0.000000,4.000000,4.000000,4.000000,4.000000,4.000000,4.000000,2.000000,4.000000,4.000000,4.000000,4.000000,4.000000,4.000000,4.000000,83.333336,,,,,,,,,,,,,,,,,,,,,,,,,,,,
1702803414.493587,1702803414.845427,104.000000,0.000000,4185.512695,4153.846191,4283.589844,4231.282227,4144.358887,4119.230957,4235.897461,4140.000000,4121.794922,4133.589844,4635.128418,4435.384766,4378.974121,4517.820313,6758.000000,3.000000,74.000000,,,,0.000000,4.000000,4.000000,4.000000,4.000000,4.000000,4.000000,2.000000,4.000000,4.000000,4.000000,4.000000,4.000000,4.000000,4.000000,83.333336,,,,,,,,,,,,,,,,,26.000000,0.000000,0.718285,0.174683,-0.650757,0.173401,0.978147,0.020510,0.092296,-5.127989,15.681854,98.696289
1702803414.501395,1702803414.853135,105.000000,0.000000,4196.410156,4165.897461,4293.589844,4239.487305,4146.666504,4120.256348,4234.743652,4141.153809,4122.692383,4140.641113,4649.487305,4446.410156,4396.410156,4531.025879,6885.000000,3.000000,74.000000,,,,0.000000,4.000000,4.000000,4.000000,4.000000,4.000000,4.000000,2.000000,4.000000,4.000000,4.000000,4.000000,4.000000,4.000000,4.000000,83.333336,,,,,,,,,,,,,,,,,,,,,,,,,,,,
1702803414.509203,1702803414.861043,106.000000,0.000000,4200.897461,4167.692383,4295.769043,4245.128418,4147.692383,4118.077148,4234.102539,4138.589844,4123.846191,4145.897461,4657.692383,4458.333496,4406.794922,4538.717773,5796.000000,3.000000,74.000000,,,,0.000000,4.000000,4.000000,4.000000,4.000000,4.000000,4.000000,2.000000,4.000000,4.000000,4.000000,4.000000,4.000000,4.000000,4.000000,83.333336,,,,,,,,,,,,,,,,,,,,,,,,,,,,
1702803414.517011,1702803414.868851,107.000000,0.000000,4199.615234,4169.102539,4292.436035,4252.179688,4148.333496,4116.794922,4232.820313,4133.589844,4127.179688,4144.230957,4653.846191,4460.641113,4399.871582,4540.512695,5845.000000,3.000000,74.000000,,,,0.000000,4.000000,4.000000,4.000000,4.000000,4.000000,4.000000,2.000000,4.000000,4.000000,4.000000,4.000000,4.000000,4.000000,4.000000,83.333336,,,,,,,,,,,,,,,,,,,,,,,,,,,,
1702803414.524819,1702803414.876660,108.000000,0.000000,4197.563965,4172.436035,4294.487305,4246.666504,4146.922852,4118.846191,4235.000000,4132.692383,4140.256348,4145.384766,4650.000000,4455.000000,4397.563965,4537.307617,6758.000000,3.000000,74.000000,,,,0.000000,4.000000,4.000000,4.000000,4.000000,4.000000,4.000000,2.000000,4.000000,4.000000,4.000000,4.000000,4.000000,4.000000,4.000000,83.333336,,,,,,,,,,,,,,,,,27.000000,0.000000,0.718189,0.174683,-0.650879,0.173340,0.995239,0.025882,0.094738,-5.115191,15.680336,98.576660
1702803414.532627,1702803414.884368,109.000000,0.000000,4197.948730,4170.897461,4301.025879,4238.333496,4149.871582,4118.461426,4235.769043,4132.179688,4147.051270,4148.461426,4650.000000,4448.846191,4397.563965,4528.333496,6885.000000,3.000000,74.000000,,,,0.000000,4.000000,4.000000,4.000000,4.000000,4.000000,4.000000,2.000000,4.000000,4.000000,4.000000,4.000000,4.000000,4.000000,4.000000,83.333336,,,,,,,,,,,,,,,,,,,,,,,,,,,,
1702803414.540435,1702803414.892176,110.000000,0.000000,4206.538574,4174.743652,4307.436035,4250.000000,4153.846191,4125.256348,4233.846191,4131.410156,4141.922852,4151.153809,4659.871582,4454.487305,4402.820313,4536.025879,5796.000000,3.000000,74.000000,,,,0.000000,4.000000,4.000000,4.000000,4.000000,4.000000,4.000000,2.000000,4.000000,4.000000,4.000000,4.000000,4.000000,4.000000,4.000000,83.333336,,,,,,,,,,,,,,,,,,,,,,,,,,,,
1702803414.548243,1702803414.899884,111.000000,0.000000,4199.102539,4166.153809,4294.871582,4244.487305,4145.641113,4123.205078,4231.282227,4119.743652,4119.487305,4137.051270,4645.000000,4445.769043,4393.717773,4534.230957,5845.000000,3.000000,74.000000,,,,0.000000,4.000000,4.000000,4.000000,4.000000,4.000000,4.000000,2.000000,4.000000,4.000000,4.000000,4.000000,4.000000,4.000000,4.000000,83.333336,,,,,,,,,,,,,,,,,,,,,,,,,,,,
1702803414.556051,1702803414.907692,112.000000,0.000000,4182.051270,4149.615234,4277.692383,4223.717773,4138.717773,4119.615234,4229.487305,4116.538574,4101.922852,4120.000000,4617.179688,4430.384766,4374.615234,4512.436035,6758.000000,3.000000,74.000000,,,,0.000000,4.000000,4.000000,4.000000,4.000000,4.000000,4.000000,2.000000,4.000000,4.000000,4.000000,4.000000,4.000000,4.000000,4.000000,83.333336,,,,,,,,,,,,,,,,,28.000000,0.000000,0.718248,0.174561,-0.650879,0.173218,0.980100,0.019045,0.092296,-5.137005,15.678968,98.635666
1702803414.563859,1702803414.915400,113.000000,0.000000,4177.436035,4143.077148,4276.922852,4220.641113,4138.077148,4127.179688,4231.922852,4135.641113,4111.025879,4117.179688,4625.128418,4433.205078,4373.846191,4505.256348,6885.000000,3.000000,74.000000,,,,0.000000,4.000000,4.000000,4.000000,4.000000,4.000000,4.000000,2.000000,4.000000,4.000000,4.000000,4.000000,4.000000,4.000000,4.000000,83.333336,,,,,,,,,,,,,,,,,,,,,,,,,,,,
1702803414.571667,1702803414.923308,114.000000,0.000000,4176.794922,4140.769043,4277.692383,4222.692383,4137.307617,4125.641113,4234.871582,4147.307617,4123.205078,4114.743652,4630.641113,4435.897461,4376.922852,4512.179688,5796.000000,3.000000,74.000000,,,,0.000000,4.000000,4.000000,4.000000,4.000000,4.000000,4.000000,2.000000,4.000000,4.000000,4.000000,4.000000,4.000000,4.000000,4.000000,83.333336,,,,,,,,,,,,,,,,,,,,,,,,,,,,
1702803414.579476,1702803414.931116,115.000000,0.000000,4186.410156,4152.179688,4282.051270,4230.128418,4140.256348,4123.846191,4234.358887,4149.358887,4135.769043,4125.641113,4628.589844,4444.615234,4384.871582,4523.077148,5845.000000,3.000000,74.000000,,,,0.000000,4.000000,4.000000,4.000000,4.000000,4.000000,4.000000,2.000000,4.000000,4.000000,4.000000,4.000000,4.000000,4.000000,4.000000,83.333336,,,,,,,,,,,,,,,,,,,,,,,,,,,,
1702803414.587283,1702803414.939024,116.000000,0.000000,4195.384766,4159.230957,4286.025879,4230.641113,4140.256348,4122.948730,4230.641113,4144.743652,4144.358887,4138.205078,4640.641113,4453.717773,4393.461426,4527.436035,6758.000000,3.000000,74.000000,,,,0.000000,4.000000,4.000000,4.000000,4.000000,4.000000,4.000000,2.000000,4.000000,4.000000,4.000000,4.000000,4.000000,4.000000,4.000000,83.333336,,,,,,,,,,,,,,,,,29.000000,0.000000,0.718208,0.174438,-0.650940,0.173279,1.001587,0.021487,0.076670,-5.023304,15.511072,98.638763
1702803414.595092,1702803414.946832,117.000000,0.000000,4192.820313,4151.666504,4286.538574,4224.743652,4138.077148,4117.563965,4227.179688,4133.461426,4141.794922,4136.666504,4649.358887,4450.128418,4395.000000,4527.820313,6885.000000,3.000000,74.000000,,,,0.000000,4.000000,4.000000,4.000000,4.000000,4.000000,4.000000,2.000000,4.000000,4.000000,4.000000,4.000000,4.000000,4.000000,4.000000,83.333336,,,,,,,,,,,,,,,,,,,,,,,,,,,,
1702803414.602900,1702803414.954741,118.000000,0.000000,4192.307617,4151.666504,4290.897461,4234.871582,4137.948730,4117.051270,4226.666504,4130.128418,4140.641113,4132.179688,4641.025879,4448.205078,4391.410156,4532.307617,5796.000000,3.000000,74.000000,,,,0.000000,4.000000,4.000000,4.000000,4.000000,4.000000,4.000000,2.000000,4.000000,4.000000,4.000000,4.000000,4.000000,4.000000,4.000000,83.333336,,,,,,,,,,,,,,,,,,,,,,,,,,,,
1702803414.610708,1702803414.962549,119.000000,0.000000,4196.153809,4157.436035,4289.743652,4241.153809,4141.538574,4116.538574,4228.461426,4128.333496,4133.974121,4123.333496,4629.615234,4447.948730,4381.922852,4528.077148,5845.000000,3.000000,74.000000,,,,0.000000,4.000000,4.000000,4.000000,4.000000,4.000000,4.000000,2.000000,4.000000,4.000000,4.000000,4.000000,4.000000,4.000000,4.000000,83.333336,,,,,,,,,,,,,,,,,,,,,,,,,,,,
1702803414.618516,1702803414.970457,120.000000,0.000000,4204.871582,4164.871582,4294.358887,4240.128418,4148.333496,4119.615234,4231.153809,4126.794922,4125.384766,4127.179688,4636.282227,4453.077148,4383.589844,4527.820313,6758.000000,3.000000,74.000000,,,,0.000000,4.000000,4.000000,4.000000,4.000000,4.000000,4.000000,2.000000,4.000000,4.000000,4.000000,4.000000,4.000000,4.000000,4.000000,83.333336,,,,,,,,,,,,,,,,,30.000000,0.000000,0.718193,0.174377,-0.650940,0.173401,0.991332,0.031742,0.081065,-5.020974,15.443298,98.558220
1702803414.626324,1702803414.978265,121.000000,0.000000,4206.922852,4165.256348,4299.743652,4242.051270,4149.487305,4122.307617,4230.512695,4124.487305,4118.717773,4137.179688,4634.102539,4452.563965,4386.922852,4532.051270,6885.000000,3.000000,74.000000,,,,0.000000,4.000000,4.000000,4.000000,4.000000,4.000000,4.000000,2.000000,4.000000,4.000000,4.000000,4.000000,4.000000,4.000000,4.000000,83.333336,,,,,,,,,,,,,,,,,,,,,,,,,,,,
1702803414.634132,1702803414.985973,122.000000,0.000000,4197.563965,4157.563965,4290.512695,4238.974121,4149.230957,4124.358887,4230.897461,4118.461426,4114.615234,4131.282227,4624.871582,4441.153809,4382.307617,4528.717773,5796.000000,3.000000,74.000000,,,,0.000000,4.000000,4.000000,4.000000,4.000000,4.000000,4.000000,2.000000,4.000000,4.000000,4.000000,4.000000,4.000000,4.000000,4.000000,83.333336,,,,,,,,,,,,,,,,,,,,,,,,,,,,
1702803414.641940,1702803414.993882,123.000000,0.000000,4189.743652,4152.563965,4280.000000,4231.282227,4147.051270,4130.128418,4233.717773,4119.615234,4115.897461,4123.205078,4629.487305,4437.179688,4379.230957,4523.077148,5845.000000,3.000000,74.000000,,,,0.000000,4.000000,4.000000,4.000000,4.000000,4.000000,4.000000,2.000000,4.000000,4.000000,4.000000,4.000000,4.000000,4.000000,4.000000,83.333336,,,,,,,,,,,,,,,,,,,,,,,,,,,,
1702803414.649748,1702803415.001690,124.000000,0.000000,4183.846191,4143.205078,4273.717773,4222.051270,4141.794922,4123.205078,4233.205078,4126.538574,4110.641113,4118.077148,4626.794922,4434.358887,4372.307617,4517.179688,6758.000000,3.000000,74.000000,,,,0.000000,4.000000,4.000000,4.000000,4.000000,4.000000,4.000000,2.000000,4.000000,4.000000,4.000000,4.000000,4.000000,4.000000,4.000000,83.333336,,,,,,,,,,,,,,,,,31.000000,0.000000,0.718164,0.174500,-0.650940,0.173401,0.991332,0.021487,0.089366,-4.902210,15.615635,98.635735
1702803414.657556,1702803415.009498,125.000000,0.000000,4181.538574,4141.410156,4277.820313,4225.512695,4141.794922,4118.205078,4231.282227,4137.820313,4115.128418,4121.410156,4625.000000,4441.410156,4374.487305,4523.846191,6885.000000,3.000000,74.000000,,,,0.000000,4.000000,4.000000,4.000000,4.000000,4.000000,4.000000,2.000000,4.000000,4.000000,4.000000,4.000000,4.000000,4.000000,4.000000,83.333336,,,,,,,,,,,,,,,,,,,,,,,,,,,,
1702803414.665364,1702803415.017206,126.000000,0.000000,4180.256348,4143.846191,4283.333496,4231.410156,4140.512695,4120.128418,4232.179688,4146.410156,4126.794922,4128.077148,4629.230957,4455.897461,4379.358887,4532.820313,5796.000000,3.000000,74.000000,,,,0.000000,4.000000,4.000000,4.000000,4.000000,4.000000,4.000000,2.000000,4.000000,4.000000,4.000000,4.000000,4.000000,4.000000,4.000000,83.333336,,,,,,,,,,,,,,,,,,,,,,,,,,,,
1702803414.673172,1702803415.025014,127.000000,0.000000,4183.974121,4141.025879,4286.153809,4229.487305,4141.025879,4116.282227,4233.077148,4148.333496,4130.897461,4127.051270,4635.512695,4458.461426,4378.717773,4534.487305,74.000000,3.000000,74.000000,,,,0.000000,4.000000,4.000000,4.000000,4.000000,4.000000,4.000000,2.000000,4.000000,4.000000,4.000000,4.000000,4.000000,4.000000,4.000000,83.333336,,,,,,,,,,,,,,,,,,,,,,,,,,,,
1702803414.680981,1702803415.032722,0.000000,0.000000,4196.153809,4150.641113,4295.128418,4234.230957,4146.666504,4118.333496,4233.205078,4150.897461,4141.922852,4132.820313,4649.743652,4460.641113,4389.102539,4543.461426,5197.000000,3.000000,74.000000,,,,0.000000,4.000000,4.000000,4.000000,4.000000,4.000000,4.000000,2.000000,4.000000,4.000000,4.000000,4.000000,4.000000,4.000000,4.000000,83.333336,,,,,,,,,,,,,,,,,0.000000,0.000000,0.718234,0.174561,-0.650879,0.173279,0.995727,0.024417,0.096691,-4.811989,15.820738,98.605492
1702803414.688789,1702803415.040530,1.000000,0.000000,4194.615234,4155.128418,4291.666504,4231.538574,4148.461426,4120.512695,4228.974121,4141.666504,4143.461426,4139.230957,4654.358887,4460.384766,4391.922852,4542.692383,5407.000000,3.000000,74.000000,,,,0.000000,4.000000,4.000000,4.000000,4.000000,4.000000,4.000000,2.000000,4.000000,4.000000,4.000000,4.000000,4.000000,4.000000,4.000000,83.333336,,,,,,,,,,,,,,,,,,,,,,,,,,,,
1702803414.696597,1702803415.048238,2.000000,0.000000,4191.410156,4151.666504,4285.384766,4227.820313,4147.692383,4120.256348,4224.358887,4131.282227,4136.922852,4145.256348,4653.461426,4462.307617,4393.717773,4539.102539,4756.000000,3.000000,74.000000,,,,0.000000,4.000000,4.000000,4.000000,4.000000,4.000000,4.000000,2.000000,4.000000,4.000000,4.000000,4.000000,4.000000,4.000000,4.000000,83.333336,,,,,,,,,,,,,,,,,,,,,,,,,,,,
1702803414.704405,1702803415.056046,3.000000,0.000000,4194.487305,4156.410156,4290.641113,4236.794922,4144.358887,4122.563965,4228.717773,4130.512695,4132.563965,4148.333496,4647.436035,4461.666504,4400.769043,4541.282227,5235.000000,3.000000,74.000000,,,,0.000000,4.000000,4.000000,4.000000,4.000000,4.000000,4.000000,2.000000,4.000000,4.000000,4.000000,4.000000,4.000000,4.000000,4.000000,83.333336,,,,,,,,,,,,,,,,,,,,,,,,,,,,
1702803414.712213,1702803415.063754,4.000000,0.000000,4186.153809,4155.769043,4288.077148,4236.153809,4146.538574,4126.025879,4234.102539,4127.820313,4120.000000,4140.128418,4637.692383,4447.436035,4391.538574,4530.641113,5100.000000,3.000000,74.000000,,,,0.000000,4.000000,4.000000,4.000000,4.000000,4.000000,4.000000,2.000000,4.000000,4.000000,4.000000,4.000000,4.000000,4.000000,4.000000,83.333336,,,,,,,,,,,,,,,,,1.000000,0.000000,0.718319,0.174561,-0.650818,0.173157,0.981565,0.010743,0.088878,-4.780790,15.755331,98.611610
1702803414.720021,1702803415.071562,5.000000,0.000000,4189.358887,4154.102539,4285.384766,4232.563965,4154.102539,4133.077148,4235.256348,4130.000000,4119.358887,4142.436035,4652.820313,4446.538574,4390.000000,4527.948730,5098.000000,3.000000,74.000000,,,,0.000000,4.000000,4.000000,4.000000,4.000000,4.000000,4.000000,2.000000,4.000000,4.000000,4.000000,4.000000,4.000000,4.000000,4.000000,83.333336,,,,,,,,,,,,,,,,,,,,,,,,,,,,
1702803414.727829,1702803415.079270,6.000000,0.000000,4200.897461,4158.077148,4288.333496,4233.461426,4150.641113,4128.846191,4235.128418,4135.512695,4128.461426,4142.436035,4660.384766,4454.230957,4399.102539,4538.589844,1362.000000,3.000000,74.000000,,,,0.000000,4.000000,4.000000,4.000000,4.000000,4.000000,4.000000,2.000000,4.000000,4.000000,4.000000,4.000000,4.000000,4.000000,4.000000,83.333336,,,,,,,,,,,,,,,,,,,,,,,,,,,,
1702803414.735637,1702803415.087178,7.000000,0.000000,4202.179688,4163.717773,4289.743652,4234.615234,4147.948730,4127.179688,4233.589844,4143.846191,4137.179688,4138.846191,4653.461426,4458.589844,4404.230957,4544.871582,4834.000000,3.000000,74.000000,,,,0.000000,4.000000,4.000000,4.000000,4.000000,4.000000,4.000000,2.000000,4.000000,4.000000,4.000000,4.000000,4.000000,4.000000,4.000000,83.333336,,,,,,,,,,,,,,,,,,,,,,,,,,,,
1702803414.743445,1702803415.094986,8.000000,0.000000,4198.717773,4160.256348,4289.358887,4234.358887,4151.794922,4134.743652,4233.077148,4152.179688,4146.410156,4147.307617,4661.794922,4463.589844,4405.512695,4545.128418,5118.000000,3.000000,74.000000,,,,0.000000,4.000000,4.000000,4.000000,4.000000,4.000000,4.000000,2.000000,4.000000,4.000000,4.000000,4.000000,4.000000,4.000000,4.000000,83.333336,,,,,,,,,,,,,,,,,2.000000,0.000000,0.718292,0.174622,-0.650879,0.172974,1.000610,0.026859,0.089366,-4.886044,15.746465,98.617111
1702803414.751253,1702803415.102895,9.000000,0.000000,4189.615234,4144.487305,4283.333496,4222.948730,4146.025879,4126.153809,4231.282227,4146.794922,4142.179688,4138.717773,4651.025879,4455.512695,4392.307617,4535.512695,5207.000000,3.000000,74.000000,,,,0.000000,4.000000,4.000000,4.000000,4.000000,4.000000,4.000000,2.000000,4.000000,4.000000,4.000000,4.000000,4.000000,4.000000,4.000000,83.333336,,,,,,,,,,,,,,,,,,,,,,,,,,,,
1702803414.759061,1702803415.110703,10.000000,0.000000,4187.948730,4147.307617,4284.871582,4220.641113,4141.410156,4119.230957,4227.436035,4143.461426,4136.666504,4126.153809,4637.692383,4453.077148,4387.948730,4533.205078,5799.000000,3.000000,74.000000,,,,0.000000,4.000000,4.000000,4.000000,4.000000,4.000000,4.000000,2.000000,4.000000,4.000000,4.000000,4.000000,4.000000,4.000000,4.000000,83.333336,,,,,,,,,,,,,,,,,,,,,,,,,,,,
1702803414.766869,1702803415.118611,11.000000,0.000000,4200.769043,4165.256348,4296.794922,4239.102539,4148.461426,4124.230957,4224.487305,4145.384766,4143.974121,4138.974121,4662.179688,4472.820313,4408.589844,4549.102539,5848.000000,3.000000,74.000000,,,,0.000000,4.000000,4.000000,4.000000,4.000000,4.000000,4.000000,2.000000,4.000000,4.000000,4.000000,4.000000,4.000000,4.000000,4.000000,83.333336,,,,,,,,,,,,,,,,,,,,,,,,,,,,
1702803414.774677,1702803415.126419,12.000000,0.000000,4211.922852,4172.051270,4301.794922,4253.461426,4155.769043,4120.384766,4221.794922,4138.974121,4152.307617,4159.487305,4681.538574,4488.077148,4425.769043,4565.769043,6730.000000,3.000000,74.000000,,,,0.000000,4.000000,4.000000,4.000000,4.000000,4.000000,4.000000,2.000000,4.000000,4.000000,4.000000,4.000000,4.000000,4.000000,4.000000,83.333336,,,,,,,,,,,,,,,,,3.000000,0.000000,0.718248,0.174866,-0.650879,0.172913,0.992309,0.013185,0.083995,-4.797440,15.688485,98.705406
1702803414.782486,1702803415.134327,13.000000,0.000000,4210.256348,4168.205078,4298.717773,4249.102539,4153.205078,4115.384766,4223.846191,4136.025879,4151.538574,4165.897461,4674.615234,4484.487305,4422.948730,4565.000000,6885.000000,3.000000,74.000000,,,,0.000000,4.000000,4.000000,4.000000,4.000000,4.000000,4.000000,2.000000,4.000000,4.000000,4.000000,4.000000,4.000000,4.000000,4.000000,83.333336,,,,,,,,,,,,,,,,,,,,,,,,,,,,
1702803414.790294,1702803415.142135,14.000000,0.000000,4200.641113,4157.563965,4293.846191,4234.871582,4147.436035,4116.153809,4226.666504,4137.820313,4138.846191,4154.743652,4662.948730,4469.358887,4407.820313,4547.307617,5799.000000,3.000000,74.000000,,,,0.000000,4.000000,4.000000,4.000000,4.000000,4.000000,4.000000,2.000000,4.000000,4.000000,4.000000,4.000000,4.000000,4.000000,4.000000,83.333336,,,,,,,,,,,,,,,,,,,,,,,,,,,,
1702803414.798102,1702803415.150044,15.000000,0.000000,4195.000000,4150.384766,4292.179688,4231.538574,4146.794922,4121.025879,4226.922852,4133.333496,4121.538574,4138.077148,4646.794922,4459.871582,4395.641113,4533.461426,5848.000000,3.000000,74.000000,,,,0.000000,4.000000,4.000000,4.000000,4.000000,4.000000,4.000000,2.000000,4.000000,4.000000,4.000000,4.000000,4.000000,4.000000,4.000000,83.333336,,,,,,,,,,,,,,,,,,,,,,,,,,,,
1702803414.805910,1702803415.157852,16.000000,0.000000,4189.871582,4146.025879,4289.615234,4233.974121,4145.641113,4127.948730,4231.922852,4128.717773,4110.769043,4128.589844,4633.589844,4458.461426,4390.000000,4529.487305,0.000000,3.000000,74.000000,,,,0.000000,4.000000,4.000000,4.000000,4.000000,4.000000,4.000000,2.000000,4.000000,4.000000,4.000000,4.000000,4.000000,4.000000,4.000000,83.333336,,,,,,,,,,,,,,,,,4.000000,0.000000,0.718163,0.174927,-0.650940,0.172974,0.993285,0.024417,0.091808,-4.851029,15.719636,98.701530
1702803414.813718,1702803415.165560,17.000000,0.000000,4186.666504,4142.179688,4285.128418,4230.897461,4144.358887,4136.025879,4239.358887,4135.641113,4119.102539,4131.666504,4642.051270,4460.897461,4391.153809,4532.563965,0.000000,3.000000,74.000000,,,,0.000000,4.000000,4.000000,4.000000,4.000000,4.000000,4.000000,2.000000,4.000000,4.000000,4.000000,4.000000,4.000000,4.000000,4.000000,83.333336,,,,,,,,,,,,,,,,,,,,,,,,,,,,
1702803414.821526,1702803415.173368,18.000000,0.000000,4185.256348,4140.384766,4280.769043,4223.846191,4146.666504,4141.538574,4241.025879,4148.077148,4141.666504,4140.512695,4657.563965,4464.358887,4393.589844,4538.846191,0.000000,3.000000,74.000000,,,,0.000000,4.000000,4.000000,4.000000,4.000000,4.000000,4.000000,2.000000,4.000000,4.000000,4.000000,4.000000,4.000000,4.000000,4.000000,83.333336,,,,,,,,,,,,,,,,,,,,,,,,,,,,
1702803414.829334,1702803415.181077,19.000000,0.000000,4174.743652,4131.538574,4269.871582,4211.794922,4147.179688,4137.179688,4237.820313,4151.153809,4148.077148,4139.230957,4651.794922,4455.000000,4387.948730,4533.717773,0.000000,3.000000,74.000000,,,,0.000000,4.000000,4.000000,4.000000,4.000000,4.000000,4.000000,2.000000,4.000000,4.000000,4.000000,4.000000,4.000000,4.000000,4.000000,83.333336,,,,,,,,,,,,,,,,,,,,,,,,,,,,
1702803414.837142,1702803415.188885,20.000000,0.000000,4170.384766,4126.794922,4267.307617,4213.846191,4146.282227,4131.153809,4235.256348,4146.025879,4137.179688,4137.820313,4642.820313,4443.077148,4387.692383,4526.410156,0.000000,3.000000,74.000000,,,,0.000000,4.000000,4.000000,4.000000,4.000000,4.000000,4.000000,2.000000,4.000000,4.000000,4.000000,4.000000,4.000000,4.000000,4.000000,83.333336,,,,,,,,,,,,,,,,,5.000000,0.000000,0.718148,0.174988,-0.650940,0.172974,0.985960,0.025394,0.100110,-4.832593,15.697673,98.764709
1702803414.844950,1702803415.196593,21.000000,0.000000,4185.897461,4136.025879,4282.820313,4230.897461,4144.615234,4126.666504,4236.025879,4142.948730,4135.384766,4144.230957,4649.743652,4452.436035,4400.641113,4540.128418,0.000000,3.000000,74.000000,,,,0.000000,4.000000,4.000000,4.000000,4.000000,4.000000,4.000000,2.000000,4.000000,4.000000,4.000000,4.000000,4.000000,4.000000,4.000000,83.333336,,,,,,,,,,,,,,,,,,,,,,,,,,,,
1702803414.852758,1702803415.204401,22.000000,0.000000,4201.153809,4147.692383,4297.436035,4240.384766,4148.205078,4119.871582,4234.871582,4145.000000,4142.436035,4149.871582,4663.333496,4475.256348,4416.410156,4567.307617,0.000000,3.000000,74.000000,,,,0.000000,4.000000,4.000000,4.000000,4.000000,4.000000,4.000000,2.000000,4.000000,4.000000,4.000000,4.000000,4.000000,4.000000,4.000000,83.333336,,,,,,,,,,,,,,,,,,,,,,,,,,,,
1702803414.860566,1702803415.212110,23.000000,0.000000,4205.256348,4158.077148,4302.692383,4244.358887,4157.179688,4118.077148,4227.307617,4145.641113,4141.410156,4155.897461,4680.897461,4490.128418,4430.128418,4581.025879,0.000000,3.000000,74.000000,,,,0.000000,4.000000,4.000000,4.000000,4.000000,4.000000,4.000000,2.000000,4.000000,4.000000,4.000000,4.000000,4.000000,4.000000,4.000000,83.333336,,,,,,,,,,,,,,,,,,,,,,,,,,,,
1702803414.868374,1702803415.219918,24.000000,0.000000,4198.205078,4158.461426,4295.256348,4241.410156,4158.205078,4118.974121,4220.384766,4136.282227,4133.461426,4156.666504,4682.948730,4480.128418,4429.871582,4568.461426,0.000000,3.000000,74.000000,,,,0.000000,4.000000,4.000000,4.000000,4.000000,4.000000,4.000000,2.000000,4.000000,4.000000,4.000000,4.000000,4.000000,4.000000,4.000000,83.333336,,,,,,,,,,,,,,,,,6.000000,0.000000,0.718133,0.174988,-0.650940,0.173035,0.996704,0.017092,0.092785,-4.882667,15.644572,98.804909
1702803414.876182,1702803415.227626,25.000000,0.000000,4186.410156,4149.487305,4284.871582,4234.358887,4153.846191,4121.666504,4224.102539,4139.358887,4138.461426,4154.230957,4671.282227,4466.153809,4419.743652,4552.692383,0.000000,3.000000,74.000000,,,,0.000000,4.000000,4.000000,4.000000,4.000000,4.000000,4.000000,2.000000,4.000000,4.000000,4.000000,4.000000,4.000000,4.000000,4.000000,83.333336,,,,,,,,,,,,,,,,,,,,,,,,,,,,
1702803414.883991,1702803415.235434,26.000000,0.000000,4179.230957,4141.025879,4283.077148,4233.205078,4152.307617,4127.692383,4231.282227,4160.512695,4147.692383,4153.974121,4668.333496,4465.256348,4413.846191,4548.333496,0.000000,3.000000,74.000000,,,,0.000000,4.000000,4.000000,4.000000,4.000000,4.000000,4.000000,2.000000,4.000000,4.000000,4.000000,4.000000,4.000000,4.000000,4.000000,83.333336,1.000000,75.000000,4.000000,4.000000,4.000000,4.000000,4.000000,4.000000,1.000000,4.000000,4.000000,4.000000,4.000000,4.000000,4.000000,4.000000,,,,,,,,,,,,
1702803414.891799,1702803415.243142,27.000000,0.000000,4176.666504,4132.692383,4282.436035,4230.256348,4148.974121,4134.102539,4231.666504,4161.282227,4135.512695,4143.333496,4659.102539,4457.948730,4405.256348,4542.948730,0.000000,3.000000,74.000000,,,,0.000000,4.000000,4.000000,4.000000,4.000000,4.000000,4.000000,2.000000,4.000000,4.000000,4.000000,4.000000,4.000000,4.000000,4.000000,83.333336,,,,,,,,,,,,,,,,,,,,,,,,,,,,
1702803414.899607,1702803415.250950,28.000000,0.000000,4174.230957,4130.128418,4279.871582,4222.692383,4142.436035,4136.666504,4226.666504,4145.256348,4123.717773,4129.358887,4645.641113,4447.051270,4395.769043,4537.820313,0.000000,3.000000,74.000000,,,,0.000000,4.000000,4.000000,4.000000,4.000000,4.000000,4.000000,2.000000,4.000000,4.000000,4.000000,4.000000,4.000000,4.000000,4.000000,83.333336,,,,,,,,,,,,,,,,,7.000000,0.000000,0.718063,0.174927,-0.651001,0.173157,1.001587,0.013674,0.092296,-4.761067,15.680115,98.624413
1702803414.907415,1702803415.258658,29.000000,0.000000,4169.871582,4130.000000,4273.205078,4212.179688,4141.282227,4135.384766,4221.922852,4146.153809,4135.769043,4127.307617,4645.384766,4444.358887,4388.077148,4530.897461,0.000000,3.000000,74.000000,,,,0.000000,4.000000,4.000000,4.000000,4.000000,4.000000,4.000000,2.000000,4.000000,4.000000,4.000000,4.000000,4.000000,4.000000,4.000000,83.333336,,,,,,,,,,,,,,,,,,,,,,,,,,,,
1702803414.915223,1702803415.266566,30.000000,0.000000,4168.717773,4128.846191,4266.282227,4210.128418,4148.589844,4137.051270,4217.051270,4153.974121,4149.358887,4138.333496,4656.282227,4449.615234,4390.641113,4525.641113,0.000000,3.000000,74.000000,,,,0.000000,4.000000,4.000000,4.000000,4.000000,4.000000,4.000000,2.000000,4.000000,4.000000,4.000000,4.000000,4.000000,4.000000,4.000000,83.333336,,,,,,,,,,,,,,,,,,,,,,,,,,,,
1702803414.923031,1702803415.274374,31.000000,0.000000,4175.897461,4137.948730,4273.589844,4223.077148,4153.846191,4138.461426,4211.410156,4148.077148,4155.512695,4157.436035,4670.128418,4461.538574,4411.410156,4538.205078,0.000000,3.000000,74.000000,,,,0.000000,4.000000,4.000000,4.000000,4.000000,4.000000,4.000000,2.000000,4.000000,4.000000,4.000000,4.000000,4.000000,4.000000,4.000000,83.333336,,,,,,,,,,,,,,,,,,,,,,,,,,,,
1702803414.930839,1702803415.282282,32.000000,0.000000,4185.897461,4152.051270,4290.897461,4234.102539,4151.282227,4127.563965,4207.820313,4136.410156,4154.743652,4164.743652,4673.333496,4469.871582,4423.974121,4551.538574,0.000000,3.000000,74.000000,,,,0.000000,4.000000,4.000000,4.000000,4.000000,4.000000,4.000000,2.000000,4.000000,4.000000,4.000000,4.000000,4.000000,4.000000,4.000000,83.333336,,,,,,,,,,,,,,,,,8.000000,0.000000,0.718082,0.174744,-0.651062,0.173035,0.995239,0.018069,0.089366,-4.601627,15.462103,98.678642
1702803414.938647,1702803415.290091,33.000000,0.000000,4188.077148,4153.333496,4294.743652,4231.922852,4144.102539,4112.051270,4203.846191,4124.230957,4133.333496,4145.000000,4655.128418,4461.794922,4410.512695,4546.538574,0.000000,3.000000,74.000000,,,,0.000000,4.000000,4.000000,4.000000,4.000000,4.000000,4.000000,2.000000,4.000000,4.000000,4.000000,4.000000,4.000000,4.000000,4.000000,83.333336,,,,,,,,,,,,,,,,,,,,,,,,,,,,
1702803414.946455,1702803415.297999,34.000000,0.000000,4184.871582,4148.333496,4291.666504,4236.666504,4140.641113,4106.025879,4198.974121,4118.333496,4109.743652,4131.794922,4648.461426,4456.538574,4404.230957,4540.256348,0.000000,3.000000,74.000000,,,,0.000000,4.000000,4.000000,4.000000,4.000000,4.000000,4.000000,2.000000,4.000000,4.000000,4.000000,4.000000,4.000000,4.000000,4.000000,83.333336,,,,,,,,,,,,,,,,,,,,,,,,,,,,
1702803414.954263,1702803415.305807,35.000000,0.000000,4188.974121,4153.846191,4297.563965,4247.820313,4146.538574,4107.948730,4201.922852,4131.153809,4116.922852,4150.769043,4676.794922,4474.102539,4423.974121,4550.769043,0.000000,3.000000,74.000000,,,,0.000000,4.000000,4.000000,4.000000,4.000000,4.000000,4.000000,2.000000,4.000000,4.000000,4.000000,4.000000,4.000000,4.000000,4.000000,83.333336,,,,,,,,,,,,,,,,,,,,,,,,,,,,
1702803414.962071,1702803415.313715,36.000000,0.000000,4192.307617,4157.307617,4296.666504,4238.333496,4150.641113,4113.077148,4208.717773,4145.512695,4139.743652,4166.538574,4688.205078,4482.563965,4433.205078,4556.666504,0.000000,3.000000,74.000000,,,,0.000000,4.000000,4.000000,4.000000,4.000000,4.000000,4.000000,2.000000,4.000000,4.000000,4.000000,4.000000,4.000000,4.000000,4.000000,83.333336,,,,,,,,,,,,,,,,,9.000000,0.000000,0.718012,0.174805,-0.651123,0.173035,0.992797,0.020510,0.084971,-4.524797,15.582560,98.744110
1702803414.969880,1702803415.321523,37.000000,0.000000,4185.769043,4150.512695,4281.666504,4223.333496,4146.410156,4123.717773,4210.384766,4143.974121,4147.692383,4155.384766,4665.897461,4462.179688,4417.692383,4540.512695,0.000000,3.000000,74.000000,,,,0.000000,4.000000,4.000000,4.000000,4.000000,4.000000,4.000000,2.000000,4.000000,4.000000,4.000000,4.000000,4.000000,4.000000,4.000000,83.333336,,,,,,,,,,,,,,,,,,,,,,,,,,,,
1702803414.977687,1702803415.329431,38.000000,0.000000,4178.974121,4144.487305,4270.897461,4223.589844,4140.000000,4132.563965,4209.487305,4138.589844,4138.333496,4140.000000,4655.897461,4445.897461,4406.794922,4528.717773,0.000000,3.000000,74.000000,,,,0.000000,4.000000,4.000000,4.000000,4.000000,4.000000,4.000000,2.000000,4.000000,4.000000,4.000000,4.000000,4.000000,4.000000,4.000000,83.333336,,,,,,,,,,,,,,,,,,,,,,,,,,,,
1702803414.985496,1702803415.337240,39.000000,0.000000,4180.897461,4146.538574,4275.641113,4229.230957,4142.436035,4136.794922,4209.615234,4141.666504,4133.974121,4145.256348,4660.897461,4455.256348,4413.077148,4538.974121,0.000000,3.000000,74.000000,,,,0.000000,4.000000,4.000000,4.000000,4.000000,4.000000,4.000000,2.000000,4.000000,4.000000,4.000000,4.000000,4.000000,4.000000,4.000000,83.333336,,,,,,,,,,,,,,,,,,,,,,,,,,,,
1702803414.993304,1702803415.345148,40.000000,0.000000,4180.128418,4147.820313,4275.897461,4227.179688,4150.000000,4141.538574,4211.025879,4150.384766,4148.333496,4157.307617,4665.641113,4461.922852,4417.307617,4545.769043,0.000000,3.000000,74.000000,,,,0.000000,4.000000,4.000000,4.000000,4.000000,4.000000,4.000000,2.000000,4.000000,4.000000,4.000000,4.000000,4.000000,4.000000,4.000000,83.333336,,,,,,,,,,,,,,,,,10.000000,0.000000,0.717886,0.174927,-0.651245,0.172974,0.989379,0.018557,0.077646,-4.438984,15.624304,98.653030
1702803415.001112,1702803415.352956,41.000000,0.000000,4168.846191,4138.589844,4260.000000,4218.333496,4151.410156,4141.538574,4210.128418,4151.538574,4156.794922,4149.230957,4662.179688,4450.384766,4406.025879,4531.794922,0.000000,3.000000,74.000000,,,,0.000000,4.000000,4.000000,4.000000,4.000000,4.000000,4.000000,2.000000,4.000000,4.000000,4.000000,4.000000,4.000000,4.000000,4.000000,83.333336,,,,,,,,,,,,,,,,,,,,,,,,,,,,
1702803415.008920,1702803415.360864,42.000000,0.000000,4164.102539,4131.794922,4254.743652,4215.000000,4147.051270,4136.666504,4207.563965,4143.974121,4145.384766,4133.205078,4649.102539,4444.358887,4396.282227,4525.256348,0.000000,3.000000,74.000000,,,,0.000000,4.000000,4.000000,4.000000,4.000000,4.000000,4.000000,2.000000,4.000000,4.000000,4.000000,4.000000,4.000000,4.000000,4.000000,83.333336,,,,,,,,,,,,,,,,,,,,,,,,,,,,
1702803415.016728,1702803415.368672,43.000000,0.000000,4176.794922,4138.205078,4272.563965,4224.487305,4145.128418,4130.897461,4208.846191,4141.538574,4139.615234,4138.461426,4646.922852,4452.307617,4399.230957,4536.666504,0.000000,3.000000,74.000000,,,,0.000000,4.000000,4.000000,4.000000,4.000000,4.000000,4.000000,2.000000,4.000000,4.000000,4.000000,4.000000,4.000000,4.000000,4.000000,83.333336,,,,,,,,,,,,,,,,,,,,,,,,,,,,
1702803415.024536,1702803415.376380,44.000000,0.000000,4195.897461,4153.205078,4293.974121,4241.025879,4152.307617,4127.179688,4209.487305,4145.000000,4147.051270,4156.025879,4661.666504,4463.589844,4412.563965,4549.615234,0.000000,3.000000,74.000000,,,,0.000000,4.000000,4.000000,4.000000,4.000000,4.000000,4.000000,2.000000,4.000000,4.000000,4.000000,4.000000,4.000000,4.000000,4.000000,83.333336,,,,,,,,,,,,,,,,,11.000000,0.000000,0.718023,0.174927,-0.651062,0.173096,0.992309,0.005860,0.089366,-4.395086,15.378540,98.704399
1702803415.032344,1702803415.384189,45.000000,0.000000,4201.538574,4161.794922,4300.512695,4248.846191,4159.230957,4123.205078,4203.205078,4134.615234,4138.717773,4154.615234,4662.436035,4463.974121,4421.025879,4552.179688,0.000000,3.000000,74.000000,,,,0.000000,4.000000,4.000000,4.000000,4.000000,4.000000,4.000000,2.000000,4.000000,4.000000,4.000000,4.000000,4.000000,4.000000,4.000000,83.333336,,,,,,,,,,,,,,,,,,,,,,,,,,,,
1702803415.040152,1702803415.391897,46.000000,0.000000,4183.974121,4150.769043,4284.743652,4236.922852,4156.922852,4120.384766,4198.974121,4114.102539,4113.717773,4137.436035,4646.538574,4445.641113,4406.922852,4537.436035,0.000000,3.000000,74.000000,,,,0.000000,4.000000,4.000000,4.000000,4.000000,4.000000,4.000000,2.000000,4.000000,4.000000,4.000000,4.000000,4.000000,4.000000,4.000000,83.333336,,,,,,,,,,,,,,,,,,,,,,,,,,,,
1702803415.047960,1702803415.399805,47.000000,0.000000,4165.256348,4136.025879,4263.205078,4219.871582,4153.205078,4131.666504,4206.538574,4113.077148,4107.307617,4131.153809,4643.717773,4429.743652,4390.384766,4519.743652,0.000000,3.000000,74.000000,,,,0.000000,4.000000,4.000000,4.000000,4.000000,4.000000,4.000000,2.000000,4.000000,4.000000,4.000000,4.000000,4.000000,4.000000,4.000000,83.333336,,,,,,,,,,,,,,,,,,,,,,,,,,,,
1702803415.055768,1702803415.407613,48.000000,0.000000,4160.769043,4128.333496,4261.282227,4217.051270,4146.794922,4141.153809,4215.641113,4123.077148,4115.512695,4130.897461,4638.461426,4425.128418,4386.153809,4512.820313,0.000000,3.000000,74.000000,,,,0.000000,4.000000,4.000000,4.000000,4.000000,4.000000,4.000000,2.000000,4.000000,4.000000,4.000000,4.000000,4.000000,4.000000,4.000000,83.333336,,,,,,,,,,,,,,,,,12.000000,0.000000,0.718023,0.174744,-0.651062,0.173279,0.984984,0.019534,0.092785,-4.355577,15.240686,98.783958
1702803415.063576,1702803415.415521,49.000000,0.000000,4165.641113,4128.846191,4270.512695,4224.615234,4138.333496,4131.410156,4214.871582,4124.743652,4117.820313,4124.743652,4628.077148,4422.820313,4385.000000,4517.307617,0.000000,3.000000,74.000000,,,,0.000000,4.000000,4.000000,4.000000,4.000000,4.000000,4.000000,2.000000,4.000000,4.000000,4.000000,4.000000,4.000000,4.000000,4.000000,83.333336,,,,,,,,,,,,,,,,,,,,,,,,,,,,
1702803415.071385,1702803415.423330,50.000000,0.000000,4173.333496,4138.974121,4277.051270,4231.666504,4137.948730,4122.563965,4213.205078,4132.179688,4124.230957,4126.922852,4634.487305,4429.871582,4389.102539,4526.282227,0.000000,3.000000,74.000000,,,,0.000000,4.000000,4.000000,4.000000,4.000000,4.000000,4.000000,2.000000,4.000000,4.000000,4.000000,4.000000,4.000000,4.000000,4.000000,83.333336,,,,,,,,,,,,,,,,,,,,,,,,,,,,
1702803415.079193,1702803415.431238,51.000000,0.000000,4177.436035,4145.641113,4278.077148,4231.153809,4145.512695,4123.589844,4215.769043,4141.025879,4131.666504,4130.897461,4636.410156,4438.717773,4391.025879,4528.077148,0.000000,3.000000,74.000000,,,,0.000000,4.000000,4.000000,4.000000,4.000000,4.000000,4.000000,2.000000,4.000000,4.000000,4.000000,4.000000,4.000000,4.000000,4.000000,83.333336,,,,,,,,,,,,,,,,,,,,,,,,,,,,
