title:عمار نعم, start timestamp:1703503210.036859, stop timestamp:1703503220.780738, headset type:EPOCX, headset serial:E50206EF, headset firmware:720, channels:67, sampling rate:eeg_128;mot_32, samples:1377      , version:2.2, 
Timestamp,OriginalTimestamp,EEG.Counter,EEG.Interpolated,EEG.AF3,EEG.F7,EEG.F3,EEG.FC5,EEG.T7,EEG.P7,EEG.O1,EEG.O2,EEG.P8,EEG.T8,EEG.FC6,EEG.F4,EEG.F8,EEG.AF4,EEG.RawCq,EEG.Battery,EEG.BatteryPercent,MarkerIndex,MarkerType,MarkerValueInt,EEG.MarkerHardware,CQ.AF3,CQ.F7,CQ.F3,CQ.FC5,CQ.T7,CQ.P7,CQ.O1,CQ.O2,CQ.P8,CQ.T8,CQ.FC6,CQ.F4,CQ.F8,CQ.AF4,CQ.Overall,EQ.SampleRateQuality,EQ.OVERALL,EQ.AF3,EQ.F7,EQ.F3,EQ.FC5,EQ.T7,EQ.P7,EQ.O1,EQ.O2,EQ.P8,EQ.T8,EQ.FC6,EQ.F4,EQ.F8,EQ.AF4,MOT.CounterMems,MOT.InterpolatedMems,MOT.Q0,MOT.Q1,MOT.Q2,MOT.Q3,MOT.AccX,MOT.AccY,MOT.AccZ,MOT.MagX,MOT.MagY,MOT.MagZ
1703503210.036859,1703503210.037301,68.000000,0.000000,4399.358887,4361.410156,4392.692383,4428.205078,4350.000000,4341.153809,4341.282227,4358.589844,4343.974121,4341.666504,4603.974121,4582.179688,4454.487305,4531.538574,5362.000000,3.000000,63.000000,,,,0.000000,4.000000,4.000000,4.000000,4.000000,4.000000,4.000000,4.000000,4.000000,4.000000,4.000000,4.000000,4.000000,4.000000,4.000000,100.000000,,,,,,,,,,,,,,,,,17.000000,0.000000,0.503151,0.494446,-0.505676,0.496643,0.995239,-0.033696,0.058601,-15.125816,-35.806099,60.737946
1703503210.044667,1703503210.045008,69.000000,0.000000,4383.846191,4350.641113,4386.666504,4415.384766,4343.717773,4327.563965,4331.410156,4354.487305,4337.692383,4337.820313,4594.487305,4569.230957,4428.589844,4513.717773,4921.000000,3.000000,63.000000,,,,0.000000,4.000000,4.000000,4.000000,4.000000,4.000000,4.000000,4.000000,4.000000,4.000000,4.000000,4.000000,4.000000,4.000000,4.000000,100.000000,,,,,,,,,,,,,,,,,,,,,,,,,,,,
1703503210.052475,1703503210.052916,70.000000,0.000000,4382.436035,4344.230957,4385.128418,4406.538574,4348.333496,4325.128418,4328.589844,4361.794922,4340.769043,4340.641113,4599.871582,4567.820313,4409.615234,4513.077148,4215.000000,3.000000,63.000000,,,,0.000000,4.000000,4.000000,4.000000,4.000000,4.000000,4.000000,4.000000,4.000000,4.000000,4.000000,4.000000,4.000000,4.000000,4.000000,100.000000,,,,,,,,,,,,,,,,,,,,,,,,,,,,
1703503210.060283,1703503210.060724,71.000000,0.000000,4378.077148,4335.256348,4379.230957,4402.051270,4344.871582,4328.589844,4327.692383,4369.487305,4346.025879,4344.358887,4605.512695,4569.871582,4392.307617,4511.666504,5028.000000,3.000000,63.000000,,,,0.000000,4.000000,4.000000,4.000000,4.000000,4.000000,4.000000,4.000000,4.000000,4.000000,4.000000,4.000000,4.000000,4.000000,4.000000,100.000000,,,,,,,,,,,,,,,,,,,,,,,,,,,,
1703503210.068091,1703503210.068632,72.000000,0.000000,4370.256348,4332.563965,4376.153809,4404.871582,4341.538574,4324.871582,4326.538574,4367.948730,4338.461426,4338.974121,4608.461426,4565.769043,4385.256348,4503.461426,4898.000000,3.000000,63.000000,,,,0.000000,4.000000,4.000000,4.000000,4.000000,4.000000,4.000000,4.000000,4.000000,4.000000,4.000000,4.000000,4.000000,4.000000,4.000000,100.000000,,,,,,,,,,,,,,,,,18.000000,0.000000,0.503325,0.494080,-0.505920,0.496582,1.001587,-0.036626,0.051276,-15.179902,-35.775490,60.914154
1703503210.075899,1703503210.076440,73.000000,0.000000,4375.641113,4338.974121,4381.794922,4412.051270,4346.282227,4326.538574,4330.769043,4370.512695,4337.820313,4337.820313,4615.256348,4567.820313,4387.948730,4505.769043,5617.000000,3.000000,63.000000,,,,0.000000,4.000000,4.000000,4.000000,4.000000,4.000000,4.000000,4.000000,4.000000,4.000000,4.000000,4.000000,4.000000,4.000000,4.000000,100.000000,,,,,,,,,,,,,,,,,,,,,,,,,,,,
1703503210.083707,1703503210.084348,74.000000,0.000000,4384.358887,4339.102539,4381.794922,4412.179688,4349.487305,4334.615234,4334.615234,4377.692383,4346.794922,4342.692383,4616.794922,4571.794922,4387.563965,4511.025879,6200.000000,3.000000,63.000000,,,,0.000000,4.000000,4.000000,4.000000,4.000000,4.000000,4.000000,4.000000,4.000000,4.000000,4.000000,4.000000,4.000000,4.000000,4.000000,100.000000,,,,,,,,,,,,,,,,,,,,,,,,,,,,
1703503210.091515,1703503210.092156,75.000000,0.000000,4378.717773,4331.922852,4372.692383,4406.794922,4349.487305,4331.153809,4331.282227,4370.769043,4342.692383,4336.025879,4612.307617,4565.512695,4386.538574,4510.384766,6436.000000,3.000000,63.000000,,,,0.000000,4.000000,4.000000,4.000000,4.000000,4.000000,4.000000,4.000000,4.000000,4.000000,4.000000,4.000000,4.000000,4.000000,4.000000,100.000000,,,,,,,,,,,,,,,,,,,,,,,,,,,,
1703503210.099323,1703503210.100064,76.000000,0.000000,4373.077148,4327.051270,4374.871582,4403.077148,4346.666504,4325.512695,4325.512695,4356.282227,4328.461426,4323.846191,4611.025879,4564.615234,4386.922852,4513.333496,6985.000000,3.000000,63.000000,,,,0.000000,4.000000,4.000000,4.000000,4.000000,4.000000,4.000000,4.000000,4.000000,4.000000,4.000000,4.000000,4.000000,4.000000,4.000000,100.000000,,,,,,,,,,,,,,,,,19.000000,0.000000,0.503384,0.494019,-0.505981,0.496521,0.987425,-0.025882,0.059089,-15.245245,-35.897942,61.006069
1703503210.107131,1703503210.107872,77.000000,0.000000,4382.051270,4327.948730,4381.794922,4401.153809,4339.743652,4324.615234,4319.743652,4353.461426,4327.948730,4329.871582,4615.256348,4571.153809,4388.205078,4518.461426,7336.000000,3.000000,63.000000,,,,0.000000,4.000000,4.000000,4.000000,4.000000,4.000000,4.000000,4.000000,4.000000,4.000000,4.000000,4.000000,4.000000,4.000000,4.000000,100.000000,,,,,,,,,,,,,,,,,,,,,,,,,,,,
1703503210.114939,1703503210.115780,78.000000,0.000000,4382.436035,4325.384766,4376.922852,4397.179688,4333.461426,4318.846191,4315.384766,4352.820313,4330.512695,4330.641113,4606.410156,4561.538574,4382.820313,4510.512695,6200.000000,3.000000,63.000000,,,,0.000000,4.000000,4.000000,4.000000,4.000000,4.000000,4.000000,4.000000,4.000000,4.000000,4.000000,4.000000,4.000000,4.000000,4.000000,100.000000,,,,,,,,,,,,,,,,,,,,,,,,,,,,
1703503210.122747,1703503210.123588,79.000000,0.000000,4366.282227,4315.769043,4369.230957,4390.769043,4329.230957,4315.256348,4313.589844,4342.820313,4320.769043,4313.205078,4586.538574,4546.922852,4371.410156,4496.025879,6436.000000,3.000000,63.000000,,,,0.000000,4.000000,4.000000,4.000000,4.000000,4.000000,4.000000,4.000000,4.000000,4.000000,4.000000,4.000000,4.000000,4.000000,4.000000,100.000000,,,,,,,,,,,,,,,,,,,,,,,,,,,,
1703503210.130555,1703503210.131496,80.000000,0.000000,4360.384766,4310.384766,4368.846191,4390.384766,4329.358887,4318.846191,4311.538574,4342.436035,4319.487305,4310.897461,4587.563965,4550.897461,4373.717773,4499.743652,6985.000000,3.000000,63.000000,,,,0.000000,4.000000,4.000000,4.000000,4.000000,4.000000,4.000000,4.000000,4.000000,4.000000,4.000000,4.000000,4.000000,4.000000,4.000000,100.000000,,,,,,,,,,,,,,,,,20.000000,0.000000,0.503383,0.494019,-0.506042,0.496460,0.996704,-0.018557,0.060554,-15.237387,-36.024815,61.072132
1703503210.138363,1703503210.139303,81.000000,0.000000,4367.692383,4307.307617,4369.743652,4393.589844,4325.769043,4319.743652,4313.974121,4354.615234,4326.922852,4318.974121,4596.025879,4558.077148,4380.512695,4507.179688,7336.000000,3.000000,63.000000,,,,0.000000,4.000000,4.000000,4.000000,4.000000,4.000000,4.000000,4.000000,4.000000,4.000000,4.000000,4.000000,4.000000,4.000000,4.000000,100.000000,,,,,,,,,,,,,,,,,,,,,,,,,,,,
1703503210.146171,1703503210.147012,82.000000,0.000000,4367.307617,4297.051270,4363.589844,4383.589844,4316.025879,4320.128418,4320.641113,4363.333496,4329.871582,4317.692383,4588.717773,4555.512695,4377.820313,4497.307617,6200.000000,3.000000,63.000000,,,,0.000000,4.000000,4.000000,4.000000,4.000000,4.000000,4.000000,4.000000,4.000000,4.000000,4.000000,4.000000,4.000000,4.000000,4.000000,100.000000,,,,,,,,,,,,,,,,,,,,,,,,,,,,
1703503210.153979,1703503210.154820,83.000000,0.000000,4356.538574,4284.871582,4352.820313,4364.487305,4314.102539,4326.025879,4323.205078,4364.743652,4329.230957,4317.820313,4581.153809,4549.358887,4378.077148,4487.436035,6436.000000,3.000000,63.000000,,,,0.000000,4.000000,4.000000,4.000000,4.000000,4.000000,4.000000,4.000000,4.000000,4.000000,4.000000,4.000000,4.000000,4.000000,4.000000,100.000000,,,,,,,,,,,,,,,,,,,,,,,,,,,,
1703503210.161788,1703503210.162528,84.000000,0.000000,4354.871582,4275.769043,4349.487305,4356.794922,4313.333496,4326.538574,4317.948730,4357.307617,4320.641113,4315.512695,4573.205078,4540.128418,4373.974121,4485.384766,6985.000000,3.000000,63.000000,,,,0.000000,4.000000,4.000000,4.000000,4.000000,4.000000,4.000000,4.000000,4.000000,4.000000,4.000000,4.000000,4.000000,4.000000,4.000000,100.000000,,,,,,,,,,,,,,,,,21.000000,0.000000,0.503266,0.494202,-0.505920,0.496521,0.997192,-0.025882,0.066903,-15.330315,-36.139000,60.998249
1703503210.169596,1703503210.170336,85.000000,0.000000,4366.282227,4274.102539,4355.897461,4363.461426,4313.077148,4326.922852,4314.358887,4352.307617,4319.871582,4309.615234,4569.230957,4536.410156,4371.666504,4488.461426,7336.000000,3.000000,63.000000,,,,0.000000,4.000000,4.000000,4.000000,4.000000,4.000000,4.000000,4.000000,4.000000,4.000000,4.000000,4.000000,4.000000,4.000000,4.000000,100.000000,,,,,,,,,,,,,,,,,,,,,,,,,,,,
1703503210.177404,1703503210.178044,86.000000,0.000000,4370.897461,4275.256348,4356.282227,4364.230957,4319.615234,4331.153809,4318.205078,4351.666504,4325.641113,4308.717773,4569.230957,4537.563965,4379.487305,4488.205078,6200.000000,3.000000,63.000000,,,,0.000000,4.000000,4.000000,4.000000,4.000000,4.000000,4.000000,4.000000,4.000000,4.000000,4.000000,4.000000,4.000000,4.000000,4.000000,100.000000,,,,,,,,,,,,,,,,,,,,,,,,,,,,
1703503210.185212,1703503210.185852,87.000000,0.000000,4364.871582,4277.692383,4349.615234,4357.563965,4321.922852,4330.000000,4321.410156,4337.948730,4311.410156,4298.077148,4557.692383,4525.641113,4373.846191,4475.769043,6436.000000,3.000000,63.000000,,,,0.000000,4.000000,4.000000,4.000000,4.000000,4.000000,4.000000,4.000000,4.000000,4.000000,4.000000,4.000000,4.000000,4.000000,4.000000,100.000000,,,,,,,,,,,,,,,,,,,,,,,,,,,,
1703503210.193020,1703503210.193560,88.000000,0.000000,4364.615234,4282.307617,4351.922852,4361.025879,4320.641113,4328.205078,4320.769043,4321.794922,4295.769043,4288.205078,4553.205078,4517.179688,4365.512695,4469.743652,6985.000000,3.000000,63.000000,,,,0.000000,4.000000,4.000000,4.000000,4.000000,4.000000,4.000000,4.000000,4.000000,4.000000,4.000000,4.000000,4.000000,4.000000,4.000000,100.000000,,,,,,,,,,,,,,,,,22.000000,0.000000,0.503030,0.494385,-0.505676,0.496826,0.993774,-0.019534,0.053717,-15.363950,-36.125099,61.015091
1703503210.200828,1703503210.201368,89.000000,0.000000,4370.512695,4284.487305,4361.666504,4367.563965,4323.077148,4328.333496,4319.230957,4321.794922,4298.974121,4296.282227,4562.563965,4530.512695,4375.641113,4477.692383,7336.000000,3.000000,63.000000,,,,0.000000,4.000000,4.000000,4.000000,4.000000,4.000000,4.000000,4.000000,4.000000,4.000000,4.000000,4.000000,4.000000,4.000000,4.000000,100.000000,,,,,,,,,,,,,,,,,,,,,,,,,,,,
1703503210.208636,1703503210.209075,90.000000,0.000000,4367.307617,4285.769043,4362.820313,4364.230957,4323.846191,4325.897461,4315.128418,4324.871582,4299.230957,4298.461426,4565.000000,4541.153809,4383.589844,4486.153809,6200.000000,3.000000,63.000000,,,,0.000000,4.000000,4.000000,4.000000,4.000000,4.000000,4.000000,4.000000,4.000000,4.000000,4.000000,4.000000,4.000000,4.000000,4.000000,100.000000,,,,,,,,,,,,,,,,,,,,,,,,,,,,
1703503210.216444,1703503210.216883,91.000000,0.000000,4358.974121,4291.025879,4357.948730,4362.692383,4320.769043,4324.743652,4311.794922,4320.641113,4291.282227,4292.692383,4563.333496,4536.794922,4375.128418,4488.461426,6436.000000,3.000000,63.000000,,,,0.000000,4.000000,4.000000,4.000000,4.000000,4.000000,4.000000,4.000000,4.000000,4.000000,4.000000,4.000000,4.000000,4.000000,4.000000,100.000000,,,,,,,,,,,,,,,,,,,,,,,,,,,,
1703503210.224252,1703503210.224591,92.000000,0.000000,4358.333496,4294.358887,4358.717773,4366.922852,4319.358887,4328.333496,4316.282227,4323.974121,4293.717773,4293.589844,4566.794922,4534.102539,4370.000000,4487.948730,6985.000000,3.000000,63.000000,,,,0.000000,4.000000,4.000000,4.000000,4.000000,4.000000,4.000000,4.000000,4.000000,4.000000,4.000000,4.000000,4.000000,4.000000,4.000000,100.000000,,,,,,,,,,,,,,,,,23.000000,0.000000,0.502978,0.494812,-0.505310,0.496826,0.996704,-0.039067,0.056648,-15.327555,-36.095921,60.963581
1703503210.232060,1703503210.232399,93.000000,0.000000,4357.307617,4294.230957,4352.820313,4367.307617,4321.922852,4329.230957,4321.922852,4337.948730,4302.692383,4295.512695,4569.871582,4537.307617,4375.769043,4485.897461,7336.000000,3.000000,63.000000,,,,0.000000,4.000000,4.000000,4.000000,4.000000,4.000000,4.000000,4.000000,4.000000,4.000000,4.000000,4.000000,4.000000,4.000000,4.000000,100.000000,,,,,,,,,,,,,,,,,,,,,,,,,,,,
1703503210.239868,1703503210.240107,94.000000,0.000000,4350.000000,4293.717773,4342.307617,4367.948730,4325.512695,4327.692383,4325.512695,4351.025879,4311.410156,4301.153809,4572.948730,4538.846191,4379.871582,4484.102539,6200.000000,3.000000,63.000000,,,,0.000000,4.000000,4.000000,4.000000,4.000000,4.000000,4.000000,4.000000,4.000000,4.000000,4.000000,4.000000,4.000000,4.000000,4.000000,100.000000,,,,,,,,,,,,,,,,,,,,,,,,,,,,
1703503210.247676,1703503210.248014,95.000000,0.000000,4349.358887,4296.922852,4343.333496,4375.256348,4328.846191,4329.102539,4328.205078,4357.307617,4320.000000,4314.615234,4575.512695,4537.051270,4378.333496,4480.128418,6436.000000,3.000000,63.000000,,,,0.000000,4.000000,4.000000,4.000000,4.000000,4.000000,4.000000,4.000000,4.000000,4.000000,4.000000,4.000000,4.000000,4.000000,4.000000,100.000000,,,,,,,,,,,,,,,,,,,,,,,,,,,,
1703503210.255484,1703503210.255822,96.000000,0.000000,4357.051270,4303.846191,4350.897461,4381.538574,4331.666504,4330.769043,4328.077148,4361.153809,4324.743652,4318.974121,4578.333496,4546.922852,4379.487305,4480.256348,6985.000000,3.000000,63.000000,,,,0.000000,4.000000,4.000000,4.000000,4.000000,4.000000,4.000000,4.000000,4.000000,4.000000,4.000000,4.000000,4.000000,4.000000,4.000000,100.000000,,,,,,,,,,,,,,,,,24.000000,0.000000,0.502983,0.495056,-0.505066,0.496826,0.995727,-0.040532,0.058601,-15.194799,-36.086330,60.983891
1703503210.263292,1703503210.263730,97.000000,0.000000,4363.461426,4309.871582,4362.307617,4392.307617,4336.538574,4333.333496,4332.436035,4374.102539,4333.077148,4321.922852,4591.282227,4567.820313,4393.974121,4500.512695,7336.000000,3.000000,63.000000,,,,0.000000,4.000000,4.000000,4.000000,4.000000,4.000000,4.000000,4.000000,4.000000,4.000000,4.000000,4.000000,4.000000,4.000000,4.000000,100.000000,1.000000,100.000000,4.000000,4.000000,4.000000,4.000000,4.000000,4.000000,4.000000,4.000000,4.000000,4.000000,4.000000,4.000000,4.000000,4.000000,,,,,,,,,,,,
1703503210.271100,1703503210.271538,98.000000,0.000000,4368.333496,4314.615234,4367.820313,4387.563965,4339.358887,4334.358887,4333.205078,4380.897461,4339.615234,4331.538574,4596.538574,4567.179688,4401.538574,4504.487305,6200.000000,3.000000,63.000000,,,,0.000000,4.000000,4.000000,4.000000,4.000000,4.000000,4.000000,4.000000,4.000000,4.000000,4.000000,4.000000,4.000000,4.000000,4.000000,100.000000,,,,,,,,,,,,,,,,,,,,,,,,,,,,
1703503210.278908,1703503210.279446,99.000000,0.000000,4365.256348,4311.794922,4356.025879,4332.563965,4325.897461,4329.615234,4320.512695,4362.179688,4333.077148,4328.333496,4573.974121,4546.410156,4387.948730,4469.615234,6436.000000,3.000000,63.000000,,,,0.000000,4.000000,4.000000,4.000000,4.000000,4.000000,4.000000,4.000000,4.000000,4.000000,4.000000,4.000000,4.000000,4.000000,4.000000,100.000000,,,,,,,,,,,,,,,,,,,,,,,,,,,,
1703503210.286716,1703503210.287254,100.000000,0.000000,4348.589844,4303.077148,4343.333496,4261.794922,4303.461426,4322.563965,4311.153809,4332.820313,4316.025879,4314.230957,4547.436035,4534.230957,4373.077148,4457.436035,6985.000000,3.000000,63.000000,,,,0.000000,4.000000,4.000000,4.000000,4.000000,4.000000,4.000000,4.000000,4.000000,4.000000,4.000000,4.000000,4.000000,4.000000,4.000000,100.000000,,,,,,,,,,,,,,,,,25.000000,0.000000,0.503345,0.494995,-0.505005,0.496582,0.984007,-0.019045,0.049811,-15.425320,-36.027699,61.002171
1703503210.294524,1703503210.295162,101.000000,0.000000,4343.205078,4303.717773,4338.589844,4223.333496,4291.025879,4315.256348,4305.384766,4310.897461,4292.820313,4290.128418,4539.102539,4521.538574,4368.846191,4481.538574,7336.000000,3.000000,63.000000,,,,0.000000,4.000000,4.000000,4.000000,4.000000,4.000000,4.000000,4.000000,4.000000,4.000000,4.000000,4.000000,4.000000,4.000000,4.000000,100.000000,,,,,,,,,,,,,,,,,,,,,,,,,,,,
1703503210.302333,1703503210.302970,102.000000,0.000000,4348.589844,4307.692383,4330.512695,4200.897461,4285.128418,4304.102539,4296.794922,4292.436035,4270.641113,4259.871582,4521.282227,4495.000000,4353.333496,4467.692383,6200.000000,3.000000,63.000000,,,,0.000000,4.000000,4.000000,4.000000,4.000000,4.000000,4.000000,4.000000,4.000000,4.000000,4.000000,4.000000,4.000000,4.000000,4.000000,100.000000,,,,,,,,,,,,,,,,,,,,,,,,,,,,
1703503210.310140,1703503210.310878,103.000000,0.000000,4337.307617,4297.307617,4318.717773,4176.410156,4276.538574,4296.666504,4295.512695,4280.897461,4259.615234,4248.205078,4486.025879,4473.333496,4325.000000,4423.205078,6436.000000,3.000000,63.000000,,,,0.000000,4.000000,4.000000,4.000000,4.000000,4.000000,4.000000,4.000000,4.000000,4.000000,4.000000,4.000000,4.000000,4.000000,4.000000,100.000000,,,,,,,,,,,,,,,,,,,,,,,,,,,,
1703503210.317948,1703503210.318686,104.000000,0.000000,4323.077148,4285.512695,4309.102539,4158.717773,4268.717773,4295.128418,4297.436035,4279.230957,4249.487305,4234.743652,4461.666504,4458.846191,4307.307617,4415.000000,6985.000000,3.000000,63.000000,,,,0.000000,4.000000,4.000000,4.000000,4.000000,4.000000,4.000000,4.000000,4.000000,4.000000,4.000000,4.000000,4.000000,4.000000,4.000000,100.000000,,,,,,,,,,,,,,,,,26.000000,0.000000,0.503585,0.494934,-0.505066,0.496338,0.990844,-0.027347,0.045416,-15.566121,-35.958260,60.918617
1703503210.325757,1703503210.326394,105.000000,0.000000,4319.230957,4281.538574,4298.077148,4143.589844,4257.307617,4286.025879,4287.179688,4271.025879,4230.384766,4205.000000,4443.333496,4440.000000,4286.025879,4411.922852,7336.000000,3.000000,63.000000,,,,0.000000,4.000000,4.000000,4.000000,4.000000,4.000000,4.000000,4.000000,4.000000,4.000000,4.000000,4.000000,4.000000,4.000000,4.000000,100.000000,,,,,,,,,,,,,,,,,,,,,,,,,,,,
1703503210.333565,1703503210.334202,106.000000,0.000000,4307.820313,4272.307617,4281.922852,4124.230957,4240.769043,4269.102539,4272.179688,4261.794922,4228.077148,4201.282227,4426.538574,4424.102539,4263.974121,4390.384766,6200.000000,3.000000,63.000000,,,,0.000000,4.000000,4.000000,4.000000,4.000000,4.000000,4.000000,4.000000,4.000000,4.000000,4.000000,4.000000,4.000000,4.000000,4.000000,100.000000,,,,,,,,,,,,,,,,,,,,,,,,,,,,
1703503210.341373,1703503210.341910,107.000000,0.000000,4293.717773,4258.846191,4264.743652,4110.641113,4233.717773,4261.666504,4266.666504,4265.256348,4230.897461,4203.333496,4414.358887,4409.358887,4256.410156,4377.051270,6436.000000,3.000000,63.000000,,,,0.000000,4.000000,4.000000,4.000000,4.000000,4.000000,4.000000,4.000000,4.000000,4.000000,4.000000,4.000000,4.000000,4.000000,4.000000,100.000000,,,,,,,,,,,,,,,,,,,,,,,,,,,,
1703503210.349181,1703503210.349718,108.000000,0.000000,4291.538574,4250.000000,4254.615234,4100.000000,4231.410156,4263.333496,4262.179688,4265.641113,4224.871582,4184.358887,4403.846191,4397.692383,4253.717773,4374.230957,6985.000000,3.000000,63.000000,,,,0.000000,4.000000,4.000000,4.000000,4.000000,4.000000,4.000000,4.000000,4.000000,4.000000,4.000000,4.000000,4.000000,4.000000,4.000000,100.000000,,,,,,,,,,,,,,,,,27.000000,0.000000,0.503768,0.495300,-0.504944,0.495911,0.984495,-0.009767,0.058113,-15.626176,-35.879101,60.943424
1703503210.356989,1703503210.357426,109.000000,0.000000,4284.615234,4243.846191,4248.846191,4088.589844,4224.230957,4256.410156,4248.717773,4254.487305,4225.000000,4179.871582,4395.384766,4388.717773,4242.051270,4374.230957,7336.000000,3.000000,63.000000,,,,0.000000,4.000000,4.000000,4.000000,4.000000,4.000000,4.000000,4.000000,4.000000,4.000000,4.000000,4.000000,4.000000,4.000000,4.000000,100.000000,,,,,,,,,,,,,,,,,,,,,,,,,,,,
1703503210.364797,1703503210.365234,110.000000,0.000000,4275.256348,4243.461426,4241.025879,4083.589844,4214.487305,4245.512695,4234.230957,4234.102539,4216.538574,4179.358887,4380.256348,4368.974121,4217.307617,4361.666504,6200.000000,3.000000,63.000000,,,,0.000000,4.000000,4.000000,4.000000,4.000000,4.000000,4.000000,4.000000,4.000000,4.000000,4.000000,4.000000,4.000000,4.000000,4.000000,100.000000,,,,,,,,,,,,,,,,,,,,,,,,,,,,
1703503210.372605,1703503210.372942,111.000000,0.000000,4279.743652,4247.948730,4235.512695,4088.461426,4212.820313,4243.717773,4228.205078,4220.000000,4205.641113,4168.974121,4370.000000,4356.666504,4206.025879,4350.384766,6436.000000,3.000000,63.000000,,,,0.000000,4.000000,4.000000,4.000000,4.000000,4.000000,4.000000,4.000000,4.000000,4.000000,4.000000,4.000000,4.000000,4.000000,4.000000,100.000000,,,,,,,,,,,,,,,,,,,,,,,,,,,,
1703503210.380413,1703503210.380750,112.000000,0.000000,4279.358887,4248.974121,4238.717773,4096.666504,4217.948730,4246.666504,4230.000000,4219.615234,4205.512695,4164.615234,4377.179688,4365.384766,4209.871582,4356.794922,6985.000000,3.000000,63.000000,,,,0.000000,4.000000,4.000000,4.000000,4.000000,4.000000,4.000000,4.000000,4.000000,4.000000,4.000000,4.000000,4.000000,4.000000,4.000000,100.000000,,,,,,,,,,,,,,,,,28.000000,0.000000,0.503714,0.495789,-0.504578,0.495850,0.994750,-0.028812,0.061531,-15.696892,-35.657856,60.899082
1703503210.388221,1703503210.388458,113.000000,0.000000,4278.974121,4245.897461,4245.256348,4101.025879,4215.512695,4247.051270,4228.461426,4212.051270,4195.641113,4156.538574,4383.461426,4372.692383,4212.820313,4366.666504,7336.000000,3.000000,63.000000,,,,0.000000,4.000000,4.000000,4.000000,4.000000,4.000000,4.000000,4.000000,4.000000,4.000000,4.000000,4.000000,4.000000,4.000000,4.000000,100.000000,,,,,,,,,,,,,,,,,,,,,,,,,,,,
1703503210.396029,1703503210.396366,114.000000,0.000000,4289.871582,4246.282227,4248.589844,4103.589844,4212.948730,4244.230957,4227.436035,4203.205078,4187.563965,4154.230957,4387.692383,4377.948730,4227.563965,4382.436035,6200.000000,3.000000,63.000000,,,,0.000000,4.000000,4.000000,4.000000,4.000000,4.000000,4.000000,4.000000,4.000000,4.000000,4.000000,4.000000,4.000000,4.000000,4.000000,100.000000,,,,,,,,,,,,,,,,,,,,,,,,,,,,
1703503210.403837,1703503210.404174,115.000000,0.000000,4294.102539,4244.487305,4255.000000,4103.717773,4214.615234,4244.871582,4235.897461,4209.230957,4197.820313,4163.461426,4396.153809,4392.436035,4245.769043,4397.436035,6436.000000,3.000000,63.000000,,,,0.000000,4.000000,4.000000,4.000000,4.000000,4.000000,4.000000,4.000000,4.000000,4.000000,4.000000,4.000000,4.000000,4.000000,4.000000,100.000000,,,,,,,,,,,,,,,,,,,,,,,,,,,,
1703503210.411645,1703503210.412082,116.000000,0.000000,4288.974121,4242.820313,4259.358887,4105.897461,4216.538574,4253.717773,4246.410156,4217.948730,4202.436035,4165.128418,4399.615234,4400.128418,4249.487305,4395.256348,6985.000000,3.000000,63.000000,,,,0.000000,4.000000,4.000000,4.000000,4.000000,4.000000,4.000000,4.000000,4.000000,4.000000,4.000000,4.000000,4.000000,4.000000,4.000000,100.000000,,,,,,,,,,,,,,,,,29.000000,0.000000,0.503543,0.496216,-0.504028,0.496155,0.985960,-0.016604,0.050299,-15.760535,-35.542072,60.859173
1703503210.419453,1703503210.419890,117.000000,0.000000,4281.666504,4244.743652,4256.153809,4113.461426,4219.615234,4263.205078,4255.128418,4225.769043,4198.333496,4167.179688,4398.717773,4394.615234,4248.333496,4389.743652,7336.000000,3.000000,63.000000,,,,0.000000,4.000000,4.000000,4.000000,4.000000,4.000000,4.000000,4.000000,4.000000,4.000000,4.000000,4.000000,4.000000,4.000000,4.000000,100.000000,,,,,,,,,,,,,,,,,,,,,,,,,,,,
1703503210.427261,1703503210.427798,118.000000,0.000000,4278.205078,4242.948730,4257.692383,4120.128418,4222.948730,4262.948730,4261.922852,4236.153809,4199.871582,4165.769043,4401.153809,4399.102539,4254.230957,4395.512695,6200.000000,3.000000,63.000000,,,,0.000000,4.000000,4.000000,4.000000,4.000000,4.000000,4.000000,4.000000,4.000000,4.000000,4.000000,4.000000,4.000000,4.000000,4.000000,100.000000,,,,,,,,,,,,,,,,,,,,,,,,,,,,
1703503210.435069,1703503210.435606,119.000000,0.000000,4285.000000,4247.692383,4264.230957,4129.487305,4230.384766,4261.282227,4264.230957,4253.717773,4218.205078,4177.179688,4418.077148,4423.205078,4274.102539,4410.384766,6436.000000,3.000000,63.000000,,,,0.000000,4.000000,4.000000,4.000000,4.000000,4.000000,4.000000,4.000000,4.000000,4.000000,4.000000,4.000000,4.000000,4.000000,4.000000,100.000000,,,,,,,,,,,,,,,,,,,,,,,,,,,,
1703503210.442877,1703503210.443514,120.000000,0.000000,4293.846191,4259.743652,4265.384766,4137.563965,4234.615234,4263.333496,4266.025879,4279.743652,4251.025879,4217.563965,4442.820313,4445.128418,4301.410156,4427.436035,6985.000000,3.000000,63.000000,,,,0.000000,4.000000,4.000000,4.000000,4.000000,4.000000,4.000000,4.000000,4.000000,4.000000,4.000000,4.000000,4.000000,4.000000,4.000000,100.000000,,,,,,,,,,,,,,,,,30.000000,0.000000,0.503185,0.496399,-0.503845,0.496521,0.989867,-0.025882,0.050787,-15.701149,-35.454533,60.723255
1703503210.450685,1703503210.451322,121.000000,0.000000,4301.666504,4262.820313,4269.102539,4145.384766,4235.000000,4262.051270,4265.897461,4293.589844,4268.461426,4242.820313,4455.769043,4455.000000,4315.512695,4437.820313,7336.000000,3.000000,63.000000,,,,0.000000,4.000000,4.000000,4.000000,4.000000,4.000000,4.000000,4.000000,4.000000,4.000000,4.000000,4.000000,4.000000,4.000000,4.000000,100.000000,,,,,,,,,,,,,,,,,,,,,,,,,,,,
1703503210.458494,1703503210.459230,122.000000,0.000000,4308.717773,4265.512695,4277.692383,4159.615234,4239.743652,4259.871582,4265.128418,4285.384766,4270.641113,4238.717773,4457.307617,4458.205078,4322.051270,4441.538574,6200.000000,3.000000,63.000000,,,,0.000000,4.000000,4.000000,4.000000,4.000000,4.000000,4.000000,4.000000,4.000000,4.000000,4.000000,4.000000,4.000000,4.000000,4.000000,100.000000,,,,,,,,,,,,,,,,,,,,,,,,,,,,
1703503210.466302,1703503210.467038,123.000000,0.000000,4312.307617,4279.615234,4283.846191,4172.179688,4246.410156,4261.666504,4268.205078,4277.692383,4269.358887,4233.461426,4453.974121,4453.077148,4329.743652,4443.461426,6436.000000,3.000000,63.000000,,,,0.000000,4.000000,4.000000,4.000000,4.000000,4.000000,4.000000,4.000000,4.000000,4.000000,4.000000,4.000000,4.000000,4.000000,4.000000,100.000000,,,,,,,,,,,,,,,,,,,,,,,,,,,,
1703503210.474110,1703503210.474946,124.000000,0.000000,4317.692383,4293.974121,4290.128418,4182.307617,4255.384766,4264.487305,4273.333496,4281.538574,4266.410156,4238.717773,4461.025879,4454.230957,4341.153809,4451.153809,6985.000000,3.000000,63.000000,,,,0.000000,4.000000,4.000000,4.000000,4.000000,4.000000,4.000000,4.000000,4.000000,4.000000,4.000000,4.000000,4.000000,4.000000,4.000000,100.000000,,,,,,,,,,,,,,,,,31.000000,0.000000,0.502759,0.496277,-0.504089,0.496826,0.990844,-0.027347,0.053717,-15.481034,-35.542412,60.850929
1703503210.481918,1703503210.482754,125.000000,0.000000,4328.461426,4297.563965,4297.436035,4194.487305,4262.948730,4265.000000,4271.794922,4282.563965,4265.641113,4246.025879,4472.692383,4467.051270,4352.307617,4457.820313,7336.000000,3.000000,63.000000,,,,0.000000,4.000000,4.000000,4.000000,4.000000,4.000000,4.000000,4.000000,4.000000,4.000000,4.000000,4.000000,4.000000,4.000000,4.000000,100.000000,,,,,,,,,,,,,,,,,,,,,,,,,,,,
1703503210.489726,1703503210.490662,126.000000,0.000000,4335.512695,4300.000000,4306.922852,4207.307617,4263.974121,4262.436035,4270.256348,4271.794922,4258.717773,4240.128418,4465.897461,4469.615234,4350.384766,4452.179688,6200.000000,3.000000,63.000000,,,,0.000000,4.000000,4.000000,4.000000,4.000000,4.000000,4.000000,4.000000,4.000000,4.000000,4.000000,4.000000,4.000000,4.000000,4.000000,100.000000,,,,,,,,,,,,,,,,,,,,,,,,,,,,
1703503210.497534,1703503210.498470,127.000000,0.000000,4334.871582,4302.820313,4313.589844,4209.743652,4267.692383,4263.974121,4274.871582,4263.974121,4248.589844,4235.000000,4462.436035,4466.666504,4350.256348,4450.128418,63.000000,3.000000,63.000000,,,,0.000000,4.000000,4.000000,4.000000,4.000000,4.000000,4.000000,4.000000,4.000000,4.000000,4.000000,4.000000,4.000000,4.000000,4.000000,100.000000,,,,,,,,,,,,,,,,,,,,,,,,,,,,
1703503210.505342,1703503210.506178,0.000000,0.000000,4330.256348,4303.077148,4309.871582,4205.641113,4270.897461,4269.871582,4278.077148,4263.461426,4246.282227,4236.282227,4464.743652,4468.077148,4352.692383,4453.077148,5359.000000,3.000000,63.000000,,,,0.000000,4.000000,4.000000,4.000000,4.000000,4.000000,4.000000,4.000000,4.000000,4.000000,4.000000,4.000000,4.000000,4.000000,4.000000,100.000000,,,,,,,,,,,,,,,,,0.000000,0.000000,0.502328,0.496094,-0.504639,0.496887,0.998169,-0.028324,0.051764,-15.516264,-35.521503,60.949169
1703503210.513150,1703503210.513986,1.000000,0.000000,4324.358887,4299.358887,4306.025879,4207.820313,4266.794922,4276.153809,4280.000000,4261.153809,4246.922852,4234.102539,4452.563965,4464.102539,4342.436035,4444.487305,5607.000000,3.000000,63.000000,,,,0.000000,4.000000,4.000000,4.000000,4.000000,4.000000,4.000000,4.000000,4.000000,4.000000,4.000000,4.000000,4.000000,4.000000,4.000000,100.000000,,,,,,,,,,,,,,,,,,,,,,,,,,,,
1703503210.520958,1703503210.521694,2.000000,0.000000,4326.666504,4294.615234,4313.205078,4214.102539,4268.589844,4282.436035,4286.410156,4265.384766,4247.948730,4238.077148,4452.051270,4468.846191,4344.743652,4443.846191,5499.000000,3.000000,63.000000,,,,0.000000,4.000000,4.000000,4.000000,4.000000,4.000000,4.000000,4.000000,4.000000,4.000000,4.000000,4.000000,4.000000,4.000000,4.000000,100.000000,,,,,,,,,,,,,,,,,,,,,,,,,,,,
1703503210.528766,1703503210.529602,3.000000,0.000000,4333.717773,4301.922852,4320.769043,4216.282227,4276.410156,4287.820313,4292.692383,4275.641113,4245.384766,4239.230957,4465.512695,4482.948730,4356.794922,4454.487305,5480.000000,3.000000,63.000000,,,,0.000000,4.000000,4.000000,4.000000,4.000000,4.000000,4.000000,4.000000,4.000000,4.000000,4.000000,4.000000,4.000000,4.000000,4.000000,100.000000,,,,,,,,,,,,,,,,,,,,,,,,,,,,
1703503210.536574,1703503210.537410,4.000000,0.000000,4330.897461,4308.974121,4320.128418,4220.384766,4278.077148,4291.410156,4292.436035,4281.153809,4245.641113,4232.436035,4467.179688,4486.794922,4355.641113,4446.410156,5362.000000,3.000000,63.000000,,,,0.000000,4.000000,4.000000,4.000000,4.000000,4.000000,4.000000,4.000000,4.000000,4.000000,4.000000,4.000000,4.000000,4.000000,4.000000,100.000000,,,,,,,,,,,,,,,,,1.000000,0.000000,0.502142,0.495972,-0.504944,0.496887,0.986937,-0.026370,0.043951,-15.464638,-35.502686,60.820919
1703503210.544382,1703503210.545218,5.000000,0.000000,4323.077148,4300.000000,4320.128418,4229.615234,4276.922852,4294.230957,4290.897461,4293.974121,4267.436035,4250.128418,4471.666504,4490.641113,4358.589844,4436.282227,4921.000000,3.000000,63.000000,,,,0.000000,4.000000,4.000000,4.000000,4.000000,4.000000,4.000000,4.000000,4.000000,4.000000,4.000000,4.000000,4.000000,4.000000,4.000000,100.000000,,,,,,,,,,,,,,,,,,,,,,,,,,,,
1703503210.552190,1703503210.552926,6.000000,0.000000,4322.692383,4294.102539,4321.025879,4232.179688,4279.230957,4295.641113,4294.487305,4312.948730,4289.487305,4275.256348,4481.794922,4493.333496,4371.282227,4447.692383,4215.000000,3.000000,63.000000,,,,0.000000,4.000000,4.000000,4.000000,4.000000,4.000000,4.000000,4.000000,4.000000,4.000000,4.000000,4.000000,4.000000,4.000000,4.000000,100.000000,,,,,,,,,,,,,,,,,,,,,,,,,,,,
1703503210.559998,1703503210.560734,7.000000,0.000000,4327.307617,4303.589844,4316.794922,4231.153809,4284.230957,4294.230957,4294.487305,4314.358887,4285.512695,4269.230957,4486.025879,4488.589844,4376.025879,4458.717773,5035.000000,3.000000,63.000000,,,,0.000000,4.000000,4.000000,4.000000,4.000000,4.000000,4.000000,4.000000,4.000000,4.000000,4.000000,4.000000,4.000000,4.000000,4.000000,100.000000,,,,,,,,,,,,,,,,,,,,,,,,,,,,
1703503210.567806,1703503210.568442,8.000000,0.000000,4330.256348,4307.692383,4320.384766,4237.563965,4285.641113,4294.615234,4292.307617,4305.512695,4275.897461,4259.615234,4486.538574,4496.282227,4377.179688,4457.948730,4903.000000,3.000000,63.000000,,,,0.000000,4.000000,4.000000,4.000000,4.000000,4.000000,4.000000,4.000000,4.000000,4.000000,4.000000,4.000000,4.000000,4.000000,4.000000,100.000000,,,,,,,,,,,,,,,,,2.000000,0.000000,0.501774,0.495850,-0.505310,0.497009,0.976682,-0.024905,0.044439,-15.601507,-35.619083,60.755493
1703503210.575614,1703503210.576250,9.000000,0.000000,4337.692383,4306.538574,4332.051270,4246.666504,4286.282227,4296.922852,4287.179688,4306.025879,4283.205078,4273.205078,4491.025879,4511.410156,4388.846191,4466.153809,5614.000000,3.000000,63.000000,,,,0.000000,4.000000,4.000000,4.000000,4.000000,4.000000,4.000000,4.000000,4.000000,4.000000,4.000000,4.000000,4.000000,4.000000,4.000000,100.000000,,,,,,,,,,,,,,,,,,,,,,,,,,,,
1703503210.583422,1703503210.583958,10.000000,0.000000,4341.410156,4311.025879,4331.538574,4249.230957,4287.563965,4296.410156,4283.589844,4308.461426,4292.436035,4288.461426,4496.538574,4512.692383,4395.641113,4474.102539,6205.000000,3.000000,63.000000,,,,0.000000,4.000000,4.000000,4.000000,4.000000,4.000000,4.000000,4.000000,4.000000,4.000000,4.000000,4.000000,4.000000,4.000000,4.000000,100.000000,,,,,,,,,,,,,,,,,,,,,,,,,,,,
1703503210.591230,1703503210.591765,11.000000,0.000000,4336.025879,4311.153809,4324.102539,4250.512695,4285.512695,4294.102539,4283.589844,4300.769043,4286.794922,4287.692383,4493.205078,4504.487305,4387.051270,4465.769043,6442.000000,3.000000,63.000000,,,,0.000000,4.000000,4.000000,4.000000,4.000000,4.000000,4.000000,4.000000,4.000000,4.000000,4.000000,4.000000,4.000000,4.000000,4.000000,100.000000,,,,,,,,,,,,,,,,,,,,,,,,,,,,
1703503210.599038,1703503210.599473,12.000000,0.000000,4337.820313,4313.333496,4326.794922,4258.205078,4286.153809,4291.025879,4282.563965,4291.922852,4276.666504,4278.461426,4493.333496,4506.538574,4389.871582,4468.974121,6997.000000,3.000000,63.000000,,,,0.000000,4.000000,4.000000,4.000000,4.000000,4.000000,4.000000,4.000000,4.000000,4.000000,4.000000,4.000000,4.000000,4.000000,4.000000,100.000000,,,,,,,,,,,,,,,,,3.000000,0.000000,0.501590,0.495789,-0.505432,0.497131,0.982053,-0.027835,0.047857,-15.591356,-35.640511,60.813278
1703503210.606846,1703503210.607281,13.000000,0.000000,4345.256348,4321.025879,4338.077148,4265.512695,4291.410156,4296.538574,4288.461426,4297.948730,4277.563965,4276.153809,4500.512695,4517.820313,4401.538574,4479.487305,7363.000000,3.000000,63.000000,,,,0.000000,4.000000,4.000000,4.000000,4.000000,4.000000,4.000000,4.000000,4.000000,4.000000,4.000000,4.000000,4.000000,4.000000,4.000000,100.000000,,,,,,,,,,,,,,,,,,,,,,,,,,,,
1703503210.614655,1703503210.614989,14.000000,0.000000,4347.563965,4324.871582,4341.153809,4271.282227,4293.461426,4309.358887,4296.410156,4303.589844,4282.436035,4277.051270,4492.051270,4516.794922,4396.794922,4472.820313,6205.000000,3.000000,63.000000,,,,0.000000,4.000000,4.000000,4.000000,4.000000,4.000000,4.000000,4.000000,4.000000,4.000000,4.000000,4.000000,4.000000,4.000000,4.000000,100.000000,,,,,,,,,,,,,,,,,,,,,,,,,,,,
1703503210.622463,1703503210.622897,15.000000,0.000000,4342.051270,4324.743652,4329.743652,4276.153809,4293.974121,4312.948730,4299.615234,4297.179688,4278.077148,4279.615234,4476.922852,4502.820313,4387.563965,4468.077148,6442.000000,3.000000,63.000000,,,,0.000000,4.000000,4.000000,4.000000,4.000000,4.000000,4.000000,4.000000,4.000000,4.000000,4.000000,4.000000,4.000000,4.000000,4.000000,100.000000,,,,,,,,,,,,,,,,,,,,,,,,,,,,
1703503210.630271,1703503210.630705,16.000000,0.000000,4335.641113,4323.333496,4325.897461,4276.666504,4296.794922,4312.948730,4305.641113,4292.820313,4269.102539,4276.922852,4474.743652,4500.897461,4384.743652,4471.666504,0.000000,3.000000,63.000000,,,,0.000000,4.000000,4.000000,4.000000,4.000000,4.000000,4.000000,4.000000,4.000000,4.000000,4.000000,4.000000,4.000000,4.000000,4.000000,100.000000,,,,,,,,,,,,,,,,,4.000000,0.000000,0.501348,0.495789,-0.505432,0.497375,0.985960,-0.028812,0.057624,-15.665554,-35.743126,60.748619
1703503210.638079,1703503210.638613,17.000000,0.000000,4335.128418,4325.256348,4333.717773,4279.230957,4299.615234,4323.077148,4311.794922,4293.589844,4263.589844,4260.128418,4472.307617,4508.205078,4380.512695,4465.000000,0.000000,3.000000,63.000000,,,,0.000000,4.000000,4.000000,4.000000,4.000000,4.000000,4.000000,4.000000,4.000000,4.000000,4.000000,4.000000,4.000000,4.000000,4.000000,100.000000,,,,,,,,,,,,,,,,,,,,,,,,,,,,
1703503210.645887,1703503210.646421,18.000000,0.000000,4334.871582,4327.948730,4332.692383,4282.051270,4301.922852,4328.717773,4310.384766,4290.769043,4261.153809,4250.512695,4456.025879,4498.717773,4374.102539,4448.717773,0.000000,3.000000,63.000000,,,,0.000000,4.000000,4.000000,4.000000,4.000000,4.000000,4.000000,4.000000,4.000000,4.000000,4.000000,4.000000,4.000000,4.000000,4.000000,100.000000,,,,,,,,,,,,,,,,,,,,,,,,,,,,
1703503210.653695,1703503210.654328,19.000000,0.000000,4316.922852,4320.897461,4323.077148,4277.179688,4297.692383,4322.948730,4310.000000,4281.666504,4260.128418,4255.128418,4444.487305,4476.922852,4366.282227,4436.794922,0.000000,3.000000,63.000000,,,,0.000000,4.000000,4.000000,4.000000,4.000000,4.000000,4.000000,4.000000,4.000000,4.000000,4.000000,4.000000,4.000000,4.000000,4.000000,100.000000,,,,,,,,,,,,,,,,,,,,,,,,,,,,
1703503210.661503,1703503210.662136,20.000000,0.000000,4284.102539,4314.743652,4319.871582,4277.563965,4291.666504,4320.897461,4311.153809,4278.077148,4262.692383,4260.641113,4452.436035,4475.256348,4372.948730,4442.307617,0.000000,3.000000,63.000000,,,,0.000000,4.000000,4.000000,4.000000,4.000000,4.000000,4.000000,4.000000,4.000000,4.000000,4.000000,4.000000,4.000000,4.000000,4.000000,100.000000,,,,,,,,,,,,,,,,,5.000000,0.000000,0.501289,0.495850,-0.505310,0.497498,0.998169,-0.046881,0.059578,-15.748999,-35.635479,60.840424
1703503210.669311,1703503210.670044,21.000000,0.000000,4271.922852,4323.589844,4328.205078,4291.153809,4293.333496,4320.512695,4307.051270,4285.384766,4262.948730,4259.871582,4463.974121,4496.794922,4388.205078,4458.461426,0.000000,3.000000,63.000000,,,,0.000000,4.000000,4.000000,4.000000,4.000000,4.000000,4.000000,4.000000,4.000000,4.000000,4.000000,4.000000,4.000000,4.000000,4.000000,100.000000,,,,,,,,,,,,,,,,,,,,,,,,,,,,
1703503210.677119,1703503210.677852,22.000000,0.000000,4279.871582,4330.512695,4339.615234,4301.025879,4295.769043,4314.358887,4304.230957,4292.307617,4266.025879,4265.128418,4467.307617,4511.794922,4391.794922,4468.077148,0.000000,3.000000,63.000000,,,,0.000000,4.000000,4.000000,4.000000,4.000000,4.000000,4.000000,4.000000,4.000000,4.000000,4.000000,4.000000,4.000000,4.000000,4.000000,100.000000,,,,,,,,,,,,,,,,,,,,,,,,,,,,
1703503210.684927,1703503210.685760,23.000000,0.000000,4273.077148,4323.846191,4343.333496,4302.563965,4293.846191,4310.769043,4307.948730,4296.410156,4276.922852,4276.282227,4476.538574,4510.641113,4397.051270,4471.025879,0.000000,3.000000,63.000000,,,,0.000000,4.000000,4.000000,4.000000,4.000000,4.000000,4.000000,4.000000,4.000000,4.000000,4.000000,4.000000,4.000000,4.000000,4.000000,100.000000,,,,,,,,,,,,,,,,,,,,,,,,,,,,
1703503210.692735,1703503210.693568,24.000000,0.000000,4261.922852,4322.820313,4338.974121,4307.948730,4291.538574,4309.743652,4307.051270,4300.128418,4272.692383,4264.358887,4480.769043,4505.769043,4402.563965,4469.230957,0.000000,3.000000,63.000000,,,,0.000000,4.000000,4.000000,4.000000,4.000000,4.000000,4.000000,4.000000,4.000000,4.000000,4.000000,4.000000,4.000000,4.000000,4.000000,100.000000,,,,,,,,,,,,,,,,,6.000000,0.000000,0.501166,0.495850,-0.505432,0.497498,0.985960,-0.029300,0.056159,-15.657432,-35.621933,60.923046
1703503210.700543,1703503210.701276,25.000000,0.000000,4270.897461,4332.820313,4341.153809,4315.384766,4292.948730,4308.077148,4299.743652,4306.538574,4266.666504,4260.384766,4477.307617,4514.487305,4400.000000,4474.743652,0.000000,3.000000,63.000000,,,,0.000000,4.000000,4.000000,4.000000,4.000000,4.000000,4.000000,4.000000,4.000000,4.000000,4.000000,4.000000,4.000000,4.000000,4.000000,100.000000,,,,,,,,,,,,,,,,,,,,,,,,,,,,
1703503210.708351,1703503210.709084,26.000000,0.000000,4282.307617,4337.820313,4354.230957,4319.743652,4294.102539,4308.589844,4301.025879,4313.846191,4280.512695,4291.282227,4487.820313,4535.128418,4409.230957,4490.128418,0.000000,3.000000,63.000000,,,,0.000000,4.000000,4.000000,4.000000,4.000000,4.000000,4.000000,4.000000,4.000000,4.000000,4.000000,4.000000,4.000000,4.000000,4.000000,100.000000,,,,,,,,,,,,,,,,,,,,,,,,,,,,
1703503210.716159,1703503210.716792,27.000000,0.000000,4279.230957,4335.769043,4358.205078,4322.051270,4296.794922,4312.179688,4309.358887,4316.025879,4286.410156,4291.922852,4497.051270,4539.487305,4415.897461,4488.589844,0.000000,3.000000,63.000000,,,,0.000000,4.000000,4.000000,4.000000,4.000000,4.000000,4.000000,4.000000,4.000000,4.000000,4.000000,4.000000,4.000000,4.000000,4.000000,100.000000,,,,,,,,,,,,,,,,,,,,,,,,,,,,
1703503210.723967,1703503210.724600,28.000000,0.000000,4269.230957,4331.025879,4343.461426,4319.743652,4299.743652,4312.820313,4310.512695,4308.717773,4272.563965,4258.205078,4479.358887,4516.794922,4393.205078,4467.820313,0.000000,3.000000,63.000000,,,,0.000000,4.000000,4.000000,4.000000,4.000000,4.000000,4.000000,4.000000,4.000000,4.000000,4.000000,4.000000,4.000000,4.000000,4.000000,100.000000,,,,,,,,,,,,,,,,,7.000000,0.000000,0.501166,0.495789,-0.505432,0.497559,0.981077,-0.028812,0.048346,-15.608356,-35.693073,60.914074
1703503210.731775,1703503210.732308,29.000000,0.000000,4260.256348,4324.743652,4332.307617,4317.948730,4295.512695,4311.538574,4309.871582,4307.051270,4275.000000,4272.179688,4459.743652,4500.256348,4377.948730,4457.692383,0.000000,3.000000,63.000000,,,,0.000000,4.000000,4.000000,4.000000,4.000000,4.000000,4.000000,4.000000,4.000000,4.000000,4.000000,4.000000,4.000000,4.000000,4.000000,100.000000,,,,,,,,,,,,,,,,,,,,,,,,,,,,
1703503210.739583,1703503210.740116,30.000000,0.000000,4266.410156,4324.230957,4341.794922,4325.256348,4299.615234,4312.948730,4312.692383,4316.794922,4296.282227,4308.974121,4473.461426,4517.307617,4400.256348,4473.717773,0.000000,3.000000,63.000000,,,,0.000000,4.000000,4.000000,4.000000,4.000000,4.000000,4.000000,4.000000,4.000000,4.000000,4.000000,4.000000,4.000000,4.000000,4.000000,100.000000,,,,,,,,,,,,,,,,,,,,,,,,,,,,
1703503210.747391,1703503210.747824,31.000000,0.000000,4275.384766,4326.538574,4351.025879,4329.358887,4308.846191,4311.922852,4312.563965,4317.563965,4301.922852,4302.563965,4492.179688,4535.641113,4417.436035,4490.512695,0.000000,3.000000,63.000000,,,,0.000000,4.000000,4.000000,4.000000,4.000000,4.000000,4.000000,4.000000,4.000000,4.000000,4.000000,4.000000,4.000000,4.000000,4.000000,100.000000,,,,,,,,,,,,,,,,,,,,,,,,,,,,
1703503210.755200,1703503210.755632,32.000000,0.000000,4270.000000,4327.307617,4347.692383,4327.307617,4301.666504,4311.025879,4311.025879,4314.102539,4297.436035,4288.333496,4487.563965,4527.948730,4408.846191,4480.000000,0.000000,3.000000,63.000000,,,,0.000000,4.000000,4.000000,4.000000,4.000000,4.000000,4.000000,4.000000,4.000000,4.000000,4.000000,4.000000,4.000000,4.000000,4.000000,100.000000,,,,,,,,,,,,,,,,,8.000000,0.000000,0.501164,0.495605,-0.505493,0.497681,0.988890,-0.023440,0.057136,-15.764187,-35.573765,60.922668
1703503210.763008,1703503210.763340,33.000000,0.000000,4258.461426,4324.358887,4338.974121,4323.461426,4295.000000,4312.179688,4304.102539,4309.358887,4294.743652,4284.743652,4472.051270,4506.538574,4396.666504,4457.436035,0.000000,3.000000,63.000000,,,,0.000000,4.000000,4.000000,4.000000,4.000000,4.000000,4.000000,4.000000,4.000000,4.000000,4.000000,4.000000,4.000000,4.000000,4.000000,100.000000,1.000000,41.666668,4.000000,4.000000,3.000000,1.000000,1.000000,3.000000,4.000000,3.000000,4.000000,3.000000,3.000000,3.000000,4.000000,4.000000,,,,,,,,,,,,
1703503210.770815,1703503210.771148,34.000000,0.000000,4253.205078,4316.666504,4336.410156,4318.717773,4299.615234,4305.256348,4294.102539,4297.051270,4284.358887,4269.871582,4459.615234,4498.333496,4388.461426,4452.051270,0.000000,3.000000,63.000000,,,,0.000000,4.000000,4.000000,4.000000,4.000000,4.000000,4.000000,4.000000,4.000000,4.000000,4.000000,4.000000,4.000000,4.000000,4.000000,100.000000,,,,,,,,,,,,,,,,,,,,,,,,,,,,
1703503210.778624,1703503210.778856,35.000000,0.000000,4258.205078,4312.820313,4341.922852,4318.846191,4298.717773,4297.051270,4293.589844,4294.230957,4278.205078,4261.410156,4464.871582,4514.615234,4395.769043,4467.307617,0.000000,3.000000,63.000000,,,,0.000000,4.000000,4.000000,4.000000,4.000000,4.000000,4.000000,4.000000,4.000000,4.000000,4.000000,4.000000,4.000000,4.000000,4.000000,100.000000,,,,,,,,,,,,,,,,,,,,,,,,,,,,
1703503210.786432,1703503210.786664,36.000000,0.000000,4259.743652,4313.974121,4337.051270,4318.717773,4292.563965,4295.769043,4296.410156,4306.282227,4285.128418,4272.179688,4474.615234,4522.436035,4406.794922,4477.179688,0.000000,3.000000,63.000000,,,,0.000000,4.000000,4.000000,4.000000,4.000000,4.000000,4.000000,4.000000,4.000000,4.000000,4.000000,4.000000,4.000000,4.000000,4.000000,100.000000,,,,,,,,,,,,,,,,,9.000000,0.000000,0.501225,0.495483,-0.505493,0.497742,0.994750,-0.029789,0.047369,-15.937768,-35.616386,60.913734
1703503210.794240,1703503210.794372,37.000000,0.000000,4252.692383,4308.846191,4326.410156,4310.897461,4289.487305,4295.384766,4295.641113,4312.436035,4287.692383,4282.051270,4464.487305,4506.794922,4392.436035,4462.820313,0.000000,3.000000,63.000000,,,,0.000000,4.000000,4.000000,4.000000,4.000000,4.000000,4.000000,4.000000,4.000000,4.000000,4.000000,4.000000,4.000000,4.000000,4.000000,100.000000,,,,,,,,,,,,,,,,,,,,,,,,,,,,
1703503210.802048,1703503210.802280,38.000000,0.000000,4248.717773,4305.512695,4325.384766,4308.589844,4288.077148,4293.205078,4294.615234,4314.615234,4288.077148,4281.922852,4464.358887,4505.897461,4392.563965,4458.333496,0.000000,3.000000,63.000000,,,,0.000000,4.000000,4.000000,4.000000,4.000000,4.000000,4.000000,4.000000,4.000000,4.000000,4.000000,4.000000,4.000000,4.000000,4.000000,100.000000,,,,,,,,,,,,,,,,,,,,,,,,,,,,
1703503210.809856,1703503210.810087,39.000000,0.000000,4252.563965,4307.948730,4327.563965,4312.948730,4285.256348,4288.333496,4294.487305,4319.487305,4292.051270,4274.615234,4480.384766,4521.410156,4414.230957,4472.948730,0.000000,3.000000,63.000000,,,,0.000000,4.000000,4.000000,4.000000,4.000000,4.000000,4.000000,4.000000,4.000000,4.000000,4.000000,4.000000,4.000000,4.000000,4.000000,100.000000,,,,,,,,,,,,,,,,,,,,,,,,,,,,
1703503210.817664,1703503210.817995,40.000000,0.000000,4256.153809,4308.205078,4331.410156,4314.871582,4279.743652,4279.102539,4290.384766,4313.333496,4290.641113,4276.666504,4472.436035,4518.461426,4402.179688,4471.025879,0.000000,3.000000,63.000000,,,,0.000000,4.000000,4.000000,4.000000,4.000000,4.000000,4.000000,4.000000,4.000000,4.000000,4.000000,4.000000,4.000000,4.000000,4.000000,100.000000,,,,,,,,,,,,,,,,,10.000000,0.000000,0.500979,0.495361,-0.505676,0.497925,0.992309,-0.026370,0.056159,-15.860658,-35.604748,60.939026
1703503210.825472,1703503210.825803,41.000000,0.000000,4255.256348,4307.051270,4333.333496,4315.256348,4278.974121,4276.538574,4290.384766,4311.153809,4290.897461,4288.589844,4464.102539,4506.666504,4382.820313,4458.974121,0.000000,3.000000,63.000000,,,,0.000000,4.000000,4.000000,4.000000,4.000000,4.000000,4.000000,4.000000,4.000000,4.000000,4.000000,4.000000,4.000000,4.000000,4.000000,100.000000,,,,,,,,,,,,,,,,,,,,,,,,,,,,
1703503210.833280,1703503210.833711,42.000000,0.000000,4251.153809,4306.794922,4329.102539,4315.000000,4281.153809,4285.128418,4290.128418,4310.384766,4285.384766,4272.692383,4464.743652,4498.589844,4382.307617,4451.282227,0.000000,3.000000,63.000000,,,,0.000000,4.000000,4.000000,4.000000,4.000000,4.000000,4.000000,4.000000,4.000000,4.000000,4.000000,4.000000,4.000000,4.000000,4.000000,100.000000,,,,,,,,,,,,,,,,,,,,,,,,,,,,
1703503210.841088,1703503210.841519,43.000000,0.000000,4247.948730,4310.897461,4322.307617,4315.769043,4281.794922,4292.179688,4282.948730,4298.461426,4277.436035,4250.512695,4452.563965,4488.461426,4371.282227,4440.256348,0.000000,3.000000,63.000000,,,,0.000000,4.000000,4.000000,4.000000,4.000000,4.000000,4.000000,4.000000,4.000000,4.000000,4.000000,4.000000,4.000000,4.000000,4.000000,100.000000,,,,,,,,,,,,,,,,,,,,,,,,,,,,
1703503210.848896,1703503210.849427,44.000000,0.000000,4248.717773,4313.974121,4317.692383,4320.769043,4287.307617,4293.846191,4285.512695,4297.692383,4283.333496,4268.717773,4447.179688,4488.077148,4361.153809,4437.948730,0.000000,3.000000,63.000000,,,,0.000000,4.000000,4.000000,4.000000,4.000000,4.000000,4.000000,4.000000,4.000000,4.000000,4.000000,4.000000,4.000000,4.000000,4.000000,100.000000,,,,,,,,,,,,,,,,,11.000000,0.000000,0.500733,0.495300,-0.505859,0.498047,0.997192,-0.030765,0.058113,-15.974592,-35.510941,60.845123
1703503210.856704,1703503210.857235,45.000000,0.000000,4246.794922,4304.743652,4313.974121,4323.974121,4293.205078,4296.538574,4295.512695,4304.743652,4289.358887,4283.461426,4450.512695,4486.538574,4364.871582,4443.461426,0.000000,3.000000,63.000000,,,,0.000000,4.000000,4.000000,4.000000,4.000000,4.000000,4.000000,4.000000,4.000000,4.000000,4.000000,4.000000,4.000000,4.000000,4.000000,100.000000,,,,,,,,,,,,,,,,,,,,,,,,,,,,
1703503210.864512,1703503210.865143,46.000000,0.000000,4246.794922,4294.615234,4316.153809,4326.025879,4294.871582,4297.179688,4290.641113,4301.666504,4286.666504,4263.974121,4450.769043,4480.128418,4367.948730,4445.256348,0.000000,3.000000,63.000000,,,,0.000000,4.000000,4.000000,4.000000,4.000000,4.000000,4.000000,4.000000,4.000000,4.000000,4.000000,4.000000,4.000000,4.000000,4.000000,100.000000,,,,,,,,,,,,,,,,,,,,,,,,,,,,
1703503210.872320,1703503210.872951,47.000000,0.000000,4250.256348,4299.230957,4324.615234,4325.384766,4294.102539,4288.333496,4279.230957,4297.179688,4285.641113,4257.692383,4449.358887,4483.846191,4362.563965,4445.000000,0.000000,3.000000,63.000000,,,,0.000000,4.000000,4.000000,4.000000,4.000000,4.000000,4.000000,4.000000,4.000000,4.000000,4.000000,4.000000,4.000000,4.000000,4.000000,100.000000,,,,,,,,,,,,,,,,,,,,,,,,,,,,
1703503210.880128,1703503210.880859,48.000000,0.000000,4252.179688,4306.794922,4325.641113,4323.717773,4286.794922,4276.538574,4277.307617,4301.922852,4284.358887,4269.871582,4452.179688,4493.077148,4356.410156,4446.794922,0.000000,3.000000,63.000000,,,,0.000000,4.000000,4.000000,4.000000,4.000000,4.000000,4.000000,4.000000,4.000000,4.000000,4.000000,4.000000,4.000000,4.000000,4.000000,100.000000,,,,,,,,,,,,,,,,,12.000000,0.000000,0.500730,0.495178,-0.505981,0.498047,0.982053,-0.024417,0.056159,-15.927133,-35.626514,60.693947
1703503210.887936,1703503210.888667,49.000000,0.000000,4249.743652,4299.102539,4320.769043,4322.563965,4276.538574,4273.077148,4275.256348,4305.897461,4279.358887,4262.820313,4466.025879,4500.512695,4355.256348,4452.820313,0.000000,3.000000,63.000000,,,,0.000000,4.000000,4.000000,4.000000,4.000000,4.000000,4.000000,4.000000,4.000000,4.000000,4.000000,4.000000,4.000000,4.000000,4.000000,100.000000,,,,,,,,,,,,,,,,,,,,,,,,,,,,
1703503210.895744,1703503210.896375,50.000000,0.000000,4247.436035,4288.333496,4323.205078,4318.461426,4272.436035,4273.077148,4273.717773,4310.769043,4279.615234,4259.230957,4488.205078,4508.846191,4354.487305,4462.436035,0.000000,3.000000,63.000000,,,,0.000000,4.000000,4.000000,4.000000,4.000000,4.000000,4.000000,4.000000,4.000000,4.000000,4.000000,4.000000,4.000000,4.000000,4.000000,100.000000,,,,,,,,,,,,,,,,,,,,,,,,,,,,
1703503210.903552,1703503210.904183,51.000000,0.000000,4254.102539,4295.897461,4326.538574,4319.871582,4276.666504,4272.436035,4277.307617,4318.461426,4291.025879,4280.384766,4494.358887,4512.692383,4343.077148,4470.512695,0.000000,3.000000,63.000000,,,,0.000000,4.000000,4.000000,4.000000,4.000000,4.000000,4.000000,4.000000,4.000000,4.000000,4.000000,4.000000,4.000000,4.000000,4.000000,100.000000,,,,,,,,,,,,,,,,,,,,,,,,,,,,
1703503210.911361,1703503210.911891,52.000000,0.000000,4257.051270,4306.666504,4322.692383,4326.666504,4278.077148,4274.230957,4278.077148,4316.922852,4288.717773,4279.230957,4486.153809,4506.666504,4321.282227,4463.717773,0.000000,3.000000,63.000000,,,,0.000000,4.000000,4.000000,4.000000,4.000000,4.000000,4.000000,4.000000,4.000000,4.000000,4.000000,4.000000,4.000000,4.000000,4.000000,100.000000,,,,,,,,,,,,,,,,,13.000000,0.000000,0.500610,0.495361,-0.505981,0.497986,0.996704,-0.024417,0.045904,-15.817753,-35.530529,60.707886
1703503210.919169,1703503210.919699,53.000000,0.000000,4250.384766,4301.282227,4319.615234,4325.769043,4273.846191,4275.769043,4276.025879,4309.487305,4267.948730,4255.000000,4476.922852,4497.563965,4305.000000,4447.948730,0.000000,3.000000,63.000000,,,,0.000000,4.000000,4.000000,4.000000,4.000000,4.000000,4.000000,4.000000,4.000000,4.000000,4.000000,4.000000,4.000000,4.000000,4.000000,100.000000,,,,,,,,,,,,,,,,,,,,,,,,,,,,
1703503210.926977,1703503210.927407,54.000000,0.000000,4246.538574,4295.000000,4318.205078,4320.128418,4274.358887,4275.897461,4277.563965,4306.922852,4264.615234,4256.794922,4469.743652,4491.922852,4302.692383,4445.641113,0.000000,3.000000,63.000000,,,,0.000000,4.000000,4.000000,4.000000,4.000000,4.000000,4.000000,4.000000,4.000000,4.000000,4.000000,4.000000,4.000000,4.000000,4.000000,100.000000,,,,,,,,,,,,,,,,,,,,,,,,,,,,
1703503210.934785,1703503210.935315,55.000000,0.000000,4247.436035,4296.410156,4318.333496,4319.487305,4283.205078,4283.974121,4283.461426,4305.384766,4273.717773,4269.102539,4472.051270,4491.922852,4308.589844,4451.025879,0.000000,3.000000,63.000000,,,,0.000000,4.000000,4.000000,4.000000,4.000000,4.000000,4.000000,4.000000,4.000000,4.000000,4.000000,4.000000,4.000000,4.000000,4.000000,100.000000,,,,,,,,,,,,,,,,,,,,,,,,,,,,
1703503210.942593,1703503210.943123,56.000000,0.000000,4248.589844,4295.256348,4321.538574,4323.461426,4286.922852,4292.051270,4283.717773,4296.025879,4270.512695,4265.256348,4478.461426,4493.205078,4315.512695,4450.256348,0.000000,3.000000,63.000000,,,,0.000000,4.000000,4.000000,4.000000,4.000000,4.000000,4.000000,4.000000,4.000000,4.000000,4.000000,4.000000,4.000000,4.000000,4.000000,100.000000,,,,,,,,,,,,,,,,,14.000000,0.000000,0.500488,0.495483,-0.506042,0.497925,0.975705,-0.031742,0.055183,-15.852644,-35.527477,60.587097
1703503210.950401,1703503210.950931,57.000000,0.000000,4250.000000,4294.487305,4320.256348,4328.205078,4280.128418,4288.205078,4278.589844,4287.948730,4266.922852,4255.897461,4471.538574,4486.794922,4313.846191,4445.000000,0.000000,3.000000,63.000000,,,,0.000000,4.000000,4.000000,4.000000,4.000000,4.000000,4.000000,4.000000,4.000000,4.000000,4.000000,4.000000,4.000000,4.000000,4.000000,100.000000,,,,,,,,,,,,,,,,,,,,,,,,,,,,
1703503210.958209,1703503210.958639,58.000000,0.000000,4248.717773,4295.128418,4317.436035,4328.717773,4279.871582,4280.769043,4277.051270,4288.205078,4269.230957,4251.538574,4456.794922,4481.666504,4303.846191,4437.692383,0.000000,3.000000,63.000000,,,,0.000000,4.000000,4.000000,4.000000,4.000000,4.000000,4.000000,4.000000,4.000000,4.000000,4.000000,4.000000,4.000000,4.000000,4.000000,100.000000,,,,,,,,,,,,,,,,,,,,,,,,,,,,
1703503210.966017,1703503210.966547,59.000000,0.000000,4246.538574,4290.384766,4319.102539,4325.641113,4288.205078,4279.487305,4279.358887,4299.230957,4278.717773,4259.487305,4467.307617,4491.666504,4316.153809,4446.538574,0.000000,3.000000,63.000000,,,,0.000000,4.000000,4.000000,4.000000,4.000000,4.000000,4.000000,4.000000,4.000000,4.000000,4.000000,4.000000,4.000000,4.000000,4.000000,100.000000,,,,,,,,,,,,,,,,,,,,,,,,,,,,
1703503210.973825,1703503210.974356,60.000000,0.000000,4246.794922,4288.461426,4318.717773,4324.615234,4288.846191,4285.128418,4286.538574,4316.666504,4289.102539,4264.230957,4480.128418,4504.487305,4331.794922,4458.077148,0.000000,3.000000,63.000000,,,,0.000000,4.000000,4.000000,4.000000,4.000000,4.000000,4.000000,4.000000,4.000000,4.000000,4.000000,4.000000,4.000000,4.000000,4.000000,100.000000,,,,,,,,,,,,,,,,,15.000000,0.000000,0.500495,0.495789,-0.505676,0.497986,0.986937,-0.039556,0.064461,-15.900713,-35.474728,60.578388
1703503210.981633,1703503210.982264,61.000000,0.000000,4249.487305,4293.589844,4316.922852,4327.307617,4286.666504,4292.179688,4294.871582,4329.102539,4293.717773,4270.769043,4478.077148,4501.282227,4321.794922,4449.102539,0.000000,3.000000,63.000000,,,,0.000000,4.000000,4.000000,4.000000,4.000000,4.000000,4.000000,4.000000,4.000000,4.000000,4.000000,4.000000,4.000000,4.000000,4.000000,100.000000,,,,,,,,,,,,,,,,,,,,,,,,,,,,
1703503210.989441,1703503210.990072,62.000000,0.000000,4254.358887,4296.666504,4319.358887,4334.743652,4292.179688,4294.743652,4298.077148,4343.589844,4313.717773,4309.102539,4501.666504,4505.512695,4341.538574,4461.538574,0.000000,3.000000,63.000000,,,,0.000000,4.000000,4.000000,4.000000,4.000000,4.000000,4.000000,4.000000,4.000000,4.000000,4.000000,4.000000,4.000000,4.000000,4.000000,100.000000,,,,,,,,,,,,,,,,,,,,,,,,,,,,
1703503210.997249,1703503210.997980,63.000000,0.000000,4264.230957,4301.794922,4327.436035,4345.897461,4296.282227,4296.538574,4300.128418,4356.410156,4333.589844,4335.512695,4532.948730,4529.487305,4387.051270,4495.000000,0.000000,3.000000,63.000000,,,,0.000000,4.000000,4.000000,4.000000,4.000000,4.000000,4.000000,4.000000,4.000000,4.000000,4.000000,4.000000,4.000000,4.000000,4.000000,100.000000,,,,,,,,,,,,,,,,,,,,,,,,,,,,
1703503211.005057,1703503211.005788,64.000000,0.000000,4276.666504,4317.692383,4340.256348,4360.256348,4300.000000,4305.384766,4301.922852,4350.512695,4325.641113,4317.948730,4536.538574,4543.333496,4396.282227,4500.897461,5359.000000,3.000000,63.000000,,,,0.000000,4.000000,4.000000,4.000000,4.000000,4.000000,4.000000,4.000000,4.000000,4.000000,4.000000,4.000000,4.000000,4.000000,4.000000,100.000000,,,,,,,,,,,,,,,,,16.000000,0.000000,0.500559,0.495789,-0.505432,0.498169,1.000122,-0.022464,0.058601,-15.860641,-35.593922,60.620548
1703503211.012865,1703503211.013696,65.000000,0.000000,4283.205078,4328.717773,4346.410156,4368.077148,4303.589844,4309.487305,4297.948730,4331.922852,4313.333496,4306.410156,4526.025879,4537.179688,4379.871582,4490.000000,5597.000000,3.000000,63.000000,,,,0.000000,4.000000,4.000000,4.000000,4.000000,4.000000,4.000000,4.000000,4.000000,4.000000,4.000000,4.000000,4.000000,4.000000,4.000000,100.000000,,,,,,,,,,,,,,,,,,,,,,,,,,,,
1703503211.020673,1703503211.021503,66.000000,0.000000,4281.282227,4324.743652,4341.025879,4364.615234,4301.410156,4299.615234,4294.102539,4314.871582,4306.025879,4306.794922,4515.512695,4527.051270,4373.461426,4485.256348,5507.000000,3.000000,63.000000,,,,0.000000,4.000000,4.000000,4.000000,4.000000,4.000000,4.000000,4.000000,4.000000,4.000000,4.000000,4.000000,4.000000,4.000000,4.000000,100.000000,,,,,,,,,,,,,,,,,,,,,,,,,,,,
1703503211.028481,1703503211.029411,67.000000,0.000000,4278.461426,4322.051270,4337.820313,4357.563965,4302.820313,4294.615234,4296.282227,4303.974121,4295.000000,4292.051270,4506.282227,4521.538574,4374.487305,4484.230957,5480.000000,3.000000,63.000000,,,,0.000000,4.000000,4.000000,4.000000,4.000000,4.000000,4.000000,4.000000,4.000000,4.000000,4.000000,4.000000,4.000000,4.000000,4.000000,100.000000,,,,,,,,,,,,,,,,,,,,,,,,,,,,
1703503211.036289,1703503211.037219,68.000000,0.000000,4279.102539,4320.512695,4341.153809,4345.769043,4302.436035,4295.384766,4297.436035,4294.615234,4283.717773,4277.692383,4493.461426,4511.538574,4363.589844,4474.871582,5362.000000,3.000000,63.000000,,,,0.000000,4.000000,4.000000,4.000000,4.000000,4.000000,4.000000,4.000000,4.000000,4.000000,4.000000,4.000000,4.000000,4.000000,4.000000,100.000000,,,,,,,,,,,,,,,,,17.000000,0.000000,0.500561,0.495667,-0.505249,0.498474,1.003052,-0.033696,0.051764,-15.774578,-35.534531,60.491825
1703503211.044097,1703503211.045127,69.000000,0.000000,4275.256348,4313.077148,4342.051270,4328.589844,4293.717773,4287.179688,4287.692383,4279.487305,4273.333496,4267.563965,4471.410156,4496.025879,4343.717773,4458.205078,4921.000000,3.000000,63.000000,,,,0.000000,4.000000,4.000000,4.000000,4.000000,4.000000,4.000000,4.000000,4.000000,4.000000,4.000000,4.000000,4.000000,4.000000,4.000000,100.000000,,,,,,,,,,,,,,,,,,,,,,,,,,,,
1703503211.051906,1703503211.052935,70.000000,0.000000,4267.436035,4309.230957,4337.563965,4321.922852,4289.102539,4278.333496,4279.615234,4272.820313,4269.743652,4257.051270,4459.358887,4490.897461,4335.384766,4449.615234,4215.000000,3.000000,63.000000,,,,0.000000,4.000000,4.000000,4.000000,4.000000,4.000000,4.000000,4.000000,4.000000,4.000000,4.000000,4.000000,4.000000,4.000000,4.000000,100.000000,,,,,,,,,,,,,,,,,,,,,,,,,,,,
1703503211.059713,1703503211.060843,71.000000,0.000000,4263.205078,4307.820313,4334.871582,4324.102539,4288.717773,4278.077148,4285.128418,4285.384766,4274.871582,4255.897461,4464.230957,4494.743652,4335.512695,4444.743652,5043.000000,3.000000,63.000000,,,,0.000000,4.000000,4.000000,4.000000,4.000000,4.000000,4.000000,4.000000,4.000000,4.000000,4.000000,4.000000,4.000000,4.000000,4.000000,100.000000,,,,,,,,,,,,,,,,,,,,,,,,,,,,
1703503211.067521,1703503211.068651,72.000000,0.000000,4258.333496,4301.794922,4328.461426,4317.820313,4289.487305,4279.615234,4287.820313,4299.230957,4280.384766,4265.256348,4461.922852,4489.615234,4330.769043,4431.282227,4911.000000,3.000000,63.000000,,,,0.000000,4.000000,4.000000,4.000000,4.000000,4.000000,4.000000,4.000000,4.000000,4.000000,4.000000,4.000000,4.000000,4.000000,4.000000,100.000000,,,,,,,,,,,,,,,,,18.000000,0.000000,0.500499,0.495544,-0.505310,0.498596,0.986449,-0.042486,0.056159,-15.530454,-35.731075,60.459309
1703503211.075330,1703503211.076359,73.000000,0.000000,4246.666504,4293.077148,4315.512695,4310.256348,4286.025879,4277.948730,4282.563965,4303.461426,4278.717773,4261.666504,4444.230957,4472.948730,4322.436035,4421.666504,5632.000000,3.000000,63.000000,,,,0.000000,4.000000,4.000000,4.000000,4.000000,4.000000,4.000000,4.000000,4.000000,4.000000,4.000000,4.000000,4.000000,4.000000,4.000000,100.000000,,,,,,,,,,,,,,,,,,,,,,,,,,,,
1703503211.083138,1703503211.084167,74.000000,0.000000,4245.641113,4287.820313,4312.692383,4310.256348,4281.410156,4278.077148,4288.717773,4307.563965,4275.512695,4246.153809,4436.538574,4467.948730,4316.666504,4422.307617,6212.000000,3.000000,63.000000,,,,0.000000,4.000000,4.000000,4.000000,4.000000,4.000000,4.000000,4.000000,4.000000,4.000000,4.000000,4.000000,4.000000,4.000000,4.000000,100.000000,,,,,,,,,,,,,,,,,,,,,,,,,,,,
1703503211.090946,1703503211.091875,75.000000,0.000000,4256.794922,4290.769043,4319.615234,4311.922852,4289.358887,4281.666504,4297.820313,4315.000000,4282.436035,4253.077148,4451.282227,4478.974121,4320.512695,4427.820313,6446.000000,3.000000,63.000000,,,,0.000000,4.000000,4.000000,4.000000,4.000000,4.000000,4.000000,4.000000,4.000000,4.000000,4.000000,4.000000,4.000000,4.000000,4.000000,100.000000,,,,,,,,,,,,,,,,,,,,,,,,,,,,
1703503211.098754,1703503211.099683,76.000000,0.000000,4255.000000,4297.307617,4320.769043,4316.794922,4294.743652,4282.051270,4291.538574,4308.333496,4280.384766,4260.384766,4445.128418,4477.179688,4315.384766,4424.871582,7015.000000,3.000000,63.000000,,,,0.000000,4.000000,4.000000,4.000000,4.000000,4.000000,4.000000,4.000000,4.000000,4.000000,4.000000,4.000000,4.000000,4.000000,4.000000,100.000000,,,,,,,,,,,,,,,,,19.000000,0.000000,0.500616,0.495239,-0.505493,0.498596,0.987914,-0.047369,0.064949,-15.694075,-35.774635,60.430046
1703503211.106562,1703503211.107391,77.000000,0.000000,4253.461426,4298.846191,4321.410156,4322.051270,4287.948730,4276.538574,4281.025879,4289.358887,4265.000000,4247.820313,4426.666504,4468.974121,4306.922852,4416.153809,7364.000000,3.000000,63.000000,,,,0.000000,4.000000,4.000000,4.000000,4.000000,4.000000,4.000000,4.000000,4.000000,4.000000,4.000000,4.000000,4.000000,4.000000,4.000000,100.000000,,,,,,,,,,,,,,,,,,,,,,,,,,,,
1703503211.114370,1703503211.115299,78.000000,0.000000,4260.512695,4295.128418,4327.820313,4317.436035,4283.205078,4265.000000,4273.077148,4279.358887,4260.641113,4245.769043,4441.153809,4475.641113,4323.205078,4424.102539,6212.000000,3.000000,63.000000,,,,0.000000,4.000000,4.000000,4.000000,4.000000,4.000000,4.000000,4.000000,4.000000,4.000000,4.000000,4.000000,4.000000,4.000000,4.000000,100.000000,,,,,,,,,,,,,,,,,,,,,,,,,,,,
1703503211.122178,1703503211.123107,79.000000,0.000000,4256.538574,4290.897461,4325.512695,4309.487305,4276.282227,4251.666504,4264.615234,4267.436035,4250.897461,4236.153809,4444.230957,4471.666504,4327.563965,4429.487305,6446.000000,3.000000,63.000000,,,,0.000000,4.000000,4.000000,4.000000,4.000000,4.000000,4.000000,4.000000,4.000000,4.000000,4.000000,4.000000,4.000000,4.000000,4.000000,100.000000,,,,,,,,,,,,,,,,,,,,,,,,,,,,
1703503211.129986,1703503211.131016,80.000000,0.000000,4247.692383,4290.128418,4313.717773,4306.282227,4268.205078,4245.128418,4259.871582,4244.743652,4225.512695,4207.436035,4412.563965,4452.948730,4303.461426,4413.205078,7015.000000,3.000000,63.000000,,,,0.000000,4.000000,4.000000,4.000000,4.000000,4.000000,4.000000,4.000000,4.000000,4.000000,4.000000,4.000000,4.000000,4.000000,4.000000,100.000000,,,,,,,,,,,,,,,,,20.000000,0.000000,0.500613,0.495117,-0.505676,0.498535,0.987425,-0.035649,0.054694,-15.524667,-35.713840,60.503708
1703503211.137794,1703503211.138824,81.000000,0.000000,4251.922852,4292.051270,4310.128418,4303.205078,4270.128418,4246.282227,4260.128418,4240.000000,4222.563965,4207.436035,4406.410156,4452.436035,4300.512695,4406.922852,7364.000000,3.000000,63.000000,,,,0.000000,4.000000,4.000000,4.000000,4.000000,4.000000,4.000000,4.000000,4.000000,4.000000,4.000000,4.000000,4.000000,4.000000,4.000000,100.000000,,,,,,,,,,,,,,,,,,,,,,,,,,,,
1703503211.145602,1703503211.146632,82.000000,0.000000,4259.487305,4292.948730,4314.615234,4304.102539,4276.025879,4246.666504,4259.615234,4256.794922,4247.948730,4238.205078,4425.128418,4463.846191,4318.846191,4415.897461,6212.000000,3.000000,63.000000,,,,0.000000,4.000000,4.000000,4.000000,4.000000,4.000000,4.000000,4.000000,4.000000,4.000000,4.000000,4.000000,4.000000,4.000000,4.000000,100.000000,,,,,,,,,,,,,,,,,,,,,,,,,,,,
1703503211.153410,1703503211.154340,83.000000,0.000000,4251.666504,4286.922852,4311.025879,4305.128418,4275.512695,4242.820313,4257.179688,4271.153809,4266.153809,4249.743652,4427.692383,4460.769043,4320.897461,4412.563965,6446.000000,3.000000,63.000000,,,,0.000000,4.000000,4.000000,4.000000,4.000000,4.000000,4.000000,4.000000,4.000000,4.000000,4.000000,4.000000,4.000000,4.000000,4.000000,100.000000,,,,,,,,,,,,,,,,,,,,,,,,,,,,
1703503211.161218,1703503211.162148,84.000000,0.000000,4237.307617,4272.563965,4301.666504,4298.974121,4269.487305,4248.077148,4263.846191,4286.025879,4272.179688,4239.358887,4426.153809,4455.769043,4315.897461,4405.641113,7015.000000,3.000000,63.000000,,,,0.000000,4.000000,4.000000,4.000000,4.000000,4.000000,4.000000,4.000000,4.000000,4.000000,4.000000,4.000000,4.000000,4.000000,4.000000,100.000000,,,,,,,,,,,,,,,,,21.000000,0.000000,0.500432,0.495300,-0.505615,0.498596,0.997192,-0.041509,0.054206,-15.672200,-35.692455,60.486671
1703503211.169026,1703503211.169855,85.000000,0.000000,4232.436035,4258.589844,4296.282227,4290.256348,4267.563965,4261.794922,4275.641113,4307.820313,4284.615234,4246.666504,4439.230957,4469.743652,4327.820313,4411.153809,7364.000000,3.000000,63.000000,,,,0.000000,4.000000,4.000000,4.000000,4.000000,4.000000,4.000000,4.000000,4.000000,4.000000,4.000000,4.000000,4.000000,4.000000,4.000000,100.000000,,,,,,,,,,,,,,,,,,,,,,,,,,,,
1703503211.176834,1703503211.177663,86.000000,0.000000,4231.282227,4248.461426,4286.666504,4280.512695,4270.128418,4267.563965,4280.256348,4316.410156,4297.179688,4271.282227,4447.820313,4475.641113,4339.871582,4411.410156,6212.000000,3.000000,63.000000,,,,0.000000,4.000000,4.000000,4.000000,4.000000,4.000000,4.000000,4.000000,4.000000,4.000000,4.000000,4.000000,4.000000,4.000000,4.000000,100.000000,,,,,,,,,,,,,,,,,,,,,,,,,,,,
1703503211.184642,1703503211.185371,87.000000,0.000000,4227.563965,4246.410156,4280.897461,4275.769043,4268.846191,4265.256348,4278.589844,4306.538574,4290.128418,4271.538574,4439.743652,4462.436035,4333.461426,4401.794922,6446.000000,3.000000,63.000000,,,,0.000000,4.000000,4.000000,4.000000,4.000000,4.000000,4.000000,4.000000,4.000000,4.000000,4.000000,4.000000,4.000000,4.000000,4.000000,100.000000,,,,,,,,,,,,,,,,,,,,,,,,,,,,
1703503211.192450,1703503211.193179,88.000000,0.000000,4236.794922,4256.410156,4293.717773,4286.922852,4265.128418,4264.487305,4277.307617,4294.230957,4270.128418,4254.871582,4433.717773,4462.820313,4330.128418,4406.410156,7015.000000,3.000000,63.000000,,,,0.000000,4.000000,4.000000,4.000000,4.000000,4.000000,4.000000,4.000000,4.000000,4.000000,4.000000,4.000000,4.000000,4.000000,4.000000,100.000000,,,,,,,,,,,,,,,,,22.000000,0.000000,0.500132,0.495544,-0.505432,0.498840,0.984984,-0.030765,0.050299,-15.621647,-35.806541,60.438004
1703503211.200258,1703503211.200887,89.000000,0.000000,4252.051270,4265.256348,4313.205078,4303.846191,4263.974121,4267.307617,4278.461426,4281.538574,4248.333496,4238.461426,4427.307617,4471.538574,4327.692383,4414.487305,7364.000000,3.000000,63.000000,,,,0.000000,4.000000,4.000000,4.000000,4.000000,4.000000,4.000000,4.000000,4.000000,4.000000,4.000000,4.000000,4.000000,4.000000,4.000000,100.000000,,,,,,,,,,,,,,,,,,,,,,,,,,,,
1703503211.208067,1703503211.208794,90.000000,0.000000,4253.717773,4269.871582,4321.153809,4311.922852,4267.948730,4267.179688,4278.846191,4262.692383,4230.000000,4217.179688,4411.666504,4467.948730,4313.589844,4408.205078,6212.000000,3.000000,63.000000,,,,0.000000,4.000000,4.000000,4.000000,4.000000,4.000000,4.000000,4.000000,4.000000,4.000000,4.000000,4.000000,4.000000,4.000000,4.000000,100.000000,,,,,,,,,,,,,,,,,,,,,,,,,,,,
1703503211.215875,1703503211.216602,91.000000,0.000000,4251.282227,4276.153809,4319.871582,4312.436035,4270.897461,4263.589844,4275.384766,4247.820313,4224.871582,4212.820313,4411.666504,4467.948730,4318.205078,4411.666504,6446.000000,3.000000,63.000000,,,,0.000000,4.000000,4.000000,4.000000,4.000000,4.000000,4.000000,4.000000,4.000000,4.000000,4.000000,4.000000,4.000000,4.000000,4.000000,100.000000,,,,,,,,,,,,,,,,,,,,,,,,,,,,
1703503211.223683,1703503211.224510,92.000000,0.000000,4250.384766,4276.666504,4318.717773,4310.641113,4267.307617,4261.794922,4265.769043,4242.051270,4219.230957,4215.641113,4415.384766,4469.358887,4332.307617,4420.000000,7015.000000,3.000000,63.000000,,,,0.000000,4.000000,4.000000,4.000000,4.000000,4.000000,4.000000,4.000000,4.000000,4.000000,4.000000,4.000000,4.000000,4.000000,4.000000,100.000000,,,,,,,,,,,,,,,,,23.000000,0.000000,0.500075,0.495789,-0.505249,0.498840,0.984007,-0.034672,0.061043,-15.459482,-35.775890,60.560871
1703503211.231491,1703503211.232318,93.000000,0.000000,4247.051270,4273.846191,4311.410156,4312.307617,4268.846191,4261.153809,4260.000000,4240.512695,4217.179688,4212.179688,4410.512695,4452.436035,4328.461426,4413.589844,7364.000000,3.000000,63.000000,,,,0.000000,4.000000,4.000000,4.000000,4.000000,4.000000,4.000000,4.000000,4.000000,4.000000,4.000000,4.000000,4.000000,4.000000,4.000000,100.000000,,,,,,,,,,,,,,,,,,,,,,,,,,,,
1703503211.239299,1703503211.240226,94.000000,0.000000,4247.051270,4278.077148,4300.384766,4317.563965,4280.384766,4262.948730,4269.358887,4248.077148,4231.410156,4227.307617,4416.282227,4441.922852,4328.974121,4410.256348,6212.000000,3.000000,63.000000,,,,0.000000,4.000000,4.000000,4.000000,4.000000,4.000000,4.000000,4.000000,4.000000,4.000000,4.000000,4.000000,4.000000,4.000000,4.000000,100.000000,,,,,,,,,,,,,,,,,,,,,,,,,,,,
1703503211.247107,1703503211.248034,95.000000,0.000000,4248.846191,4282.179688,4293.589844,4320.256348,4286.025879,4272.051270,4279.358887,4267.948730,4249.743652,4257.307617,4427.692383,4449.358887,4339.615234,4412.307617,6446.000000,3.000000,63.000000,,,,0.000000,4.000000,4.000000,4.000000,4.000000,4.000000,4.000000,4.000000,4.000000,4.000000,4.000000,4.000000,4.000000,4.000000,4.000000,100.000000,,,,,,,,,,,,,,,,,,,,,,,,,,,,
1703503211.254915,1703503211.255942,96.000000,0.000000,4244.102539,4278.461426,4293.205078,4321.666504,4284.102539,4276.922852,4282.436035,4289.102539,4261.153809,4254.102539,4435.128418,4455.769043,4345.128418,4411.410156,7015.000000,3.000000,63.000000,,,,0.000000,4.000000,4.000000,4.000000,4.000000,4.000000,4.000000,4.000000,4.000000,4.000000,4.000000,4.000000,4.000000,4.000000,4.000000,100.000000,,,,,,,,,,,,,,,,,24.000000,0.000000,0.500022,0.496216,-0.504822,0.498901,0.983030,-0.031254,0.053717,-15.430201,-35.798302,60.504784
1703503211.262723,1703503211.263750,97.000000,0.000000,4246.025879,4275.641113,4301.153809,4323.077148,4281.153809,4268.974121,4287.436035,4308.589844,4271.410156,4242.563965,4445.897461,4468.077148,4360.256348,4420.000000,7364.000000,3.000000,63.000000,,,,0.000000,4.000000,4.000000,4.000000,4.000000,4.000000,4.000000,4.000000,4.000000,4.000000,4.000000,4.000000,4.000000,4.000000,4.000000,100.000000,1.000000,25.000000,4.000000,4.000000,1.000000,1.000000,1.000000,1.000000,3.000000,3.000000,3.000000,1.000000,3.000000,3.000000,4.000000,4.000000,,,,,,,,,,,,
1703503211.270531,1703503211.271458,98.000000,0.000000,4258.077148,4276.153809,4312.307617,4328.333496,4278.846191,4264.743652,4288.205078,4329.743652,4296.153809,4285.769043,4472.692383,4498.077148,4392.563965,4445.512695,6212.000000,3.000000,63.000000,,,,0.000000,4.000000,4.000000,4.000000,4.000000,4.000000,4.000000,4.000000,4.000000,4.000000,4.000000,4.000000,4.000000,4.000000,4.000000,100.000000,,,,,,,,,,,,,,,,,,,,,,,,,,,,
1703503211.278339,1703503211.279266,99.000000,0.000000,4266.410156,4276.666504,4322.563965,4334.487305,4279.615234,4267.051270,4281.922852,4340.641113,4315.769043,4326.282227,4500.384766,4531.025879,4413.205078,4470.128418,6446.000000,3.000000,63.000000,,,,0.000000,4.000000,4.000000,4.000000,4.000000,4.000000,4.000000,4.000000,4.000000,4.000000,4.000000,4.000000,4.000000,4.000000,4.000000,100.000000,,,,,,,,,,,,,,,,,,,,,,,,,,,,
1703503211.286147,1703503211.286974,100.000000,0.000000,4272.563965,4283.589844,4331.538574,4340.128418,4279.487305,4265.512695,4280.128418,4331.794922,4308.846191,4314.230957,4508.077148,4541.666504,4415.641113,4480.256348,7015.000000,3.000000,63.000000,,,,0.000000,4.000000,4.000000,4.000000,4.000000,4.000000,4.000000,4.000000,4.000000,4.000000,4.000000,4.000000,4.000000,4.000000,4.000000,100.000000,,,,,,,,,,,,,,,,,25.000000,0.000000,0.500149,0.496460,-0.504517,0.498840,0.992309,-0.022464,0.052741,-15.470514,-35.751804,60.420971
1703503211.293955,1703503211.294782,101.000000,0.000000,4280.256348,4298.077148,4337.179688,4350.769043,4284.615234,4264.743652,4284.487305,4316.922852,4293.846191,4291.410156,4496.666504,4531.794922,4410.641113,4478.717773,7364.000000,3.000000,63.000000,,,,0.000000,4.000000,4.000000,4.000000,4.000000,4.000000,4.000000,4.000000,4.000000,4.000000,4.000000,4.000000,4.000000,4.000000,4.000000,100.000000,,,,,,,,,,,,,,,,,,,,,,,,,,,,
1703503211.301763,1703503211.302490,102.000000,0.000000,4281.666504,4305.641113,4341.922852,4362.051270,4292.563965,4265.512695,4284.487305,4298.077148,4278.333496,4273.846191,4476.666504,4518.717773,4394.102539,4467.436035,6212.000000,3.000000,63.000000,,,,0.000000,4.000000,4.000000,4.000000,4.000000,4.000000,4.000000,4.000000,4.000000,4.000000,4.000000,4.000000,4.000000,4.000000,4.000000,100.000000,,,,,,,,,,,,,,,,,,,,,,,,,,,,
1703503211.309571,1703503211.310298,103.000000,0.000000,4285.000000,4303.589844,4348.333496,4367.179688,4292.436035,4264.615234,4281.922852,4280.641113,4263.205078,4264.871582,4470.769043,4516.922852,4388.589844,4464.102539,6446.000000,3.000000,63.000000,,,,0.000000,4.000000,4.000000,4.000000,4.000000,4.000000,4.000000,4.000000,4.000000,4.000000,4.000000,4.000000,4.000000,4.000000,4.000000,100.000000,,,,,,,,,,,,,,,,,,,,,,,,,,,,
1703503211.317379,1703503211.318006,104.000000,0.000000,4293.461426,4309.487305,4354.358887,4368.589844,4294.487305,4265.641113,4282.179688,4284.102539,4263.974121,4276.794922,4481.025879,4522.948730,4404.230957,4474.230957,7015.000000,3.000000,63.000000,,,,0.000000,4.000000,4.000000,4.000000,4.000000,4.000000,4.000000,4.000000,4.000000,4.000000,4.000000,4.000000,4.000000,4.000000,4.000000,100.000000,,,,,,,,,,,,,,,,,26.000000,0.000000,0.500211,0.496582,-0.504456,0.498718,1.009889,-0.023440,0.066414,-15.473463,-35.676624,60.312206
1703503211.325187,1703503211.325814,105.000000,0.000000,4291.153809,4314.615234,4352.820313,4368.077148,4296.153809,4263.717773,4281.153809,4293.077148,4267.436035,4275.641113,4476.153809,4511.666504,4396.922852,4467.051270,7364.000000,3.000000,63.000000,,,,0.000000,4.000000,4.000000,4.000000,4.000000,4.000000,4.000000,4.000000,4.000000,4.000000,4.000000,4.000000,4.000000,4.000000,4.000000,100.000000,,,,,,,,,,,,,,,,,,,,,,,,,,,,
1703503211.332995,1703503211.333522,106.000000,0.000000,4278.717773,4299.487305,4342.820313,4358.717773,4290.897461,4259.487305,4277.563965,4289.358887,4259.487305,4255.128418,4456.794922,4493.333496,4373.846191,4444.487305,6212.000000,3.000000,63.000000,,,,0.000000,4.000000,4.000000,4.000000,4.000000,4.000000,4.000000,4.000000,4.000000,4.000000,4.000000,4.000000,4.000000,4.000000,4.000000,100.000000,,,,,,,,,,,,,,,,,,,,,,,,,,,,
1703503211.340803,1703503211.341330,107.000000,0.000000,4263.846191,4279.615234,4325.897461,4343.461426,4288.205078,4261.538574,4282.820313,4295.128418,4263.077148,4259.615234,4454.615234,4489.230957,4377.692383,4436.153809,6446.000000,3.000000,63.000000,,,,0.000000,4.000000,4.000000,4.000000,4.000000,4.000000,4.000000,4.000000,4.000000,4.000000,4.000000,4.000000,4.000000,4.000000,4.000000,100.000000,,,,,,,,,,,,,,,,,,,,,,,,,,,,
1703503211.348611,1703503211.349037,108.000000,0.000000,4251.410156,4276.538574,4310.512695,4340.128418,4292.307617,4264.615234,4291.666504,4308.589844,4273.333496,4265.000000,4456.922852,4483.205078,4383.846191,4433.333496,7015.000000,3.000000,63.000000,,,,0.000000,4.000000,4.000000,4.000000,4.000000,4.000000,4.000000,4.000000,4.000000,4.000000,4.000000,4.000000,4.000000,4.000000,4.000000,100.000000,,,,,,,,,,,,,,,,,27.000000,0.000000,0.500332,0.496582,-0.504517,0.498535,0.994262,-0.016604,0.051276,-15.426116,-35.725628,60.547653
1703503211.356419,1703503211.356946,109.000000,0.000000,4246.794922,4277.948730,4304.230957,4339.615234,4292.307617,4263.589844,4287.307617,4313.205078,4278.846191,4263.589844,4447.820313,4473.461426,4372.436035,4424.358887,7364.000000,3.000000,63.000000,,,,0.000000,4.000000,4.000000,4.000000,4.000000,4.000000,4.000000,4.000000,4.000000,4.000000,4.000000,4.000000,4.000000,4.000000,4.000000,100.000000,,,,,,,,,,,,,,,,,,,,,,,,,,,,
1703503211.364227,1703503211.364754,110.000000,0.000000,4246.538574,4271.282227,4306.666504,4331.025879,4281.922852,4262.948730,4280.384766,4311.922852,4285.641113,4280.641113,4447.307617,4480.256348,4372.563965,4423.974121,6212.000000,3.000000,63.000000,,,,0.000000,4.000000,4.000000,4.000000,4.000000,4.000000,4.000000,4.000000,4.000000,4.000000,4.000000,4.000000,4.000000,4.000000,4.000000,100.000000,,,,,,,,,,,,,,,,,,,,,,,,,,,,
1703503211.372036,1703503211.372662,111.000000,0.000000,4250.128418,4276.025879,4310.256348,4329.743652,4277.692383,4261.922852,4281.282227,4306.282227,4284.358887,4285.769043,4451.410156,4490.000000,4382.692383,4430.000000,6446.000000,3.000000,63.000000,,,,0.000000,4.000000,4.000000,4.000000,4.000000,4.000000,4.000000,4.000000,4.000000,4.000000,4.000000,4.000000,4.000000,4.000000,4.000000,100.000000,,,,,,,,,,,,,,,,,,,,,,,,,,,,
1703503211.379844,1703503211.380470,112.000000,0.000000,4255.256348,4281.794922,4312.692383,4332.307617,4278.205078,4258.717773,4279.102539,4295.128418,4275.769043,4267.051270,4444.615234,4488.461426,4380.512695,4431.153809,7015.000000,3.000000,63.000000,,,,0.000000,4.000000,4.000000,4.000000,4.000000,4.000000,4.000000,4.000000,4.000000,4.000000,4.000000,4.000000,4.000000,4.000000,4.000000,100.000000,,,,,,,,,,,,,,,,,28.000000,0.000000,0.500148,0.496582,-0.504639,0.498596,0.989379,-0.022464,0.064949,-15.450171,-35.753063,60.409554
1703503211.387652,1703503211.388377,113.000000,0.000000,4251.794922,4271.025879,4316.794922,4329.230957,4270.641113,4258.205078,4275.384766,4284.358887,4266.538574,4250.897461,4436.538574,4482.948730,4373.717773,4428.589844,7364.000000,3.000000,63.000000,,,,0.000000,4.000000,4.000000,4.000000,4.000000,4.000000,4.000000,4.000000,4.000000,4.000000,4.000000,4.000000,4.000000,4.000000,4.000000,100.000000,,,,,,,,,,,,,,,,,,,,,,,,,,,,
1703503211.395460,1703503211.396185,114.000000,0.000000,4246.666504,4269.102539,4318.205078,4328.333496,4265.000000,4258.333496,4276.153809,4273.974121,4258.717773,4245.897461,4437.692383,4475.256348,4372.563965,4426.794922,6212.000000,3.000000,63.000000,,,,0.000000,4.000000,4.000000,4.000000,4.000000,4.000000,4.000000,4.000000,4.000000,4.000000,4.000000,4.000000,4.000000,4.000000,4.000000,100.000000,,,,,,,,,,,,,,,,,,,,,,,,,,,,
1703503211.403268,1703503211.404093,115.000000,0.000000,4256.666504,4281.410156,4322.820313,4333.077148,4266.153809,4257.692383,4277.179688,4272.051270,4260.769043,4257.692383,4445.512695,4481.538574,4380.641113,4431.666504,6446.000000,3.000000,63.000000,,,,0.000000,4.000000,4.000000,4.000000,4.000000,4.000000,4.000000,4.000000,4.000000,4.000000,4.000000,4.000000,4.000000,4.000000,4.000000,100.000000,,,,,,,,,,,,,,,,,,,,,,,,,,,,
1703503211.411076,1703503211.411901,116.000000,0.000000,4264.871582,4279.358887,4329.230957,4334.487305,4268.333496,4258.205078,4275.897461,4281.153809,4267.820313,4268.717773,4451.538574,4495.128418,4389.487305,4438.974121,7015.000000,3.000000,63.000000,,,,0.000000,4.000000,4.000000,4.000000,4.000000,4.000000,4.000000,4.000000,4.000000,4.000000,4.000000,4.000000,4.000000,4.000000,4.000000,100.000000,,,,,,,,,,,,,,,,,29.000000,0.000000,0.499841,0.496582,-0.504822,0.498718,0.996704,-0.030765,0.051764,-15.321821,-35.877758,60.468597
1703503211.418884,1703503211.419809,117.000000,0.000000,4249.358887,4265.641113,4318.846191,4331.025879,4268.974121,4256.410156,4274.615234,4281.538574,4263.717773,4254.743652,4438.461426,4484.230957,4374.358887,4428.205078,7364.000000,3.000000,63.000000,,,,0.000000,4.000000,4.000000,4.000000,4.000000,4.000000,4.000000,4.000000,4.000000,4.000000,4.000000,4.000000,4.000000,4.000000,4.000000,100.000000,,,,,,,,,,,,,,,,,,,,,,,,,,,,
1703503211.426692,1703503211.427617,118.000000,0.000000,4234.487305,4262.179688,4304.102539,4327.563965,4268.461426,4255.256348,4276.410156,4280.769043,4260.512695,4248.846191,4422.307617,4469.487305,4356.410156,4412.436035,6212.000000,3.000000,63.000000,,,,0.000000,4.000000,4.000000,4.000000,4.000000,4.000000,4.000000,4.000000,4.000000,4.000000,4.000000,4.000000,4.000000,4.000000,4.000000,100.000000,,,,,,,,,,,,,,,,,,,,,,,,,,,,
1703503211.434500,1703503211.435525,119.000000,0.000000,4236.025879,4263.974121,4301.666504,4327.563965,4270.641113,4259.743652,4278.974121,4292.179688,4272.563965,4268.846191,4433.077148,4475.000000,4373.077148,4417.820313,6446.000000,3.000000,63.000000,,,,0.000000,4.000000,4.000000,4.000000,4.000000,4.000000,4.000000,4.000000,4.000000,4.000000,4.000000,4.000000,4.000000,4.000000,4.000000,100.000000,,,,,,,,,,,,,,,,,,,,,,,,,,,,
1703503211.442308,1703503211.443333,120.000000,0.000000,4232.179688,4254.487305,4296.666504,4323.205078,4272.051270,4263.205078,4278.589844,4293.846191,4273.717773,4263.205078,4435.128418,4467.436035,4380.128418,4415.769043,7015.000000,3.000000,63.000000,,,,0.000000,4.000000,4.000000,4.000000,4.000000,4.000000,4.000000,4.000000,4.000000,4.000000,4.000000,4.000000,4.000000,4.000000,4.000000,100.000000,,,,,,,,,,,,,,,,,30.000000,0.000000,0.499657,0.496582,-0.504944,0.498779,1.002564,-0.044927,0.042974,-15.289639,-35.739983,60.438404
1703503211.450116,1703503211.451041,121.000000,0.000000,4221.922852,4243.846191,4284.358887,4313.077148,4269.615234,4261.410156,4277.692383,4279.230957,4258.461426,4233.205078,4407.051270,4446.025879,4349.615234,4392.436035,7364.000000,3.000000,63.000000,,,,0.000000,4.000000,4.000000,4.000000,4.000000,4.000000,4.000000,4.000000,4.000000,4.000000,4.000000,4.000000,4.000000,4.000000,4.000000,100.000000,,,,,,,,,,,,,,,,,,,,,,,,,,,,
1703503211.457924,1703503211.458849,122.000000,0.000000,4228.461426,4253.846191,4284.743652,4313.205078,4271.794922,4261.538574,4276.025879,4270.897461,4255.897461,4235.128418,4397.436035,4443.846191,4339.743652,4387.692383,6212.000000,3.000000,63.000000,,,,0.000000,4.000000,4.000000,4.000000,4.000000,4.000000,4.000000,4.000000,4.000000,4.000000,4.000000,4.000000,4.000000,4.000000,4.000000,100.000000,,,,,,,,,,,,,,,,,,,,,,,,,,,,
1703503211.465732,1703503211.466557,123.000000,0.000000,4240.512695,4264.230957,4299.615234,4318.589844,4272.179688,4262.948730,4276.282227,4267.436035,4252.820313,4243.205078,4402.563965,4450.128418,4347.051270,4396.538574,6446.000000,3.000000,63.000000,,,,0.000000,4.000000,4.000000,4.000000,4.000000,4.000000,4.000000,4.000000,4.000000,4.000000,4.000000,4.000000,4.000000,4.000000,4.000000,100.000000,,,,,,,,,,,,,,,,,,,,,,,,,,,,
1703503211.473540,1703503211.474365,124.000000,0.000000,4246.410156,4261.922852,4316.282227,4321.025879,4264.615234,4263.077148,4276.410156,4259.230957,4242.307617,4229.487305,4403.846191,4458.077148,4348.205078,4405.897461,7015.000000,3.000000,63.000000,,,,0.000000,4.000000,4.000000,4.000000,4.000000,4.000000,4.000000,4.000000,4.000000,4.000000,4.000000,4.000000,4.000000,4.000000,4.000000,100.000000,,,,,,,,,,,,,,,,,31.000000,0.000000,0.499350,0.496582,-0.505127,0.498901,0.995239,-0.039556,0.053229,-15.177341,-35.699318,60.577900
1703503211.481348,1703503211.482073,125.000000,0.000000,4257.051270,4270.128418,4325.512695,4327.820313,4263.333496,4262.179688,4271.025879,4258.717773,4249.230957,4237.820313,4421.153809,4474.743652,4366.922852,4425.769043,7364.000000,3.000000,63.000000,,,,0.000000,4.000000,4.000000,4.000000,4.000000,4.000000,4.000000,4.000000,4.000000,4.000000,4.000000,4.000000,4.000000,4.000000,4.000000,100.000000,,,,,,,,,,,,,,,,,,,,,,,,,,,,
1703503211.489156,1703503211.489881,126.000000,0.000000,4266.538574,4277.051270,4330.000000,4329.102539,4264.230957,4259.230957,4265.384766,4264.487305,4257.436035,4254.615234,4441.922852,4489.102539,4386.538574,4437.948730,6212.000000,3.000000,63.000000,,,,0.000000,4.000000,4.000000,4.000000,4.000000,4.000000,4.000000,4.000000,4.000000,4.000000,4.000000,4.000000,4.000000,4.000000,4.000000,100.000000,,,,,,,,,,,,,,,,,,,,,,,,,,,,
1703503211.496964,1703503211.497589,127.000000,0.000000,4263.974121,4266.922852,4330.384766,4326.282227,4261.282227,4258.461426,4264.102539,4264.487305,4250.769043,4253.205078,4446.410156,4495.384766,4391.794922,4439.743652,63.000000,3.000000,63.000000,,,,0.000000,4.000000,4.000000,4.000000,4.000000,4.000000,4.000000,4.000000,4.000000,4.000000,4.000000,4.000000,4.000000,4.000000,4.000000,100.000000,,,,,,,,,,,,,,,,,,,,,,,,,,,,
1703503211.504773,1703503211.505397,0.000000,0.000000,4257.436035,4262.948730,4322.563965,4327.820313,4261.410156,4258.077148,4262.820313,4254.615234,4241.282227,4246.282227,4428.974121,4479.358887,4377.563965,4431.538574,5359.000000,3.000000,63.000000,,,,0.000000,4.000000,4.000000,4.000000,4.000000,4.000000,4.000000,4.000000,4.000000,4.000000,4.000000,4.000000,4.000000,4.000000,4.000000,100.000000,,,,,,,,,,,,,,,,,0.000000,0.000000,0.498981,0.496521,-0.505371,0.499084,0.987914,-0.033207,0.053717,-15.309608,-35.729385,60.553444
1703503211.512581,1703503211.513105,1.000000,0.000000,4249.230957,4267.692383,4311.282227,4322.948730,4260.512695,4257.307617,4260.512695,4244.871582,4232.692383,4237.307617,4401.282227,4446.794922,4349.358887,4406.025879,5597.000000,3.000000,63.000000,,,,0.000000,4.000000,4.000000,4.000000,4.000000,4.000000,4.000000,4.000000,4.000000,4.000000,4.000000,4.000000,4.000000,4.000000,4.000000,100.000000,,,,,,,,,,,,,,,,,,,,,,,,,,,,
1703503211.520388,1703503211.520913,2.000000,0.000000,4237.563965,4258.589844,4296.666504,4309.487305,4261.153809,4260.000000,4266.282227,4253.846191,4236.666504,4230.384766,4400.128418,4437.948730,4344.871582,4389.743652,5507.000000,3.000000,63.000000,,,,0.000000,4.000000,4.000000,4.000000,4.000000,4.000000,4.000000,4.000000,4.000000,4.000000,4.000000,4.000000,4.000000,4.000000,4.000000,100.000000,,,,,,,,,,,,,,,,,,,,,,,,,,,,
1703503211.528197,1703503211.528621,3.000000,0.000000,4229.102539,4246.794922,4281.794922,4301.025879,4264.487305,4264.743652,4277.179688,4272.692383,4248.077148,4231.538574,4411.153809,4441.410156,4356.153809,4388.461426,5487.000000,3.000000,63.000000,,,,0.000000,4.000000,4.000000,4.000000,4.000000,4.000000,4.000000,4.000000,4.000000,4.000000,4.000000,4.000000,4.000000,4.000000,4.000000,100.000000,,,,,,,,,,,,,,,,,,,,,,,,,,,,
1703503211.536005,1703503211.536529,4.000000,0.000000,4223.205078,4241.025879,4272.820313,4295.641113,4263.717773,4265.384766,4278.717773,4280.000000,4250.128418,4228.846191,4405.000000,4430.512695,4347.692383,4382.179688,5364.000000,3.000000,63.000000,,,,0.000000,4.000000,4.000000,4.000000,4.000000,4.000000,4.000000,4.000000,4.000000,4.000000,4.000000,4.000000,4.000000,4.000000,4.000000,100.000000,,,,,,,,,,,,,,,,,1.000000,0.000000,0.498611,0.496582,-0.505615,0.499146,0.992797,-0.028324,0.049322,-15.361980,-35.606445,60.598099
1703503211.543813,1703503211.544337,5.000000,0.000000,4217.820313,4234.358887,4272.051270,4293.205078,4260.897461,4262.948730,4274.615234,4278.717773,4254.487305,4231.538574,4405.384766,4430.128418,4342.820313,4381.794922,4926.000000,3.000000,63.000000,,,,0.000000,4.000000,4.000000,4.000000,4.000000,4.000000,4.000000,4.000000,4.000000,4.000000,4.000000,4.000000,4.000000,4.000000,4.000000,100.000000,,,,,,,,,,,,,,,,,,,,,,,,,,,,
1703503211.551621,1703503211.552245,6.000000,0.000000,4222.563965,4238.974121,4279.230957,4301.538574,4262.692383,4263.333496,4272.179688,4275.384766,4263.333496,4246.410156,4413.846191,4442.692383,4353.846191,4387.179688,4215.000000,3.000000,63.000000,,,,0.000000,4.000000,4.000000,4.000000,4.000000,4.000000,4.000000,4.000000,4.000000,4.000000,4.000000,4.000000,4.000000,4.000000,4.000000,100.000000,,,,,,,,,,,,,,,,,,,,,,,,,,,,
1703503211.559429,1703503211.560053,7.000000,0.000000,4234.615234,4255.000000,4288.461426,4310.384766,4270.384766,4263.461426,4269.487305,4268.461426,4260.256348,4248.846191,4421.153809,4452.563965,4363.077148,4394.743652,5040.000000,3.000000,63.000000,,,,0.000000,4.000000,4.000000,4.000000,4.000000,4.000000,4.000000,4.000000,4.000000,4.000000,4.000000,4.000000,4.000000,4.000000,4.000000,100.000000,,,,,,,,,,,,,,,,,,,,,,,,,,,,
1703503211.567237,1703503211.567961,8.000000,0.000000,4249.615234,4264.358887,4303.205078,4314.487305,4268.717773,4256.922852,4263.589844,4258.846191,4251.666504,4245.128418,4430.000000,4465.769043,4367.307617,4412.051270,4904.000000,3.000000,63.000000,,,,0.000000,4.000000,4.000000,4.000000,4.000000,4.000000,4.000000,4.000000,4.000000,4.000000,4.000000,4.000000,4.000000,4.000000,4.000000,100.000000,,,,,,,,,,,,,,,,,2.000000,0.000000,0.498368,0.496704,-0.505554,0.499329,0.995239,-0.034672,0.050787,-15.375782,-35.579136,60.638287
1703503211.575045,1703503211.575769,9.000000,0.000000,4262.179688,4266.153809,4317.563965,4320.769043,4255.384766,4247.820313,4254.358887,4248.333496,4247.820313,4250.897461,4427.692383,4477.307617,4361.282227,4420.256348,5622.000000,3.000000,63.000000,,,,0.000000,4.000000,4.000000,4.000000,4.000000,4.000000,4.000000,4.000000,4.000000,4.000000,4.000000,4.000000,4.000000,4.000000,4.000000,100.000000,,,,,,,,,,,,,,,,,,,,,,,,,,,,
1703503211.582853,1703503211.583677,10.000000,0.000000,4257.436035,4264.487305,4318.077148,4321.666504,4246.538574,4243.461426,4246.410156,4243.846191,4245.256348,4247.563965,4423.589844,4473.974121,4360.641113,4415.897461,6209.000000,3.000000,63.000000,,,,0.000000,4.000000,4.000000,4.000000,4.000000,4.000000,4.000000,4.000000,4.000000,4.000000,4.000000,4.000000,4.000000,4.000000,4.000000,100.000000,,,,,,,,,,,,,,,,,,,,,,,,,,,,
1703503211.590661,1703503211.591485,11.000000,0.000000,4245.897461,4262.436035,4311.538574,4317.436035,4248.077148,4242.563965,4244.615234,4245.384766,4239.871582,4233.589844,4423.717773,4464.487305,4368.333496,4412.179688,6459.000000,3.000000,63.000000,,,,0.000000,4.000000,4.000000,4.000000,4.000000,4.000000,4.000000,4.000000,4.000000,4.000000,4.000000,4.000000,4.000000,4.000000,4.000000,100.000000,,,,,,,,,,,,,,,,,,,,,,,,,,,,
1703503211.598469,1703503211.599392,12.000000,0.000000,4251.153809,4270.000000,4308.461426,4324.487305,4255.128418,4245.128418,4245.384766,4244.230957,4233.717773,4228.461426,4416.794922,4456.666504,4360.641113,4408.589844,7014.000000,3.000000,63.000000,,,,0.000000,4.000000,4.000000,4.000000,4.000000,4.000000,4.000000,4.000000,4.000000,4.000000,4.000000,4.000000,4.000000,4.000000,4.000000,100.000000,,,,,,,,,,,,,,,,,3.000000,0.000000,0.498065,0.496948,-0.505432,0.499512,0.996704,-0.046392,0.056159,-15.321537,-35.704556,60.691128
1703503211.606277,1703503211.607200,13.000000,0.000000,4252.436035,4277.051270,4304.487305,4328.589844,4261.282227,4249.358887,4249.102539,4244.871582,4234.102539,4228.333496,4407.820313,4445.128418,4348.461426,4398.846191,7358.000000,3.000000,63.000000,,,,0.000000,4.000000,4.000000,4.000000,4.000000,4.000000,4.000000,4.000000,4.000000,4.000000,4.000000,4.000000,4.000000,4.000000,4.000000,100.000000,,,,,,,,,,,,,,,,,,,,,,,,,,,,
1703503211.614085,1703503211.615108,14.000000,0.000000,4235.769043,4265.000000,4292.436035,4316.410156,4262.179688,4247.436035,4257.436035,4255.512695,4243.589844,4231.922852,4407.051270,4435.641113,4351.538574,4387.820313,6209.000000,3.000000,63.000000,,,,0.000000,4.000000,4.000000,4.000000,4.000000,4.000000,4.000000,4.000000,4.000000,4.000000,4.000000,4.000000,4.000000,4.000000,4.000000,100.000000,,,,,,,,,,,,,,,,,,,,,,,,,,,,
1703503211.621893,1703503211.622916,15.000000,0.000000,4227.436035,4248.589844,4280.769043,4311.282227,4260.256348,4248.717773,4261.794922,4271.410156,4253.846191,4242.563965,4415.256348,4438.717773,4358.077148,4388.717773,6459.000000,3.000000,63.000000,,,,0.000000,4.000000,4.000000,4.000000,4.000000,4.000000,4.000000,4.000000,4.000000,4.000000,4.000000,4.000000,4.000000,4.000000,4.000000,100.000000,,,,,,,,,,,,,,,,,,,,,,,,,,,,
1703503211.629701,1703503211.630824,16.000000,0.000000,4234.230957,4248.461426,4280.256348,4314.615234,4260.769043,4258.717773,4262.051270,4278.077148,4254.102539,4240.256348,4415.641113,4444.102539,4353.589844,4391.282227,0.000000,3.000000,63.000000,,,,0.000000,4.000000,4.000000,4.000000,4.000000,4.000000,4.000000,4.000000,4.000000,4.000000,4.000000,4.000000,4.000000,4.000000,4.000000,100.000000,,,,,,,,,,,,,,,,,4.000000,0.000000,0.497882,0.497070,-0.505432,0.499573,0.985472,-0.039067,0.054694,-15.372717,-35.717434,60.755348
1703503211.637509,1703503211.638632,17.000000,0.000000,4230.256348,4254.358887,4277.436035,4310.512695,4263.717773,4262.948730,4264.743652,4266.153809,4246.025879,4229.743652,4402.820313,4428.077148,4342.563965,4378.205078,0.000000,3.000000,63.000000,,,,0.000000,4.000000,4.000000,4.000000,4.000000,4.000000,4.000000,4.000000,4.000000,4.000000,4.000000,4.000000,4.000000,4.000000,4.000000,100.000000,,,,,,,,,,,,,,,,,,,,,,,,,,,,
1703503211.645317,1703503211.646540,18.000000,0.000000,4217.692383,4251.538574,4265.128418,4307.179688,4266.538574,4260.897461,4265.384766,4248.077148,4237.051270,4223.205078,4390.256348,4403.077148,4327.436035,4360.384766,0.000000,3.000000,63.000000,,,,0.000000,4.000000,4.000000,4.000000,4.000000,4.000000,4.000000,4.000000,4.000000,4.000000,4.000000,4.000000,4.000000,4.000000,4.000000,100.000000,,,,,,,,,,,,,,,,,,,,,,,,,,,,
1703503211.653125,1703503211.654348,19.000000,0.000000,4222.820313,4249.615234,4267.179688,4313.974121,4267.692383,4259.487305,4263.717773,4243.461426,4229.615234,4213.077148,4387.179688,4406.666504,4322.307617,4361.282227,0.000000,3.000000,63.000000,,,,0.000000,4.000000,4.000000,4.000000,4.000000,4.000000,4.000000,4.000000,4.000000,4.000000,4.000000,4.000000,4.000000,4.000000,4.000000,100.000000,,,,,,,,,,,,,,,,,,,,,,,,,,,,
1703503211.660934,1703503211.662056,20.000000,0.000000,4237.307617,4260.000000,4287.948730,4323.077148,4268.589844,4260.128418,4264.230957,4247.820313,4232.820313,4217.692383,4401.538574,4436.025879,4340.641113,4384.230957,0.000000,3.000000,63.000000,,,,0.000000,4.000000,4.000000,4.000000,4.000000,4.000000,4.000000,4.000000,4.000000,4.000000,4.000000,4.000000,4.000000,4.000000,4.000000,100.000000,,,,,,,,,,,,,,,,,5.000000,0.000000,0.497698,0.497070,-0.505493,0.499695,0.981077,-0.049322,0.041021,-15.335445,-35.645691,60.729813
1703503211.668742,1703503211.669864,21.000000,0.000000,4237.307617,4264.743652,4297.179688,4325.512695,4268.974121,4260.256348,4265.512695,4246.410156,4237.948730,4232.948730,4416.282227,4449.871582,4349.230957,4395.000000,0.000000,3.000000,63.000000,,,,0.000000,4.000000,4.000000,4.000000,4.000000,4.000000,4.000000,4.000000,4.000000,4.000000,4.000000,4.000000,4.000000,4.000000,4.000000,100.000000,,,,,,,,,,,,,,,,,,,,,,,,,,,,
1703503211.676550,1703503211.677572,22.000000,0.000000,4236.025879,4260.000000,4291.282227,4324.871582,4264.743652,4255.512695,4264.871582,4243.846191,4238.461426,4233.333496,4418.717773,4443.717773,4345.641113,4387.692383,0.000000,3.000000,63.000000,,,,0.000000,4.000000,4.000000,4.000000,4.000000,4.000000,4.000000,4.000000,4.000000,4.000000,4.000000,4.000000,4.000000,4.000000,4.000000,100.000000,,,,,,,,,,,,,,,,,,,,,,,,,,,,
1703503211.684358,1703503211.685480,23.000000,0.000000,4244.871582,4261.410156,4291.282227,4322.563965,4261.538574,4249.358887,4262.948730,4251.410156,4245.000000,4233.333496,4430.000000,4449.615234,4361.410156,4394.230957,0.000000,3.000000,63.000000,,,,0.000000,4.000000,4.000000,4.000000,4.000000,4.000000,4.000000,4.000000,4.000000,4.000000,4.000000,4.000000,4.000000,4.000000,4.000000,100.000000,,,,,,,,,,,,,,,,,,,,,,,,,,,,
1703503211.692166,1703503211.693288,24.000000,0.000000,4245.000000,4259.102539,4295.256348,4320.128418,4260.000000,4248.077148,4263.333496,4265.256348,4258.974121,4247.820313,4446.794922,4461.922852,4373.333496,4405.128418,0.000000,3.000000,63.000000,,,,0.000000,4.000000,4.000000,4.000000,4.000000,4.000000,4.000000,4.000000,4.000000,4.000000,4.000000,4.000000,4.000000,4.000000,4.000000,100.000000,,,,,,,,,,,,,,,,,6.000000,0.000000,0.497759,0.497070,-0.505493,0.499634,1.000610,-0.030765,0.056159,-15.301901,-35.697788,60.673496
1703503211.699974,1703503211.701097,25.000000,0.000000,4235.512695,4256.282227,4288.589844,4321.282227,4260.256348,4249.743652,4262.563965,4277.436035,4273.717773,4257.563965,4449.102539,4463.974121,4370.128418,4401.538574,0.000000,3.000000,63.000000,,,,0.000000,4.000000,4.000000,4.000000,4.000000,4.000000,4.000000,4.000000,4.000000,4.000000,4.000000,4.000000,4.000000,4.000000,4.000000,100.000000,,,,,,,,,,,,,,,,,,,,,,,,,,,,
1703503211.707782,1703503211.708805,26.000000,0.000000,4231.153809,4258.717773,4277.820313,4320.769043,4262.820313,4249.743652,4263.205078,4286.153809,4278.077148,4259.615234,4445.128418,4457.563965,4371.153809,4395.256348,0.000000,3.000000,63.000000,,,,0.000000,4.000000,4.000000,4.000000,4.000000,4.000000,4.000000,4.000000,4.000000,4.000000,4.000000,4.000000,4.000000,4.000000,4.000000,100.000000,,,,,,,,,,,,,,,,,,,,,,,,,,,,
1703503211.715590,1703503211.716613,27.000000,0.000000,4232.436035,4252.820313,4275.384766,4312.307617,4260.384766,4251.666504,4270.128418,4292.307617,4276.282227,4267.563965,4443.589844,4455.641113,4368.974121,4394.358887,0.000000,3.000000,63.000000,,,,0.000000,4.000000,4.000000,4.000000,4.000000,4.000000,4.000000,4.000000,4.000000,4.000000,4.000000,4.000000,4.000000,4.000000,4.000000,100.000000,,,,,,,,,,,,,,,,,,,,,,,,,,,,
1703503211.723398,1703503211.724320,28.000000,0.000000,4228.717773,4242.179688,4271.666504,4306.025879,4258.333496,4254.871582,4273.974121,4293.717773,4277.436035,4269.743652,4441.538574,4457.692383,4361.153809,4393.717773,0.000000,3.000000,63.000000,,,,0.000000,4.000000,4.000000,4.000000,4.000000,4.000000,4.000000,4.000000,4.000000,4.000000,4.000000,4.000000,4.000000,4.000000,4.000000,100.000000,,,,,,,,,,,,,,,,,7.000000,0.000000,0.497942,0.496887,-0.505493,0.499634,0.994262,-0.033207,0.048346,-15.138377,-35.911343,60.622814
1703503211.731206,1703503211.732128,29.000000,0.000000,4223.589844,4242.820313,4267.051270,4312.179688,4262.692383,4258.846191,4273.846191,4289.615234,4275.769043,4258.333496,4440.512695,4455.128418,4359.615234,4390.897461,0.000000,3.000000,63.000000,,,,0.000000,4.000000,4.000000,4.000000,4.000000,4.000000,4.000000,4.000000,4.000000,4.000000,4.000000,4.000000,4.000000,4.000000,4.000000,100.000000,,,,,,,,,,,,,,,,,,,,,,,,,,,,
1703503211.739014,1703503211.739836,30.000000,0.000000,4228.589844,4249.871582,4275.000000,4323.333496,4266.666504,4265.000000,4277.692383,4284.487305,4267.820313,4247.179688,4438.974121,4453.846191,4360.256348,4393.333496,0.000000,3.000000,63.000000,,,,0.000000,4.000000,4.000000,4.000000,4.000000,4.000000,4.000000,4.000000,4.000000,4.000000,4.000000,4.000000,4.000000,4.000000,4.000000,100.000000,,,,,,,,,,,,,,,,,,,,,,,,,,,,
1703503211.746822,1703503211.747644,31.000000,0.000000,4235.897461,4251.922852,4285.641113,4327.948730,4263.205078,4261.025879,4280.384766,4269.102539,4251.282227,4230.128418,4427.307617,4452.692383,4349.230957,4395.641113,0.000000,3.000000,63.000000,,,,0.000000,4.000000,4.000000,4.000000,4.000000,4.000000,4.000000,4.000000,4.000000,4.000000,4.000000,4.000000,4.000000,4.000000,4.000000,100.000000,,,,,,,,,,,,,,,,,,,,,,,,,,,,
1703503211.754630,1703503211.755352,32.000000,0.000000,4241.538574,4254.871582,4290.256348,4327.307617,4258.077148,4250.256348,4276.025879,4245.256348,4227.563965,4202.563965,4404.615234,4444.871582,4328.461426,4387.307617,0.000000,3.000000,63.000000,,,,0.000000,4.000000,4.000000,4.000000,4.000000,4.000000,4.000000,4.000000,4.000000,4.000000,4.000000,4.000000,4.000000,4.000000,4.000000,100.000000,,,,,,,,,,,,,,,,,8.000000,0.000000,0.498004,0.496887,-0.505371,0.499695,0.993285,-0.039556,0.061043,-15.107873,-35.836876,60.560532
1703503211.762438,1703503211.763159,33.000000,0.000000,4246.153809,4258.333496,4294.871582,4327.307617,4261.922852,4249.230957,4268.333496,4235.256348,4216.794922,4191.282227,4396.794922,4446.153809,4321.282227,4384.487305,0.000000,3.000000,63.000000,,,,0.000000,4.000000,4.000000,4.000000,4.000000,4.000000,4.000000,4.000000,4.000000,4.000000,4.000000,4.000000,4.000000,4.000000,4.000000,100.000000,1.000000,41.666668,4.000000,4.000000,3.000000,1.000000,1.000000,3.000000,4.000000,3.000000,4.000000,4.000000,3.000000,3.000000,4.000000,4.000000,,,,,,,,,,,,
1703503211.770246,1703503211.770867,34.000000,0.000000,4244.358887,4258.846191,4298.077148,4328.333496,4259.102539,4250.769043,4264.743652,4236.282227,4219.102539,4200.769043,4409.743652,4458.589844,4329.230957,4394.487305,0.000000,3.000000,63.000000,,,,0.000000,4.000000,4.000000,4.000000,4.000000,4.000000,4.000000,4.000000,4.000000,4.000000,4.000000,4.000000,4.000000,4.000000,4.000000,100.000000,,,,,,,,,,,,,,,,,,,,,,,,,,,,
1703503211.778054,1703503211.778775,35.000000,0.000000,4242.692383,4261.025879,4298.974121,4328.846191,4256.025879,4247.436035,4264.871582,4232.179688,4216.025879,4204.230957,4412.692383,4455.128418,4330.769043,4396.538574,0.000000,3.000000,63.000000,,,,0.000000,4.000000,4.000000,4.000000,4.000000,4.000000,4.000000,4.000000,4.000000,4.000000,4.000000,4.000000,4.000000,4.000000,4.000000,100.000000,,,,,,,,,,,,,,,,,,,,,,,,,,,,
1703503211.785862,1703503211.786583,36.000000,0.000000,4241.153809,4259.358887,4294.871582,4327.692383,4268.205078,4251.410156,4265.384766,4231.538574,4220.897461,4204.230957,4401.410156,4443.205078,4325.256348,4383.589844,0.000000,3.000000,63.000000,,,,0.000000,4.000000,4.000000,4.000000,4.000000,4.000000,4.000000,4.000000,4.000000,4.000000,4.000000,4.000000,4.000000,4.000000,4.000000,100.000000,,,,,,,,,,,,,,,,,9.000000,0.000000,0.498006,0.496948,-0.505249,0.499756,0.994750,-0.034184,0.043951,-15.147085,-35.836521,60.354481
1703503211.793670,1703503211.794491,37.000000,0.000000,4236.153809,4253.974121,4291.922852,4324.615234,4273.077148,4261.282227,4270.897461,4247.179688,4238.333496,4216.282227,4404.871582,4450.000000,4328.077148,4372.436035,0.000000,3.000000,63.000000,,,,0.000000,4.000000,4.000000,4.000000,4.000000,4.000000,4.000000,4.000000,4.000000,4.000000,4.000000,4.000000,4.000000,4.000000,4.000000,100.000000,,,,,,,,,,,,,,,,,,,,,,,,,,,,
1703503211.801479,1703503211.802299,38.000000,0.000000,4236.153809,4254.615234,4292.436035,4325.256348,4266.282227,4263.333496,4277.179688,4270.512695,4262.692383,4239.487305,4431.282227,4467.307617,4347.436035,4380.641113,0.000000,3.000000,63.000000,,,,0.000000,4.000000,4.000000,4.000000,4.000000,4.000000,4.000000,4.000000,4.000000,4.000000,4.000000,4.000000,4.000000,4.000000,4.000000,100.000000,,,,,,,,,,,,,,,,,,,,,,,,,,,,
1703503211.809286,1703503211.810207,39.000000,0.000000,4237.692383,4255.641113,4288.205078,4325.512695,4265.897461,4261.282227,4276.410156,4284.230957,4280.256348,4249.358887,4449.615234,4478.205078,4363.589844,4396.922852,0.000000,3.000000,63.000000,,,,0.000000,4.000000,4.000000,4.000000,4.000000,4.000000,4.000000,4.000000,4.000000,4.000000,4.000000,4.000000,4.000000,4.000000,4.000000,100.000000,,,,,,,,,,,,,,,,,,,,,,,,,,,,
1703503211.817094,1703503211.818015,40.000000,0.000000,4231.666504,4247.307617,4283.846191,4319.615234,4266.794922,4260.000000,4274.615234,4281.794922,4275.000000,4243.077148,4443.589844,4480.000000,4362.307617,4394.871582,0.000000,3.000000,63.000000,,,,0.000000,4.000000,4.000000,4.000000,4.000000,4.000000,4.000000,4.000000,4.000000,4.000000,4.000000,4.000000,4.000000,4.000000,4.000000,100.000000,,,,,,,,,,,,,,,,,10.000000,0.000000,0.498069,0.497009,-0.505127,0.499756,0.990844,-0.038091,0.062019,-15.315710,-35.836201,60.335697
1703503211.824903,1703503211.825923,41.000000,0.000000,4227.692383,4244.230957,4281.282227,4315.256348,4263.461426,4258.717773,4276.410156,4278.333496,4272.436035,4251.025879,4446.153809,4481.538574,4364.102539,4388.077148,0.000000,3.000000,63.000000,,,,0.000000,4.000000,4.000000,4.000000,4.000000,4.000000,4.000000,4.000000,4.000000,4.000000,4.000000,4.000000,4.000000,4.000000,4.000000,100.000000,,,,,,,,,,,,,,,,,,,,,,,,,,,,
1703503211.832711,1703503211.833731,42.000000,0.000000,4229.102539,4246.666504,4280.512695,4317.820313,4263.461426,4260.769043,4277.307617,4284.230957,4279.358887,4261.282227,4460.384766,4487.307617,4373.205078,4393.077148,0.000000,3.000000,63.000000,,,,0.000000,4.000000,4.000000,4.000000,4.000000,4.000000,4.000000,4.000000,4.000000,4.000000,4.000000,4.000000,4.000000,4.000000,4.000000,100.000000,,,,,,,,,,,,,,,,,,,,,,,,,,,,
1703503211.840519,1703503211.841439,43.000000,0.000000,4229.615234,4247.692383,4283.461426,4320.512695,4264.615234,4263.717773,4278.205078,4285.897461,4276.666504,4260.128418,4459.358887,4496.153809,4372.692383,4396.153809,0.000000,3.000000,63.000000,,,,0.000000,4.000000,4.000000,4.000000,4.000000,4.000000,4.000000,4.000000,4.000000,4.000000,4.000000,4.000000,4.000000,4.000000,4.000000,100.000000,,,,,,,,,,,,,,,,,,,,,,,,,,,,
1703503211.848327,1703503211.849247,44.000000,0.000000,4231.282227,4252.307617,4284.615234,4318.333496,4264.615234,4262.179688,4280.000000,4271.153809,4263.846191,4248.846191,4444.743652,4494.487305,4365.256348,4395.128418,0.000000,3.000000,63.000000,,,,0.000000,4.000000,4.000000,4.000000,4.000000,4.000000,4.000000,4.000000,4.000000,4.000000,4.000000,4.000000,4.000000,4.000000,4.000000,100.000000,,,,,,,,,,,,,,,,,11.000000,0.000000,0.498132,0.497070,-0.505005,0.499756,0.991332,-0.034672,0.058601,-15.350806,-35.802582,60.252129
1703503211.856135,1703503211.856955,45.000000,0.000000,4232.563965,4254.230957,4280.641113,4314.230957,4269.487305,4260.897461,4278.205078,4243.077148,4236.922852,4208.205078,4421.282227,4472.051270,4346.794922,4381.538574,0.000000,3.000000,63.000000,,,,0.000000,4.000000,4.000000,4.000000,4.000000,4.000000,4.000000,4.000000,4.000000,4.000000,4.000000,4.000000,4.000000,4.000000,4.000000,100.000000,,,,,,,,,,,,,,,,,,,,,,,,,,,,
1703503211.863943,1703503211.864763,46.000000,0.000000,4230.384766,4253.589844,4277.179688,4311.410156,4272.692383,4262.563965,4275.897461,4224.615234,4216.666504,4188.333496,4402.179688,4453.974121,4329.743652,4364.615234,0.000000,3.000000,63.000000,,,,0.000000,4.000000,4.000000,4.000000,4.000000,4.000000,4.000000,4.000000,4.000000,4.000000,4.000000,4.000000,4.000000,4.000000,4.000000,100.000000,,,,,,,,,,,,,,,,,,,,,,,,,,,,
1703503211.871751,1703503211.872471,47.000000,0.000000,4233.333496,4260.256348,4280.641113,4309.615234,4269.743652,4259.358887,4278.333496,4229.358887,4228.974121,4219.358887,4410.256348,4459.871582,4339.487305,4371.666504,0.000000,3.000000,63.000000,,,,0.000000,4.000000,4.000000,4.000000,4.000000,4.000000,4.000000,4.000000,4.000000,4.000000,4.000000,4.000000,4.000000,4.000000,4.000000,100.000000,,,,,,,,,,,,,,,,,,,,,,,,,,,,
1703503211.879559,1703503211.880279,48.000000,0.000000,4243.974121,4265.897461,4289.743652,4309.871582,4264.358887,4251.922852,4274.871582,4236.794922,4237.436035,4220.128418,4427.179688,4469.615234,4351.025879,4385.000000,0.000000,3.000000,63.000000,,,,0.000000,4.000000,4.000000,4.000000,4.000000,4.000000,4.000000,4.000000,4.000000,4.000000,4.000000,4.000000,4.000000,4.000000,4.000000,100.000000,,,,,,,,,,,,,,,,,12.000000,0.000000,0.498134,0.497192,-0.504883,0.499756,0.987425,-0.042486,0.051276,-15.315725,-35.805656,60.160248
1703503211.887367,1703503211.887987,49.000000,0.000000,4251.025879,4265.384766,4295.897461,4312.692383,4265.769043,4252.692383,4267.820313,4237.307617,4231.410156,4196.025879,4427.436035,4469.871582,4348.974121,4387.051270,0.000000,3.000000,63.000000,,,,0.000000,4.000000,4.000000,4.000000,4.000000,4.000000,4.000000,4.000000,4.000000,4.000000,4.000000,4.000000,4.000000,4.000000,4.000000,100.000000,,,,,,,,,,,,,,,,,,,,,,,,,,,,
1703503211.895175,1703503211.895795,50.000000,0.000000,4248.461426,4261.025879,4294.102539,4310.000000,4266.153809,4260.256348,4272.820313,4246.794922,4248.846191,4219.743652,4428.205078,4472.307617,4348.589844,4387.820313,0.000000,3.000000,63.000000,,,,0.000000,4.000000,4.000000,4.000000,4.000000,4.000000,4.000000,4.000000,4.000000,4.000000,4.000000,4.000000,4.000000,4.000000,4.000000,100.000000,,,,,,,,,,,,,,,,,,,,,,,,,,,,
1703503211.902983,1703503211.903503,51.000000,0.000000,4246.153809,4257.692383,4293.077148,4303.461426,4262.179688,4260.512695,4280.000000,4265.641113,4273.461426,4251.025879,4446.666504,4480.512695,4359.102539,4392.563965,0.000000,3.000000,63.000000,,,,0.000000,4.000000,4.000000,4.000000,4.000000,4.000000,4.000000,4.000000,4.000000,4.000000,4.000000,4.000000,4.000000,4.000000,4.000000,100.000000,,,,,,,,,,,,,,,,,,,,,,,,,,,,
1703503211.910791,1703503211.911311,52.000000,0.000000,4246.922852,4258.205078,4294.358887,4307.307617,4264.615234,4261.666504,4279.615234,4281.025879,4280.384766,4248.077148,4461.666504,4489.230957,4372.563965,4397.820313,0.000000,3.000000,63.000000,,,,0.000000,4.000000,4.000000,4.000000,4.000000,4.000000,4.000000,4.000000,4.000000,4.000000,4.000000,4.000000,4.000000,4.000000,4.000000,100.000000,,,,,,,,,,,,,,,,,13.000000,0.000000,0.498011,0.497253,-0.504883,0.499817,0.994262,-0.035649,0.062996,-15.500819,-35.891758,60.077557
1703503211.918599,1703503211.919019,53.000000,0.000000,4248.077148,4261.025879,4294.743652,4313.461426,4270.384766,4271.025879,4282.692383,4281.922852,4284.102539,4245.384766,4452.179688,4491.153809,4368.077148,4395.256348,0.000000,3.000000,63.000000,,,,0.000000,4.000000,4.000000,4.000000,4.000000,4.000000,4.000000,4.000000,4.000000,4.000000,4.000000,4.000000,4.000000,4.000000,4.000000,100.000000,,,,,,,,,,,,,,,,,,,,,,,,,,,,
1703503211.926407,1703503211.926826,54.000000,0.000000,4247.563965,4261.153809,4295.897461,4311.153809,4271.153809,4270.512695,4284.487305,4272.307617,4282.820313,4252.948730,4442.436035,4488.333496,4356.922852,4391.282227,0.000000,3.000000,63.000000,,,,0.000000,4.000000,4.000000,4.000000,4.000000,4.000000,4.000000,4.000000,4.000000,4.000000,4.000000,4.000000,4.000000,4.000000,4.000000,100.000000,,,,,,,,,,,,,,,,,,,,,,,,,,,,
1703503211.934215,1703503211.934534,55.000000,0.000000,4249.102539,4261.922852,4300.897461,4312.436035,4273.333496,4260.897461,4278.974121,4263.717773,4271.153809,4244.358887,4444.230957,4488.333496,4354.230957,4391.794922,0.000000,3.000000,63.000000,,,,0.000000,4.000000,4.000000,4.000000,4.000000,4.000000,4.000000,4.000000,4.000000,4.000000,4.000000,4.000000,4.000000,4.000000,4.000000,100.000000,,,,,,,,,,,,,,,,,,,,,,,,,,,,
1703503211.942023,1703503211.942342,56.000000,0.000000,4257.948730,4268.846191,4307.563965,4325.000000,4277.179688,4262.307617,4277.692383,4255.000000,4262.563965,4225.769043,4437.692383,4486.666504,4353.846191,4394.743652,0.000000,3.000000,63.000000,,,,0.000000,4.000000,4.000000,4.000000,4.000000,4.000000,4.000000,4.000000,4.000000,4.000000,4.000000,4.000000,4.000000,4.000000,4.000000,100.000000,,,,,,,,,,,,,,,,,14.000000,0.000000,0.498010,0.497253,-0.505005,0.499695,0.996215,-0.026370,0.046392,-15.700738,-35.935917,60.019802
1703503211.949831,1703503211.950050,57.000000,0.000000,4260.128418,4271.410156,4304.230957,4327.051270,4271.666504,4262.820313,4276.153809,4245.769043,4260.128418,4222.563965,4428.333496,4477.307617,4349.871582,4392.051270,0.000000,3.000000,63.000000,,,,0.000000,4.000000,4.000000,4.000000,4.000000,4.000000,4.000000,4.000000,4.000000,4.000000,4.000000,4.000000,4.000000,4.000000,4.000000,100.000000,,,,,,,,,,,,,,,,,,,,,,,,,,,,
1703503211.957640,1703503211.957857,58.000000,0.000000,4249.487305,4263.077148,4295.256348,4314.487305,4260.128418,4250.769043,4268.717773,4242.820313,4251.666504,4226.666504,4425.128418,4466.153809,4342.948730,4381.025879,0.000000,3.000000,63.000000,,,,0.000000,4.000000,4.000000,4.000000,4.000000,4.000000,4.000000,4.000000,4.000000,4.000000,4.000000,4.000000,4.000000,4.000000,4.000000,100.000000,,,,,,,,,,,,,,,,,,,,,,,,,,,,
1703503211.965448,1703503211.965565,59.000000,0.000000,4247.820313,4260.769043,4296.025879,4309.743652,4263.205078,4247.307617,4269.743652,4243.717773,4245.384766,4217.179688,4425.641113,4467.692383,4345.000000,4381.538574,0.000000,3.000000,63.000000,,,,0.000000,4.000000,4.000000,4.000000,4.000000,4.000000,4.000000,4.000000,4.000000,4.000000,4.000000,4.000000,4.000000,4.000000,4.000000,100.000000,,,,,,,,,,,,,,,,,,,,,,,,,,,,
1703503211.973256,1703503211.973473,60.000000,0.000000,4252.692383,4261.666504,4299.615234,4314.487305,4272.179688,4251.922852,4276.410156,4241.410156,4247.563965,4207.820313,4427.436035,4473.333496,4353.589844,4391.666504,0.000000,3.000000,63.000000,,,,0.000000,4.000000,4.000000,4.000000,4.000000,4.000000,4.000000,4.000000,4.000000,4.000000,4.000000,4.000000,4.000000,4.000000,4.000000,100.000000,,,,,,,,,,,,,,,,,15.000000,0.000000,0.497765,0.497375,-0.505066,0.499756,0.998657,-0.021487,0.048346,-15.363997,-36.042324,60.067822
1703503211.981064,1703503211.981281,61.000000,0.000000,4248.974121,4253.205078,4294.871582,4311.153809,4266.025879,4250.128418,4277.948730,4243.077148,4250.384766,4219.487305,4426.922852,4467.436035,4353.846191,4388.589844,0.000000,3.000000,63.000000,,,,0.000000,4.000000,4.000000,4.000000,4.000000,4.000000,4.000000,4.000000,4.000000,4.000000,4.000000,4.000000,4.000000,4.000000,4.000000,100.000000,,,,,,,,,,,,,,,,,,,,,,,,,,,,
1703503211.988872,1703503211.989189,62.000000,0.000000,4244.615234,4242.692383,4291.282227,4300.897461,4259.487305,4252.563965,4278.333496,4257.948730,4258.974121,4231.282227,4435.897461,4467.820313,4357.307617,4388.461426,0.000000,3.000000,63.000000,,,,0.000000,4.000000,4.000000,4.000000,4.000000,4.000000,4.000000,4.000000,4.000000,4.000000,4.000000,4.000000,4.000000,4.000000,4.000000,100.000000,,,,,,,,,,,,,,,,,,,,,,,,,,,,
1703503211.996680,1703503211.996997,63.000000,0.000000,4239.102539,4237.307617,4288.846191,4295.128418,4262.436035,4261.794922,4280.256348,4273.717773,4272.179688,4231.922852,4442.948730,4473.974121,4366.538574,4397.563965,0.000000,3.000000,63.000000,,,,0.000000,4.000000,4.000000,4.000000,4.000000,4.000000,4.000000,4.000000,4.000000,4.000000,4.000000,4.000000,4.000000,4.000000,4.000000,100.000000,,,,,,,,,,,,,,,,,,,,,,,,,,,,
1703503212.004488,1703503212.004905,64.000000,0.000000,4233.333496,4238.461426,4279.615234,4294.102539,4263.846191,4264.230957,4279.358887,4288.717773,4291.922852,4253.846191,4443.461426,4471.025879,4371.025879,4394.871582,5360.000000,3.000000,63.000000,,,,0.000000,4.000000,4.000000,4.000000,4.000000,4.000000,4.000000,4.000000,4.000000,4.000000,4.000000,4.000000,4.000000,4.000000,4.000000,100.000000,,,,,,,,,,,,,,,,,16.000000,0.000000,0.497580,0.497437,-0.505188,0.499756,0.985960,-0.026370,0.049322,-15.394264,-35.988091,60.261040
1703503212.012296,1703503212.012713,65.000000,0.000000,4238.974121,4244.487305,4275.512695,4296.794922,4264.102539,4262.307617,4278.974121,4303.717773,4312.563965,4282.051270,4452.820313,4470.897461,4376.282227,4393.461426,5597.000000,3.000000,63.000000,,,,0.000000,4.000000,4.000000,4.000000,4.000000,4.000000,4.000000,4.000000,4.000000,4.000000,4.000000,4.000000,4.000000,4.000000,4.000000,100.000000,,,,,,,,,,,,,,,,,,,,,,,,,,,,
1703503212.020104,1703503212.020621,66.000000,0.000000,4249.230957,4248.717773,4285.384766,4307.051270,4265.769043,4263.333496,4282.436035,4300.256348,4309.102539,4278.077148,4455.897461,4475.384766,4381.282227,4401.922852,5516.000000,3.000000,63.000000,,,,0.000000,4.000000,4.000000,4.000000,4.000000,4.000000,4.000000,4.000000,4.000000,4.000000,4.000000,4.000000,4.000000,4.000000,4.000000,100.000000,,,,,,,,,,,,,,,,,,,,,,,,,,,,
1703503212.027912,1703503212.028429,67.000000,0.000000,4250.897461,4254.871582,4294.230957,4317.563965,4271.025879,4263.589844,4279.871582,4285.384766,4297.436035,4260.897461,4447.820313,4470.256348,4377.563965,4404.102539,5489.000000,3.000000,63.000000,,,,0.000000,4.000000,4.000000,4.000000,4.000000,4.000000,4.000000,4.000000,4.000000,4.000000,4.000000,4.000000,4.000000,4.000000,4.000000,100.000000,,,,,,,,,,,,,,,,,,,,,,,,,,,,
1703503212.035720,1703503212.036137,68.000000,0.000000,4247.307617,4260.897461,4291.922852,4315.384766,4273.846191,4262.436035,4272.436035,4275.000000,4291.666504,4245.256348,4439.358887,4456.410156,4364.487305,4396.153809,5370.000000,3.000000,63.000000,,,,0.000000,4.000000,4.000000,4.000000,4.000000,4.000000,4.000000,4.000000,4.000000,4.000000,4.000000,4.000000,4.000000,4.000000,4.000000,100.000000,,,,,,,,,,,,,,,,,17.000000,0.000000,0.497400,0.497742,-0.505005,0.499817,0.980588,-0.028812,0.057136,-15.488171,-36.005947,60.051601
1703503212.043528,1703503212.043945,69.000000,0.000000,4251.153809,4260.256348,4289.358887,4312.436035,4270.769043,4261.153809,4273.589844,4267.307617,4282.948730,4233.846191,4432.692383,4452.820313,4358.974121,4394.358887,4926.000000,3.000000,63.000000,,,,0.000000,4.000000,4.000000,4.000000,4.000000,4.000000,4.000000,4.000000,4.000000,4.000000,4.000000,4.000000,4.000000,4.000000,4.000000,100.000000,,,,,,,,,,,,,,,,,,,,,,,,,,,,
1703503212.051336,1703503212.051653,70.000000,0.000000,4260.769043,4262.179688,4295.769043,4320.512695,4272.820313,4261.666504,4279.230957,4266.538574,4282.436035,4250.641113,4443.205078,4463.333496,4360.897461,4408.846191,4216.000000,3.000000,63.000000,,,,0.000000,4.000000,4.000000,4.000000,4.000000,4.000000,4.000000,4.000000,4.000000,4.000000,4.000000,4.000000,4.000000,4.000000,4.000000,100.000000,,,,,,,,,,,,,,,,,,,,,,,,,,,,
1703503212.059144,1703503212.059461,71.000000,0.000000,4270.000000,4272.307617,4306.794922,4328.589844,4280.256348,4264.230957,4278.205078,4273.461426,4289.743652,4271.410156,4462.436035,4468.974121,4339.230957,4418.333496,5041.000000,3.000000,63.000000,,,,0.000000,4.000000,4.000000,4.000000,4.000000,4.000000,4.000000,4.000000,4.000000,4.000000,4.000000,4.000000,4.000000,4.000000,4.000000,100.000000,,,,,,,,,,,,,,,,,,,,,,,,,,,,
