title:نوار نعم, start timestamp:1703161178.970403, stop timestamp:1703161189.784549, headset type:EPOCX, headset serial:E50206EF, headset firmware:720, channels:67, sampling rate:eeg_128;mot_32, samples:1386      , version:2.2, 
Timestamp,OriginalTimestamp,EEG.Counter,EEG.Interpolated,EEG.AF3,EEG.F7,EEG.F3,EEG.FC5,EEG.T7,EEG.P7,EEG.O1,EEG.O2,EEG.P8,EEG.T8,EEG.FC6,EEG.F4,EEG.F8,EEG.AF4,EEG.RawCq,EEG.Battery,EEG.BatteryPercent,MarkerIndex,MarkerType,MarkerValueInt,EEG.MarkerHardware,CQ.AF3,CQ.F7,CQ.F3,CQ.FC5,CQ.T7,CQ.P7,CQ.O1,CQ.O2,CQ.P8,CQ.T8,CQ.FC6,CQ.F4,CQ.F8,CQ.AF4,CQ.Overall,EQ.SampleRateQuality,EQ.OVERALL,EQ.AF3,EQ.F7,EQ.F3,EQ.FC5,EQ.T7,EQ.P7,EQ.O1,EQ.O2,EQ.P8,EQ.T8,EQ.FC6,EQ.F4,EQ.F8,EQ.AF4,MOT.CounterMems,MOT.InterpolatedMems,MOT.Q0,MOT.Q1,MOT.Q2,MOT.Q3,MOT.AccX,MOT.AccY,MOT.AccZ,MOT.MagX,MOT.MagY,MOT.MagZ
1703161178.970403,1703161178.971056,56.000000,0.000000,4170.384766,4128.717773,4262.692383,4215.897461,4149.871582,4123.846191,4106.153809,4133.974121,4128.846191,4119.487305,4631.538574,4439.102539,4392.051270,4507.179688,0.000000,4.000000,81.000000,,,,0.000000,4.000000,4.000000,4.000000,4.000000,4.000000,4.000000,4.000000,4.000000,4.000000,4.000000,4.000000,4.000000,4.000000,4.000000,100.000000,,,,,,,,,,,,,,,,,14.000000,0.000000,0.396421,0.546570,-0.373779,0.635925,0.985960,-0.035649,0.122574,-15.662252,-35.025581,64.115379
1703161178.978211,1703161178.978764,57.000000,0.000000,4167.563965,4125.256348,4256.922852,4214.871582,4145.128418,4115.769043,4104.871582,4135.256348,4126.794922,4119.615234,4631.282227,4437.692383,4388.974121,4503.205078,0.000000,4.000000,81.000000,,,,0.000000,4.000000,4.000000,4.000000,4.000000,4.000000,4.000000,4.000000,4.000000,4.000000,4.000000,4.000000,4.000000,4.000000,4.000000,100.000000,1.000000,100.000000,4.000000,4.000000,4.000000,4.000000,4.000000,4.000000,4.000000,4.000000,4.000000,4.000000,4.000000,4.000000,4.000000,4.000000,,,,,,,,,,,,
1703161178.986019,1703161178.986572,58.000000,0.000000,4171.922852,4126.153809,4261.410156,4213.077148,4132.948730,4115.641113,4105.128418,4137.692383,4132.820313,4124.102539,4638.461426,4444.358887,4402.051270,4510.512695,0.000000,4.000000,81.000000,,,,0.000000,4.000000,4.000000,4.000000,4.000000,4.000000,4.000000,4.000000,4.000000,4.000000,4.000000,4.000000,4.000000,4.000000,4.000000,100.000000,,,,,,,,,,,,,,,,,,,,,,,,,,,,
1703161178.993827,1703161178.994480,59.000000,0.000000,4169.102539,4124.615234,4263.974121,4210.000000,4139.358887,4121.282227,4111.410156,4133.846191,4135.384766,4122.051270,4635.384766,4442.820313,4396.282227,4506.922852,0.000000,4.000000,81.000000,,,,0.000000,4.000000,4.000000,4.000000,4.000000,4.000000,4.000000,4.000000,4.000000,4.000000,4.000000,4.000000,4.000000,4.000000,4.000000,100.000000,,,,,,,,,,,,,,,,,,,,,,,,,,,,
1703161179.001635,1703161179.002288,60.000000,0.000000,4164.871582,4121.794922,4261.538574,4210.769043,4146.153809,4125.897461,4120.641113,4130.256348,4132.948730,4120.641113,4632.692383,4437.436035,4390.128418,4500.128418,0.000000,4.000000,81.000000,,,,0.000000,4.000000,4.000000,4.000000,4.000000,4.000000,4.000000,4.000000,4.000000,4.000000,4.000000,4.000000,4.000000,4.000000,4.000000,100.000000,,,,,,,,,,,,,,,,,15.000000,0.000000,0.395927,0.546631,-0.373901,0.636108,0.989379,-0.030765,0.124527,-15.512693,-35.139690,64.053841
1703161179.009443,1703161179.009996,61.000000,0.000000,4170.256348,4126.153809,4265.256348,4218.717773,4147.563965,4129.487305,4124.487305,4134.102539,4131.794922,4130.256348,4640.384766,4441.025879,4394.871582,4505.897461,0.000000,4.000000,81.000000,,,,0.000000,4.000000,4.000000,4.000000,4.000000,4.000000,4.000000,4.000000,4.000000,4.000000,4.000000,4.000000,4.000000,4.000000,4.000000,100.000000,,,,,,,,,,,,,,,,,,,,,,,,,,,,
1703161179.017251,1703161179.017804,62.000000,0.000000,4178.589844,4133.717773,4274.871582,4222.948730,4132.948730,4126.794922,4123.846191,4138.077148,4132.436035,4135.769043,4643.717773,4450.000000,4396.922852,4509.102539,0.000000,4.000000,81.000000,,,,0.000000,4.000000,4.000000,4.000000,4.000000,4.000000,4.000000,4.000000,4.000000,4.000000,4.000000,4.000000,4.000000,4.000000,4.000000,100.000000,,,,,,,,,,,,,,,,,,,,,,,,,,,,
1703161179.025059,1703161179.025512,63.000000,0.000000,4182.692383,4138.589844,4279.615234,4219.871582,4115.256348,4123.205078,4126.153809,4138.974121,4136.025879,4139.615234,4646.282227,4458.077148,4404.615234,4509.615234,0.000000,4.000000,81.000000,,,,0.000000,4.000000,4.000000,4.000000,4.000000,4.000000,4.000000,4.000000,4.000000,4.000000,4.000000,4.000000,4.000000,4.000000,4.000000,100.000000,,,,,,,,,,,,,,,,,,,,,,,,,,,,
1703161179.032867,1703161179.033320,64.000000,0.000000,4180.512695,4136.666504,4279.871582,4216.794922,4135.256348,4129.230957,4127.948730,4140.384766,4140.384766,4154.358887,4657.563965,4460.512695,4413.077148,4516.794922,5166.000000,4.000000,81.000000,,,,0.000000,4.000000,4.000000,4.000000,4.000000,4.000000,4.000000,4.000000,4.000000,4.000000,4.000000,4.000000,4.000000,4.000000,4.000000,100.000000,,,,,,,,,,,,,,,,,16.000000,0.000000,0.395678,0.546753,-0.373779,0.636230,0.989379,-0.051276,0.129899,-15.378091,-35.209053,64.031792
1703161179.040675,1703161179.041028,65.000000,0.000000,4171.922852,4130.641113,4276.666504,4216.410156,4162.692383,4131.025879,4124.615234,4136.666504,4133.589844,4155.256348,4657.436035,4452.436035,4406.282227,4517.948730,5338.000000,4.000000,81.000000,,,,0.000000,4.000000,4.000000,4.000000,4.000000,4.000000,4.000000,4.000000,4.000000,4.000000,4.000000,4.000000,4.000000,4.000000,4.000000,100.000000,,,,,,,,,,,,,,,,,,,,,,,,,,,,
1703161179.048483,1703161179.048836,66.000000,0.000000,4172.307617,4131.666504,4271.153809,4217.051270,4157.179688,4122.563965,4121.282227,4133.333496,4123.333496,4140.128418,4645.512695,4447.563965,4396.794922,4510.384766,5270.000000,4.000000,81.000000,,,,0.000000,4.000000,4.000000,4.000000,4.000000,4.000000,4.000000,4.000000,4.000000,4.000000,4.000000,4.000000,4.000000,4.000000,4.000000,100.000000,,,,,,,,,,,,,,,,,,,,,,,,,,,,
1703161179.056291,1703161179.056544,67.000000,0.000000,4178.461426,4132.051270,4267.436035,4216.153809,4145.897461,4123.333496,4118.974121,4135.769043,4127.436035,4136.410156,4639.358887,4448.333496,4394.230957,4506.666504,5263.000000,4.000000,81.000000,,,,0.000000,4.000000,4.000000,4.000000,4.000000,4.000000,4.000000,4.000000,4.000000,4.000000,4.000000,4.000000,4.000000,4.000000,4.000000,100.000000,,,,,,,,,,,,,,,,,,,,,,,,,,,,
1703161179.064099,1703161179.064352,68.000000,0.000000,4175.769043,4129.102539,4266.922852,4215.384766,4141.282227,4128.333496,4120.769043,4137.692383,4134.743652,4141.153809,4642.692383,4444.487305,4394.358887,4508.333496,5070.000000,4.000000,81.000000,,,,0.000000,4.000000,4.000000,4.000000,4.000000,4.000000,4.000000,4.000000,4.000000,4.000000,4.000000,4.000000,4.000000,4.000000,4.000000,100.000000,,,,,,,,,,,,,,,,,17.000000,0.000000,0.395483,0.546936,-0.373718,0.636230,0.984984,-0.040532,0.116713,-15.323615,-35.288147,64.078613
1703161179.071908,1703161179.072060,69.000000,0.000000,4177.563965,4137.436035,4266.922852,4217.179688,4136.153809,4125.897461,4121.025879,4140.128418,4138.846191,4145.512695,4647.820313,4442.820313,4399.615234,4510.128418,5136.000000,4.000000,81.000000,,,,0.000000,4.000000,4.000000,4.000000,4.000000,4.000000,4.000000,4.000000,4.000000,4.000000,4.000000,4.000000,4.000000,4.000000,4.000000,100.000000,,,,,,,,,,,,,,,,,,,,,,,,,,,,
1703161179.079716,1703161179.079968,70.000000,0.000000,4180.128418,4138.846191,4265.897461,4217.820313,4138.974121,4122.307617,4110.769043,4141.410156,4136.922852,4155.000000,4646.666504,4443.974121,4397.692383,4509.102539,5033.000000,4.000000,81.000000,,,,0.000000,4.000000,4.000000,4.000000,4.000000,4.000000,4.000000,4.000000,4.000000,4.000000,4.000000,4.000000,4.000000,4.000000,4.000000,100.000000,,,,,,,,,,,,,,,,,,,,,,,,,,,,
1703161179.087524,1703161179.087776,71.000000,0.000000,4173.974121,4125.128418,4265.256348,4217.436035,4136.538574,4123.205078,4103.205078,4138.974121,4132.307617,4154.358887,4642.051270,4441.922852,4389.358887,4506.538574,5227.000000,4.000000,81.000000,,,,0.000000,4.000000,4.000000,4.000000,4.000000,4.000000,4.000000,4.000000,4.000000,4.000000,4.000000,4.000000,4.000000,4.000000,4.000000,100.000000,,,,,,,,,,,,,,,,,,,,,,,,,,,,
1703161179.095332,1703161179.095685,72.000000,0.000000,4176.025879,4128.846191,4265.769043,4219.743652,4138.077148,4126.153809,4109.358887,4139.102539,4137.051270,4139.230957,4641.794922,4444.230957,4393.205078,4508.461426,4924.000000,4.000000,81.000000,,,,0.000000,4.000000,4.000000,4.000000,4.000000,4.000000,4.000000,4.000000,4.000000,4.000000,4.000000,4.000000,4.000000,4.000000,4.000000,100.000000,,,,,,,,,,,,,,,,,18.000000,0.000000,0.395612,0.547180,-0.373535,0.636047,0.981565,-0.041509,0.128922,-15.241254,-35.259335,64.187416
1703161179.103140,1703161179.103493,73.000000,0.000000,4185.512695,4140.897461,4269.615234,4219.871582,4155.769043,4125.384766,4111.794922,4140.897461,4136.922852,4134.871582,4644.102539,4447.179688,4396.794922,4510.128418,5222.000000,4.000000,81.000000,,,,0.000000,4.000000,4.000000,4.000000,4.000000,4.000000,4.000000,4.000000,4.000000,4.000000,4.000000,4.000000,4.000000,4.000000,4.000000,100.000000,,,,,,,,,,,,,,,,,,,,,,,,,,,,
1703161179.110948,1703161179.111401,74.000000,0.000000,4183.077148,4133.333496,4275.384766,4218.333496,4151.666504,4122.820313,4110.512695,4139.487305,4129.743652,4140.512695,4645.000000,4445.512695,4390.897461,4506.922852,5809.000000,4.000000,81.000000,,,,0.000000,4.000000,4.000000,4.000000,4.000000,4.000000,4.000000,4.000000,4.000000,4.000000,4.000000,4.000000,4.000000,4.000000,4.000000,100.000000,,,,,,,,,,,,,,,,,,,,,,,,,,,,
1703161179.118756,1703161179.119209,75.000000,0.000000,4180.256348,4129.871582,4277.820313,4220.897461,4138.717773,4125.128418,4118.717773,4140.384766,4129.615234,4141.794922,4647.436035,4450.128418,4391.410156,4511.794922,6138.000000,4.000000,81.000000,,,,0.000000,4.000000,4.000000,4.000000,4.000000,4.000000,4.000000,4.000000,4.000000,4.000000,4.000000,4.000000,4.000000,4.000000,4.000000,100.000000,,,,,,,,,,,,,,,,,,,,,,,,,,,,
1703161179.126564,1703161179.127117,76.000000,0.000000,4186.025879,4140.897461,4277.948730,4224.102539,4140.128418,4126.153809,4121.025879,4140.512695,4130.641113,4147.179688,4649.871582,4457.307617,4400.384766,4523.974121,6543.000000,4.000000,81.000000,,,,0.000000,4.000000,4.000000,4.000000,4.000000,4.000000,4.000000,4.000000,4.000000,4.000000,4.000000,4.000000,4.000000,4.000000,4.000000,100.000000,,,,,,,,,,,,,,,,,19.000000,0.000000,0.395604,0.547607,-0.373230,0.635864,0.977170,-0.041509,0.119155,-15.233795,-35.200066,64.185341
1703161179.134372,1703161179.134925,77.000000,0.000000,4186.025879,4140.128418,4276.538574,4222.436035,4126.794922,4120.256348,4108.846191,4132.051270,4123.205078,4148.077148,4650.000000,4453.589844,4397.051270,4522.563965,6666.000000,4.000000,81.000000,,,,0.000000,4.000000,4.000000,4.000000,4.000000,4.000000,4.000000,4.000000,4.000000,4.000000,4.000000,4.000000,4.000000,4.000000,4.000000,100.000000,,,,,,,,,,,,,,,,,,,,,,,,,,,,
1703161179.142180,1703161179.142834,78.000000,0.000000,4178.717773,4127.948730,4274.487305,4217.563965,4120.000000,4117.179688,4104.615234,4125.128418,4120.000000,4138.461426,4642.307617,4445.000000,4383.846191,4511.025879,5809.000000,4.000000,81.000000,,,,0.000000,4.000000,4.000000,4.000000,4.000000,4.000000,4.000000,4.000000,4.000000,4.000000,4.000000,4.000000,4.000000,4.000000,4.000000,100.000000,,,,,,,,,,,,,,,,,,,,,,,,,,,,
1703161179.149988,1703161179.150642,79.000000,0.000000,4175.384766,4128.974121,4276.153809,4219.743652,4147.436035,4122.307617,4117.436035,4126.794922,4123.846191,4136.538574,4636.538574,4445.256348,4383.205078,4507.563965,6138.000000,4.000000,81.000000,,,,0.000000,4.000000,4.000000,4.000000,4.000000,4.000000,4.000000,4.000000,4.000000,4.000000,4.000000,4.000000,4.000000,4.000000,4.000000,100.000000,,,,,,,,,,,,,,,,,,,,,,,,,,,,
1703161179.157796,1703161179.158550,80.000000,0.000000,4174.871582,4134.615234,4274.615234,4224.615234,4158.205078,4121.538574,4120.641113,4125.769043,4118.077148,4132.563965,4637.948730,4446.410156,4387.051270,4506.922852,6543.000000,4.000000,81.000000,,,,0.000000,4.000000,4.000000,4.000000,4.000000,4.000000,4.000000,4.000000,4.000000,4.000000,4.000000,4.000000,4.000000,4.000000,4.000000,100.000000,,,,,,,,,,,,,,,,,20.000000,0.000000,0.395753,0.547791,-0.372803,0.635864,0.990355,-0.051276,0.126480,-15.393748,-35.263393,64.400139
1703161179.165604,1703161179.166358,81.000000,0.000000,4173.589844,4133.717773,4266.794922,4221.922852,4140.641113,4116.025879,4109.358887,4120.769043,4117.948730,4130.897461,4637.692383,4440.256348,4388.333496,4505.384766,6666.000000,4.000000,81.000000,,,,0.000000,4.000000,4.000000,4.000000,4.000000,4.000000,4.000000,4.000000,4.000000,4.000000,4.000000,4.000000,4.000000,4.000000,4.000000,100.000000,,,,,,,,,,,,,,,,,,,,,,,,,,,,
1703161179.173412,1703161179.174265,82.000000,0.000000,4172.179688,4133.717773,4262.820313,4217.307617,4138.974121,4114.358887,4106.153809,4122.563965,4126.538574,4147.820313,4635.000000,4436.410156,4391.282227,4507.820313,5809.000000,4.000000,81.000000,,,,0.000000,4.000000,4.000000,4.000000,4.000000,4.000000,4.000000,4.000000,4.000000,4.000000,4.000000,4.000000,4.000000,4.000000,4.000000,100.000000,,,,,,,,,,,,,,,,,,,,,,,,,,,,
1703161179.181220,1703161179.182073,83.000000,0.000000,4169.358887,4133.333496,4262.820313,4217.563965,4144.358887,4114.230957,4110.000000,4127.692383,4129.487305,4150.128418,4634.871582,4432.179688,4384.871582,4502.563965,6138.000000,4.000000,81.000000,,,,0.000000,4.000000,4.000000,4.000000,4.000000,4.000000,4.000000,4.000000,4.000000,4.000000,4.000000,4.000000,4.000000,4.000000,4.000000,100.000000,,,,,,,,,,,,,,,,,,,,,,,,,,,,
1703161179.189028,1703161179.189781,84.000000,0.000000,4169.358887,4132.563965,4261.282227,4218.846191,4137.051270,4114.743652,4108.846191,4130.897461,4132.179688,4130.769043,4632.820313,4428.717773,4374.487305,4498.589844,6543.000000,4.000000,81.000000,,,,0.000000,4.000000,4.000000,4.000000,4.000000,4.000000,4.000000,4.000000,4.000000,4.000000,4.000000,4.000000,4.000000,4.000000,4.000000,100.000000,,,,,,,,,,,,,,,,,21.000000,0.000000,0.395956,0.548035,-0.372437,0.635742,0.983030,-0.028812,0.125015,-15.304374,-35.270386,64.343460
1703161179.196836,1703161179.197589,85.000000,0.000000,4175.000000,4135.897461,4262.307617,4218.846191,4132.692383,4119.358887,4108.333496,4137.307617,4134.358887,4132.563965,4629.871582,4435.000000,4375.897461,4505.897461,6666.000000,4.000000,81.000000,,,,0.000000,4.000000,4.000000,4.000000,4.000000,4.000000,4.000000,4.000000,4.000000,4.000000,4.000000,4.000000,4.000000,4.000000,4.000000,100.000000,,,,,,,,,,,,,,,,,,,,,,,,,,,,
1703161179.204644,1703161179.205298,86.000000,0.000000,4176.410156,4137.820313,4263.333496,4217.820313,4136.794922,4123.846191,4110.641113,4141.153809,4127.820313,4143.974121,4630.128418,4440.128418,4375.256348,4503.846191,5809.000000,4.000000,81.000000,,,,0.000000,4.000000,4.000000,4.000000,4.000000,4.000000,4.000000,4.000000,4.000000,4.000000,4.000000,4.000000,4.000000,4.000000,4.000000,100.000000,,,,,,,,,,,,,,,,,,,,,,,,,,,,
1703161179.212453,1703161179.213105,87.000000,0.000000,4175.128418,4138.589844,4260.769043,4219.102539,4140.384766,4121.666504,4105.897461,4137.051270,4121.025879,4134.358887,4632.820313,4437.436035,4375.512695,4500.000000,6138.000000,4.000000,81.000000,,,,0.000000,4.000000,4.000000,4.000000,4.000000,4.000000,4.000000,4.000000,4.000000,4.000000,4.000000,4.000000,4.000000,4.000000,4.000000,100.000000,,,,,,,,,,,,,,,,,,,,,,,,,,,,
1703161179.220261,1703161179.220814,88.000000,0.000000,4183.461426,4144.487305,4268.205078,4225.256348,4129.743652,4120.000000,4102.436035,4135.128418,4125.512695,4131.282227,4640.769043,4442.563965,4390.769043,4513.333496,6543.000000,4.000000,81.000000,,,,0.000000,4.000000,4.000000,4.000000,4.000000,4.000000,4.000000,4.000000,4.000000,4.000000,4.000000,4.000000,4.000000,4.000000,4.000000,100.000000,,,,,,,,,,,,,,,,,22.000000,0.000000,0.396334,0.548157,-0.372375,0.635437,0.980100,-0.026370,0.123550,-15.390603,-35.126682,64.409111
1703161179.228068,1703161179.228722,89.000000,0.000000,4189.230957,4143.589844,4279.230957,4225.128418,4126.153809,4122.307617,4105.256348,4140.384766,4129.615234,4145.769043,4652.436035,4455.128418,4406.794922,4526.794922,6666.000000,4.000000,81.000000,,,,0.000000,4.000000,4.000000,4.000000,4.000000,4.000000,4.000000,4.000000,4.000000,4.000000,4.000000,4.000000,4.000000,4.000000,4.000000,100.000000,,,,,,,,,,,,,,,,,,,,,,,,,,,,
1703161179.235877,1703161179.236530,90.000000,0.000000,4184.102539,4137.436035,4276.666504,4219.743652,4141.282227,4122.948730,4106.794922,4140.641113,4124.102539,4146.282227,4653.717773,4455.128418,4408.717773,4524.615234,5809.000000,4.000000,81.000000,,,,0.000000,4.000000,4.000000,4.000000,4.000000,4.000000,4.000000,4.000000,4.000000,4.000000,4.000000,4.000000,4.000000,4.000000,4.000000,100.000000,,,,,,,,,,,,,,,,,,,,,,,,,,,,
1703161179.243685,1703161179.244438,91.000000,0.000000,4181.025879,4145.769043,4266.666504,4223.205078,4146.666504,4123.461426,4106.153809,4129.615234,4120.256348,4129.871582,4644.358887,4444.871582,4399.487305,4513.077148,6138.000000,4.000000,81.000000,,,,0.000000,4.000000,4.000000,4.000000,4.000000,4.000000,4.000000,4.000000,4.000000,4.000000,4.000000,4.000000,4.000000,4.000000,4.000000,100.000000,,,,,,,,,,,,,,,,,,,,,,,,,,,,
1703161179.251493,1703161179.252246,92.000000,0.000000,4185.641113,4158.077148,4267.820313,4232.307617,4143.461426,4124.358887,4106.794922,4123.974121,4121.666504,4131.922852,4643.974121,4442.179688,4393.077148,4509.230957,6543.000000,4.000000,81.000000,,,,0.000000,4.000000,4.000000,4.000000,4.000000,4.000000,4.000000,4.000000,4.000000,4.000000,4.000000,4.000000,4.000000,4.000000,4.000000,100.000000,,,,,,,,,,,,,,,,,23.000000,0.000000,0.396546,0.548157,-0.372253,0.635376,0.984984,-0.033696,0.127457,-15.484876,-35.030682,64.351532
1703161179.259301,1703161179.260054,93.000000,0.000000,4186.794922,4154.230957,4277.436035,4233.974121,4146.794922,4125.128418,4107.436035,4127.051270,4124.871582,4143.974121,4650.256348,4446.282227,4397.563965,4515.512695,6666.000000,4.000000,81.000000,,,,0.000000,4.000000,4.000000,4.000000,4.000000,4.000000,4.000000,4.000000,4.000000,4.000000,4.000000,4.000000,4.000000,4.000000,4.000000,100.000000,,,,,,,,,,,,,,,,,,,,,,,,,,,,
1703161179.267109,1703161179.267762,94.000000,0.000000,4177.820313,4141.153809,4273.717773,4226.410156,4148.205078,4121.794922,4105.769043,4122.563965,4122.563965,4130.769043,4640.641113,4442.436035,4393.205078,4511.666504,5809.000000,4.000000,81.000000,,,,0.000000,4.000000,4.000000,4.000000,4.000000,4.000000,4.000000,4.000000,4.000000,4.000000,4.000000,4.000000,4.000000,4.000000,4.000000,100.000000,,,,,,,,,,,,,,,,,,,,,,,,,,,,
1703161179.274917,1703161179.275570,95.000000,0.000000,4172.051270,4133.205078,4262.692383,4216.282227,4137.563965,4116.922852,4103.846191,4121.153809,4123.717773,4118.974121,4631.025879,4434.871582,4380.000000,4500.384766,6138.000000,4.000000,81.000000,,,,0.000000,4.000000,4.000000,4.000000,4.000000,4.000000,4.000000,4.000000,4.000000,4.000000,4.000000,4.000000,4.000000,4.000000,4.000000,100.000000,,,,,,,,,,,,,,,,,,,,,,,,,,,,
1703161179.282725,1703161179.283279,96.000000,0.000000,4180.769043,4135.769043,4267.051270,4214.743652,4132.307617,4118.846191,4105.384766,4136.410156,4138.333496,4136.153809,4644.871582,4440.641113,4388.846191,4510.000000,6543.000000,4.000000,81.000000,,,,0.000000,4.000000,4.000000,4.000000,4.000000,4.000000,4.000000,4.000000,4.000000,4.000000,4.000000,4.000000,4.000000,4.000000,4.000000,100.000000,,,,,,,,,,,,,,,,,24.000000,0.000000,0.396590,0.548279,-0.372131,0.635315,0.991820,-0.029300,0.121109,-15.453055,-35.077614,64.333046
1703161179.290533,1703161179.291187,97.000000,0.000000,4190.000000,4144.615234,4277.948730,4226.666504,4135.384766,4121.282227,4108.717773,4146.282227,4150.512695,4152.307617,4655.769043,4450.128418,4402.307617,4523.333496,6666.000000,4.000000,81.000000,,,,0.000000,4.000000,4.000000,4.000000,4.000000,4.000000,4.000000,4.000000,4.000000,4.000000,4.000000,4.000000,4.000000,4.000000,4.000000,100.000000,,,,,,,,,,,,,,,,,,,,,,,,,,,,
1703161179.298341,1703161179.298995,98.000000,0.000000,4186.922852,4144.871582,4279.230957,4230.000000,4129.102539,4117.436035,4108.589844,4140.641113,4142.820313,4146.153809,4646.538574,4450.000000,4392.051270,4519.871582,5809.000000,4.000000,81.000000,,,,0.000000,4.000000,4.000000,4.000000,4.000000,4.000000,4.000000,4.000000,4.000000,4.000000,4.000000,4.000000,4.000000,4.000000,4.000000,100.000000,,,,,,,,,,,,,,,,,,,,,,,,,,,,
1703161179.306149,1703161179.306903,99.000000,0.000000,4182.436035,4137.563965,4275.384766,4220.641113,4127.563965,4116.410156,4107.820313,4136.538574,4123.846191,4136.666504,4641.153809,4446.922852,4386.153809,4518.461426,6138.000000,4.000000,81.000000,,,,0.000000,4.000000,4.000000,4.000000,4.000000,4.000000,4.000000,4.000000,4.000000,4.000000,4.000000,4.000000,4.000000,4.000000,4.000000,100.000000,,,,,,,,,,,,,,,,,,,,,,,,,,,,
1703161179.313957,1703161179.314711,100.000000,0.000000,4192.051270,4143.974121,4276.410156,4224.102539,4136.922852,4123.077148,4109.743652,4136.410156,4119.615234,4139.487305,4650.512695,4449.743652,4399.487305,4527.051270,6543.000000,4.000000,81.000000,,,,0.000000,4.000000,4.000000,4.000000,4.000000,4.000000,4.000000,4.000000,4.000000,4.000000,4.000000,4.000000,4.000000,4.000000,4.000000,100.000000,,,,,,,,,,,,,,,,,25.000000,0.000000,0.396876,0.548279,-0.371826,0.635315,0.987425,-0.034184,0.134294,-15.474417,-35.336517,64.316414
1703161179.321765,1703161179.322619,101.000000,0.000000,4199.230957,4153.205078,4276.153809,4235.384766,4144.487305,4125.897461,4112.051270,4137.692383,4130.641113,4138.717773,4655.128418,4452.563965,4400.256348,4525.897461,6666.000000,4.000000,81.000000,,,,0.000000,4.000000,4.000000,4.000000,4.000000,4.000000,4.000000,4.000000,4.000000,4.000000,4.000000,4.000000,4.000000,4.000000,4.000000,100.000000,,,,,,,,,,,,,,,,,,,,,,,,,,,,
1703161179.329573,1703161179.330427,102.000000,0.000000,4189.487305,4148.589844,4270.000000,4231.025879,4143.205078,4122.307617,4110.000000,4141.025879,4136.794922,4130.128418,4646.538574,4447.820313,4385.512695,4510.512695,5809.000000,4.000000,81.000000,,,,0.000000,4.000000,4.000000,4.000000,4.000000,4.000000,4.000000,4.000000,4.000000,4.000000,4.000000,4.000000,4.000000,4.000000,4.000000,100.000000,,,,,,,,,,,,,,,,,,,,,,,,,,,,
1703161179.337381,1703161179.338335,103.000000,0.000000,4182.179688,4143.717773,4263.333496,4221.794922,4128.974121,4119.615234,4106.922852,4138.333496,4135.256348,4129.743652,4640.384766,4441.794922,4386.922852,4506.922852,6138.000000,4.000000,81.000000,,,,0.000000,4.000000,4.000000,4.000000,4.000000,4.000000,4.000000,4.000000,4.000000,4.000000,4.000000,4.000000,4.000000,4.000000,4.000000,100.000000,,,,,,,,,,,,,,,,,,,,,,,,,,,,
1703161179.345189,1703161179.346143,104.000000,0.000000,4188.589844,4143.974121,4264.358887,4222.436035,4122.948730,4121.410156,4106.410156,4134.230957,4136.025879,4138.717773,4645.641113,4442.692383,4399.615234,4521.282227,6543.000000,4.000000,81.000000,,,,0.000000,4.000000,4.000000,4.000000,4.000000,4.000000,4.000000,4.000000,4.000000,4.000000,4.000000,4.000000,4.000000,4.000000,4.000000,100.000000,,,,,,,,,,,,,,,,,26.000000,0.000000,0.397161,0.548462,-0.371460,0.635193,0.980588,-0.032230,0.115248,-15.376975,-35.302868,64.151436
1703161179.352997,1703161179.354051,105.000000,0.000000,4187.692383,4135.769043,4266.666504,4219.871582,4136.538574,4121.538574,4106.153809,4135.512695,4138.589844,4142.179688,4648.974121,4442.948730,4399.871582,4526.282227,6666.000000,4.000000,81.000000,,,,0.000000,4.000000,4.000000,4.000000,4.000000,4.000000,4.000000,4.000000,4.000000,4.000000,4.000000,4.000000,4.000000,4.000000,4.000000,100.000000,,,,,,,,,,,,,,,,,,,,,,,,,,,,
1703161179.360805,1703161179.361859,106.000000,0.000000,4186.794922,4136.538574,4266.153809,4219.743652,4136.538574,4116.025879,4103.974121,4134.871582,4135.000000,4135.384766,4645.384766,4439.230957,4395.000000,4518.333496,5809.000000,4.000000,81.000000,,,,0.000000,4.000000,4.000000,4.000000,4.000000,4.000000,4.000000,4.000000,4.000000,4.000000,4.000000,4.000000,4.000000,4.000000,4.000000,100.000000,,,,,,,,,,,,,,,,,,,,,,,,,,,,
1703161179.368613,1703161179.369567,107.000000,0.000000,4198.077148,4150.000000,4271.922852,4228.846191,4122.948730,4113.205078,4102.051270,4133.974121,4133.846191,4127.307617,4651.666504,4441.922852,4402.179688,4525.897461,6138.000000,4.000000,81.000000,,,,0.000000,4.000000,4.000000,4.000000,4.000000,4.000000,4.000000,4.000000,4.000000,4.000000,4.000000,4.000000,4.000000,4.000000,4.000000,100.000000,,,,,,,,,,,,,,,,,,,,,,,,,,,,
1703161179.376421,1703161179.377375,108.000000,0.000000,4201.794922,4152.307617,4278.974121,4232.692383,4134.743652,4120.512695,4106.025879,4137.436035,4136.153809,4132.563965,4660.641113,4450.128418,4408.717773,4540.000000,6543.000000,4.000000,81.000000,,,,0.000000,4.000000,4.000000,4.000000,4.000000,4.000000,4.000000,4.000000,4.000000,4.000000,4.000000,4.000000,4.000000,4.000000,4.000000,100.000000,,,,,,,,,,,,,,,,,27.000000,0.000000,0.397459,0.548706,-0.371094,0.635010,0.984007,-0.031742,0.129899,-15.522611,-35.222580,64.119629
1703161179.384230,1703161179.385083,109.000000,0.000000,4198.846191,4149.615234,4278.846191,4232.820313,4146.410156,4123.077148,4105.512695,4134.102539,4128.717773,4135.897461,4651.922852,4450.512695,4397.820313,4531.794922,6666.000000,4.000000,81.000000,,,,0.000000,4.000000,4.000000,4.000000,4.000000,4.000000,4.000000,4.000000,4.000000,4.000000,4.000000,4.000000,4.000000,4.000000,4.000000,100.000000,,,,,,,,,,,,,,,,,,,,,,,,,,,,
1703161179.392038,1703161179.392891,110.000000,0.000000,4197.948730,4148.974121,4277.307617,4231.666504,4127.051270,4117.051270,4097.948730,4121.794922,4118.333496,4116.538574,4639.487305,4445.000000,4384.615234,4518.974121,5809.000000,4.000000,81.000000,,,,0.000000,4.000000,4.000000,4.000000,4.000000,4.000000,4.000000,4.000000,4.000000,4.000000,4.000000,4.000000,4.000000,4.000000,4.000000,100.000000,,,,,,,,,,,,,,,,,,,,,,,,,,,,
1703161179.399845,1703161179.400599,111.000000,0.000000,4201.153809,4155.384766,4281.922852,4232.051270,4119.358887,4119.102539,4100.897461,4123.589844,4119.487305,4112.820313,4644.743652,4450.128418,4391.666504,4526.922852,6138.000000,4.000000,81.000000,,,,0.000000,4.000000,4.000000,4.000000,4.000000,4.000000,4.000000,4.000000,4.000000,4.000000,4.000000,4.000000,4.000000,4.000000,4.000000,100.000000,,,,,,,,,,,,,,,,,,,,,,,,,,,,
1703161179.407654,1703161179.408407,112.000000,0.000000,4210.897461,4167.436035,4289.615234,4241.538574,4135.512695,4124.358887,4109.102539,4136.153809,4126.282227,4135.769043,4656.410156,4458.589844,4402.051270,4539.615234,6543.000000,4.000000,81.000000,,,,0.000000,4.000000,4.000000,4.000000,4.000000,4.000000,4.000000,4.000000,4.000000,4.000000,4.000000,4.000000,4.000000,4.000000,4.000000,100.000000,,,,,,,,,,,,,,,,,28.000000,0.000000,0.397688,0.549011,-0.370605,0.634888,0.971310,-0.019045,0.121597,-15.603683,-35.016987,64.007660
1703161179.415462,1703161179.416115,113.000000,0.000000,4219.230957,4173.461426,4293.589844,4249.871582,4138.846191,4121.922852,4106.666504,4138.205078,4129.871582,4141.922852,4662.179688,4461.282227,4407.179688,4543.717773,6666.000000,4.000000,81.000000,,,,0.000000,4.000000,4.000000,4.000000,4.000000,4.000000,4.000000,4.000000,4.000000,4.000000,4.000000,4.000000,4.000000,4.000000,4.000000,100.000000,,,,,,,,,,,,,,,,,,,,,,,,,,,,
1703161179.423270,1703161179.423923,114.000000,0.000000,4219.743652,4173.717773,4295.256348,4247.436035,4136.025879,4121.794922,4108.205078,4143.589844,4136.922852,4141.794922,4674.102539,4468.077148,4422.563965,4554.102539,5809.000000,4.000000,81.000000,,,,0.000000,4.000000,4.000000,4.000000,4.000000,4.000000,4.000000,4.000000,4.000000,4.000000,4.000000,4.000000,4.000000,4.000000,4.000000,100.000000,,,,,,,,,,,,,,,,,,,,,,,,,,,,
1703161179.431078,1703161179.431631,115.000000,0.000000,4219.358887,4170.128418,4292.436035,4244.871582,4142.051270,4127.692383,4118.333496,4156.025879,4141.025879,4146.282227,4683.589844,4470.769043,4430.000000,4558.077148,6138.000000,4.000000,81.000000,,,,0.000000,4.000000,4.000000,4.000000,4.000000,4.000000,4.000000,4.000000,4.000000,4.000000,4.000000,4.000000,4.000000,4.000000,4.000000,100.000000,,,,,,,,,,,,,,,,,,,,,,,,,,,,
1703161179.438886,1703161179.439439,116.000000,0.000000,4216.410156,4163.974121,4283.589844,4243.461426,4142.436035,4128.077148,4118.461426,4152.179688,4136.922852,4132.051270,4669.615234,4461.538574,4413.846191,4541.538574,6543.000000,4.000000,81.000000,,,,0.000000,4.000000,4.000000,4.000000,4.000000,4.000000,4.000000,4.000000,4.000000,4.000000,4.000000,4.000000,4.000000,4.000000,4.000000,100.000000,,,,,,,,,,,,,,,,,29.000000,0.000000,0.397974,0.549133,-0.370117,0.634888,0.989867,-0.020022,0.127457,-15.726648,-35.131954,64.123566
1703161179.446694,1703161179.447147,117.000000,0.000000,4206.282227,4158.589844,4277.820313,4237.051270,4135.256348,4123.974121,4114.487305,4141.025879,4137.948730,4125.256348,4649.871582,4452.820313,4400.897461,4528.461426,6666.000000,4.000000,81.000000,,,,0.000000,4.000000,4.000000,4.000000,4.000000,4.000000,4.000000,4.000000,4.000000,4.000000,4.000000,4.000000,4.000000,4.000000,4.000000,100.000000,,,,,,,,,,,,,,,,,,,,,,,,,,,,
1703161179.454502,1703161179.454955,118.000000,0.000000,4196.538574,4148.717773,4276.153809,4231.153809,4137.307617,4123.077148,4114.230957,4142.948730,4142.948730,4137.051270,4645.769043,4446.922852,4398.205078,4525.384766,5809.000000,4.000000,81.000000,,,,0.000000,4.000000,4.000000,4.000000,4.000000,4.000000,4.000000,4.000000,4.000000,4.000000,4.000000,4.000000,4.000000,4.000000,4.000000,100.000000,,,,,,,,,,,,,,,,,,,,,,,,,,,,
1703161179.462310,1703161179.462663,119.000000,0.000000,4197.307617,4141.025879,4274.743652,4231.153809,4136.538574,4121.282227,4108.461426,4142.820313,4140.384766,4132.563965,4645.512695,4442.948730,4392.179688,4521.794922,6138.000000,4.000000,81.000000,,,,0.000000,4.000000,4.000000,4.000000,4.000000,4.000000,4.000000,4.000000,4.000000,4.000000,4.000000,4.000000,4.000000,4.000000,4.000000,100.000000,,,,,,,,,,,,,,,,,,,,,,,,,,,,
1703161179.470118,1703161179.470572,120.000000,0.000000,4208.974121,4152.307617,4279.102539,4233.461426,4132.307617,4119.743652,4104.871582,4136.538574,4137.563965,4128.077148,4649.230957,4453.461426,4398.205078,4531.794922,6543.000000,4.000000,81.000000,,,,0.000000,4.000000,4.000000,4.000000,4.000000,4.000000,4.000000,4.000000,4.000000,4.000000,4.000000,4.000000,4.000000,4.000000,4.000000,100.000000,,,,,,,,,,,,,,,,,30.000000,0.000000,0.398101,0.549194,-0.369995,0.634827,0.997680,-0.017092,0.118667,-15.737316,-35.068760,64.061211
1703161179.477926,1703161179.478380,121.000000,0.000000,4212.179688,4159.102539,4282.948730,4233.974121,4138.717773,4116.666504,4107.051270,4138.974121,4139.871582,4141.794922,4659.487305,4464.102539,4409.615234,4540.897461,6666.000000,4.000000,81.000000,,,,0.000000,4.000000,4.000000,4.000000,4.000000,4.000000,4.000000,4.000000,4.000000,4.000000,4.000000,4.000000,4.000000,4.000000,4.000000,100.000000,1.000000,100.000000,4.000000,4.000000,4.000000,4.000000,4.000000,4.000000,4.000000,4.000000,4.000000,4.000000,4.000000,4.000000,4.000000,4.000000,,,,,,,,,,,,
1703161179.485734,1703161179.486288,122.000000,0.000000,4202.051270,4143.717773,4277.436035,4231.153809,4131.666504,4110.256348,4102.179688,4139.230957,4131.153809,4132.948730,4655.769043,4452.948730,4400.769043,4528.589844,5809.000000,4.000000,81.000000,,,,0.000000,4.000000,4.000000,4.000000,4.000000,4.000000,4.000000,4.000000,4.000000,4.000000,4.000000,4.000000,4.000000,4.000000,4.000000,100.000000,,,,,,,,,,,,,,,,,,,,,,,,,,,,
1703161179.493542,1703161179.494096,123.000000,0.000000,4198.461426,4139.102539,4274.743652,4229.102539,4119.358887,4111.922852,4099.743652,4134.871582,4121.922852,4113.205078,4648.846191,4446.410156,4395.512695,4525.000000,6138.000000,4.000000,81.000000,,,,0.000000,4.000000,4.000000,4.000000,4.000000,4.000000,4.000000,4.000000,4.000000,4.000000,4.000000,4.000000,4.000000,4.000000,4.000000,100.000000,,,,,,,,,,,,,,,,,,,,,,,,,,,,
1703161179.501350,1703161179.502004,124.000000,0.000000,4201.794922,4152.563965,4278.717773,4231.410156,4130.256348,4122.563965,4106.153809,4135.769043,4128.974121,4122.051270,4658.333496,4457.051270,4405.512695,4536.282227,6543.000000,4.000000,81.000000,,,,0.000000,4.000000,4.000000,4.000000,4.000000,4.000000,4.000000,4.000000,4.000000,4.000000,4.000000,4.000000,4.000000,4.000000,4.000000,100.000000,,,,,,,,,,,,,,,,,31.000000,0.000000,0.398215,0.549500,-0.369629,0.634705,0.988890,-0.019534,0.125992,-15.780252,-35.078552,64.155083
1703161179.509158,1703161179.509812,125.000000,0.000000,4205.000000,4158.077148,4278.717773,4232.307617,4141.410156,4124.230957,4108.717773,4137.692383,4128.974121,4127.051270,4660.769043,4459.358887,4408.589844,4536.922852,6666.000000,4.000000,81.000000,,,,0.000000,4.000000,4.000000,4.000000,4.000000,4.000000,4.000000,4.000000,4.000000,4.000000,4.000000,4.000000,4.000000,4.000000,4.000000,100.000000,,,,,,,,,,,,,,,,,,,,,,,,,,,,
1703161179.516966,1703161179.517721,126.000000,0.000000,4207.436035,4153.846191,4275.512695,4231.025879,4135.256348,4120.769043,4105.128418,4136.153809,4120.512695,4116.922852,4650.256348,4449.487305,4405.769043,4533.461426,5809.000000,4.000000,81.000000,,,,0.000000,4.000000,4.000000,4.000000,4.000000,4.000000,4.000000,4.000000,4.000000,4.000000,4.000000,4.000000,4.000000,4.000000,4.000000,100.000000,,,,,,,,,,,,,,,,,,,,,,,,,,,,
1703161179.524774,1703161179.525529,127.000000,0.000000,4207.051270,4154.102539,4276.538574,4233.974121,4134.230957,4125.384766,4105.128418,4136.025879,4127.051270,4125.641113,4652.820313,4450.512695,4412.307617,4537.179688,81.000000,4.000000,81.000000,,,,0.000000,4.000000,4.000000,4.000000,4.000000,4.000000,4.000000,4.000000,4.000000,4.000000,4.000000,4.000000,4.000000,4.000000,4.000000,100.000000,,,,,,,,,,,,,,,,,,,,,,,,,,,,
1703161179.532582,1703161179.533437,0.000000,0.000000,4208.461426,4162.051270,4281.025879,4236.282227,4144.230957,4125.897461,4108.461426,4139.871582,4140.128418,4144.487305,4664.615234,4460.769043,4415.512695,4541.025879,5166.000000,4.000000,81.000000,,,,0.000000,4.000000,4.000000,4.000000,4.000000,4.000000,4.000000,4.000000,4.000000,4.000000,4.000000,4.000000,4.000000,4.000000,4.000000,100.000000,,,,,,,,,,,,,,,,,0.000000,0.000000,0.398499,0.549622,-0.369141,0.634705,0.988402,-0.013185,0.131364,-15.785560,-35.070698,64.006241
1703161179.540390,1703161179.541245,1.000000,0.000000,4211.922852,4164.102539,4280.641113,4233.077148,4142.563965,4120.384766,4108.077148,4141.025879,4140.000000,4144.615234,4662.948730,4457.436035,4412.307617,4539.487305,5333.000000,4.000000,81.000000,,,,0.000000,4.000000,4.000000,4.000000,4.000000,4.000000,4.000000,4.000000,4.000000,4.000000,4.000000,4.000000,4.000000,4.000000,4.000000,100.000000,,,,,,,,,,,,,,,,,,,,,,,,,,,,
1703161179.548198,1703161179.549152,2.000000,0.000000,4204.871582,4156.538574,4272.307617,4230.641113,4125.769043,4120.512695,4106.282227,4141.922852,4136.410156,4129.743652,4654.358887,4445.897461,4412.692383,4531.666504,5270.000000,4.000000,81.000000,,,,0.000000,4.000000,4.000000,4.000000,4.000000,4.000000,4.000000,4.000000,4.000000,4.000000,4.000000,4.000000,4.000000,4.000000,4.000000,100.000000,,,,,,,,,,,,,,,,,,,,,,,,,,,,
1703161179.556007,1703161179.556960,3.000000,0.000000,4197.179688,4152.307617,4265.512695,4231.922852,4124.615234,4122.179688,4105.897461,4149.102539,4146.025879,4128.589844,4651.282227,4442.563965,4409.230957,4525.000000,5253.000000,4.000000,81.000000,,,,0.000000,4.000000,4.000000,4.000000,4.000000,4.000000,4.000000,4.000000,4.000000,4.000000,4.000000,4.000000,4.000000,4.000000,4.000000,100.000000,,,,,,,,,,,,,,,,,,,,,,,,,,,,
1703161179.563815,1703161179.564668,4.000000,0.000000,4198.974121,4149.743652,4263.205078,4229.230957,4139.487305,4118.589844,4105.000000,4152.179688,4154.871582,4137.179688,4652.307617,4444.615234,4401.794922,4525.384766,5086.000000,4.000000,81.000000,,,,0.000000,4.000000,4.000000,4.000000,4.000000,4.000000,4.000000,4.000000,4.000000,4.000000,4.000000,4.000000,4.000000,4.000000,4.000000,100.000000,,,,,,,,,,,,,,,,,1.000000,0.000000,0.398767,0.549744,-0.368774,0.634644,0.982053,-0.020510,0.134294,-15.773670,-35.196960,63.972286
1703161179.571622,1703161179.572476,5.000000,0.000000,4200.000000,4147.563965,4264.487305,4227.820313,4138.717773,4116.538574,4105.256348,4145.641113,4143.333496,4129.358887,4652.436035,4445.641113,4402.307617,4524.102539,5136.000000,4.000000,81.000000,,,,0.000000,4.000000,4.000000,4.000000,4.000000,4.000000,4.000000,4.000000,4.000000,4.000000,4.000000,4.000000,4.000000,4.000000,4.000000,100.000000,,,,,,,,,,,,,,,,,,,,,,,,,,,,
1703161179.579431,1703161179.580185,6.000000,0.000000,4194.871582,4146.025879,4271.153809,4230.384766,4132.307617,4119.487305,4106.282227,4138.333496,4124.102539,4116.025879,4648.077148,4442.563965,4402.051270,4519.871582,5033.000000,4.000000,81.000000,,,,0.000000,4.000000,4.000000,4.000000,4.000000,4.000000,4.000000,4.000000,4.000000,4.000000,4.000000,4.000000,4.000000,4.000000,4.000000,100.000000,,,,,,,,,,,,,,,,,,,,,,,,,,,,
1703161179.587239,1703161179.587992,7.000000,0.000000,4194.358887,4148.205078,4275.769043,4231.922852,4137.563965,4122.563965,4105.769043,4135.000000,4120.512695,4118.333496,4642.307617,4440.256348,4391.153809,4519.358887,5227.000000,4.000000,81.000000,,,,0.000000,4.000000,4.000000,4.000000,4.000000,4.000000,4.000000,4.000000,4.000000,4.000000,4.000000,4.000000,4.000000,4.000000,4.000000,100.000000,,,,,,,,,,,,,,,,,,,,,,,,,,,,
1703161179.595047,1703161179.595701,8.000000,0.000000,4205.897461,4160.641113,4279.487305,4238.205078,4142.948730,4125.384766,4106.538574,4135.512695,4123.077148,4121.794922,4642.563965,4448.333496,4393.717773,4527.051270,4938.000000,4.000000,81.000000,,,,0.000000,4.000000,4.000000,4.000000,4.000000,4.000000,4.000000,4.000000,4.000000,4.000000,4.000000,4.000000,4.000000,4.000000,4.000000,100.000000,,,,,,,,,,,,,,,,,2.000000,0.000000,0.398836,0.549805,-0.368713,0.634583,0.986937,-0.019534,0.131364,-15.646303,-35.093929,64.008392
1703161179.602855,1703161179.603509,9.000000,0.000000,4219.358887,4173.974121,4286.282227,4247.820313,4142.436035,4122.820313,4103.974121,4134.743652,4123.589844,4117.179688,4647.948730,4457.436035,4407.820313,4538.461426,5220.000000,4.000000,81.000000,,,,0.000000,4.000000,4.000000,4.000000,4.000000,4.000000,4.000000,4.000000,4.000000,4.000000,4.000000,4.000000,4.000000,4.000000,4.000000,100.000000,,,,,,,,,,,,,,,,,,,,,,,,,,,,
1703161179.610663,1703161179.611217,10.000000,0.000000,4218.974121,4173.717773,4285.128418,4246.922852,4140.897461,4118.333496,4095.769287,4126.538574,4126.538574,4121.025879,4651.282227,4452.692383,4412.307617,4542.563965,5796.000000,4.000000,81.000000,,,,0.000000,4.000000,4.000000,4.000000,4.000000,4.000000,4.000000,4.000000,4.000000,4.000000,4.000000,4.000000,4.000000,4.000000,4.000000,100.000000,,,,,,,,,,,,,,,,,,,,,,,,,,,,
1703161179.618471,1703161179.619025,11.000000,0.000000,4212.307617,4162.563965,4277.948730,4237.692383,4137.820313,4119.871582,4095.641113,4123.717773,4125.641113,4124.487305,4656.538574,4448.589844,4414.743652,4537.820313,6138.000000,4.000000,81.000000,,,,0.000000,4.000000,4.000000,4.000000,4.000000,4.000000,4.000000,4.000000,4.000000,4.000000,4.000000,4.000000,4.000000,4.000000,4.000000,100.000000,,,,,,,,,,,,,,,,,,,,,,,,,,,,
1703161179.626279,1703161179.626733,12.000000,0.000000,4212.820313,4151.410156,4282.051270,4231.538574,4133.205078,4122.307617,4104.230957,4133.205078,4125.256348,4120.897461,4667.051270,4459.102539,4424.871582,4538.333496,6529.000000,4.000000,81.000000,,,,0.000000,4.000000,4.000000,4.000000,4.000000,4.000000,4.000000,4.000000,4.000000,4.000000,4.000000,4.000000,4.000000,4.000000,4.000000,100.000000,,,,,,,,,,,,,,,,,3.000000,0.000000,0.398975,0.549927,-0.368591,0.634460,0.986449,-0.019534,0.125504,-15.765006,-35.084538,63.990887
1703161179.634087,1703161179.634541,13.000000,0.000000,4217.307617,4155.000000,4287.948730,4232.820313,4126.282227,4120.256348,4107.563965,4138.333496,4135.000000,4127.307617,4669.615234,4465.512695,4430.128418,4550.000000,6666.000000,4.000000,81.000000,,,,0.000000,4.000000,4.000000,4.000000,4.000000,4.000000,4.000000,4.000000,4.000000,4.000000,4.000000,4.000000,4.000000,4.000000,4.000000,100.000000,,,,,,,,,,,,,,,,,,,,,,,,,,,,
1703161179.641895,1703161179.642249,14.000000,0.000000,4220.000000,4168.205078,4282.307617,4235.769043,4124.102539,4122.051270,4107.179688,4142.948730,4147.179688,4136.282227,4661.538574,4459.743652,4420.000000,4552.307617,5796.000000,4.000000,81.000000,,,,0.000000,4.000000,4.000000,4.000000,4.000000,4.000000,4.000000,4.000000,4.000000,4.000000,4.000000,4.000000,4.000000,4.000000,4.000000,100.000000,,,,,,,,,,,,,,,,,,,,,,,,,,,,
1703161179.649703,1703161179.650157,15.000000,0.000000,4215.512695,4162.948730,4277.948730,4231.538574,4132.051270,4125.769043,4109.230957,4153.461426,4152.820313,4139.615234,4660.641113,4457.179688,4413.077148,4539.358887,6138.000000,4.000000,81.000000,,,,0.000000,4.000000,4.000000,4.000000,4.000000,4.000000,4.000000,4.000000,4.000000,4.000000,4.000000,4.000000,4.000000,4.000000,4.000000,100.000000,,,,,,,,,,,,,,,,,,,,,,,,,,,,
1703161179.657511,1703161179.657965,16.000000,0.000000,4211.410156,4150.128418,4279.743652,4227.692383,4136.025879,4123.974121,4111.410156,4161.282227,4159.102539,4144.487305,4673.717773,4463.974121,4423.333496,4542.179688,0.000000,4.000000,81.000000,,,,0.000000,4.000000,4.000000,4.000000,4.000000,4.000000,4.000000,4.000000,4.000000,4.000000,4.000000,4.000000,4.000000,4.000000,4.000000,100.000000,,,,,,,,,,,,,,,,,4.000000,0.000000,0.399016,0.549927,-0.368652,0.634399,0.984495,-0.020022,0.128434,-15.821839,-35.192749,63.975132
1703161179.665319,1703161179.665873,17.000000,0.000000,4215.128418,4157.948730,4281.025879,4233.717773,4139.615234,4122.179688,4112.948730,4160.512695,4156.538574,4139.743652,4678.333496,4467.692383,4427.436035,4553.717773,0.000000,4.000000,81.000000,,,,0.000000,4.000000,4.000000,4.000000,4.000000,4.000000,4.000000,4.000000,4.000000,4.000000,4.000000,4.000000,4.000000,4.000000,4.000000,100.000000,,,,,,,,,,,,,,,,,,,,,,,,,,,,
1703161179.673127,1703161179.673681,18.000000,0.000000,4210.641113,4163.461426,4278.461426,4235.128418,4139.230957,4120.769043,4110.256348,4149.230957,4138.077148,4121.282227,4659.615234,4456.794922,4403.846191,4541.410156,0.000000,4.000000,81.000000,,,,0.000000,4.000000,4.000000,4.000000,4.000000,4.000000,4.000000,4.000000,4.000000,4.000000,4.000000,4.000000,4.000000,4.000000,4.000000,100.000000,,,,,,,,,,,,,,,,,,,,,,,,,,,,
1703161179.680935,1703161179.681589,19.000000,0.000000,4202.692383,4158.205078,4276.153809,4231.153809,4131.666504,4115.256348,4105.000000,4137.563965,4124.358887,4109.230957,4641.922852,4446.282227,4390.384766,4529.102539,0.000000,4.000000,81.000000,,,,0.000000,4.000000,4.000000,4.000000,4.000000,4.000000,4.000000,4.000000,4.000000,4.000000,4.000000,4.000000,4.000000,4.000000,4.000000,100.000000,,,,,,,,,,,,,,,,,,,,,,,,,,,,
1703161179.688743,1703161179.689398,20.000000,0.000000,4202.307617,4155.641113,4276.153809,4230.641113,4134.487305,4114.487305,4106.282227,4130.512695,4122.307617,4109.358887,4643.846191,4445.128418,4401.922852,4535.128418,0.000000,4.000000,81.000000,,,,0.000000,4.000000,4.000000,4.000000,4.000000,4.000000,4.000000,4.000000,4.000000,4.000000,4.000000,4.000000,4.000000,4.000000,4.000000,100.000000,,,,,,,,,,,,,,,,,5.000000,0.000000,0.398944,0.550049,-0.368652,0.634338,0.992309,-0.023929,0.133317,-15.689655,-35.206810,63.960949
1703161179.696551,1703161179.697306,21.000000,0.000000,4200.384766,4144.487305,4276.666504,4222.948730,4136.025879,4114.487305,4109.358887,4126.922852,4121.282227,4111.282227,4651.666504,4448.589844,4401.410156,4535.256348,0.000000,4.000000,81.000000,,,,0.000000,4.000000,4.000000,4.000000,4.000000,4.000000,4.000000,4.000000,4.000000,4.000000,4.000000,4.000000,4.000000,4.000000,4.000000,100.000000,,,,,,,,,,,,,,,,,,,,,,,,,,,,
1703161179.704359,1703161179.705114,22.000000,0.000000,4195.897461,4131.666504,4277.820313,4212.948730,4122.563965,4111.153809,4108.077148,4129.230957,4121.666504,4117.051270,4657.436035,4454.743652,4399.743652,4533.974121,0.000000,4.000000,81.000000,,,,0.000000,4.000000,4.000000,4.000000,4.000000,4.000000,4.000000,4.000000,4.000000,4.000000,4.000000,4.000000,4.000000,4.000000,4.000000,100.000000,,,,,,,,,,,,,,,,,,,,,,,,,,,,
1703161179.712167,1703161179.713022,23.000000,0.000000,4200.384766,4142.307617,4279.358887,4222.436035,4115.256348,4114.487305,4106.282227,4131.794922,4125.769043,4123.974121,4661.538574,4456.538574,4411.538574,4538.461426,0.000000,4.000000,81.000000,,,,0.000000,4.000000,4.000000,4.000000,4.000000,4.000000,4.000000,4.000000,4.000000,4.000000,4.000000,4.000000,4.000000,4.000000,4.000000,100.000000,,,,,,,,,,,,,,,,,,,,,,,,,,,,
1703161179.719976,1703161179.720830,24.000000,0.000000,4207.307617,4159.743652,4280.000000,4231.282227,4125.897461,4118.717773,4107.051270,4125.384766,4122.692383,4121.666504,4657.436035,4454.743652,4413.717773,4538.077148,0.000000,4.000000,81.000000,,,,0.000000,4.000000,4.000000,4.000000,4.000000,4.000000,4.000000,4.000000,4.000000,4.000000,4.000000,4.000000,4.000000,4.000000,4.000000,100.000000,,,,,,,,,,,,,,,,,6.000000,0.000000,0.399001,0.550049,-0.368591,0.634338,0.988890,-0.021975,0.134294,-15.704023,-35.269463,63.948189
1703161179.727784,1703161179.728738,25.000000,0.000000,4203.589844,4152.948730,4278.974121,4221.794922,4136.025879,4120.769043,4108.077148,4125.128418,4125.769043,4119.358887,4649.615234,4454.102539,4401.153809,4534.871582,0.000000,4.000000,81.000000,,,,0.000000,4.000000,4.000000,4.000000,4.000000,4.000000,4.000000,4.000000,4.000000,4.000000,4.000000,4.000000,4.000000,4.000000,4.000000,100.000000,,,,,,,,,,,,,,,,,,,,,,,,,,,,
1703161179.735592,1703161179.736546,26.000000,0.000000,4196.282227,4135.897461,4277.692383,4217.820313,4125.897461,4121.922852,4108.461426,4138.333496,4142.307617,4124.102539,4649.871582,4454.871582,4394.102539,4533.589844,0.000000,4.000000,81.000000,,,,0.000000,4.000000,4.000000,4.000000,4.000000,4.000000,4.000000,4.000000,4.000000,4.000000,4.000000,4.000000,4.000000,4.000000,4.000000,100.000000,,,,,,,,,,,,,,,,,,,,,,,,,,,,
1703161179.743400,1703161179.744454,27.000000,0.000000,4198.461426,4137.051270,4278.846191,4228.205078,4110.128418,4115.897461,4110.384766,4142.948730,4145.384766,4123.589844,4654.358887,4457.179688,4397.307617,4535.641113,0.000000,4.000000,81.000000,,,,0.000000,4.000000,4.000000,4.000000,4.000000,4.000000,4.000000,4.000000,4.000000,4.000000,4.000000,4.000000,4.000000,4.000000,4.000000,100.000000,,,,,,,,,,,,,,,,,,,,,,,,,,,,
1703161179.751208,1703161179.752262,28.000000,0.000000,4205.128418,4148.077148,4280.512695,4232.948730,4119.487305,4113.974121,4114.871582,4140.384766,4136.153809,4118.077148,4655.512695,4461.025879,4400.769043,4536.922852,0.000000,4.000000,81.000000,,,,0.000000,4.000000,4.000000,4.000000,4.000000,4.000000,4.000000,4.000000,4.000000,4.000000,4.000000,4.000000,4.000000,4.000000,4.000000,100.000000,,,,,,,,,,,,,,,,,7.000000,0.000000,0.399057,0.550049,-0.368530,0.634338,0.998657,-0.010743,0.121109,-15.683620,-35.275848,63.986702
1703161179.759016,1703161179.759970,29.000000,0.000000,4202.563965,4153.077148,4281.282227,4227.948730,4139.615234,4121.666504,4115.897461,4139.743652,4135.897461,4121.282227,4655.769043,4457.820313,4400.641113,4534.871582,0.000000,4.000000,81.000000,,,,0.000000,4.000000,4.000000,4.000000,4.000000,4.000000,4.000000,4.000000,4.000000,4.000000,4.000000,4.000000,4.000000,4.000000,4.000000,100.000000,,,,,,,,,,,,,,,,,,,,,,,,,,,,
1703161179.766824,1703161179.767778,30.000000,0.000000,4202.307617,4153.717773,4283.077148,4227.563965,4137.692383,4119.743652,4112.563965,4138.974121,4137.307617,4129.487305,4657.692383,4457.051270,4404.230957,4538.717773,0.000000,4.000000,81.000000,,,,0.000000,4.000000,4.000000,4.000000,4.000000,4.000000,4.000000,4.000000,4.000000,4.000000,4.000000,4.000000,4.000000,4.000000,4.000000,100.000000,,,,,,,,,,,,,,,,,,,,,,,,,,,,
1703161179.774632,1703161179.775486,31.000000,0.000000,4210.128418,4156.666504,4286.153809,4231.922852,4127.307617,4109.230957,4108.461426,4138.846191,4128.846191,4127.179688,4660.384766,4464.230957,4412.179688,4545.512695,0.000000,4.000000,81.000000,,,,0.000000,4.000000,4.000000,4.000000,4.000000,4.000000,4.000000,4.000000,4.000000,4.000000,4.000000,4.000000,4.000000,4.000000,4.000000,100.000000,,,,,,,,,,,,,,,,,,,,,,,,,,,,
1703161179.782440,1703161179.783294,32.000000,0.000000,4207.307617,4152.563965,4284.871582,4226.538574,4127.820313,4110.000000,4106.153809,4134.743652,4122.948730,4120.512695,4660.128418,4459.615234,4409.487305,4542.563965,0.000000,4.000000,81.000000,,,,0.000000,4.000000,4.000000,4.000000,4.000000,4.000000,4.000000,4.000000,4.000000,4.000000,4.000000,4.000000,4.000000,4.000000,4.000000,100.000000,,,,,,,,,,,,,,,,,8.000000,0.000000,0.398763,0.550110,-0.368652,0.634399,0.987425,-0.023440,0.124527,-15.665258,-35.331596,64.021370
1703161179.790248,1703161179.791002,33.000000,0.000000,4198.974121,4141.794922,4281.153809,4217.436035,4133.717773,4117.563965,4105.641113,4126.410156,4123.589844,4118.589844,4658.205078,4451.025879,4401.922852,4536.666504,0.000000,4.000000,81.000000,,,,0.000000,4.000000,4.000000,4.000000,4.000000,4.000000,4.000000,4.000000,4.000000,4.000000,4.000000,4.000000,4.000000,4.000000,4.000000,100.000000,,,,,,,,,,,,,,,,,,,,,,,,,,,,
1703161179.798056,1703161179.798910,34.000000,0.000000,4197.692383,4136.025879,4278.589844,4215.128418,4137.820313,4120.769043,4107.307617,4122.692383,4121.794922,4115.256348,4653.205078,4449.743652,4399.358887,4536.025879,0.000000,4.000000,81.000000,,,,0.000000,4.000000,4.000000,4.000000,4.000000,4.000000,4.000000,4.000000,4.000000,4.000000,4.000000,4.000000,4.000000,4.000000,4.000000,100.000000,,,,,,,,,,,,,,,,,,,,,,,,,,,,
1703161179.805864,1703161179.806718,35.000000,0.000000,4200.897461,4142.051270,4278.077148,4217.563965,4137.051270,4122.820313,4111.025879,4125.512695,4123.205078,4121.153809,4652.179688,4449.102539,4400.384766,4537.820313,0.000000,4.000000,81.000000,,,,0.000000,4.000000,4.000000,4.000000,4.000000,4.000000,4.000000,4.000000,4.000000,4.000000,4.000000,4.000000,4.000000,4.000000,4.000000,100.000000,,,,,,,,,,,,,,,,,,,,,,,,,,,,
1703161179.813672,1703161179.814627,36.000000,0.000000,4204.487305,4152.051270,4278.461426,4221.153809,4137.436035,4125.641113,4112.820313,4127.051270,4128.077148,4131.922852,4659.871582,4450.384766,4407.051270,4539.102539,0.000000,4.000000,81.000000,,,,0.000000,4.000000,4.000000,4.000000,4.000000,4.000000,4.000000,4.000000,4.000000,4.000000,4.000000,4.000000,4.000000,4.000000,4.000000,100.000000,,,,,,,,,,,,,,,,,9.000000,0.000000,0.398579,0.550232,-0.368774,0.634338,0.990844,-0.006837,0.124039,-15.465400,-35.331772,64.052567
1703161179.821480,1703161179.822435,37.000000,0.000000,4207.563965,4158.077148,4279.743652,4228.461426,4143.717773,4125.641113,4110.384766,4126.025879,4128.077148,4128.846191,4665.128418,4455.897461,4413.589844,4539.871582,0.000000,4.000000,81.000000,,,,0.000000,4.000000,4.000000,4.000000,4.000000,4.000000,4.000000,4.000000,4.000000,4.000000,4.000000,4.000000,4.000000,4.000000,4.000000,100.000000,,,,,,,,,,,,,,,,,,,,,,,,,,,,
1703161179.829288,1703161179.830243,38.000000,0.000000,4210.000000,4157.436035,4281.282227,4234.230957,4138.974121,4118.333496,4106.282227,4124.743652,4130.769043,4127.179688,4658.077148,4457.051270,4407.179688,4540.256348,0.000000,4.000000,81.000000,,,,0.000000,4.000000,4.000000,4.000000,4.000000,4.000000,4.000000,4.000000,4.000000,4.000000,4.000000,4.000000,4.000000,4.000000,4.000000,100.000000,,,,,,,,,,,,,,,,,,,,,,,,,,,,
1703161179.837096,1703161179.837951,39.000000,0.000000,4210.256348,4155.128418,4283.077148,4233.077148,4133.974121,4111.794922,4104.487305,4125.000000,4135.897461,4134.487305,4652.563965,4454.487305,4400.512695,4538.974121,0.000000,4.000000,81.000000,,,,0.000000,4.000000,4.000000,4.000000,4.000000,4.000000,4.000000,4.000000,4.000000,4.000000,4.000000,4.000000,4.000000,4.000000,4.000000,100.000000,,,,,,,,,,,,,,,,,,,,,,,,,,,,
1703161179.844904,1703161179.845759,40.000000,0.000000,4207.179688,4155.897461,4284.487305,4228.077148,4141.025879,4114.102539,4105.000000,4131.025879,4135.128418,4133.333496,4660.128418,4457.948730,4407.948730,4538.717773,0.000000,4.000000,81.000000,,,,0.000000,4.000000,4.000000,4.000000,4.000000,4.000000,4.000000,4.000000,4.000000,4.000000,4.000000,4.000000,4.000000,4.000000,4.000000,100.000000,,,,,,,,,,,,,,,,,10.000000,0.000000,0.398226,0.550476,-0.368896,0.634277,0.983030,-0.031254,0.131852,-15.602193,-35.298592,64.113976
1703161179.852712,1703161179.853467,41.000000,0.000000,4202.307617,4154.871582,4282.692383,4224.102539,4132.948730,4114.871582,4105.769043,4138.461426,4134.615234,4122.948730,4663.333496,4461.282227,4409.743652,4539.487305,0.000000,4.000000,81.000000,,,,0.000000,4.000000,4.000000,4.000000,4.000000,4.000000,4.000000,4.000000,4.000000,4.000000,4.000000,4.000000,4.000000,4.000000,4.000000,100.000000,,,,,,,,,,,,,,,,,,,,,,,,,,,,
1703161179.860520,1703161179.861375,42.000000,0.000000,4202.692383,4152.820313,4280.256348,4223.461426,4118.974121,4109.615234,4106.410156,4140.641113,4137.179688,4119.871582,4660.897461,4460.384766,4403.589844,4538.461426,0.000000,4.000000,81.000000,,,,0.000000,4.000000,4.000000,4.000000,4.000000,4.000000,4.000000,4.000000,4.000000,4.000000,4.000000,4.000000,4.000000,4.000000,4.000000,100.000000,,,,,,,,,,,,,,,,,,,,,,,,,,,,
1703161179.868328,1703161179.869183,43.000000,0.000000,4203.333496,4153.333496,4281.025879,4227.051270,4129.230957,4108.846191,4105.897461,4136.025879,4129.487305,4119.102539,4659.358887,4459.871582,4404.230957,4538.205078,0.000000,4.000000,81.000000,,,,0.000000,4.000000,4.000000,4.000000,4.000000,4.000000,4.000000,4.000000,4.000000,4.000000,4.000000,4.000000,4.000000,4.000000,4.000000,100.000000,,,,,,,,,,,,,,,,,,,,,,,,,,,,
1703161179.876136,1703161179.877091,44.000000,0.000000,4200.384766,4153.717773,4281.282227,4228.846191,4141.922852,4115.641113,4106.025879,4127.948730,4119.743652,4118.589844,4652.948730,4460.641113,4404.615234,4538.461426,0.000000,4.000000,81.000000,,,,0.000000,4.000000,4.000000,4.000000,4.000000,4.000000,4.000000,4.000000,4.000000,4.000000,4.000000,4.000000,4.000000,4.000000,4.000000,100.000000,,,,,,,,,,,,,,,,,11.000000,0.000000,0.397962,0.550415,-0.368958,0.634460,0.994262,-0.018069,0.130875,-15.625307,-35.268734,64.169243
1703161179.883944,1703161179.884900,45.000000,0.000000,4199.230957,4153.205078,4279.615234,4224.358887,4139.743652,4121.538574,4108.589844,4124.487305,4122.948730,4126.153809,4649.743652,4457.820313,4401.282227,4535.000000,0.000000,4.000000,81.000000,,,,0.000000,4.000000,4.000000,4.000000,4.000000,4.000000,4.000000,4.000000,4.000000,4.000000,4.000000,4.000000,4.000000,4.000000,4.000000,100.000000,,,,,,,,,,,,,,,,,,,,,,,,,,,,
1703161179.891753,1703161179.892808,46.000000,0.000000,4198.846191,4153.333496,4278.846191,4220.384766,4146.794922,4121.025879,4109.102539,4119.615234,4118.333496,4119.358887,4649.487305,4449.230957,4400.512695,4533.846191,0.000000,4.000000,81.000000,,,,0.000000,4.000000,4.000000,4.000000,4.000000,4.000000,4.000000,4.000000,4.000000,4.000000,4.000000,4.000000,4.000000,4.000000,4.000000,100.000000,,,,,,,,,,,,,,,,,,,,,,,,,,,,
1703161179.899561,1703161179.900616,47.000000,0.000000,4200.384766,4153.589844,4280.128418,4220.641113,4153.077148,4118.077148,4108.589844,4110.000000,4106.538574,4105.897461,4646.410156,4444.102539,4400.641113,4531.794922,0.000000,4.000000,81.000000,,,,0.000000,4.000000,4.000000,4.000000,4.000000,4.000000,4.000000,4.000000,4.000000,4.000000,4.000000,4.000000,4.000000,4.000000,4.000000,100.000000,,,,,,,,,,,,,,,,,,,,,,,,,,,,
1703161179.907369,1703161179.908524,48.000000,0.000000,4196.922852,4151.025879,4275.769043,4217.948730,4137.563965,4116.025879,4108.589844,4104.102539,4103.333496,4106.538574,4639.743652,4442.436035,4394.615234,4525.128418,0.000000,4.000000,81.000000,,,,0.000000,4.000000,4.000000,4.000000,4.000000,4.000000,4.000000,4.000000,4.000000,4.000000,4.000000,4.000000,4.000000,4.000000,4.000000,100.000000,,,,,,,,,,,,,,,,,12.000000,0.000000,0.397299,0.550537,-0.369385,0.634521,0.994262,-0.029789,0.124527,-15.679442,-35.258526,64.168983
1703161179.915177,1703161179.916332,49.000000,0.000000,4196.794922,4151.794922,4272.051270,4218.717773,4133.205078,4111.153809,4103.461426,4097.820313,4099.615234,4101.922852,4634.871582,4437.563965,4391.153809,4526.794922,0.000000,4.000000,81.000000,,,,0.000000,4.000000,4.000000,4.000000,4.000000,4.000000,4.000000,4.000000,4.000000,4.000000,4.000000,4.000000,4.000000,4.000000,4.000000,100.000000,,,,,,,,,,,,,,,,,,,,,,,,,,,,
1703161179.922985,1703161179.924240,50.000000,0.000000,4210.641113,4156.282227,4278.077148,4226.922852,4142.820313,4110.641113,4100.641113,4095.769287,4097.820313,4094.871826,4644.102539,4441.153809,4403.974121,4540.512695,0.000000,4.000000,81.000000,,,,0.000000,4.000000,4.000000,4.000000,4.000000,4.000000,4.000000,4.000000,4.000000,4.000000,4.000000,4.000000,4.000000,4.000000,4.000000,100.000000,,,,,,,,,,,,,,,,,,,,,,,,,,,,
1703161179.930793,1703161179.932148,51.000000,0.000000,4219.358887,4155.256348,4284.230957,4232.051270,4131.922852,4117.051270,4106.025879,4105.769043,4110.769043,4109.871582,4659.358887,4451.153809,4414.743652,4547.307617,0.000000,4.000000,81.000000,,,,0.000000,4.000000,4.000000,4.000000,4.000000,4.000000,4.000000,4.000000,4.000000,4.000000,4.000000,4.000000,4.000000,4.000000,4.000000,100.000000,,,,,,,,,,,,,,,,,,,,,,,,,,,,
1703161179.938601,1703161179.939956,52.000000,0.000000,4212.179688,4150.897461,4282.692383,4228.461426,4119.487305,4116.666504,4103.461426,4117.051270,4124.743652,4127.820313,4657.948730,4451.666504,4406.922852,4542.820313,0.000000,4.000000,81.000000,,,,0.000000,4.000000,4.000000,4.000000,4.000000,4.000000,4.000000,4.000000,4.000000,4.000000,4.000000,4.000000,4.000000,4.000000,4.000000,100.000000,,,,,,,,,,,,,,,,,13.000000,0.000000,0.396845,0.550659,-0.369690,0.634521,0.975705,-0.025882,0.119155,-15.611499,-35.266006,64.218750
1703161179.946409,1703161179.947764,53.000000,0.000000,4212.820313,4157.820313,4279.743652,4222.436035,4133.846191,4110.000000,4093.846191,4121.153809,4125.128418,4123.846191,4649.102539,4446.794922,4400.384766,4540.641113,0.000000,4.000000,81.000000,,,,0.000000,4.000000,4.000000,4.000000,4.000000,4.000000,4.000000,4.000000,4.000000,4.000000,4.000000,4.000000,4.000000,4.000000,4.000000,100.000000,,,,,,,,,,,,,,,,,,,,,,,,,,,,
1703161179.954217,1703161179.955472,54.000000,0.000000,4220.641113,4173.333496,4279.358887,4219.871582,4138.974121,4109.102539,4092.564209,4122.948730,4121.666504,4118.974121,4646.666504,4446.666504,4399.358887,4540.384766,0.000000,4.000000,81.000000,,,,0.000000,4.000000,4.000000,4.000000,4.000000,4.000000,4.000000,4.000000,4.000000,4.000000,4.000000,4.000000,4.000000,4.000000,4.000000,100.000000,,,,,,,,,,,,,,,,,,,,,,,,,,,,
1703161179.962025,1703161179.963280,55.000000,0.000000,4210.512695,4167.692383,4274.230957,4218.205078,4131.282227,4109.358887,4094.615479,4123.461426,4124.615234,4125.128418,4641.410156,4445.128418,4392.436035,4536.025879,0.000000,4.000000,81.000000,,,,0.000000,4.000000,4.000000,4.000000,4.000000,4.000000,4.000000,4.000000,4.000000,4.000000,4.000000,4.000000,4.000000,4.000000,4.000000,100.000000,,,,,,,,,,,,,,,,,,,,,,,,,,,,
1703161179.969833,1703161179.970988,56.000000,0.000000,4195.641113,4146.666504,4264.743652,4213.589844,4134.615234,4103.589844,4089.871826,4120.256348,4122.820313,4120.256348,4636.410156,4437.563965,4388.333496,4531.153809,0.000000,4.000000,81.000000,,,,0.000000,4.000000,4.000000,4.000000,4.000000,4.000000,4.000000,4.000000,4.000000,4.000000,4.000000,4.000000,4.000000,4.000000,4.000000,100.000000,,,,,,,,,,,,,,,,,14.000000,0.000000,0.395672,0.550964,-0.370178,0.634705,0.984007,-0.013674,0.123062,-15.600348,-35.356075,64.146881
1703161179.977641,1703161179.978796,57.000000,0.000000,4198.333496,4146.794922,4263.846191,4211.666504,4126.282227,4102.820313,4089.487061,4118.717773,4111.538574,4106.922852,4642.948730,4433.846191,4394.102539,4531.922852,0.000000,4.000000,81.000000,,,,0.000000,4.000000,4.000000,4.000000,4.000000,4.000000,4.000000,4.000000,4.000000,4.000000,4.000000,4.000000,4.000000,4.000000,4.000000,100.000000,1.000000,100.000000,4.000000,4.000000,4.000000,4.000000,4.000000,4.000000,4.000000,4.000000,4.000000,4.000000,4.000000,4.000000,4.000000,4.000000,,,,,,,,,,,,
1703161179.985449,1703161179.986504,58.000000,0.000000,4202.948730,4155.897461,4273.461426,4215.897461,4115.512695,4110.000000,4099.230957,4122.692383,4113.974121,4115.384766,4652.307617,4441.153809,4397.307617,4537.436035,0.000000,4.000000,81.000000,,,,0.000000,4.000000,4.000000,4.000000,4.000000,4.000000,4.000000,4.000000,4.000000,4.000000,4.000000,4.000000,4.000000,4.000000,4.000000,100.000000,,,,,,,,,,,,,,,,,,,,,,,,,,,,
1703161179.993257,1703161179.994312,59.000000,0.000000,4200.897461,4152.436035,4278.974121,4215.512695,4133.333496,4112.307617,4107.820313,4128.589844,4130.769043,4141.538574,4658.846191,4450.769043,4404.487305,4538.717773,0.000000,4.000000,81.000000,,,,0.000000,4.000000,4.000000,4.000000,4.000000,4.000000,4.000000,4.000000,4.000000,4.000000,4.000000,4.000000,4.000000,4.000000,4.000000,100.000000,,,,,,,,,,,,,,,,,,,,,,,,,,,,
1703161180.001065,1703161180.002020,60.000000,0.000000,4201.794922,4152.563965,4276.794922,4211.025879,4146.282227,4109.102539,4107.948730,4127.948730,4130.769043,4145.384766,4661.666504,4450.256348,4412.179688,4541.025879,0.000000,4.000000,81.000000,,,,0.000000,4.000000,4.000000,4.000000,4.000000,4.000000,4.000000,4.000000,4.000000,4.000000,4.000000,4.000000,4.000000,4.000000,4.000000,100.000000,,,,,,,,,,,,,,,,,15.000000,0.000000,0.394427,0.551453,-0.370361,0.634949,0.979612,-0.020999,0.118667,-15.440314,-35.370468,63.982189
1703161180.008873,1703161180.009828,61.000000,0.000000,4204.743652,4156.666504,4277.179688,4214.615234,4136.282227,4109.871582,4105.897461,4121.922852,4116.666504,4136.666504,4661.794922,4445.641113,4408.846191,4546.282227,0.000000,4.000000,81.000000,,,,0.000000,4.000000,4.000000,4.000000,4.000000,4.000000,4.000000,4.000000,4.000000,4.000000,4.000000,4.000000,4.000000,4.000000,4.000000,100.000000,,,,,,,,,,,,,,,,,,,,,,,,,,,,
1703161180.016681,1703161180.017536,62.000000,0.000000,4202.948730,4150.384766,4281.025879,4214.871582,4136.922852,4113.205078,4109.358887,4116.922852,4111.153809,4143.077148,4660.512695,4447.948730,4405.384766,4546.922852,0.000000,4.000000,81.000000,,,,0.000000,4.000000,4.000000,4.000000,4.000000,4.000000,4.000000,4.000000,4.000000,4.000000,4.000000,4.000000,4.000000,4.000000,4.000000,100.000000,,,,,,,,,,,,,,,,,,,,,,,,,,,,
1703161180.024489,1703161180.025445,63.000000,0.000000,4199.230957,4149.230957,4276.282227,4206.282227,4134.871582,4110.512695,4109.615234,4107.820313,4105.384766,4139.615234,4651.794922,4443.461426,4398.461426,4537.820313,0.000000,4.000000,81.000000,,,,0.000000,4.000000,4.000000,4.000000,4.000000,4.000000,4.000000,4.000000,4.000000,4.000000,4.000000,4.000000,4.000000,4.000000,4.000000,100.000000,,,,,,,,,,,,,,,,,,,,,,,,,,,,
1703161180.032297,1703161180.033253,64.000000,0.000000,4197.307617,4155.641113,4266.410156,4205.769043,4125.256348,4108.846191,4106.794922,4101.794922,4099.743652,4127.051270,4642.563965,4431.538574,4385.128418,4528.205078,5166.000000,4.000000,81.000000,,,,0.000000,4.000000,4.000000,4.000000,4.000000,4.000000,4.000000,4.000000,4.000000,4.000000,4.000000,4.000000,4.000000,4.000000,4.000000,100.000000,,,,,,,,,,,,,,,,,16.000000,0.000000,0.393536,0.551697,-0.370422,0.635254,0.973752,-0.052741,0.125504,-15.479616,-35.333420,63.933971
1703161180.040105,1703161180.041061,65.000000,0.000000,4199.487305,4157.436035,4266.282227,4214.230957,4134.871582,4112.948730,4107.563965,4107.563965,4103.205078,4131.794922,4635.897461,4428.077148,4377.563965,4526.410156,5332.000000,4.000000,81.000000,,,,0.000000,4.000000,4.000000,4.000000,4.000000,4.000000,4.000000,4.000000,4.000000,4.000000,4.000000,4.000000,4.000000,4.000000,4.000000,100.000000,,,,,,,,,,,,,,,,,,,,,,,,,,,,
1703161180.047913,1703161180.048769,66.000000,0.000000,4203.846191,4166.153809,4270.128418,4217.563965,4138.461426,4111.538574,4105.897461,4116.538574,4113.333496,4148.461426,4634.102539,4432.307617,4382.307617,4531.025879,5270.000000,4.000000,81.000000,,,,0.000000,4.000000,4.000000,4.000000,4.000000,4.000000,4.000000,4.000000,4.000000,4.000000,4.000000,4.000000,4.000000,4.000000,4.000000,100.000000,,,,,,,,,,,,,,,,,,,,,,,,,,,,
1703161180.055722,1703161180.056677,67.000000,0.000000,4203.205078,4170.256348,4270.128418,4213.077148,4125.641113,4102.692383,4099.230957,4123.846191,4123.974121,4154.358887,4647.051270,4436.922852,4394.230957,4537.948730,5252.000000,4.000000,81.000000,,,,0.000000,4.000000,4.000000,4.000000,4.000000,4.000000,4.000000,4.000000,4.000000,4.000000,4.000000,4.000000,4.000000,4.000000,4.000000,100.000000,,,,,,,,,,,,,,,,,,,,,,,,,,,,
1703161180.063530,1703161180.064485,68.000000,0.000000,4198.846191,4152.436035,4272.820313,4205.769043,4120.641113,4097.948730,4092.435791,4124.487305,4124.358887,4151.025879,4657.051270,4441.922852,4399.615234,4542.307617,5071.000000,4.000000,81.000000,,,,0.000000,4.000000,4.000000,4.000000,4.000000,4.000000,4.000000,4.000000,4.000000,4.000000,4.000000,4.000000,4.000000,4.000000,4.000000,100.000000,,,,,,,,,,,,,,,,,17.000000,0.000000,0.393761,0.551636,-0.370483,0.635132,0.988402,-0.053717,0.117690,-15.514988,-35.300079,64.007240
1703161180.071338,1703161180.072393,69.000000,0.000000,4197.692383,4139.615234,4276.538574,4200.769043,4129.102539,4095.512939,4090.000000,4117.692383,4117.179688,4153.974121,4649.871582,4443.205078,4392.307617,4540.256348,5136.000000,4.000000,81.000000,,,,0.000000,4.000000,4.000000,4.000000,4.000000,4.000000,4.000000,4.000000,4.000000,4.000000,4.000000,4.000000,4.000000,4.000000,4.000000,100.000000,,,,,,,,,,,,,,,,,,,,,,,,,,,,
1703161180.079146,1703161180.080202,70.000000,0.000000,4199.102539,4149.230957,4275.128418,4207.436035,4137.820313,4095.256348,4090.897461,4117.820313,4118.333496,4149.230957,4645.512695,4440.512695,4385.897461,4536.410156,5033.000000,4.000000,81.000000,,,,0.000000,4.000000,4.000000,4.000000,4.000000,4.000000,4.000000,4.000000,4.000000,4.000000,4.000000,4.000000,4.000000,4.000000,4.000000,100.000000,,,,,,,,,,,,,,,,,,,,,,,,,,,,
1703161180.086954,1703161180.088110,71.000000,0.000000,4202.051270,4156.666504,4275.897461,4215.384766,4140.641113,4101.282227,4092.435791,4126.153809,4122.692383,4141.666504,4653.589844,4444.487305,4389.358887,4541.153809,5227.000000,4.000000,81.000000,,,,0.000000,4.000000,4.000000,4.000000,4.000000,4.000000,4.000000,4.000000,4.000000,4.000000,4.000000,4.000000,4.000000,4.000000,4.000000,100.000000,,,,,,,,,,,,,,,,,,,,,,,,,,,,
1703161180.094762,1703161180.095918,72.000000,0.000000,4205.512695,4151.153809,4279.358887,4212.051270,4131.025879,4106.538574,4095.897461,4129.102539,4124.358887,4153.846191,4658.846191,4455.000000,4392.820313,4550.769043,4929.000000,4.000000,81.000000,,,,0.000000,4.000000,4.000000,4.000000,4.000000,4.000000,4.000000,4.000000,4.000000,4.000000,4.000000,4.000000,4.000000,4.000000,4.000000,100.000000,,,,,,,,,,,,,,,,,18.000000,0.000000,0.394340,0.551392,-0.370544,0.634949,0.979612,-0.032230,0.113295,-15.580155,-35.320068,64.023186
1703161180.102570,1703161180.103826,73.000000,0.000000,4210.512695,4150.384766,4278.589844,4210.897461,4120.256348,4107.820313,4102.692383,4126.538574,4123.846191,4167.179688,4661.153809,4454.871582,4396.410156,4556.025879,5210.000000,4.000000,81.000000,,,,0.000000,4.000000,4.000000,4.000000,4.000000,4.000000,4.000000,4.000000,4.000000,4.000000,4.000000,4.000000,4.000000,4.000000,4.000000,100.000000,,,,,,,,,,,,,,,,,,,,,,,,,,,,
1703161180.110378,1703161180.111634,74.000000,0.000000,4215.641113,4157.436035,4278.333496,4219.230957,4131.282227,4107.948730,4109.487305,4119.102539,4107.820313,4153.461426,4662.436035,4447.051270,4400.897461,4558.461426,5789.000000,4.000000,81.000000,,,,0.000000,4.000000,4.000000,4.000000,4.000000,4.000000,4.000000,4.000000,4.000000,4.000000,4.000000,4.000000,4.000000,4.000000,4.000000,100.000000,,,,,,,,,,,,,,,,,,,,,,,,,,,,
1703161180.118186,1703161180.119542,75.000000,0.000000,4210.769043,4158.589844,4279.102539,4223.461426,4142.051270,4107.820313,4108.846191,4107.307617,4086.794922,4136.153809,4655.769043,4442.692383,4393.461426,4552.179688,6130.000000,4.000000,81.000000,,,,0.000000,4.000000,4.000000,4.000000,4.000000,4.000000,4.000000,4.000000,4.000000,4.000000,4.000000,4.000000,4.000000,4.000000,4.000000,100.000000,,,,,,,,,,,,,,,,,,,,,,,,,,,,
1703161180.125994,1703161180.127350,76.000000,0.000000,4201.538574,4155.897461,4275.000000,4219.358887,4136.538574,4108.205078,4108.461426,4106.282227,4090.641113,4136.794922,4645.256348,4437.820313,4379.871582,4537.051270,6533.000000,4.000000,81.000000,,,,0.000000,4.000000,4.000000,4.000000,4.000000,4.000000,4.000000,4.000000,4.000000,4.000000,4.000000,4.000000,4.000000,4.000000,4.000000,100.000000,,,,,,,,,,,,,,,,,19.000000,0.000000,0.395273,0.551086,-0.370422,0.634705,0.961543,-0.037602,0.116713,-15.522140,-35.288063,63.887531
1703161180.133802,1703161180.135058,77.000000,0.000000,4199.743652,4154.358887,4269.487305,4215.897461,4134.102539,4110.897461,4115.000000,4120.256348,4111.410156,4142.692383,4642.820313,4437.179688,4382.820313,4535.769043,6666.000000,4.000000,81.000000,,,,0.000000,4.000000,4.000000,4.000000,4.000000,4.000000,4.000000,4.000000,4.000000,4.000000,4.000000,4.000000,4.000000,4.000000,4.000000,100.000000,,,,,,,,,,,,,,,,,,,,,,,,,,,,
1703161180.141610,1703161180.142866,78.000000,0.000000,4192.051270,4145.641113,4265.384766,4213.717773,4135.384766,4111.153809,4117.051270,4131.794922,4121.922852,4144.743652,4647.948730,4440.769043,4390.769043,4538.333496,5789.000000,4.000000,81.000000,,,,0.000000,4.000000,4.000000,4.000000,4.000000,4.000000,4.000000,4.000000,4.000000,4.000000,4.000000,4.000000,4.000000,4.000000,4.000000,100.000000,,,,,,,,,,,,,,,,,,,,,,,,,,,,
1703161180.149418,1703161180.150574,79.000000,0.000000,4185.000000,4144.102539,4263.205078,4214.871582,4131.153809,4107.179688,4111.666504,4136.666504,4124.358887,4148.333496,4648.461426,4437.179688,4385.000000,4527.179688,6130.000000,4.000000,81.000000,,,,0.000000,4.000000,4.000000,4.000000,4.000000,4.000000,4.000000,4.000000,4.000000,4.000000,4.000000,4.000000,4.000000,4.000000,4.000000,100.000000,,,,,,,,,,,,,,,,,,,,,,,,,,,,
1703161180.157226,1703161180.158382,80.000000,0.000000,4189.615234,4152.307617,4263.077148,4216.922852,4133.077148,4106.794922,4109.487305,4137.820313,4127.692383,4148.974121,4647.051270,4433.461426,4381.538574,4524.358887,6533.000000,4.000000,81.000000,,,,0.000000,4.000000,4.000000,4.000000,4.000000,4.000000,4.000000,4.000000,4.000000,4.000000,4.000000,4.000000,4.000000,4.000000,4.000000,100.000000,,,,,,,,,,,,,,,,,20.000000,0.000000,0.395883,0.550842,-0.370239,0.634644,0.994262,-0.035649,0.114272,-15.319926,-35.392590,63.832111
1703161180.165034,1703161180.166090,81.000000,0.000000,4192.948730,4153.974121,4267.563965,4218.846191,4137.948730,4104.871582,4107.307617,4131.025879,4125.000000,4140.512695,4646.153809,4437.948730,4383.589844,4534.230957,6666.000000,4.000000,81.000000,,,,0.000000,4.000000,4.000000,4.000000,4.000000,4.000000,4.000000,4.000000,4.000000,4.000000,4.000000,4.000000,4.000000,4.000000,4.000000,100.000000,,,,,,,,,,,,,,,,,,,,,,,,,,,,
1703161180.172842,1703161180.173898,82.000000,0.000000,4195.384766,4160.384766,4276.794922,4227.179688,4131.794922,4098.077148,4102.179688,4125.512695,4121.025879,4140.897461,4644.615234,4443.333496,4378.205078,4537.563965,5789.000000,4.000000,81.000000,,,,0.000000,4.000000,4.000000,4.000000,4.000000,4.000000,4.000000,4.000000,4.000000,4.000000,4.000000,4.000000,4.000000,4.000000,4.000000,100.000000,,,,,,,,,,,,,,,,,,,,,,,,,,,,
1703161180.180650,1703161180.181606,83.000000,0.000000,4204.615234,4170.128418,4280.897461,4233.205078,4125.641113,4092.435791,4102.179688,4127.051270,4119.743652,4149.487305,4644.230957,4442.820313,4373.589844,4535.256348,6130.000000,4.000000,81.000000,,,,0.000000,4.000000,4.000000,4.000000,4.000000,4.000000,4.000000,4.000000,4.000000,4.000000,4.000000,4.000000,4.000000,4.000000,4.000000,100.000000,,,,,,,,,,,,,,,,,,,,,,,,,,,,
1703161180.188458,1703161180.189414,84.000000,0.000000,4205.641113,4160.512695,4277.820313,4228.461426,4124.615234,4097.692383,4105.256348,4126.538574,4118.589844,4148.333496,4650.256348,4445.256348,4385.384766,4539.743652,6533.000000,4.000000,81.000000,,,,0.000000,4.000000,4.000000,4.000000,4.000000,4.000000,4.000000,4.000000,4.000000,4.000000,4.000000,4.000000,4.000000,4.000000,4.000000,100.000000,,,,,,,,,,,,,,,,,21.000000,0.000000,0.396872,0.550476,-0.369934,0.634521,0.989379,-0.023440,0.116713,-15.437933,-35.486664,63.782234
1703161180.196266,1703161180.197122,85.000000,0.000000,4197.563965,4147.051270,4276.410156,4222.948730,4127.563965,4106.410156,4104.743652,4123.974121,4112.948730,4146.153809,4657.563965,4448.461426,4394.743652,4545.641113,6666.000000,4.000000,81.000000,,,,0.000000,4.000000,4.000000,4.000000,4.000000,4.000000,4.000000,4.000000,4.000000,4.000000,4.000000,4.000000,4.000000,4.000000,4.000000,100.000000,,,,,,,,,,,,,,,,,,,,,,,,,,,,
1703161180.204075,1703161180.204930,86.000000,0.000000,4199.230957,4151.282227,4278.333496,4227.307617,4136.538574,4108.717773,4106.153809,4121.922852,4101.410156,4145.256348,4656.538574,4446.794922,4391.025879,4545.512695,5789.000000,4.000000,81.000000,,,,0.000000,4.000000,4.000000,4.000000,4.000000,4.000000,4.000000,4.000000,4.000000,4.000000,4.000000,4.000000,4.000000,4.000000,4.000000,100.000000,,,,,,,,,,,,,,,,,,,,,,,,,,,,
1703161180.211882,1703161180.212638,87.000000,0.000000,4202.948730,4153.333496,4278.205078,4231.025879,4141.794922,4113.077148,4108.846191,4112.563965,4090.512939,4134.487305,4647.436035,4442.051270,4384.743652,4541.922852,6130.000000,4.000000,81.000000,,,,0.000000,4.000000,4.000000,4.000000,4.000000,4.000000,4.000000,4.000000,4.000000,4.000000,4.000000,4.000000,4.000000,4.000000,4.000000,100.000000,,,,,,,,,,,,,,,,,,,,,,,,,,,,
1703161180.219690,1703161180.220446,88.000000,0.000000,4196.025879,4149.487305,4273.717773,4228.461426,4137.051270,4117.436035,4108.717773,4100.897461,4086.794922,4124.358887,4633.717773,4432.692383,4371.025879,4534.358887,6533.000000,4.000000,81.000000,,,,0.000000,4.000000,4.000000,4.000000,4.000000,4.000000,4.000000,4.000000,4.000000,4.000000,4.000000,4.000000,4.000000,4.000000,4.000000,100.000000,,,,,,,,,,,,,,,,,22.000000,0.000000,0.397649,0.550232,-0.369568,0.634460,0.979123,-0.025394,0.127945,-15.410807,-35.454666,63.737343
1703161180.227499,1703161180.228154,89.000000,0.000000,4193.974121,4153.461426,4272.307617,4223.333496,4132.051270,4115.128418,4108.205078,4106.666504,4091.794922,4124.358887,4633.077148,4429.743652,4365.128418,4533.589844,6666.000000,4.000000,81.000000,,,,0.000000,4.000000,4.000000,4.000000,4.000000,4.000000,4.000000,4.000000,4.000000,4.000000,4.000000,4.000000,4.000000,4.000000,4.000000,100.000000,,,,,,,,,,,,,,,,,,,,,,,,,,,,
1703161180.235307,1703161180.236062,90.000000,0.000000,4199.615234,4154.358887,4276.666504,4219.102539,4135.641113,4112.051270,4108.333496,4123.205078,4102.563965,4130.256348,4645.128418,4438.077148,4376.666504,4540.000000,5789.000000,4.000000,81.000000,,,,0.000000,4.000000,4.000000,4.000000,4.000000,4.000000,4.000000,4.000000,4.000000,4.000000,4.000000,4.000000,4.000000,4.000000,4.000000,100.000000,,,,,,,,,,,,,,,,,,,,,,,,,,,,
1703161180.243115,1703161180.243870,91.000000,0.000000,4194.102539,4145.897461,4277.563965,4218.717773,4134.871582,4111.794922,4107.051270,4129.358887,4115.512695,4142.051270,4646.794922,4443.461426,4379.743652,4538.589844,6130.000000,4.000000,81.000000,,,,0.000000,4.000000,4.000000,4.000000,4.000000,4.000000,4.000000,4.000000,4.000000,4.000000,4.000000,4.000000,4.000000,4.000000,4.000000,100.000000,,,,,,,,,,,,,,,,,,,,,,,,,,,,
1703161180.250923,1703161180.251778,92.000000,0.000000,4189.358887,4144.487305,4273.461426,4217.436035,4127.948730,4108.333496,4106.282227,4135.384766,4129.230957,4149.358887,4643.717773,4441.538574,4373.717773,4534.230957,6533.000000,4.000000,81.000000,,,,0.000000,4.000000,4.000000,4.000000,4.000000,4.000000,4.000000,4.000000,4.000000,4.000000,4.000000,4.000000,4.000000,4.000000,4.000000,100.000000,,,,,,,,,,,,,,,,,23.000000,0.000000,0.398117,0.550110,-0.369141,0.634521,0.982053,-0.030277,0.115248,-15.436393,-35.342533,63.863609
1703161180.258731,1703161180.259587,93.000000,0.000000,4196.025879,4150.512695,4274.871582,4217.436035,4131.666504,4105.641113,4107.307617,4153.846191,4141.538574,4154.743652,4653.846191,4450.512695,4380.128418,4541.794922,6666.000000,4.000000,81.000000,,,,0.000000,4.000000,4.000000,4.000000,4.000000,4.000000,4.000000,4.000000,4.000000,4.000000,4.000000,4.000000,4.000000,4.000000,4.000000,100.000000,,,,,,,,,,,,,,,,,,,,,,,,,,,,
1703161180.266539,1703161180.267495,94.000000,0.000000,4193.589844,4145.897461,4280.256348,4218.461426,4140.897461,4107.051270,4104.358887,4158.589844,4142.692383,4160.256348,4666.538574,4461.666504,4389.615234,4547.179688,5789.000000,4.000000,81.000000,,,,0.000000,4.000000,4.000000,4.000000,4.000000,4.000000,4.000000,4.000000,4.000000,4.000000,4.000000,4.000000,4.000000,4.000000,4.000000,100.000000,,,,,,,,,,,,,,,,,,,,,,,,,,,,
1703161180.274347,1703161180.275303,95.000000,0.000000,4187.563965,4140.641113,4279.102539,4216.538574,4136.025879,4105.384766,4095.769287,4142.436035,4133.461426,4155.641113,4665.128418,4455.256348,4386.153809,4539.743652,6130.000000,4.000000,81.000000,,,,0.000000,4.000000,4.000000,4.000000,4.000000,4.000000,4.000000,4.000000,4.000000,4.000000,4.000000,4.000000,4.000000,4.000000,4.000000,100.000000,,,,,,,,,,,,,,,,,,,,,,,,,,,,
1703161180.282155,1703161180.283211,96.000000,0.000000,4196.153809,4148.333496,4277.692383,4216.922852,4130.897461,4101.794922,4090.000000,4139.871582,4132.948730,4152.179688,4660.384766,4452.307617,4386.410156,4541.538574,6533.000000,4.000000,81.000000,,,,0.000000,4.000000,4.000000,4.000000,4.000000,4.000000,4.000000,4.000000,4.000000,4.000000,4.000000,4.000000,4.000000,4.000000,4.000000,100.000000,,,,,,,,,,,,,,,,,24.000000,0.000000,0.398584,0.550110,-0.368530,0.634583,0.982542,-0.028812,0.126480,-15.509420,-35.324944,63.977249
1703161180.289963,1703161180.291019,97.000000,0.000000,4203.846191,4153.589844,4282.179688,4219.230957,4128.461426,4100.384766,4090.897461,4151.025879,4144.743652,4161.025879,4667.051270,4462.820313,4394.871582,4553.846191,6666.000000,4.000000,81.000000,,,,0.000000,4.000000,4.000000,4.000000,4.000000,4.000000,4.000000,4.000000,4.000000,4.000000,4.000000,4.000000,4.000000,4.000000,4.000000,100.000000,,,,,,,,,,,,,,,,,,,,,,,,,,,,
1703161180.297771,1703161180.298927,98.000000,0.000000,4202.051270,4152.179688,4282.307617,4219.230957,4117.563965,4103.205078,4091.794922,4145.512695,4139.487305,4161.794922,4672.179688,4465.000000,4394.871582,4556.666504,5789.000000,4.000000,81.000000,,,,0.000000,4.000000,4.000000,4.000000,4.000000,4.000000,4.000000,4.000000,4.000000,4.000000,4.000000,4.000000,4.000000,4.000000,4.000000,100.000000,,,,,,,,,,,,,,,,,,,,,,,,,,,,
1703161180.305579,1703161180.306735,99.000000,0.000000,4202.820313,4153.846191,4278.974121,4216.025879,4124.871582,4105.769043,4089.487061,4128.077148,4114.487305,4147.820313,4664.358887,4456.538574,4386.794922,4553.461426,6130.000000,4.000000,81.000000,,,,0.000000,4.000000,4.000000,4.000000,4.000000,4.000000,4.000000,4.000000,4.000000,4.000000,4.000000,4.000000,4.000000,4.000000,4.000000,100.000000,,,,,,,,,,,,,,,,,,,,,,,,,,,,
1703161180.313387,1703161180.314443,100.000000,0.000000,4204.230957,4153.717773,4279.487305,4216.410156,4138.333496,4105.897461,4089.487061,4122.307617,4101.538574,4139.615234,4652.820313,4451.282227,4383.461426,4552.563965,6533.000000,4.000000,81.000000,,,,0.000000,4.000000,4.000000,4.000000,4.000000,4.000000,4.000000,4.000000,4.000000,4.000000,4.000000,4.000000,4.000000,4.000000,4.000000,100.000000,,,,,,,,,,,,,,,,,25.000000,0.000000,0.399148,0.550110,-0.367920,0.634583,0.991332,-0.002442,0.120132,-15.458478,-35.409119,64.012856
1703161180.321195,1703161180.322251,101.000000,0.000000,4198.205078,4148.333496,4279.358887,4217.563965,4129.615234,4110.000000,4096.538574,4120.384766,4103.717773,4138.846191,4647.820313,4448.205078,4382.436035,4546.025879,6666.000000,4.000000,81.000000,,,,0.000000,4.000000,4.000000,4.000000,4.000000,4.000000,4.000000,4.000000,4.000000,4.000000,4.000000,4.000000,4.000000,4.000000,4.000000,100.000000,,,,,,,,,,,,,,,,,,,,,,,,,,,,
1703161180.329003,1703161180.329959,102.000000,0.000000,4189.615234,4143.333496,4276.794922,4215.769043,4126.538574,4114.230957,4102.563965,4118.846191,4107.563965,4135.128418,4644.615234,4445.256348,4374.615234,4536.282227,5789.000000,4.000000,81.000000,,,,0.000000,4.000000,4.000000,4.000000,4.000000,4.000000,4.000000,4.000000,4.000000,4.000000,4.000000,4.000000,4.000000,4.000000,4.000000,100.000000,,,,,,,,,,,,,,,,,,,,,,,,,,,,
1703161180.336811,1703161180.337767,103.000000,0.000000,4188.461426,4142.692383,4278.205078,4215.897461,4139.487305,4112.692383,4100.641113,4127.563965,4113.461426,4133.077148,4643.974121,4445.769043,4371.666504,4536.538574,6130.000000,4.000000,81.000000,,,,0.000000,4.000000,4.000000,4.000000,4.000000,4.000000,4.000000,4.000000,4.000000,4.000000,4.000000,4.000000,4.000000,4.000000,4.000000,100.000000,,,,,,,,,,,,,,,,,,,,,,,,,,,,
1703161180.344619,1703161180.345475,104.000000,0.000000,4188.333496,4139.743652,4278.077148,4213.846191,4138.974121,4110.128418,4097.820313,4140.000000,4126.282227,4137.307617,4649.615234,4447.948730,4375.512695,4537.307617,6533.000000,4.000000,81.000000,,,,0.000000,4.000000,4.000000,4.000000,4.000000,4.000000,4.000000,4.000000,4.000000,4.000000,4.000000,4.000000,4.000000,4.000000,4.000000,100.000000,,,,,,,,,,,,,,,,,26.000000,0.000000,0.399595,0.550293,-0.367371,0.634460,0.994262,-0.023440,0.129899,-15.562631,-35.301540,64.061569
1703161180.352427,1703161180.353383,105.000000,0.000000,4181.666504,4132.948730,4272.820313,4208.205078,4126.025879,4110.641113,4096.025879,4143.077148,4136.410156,4134.615234,4646.538574,4448.846191,4370.897461,4530.769043,6666.000000,4.000000,81.000000,,,,0.000000,4.000000,4.000000,4.000000,4.000000,4.000000,4.000000,4.000000,4.000000,4.000000,4.000000,4.000000,4.000000,4.000000,4.000000,100.000000,,,,,,,,,,,,,,,,,,,,,,,,,,,,
1703161180.360235,1703161180.361192,106.000000,0.000000,4185.256348,4138.589844,4276.922852,4212.948730,4123.846191,4109.358887,4092.692383,4145.641113,4139.230957,4134.102539,4644.230957,4452.179688,4371.282227,4535.641113,5789.000000,4.000000,81.000000,,,,0.000000,4.000000,4.000000,4.000000,4.000000,4.000000,4.000000,4.000000,4.000000,4.000000,4.000000,4.000000,4.000000,4.000000,4.000000,100.000000,,,,,,,,,,,,,,,,,,,,,,,,,,,,
1703161180.368044,1703161180.369100,107.000000,0.000000,4202.948730,4153.846191,4289.615234,4228.205078,4127.563965,4104.743652,4092.307617,4152.692383,4140.256348,4143.333496,4660.641113,4461.153809,4385.897461,4555.384766,6130.000000,4.000000,81.000000,,,,0.000000,4.000000,4.000000,4.000000,4.000000,4.000000,4.000000,4.000000,4.000000,4.000000,4.000000,4.000000,4.000000,4.000000,4.000000,100.000000,,,,,,,,,,,,,,,,,,,,,,,,,,,,
1703161180.375852,1703161180.376908,108.000000,0.000000,4215.128418,4160.641113,4297.051270,4233.846191,4134.102539,4103.717773,4091.923096,4151.025879,4141.153809,4143.077148,4673.589844,4467.307617,4394.743652,4566.282227,6533.000000,4.000000,81.000000,,,,0.000000,4.000000,4.000000,4.000000,4.000000,4.000000,4.000000,4.000000,4.000000,4.000000,4.000000,4.000000,4.000000,4.000000,4.000000,100.000000,,,,,,,,,,,,,,,,,27.000000,0.000000,0.399652,0.550415,-0.367126,0.634460,0.984007,-0.013185,0.136735,-15.589701,-35.188053,64.122078
1703161180.383659,1703161180.384816,109.000000,0.000000,4216.153809,4160.512695,4293.846191,4230.897461,4139.487305,4105.512695,4082.564209,4139.358887,4135.769043,4137.948730,4666.794922,4462.051270,4393.333496,4560.128418,6666.000000,4.000000,81.000000,,,,0.000000,4.000000,4.000000,4.000000,4.000000,4.000000,4.000000,4.000000,4.000000,4.000000,4.000000,4.000000,4.000000,4.000000,4.000000,100.000000,,,,,,,,,,,,,,,,,,,,,,,,,,,,
1703161180.391468,1703161180.392624,110.000000,0.000000,4216.538574,4164.743652,4285.641113,4231.282227,4137.820313,4106.282227,4075.128174,4130.384766,4126.282227,4140.897461,4661.922852,4457.051270,4394.615234,4555.128418,5789.000000,4.000000,81.000000,,,,0.000000,4.000000,4.000000,4.000000,4.000000,4.000000,4.000000,4.000000,4.000000,4.000000,4.000000,4.000000,4.000000,4.000000,4.000000,100.000000,,,,,,,,,,,,,,,,,,,,,,,,,,,,
1703161180.399276,1703161180.400432,111.000000,0.000000,4212.948730,4165.641113,4281.025879,4228.461426,4139.230957,4107.051270,4082.435791,4128.846191,4126.538574,4142.820313,4666.282227,4459.743652,4395.769043,4558.461426,6130.000000,4.000000,81.000000,,,,0.000000,4.000000,4.000000,4.000000,4.000000,4.000000,4.000000,4.000000,4.000000,4.000000,4.000000,4.000000,4.000000,4.000000,4.000000,100.000000,,,,,,,,,,,,,,,,,,,,,,,,,,,,
1703161180.407084,1703161180.408140,112.000000,0.000000,4203.461426,4157.179688,4279.615234,4222.692383,4143.589844,4111.025879,4092.307617,4122.692383,4120.769043,4136.282227,4657.051270,4452.436035,4389.487305,4550.512695,6533.000000,4.000000,81.000000,,,,0.000000,4.000000,4.000000,4.000000,4.000000,4.000000,4.000000,4.000000,4.000000,4.000000,4.000000,4.000000,4.000000,4.000000,4.000000,100.000000,,,,,,,,,,,,,,,,,28.000000,0.000000,0.399794,0.550415,-0.366760,0.634583,0.985960,-0.019045,0.132829,-15.530730,-35.169247,64.093208
1703161180.414892,1703161180.415948,113.000000,0.000000,4197.179688,4147.307617,4276.025879,4215.256348,4141.922852,4117.179688,4093.333252,4110.512695,4104.102539,4126.922852,4644.743652,4437.692383,4384.102539,4539.358887,6666.000000,4.000000,81.000000,,,,0.000000,4.000000,4.000000,4.000000,4.000000,4.000000,4.000000,4.000000,4.000000,4.000000,4.000000,4.000000,4.000000,4.000000,4.000000,100.000000,,,,,,,,,,,,,,,,,,,,,,,,,,,,
1703161180.422700,1703161180.423657,114.000000,0.000000,4202.436035,4155.000000,4274.230957,4217.692383,4139.102539,4117.692383,4093.846191,4111.282227,4098.461426,4117.948730,4643.974121,4437.692383,4378.205078,4538.846191,5789.000000,4.000000,81.000000,,,,0.000000,4.000000,4.000000,4.000000,4.000000,4.000000,4.000000,4.000000,4.000000,4.000000,4.000000,4.000000,4.000000,4.000000,4.000000,100.000000,,,,,,,,,,,,,,,,,,,,,,,,,,,,
1703161180.430508,1703161180.431565,115.000000,0.000000,4209.615234,4175.641113,4278.589844,4229.871582,4141.282227,4113.717773,4097.563965,4120.769043,4107.820313,4117.563965,4646.153809,4445.897461,4376.410156,4545.641113,6130.000000,4.000000,81.000000,,,,0.000000,4.000000,4.000000,4.000000,4.000000,4.000000,4.000000,4.000000,4.000000,4.000000,4.000000,4.000000,4.000000,4.000000,4.000000,100.000000,,,,,,,,,,,,,,,,,,,,,,,,,,,,
1703161180.438316,1703161180.439373,116.000000,0.000000,4204.615234,4168.846191,4274.487305,4226.666504,4138.846191,4109.102539,4095.512939,4125.641113,4117.692383,4124.743652,4646.666504,4444.871582,4387.563965,4551.538574,6533.000000,4.000000,81.000000,,,,0.000000,4.000000,4.000000,4.000000,4.000000,4.000000,4.000000,4.000000,4.000000,4.000000,4.000000,4.000000,4.000000,4.000000,4.000000,100.000000,,,,,,,,,,,,,,,,,29.000000,0.000000,0.399852,0.550354,-0.366577,0.634705,0.987425,-0.019045,0.120620,-15.560990,-35.152321,64.150551
1703161180.446124,1703161180.447281,117.000000,0.000000,4196.666504,4151.538574,4262.436035,4214.230957,4134.358887,4107.563965,4090.769287,4129.871582,4124.743652,4126.922852,4639.743652,4439.358887,4383.077148,4544.871582,6666.000000,4.000000,81.000000,,,,0.000000,4.000000,4.000000,4.000000,4.000000,4.000000,4.000000,4.000000,4.000000,4.000000,4.000000,4.000000,4.000000,4.000000,4.000000,100.000000,,,,,,,,,,,,,,,,,,,,,,,,,,,,
1703161180.453932,1703161180.455089,118.000000,0.000000,4203.077148,4161.922852,4266.666504,4222.307617,4138.846191,4109.102539,4088.589844,4139.230957,4136.922852,4135.641113,4641.794922,4441.282227,4370.512695,4536.794922,5789.000000,4.000000,81.000000,,,,0.000000,4.000000,4.000000,4.000000,4.000000,4.000000,4.000000,4.000000,4.000000,4.000000,4.000000,4.000000,4.000000,4.000000,4.000000,100.000000,,,,,,,,,,,,,,,,,,,,,,,,,,,,
1703161180.461740,1703161180.462997,119.000000,0.000000,4213.717773,4170.769043,4279.487305,4232.436035,4139.358887,4104.358887,4082.948730,4140.897461,4144.615234,4142.307617,4660.128418,4453.461426,4385.512695,4549.102539,6130.000000,4.000000,81.000000,,,,0.000000,4.000000,4.000000,4.000000,4.000000,4.000000,4.000000,4.000000,4.000000,4.000000,4.000000,4.000000,4.000000,4.000000,4.000000,100.000000,,,,,,,,,,,,,,,,,,,,,,,,,,,,
1703161180.469548,1703161180.470805,120.000000,0.000000,4216.025879,4162.692383,4280.641113,4228.974121,4133.974121,4092.692383,4074.230713,4128.589844,4129.102539,4124.871582,4660.384766,4460.128418,4393.589844,4560.897461,6533.000000,4.000000,81.000000,,,,0.000000,4.000000,4.000000,4.000000,4.000000,4.000000,4.000000,4.000000,4.000000,4.000000,4.000000,4.000000,4.000000,4.000000,4.000000,100.000000,,,,,,,,,,,,,,,,,30.000000,0.000000,0.399951,0.550293,-0.366455,0.634766,0.998169,-0.028324,0.127457,-15.704892,-35.103756,64.235497
1703161180.477356,1703161180.478713,121.000000,0.000000,4219.615234,4169.358887,4284.871582,4234.102539,4133.333496,4087.051270,4073.076904,4119.743652,4115.128418,4116.666504,4646.794922,4458.077148,4381.410156,4558.077148,6666.000000,4.000000,81.000000,,,,0.000000,4.000000,4.000000,4.000000,4.000000,4.000000,4.000000,4.000000,4.000000,4.000000,4.000000,4.000000,4.000000,4.000000,4.000000,100.000000,1.000000,100.000000,4.000000,4.000000,4.000000,4.000000,4.000000,4.000000,4.000000,4.000000,4.000000,4.000000,4.000000,4.000000,4.000000,4.000000,,,,,,,,,,,,
1703161180.485164,1703161180.486521,122.000000,0.000000,4225.128418,4174.102539,4296.538574,4241.025879,4130.128418,4095.000000,4079.230713,4126.410156,4132.820313,4138.205078,4659.871582,4466.538574,4396.153809,4568.717773,5789.000000,4.000000,81.000000,,,,0.000000,4.000000,4.000000,4.000000,4.000000,4.000000,4.000000,4.000000,4.000000,4.000000,4.000000,4.000000,4.000000,4.000000,4.000000,100.000000,,,,,,,,,,,,,,,,,,,,,,,,,,,,
1703161180.492972,1703161180.494429,123.000000,0.000000,4219.487305,4159.615234,4290.769043,4232.692383,4121.922852,4098.333496,4080.512939,4128.589844,4134.230957,4140.641113,4669.102539,4467.436035,4407.051270,4576.410156,6130.000000,4.000000,81.000000,,,,0.000000,4.000000,4.000000,4.000000,4.000000,4.000000,4.000000,4.000000,4.000000,4.000000,4.000000,4.000000,4.000000,4.000000,4.000000,100.000000,,,,,,,,,,,,,,,,,,,,,,,,,,,,
1703161180.500780,1703161180.502237,124.000000,0.000000,4212.307617,4161.282227,4277.051270,4228.205078,4126.025879,4094.230713,4077.564209,4115.384766,4103.589844,4120.000000,4648.717773,4449.615234,4383.077148,4557.692383,6533.000000,4.000000,81.000000,,,,0.000000,4.000000,4.000000,4.000000,4.000000,4.000000,4.000000,4.000000,4.000000,4.000000,4.000000,4.000000,4.000000,4.000000,4.000000,100.000000,,,,,,,,,,,,,,,,,31.000000,0.000000,0.399938,0.550110,-0.366638,0.634827,0.984007,-0.019534,0.127457,-15.817736,-35.260048,64.195282
1703161180.508588,1703161180.509945,125.000000,0.000000,4218.333496,4178.717773,4279.743652,4236.025879,4141.153809,4099.615234,4081.538574,4108.333496,4095.897461,4120.641113,4643.717773,4442.179688,4380.128418,4551.922852,6666.000000,4.000000,81.000000,,,,0.000000,4.000000,4.000000,4.000000,4.000000,4.000000,4.000000,4.000000,4.000000,4.000000,4.000000,4.000000,4.000000,4.000000,4.000000,100.000000,,,,,,,,,,,,,,,,,,,,,,,,,,,,
1703161180.516396,1703161180.517753,126.000000,0.000000,4216.794922,4168.846191,4282.179688,4232.051270,4143.589844,4107.179688,4089.615479,4108.589844,4102.692383,4121.282227,4647.820313,4448.461426,4392.948730,4556.794922,5789.000000,4.000000,81.000000,,,,0.000000,4.000000,4.000000,4.000000,4.000000,4.000000,4.000000,4.000000,4.000000,4.000000,4.000000,4.000000,4.000000,4.000000,4.000000,100.000000,,,,,,,,,,,,,,,,,,,,,,,,,,,,
1703161180.524204,1703161180.525461,127.000000,0.000000,4201.666504,4142.948730,4270.897461,4218.077148,4131.794922,4107.179688,4092.435791,4108.333496,4098.205078,4105.000000,4635.512695,4444.615234,4382.051270,4545.384766,81.000000,4.000000,81.000000,,,,0.000000,4.000000,4.000000,4.000000,4.000000,4.000000,4.000000,4.000000,4.000000,4.000000,4.000000,4.000000,4.000000,4.000000,4.000000,100.000000,,,,,,,,,,,,,,,,,,,,,,,,,,,,
1703161180.532012,1703161180.533269,0.000000,0.000000,4198.589844,4142.051270,4267.948730,4219.358887,4127.948730,4111.922852,4092.435791,4116.410156,4108.077148,4105.384766,4634.102539,4436.282227,4374.871582,4536.538574,5166.000000,4.000000,81.000000,,,,0.000000,4.000000,4.000000,4.000000,4.000000,4.000000,4.000000,4.000000,4.000000,4.000000,4.000000,4.000000,4.000000,4.000000,4.000000,100.000000,,,,,,,,,,,,,,,,,0.000000,0.000000,0.399996,0.549805,-0.366821,0.634949,0.976193,-0.013674,0.131852,-15.852629,-35.200710,64.059090
1703161180.539821,1703161180.540977,1.000000,0.000000,4198.589844,4151.794922,4271.666504,4225.384766,4136.282227,4119.358887,4096.794922,4124.743652,4126.666504,4116.538574,4642.179688,4437.692383,4382.307617,4538.846191,5332.000000,4.000000,81.000000,,,,0.000000,4.000000,4.000000,4.000000,4.000000,4.000000,4.000000,4.000000,4.000000,4.000000,4.000000,4.000000,4.000000,4.000000,4.000000,100.000000,,,,,,,,,,,,,,,,,,,,,,,,,,,,
1703161180.547629,1703161180.548785,2.000000,0.000000,4190.641113,4142.436035,4266.666504,4216.025879,4136.282227,4114.743652,4101.922852,4125.256348,4125.384766,4120.000000,4635.769043,4440.384766,4381.282227,4538.333496,5268.000000,4.000000,81.000000,,,,0.000000,4.000000,4.000000,4.000000,4.000000,4.000000,4.000000,4.000000,4.000000,4.000000,4.000000,4.000000,4.000000,4.000000,4.000000,100.000000,,,,,,,,,,,,,,,,,,,,,,,,,,,,
1703161180.555436,1703161180.556493,3.000000,0.000000,4187.307617,4131.282227,4260.384766,4210.256348,4134.871582,4107.436035,4099.743652,4125.000000,4121.538574,4120.000000,4628.077148,4435.256348,4376.025879,4535.897461,5257.000000,4.000000,81.000000,,,,0.000000,4.000000,4.000000,4.000000,4.000000,4.000000,4.000000,4.000000,4.000000,4.000000,4.000000,4.000000,4.000000,4.000000,4.000000,100.000000,,,,,,,,,,,,,,,,,,,,,,,,,,,,
1703161180.563245,1703161180.564301,4.000000,0.000000,4191.794922,4134.743652,4261.025879,4216.282227,4139.102539,4111.153809,4095.256348,4124.230957,4125.256348,4113.461426,4630.512695,4425.512695,4374.358887,4532.820313,5080.000000,4.000000,81.000000,,,,0.000000,4.000000,4.000000,4.000000,4.000000,4.000000,4.000000,4.000000,4.000000,4.000000,4.000000,4.000000,4.000000,4.000000,4.000000,100.000000,,,,,,,,,,,,,,,,,1.000000,0.000000,0.400080,0.549744,-0.366821,0.634949,0.986937,-0.012209,0.128434,-15.950700,-35.130638,64.086510
1703161180.571053,1703161180.572009,5.000000,0.000000,4191.666504,4137.820313,4263.333496,4214.615234,4124.102539,4111.538574,4092.564209,4120.000000,4123.333496,4111.794922,4630.256348,4425.000000,4372.820313,4531.410156,5136.000000,4.000000,81.000000,,,,0.000000,4.000000,4.000000,4.000000,4.000000,4.000000,4.000000,4.000000,4.000000,4.000000,4.000000,4.000000,4.000000,4.000000,4.000000,100.000000,,,,,,,,,,,,,,,,,,,,,,,,,,,,
1703161180.578861,1703161180.579817,6.000000,0.000000,4197.563965,4142.179688,4268.717773,4216.282227,4109.230957,4103.077148,4091.794922,4120.769043,4121.666504,4118.846191,4631.538574,4436.922852,4375.000000,4540.128418,5033.000000,4.000000,81.000000,,,,0.000000,4.000000,4.000000,4.000000,4.000000,4.000000,4.000000,4.000000,4.000000,4.000000,4.000000,4.000000,4.000000,4.000000,4.000000,100.000000,,,,,,,,,,,,,,,,,,,,,,,,,,,,
1703161180.586669,1703161180.587525,7.000000,0.000000,4213.717773,4156.794922,4279.230957,4229.743652,4133.589844,4106.922852,4098.461426,4128.974121,4124.487305,4123.077148,4645.000000,4451.153809,4387.563965,4556.410156,5222.000000,4.000000,81.000000,,,,0.000000,4.000000,4.000000,4.000000,4.000000,4.000000,4.000000,4.000000,4.000000,4.000000,4.000000,4.000000,4.000000,4.000000,4.000000,100.000000,,,,,,,,,,,,,,,,,,,,,,,,,,,,
1703161180.594477,1703161180.595333,8.000000,0.000000,4222.179688,4166.922852,4283.589844,4235.128418,4161.666504,4120.128418,4107.692383,4133.333496,4122.051270,4129.871582,4657.436035,4457.179688,4402.563965,4565.384766,4916.000000,4.000000,81.000000,,,,0.000000,4.000000,4.000000,4.000000,4.000000,4.000000,4.000000,4.000000,4.000000,4.000000,4.000000,4.000000,4.000000,4.000000,4.000000,100.000000,,,,,,,,,,,,,,,,,2.000000,0.000000,0.400149,0.549805,-0.366760,0.634888,0.986449,-0.020999,0.138689,-15.805630,-35.150909,64.144524
1703161180.602285,1703161180.603041,9.000000,0.000000,4216.666504,4164.102539,4278.589844,4227.563965,4148.846191,4118.974121,4107.948730,4123.846191,4107.179688,4131.922852,4650.512695,4449.871582,4397.948730,4557.563965,5222.000000,4.000000,81.000000,,,,0.000000,4.000000,4.000000,4.000000,4.000000,4.000000,4.000000,4.000000,4.000000,4.000000,4.000000,4.000000,4.000000,4.000000,4.000000,100.000000,,,,,,,,,,,,,,,,,,,,,,,,,,,,
1703161180.610093,1703161180.610950,10.000000,0.000000,4204.102539,4152.051270,4269.487305,4219.743652,4128.333496,4113.589844,4104.102539,4110.769043,4090.897461,4113.974121,4637.436035,4438.461426,4383.333496,4545.641113,5794.000000,4.000000,81.000000,,,,0.000000,4.000000,4.000000,4.000000,4.000000,4.000000,4.000000,4.000000,4.000000,4.000000,4.000000,4.000000,4.000000,4.000000,4.000000,100.000000,,,,,,,,,,,,,,,,,,,,,,,,,,,,
1703161180.617901,1703161180.618758,11.000000,0.000000,4198.077148,4139.487305,4265.000000,4215.128418,4136.153809,4120.000000,4105.384766,4112.820313,4093.333252,4107.179688,4641.153809,4435.897461,4388.974121,4547.820313,6130.000000,4.000000,81.000000,,,,0.000000,4.000000,4.000000,4.000000,4.000000,4.000000,4.000000,4.000000,4.000000,4.000000,4.000000,4.000000,4.000000,4.000000,4.000000,100.000000,,,,,,,,,,,,,,,,,,,,,,,,,,,,
1703161180.625709,1703161180.626666,12.000000,0.000000,4207.179688,4144.358887,4273.589844,4218.077148,4143.205078,4123.974121,4106.922852,4119.871582,4110.000000,4120.769043,4644.871582,4441.282227,4401.025879,4555.256348,6538.000000,4.000000,81.000000,,,,0.000000,4.000000,4.000000,4.000000,4.000000,4.000000,4.000000,4.000000,4.000000,4.000000,4.000000,4.000000,4.000000,4.000000,4.000000,100.000000,,,,,,,,,,,,,,,,,3.000000,0.000000,0.400123,0.549805,-0.366577,0.635010,0.991332,-0.012697,0.115248,-15.858399,-35.219151,64.080070
1703161180.633517,1703161180.634474,13.000000,0.000000,4219.102539,4166.025879,4280.256348,4230.641113,4129.487305,4120.512695,4106.666504,4119.743652,4119.743652,4121.282227,4637.307617,4445.000000,4391.922852,4552.820313,6661.000000,4.000000,81.000000,,,,0.000000,4.000000,4.000000,4.000000,4.000000,4.000000,4.000000,4.000000,4.000000,4.000000,4.000000,4.000000,4.000000,4.000000,4.000000,100.000000,,,,,,,,,,,,,,,,,,,,,,,,,,,,
1703161180.641325,1703161180.642382,14.000000,0.000000,4222.179688,4171.025879,4279.230957,4232.820313,4125.000000,4117.820313,4108.205078,4124.230957,4123.461426,4119.358887,4639.871582,4446.282227,4382.436035,4553.589844,5794.000000,4.000000,81.000000,,,,0.000000,4.000000,4.000000,4.000000,4.000000,4.000000,4.000000,4.000000,4.000000,4.000000,4.000000,4.000000,4.000000,4.000000,4.000000,100.000000,,,,,,,,,,,,,,,,,,,,,,,,,,,,
1703161180.649133,1703161180.650190,15.000000,0.000000,4214.102539,4149.743652,4272.179688,4218.846191,4137.563965,4109.230957,4104.743652,4130.769043,4126.922852,4125.897461,4646.922852,4443.077148,4384.743652,4555.769043,6130.000000,4.000000,81.000000,,,,0.000000,4.000000,4.000000,4.000000,4.000000,4.000000,4.000000,4.000000,4.000000,4.000000,4.000000,4.000000,4.000000,4.000000,4.000000,100.000000,,,,,,,,,,,,,,,,,,,,,,,,,,,,
1703161180.656941,1703161180.658098,16.000000,0.000000,4209.487305,4141.922852,4266.153809,4212.820313,4136.025879,4101.538574,4099.102539,4128.205078,4125.769043,4121.025879,4637.179688,4436.410156,4380.128418,4547.820313,0.000000,4.000000,81.000000,,,,0.000000,4.000000,4.000000,4.000000,4.000000,4.000000,4.000000,4.000000,4.000000,4.000000,4.000000,4.000000,4.000000,4.000000,4.000000,100.000000,,,,,,,,,,,,,,,,,4.000000,0.000000,0.400360,0.549744,-0.366516,0.634949,0.994750,-0.036626,0.127457,-15.972560,-35.213902,64.122063
1703161180.664749,1703161180.665906,17.000000,0.000000,4216.794922,4160.641113,4270.256348,4220.897461,4121.025879,4106.282227,4101.153809,4129.358887,4125.128418,4120.769043,4628.077148,4437.692383,4378.717773,4550.384766,0.000000,4.000000,81.000000,,,,0.000000,4.000000,4.000000,4.000000,4.000000,4.000000,4.000000,4.000000,4.000000,4.000000,4.000000,4.000000,4.000000,4.000000,4.000000,100.000000,,,,,,,,,,,,,,,,,,,,,,,,,,,,
1703161180.672557,1703161180.673614,18.000000,0.000000,4222.051270,4157.820313,4277.307617,4221.794922,4120.384766,4109.871582,4108.205078,4138.333496,4127.307617,4134.102539,4641.410156,4448.077148,4390.897461,4561.666504,0.000000,4.000000,81.000000,,,,0.000000,4.000000,4.000000,4.000000,4.000000,4.000000,4.000000,4.000000,4.000000,4.000000,4.000000,4.000000,4.000000,4.000000,4.000000,100.000000,,,,,,,,,,,,,,,,,,,,,,,,,,,,
1703161180.680365,1703161180.681422,19.000000,0.000000,4213.205078,4133.846191,4276.153809,4214.358887,4127.307617,4106.794922,4108.717773,4137.307617,4122.051270,4130.384766,4650.000000,4449.358887,4389.743652,4553.461426,0.000000,4.000000,81.000000,,,,0.000000,4.000000,4.000000,4.000000,4.000000,4.000000,4.000000,4.000000,4.000000,4.000000,4.000000,4.000000,4.000000,4.000000,4.000000,100.000000,,,,,,,,,,,,,,,,,,,,,,,,,,,,
1703161180.688173,1703161180.689130,20.000000,0.000000,4206.794922,4137.436035,4272.692383,4213.717773,4122.436035,4108.717773,4104.487305,4129.102539,4114.487305,4117.179688,4636.922852,4439.615234,4372.051270,4539.230957,0.000000,4.000000,81.000000,,,,0.000000,4.000000,4.000000,4.000000,4.000000,4.000000,4.000000,4.000000,4.000000,4.000000,4.000000,4.000000,4.000000,4.000000,4.000000,100.000000,,,,,,,,,,,,,,,,,5.000000,0.000000,0.400332,0.549927,-0.366272,0.634949,0.993774,-0.006837,0.120620,-15.858637,-35.075844,64.159859
1703161180.695981,1703161180.696938,21.000000,0.000000,4223.333496,4165.641113,4276.922852,4223.589844,4121.282227,4118.077148,4111.153809,4127.307617,4112.692383,4126.153809,4636.538574,4445.256348,4379.230957,4554.358887,0.000000,4.000000,81.000000,,,,0.000000,4.000000,4.000000,4.000000,4.000000,4.000000,4.000000,4.000000,4.000000,4.000000,4.000000,4.000000,4.000000,4.000000,4.000000,100.000000,,,,,,,,,,,,,,,,,,,,,,,,,,,,
1703161180.703789,1703161180.704646,22.000000,0.000000,4235.256348,4168.846191,4281.538574,4231.794922,4136.282227,4125.769043,4123.077148,4128.717773,4110.641113,4134.230957,4656.025879,4460.641113,4410.384766,4577.692383,0.000000,4.000000,81.000000,,,,0.000000,4.000000,4.000000,4.000000,4.000000,4.000000,4.000000,4.000000,4.000000,4.000000,4.000000,4.000000,4.000000,4.000000,4.000000,100.000000,,,,,,,,,,,,,,,,,,,,,,,,,,,,
1703161180.711598,1703161180.712454,23.000000,0.000000,4219.615234,4138.846191,4278.077148,4220.641113,4143.077148,4123.461426,4120.897461,4124.743652,4106.410156,4120.897461,4658.717773,4457.948730,4415.769043,4570.641113,0.000000,4.000000,81.000000,,,,0.000000,4.000000,4.000000,4.000000,4.000000,4.000000,4.000000,4.000000,4.000000,4.000000,4.000000,4.000000,4.000000,4.000000,4.000000,100.000000,,,,,,,,,,,,,,,,,,,,,,,,,,,,
1703161180.719406,1703161180.720162,24.000000,0.000000,4206.922852,4134.358887,4273.846191,4211.025879,4133.974121,4120.256348,4110.897461,4113.974121,4099.102539,4114.102539,4636.282227,4442.307617,4389.102539,4551.153809,0.000000,4.000000,81.000000,,,,0.000000,4.000000,4.000000,4.000000,4.000000,4.000000,4.000000,4.000000,4.000000,4.000000,4.000000,4.000000,4.000000,4.000000,4.000000,100.000000,,,,,,,,,,,,,,,,,6.000000,0.000000,0.400473,0.549805,-0.366089,0.635071,0.981077,-0.016604,0.126969,-15.839440,-35.034927,64.327209
1703161180.727214,1703161180.727970,25.000000,0.000000,4216.538574,4163.461426,4273.974121,4224.615234,4135.384766,4121.153809,4110.897461,4106.410156,4091.794922,4119.871582,4627.563965,4438.974121,4379.230957,4549.871582,0.000000,4.000000,81.000000,,,,0.000000,4.000000,4.000000,4.000000,4.000000,4.000000,4.000000,4.000000,4.000000,4.000000,4.000000,4.000000,4.000000,4.000000,4.000000,100.000000,,,,,,,,,,,,,,,,,,,,,,,,,,,,
1703161180.735022,1703161180.735678,26.000000,0.000000,4229.102539,4175.897461,4281.153809,4236.538574,4147.307617,4120.769043,4114.743652,4115.641113,4103.333496,4126.666504,4645.384766,4451.025879,4401.025879,4564.230957,0.000000,4.000000,81.000000,,,,0.000000,4.000000,4.000000,4.000000,4.000000,4.000000,4.000000,4.000000,4.000000,4.000000,4.000000,4.000000,4.000000,4.000000,4.000000,100.000000,,,,,,,,,,,,,,,,,,,,,,,,,,,,
1703161180.742830,1703161180.743486,27.000000,0.000000,4228.461426,4165.256348,4286.025879,4232.563965,4143.974121,4121.410156,4111.666504,4135.384766,4128.461426,4136.794922,4662.307617,4462.051270,4414.358887,4575.384766,0.000000,4.000000,81.000000,,,,0.000000,4.000000,4.000000,4.000000,4.000000,4.000000,4.000000,4.000000,4.000000,4.000000,4.000000,4.000000,4.000000,4.000000,4.000000,100.000000,,,,,,,,,,,,,,,,,,,,,,,,,,,,
1703161180.750638,1703161180.751195,28.000000,0.000000,4228.333496,4165.128418,4285.000000,4230.512695,4132.436035,4121.153809,4108.589844,4145.128418,4140.641113,4142.307617,4664.102539,4464.615234,4404.102539,4572.436035,0.000000,4.000000,81.000000,,,,0.000000,4.000000,4.000000,4.000000,4.000000,4.000000,4.000000,4.000000,4.000000,4.000000,4.000000,4.000000,4.000000,4.000000,4.000000,100.000000,,,,,,,,,,,,,,,,,7.000000,0.000000,0.400391,0.549805,-0.365967,0.635193,0.982053,-0.031254,0.131852,-15.822163,-34.914768,64.394485
1703161180.758446,1703161180.759002,29.000000,0.000000,4228.846191,4172.307617,4280.384766,4233.461426,4135.641113,4112.692383,4106.538574,4142.051270,4137.563965,4138.461426,4658.205078,4460.769043,4397.307617,4566.025879,0.000000,4.000000,81.000000,,,,0.000000,4.000000,4.000000,4.000000,4.000000,4.000000,4.000000,4.000000,4.000000,4.000000,4.000000,4.000000,4.000000,4.000000,4.000000,100.000000,,,,,,,,,,,,,,,,,,,,,,,,,,,,
1703161180.766254,1703161180.766711,30.000000,0.000000,4222.692383,4165.000000,4278.461426,4233.974121,4137.820313,4106.410156,4104.102539,4136.794922,4133.461426,4137.563965,4652.820313,4455.769043,4400.128418,4566.282227,0.000000,4.000000,81.000000,,,,0.000000,4.000000,4.000000,4.000000,4.000000,4.000000,4.000000,4.000000,4.000000,4.000000,4.000000,4.000000,4.000000,4.000000,4.000000,100.000000,,,,,,,,,,,,,,,,,,,,,,,,,,,,
1703161180.774062,1703161180.774519,31.000000,0.000000,4215.897461,4153.846191,4278.077148,4228.589844,4123.333496,4112.948730,4105.512695,4129.487305,4123.974121,4132.692383,4645.512695,4448.077148,4396.410156,4563.461426,0.000000,4.000000,81.000000,,,,0.000000,4.000000,4.000000,4.000000,4.000000,4.000000,4.000000,4.000000,4.000000,4.000000,4.000000,4.000000,4.000000,4.000000,4.000000,100.000000,,,,,,,,,,,,,,,,,,,,,,,,,,,,
1703161180.781870,1703161180.782227,32.000000,0.000000,4211.794922,4146.538574,4269.615234,4218.205078,4119.487305,4119.871582,4108.461426,4123.205078,4112.948730,4116.410156,4637.051270,4439.615234,4383.717773,4549.102539,0.000000,4.000000,81.000000,,,,0.000000,4.000000,4.000000,4.000000,4.000000,4.000000,4.000000,4.000000,4.000000,4.000000,4.000000,4.000000,4.000000,4.000000,4.000000,100.000000,,,,,,,,,,,,,,,,,8.000000,0.000000,0.400406,0.549805,-0.365845,0.635254,0.976682,-0.013674,0.118667,-15.739946,-35.039959,64.471703
1703161180.789678,1703161180.790035,33.000000,0.000000,4210.384766,4152.948730,4261.666504,4215.256348,4135.512695,4121.153809,4107.051270,4122.563965,4115.128418,4105.256348,4627.436035,4437.563965,4369.487305,4536.282227,0.000000,4.000000,81.000000,,,,0.000000,4.000000,4.000000,4.000000,4.000000,4.000000,4.000000,4.000000,4.000000,4.000000,4.000000,4.000000,4.000000,4.000000,4.000000,100.000000,,,,,,,,,,,,,,,,,,,,,,,,,,,,
1703161180.797486,1703161180.797743,34.000000,0.000000,4212.820313,4166.153809,4268.846191,4223.717773,4142.563965,4122.948730,4109.230957,4126.410156,4122.820313,4113.077148,4628.974121,4442.692383,4374.615234,4543.205078,0.000000,4.000000,81.000000,,,,0.000000,4.000000,4.000000,4.000000,4.000000,4.000000,4.000000,4.000000,4.000000,4.000000,4.000000,4.000000,4.000000,4.000000,4.000000,100.000000,,,,,,,,,,,,,,,,,,,,,,,,,,,,
1703161180.805294,1703161180.805651,35.000000,0.000000,4219.871582,4170.256348,4279.487305,4230.384766,4137.563965,4127.436035,4119.102539,4127.563965,4119.487305,4130.128418,4641.666504,4448.589844,4395.769043,4557.051270,0.000000,4.000000,81.000000,,,,0.000000,4.000000,4.000000,4.000000,4.000000,4.000000,4.000000,4.000000,4.000000,4.000000,4.000000,4.000000,4.000000,4.000000,4.000000,100.000000,,,,,,,,,,,,,,,,,,,,,,,,,,,,
1703161180.813102,1703161180.813459,36.000000,0.000000,4219.871582,4169.102539,4280.384766,4231.794922,4138.717773,4135.769043,4123.077148,4124.743652,4109.615234,4137.051270,4646.410156,4449.102539,4402.307617,4556.794922,0.000000,4.000000,81.000000,,,,0.000000,4.000000,4.000000,4.000000,4.000000,4.000000,4.000000,4.000000,4.000000,4.000000,4.000000,4.000000,4.000000,4.000000,4.000000,100.000000,,,,,,,,,,,,,,,,,9.000000,0.000000,0.400571,0.549988,-0.365601,0.635132,0.983518,-0.012209,0.120620,-15.782619,-34.969296,64.524536
1703161180.820910,1703161180.821367,37.000000,0.000000,4214.615234,4164.102539,4276.666504,4226.410156,4140.897461,4132.436035,4115.769043,4128.333496,4109.871582,4133.846191,4649.487305,4451.153809,4397.692383,4552.307617,0.000000,4.000000,81.000000,,,,0.000000,4.000000,4.000000,4.000000,4.000000,4.000000,4.000000,4.000000,4.000000,4.000000,4.000000,4.000000,4.000000,4.000000,4.000000,100.000000,,,,,,,,,,,,,,,,,,,,,,,,,,,,
1703161180.828718,1703161180.829175,38.000000,0.000000,4216.794922,4167.051270,4277.820313,4223.974121,4138.077148,4116.410156,4104.871582,4137.563965,4125.769043,4136.025879,4659.487305,4458.077148,4399.615234,4558.077148,0.000000,4.000000,81.000000,,,,0.000000,4.000000,4.000000,4.000000,4.000000,4.000000,4.000000,4.000000,4.000000,4.000000,4.000000,4.000000,4.000000,4.000000,4.000000,100.000000,,,,,,,,,,,,,,,,,,,,,,,,,,,,
1703161180.836526,1703161180.837083,39.000000,0.000000,4215.384766,4166.922852,4280.128418,4226.922852,4136.922852,4113.077148,4100.641113,4142.820313,4141.538574,4141.282227,4661.025879,4461.282227,4400.769043,4559.743652,0.000000,4.000000,81.000000,,,,0.000000,4.000000,4.000000,4.000000,4.000000,4.000000,4.000000,4.000000,4.000000,4.000000,4.000000,4.000000,4.000000,4.000000,4.000000,100.000000,,,,,,,,,,,,,,,,,,,,,,,,,,,,
1703161180.844334,1703161180.844892,40.000000,0.000000,4203.333496,4155.384766,4273.333496,4220.769043,4132.948730,4116.666504,4096.666504,4140.641113,4140.384766,4135.256348,4648.205078,4453.461426,4390.769043,4547.307617,0.000000,4.000000,81.000000,,,,0.000000,4.000000,4.000000,4.000000,4.000000,4.000000,4.000000,4.000000,4.000000,4.000000,4.000000,4.000000,4.000000,4.000000,4.000000,100.000000,,,,,,,,,,,,,,,,,10.000000,0.000000,0.400530,0.549988,-0.365540,0.635193,0.978147,-0.011720,0.134782,-15.837690,-35.005699,64.538750
1703161180.852142,1703161180.852799,41.000000,0.000000,4198.077148,4155.128418,4264.743652,4216.538574,4125.128418,4106.538574,4089.102539,4136.922852,4135.128418,4125.384766,4640.512695,4443.974121,4384.358887,4541.794922,0.000000,4.000000,81.000000,,,,0.000000,4.000000,4.000000,4.000000,4.000000,4.000000,4.000000,4.000000,4.000000,4.000000,4.000000,4.000000,4.000000,4.000000,4.000000,100.000000,,,,,,,,,,,,,,,,,,,,,,,,,,,,
1703161180.859950,1703161180.860607,42.000000,0.000000,4209.615234,4168.717773,4274.230957,4227.563965,4125.897461,4103.205078,4093.333252,4143.589844,4146.410156,4131.538574,4650.769043,4450.897461,4393.333496,4552.051270,0.000000,4.000000,81.000000,,,,0.000000,4.000000,4.000000,4.000000,4.000000,4.000000,4.000000,4.000000,4.000000,4.000000,4.000000,4.000000,4.000000,4.000000,4.000000,100.000000,,,,,,,,,,,,,,,,,,,,,,,,,,,,
1703161180.867758,1703161180.868515,43.000000,0.000000,4217.820313,4175.769043,4287.820313,4236.538574,4145.128418,4119.871582,4108.333496,4157.436035,4157.051270,4150.128418,4665.512695,4468.077148,4403.717773,4560.000000,0.000000,4.000000,81.000000,,,,0.000000,4.000000,4.000000,4.000000,4.000000,4.000000,4.000000,4.000000,4.000000,4.000000,4.000000,4.000000,4.000000,4.000000,4.000000,100.000000,,,,,,,,,,,,,,,,,,,,,,,,,,,,
1703161180.875567,1703161180.876323,44.000000,0.000000,4211.025879,4174.102539,4283.461426,4233.461426,4156.282227,4125.512695,4111.153809,4157.436035,4146.025879,4152.051270,4664.871582,4469.230957,4401.922852,4556.794922,0.000000,4.000000,81.000000,,,,0.000000,4.000000,4.000000,4.000000,4.000000,4.000000,4.000000,4.000000,4.000000,4.000000,4.000000,4.000000,4.000000,4.000000,4.000000,100.000000,,,,,,,,,,,,,,,,,11.000000,0.000000,0.400909,0.549744,-0.365173,0.635376,0.997192,-0.018557,0.141619,-15.870587,-34.971794,64.618202
1703161180.883375,1703161180.884231,45.000000,0.000000,4204.102539,4168.974121,4276.153809,4228.205078,4139.743652,4115.384766,4106.410156,4140.000000,4126.538574,4131.410156,4648.461426,4453.333496,4391.282227,4551.153809,0.000000,4.000000,81.000000,,,,0.000000,4.000000,4.000000,4.000000,4.000000,4.000000,4.000000,4.000000,4.000000,4.000000,4.000000,4.000000,4.000000,4.000000,4.000000,100.000000,,,,,,,,,,,,,,,,,,,,,,,,,,,,
1703161180.891183,1703161180.892039,46.000000,0.000000,4195.641113,4152.820313,4273.846191,4220.000000,4137.051270,4122.820313,4115.769043,4130.256348,4121.410156,4120.128418,4634.358887,4444.743652,4380.769043,4542.692383,0.000000,4.000000,81.000000,,,,0.000000,4.000000,4.000000,4.000000,4.000000,4.000000,4.000000,4.000000,4.000000,4.000000,4.000000,4.000000,4.000000,4.000000,4.000000,100.000000,,,,,,,,,,,,,,,,,,,,,,,,,,,,
1703161180.898991,1703161180.899747,47.000000,0.000000,4187.692383,4148.846191,4265.000000,4216.282227,4146.025879,4137.179688,4125.256348,4127.820313,4120.256348,4120.641113,4627.820313,4442.436035,4375.128418,4532.948730,0.000000,4.000000,81.000000,,,,0.000000,4.000000,4.000000,4.000000,4.000000,4.000000,4.000000,4.000000,4.000000,4.000000,4.000000,4.000000,4.000000,4.000000,4.000000,100.000000,,,,,,,,,,,,,,,,,,,,,,,,,,,,
1703161180.906799,1703161180.907555,48.000000,0.000000,4191.538574,4158.461426,4264.102539,4219.358887,4126.410156,4132.948730,4123.461426,4121.025879,4108.589844,4114.871582,4628.846191,4438.589844,4377.948730,4531.922852,0.000000,4.000000,81.000000,,,,0.000000,4.000000,4.000000,4.000000,4.000000,4.000000,4.000000,4.000000,4.000000,4.000000,4.000000,4.000000,4.000000,4.000000,4.000000,100.000000,,,,,,,,,,,,,,,,,12.000000,0.000000,0.400842,0.549500,-0.365295,0.635559,0.998657,-0.029300,0.121109,-16.033529,-35.074615,64.656387
1703161180.914607,1703161180.915263,49.000000,0.000000,4198.589844,4155.769043,4276.922852,4218.589844,4122.820313,4129.487305,4120.769043,4123.589844,4102.948730,4114.230957,4638.974121,4443.589844,4389.487305,4540.256348,0.000000,4.000000,81.000000,,,,0.000000,4.000000,4.000000,4.000000,4.000000,4.000000,4.000000,4.000000,4.000000,4.000000,4.000000,4.000000,4.000000,4.000000,4.000000,100.000000,,,,,,,,,,,,,,,,,,,,,,,,,,,,
1703161180.922415,1703161180.923071,50.000000,0.000000,4201.025879,4155.128418,4281.666504,4222.051270,4157.563965,4133.974121,4115.000000,4134.615234,4116.153809,4122.051270,4648.717773,4454.102539,4396.153809,4547.179688,0.000000,4.000000,81.000000,,,,0.000000,4.000000,4.000000,4.000000,4.000000,4.000000,4.000000,4.000000,4.000000,4.000000,4.000000,4.000000,4.000000,4.000000,4.000000,100.000000,,,,,,,,,,,,,,,,,,,,,,,,,,,,
1703161180.930223,1703161180.930779,51.000000,0.000000,4200.769043,4161.282227,4277.563965,4230.256348,4162.436035,4127.307617,4108.333496,4137.820313,4132.436035,4123.717773,4646.666504,4452.948730,4391.794922,4543.974121,0.000000,4.000000,81.000000,,,,0.000000,4.000000,4.000000,4.000000,4.000000,4.000000,4.000000,4.000000,4.000000,4.000000,4.000000,4.000000,4.000000,4.000000,4.000000,100.000000,,,,,,,,,,,,,,,,,,,,,,,,,,,,
1703161180.938031,1703161180.938687,52.000000,0.000000,4197.179688,4159.487305,4279.487305,4230.384766,4136.153809,4118.333496,4108.461426,4137.948730,4140.256348,4130.384766,4642.436035,4448.846191,4391.922852,4538.974121,0.000000,4.000000,81.000000,,,,0.000000,4.000000,4.000000,4.000000,4.000000,4.000000,4.000000,4.000000,4.000000,4.000000,4.000000,4.000000,4.000000,4.000000,4.000000,100.000000,,,,,,,,,,,,,,,,,13.000000,0.000000,0.400815,0.549316,-0.365601,0.635559,0.986937,-0.012209,0.123550,-15.913509,-35.033821,64.440750
1703161180.945839,1703161180.946496,53.000000,0.000000,4187.820313,4148.717773,4277.563965,4222.179688,4139.743652,4118.077148,4106.922852,4143.077148,4146.666504,4137.307617,4644.487305,4449.871582,4396.538574,4536.282227,0.000000,4.000000,81.000000,,,,0.000000,4.000000,4.000000,4.000000,4.000000,4.000000,4.000000,4.000000,4.000000,4.000000,4.000000,4.000000,4.000000,4.000000,4.000000,100.000000,,,,,,,,,,,,,,,,,,,,,,,,,,,,
1703161180.953647,1703161180.954404,54.000000,0.000000,4177.307617,4136.666504,4266.538574,4215.128418,4144.358887,4112.307617,4096.666504,4139.615234,4143.333496,4125.384766,4643.846191,4445.769043,4388.205078,4527.051270,0.000000,4.000000,81.000000,,,,0.000000,4.000000,4.000000,4.000000,4.000000,4.000000,4.000000,4.000000,4.000000,4.000000,4.000000,4.000000,4.000000,4.000000,4.000000,100.000000,,,,,,,,,,,,,,,,,,,,,,,,,,,,
1703161180.961455,1703161180.962212,55.000000,0.000000,4176.153809,4137.051270,4265.769043,4215.512695,4126.922852,4107.179688,4095.000000,4126.025879,4128.717773,4116.153809,4635.641113,4439.358887,4378.846191,4520.641113,0.000000,4.000000,81.000000,,,,0.000000,4.000000,4.000000,4.000000,4.000000,4.000000,4.000000,4.000000,4.000000,4.000000,4.000000,4.000000,4.000000,4.000000,4.000000,100.000000,,,,,,,,,,,,,,,,,,,,,,,,,,,,
1703161180.969263,1703161180.970020,56.000000,0.000000,4183.461426,4145.128418,4274.743652,4217.820313,4128.717773,4115.512695,4100.641113,4119.615234,4119.743652,4128.205078,4633.974121,4442.692383,4389.743652,4530.256348,0.000000,4.000000,81.000000,,,,0.000000,4.000000,4.000000,4.000000,4.000000,4.000000,4.000000,4.000000,4.000000,4.000000,4.000000,4.000000,4.000000,4.000000,4.000000,100.000000,,,,,,,,,,,,,,,,,14.000000,0.000000,0.400538,0.549255,-0.365784,0.635681,0.974728,-0.008790,0.119644,-16.105492,-34.963772,64.530006
1703161180.977071,1703161180.977728,57.000000,0.000000,4189.358887,4143.846191,4279.487305,4217.820313,4143.461426,4122.820313,4102.948730,4122.948730,4122.051270,4138.077148,4640.384766,4447.692383,4393.589844,4540.897461,0.000000,4.000000,81.000000,,,,0.000000,4.000000,4.000000,4.000000,4.000000,4.000000,4.000000,4.000000,4.000000,4.000000,4.000000,4.000000,4.000000,4.000000,4.000000,100.000000,1.000000,100.000000,4.000000,4.000000,4.000000,4.000000,4.000000,4.000000,4.000000,4.000000,4.000000,4.000000,4.000000,4.000000,4.000000,4.000000,,,,,,,,,,,,
1703161180.984879,1703161180.985536,58.000000,0.000000,4183.589844,4138.461426,4277.307617,4215.769043,4140.641113,4124.487305,4108.333496,4126.025879,4123.846191,4133.333496,4640.512695,4447.179688,4385.384766,4539.487305,0.000000,4.000000,81.000000,,,,0.000000,4.000000,4.000000,4.000000,4.000000,4.000000,4.000000,4.000000,4.000000,4.000000,4.000000,4.000000,4.000000,4.000000,4.000000,100.000000,,,,,,,,,,,,,,,,,,,,,,,,,,,,
