title:Aya نعم, start timestamp:1702803099.804557, stop timestamp:1702803111.079423, headset type:EPOCX, headset serial:E50206EF, headset firmware:720, channels:67, sampling rate:eeg_128;mot_32, samples:1445      , version:2.2, 
Timestamp,OriginalTimestamp,EEG.Counter,EEG.Interpolated,EEG.AF3,EEG.F7,EEG.F3,EEG.FC5,EEG.T7,EEG.P7,EEG.O1,EEG.O2,EEG.P8,EEG.T8,EEG.FC6,EEG.F4,EEG.F8,EEG.AF4,EEG.RawCq,EEG.Battery,EEG.BatteryPercent,MarkerIndex,MarkerType,MarkerValueInt,EEG.MarkerHardware,CQ.AF3,CQ.F7,CQ.F3,CQ.FC5,CQ.T7,CQ.P7,CQ.O1,CQ.O2,CQ.P8,CQ.T8,CQ.FC6,CQ.F4,CQ.F8,CQ.AF4,CQ.Overall,EQ.SampleRateQuality,EQ.OVERALL,EQ.AF3,EQ.F7,EQ.F3,EQ.FC5,EQ.T7,EQ.P7,EQ.O1,EQ.O2,EQ.P8,EQ.T8,EQ.FC6,EQ.F4,EQ.F8,EQ.AF4,MOT.CounterMems,MOT.InterpolatedMems,MOT.Q0,MOT.Q1,MOT.Q2,MOT.Q3,MOT.AccX,MOT.AccY,MOT.AccZ,MOT.MagX,MOT.MagY,MOT.MagZ
1702803099.804557,1702803100.157224,121.000000,0.000000,4144.230957,4114.102539,4240.641113,4181.025879,4133.974121,4130.256348,4235.769043,4140.641113,4104.743652,4100.641113,4602.051270,4413.333496,4347.948730,4504.230957,6852.000000,4.000000,75.000000,,,,0.000000,4.000000,4.000000,4.000000,4.000000,4.000000,4.000000,4.000000,4.000000,4.000000,4.000000,4.000000,4.000000,4.000000,4.000000,100.000000,,,,,,,,,,,,,,,,,,,,,,,,,,,,
1702803099.812365,1702803100.165132,122.000000,0.000000,4162.948730,4124.102539,4254.358887,4195.512695,4139.615234,4134.615234,4237.179688,4147.692383,4119.487305,4122.436035,4625.256348,4433.974121,4375.384766,4529.102539,5814.000000,4.000000,75.000000,,,,0.000000,4.000000,4.000000,4.000000,4.000000,4.000000,4.000000,4.000000,4.000000,4.000000,4.000000,4.000000,4.000000,4.000000,4.000000,100.000000,,,,,,,,,,,,,,,,,,,,,,,,,,,,
1702803099.820173,1702803100.172940,123.000000,0.000000,4178.077148,4141.538574,4270.384766,4210.897461,4141.794922,4128.717773,4237.436035,4146.922852,4125.641113,4138.077148,4643.205078,4447.948730,4402.179688,4547.051270,5883.000000,4.000000,75.000000,,,,0.000000,4.000000,4.000000,4.000000,4.000000,4.000000,4.000000,4.000000,4.000000,4.000000,4.000000,4.000000,4.000000,4.000000,4.000000,100.000000,,,,,,,,,,,,,,,,,,,,,,,,,,,,
1702803099.827981,1702803100.180848,124.000000,0.000000,4180.897461,4153.461426,4277.820313,4221.538574,4146.794922,4124.487305,4231.922852,4138.589844,4128.589844,4137.436035,4645.897461,4451.025879,4404.615234,4547.436035,6740.000000,4.000000,75.000000,,,,0.000000,4.000000,4.000000,4.000000,4.000000,4.000000,4.000000,4.000000,4.000000,4.000000,4.000000,4.000000,4.000000,4.000000,4.000000,100.000000,,,,,,,,,,,,,,,,,31.000000,0.000000,0.711905,0.164063,-0.661316,0.170105,0.998169,0.011720,0.079111,-5.715884,15.388508,97.862946
1702803099.835789,1702803100.188657,125.000000,0.000000,4185.897461,4159.615234,4283.461426,4221.794922,4157.948730,4133.205078,4228.333496,4137.692383,4140.128418,4149.358887,4664.615234,4463.205078,4416.282227,4557.307617,6852.000000,4.000000,75.000000,,,,0.000000,4.000000,4.000000,4.000000,4.000000,4.000000,4.000000,4.000000,4.000000,4.000000,4.000000,4.000000,4.000000,4.000000,4.000000,100.000000,,,,,,,,,,,,,,,,,,,,,,,,,,,,
1702803099.843597,1702803100.196365,126.000000,0.000000,4187.307617,4161.282227,4283.589844,4217.948730,4169.615234,4138.974121,4229.743652,4141.922852,4146.025879,4158.333496,4673.974121,4464.230957,4425.000000,4561.410156,5814.000000,4.000000,75.000000,,,,0.000000,4.000000,4.000000,4.000000,4.000000,4.000000,4.000000,4.000000,4.000000,4.000000,4.000000,4.000000,4.000000,4.000000,4.000000,100.000000,,,,,,,,,,,,,,,,,,,,,,,,,,,,
1702803099.851405,1702803100.204173,127.000000,0.000000,4179.615234,4153.846191,4278.077148,4219.487305,4169.358887,4137.436035,4229.230957,4142.820313,4141.025879,4153.974121,4657.948730,4450.512695,4407.051270,4545.641113,75.000000,4.000000,75.000000,,,,0.000000,4.000000,4.000000,4.000000,4.000000,4.000000,4.000000,4.000000,4.000000,4.000000,4.000000,4.000000,4.000000,4.000000,4.000000,100.000000,,,,,,,,,,,,,,,,,,,,,,,,,,,,
1702803099.859213,1702803100.211881,0.000000,0.000000,4173.589844,4144.871582,4273.589844,4216.410156,4150.769043,4133.077148,4221.410156,4140.000000,4131.282227,4146.025879,4646.922852,4442.436035,4390.384766,4536.282227,5171.000000,4.000000,75.000000,,,,0.000000,4.000000,4.000000,4.000000,4.000000,4.000000,4.000000,4.000000,4.000000,4.000000,4.000000,4.000000,4.000000,4.000000,4.000000,100.000000,,,,,,,,,,,,,,,,,0.000000,0.000000,0.711961,0.163940,-0.661255,0.170227,0.983030,0.007813,0.070321,-5.744295,15.349657,97.876648
1702803099.867021,1702803100.219790,1.000000,0.000000,4178.974121,4151.153809,4275.256348,4221.025879,4137.692383,4128.333496,4218.589844,4141.282227,4122.820313,4136.153809,4640.641113,4446.666504,4391.538574,4547.692383,5382.000000,4.000000,75.000000,,,,0.000000,4.000000,4.000000,4.000000,4.000000,4.000000,4.000000,4.000000,4.000000,4.000000,4.000000,4.000000,4.000000,4.000000,4.000000,100.000000,,,,,,,,,,,,,,,,,,,,,,,,,,,,
1702803099.874829,1702803100.227598,2.000000,0.000000,4179.487305,4154.487305,4274.230957,4227.436035,4137.307617,4127.563965,4225.897461,4151.025879,4123.461426,4128.205078,4633.589844,4449.358887,4390.256348,4549.230957,4777.000000,4.000000,75.000000,,,,0.000000,4.000000,4.000000,4.000000,4.000000,4.000000,4.000000,4.000000,4.000000,4.000000,4.000000,4.000000,4.000000,4.000000,4.000000,100.000000,,,,,,,,,,,,,,,,,,,,,,,,,,,,
1702803099.882638,1702803100.235407,3.000000,0.000000,4172.051270,4141.538574,4269.102539,4214.871582,4139.358887,4128.974121,4230.641113,4156.153809,4129.487305,4127.820313,4637.307617,4440.641113,4386.794922,4533.846191,5253.000000,4.000000,75.000000,,,,0.000000,4.000000,4.000000,4.000000,4.000000,4.000000,4.000000,4.000000,4.000000,4.000000,4.000000,4.000000,4.000000,4.000000,4.000000,100.000000,,,,,,,,,,,,,,,,,,,,,,,,,,,,
1702803099.890446,1702803100.243115,4.000000,0.000000,4169.230957,4133.461426,4268.846191,4204.102539,4142.563965,4131.282227,4228.589844,4149.871582,4128.461426,4132.051270,4639.487305,4430.384766,4384.871582,4525.769043,5098.000000,4.000000,75.000000,,,,0.000000,4.000000,4.000000,4.000000,4.000000,4.000000,4.000000,4.000000,4.000000,4.000000,4.000000,4.000000,4.000000,4.000000,4.000000,100.000000,,,,,,,,,,,,,,,,,1.000000,0.000000,0.711918,0.163818,-0.661316,0.170288,1.000122,0.012697,0.071786,-5.703199,15.331358,98.122314
1702803099.898254,1702803100.250923,5.000000,0.000000,4162.820313,4130.641113,4264.615234,4205.512695,4143.077148,4130.000000,4225.128418,4139.102539,4113.589844,4126.025879,4619.871582,4421.282227,4371.666504,4520.128418,5100.000000,4.000000,75.000000,,,,0.000000,4.000000,4.000000,4.000000,4.000000,4.000000,4.000000,4.000000,4.000000,4.000000,4.000000,4.000000,4.000000,4.000000,4.000000,100.000000,,,,,,,,,,,,,,,,,,,,,,,,,,,,
1702803099.906062,1702803100.258631,6.000000,0.000000,4155.897461,4129.871582,4256.025879,4206.153809,4144.615234,4128.974121,4221.794922,4136.025879,4107.820313,4115.512695,4608.077148,4417.179688,4363.846191,4517.179688,1761.000000,4.000000,75.000000,,,,0.000000,4.000000,4.000000,4.000000,4.000000,4.000000,4.000000,4.000000,4.000000,4.000000,4.000000,4.000000,4.000000,4.000000,4.000000,100.000000,,,,,,,,,,,,,,,,,,,,,,,,,,,,
1702803099.913870,1702803100.266439,7.000000,0.000000,4163.333496,4140.641113,4262.692383,4213.717773,4151.025879,4135.897461,4221.025879,4141.410156,4125.128418,4126.282227,4628.205078,4427.948730,4379.358887,4526.922852,4681.000000,4.000000,75.000000,,,,0.000000,4.000000,4.000000,4.000000,4.000000,4.000000,4.000000,4.000000,4.000000,4.000000,4.000000,4.000000,4.000000,4.000000,4.000000,100.000000,,,,,,,,,,,,,,,,,,,,,,,,,,,,
1702803099.921678,1702803100.274147,8.000000,0.000000,4172.563965,4146.794922,4275.000000,4221.794922,4158.846191,4132.436035,4223.461426,4144.102539,4134.615234,4144.743652,4648.205078,4439.358887,4394.358887,4531.794922,5066.000000,4.000000,75.000000,,,,0.000000,4.000000,4.000000,4.000000,4.000000,4.000000,4.000000,4.000000,4.000000,4.000000,4.000000,4.000000,4.000000,4.000000,4.000000,100.000000,,,,,,,,,,,,,,,,,2.000000,0.000000,0.711988,0.163696,-0.661255,0.170349,0.981077,0.017092,0.068368,-5.699546,15.348222,98.160088
1702803099.929486,1702803100.281955,9.000000,0.000000,4182.820313,4154.230957,4286.538574,4224.615234,4161.282227,4120.128418,4225.384766,4141.282227,4132.436035,4152.307617,4657.692383,4448.333496,4403.974121,4540.000000,5183.000000,4.000000,75.000000,,,,0.000000,4.000000,4.000000,4.000000,4.000000,4.000000,4.000000,4.000000,4.000000,4.000000,4.000000,4.000000,4.000000,4.000000,4.000000,100.000000,,,,,,,,,,,,,,,,,,,,,,,,,,,,
1702803099.937294,1702803100.289663,10.000000,0.000000,4195.641113,4169.487305,4298.333496,4234.487305,4164.743652,4116.922852,4223.333496,4130.000000,4129.487305,4149.743652,4658.589844,4455.641113,4408.589844,4554.743652,5816.000000,4.000000,75.000000,,,,0.000000,4.000000,4.000000,4.000000,4.000000,4.000000,4.000000,4.000000,4.000000,4.000000,4.000000,4.000000,4.000000,4.000000,4.000000,100.000000,,,,,,,,,,,,,,,,,,,,,,,,,,,,
1702803099.945102,1702803100.297571,11.000000,0.000000,4196.153809,4171.025879,4297.307617,4242.307617,4167.820313,4123.461426,4219.487305,4118.077148,4123.461426,4152.436035,4652.692383,4451.025879,4406.153809,4550.897461,5885.000000,4.000000,75.000000,,,,0.000000,4.000000,4.000000,4.000000,4.000000,4.000000,4.000000,4.000000,4.000000,4.000000,4.000000,4.000000,4.000000,4.000000,4.000000,100.000000,,,,,,,,,,,,,,,,,,,,,,,,,,,,
1702803099.952910,1702803100.305380,12.000000,0.000000,4187.307617,4162.179688,4286.794922,4236.282227,4157.820313,4128.846191,4220.128418,4121.410156,4119.487305,4156.794922,4647.307617,4442.051270,4403.589844,4539.230957,6751.000000,4.000000,75.000000,,,,0.000000,4.000000,4.000000,4.000000,4.000000,4.000000,4.000000,4.000000,4.000000,4.000000,4.000000,4.000000,4.000000,4.000000,4.000000,100.000000,,,,,,,,,,,,,,,,,3.000000,0.000000,0.712060,0.163757,-0.661194,0.170227,0.992797,0.014650,0.074228,-5.596258,15.196733,98.144073
1702803099.960718,1702803100.313288,13.000000,0.000000,4175.641113,4152.179688,4275.256348,4221.025879,4152.436035,4127.051270,4223.461426,4132.692383,4120.384766,4136.282227,4628.333496,4433.717773,4383.077148,4528.846191,6845.000000,4.000000,75.000000,,,,0.000000,4.000000,4.000000,4.000000,4.000000,4.000000,4.000000,4.000000,4.000000,4.000000,4.000000,4.000000,4.000000,4.000000,4.000000,100.000000,,,,,,,,,,,,,,,,,,,,,,,,,,,,
1702803099.968526,1702803100.321096,14.000000,0.000000,4170.769043,4141.282227,4272.436035,4210.769043,4157.820313,4129.743652,4225.128418,4144.871582,4129.230957,4126.025879,4628.589844,4436.025879,4369.487305,4522.307617,5816.000000,4.000000,75.000000,,,,0.000000,4.000000,4.000000,4.000000,4.000000,4.000000,4.000000,4.000000,4.000000,4.000000,4.000000,4.000000,4.000000,4.000000,4.000000,100.000000,,,,,,,,,,,,,,,,,,,,,,,,,,,,
1702803099.976334,1702803100.329004,15.000000,0.000000,4176.025879,4137.820313,4277.563965,4210.512695,4151.282227,4135.384766,4227.051270,4155.512695,4141.794922,4146.153809,4655.384766,4449.871582,4392.563965,4535.128418,5885.000000,4.000000,75.000000,,,,0.000000,4.000000,4.000000,4.000000,4.000000,4.000000,4.000000,4.000000,4.000000,4.000000,4.000000,4.000000,4.000000,4.000000,4.000000,100.000000,,,,,,,,,,,,,,,,,,,,,,,,,,,,
1702803099.984143,1702803100.336812,16.000000,0.000000,4185.769043,4149.743652,4284.615234,4220.897461,4143.589844,4132.307617,4228.717773,4158.333496,4142.307617,4151.410156,4659.871582,4457.307617,4412.820313,4555.000000,0.000000,4.000000,75.000000,,,,0.000000,4.000000,4.000000,4.000000,4.000000,4.000000,4.000000,4.000000,4.000000,4.000000,4.000000,4.000000,4.000000,4.000000,4.000000,100.000000,,,,,,,,,,,,,,,,,4.000000,0.000000,0.712046,0.163818,-0.661194,0.170227,0.988890,0.013185,0.080088,-5.769966,15.227060,98.179672
1702803099.991951,1702803100.344720,17.000000,0.000000,4191.538574,4159.230957,4288.846191,4231.922852,4146.922852,4130.000000,4226.666504,4152.179688,4130.128418,4136.153809,4643.589844,4455.897461,4401.282227,4553.589844,0.000000,4.000000,75.000000,,,,0.000000,4.000000,4.000000,4.000000,4.000000,4.000000,4.000000,4.000000,4.000000,4.000000,4.000000,4.000000,4.000000,4.000000,4.000000,100.000000,,,,,,,,,,,,,,,,,,,,,,,,,,,,
1702803099.999759,1702803100.352529,18.000000,0.000000,4181.282227,4149.615234,4283.333496,4219.743652,4152.820313,4126.922852,4220.897461,4142.948730,4117.307617,4132.307617,4633.846191,4447.307617,4381.922852,4535.000000,0.000000,4.000000,75.000000,,,,0.000000,4.000000,4.000000,4.000000,4.000000,4.000000,4.000000,4.000000,4.000000,4.000000,4.000000,4.000000,4.000000,4.000000,4.000000,100.000000,,,,,,,,,,,,,,,,,,,,,,,,,,,,
1702803100.007567,1702803100.360437,19.000000,0.000000,4170.641113,4144.743652,4277.820313,4211.282227,4156.410156,4125.128418,4219.358887,4139.615234,4118.205078,4141.282227,4637.692383,4441.410156,4380.897461,4528.205078,0.000000,4.000000,75.000000,,,,0.000000,4.000000,4.000000,4.000000,4.000000,4.000000,4.000000,4.000000,4.000000,4.000000,4.000000,4.000000,4.000000,4.000000,4.000000,100.000000,,,,,,,,,,,,,,,,,,,,,,,,,,,,
1702803100.015375,1702803100.368245,20.000000,0.000000,4170.000000,4147.692383,4272.307617,4223.461426,4152.563965,4129.358887,4227.692383,4140.897461,4129.102539,4142.179688,4644.230957,4442.948730,4389.102539,4531.538574,0.000000,4.000000,75.000000,,,,0.000000,4.000000,4.000000,4.000000,4.000000,4.000000,4.000000,4.000000,4.000000,4.000000,4.000000,4.000000,4.000000,4.000000,4.000000,100.000000,,,,,,,,,,,,,,,,,5.000000,0.000000,0.712103,0.163940,-0.661133,0.170105,0.991332,-0.000977,0.083995,-5.826302,15.187687,98.145035
1702803100.023183,1702803100.375953,21.000000,0.000000,4176.922852,4150.512695,4274.615234,4230.256348,4149.230957,4129.743652,4233.077148,4145.000000,4138.205078,4146.538574,4655.256348,4454.358887,4400.512695,4542.051270,0.000000,4.000000,75.000000,,,,0.000000,4.000000,4.000000,4.000000,4.000000,4.000000,4.000000,4.000000,4.000000,4.000000,4.000000,4.000000,4.000000,4.000000,4.000000,100.000000,,,,,,,,,,,,,,,,,,,,,,,,,,,,
1702803100.030991,1702803100.383761,22.000000,0.000000,4190.769043,4163.205078,4293.077148,4232.436035,4152.436035,4124.871582,4229.871582,4149.615234,4140.128418,4159.230957,4664.102539,4473.077148,4412.436035,4558.974121,0.000000,4.000000,75.000000,,,,0.000000,4.000000,4.000000,4.000000,4.000000,4.000000,4.000000,4.000000,4.000000,4.000000,4.000000,4.000000,4.000000,4.000000,4.000000,100.000000,,,,,,,,,,,,,,,,,,,,,,,,,,,,
1702803100.038799,1702803100.391470,23.000000,0.000000,4195.000000,4171.282227,4303.717773,4236.153809,4154.743652,4118.333496,4225.641113,4142.692383,4129.871582,4160.384766,4659.358887,4475.384766,4410.000000,4559.615234,0.000000,4.000000,75.000000,,,,0.000000,4.000000,4.000000,4.000000,4.000000,4.000000,4.000000,4.000000,4.000000,4.000000,4.000000,4.000000,4.000000,4.000000,4.000000,100.000000,,,,,,,,,,,,,,,,,,,,,,,,,,,,
1702803100.046607,1702803100.399278,24.000000,0.000000,4195.384766,4171.410156,4304.487305,4241.666504,4155.897461,4120.000000,4224.358887,4137.436035,4125.256348,4159.102539,4661.794922,4472.307617,4408.333496,4560.000000,0.000000,4.000000,75.000000,,,,0.000000,4.000000,4.000000,4.000000,4.000000,4.000000,4.000000,4.000000,4.000000,4.000000,4.000000,4.000000,4.000000,4.000000,4.000000,100.000000,,,,,,,,,,,,,,,,,6.000000,0.000000,0.712020,0.164185,-0.661194,0.169983,1.002564,0.016115,0.073251,-5.810338,15.218919,98.047195
1702803100.054415,1702803100.406986,25.000000,0.000000,4194.487305,4167.179688,4300.384766,4240.641113,4151.922852,4126.794922,4224.487305,4143.974121,4128.333496,4153.846191,4665.128418,4472.692383,4404.487305,4564.230957,0.000000,4.000000,75.000000,,,,0.000000,4.000000,4.000000,4.000000,4.000000,4.000000,4.000000,4.000000,4.000000,4.000000,4.000000,4.000000,4.000000,4.000000,4.000000,100.000000,,,,,,,,,,,,,,,,,,,,,,,,,,,,
1702803100.062223,1702803100.414794,26.000000,0.000000,4180.641113,4149.230957,4283.717773,4221.538574,4145.769043,4127.307617,4224.487305,4141.153809,4118.974121,4136.410156,4644.871582,4458.205078,4387.820313,4546.922852,0.000000,4.000000,75.000000,,,,0.000000,4.000000,4.000000,4.000000,4.000000,4.000000,4.000000,4.000000,4.000000,4.000000,4.000000,4.000000,4.000000,4.000000,4.000000,100.000000,1.000000,91.666664,4.000000,4.000000,3.000000,4.000000,4.000000,4.000000,4.000000,4.000000,4.000000,4.000000,4.000000,4.000000,4.000000,4.000000,,,,,,,,,,,,
1702803100.070032,1702803100.422503,27.000000,0.000000,4172.179688,4141.025879,4273.846191,4209.487305,4145.384766,4129.487305,4224.743652,4131.922852,4112.179688,4131.794922,4630.256348,4443.589844,4382.436035,4533.717773,0.000000,4.000000,75.000000,,,,0.000000,4.000000,4.000000,4.000000,4.000000,4.000000,4.000000,4.000000,4.000000,4.000000,4.000000,4.000000,4.000000,4.000000,4.000000,100.000000,,,,,,,,,,,,,,,,,,,,,,,,,,,,
1702803100.077839,1702803100.430311,28.000000,0.000000,4172.692383,4146.282227,4274.358887,4212.948730,4145.641113,4129.230957,4224.615234,4132.692383,4120.128418,4143.077148,4640.641113,4441.922852,4387.307617,4537.563965,0.000000,4.000000,75.000000,,,,0.000000,4.000000,4.000000,4.000000,4.000000,4.000000,4.000000,4.000000,4.000000,4.000000,4.000000,4.000000,4.000000,4.000000,4.000000,100.000000,,,,,,,,,,,,,,,,,7.000000,0.000000,0.712006,0.164307,-0.661194,0.169922,0.990355,0.011720,0.070321,-5.695971,15.280360,98.175812
1702803100.085648,1702803100.438019,29.000000,0.000000,4172.436035,4143.717773,4272.820313,4215.769043,4142.051270,4123.333496,4224.358887,4138.461426,4130.000000,4146.025879,4644.230957,4443.333496,4383.974121,4536.666504,0.000000,4.000000,75.000000,,,,0.000000,4.000000,4.000000,4.000000,4.000000,4.000000,4.000000,4.000000,4.000000,4.000000,4.000000,4.000000,4.000000,4.000000,4.000000,100.000000,,,,,,,,,,,,,,,,,,,,,,,,,,,,
1702803100.093456,1702803100.445927,30.000000,0.000000,4177.948730,4147.692383,4276.666504,4218.333496,4141.282227,4117.948730,4223.846191,4138.974121,4131.153809,4145.769043,4637.563965,4443.846191,4381.922852,4535.897461,0.000000,4.000000,75.000000,,,,0.000000,4.000000,4.000000,4.000000,4.000000,4.000000,4.000000,4.000000,4.000000,4.000000,4.000000,4.000000,4.000000,4.000000,4.000000,100.000000,,,,,,,,,,,,,,,,,,,,,,,,,,,,
1702803100.101264,1702803100.453736,31.000000,0.000000,4181.666504,4154.615234,4282.179688,4219.615234,4146.410156,4116.922852,4222.820313,4133.974121,4123.974121,4150.897461,4641.922852,4444.871582,4387.563965,4539.487305,0.000000,4.000000,75.000000,,,,0.000000,4.000000,4.000000,4.000000,4.000000,4.000000,4.000000,4.000000,4.000000,4.000000,4.000000,4.000000,4.000000,4.000000,4.000000,100.000000,,,,,,,,,,,,,,,,,,,,,,,,,,,,
1702803100.109072,1702803100.461644,32.000000,0.000000,4179.358887,4148.974121,4279.871582,4217.179688,4144.487305,4125.512695,4222.692383,4134.615234,4120.769043,4145.384766,4642.563965,4449.230957,4389.358887,4542.051270,0.000000,4.000000,75.000000,,,,0.000000,4.000000,4.000000,4.000000,4.000000,4.000000,4.000000,4.000000,4.000000,4.000000,4.000000,4.000000,4.000000,4.000000,4.000000,100.000000,,,,,,,,,,,,,,,,,8.000000,0.000000,0.711894,0.164673,-0.661255,0.169800,1.008424,0.018069,0.077646,-5.843041,15.268991,98.141563
1702803100.116880,1702803100.469452,33.000000,0.000000,4172.436035,4137.563965,4272.179688,4209.487305,4131.794922,4130.256348,4222.436035,4136.025879,4115.512695,4123.333496,4629.487305,4442.563965,4374.871582,4533.717773,0.000000,4.000000,75.000000,,,,0.000000,4.000000,4.000000,4.000000,4.000000,4.000000,4.000000,4.000000,4.000000,4.000000,4.000000,4.000000,4.000000,4.000000,4.000000,100.000000,,,,,,,,,,,,,,,,,,,,,,,,,,,,
1702803100.124688,1702803100.477260,34.000000,0.000000,4165.897461,4133.846191,4265.897461,4204.487305,4130.384766,4129.230957,4221.538574,4132.692383,4106.025879,4114.230957,4623.205078,4426.282227,4358.333496,4519.102539,0.000000,4.000000,75.000000,,,,0.000000,4.000000,4.000000,4.000000,4.000000,4.000000,4.000000,4.000000,4.000000,4.000000,4.000000,4.000000,4.000000,4.000000,4.000000,100.000000,,,,,,,,,,,,,,,,,,,,,,,,,,,,
1702803100.132496,1702803100.484968,35.000000,0.000000,4160.512695,4136.538574,4261.922852,4203.205078,4136.025879,4129.230957,4221.153809,4132.307617,4106.538574,4123.846191,4621.666504,4421.922852,4357.563965,4514.358887,0.000000,4.000000,75.000000,,,,0.000000,4.000000,4.000000,4.000000,4.000000,4.000000,4.000000,4.000000,4.000000,4.000000,4.000000,4.000000,4.000000,4.000000,4.000000,100.000000,,,,,,,,,,,,,,,,,,,,,,,,,,,,
1702803100.140304,1702803100.492876,36.000000,0.000000,4154.230957,4133.717773,4256.666504,4199.230957,4133.077148,4124.358887,4220.769043,4131.794922,4110.512695,4121.282227,4608.589844,4419.743652,4357.307617,4513.589844,0.000000,4.000000,75.000000,,,,0.000000,4.000000,4.000000,4.000000,4.000000,4.000000,4.000000,4.000000,4.000000,4.000000,4.000000,4.000000,4.000000,4.000000,4.000000,100.000000,,,,,,,,,,,,,,,,,9.000000,0.000000,0.711866,0.164856,-0.661255,0.169739,0.995727,0.016604,0.072274,-5.825404,15.375425,98.094078
1702803100.148112,1702803100.500685,37.000000,0.000000,4167.820313,4140.897461,4269.230957,4211.922852,4134.743652,4119.102539,4221.282227,4133.974121,4112.051270,4124.230957,4617.436035,4427.436035,4363.589844,4522.948730,0.000000,4.000000,75.000000,,,,0.000000,4.000000,4.000000,4.000000,4.000000,4.000000,4.000000,4.000000,4.000000,4.000000,4.000000,4.000000,4.000000,4.000000,4.000000,100.000000,,,,,,,,,,,,,,,,,,,,,,,,,,,,
1702803100.155920,1702803100.508593,38.000000,0.000000,4191.794922,4156.282227,4292.692383,4231.666504,4137.948730,4113.461426,4217.051270,4135.000000,4113.717773,4144.487305,4638.974121,4450.000000,4377.948730,4541.282227,0.000000,4.000000,75.000000,,,,0.000000,4.000000,4.000000,4.000000,4.000000,4.000000,4.000000,4.000000,4.000000,4.000000,4.000000,4.000000,4.000000,4.000000,4.000000,100.000000,,,,,,,,,,,,,,,,,,,,,,,,,,,,
1702803100.163728,1702803100.516401,39.000000,0.000000,4198.333496,4163.333496,4296.410156,4234.230957,4137.820313,4109.871582,4209.487305,4126.538574,4112.436035,4145.897461,4636.025879,4456.794922,4380.641113,4545.897461,0.000000,4.000000,75.000000,,,,0.000000,4.000000,4.000000,4.000000,4.000000,4.000000,4.000000,4.000000,4.000000,4.000000,4.000000,4.000000,4.000000,4.000000,4.000000,100.000000,,,,,,,,,,,,,,,,,,,,,,,,,,,,
1702803100.171537,1702803100.524309,40.000000,0.000000,4190.000000,4160.512695,4286.794922,4225.512695,4137.179688,4119.871582,4212.307617,4121.025879,4112.051270,4140.256348,4633.077148,4446.794922,4376.538574,4539.358887,0.000000,4.000000,75.000000,,,,0.000000,4.000000,4.000000,4.000000,4.000000,4.000000,4.000000,4.000000,4.000000,4.000000,4.000000,4.000000,4.000000,4.000000,4.000000,100.000000,,,,,,,,,,,,,,,,,10.000000,0.000000,0.711937,0.165100,-0.661133,0.169678,0.985960,0.011232,0.073251,-5.709530,15.421216,98.167999
1702803100.179345,1702803100.532117,41.000000,0.000000,4176.025879,4147.051270,4273.589844,4210.256348,4134.230957,4126.025879,4217.563965,4124.230957,4111.538574,4140.769043,4635.256348,4435.641113,4368.205078,4533.205078,0.000000,4.000000,75.000000,,,,0.000000,4.000000,4.000000,4.000000,4.000000,4.000000,4.000000,4.000000,4.000000,4.000000,4.000000,4.000000,4.000000,4.000000,4.000000,100.000000,,,,,,,,,,,,,,,,,,,,,,,,,,,,
1702803100.187153,1702803100.540025,42.000000,0.000000,4168.333496,4137.051270,4263.333496,4200.512695,4133.717773,4124.102539,4217.307617,4131.794922,4113.205078,4133.589844,4626.538574,4429.871582,4361.410156,4528.974121,0.000000,4.000000,75.000000,,,,0.000000,4.000000,4.000000,4.000000,4.000000,4.000000,4.000000,4.000000,4.000000,4.000000,4.000000,4.000000,4.000000,4.000000,4.000000,100.000000,,,,,,,,,,,,,,,,,,,,,,,,,,,,
1702803100.194961,1702803100.547833,43.000000,0.000000,4165.128418,4131.025879,4261.666504,4198.333496,4130.641113,4123.846191,4219.743652,4141.538574,4117.948730,4125.641113,4622.051270,4431.025879,4361.922852,4524.230957,0.000000,4.000000,75.000000,,,,0.000000,4.000000,4.000000,4.000000,4.000000,4.000000,4.000000,4.000000,4.000000,4.000000,4.000000,4.000000,4.000000,4.000000,4.000000,100.000000,,,,,,,,,,,,,,,,,,,,,,,,,,,,
1702803100.202769,1702803100.555742,44.000000,0.000000,4162.436035,4130.128418,4264.102539,4200.641113,4126.922852,4122.948730,4225.769043,4149.871582,4123.205078,4127.307617,4627.692383,4435.769043,4360.897461,4523.717773,0.000000,4.000000,75.000000,,,,0.000000,4.000000,4.000000,4.000000,4.000000,4.000000,4.000000,4.000000,4.000000,4.000000,4.000000,4.000000,4.000000,4.000000,4.000000,100.000000,,,,,,,,,,,,,,,,,11.000000,0.000000,0.711839,0.165100,-0.661255,0.169617,0.999145,0.013185,0.076181,-5.738577,15.295761,98.117867
1702803100.210577,1702803100.563550,45.000000,0.000000,4170.897461,4141.666504,4273.461426,4212.820313,4129.615234,4124.615234,4227.692383,4151.025879,4131.282227,4130.128418,4631.410156,4445.641113,4365.128418,4531.922852,0.000000,4.000000,75.000000,,,,0.000000,4.000000,4.000000,4.000000,4.000000,4.000000,4.000000,4.000000,4.000000,4.000000,4.000000,4.000000,4.000000,4.000000,4.000000,100.000000,,,,,,,,,,,,,,,,,,,,,,,,,,,,
1702803100.218385,1702803100.571258,46.000000,0.000000,4177.948730,4145.128418,4276.794922,4214.487305,4133.461426,4123.846191,4223.974121,4143.461426,4127.179688,4126.153809,4627.307617,4446.025879,4364.615234,4529.743652,0.000000,4.000000,75.000000,,,,0.000000,4.000000,4.000000,4.000000,4.000000,4.000000,4.000000,4.000000,4.000000,4.000000,4.000000,4.000000,4.000000,4.000000,4.000000,100.000000,,,,,,,,,,,,,,,,,,,,,,,,,,,,
1702803100.226193,1702803100.579066,47.000000,0.000000,4179.102539,4142.307617,4274.871582,4208.461426,4134.102539,4124.230957,4219.230957,4134.230957,4113.077148,4127.692383,4625.769043,4437.820313,4356.282227,4523.717773,0.000000,4.000000,75.000000,,,,0.000000,4.000000,4.000000,4.000000,4.000000,4.000000,4.000000,4.000000,4.000000,4.000000,4.000000,4.000000,4.000000,4.000000,4.000000,100.000000,,,,,,,,,,,,,,,,,,,,,,,,,,,,
1702803100.234001,1702803100.586775,48.000000,0.000000,4181.922852,4149.102539,4276.538574,4215.128418,4135.512695,4132.563965,4216.666504,4125.384766,4106.282227,4130.512695,4621.922852,4434.743652,4354.615234,4525.000000,0.000000,4.000000,75.000000,,,,0.000000,4.000000,4.000000,4.000000,4.000000,4.000000,4.000000,4.000000,4.000000,4.000000,4.000000,4.000000,4.000000,4.000000,4.000000,100.000000,,,,,,,,,,,,,,,,,12.000000,0.000000,0.711853,0.165100,-0.661255,0.169556,0.997192,0.027347,0.060554,-5.664719,15.249518,98.222748
1702803100.241809,1702803100.594583,49.000000,0.000000,4183.205078,4156.025879,4277.179688,4222.563965,4143.077148,4133.333496,4213.974121,4118.077148,4105.000000,4126.538574,4619.743652,4435.000000,4360.897461,4528.333496,0.000000,4.000000,75.000000,,,,0.000000,4.000000,4.000000,4.000000,4.000000,4.000000,4.000000,4.000000,4.000000,4.000000,4.000000,4.000000,4.000000,4.000000,4.000000,100.000000,,,,,,,,,,,,,,,,,,,,,,,,,,,,
1702803100.249617,1702803100.602291,50.000000,0.000000,4194.743652,4166.153809,4288.717773,4231.025879,4151.153809,4124.743652,4210.897461,4122.307617,4117.563965,4144.102539,4644.743652,4450.769043,4379.487305,4547.820313,0.000000,4.000000,75.000000,,,,0.000000,4.000000,4.000000,4.000000,4.000000,4.000000,4.000000,4.000000,4.000000,4.000000,4.000000,4.000000,4.000000,4.000000,4.000000,100.000000,,,,,,,,,,,,,,,,,,,,,,,,,,,,
1702803100.257425,1702803100.610099,51.000000,0.000000,4205.000000,4173.077148,4298.846191,4239.102539,4148.589844,4116.153809,4210.512695,4128.461426,4135.641113,4164.615234,4660.897461,4467.563965,4390.897461,4562.436035,0.000000,4.000000,75.000000,,,,0.000000,4.000000,4.000000,4.000000,4.000000,4.000000,4.000000,4.000000,4.000000,4.000000,4.000000,4.000000,4.000000,4.000000,4.000000,100.000000,,,,,,,,,,,,,,,,,,,,,,,,,,,,
1702803100.265233,1702803100.617808,52.000000,0.000000,4193.461426,4159.102539,4287.948730,4228.846191,4140.000000,4115.769043,4216.153809,4130.512695,4141.410156,4150.384766,4642.820313,4459.230957,4376.794922,4547.307617,0.000000,4.000000,75.000000,,,,0.000000,4.000000,4.000000,4.000000,4.000000,4.000000,4.000000,4.000000,4.000000,4.000000,4.000000,4.000000,4.000000,4.000000,4.000000,100.000000,,,,,,,,,,,,,,,,,13.000000,0.000000,0.711881,0.164978,-0.661255,0.169556,0.993285,0.017092,0.065438,-5.731581,15.207900,98.183807
1702803100.273042,1702803100.625616,53.000000,0.000000,4174.871582,4136.794922,4270.512695,4207.307617,4132.692383,4122.179688,4222.179688,4136.794922,4134.487305,4127.051270,4626.153809,4435.641113,4353.461426,4524.358887,0.000000,4.000000,75.000000,,,,0.000000,4.000000,4.000000,4.000000,4.000000,4.000000,4.000000,4.000000,4.000000,4.000000,4.000000,4.000000,4.000000,4.000000,4.000000,100.000000,,,,,,,,,,,,,,,,,,,,,,,,,,,,
1702803100.280850,1702803100.633324,54.000000,0.000000,4166.922852,4127.307617,4262.179688,4193.974121,4129.487305,4125.897461,4222.179688,4139.743652,4118.717773,4117.436035,4617.563965,4417.563965,4336.410156,4513.333496,0.000000,4.000000,75.000000,,,,0.000000,4.000000,4.000000,4.000000,4.000000,4.000000,4.000000,4.000000,4.000000,4.000000,4.000000,4.000000,4.000000,4.000000,4.000000,100.000000,,,,,,,,,,,,,,,,,,,,,,,,,,,,
1702803100.288658,1702803100.641232,55.000000,0.000000,4172.436035,4132.179688,4267.307617,4196.025879,4130.128418,4134.102539,4222.307617,4141.282227,4111.666504,4115.512695,4615.256348,4423.077148,4336.666504,4515.641113,0.000000,4.000000,75.000000,,,,0.000000,4.000000,4.000000,4.000000,4.000000,4.000000,4.000000,4.000000,4.000000,4.000000,4.000000,4.000000,4.000000,4.000000,4.000000,100.000000,,,,,,,,,,,,,,,,,,,,,,,,,,,,
1702803100.296466,1702803100.649041,56.000000,0.000000,4175.512695,4132.948730,4274.230957,4202.051270,4132.436035,4136.538574,4223.846191,4141.410156,4112.820313,4108.333496,4615.384766,4432.436035,4337.820313,4517.948730,0.000000,4.000000,75.000000,,,,0.000000,4.000000,4.000000,4.000000,4.000000,4.000000,4.000000,4.000000,4.000000,4.000000,4.000000,4.000000,4.000000,4.000000,4.000000,100.000000,,,,,,,,,,,,,,,,,14.000000,0.000000,0.711936,0.164734,-0.661194,0.169800,0.990355,0.024417,0.070321,-5.741756,15.120443,98.198761
1702803100.304274,1702803100.656949,57.000000,0.000000,4176.410156,4132.051270,4278.077148,4208.333496,4137.692383,4127.051270,4221.410156,4136.025879,4107.307617,4110.769043,4615.128418,4432.436035,4335.641113,4522.179688,0.000000,4.000000,75.000000,,,,0.000000,4.000000,4.000000,4.000000,4.000000,4.000000,4.000000,4.000000,4.000000,4.000000,4.000000,4.000000,4.000000,4.000000,4.000000,100.000000,,,,,,,,,,,,,,,,,,,,,,,,,,,,
1702803100.312082,1702803100.664757,58.000000,0.000000,4184.743652,4143.461426,4281.922852,4216.410156,4137.948730,4127.692383,4219.487305,4132.948730,4102.307617,4126.153809,4622.692383,4436.922852,4344.230957,4535.256348,0.000000,4.000000,75.000000,,,,0.000000,4.000000,4.000000,4.000000,4.000000,4.000000,4.000000,4.000000,4.000000,4.000000,4.000000,4.000000,4.000000,4.000000,4.000000,100.000000,,,,,,,,,,,,,,,,,,,,,,,,,,,,
1702803100.319890,1702803100.672665,59.000000,0.000000,4189.358887,4148.974121,4283.717773,4217.692383,4136.922852,4130.000000,4216.794922,4131.410156,4109.871582,4124.102539,4632.948730,4444.102539,4353.461426,4539.615234,0.000000,4.000000,75.000000,,,,0.000000,4.000000,4.000000,4.000000,4.000000,4.000000,4.000000,4.000000,4.000000,4.000000,4.000000,4.000000,4.000000,4.000000,4.000000,100.000000,,,,,,,,,,,,,,,,,,,,,,,,,,,,
1702803100.327698,1702803100.680473,60.000000,0.000000,4188.333496,4146.794922,4286.922852,4219.358887,4141.666504,4123.461426,4214.230957,4125.897461,4120.256348,4125.512695,4639.230957,4448.333496,4354.487305,4538.846191,0.000000,4.000000,75.000000,,,,0.000000,4.000000,4.000000,4.000000,4.000000,4.000000,4.000000,4.000000,4.000000,4.000000,4.000000,4.000000,4.000000,4.000000,4.000000,100.000000,,,,,,,,,,,,,,,,,15.000000,0.000000,0.711936,0.164673,-0.661194,0.169861,0.988402,0.018069,0.079600,-5.734247,15.108398,98.095551
1702803100.335506,1702803100.688381,61.000000,0.000000,4183.077148,4145.641113,4286.025879,4223.846191,4144.743652,4116.153809,4213.205078,4115.897461,4112.692383,4134.487305,4630.000000,4440.512695,4345.769043,4537.307617,0.000000,4.000000,75.000000,,,,0.000000,4.000000,4.000000,4.000000,4.000000,4.000000,4.000000,4.000000,4.000000,4.000000,4.000000,4.000000,4.000000,4.000000,4.000000,100.000000,,,,,,,,,,,,,,,,,,,,,,,,,,,,
1702803100.343314,1702803100.696189,62.000000,0.000000,4177.692383,4143.461426,4278.846191,4220.512695,4139.743652,4111.922852,4209.230957,4110.384766,4100.641113,4123.333496,4618.974121,4430.256348,4336.794922,4528.461426,0.000000,4.000000,75.000000,,,,0.000000,4.000000,4.000000,4.000000,4.000000,4.000000,4.000000,4.000000,4.000000,4.000000,4.000000,4.000000,4.000000,4.000000,4.000000,100.000000,,,,,,,,,,,,,,,,,,,,,,,,,,,,
1702803100.351122,1702803100.704098,63.000000,0.000000,4179.871582,4141.666504,4278.205078,4212.051270,4133.205078,4115.128418,4208.589844,4116.666504,4109.487305,4112.692383,4620.769043,4436.282227,4336.025879,4525.769043,0.000000,4.000000,75.000000,,,,0.000000,4.000000,4.000000,4.000000,4.000000,4.000000,4.000000,4.000000,4.000000,4.000000,4.000000,4.000000,4.000000,4.000000,4.000000,100.000000,,,,,,,,,,,,,,,,,,,,,,,,,,,,
1702803100.358930,1702803100.711906,64.000000,0.000000,4178.974121,4134.358887,4277.307617,4203.589844,4137.948730,4119.615234,4212.563965,4127.820313,4123.589844,4114.230957,4619.358887,4443.589844,4330.512695,4529.871582,5173.000000,4.000000,75.000000,,,,0.000000,4.000000,4.000000,4.000000,4.000000,4.000000,4.000000,4.000000,4.000000,4.000000,4.000000,4.000000,4.000000,4.000000,4.000000,100.000000,,,,,,,,,,,,,,,,,16.000000,0.000000,0.711963,0.164551,-0.661133,0.170105,0.991820,0.008302,0.072763,-5.860822,15.014226,98.052658
1702803100.366738,1702803100.719814,65.000000,0.000000,4171.538574,4127.692383,4269.871582,4196.922852,4144.358887,4123.846191,4214.615234,4135.128418,4129.102539,4110.769043,4616.410156,4437.051270,4319.230957,4525.128418,5387.000000,4.000000,75.000000,,,,0.000000,4.000000,4.000000,4.000000,4.000000,4.000000,4.000000,4.000000,4.000000,4.000000,4.000000,4.000000,4.000000,4.000000,4.000000,100.000000,,,,,,,,,,,,,,,,,,,,,,,,,,,,
1702803100.374547,1702803100.727622,66.000000,0.000000,4163.846191,4122.948730,4262.948730,4193.461426,4132.692383,4122.307617,4214.871582,4137.820313,4129.871582,4102.436035,4619.487305,4426.282227,4309.871582,4512.307617,4781.000000,4.000000,75.000000,,,,0.000000,4.000000,4.000000,4.000000,4.000000,4.000000,4.000000,4.000000,4.000000,4.000000,4.000000,4.000000,4.000000,4.000000,4.000000,100.000000,,,,,,,,,,,,,,,,,,,,,,,,,,,,
1702803100.382355,1702803100.735530,67.000000,0.000000,4161.025879,4114.615234,4262.179688,4193.717773,4119.230957,4115.512695,4216.025879,4140.256348,4122.436035,4103.717773,4617.179688,4427.179688,4305.897461,4509.230957,5265.000000,4.000000,75.000000,,,,0.000000,4.000000,4.000000,4.000000,4.000000,4.000000,4.000000,4.000000,4.000000,4.000000,4.000000,4.000000,4.000000,4.000000,4.000000,100.000000,,,,,,,,,,,,,,,,,,,,,,,,,,,,
1702803100.390163,1702803100.743338,68.000000,0.000000,4166.666504,4115.256348,4267.948730,4196.538574,4127.307617,4115.256348,4217.563965,4141.153809,4114.487305,4103.717773,4609.230957,4434.102539,4310.000000,4517.051270,5106.000000,4.000000,75.000000,,,,0.000000,4.000000,4.000000,4.000000,4.000000,4.000000,4.000000,4.000000,4.000000,4.000000,4.000000,4.000000,4.000000,4.000000,4.000000,100.000000,,,,,,,,,,,,,,,,,17.000000,0.000000,0.711989,0.164246,-0.661133,0.170288,0.998657,0.010743,0.075693,-5.791407,14.979469,98.130730
1702803100.397971,1702803100.751047,69.000000,0.000000,4161.666504,4115.641113,4263.974121,4190.384766,4136.538574,4112.692383,4215.769043,4132.307617,4102.692383,4088.461426,4597.692383,4422.692383,4299.743652,4508.589844,5106.000000,4.000000,75.000000,,,,0.000000,4.000000,4.000000,4.000000,4.000000,4.000000,4.000000,4.000000,4.000000,4.000000,4.000000,4.000000,4.000000,4.000000,4.000000,100.000000,,,,,,,,,,,,,,,,,,,,,,,,,,,,
1702803100.405779,1702803100.758855,70.000000,0.000000,4149.358887,4108.717773,4252.692383,4187.820313,4134.743652,4106.538574,4212.051270,4120.128418,4087.179443,4079.487061,4586.666504,4405.769043,4280.641113,4490.000000,1765.000000,4.000000,75.000000,,,,0.000000,4.000000,4.000000,4.000000,4.000000,4.000000,4.000000,4.000000,4.000000,4.000000,4.000000,4.000000,4.000000,4.000000,4.000000,100.000000,,,,,,,,,,,,,,,,,,,,,,,,,,,,
1702803100.413587,1702803100.766563,71.000000,0.000000,4158.333496,4115.000000,4257.563965,4198.846191,4137.820313,4110.512695,4209.871582,4114.615234,4085.897461,4083.974365,4587.692383,4410.256348,4290.384766,4498.077148,4696.000000,4.000000,75.000000,,,,0.000000,4.000000,4.000000,4.000000,4.000000,4.000000,4.000000,4.000000,4.000000,4.000000,4.000000,4.000000,4.000000,4.000000,4.000000,100.000000,,,,,,,,,,,,,,,,,,,,,,,,,,,,
1702803100.421395,1702803100.774371,72.000000,0.000000,4165.256348,4118.846191,4267.563965,4196.666504,4144.487305,4116.153809,4209.615234,4111.153809,4093.076904,4079.871826,4583.717773,4412.307617,4285.512695,4501.666504,5078.000000,4.000000,75.000000,,,,0.000000,4.000000,4.000000,4.000000,4.000000,4.000000,4.000000,4.000000,4.000000,4.000000,4.000000,4.000000,4.000000,4.000000,4.000000,100.000000,,,,,,,,,,,,,,,,,18.000000,0.000000,0.712075,0.164185,-0.661072,0.170227,0.987914,0.018069,0.075693,-5.928933,14.881523,98.184319
1702803100.429203,1702803100.782080,73.000000,0.000000,4151.922852,4106.282227,4264.871582,4185.769043,4145.384766,4113.461426,4212.179688,4114.102539,4101.794922,4089.358887,4583.333496,4407.436035,4258.974121,4482.051270,5233.000000,4.000000,75.000000,,,,0.000000,4.000000,4.000000,4.000000,4.000000,4.000000,4.000000,4.000000,4.000000,4.000000,4.000000,4.000000,4.000000,4.000000,4.000000,100.000000,,,,,,,,,,,,,,,,,,,,,,,,,,,,
1702803100.437011,1702803100.789888,74.000000,0.000000,4151.538574,4102.563965,4259.743652,4183.974121,4139.615234,4107.179688,4216.666504,4127.436035,4113.461426,4118.717773,4608.717773,4423.589844,4283.205078,4495.384766,5829.000000,4.000000,75.000000,,,,0.000000,4.000000,4.000000,4.000000,4.000000,4.000000,4.000000,4.000000,4.000000,4.000000,4.000000,4.000000,4.000000,4.000000,4.000000,100.000000,,,,,,,,,,,,,,,,,,,,,,,,,,,,
1702803100.444819,1702803100.797596,75.000000,0.000000,4160.641113,4105.384766,4261.282227,4183.333496,4133.846191,4105.512695,4218.077148,4142.692383,4123.077148,4116.025879,4619.743652,4441.794922,4316.282227,4524.230957,5883.000000,4.000000,75.000000,,,,0.000000,4.000000,4.000000,4.000000,4.000000,4.000000,4.000000,4.000000,4.000000,4.000000,4.000000,4.000000,4.000000,4.000000,4.000000,100.000000,,,,,,,,,,,,,,,,,,,,,,,,,,,,
1702803100.452627,1702803100.805404,76.000000,0.000000,4159.871582,4101.153809,4265.384766,4186.153809,4135.000000,4109.743652,4218.205078,4151.410156,4130.256348,4091.538574,4613.974121,4445.000000,4308.333496,4527.051270,6761.000000,4.000000,75.000000,,,,0.000000,4.000000,4.000000,4.000000,4.000000,4.000000,4.000000,4.000000,4.000000,4.000000,4.000000,4.000000,4.000000,4.000000,4.000000,100.000000,,,,,,,,,,,,,,,,,19.000000,0.000000,0.711975,0.164124,-0.661194,0.170227,0.987425,0.015627,0.073251,-6.036039,14.943371,98.132553
1702803100.460436,1702803100.813113,77.000000,0.000000,4162.692383,4102.692383,4267.948730,4192.820313,4146.282227,4115.641113,4220.641113,4149.230957,4130.769043,4095.256348,4627.051270,4445.641113,4311.922852,4530.128418,6857.000000,4.000000,75.000000,,,,0.000000,4.000000,4.000000,4.000000,4.000000,4.000000,4.000000,4.000000,4.000000,4.000000,4.000000,4.000000,4.000000,4.000000,4.000000,100.000000,,,,,,,,,,,,,,,,,,,,,,,,,,,,
1702803100.468243,1702803100.820921,78.000000,0.000000,4172.307617,4112.563965,4273.461426,4201.666504,4154.615234,4117.820313,4218.717773,4140.128418,4118.205078,4112.563965,4631.282227,4447.436035,4330.512695,4539.230957,5829.000000,4.000000,75.000000,,,,0.000000,4.000000,4.000000,4.000000,4.000000,4.000000,4.000000,4.000000,4.000000,4.000000,4.000000,4.000000,4.000000,4.000000,4.000000,100.000000,,,,,,,,,,,,,,,,,,,,,,,,,,,,
1702803100.476052,1702803100.828629,79.000000,0.000000,4170.641113,4114.871582,4276.922852,4206.666504,4150.641113,4117.307617,4213.589844,4129.358887,4101.794922,4112.307617,4615.512695,4444.358887,4325.769043,4533.717773,5883.000000,4.000000,75.000000,,,,0.000000,4.000000,4.000000,4.000000,4.000000,4.000000,4.000000,4.000000,4.000000,4.000000,4.000000,4.000000,4.000000,4.000000,4.000000,100.000000,,,,,,,,,,,,,,,,,,,,,,,,,,,,
1702803100.483860,1702803100.836437,80.000000,0.000000,4171.025879,4118.846191,4278.461426,4208.205078,4149.358887,4121.282227,4213.717773,4121.922852,4095.897461,4105.256348,4621.025879,4445.512695,4325.641113,4537.051270,6761.000000,4.000000,75.000000,,,,0.000000,4.000000,4.000000,4.000000,4.000000,4.000000,4.000000,4.000000,4.000000,4.000000,4.000000,4.000000,4.000000,4.000000,4.000000,100.000000,,,,,,,,,,,,,,,,,20.000000,0.000000,0.711960,0.164063,-0.661194,0.170349,0.984984,0.008790,0.075204,-5.999102,14.865700,98.002632
1702803100.491668,1702803100.844145,81.000000,0.000000,4179.743652,4131.666504,4282.948730,4212.820313,4148.333496,4119.102539,4216.410156,4122.307617,4102.692383,4111.410156,4634.871582,4452.692383,4332.563965,4547.820313,6857.000000,4.000000,75.000000,,,,0.000000,4.000000,4.000000,4.000000,4.000000,4.000000,4.000000,4.000000,4.000000,4.000000,4.000000,4.000000,4.000000,4.000000,4.000000,100.000000,,,,,,,,,,,,,,,,,,,,,,,,,,,,
1702803100.499476,1702803100.851953,82.000000,0.000000,4176.025879,4134.102539,4281.025879,4215.641113,4138.974121,4105.512695,4213.846191,4126.282227,4112.307617,4122.436035,4625.897461,4451.794922,4319.743652,4534.743652,5829.000000,4.000000,75.000000,,,,0.000000,4.000000,4.000000,4.000000,4.000000,4.000000,4.000000,4.000000,4.000000,4.000000,4.000000,4.000000,4.000000,4.000000,4.000000,100.000000,,,,,,,,,,,,,,,,,,,,,,,,,,,,
1702803100.507284,1702803100.859661,83.000000,0.000000,4180.000000,4138.974121,4284.102539,4221.666504,4137.307617,4111.282227,4214.487305,4130.128418,4121.025879,4133.717773,4632.307617,4463.461426,4336.025879,4547.179688,5883.000000,4.000000,75.000000,,,,0.000000,4.000000,4.000000,4.000000,4.000000,4.000000,4.000000,4.000000,4.000000,4.000000,4.000000,4.000000,4.000000,4.000000,4.000000,100.000000,,,,,,,,,,,,,,,,,,,,,,,,,,,,
1702803100.515092,1702803100.867569,84.000000,0.000000,4190.897461,4147.307617,4293.333496,4228.846191,4137.692383,4131.153809,4222.307617,4132.948730,4125.128418,4137.563965,4655.384766,4481.794922,4368.077148,4578.589844,6761.000000,4.000000,75.000000,,,,0.000000,4.000000,4.000000,4.000000,4.000000,4.000000,4.000000,4.000000,4.000000,4.000000,4.000000,4.000000,4.000000,4.000000,4.000000,100.000000,,,,,,,,,,,,,,,,,21.000000,0.000000,0.712016,0.163940,-0.661133,0.170471,0.996215,0.003907,0.075693,-5.915859,14.762464,97.885704
1702803100.522900,1702803100.875377,85.000000,0.000000,4177.051270,4132.436035,4288.717773,4220.384766,4124.102539,4131.922852,4225.000000,4139.102539,4129.102539,4129.230957,4649.487305,4473.077148,4352.692383,4564.102539,6857.000000,4.000000,75.000000,,,,0.000000,4.000000,4.000000,4.000000,4.000000,4.000000,4.000000,4.000000,4.000000,4.000000,4.000000,4.000000,4.000000,4.000000,4.000000,100.000000,,,,,,,,,,,,,,,,,,,,,,,,,,,,
1702803100.530708,1702803100.883286,86.000000,0.000000,4162.307617,4118.461426,4279.871582,4209.871582,4113.461426,4124.487305,4222.436035,4153.717773,4140.641113,4130.000000,4633.717773,4462.051270,4330.128418,4539.102539,5829.000000,4.000000,75.000000,,,,0.000000,4.000000,4.000000,4.000000,4.000000,4.000000,4.000000,4.000000,4.000000,4.000000,4.000000,4.000000,4.000000,4.000000,4.000000,100.000000,,,,,,,,,,,,,,,,,,,,,,,,,,,,
1702803100.538516,1702803100.891094,87.000000,0.000000,4169.615234,4129.358887,4280.000000,4214.487305,4117.436035,4124.358887,4221.282227,4164.487305,4147.820313,4133.974121,4636.922852,4467.436035,4338.717773,4543.205078,5883.000000,4.000000,75.000000,,,,0.000000,4.000000,4.000000,4.000000,4.000000,4.000000,4.000000,4.000000,4.000000,4.000000,4.000000,4.000000,4.000000,4.000000,4.000000,100.000000,,,,,,,,,,,,,,,,,,,,,,,,,,,,
1702803100.546324,1702803100.898902,88.000000,0.000000,4180.512695,4143.974121,4283.846191,4226.538574,4120.256348,4125.384766,4221.922852,4160.897461,4144.615234,4131.666504,4649.743652,4469.487305,4347.051270,4553.205078,6761.000000,4.000000,75.000000,,,,0.000000,4.000000,4.000000,4.000000,4.000000,4.000000,4.000000,4.000000,4.000000,4.000000,4.000000,4.000000,4.000000,4.000000,4.000000,100.000000,,,,,,,,,,,,,,,,,22.000000,0.000000,0.712058,0.164001,-0.661072,0.170471,0.986937,0.018557,0.078623,-5.774273,14.886217,98.047134
1702803100.554132,1702803100.906610,89.000000,0.000000,4182.051270,4145.897461,4285.769043,4230.000000,4112.692383,4122.563965,4221.025879,4147.563965,4133.205078,4130.256348,4649.102539,4461.794922,4341.025879,4550.384766,6857.000000,4.000000,75.000000,,,,0.000000,4.000000,4.000000,4.000000,4.000000,4.000000,4.000000,4.000000,4.000000,4.000000,4.000000,4.000000,4.000000,4.000000,4.000000,100.000000,,,,,,,,,,,,,,,,,,,,,,,,,,,,
1702803100.561941,1702803100.914518,90.000000,0.000000,4180.769043,4139.230957,4286.538574,4223.846191,4111.666504,4122.692383,4217.692383,4134.871582,4119.871582,4134.871582,4638.589844,4461.922852,4344.871582,4552.948730,5829.000000,4.000000,75.000000,,,,0.000000,4.000000,4.000000,4.000000,4.000000,4.000000,4.000000,4.000000,4.000000,4.000000,4.000000,4.000000,4.000000,4.000000,4.000000,100.000000,1.000000,100.000000,4.000000,4.000000,4.000000,4.000000,4.000000,4.000000,4.000000,4.000000,4.000000,4.000000,4.000000,4.000000,4.000000,4.000000,,,,,,,,,,,,
1702803100.569749,1702803100.922326,91.000000,0.000000,4185.000000,4136.410156,4291.922852,4223.974121,4121.922852,4134.230957,4217.948730,4134.871582,4123.717773,4148.077148,4652.436035,4476.794922,4369.615234,4572.179688,5883.000000,4.000000,75.000000,,,,0.000000,4.000000,4.000000,4.000000,4.000000,4.000000,4.000000,4.000000,4.000000,4.000000,4.000000,4.000000,4.000000,4.000000,4.000000,100.000000,,,,,,,,,,,,,,,,,,,,,,,,,,,,
1702803100.577556,1702803100.930234,92.000000,0.000000,4193.205078,4146.410156,4299.487305,4235.897461,4131.025879,4137.563965,4219.743652,4136.538574,4135.769043,4151.025879,4662.051270,4482.436035,4371.666504,4577.307617,6761.000000,4.000000,75.000000,,,,0.000000,4.000000,4.000000,4.000000,4.000000,4.000000,4.000000,4.000000,4.000000,4.000000,4.000000,4.000000,4.000000,4.000000,4.000000,100.000000,,,,,,,,,,,,,,,,,23.000000,0.000000,0.712116,0.164124,-0.661011,0.170349,0.993285,0.023440,0.067391,-5.763512,14.947596,98.125755
1702803100.585365,1702803100.938043,93.000000,0.000000,4197.563965,4158.974121,4300.641113,4240.128418,4129.871582,4123.717773,4216.794922,4130.769043,4133.205078,4139.358887,4639.230957,4473.846191,4348.589844,4564.102539,6857.000000,4.000000,75.000000,,,,0.000000,4.000000,4.000000,4.000000,4.000000,4.000000,4.000000,4.000000,4.000000,4.000000,4.000000,4.000000,4.000000,4.000000,4.000000,100.000000,,,,,,,,,,,,,,,,,,,,,,,,,,,,
1702803100.593173,1702803100.945951,94.000000,0.000000,4194.615234,4152.051270,4292.436035,4225.769043,4115.256348,4118.974121,4217.563965,4132.051270,4125.897461,4129.615234,4626.025879,4468.974121,4345.512695,4560.384766,5829.000000,4.000000,75.000000,,,,0.000000,4.000000,4.000000,4.000000,4.000000,4.000000,4.000000,4.000000,4.000000,4.000000,4.000000,4.000000,4.000000,4.000000,4.000000,100.000000,,,,,,,,,,,,,,,,,,,,,,,,,,,,
1702803100.600981,1702803100.953759,95.000000,0.000000,4186.282227,4130.897461,4282.307617,4213.205078,4105.128418,4123.974121,4226.282227,4140.000000,4125.512695,4124.102539,4634.871582,4465.512695,4348.974121,4561.794922,5883.000000,4.000000,75.000000,,,,0.000000,4.000000,4.000000,4.000000,4.000000,4.000000,4.000000,4.000000,4.000000,4.000000,4.000000,4.000000,4.000000,4.000000,4.000000,100.000000,,,,,,,,,,,,,,,,,,,,,,,,,,,,
1702803100.608789,1702803100.961467,96.000000,0.000000,4178.846191,4122.307617,4280.512695,4216.410156,4107.307617,4123.589844,4231.666504,4149.615234,4129.230957,4122.948730,4639.615234,4465.769043,4342.563965,4555.128418,6761.000000,4.000000,75.000000,,,,0.000000,4.000000,4.000000,4.000000,4.000000,4.000000,4.000000,4.000000,4.000000,4.000000,4.000000,4.000000,4.000000,4.000000,4.000000,100.000000,,,,,,,,,,,,,,,,,24.000000,0.000000,0.712047,0.164368,-0.661072,0.170166,0.979612,0.014650,0.078623,-5.720494,14.886169,98.096512
1702803100.616597,1702803100.969276,97.000000,0.000000,4169.487305,4120.769043,4278.846191,4211.922852,4104.743652,4121.922852,4228.205078,4163.974121,4135.128418,4125.256348,4631.666504,4468.461426,4337.179688,4546.922852,6857.000000,4.000000,75.000000,,,,0.000000,4.000000,4.000000,4.000000,4.000000,4.000000,4.000000,4.000000,4.000000,4.000000,4.000000,4.000000,4.000000,4.000000,4.000000,100.000000,,,,,,,,,,,,,,,,,,,,,,,,,,,,
1702803100.624405,1702803100.976984,98.000000,0.000000,4165.512695,4117.179688,4272.692383,4201.282227,4101.282227,4124.871582,4227.179688,4172.307617,4143.589844,4124.871582,4627.948730,4466.794922,4334.487305,4545.641113,5829.000000,4.000000,75.000000,,,,0.000000,4.000000,4.000000,4.000000,4.000000,4.000000,4.000000,4.000000,4.000000,4.000000,4.000000,4.000000,4.000000,4.000000,4.000000,100.000000,,,,,,,,,,,,,,,,,,,,,,,,,,,,
1702803100.632213,1702803100.984792,99.000000,0.000000,4170.769043,4121.153809,4271.153809,4206.153809,4109.743652,4130.128418,4230.641113,4169.871582,4151.666504,4120.769043,4629.743652,4464.358887,4332.051270,4546.666504,5883.000000,4.000000,75.000000,,,,0.000000,4.000000,4.000000,4.000000,4.000000,4.000000,4.000000,4.000000,4.000000,4.000000,4.000000,4.000000,4.000000,4.000000,4.000000,100.000000,,,,,,,,,,,,,,,,,,,,,,,,,,,,
1702803100.640021,1702803100.992500,100.000000,0.000000,4171.282227,4125.512695,4272.820313,4208.589844,4116.025879,4128.846191,4228.205078,4162.436035,4147.692383,4124.230957,4628.333496,4460.384766,4334.487305,4542.948730,6761.000000,4.000000,75.000000,,,,0.000000,4.000000,4.000000,4.000000,4.000000,4.000000,4.000000,4.000000,4.000000,4.000000,4.000000,4.000000,4.000000,4.000000,4.000000,100.000000,,,,,,,,,,,,,,,,,25.000000,0.000000,0.712189,0.164551,-0.660889,0.170105,0.988402,0.021487,0.074716,-5.815112,14.997552,98.153526
1702803100.647829,1702803101.000309,101.000000,0.000000,4173.077148,4126.922852,4277.179688,4207.436035,4113.205078,4124.358887,4223.205078,4148.846191,4131.025879,4131.794922,4626.666504,4456.410156,4337.948730,4542.436035,6857.000000,4.000000,75.000000,,,,0.000000,4.000000,4.000000,4.000000,4.000000,4.000000,4.000000,4.000000,4.000000,4.000000,4.000000,4.000000,4.000000,4.000000,4.000000,100.000000,,,,,,,,,,,,,,,,,,,,,,,,,,,,
1702803100.655637,1702803101.008017,102.000000,0.000000,4177.563965,4125.897461,4278.461426,4213.333496,4112.051270,4126.410156,4221.282227,4128.589844,4115.000000,4128.461426,4622.307617,4453.205078,4332.563965,4544.743652,5829.000000,4.000000,75.000000,,,,0.000000,4.000000,4.000000,4.000000,4.000000,4.000000,4.000000,4.000000,4.000000,4.000000,4.000000,4.000000,4.000000,4.000000,4.000000,100.000000,,,,,,,,,,,,,,,,,,,,,,,,,,,,
1702803100.663446,1702803101.015825,103.000000,0.000000,4180.384766,4131.153809,4279.102539,4218.461426,4119.871582,4131.282227,4218.846191,4124.615234,4117.436035,4131.282227,4623.589844,4456.282227,4337.563965,4550.256348,5883.000000,4.000000,75.000000,,,,0.000000,4.000000,4.000000,4.000000,4.000000,4.000000,4.000000,4.000000,4.000000,4.000000,4.000000,4.000000,4.000000,4.000000,4.000000,100.000000,,,,,,,,,,,,,,,,,,,,,,,,,,,,
1702803100.671254,1702803101.023533,104.000000,0.000000,4183.077148,4141.410156,4287.307617,4223.717773,4130.641113,4133.974121,4214.743652,4137.436035,4132.563965,4145.897461,4629.230957,4464.487305,4348.974121,4554.615234,6761.000000,4.000000,75.000000,,,,0.000000,4.000000,4.000000,4.000000,4.000000,4.000000,4.000000,4.000000,4.000000,4.000000,4.000000,4.000000,4.000000,4.000000,4.000000,100.000000,,,,,,,,,,,,,,,,,26.000000,0.000000,0.712232,0.164612,-0.660828,0.170105,0.981565,0.010743,0.071786,-5.816934,15.181130,98.254845
1702803100.679062,1702803101.031341,105.000000,0.000000,4179.487305,4134.871582,4285.256348,4221.410156,4128.205078,4132.820313,4218.461426,4131.538574,4118.205078,4137.692383,4617.307617,4452.948730,4337.436035,4540.512695,6857.000000,4.000000,75.000000,,,,0.000000,4.000000,4.000000,4.000000,4.000000,4.000000,4.000000,4.000000,4.000000,4.000000,4.000000,4.000000,4.000000,4.000000,4.000000,100.000000,,,,,,,,,,,,,,,,,,,,,,,,,,,,
1702803100.686870,1702803101.039049,106.000000,0.000000,4173.205078,4123.974121,4271.538574,4212.307617,4115.641113,4131.922852,4226.794922,4113.077148,4084.487061,4109.358887,4593.205078,4432.948730,4317.179688,4524.871582,5829.000000,4.000000,75.000000,,,,0.000000,4.000000,4.000000,4.000000,4.000000,4.000000,4.000000,4.000000,4.000000,4.000000,4.000000,4.000000,4.000000,4.000000,4.000000,100.000000,,,,,,,,,,,,,,,,,,,,,,,,,,,,
1702803100.694678,1702803101.046957,107.000000,0.000000,4160.769043,4114.615234,4265.769043,4204.615234,4114.615234,4127.820313,4226.538574,4122.307617,4087.820557,4105.384766,4584.871582,4433.974121,4310.641113,4520.897461,5883.000000,4.000000,75.000000,,,,0.000000,4.000000,4.000000,4.000000,4.000000,4.000000,4.000000,4.000000,4.000000,4.000000,4.000000,4.000000,4.000000,4.000000,4.000000,100.000000,,,,,,,,,,,,,,,,,,,,,,,,,,,,
1702803100.702486,1702803101.054766,108.000000,0.000000,4151.153809,4106.538574,4265.000000,4201.538574,4123.077148,4121.282227,4225.000000,4149.230957,4121.666504,4124.102539,4600.256348,4443.077148,4315.769043,4519.102539,6761.000000,4.000000,75.000000,,,,0.000000,4.000000,4.000000,4.000000,4.000000,4.000000,4.000000,4.000000,4.000000,4.000000,4.000000,4.000000,4.000000,4.000000,4.000000,100.000000,,,,,,,,,,,,,,,,,27.000000,0.000000,0.712332,0.164551,-0.660767,0.169983,0.984007,0.016115,0.070321,-6.051907,15.246350,98.229355
1702803100.710294,1702803101.062674,109.000000,0.000000,4164.102539,4122.820313,4264.358887,4205.641113,4122.051270,4121.538574,4226.410156,4162.307617,4141.794922,4130.512695,4618.205078,4442.692383,4324.230957,4521.922852,6857.000000,4.000000,75.000000,,,,0.000000,4.000000,4.000000,4.000000,4.000000,4.000000,4.000000,4.000000,4.000000,4.000000,4.000000,4.000000,4.000000,4.000000,4.000000,100.000000,,,,,,,,,,,,,,,,,,,,,,,,,,,,
1702803100.718102,1702803101.070482,110.000000,0.000000,4177.179688,4146.794922,4267.051270,4212.051270,4118.333496,4121.794922,4223.205078,4159.743652,4141.922852,4120.384766,4612.948730,4434.487305,4321.410156,4521.282227,5829.000000,4.000000,75.000000,,,,0.000000,4.000000,4.000000,4.000000,4.000000,4.000000,4.000000,4.000000,4.000000,4.000000,4.000000,4.000000,4.000000,4.000000,4.000000,100.000000,,,,,,,,,,,,,,,,,,,,,,,,,,,,
1702803100.725910,1702803101.078390,111.000000,0.000000,4173.333496,4146.410156,4272.179688,4219.615234,4119.871582,4117.692383,4219.102539,4154.358887,4140.000000,4117.820313,4599.615234,4431.153809,4311.538574,4513.077148,5883.000000,4.000000,75.000000,,,,0.000000,4.000000,4.000000,4.000000,4.000000,4.000000,4.000000,4.000000,4.000000,4.000000,4.000000,4.000000,4.000000,4.000000,4.000000,100.000000,,,,,,,,,,,,,,,,,,,,,,,,,,,,
1702803100.733718,1702803101.086198,112.000000,0.000000,4176.153809,4141.794922,4277.179688,4229.871582,4120.641113,4115.384766,4222.179688,4150.000000,4139.102539,4135.641113,4608.333496,4436.538574,4316.282227,4519.487305,6761.000000,4.000000,75.000000,,,,0.000000,4.000000,4.000000,4.000000,4.000000,4.000000,4.000000,4.000000,4.000000,4.000000,4.000000,4.000000,4.000000,4.000000,4.000000,100.000000,,,,,,,,,,,,,,,,,28.000000,0.000000,0.712262,0.164551,-0.660889,0.169800,0.983518,0.014162,0.067879,-6.113383,15.238382,98.239754
1702803100.741526,1702803101.094106,113.000000,0.000000,4182.436035,4148.333496,4279.743652,4232.436035,4123.846191,4116.025879,4224.871582,4143.077148,4131.410156,4144.487305,4613.205078,4439.743652,4321.922852,4527.948730,6857.000000,4.000000,75.000000,,,,0.000000,4.000000,4.000000,4.000000,4.000000,4.000000,4.000000,4.000000,4.000000,4.000000,4.000000,4.000000,4.000000,4.000000,4.000000,100.000000,,,,,,,,,,,,,,,,,,,,,,,,,,,,
1702803100.749334,1702803101.101914,114.000000,0.000000,4172.051270,4148.205078,4273.846191,4222.179688,4131.282227,4119.358887,4224.743652,4132.307617,4118.461426,4127.948730,4595.897461,4434.487305,4311.282227,4515.256348,5829.000000,4.000000,75.000000,,,,0.000000,4.000000,4.000000,4.000000,4.000000,4.000000,4.000000,4.000000,4.000000,4.000000,4.000000,4.000000,4.000000,4.000000,4.000000,100.000000,,,,,,,,,,,,,,,,,,,,,,,,,,,,
1702803100.757142,1702803101.109823,115.000000,0.000000,4163.846191,4141.410156,4266.666504,4217.436035,4133.589844,4123.846191,4225.384766,4126.025879,4115.384766,4121.410156,4594.487305,4430.512695,4309.871582,4510.384766,5883.000000,4.000000,75.000000,,,,0.000000,4.000000,4.000000,4.000000,4.000000,4.000000,4.000000,4.000000,4.000000,4.000000,4.000000,4.000000,4.000000,4.000000,4.000000,100.000000,,,,,,,,,,,,,,,,,,,,,,,,,,,,
1702803100.764950,1702803101.117631,116.000000,0.000000,4173.846191,4144.487305,4271.666504,4225.512695,4133.717773,4124.743652,4218.717773,4129.358887,4127.820313,4141.025879,4614.743652,4436.666504,4326.153809,4526.666504,6761.000000,4.000000,75.000000,,,,0.000000,4.000000,4.000000,4.000000,4.000000,4.000000,4.000000,4.000000,4.000000,4.000000,4.000000,4.000000,4.000000,4.000000,4.000000,100.000000,,,,,,,,,,,,,,,,,29.000000,0.000000,0.712248,0.164673,-0.660889,0.169739,0.991332,0.006837,0.069833,-6.068711,15.264544,98.299110
1702803100.772759,1702803101.125539,117.000000,0.000000,4183.461426,4155.128418,4282.948730,4230.384766,4135.897461,4122.307617,4209.615234,4128.974121,4136.922852,4149.102539,4615.256348,4443.846191,4331.538574,4534.743652,6857.000000,4.000000,75.000000,,,,0.000000,4.000000,4.000000,4.000000,4.000000,4.000000,4.000000,4.000000,4.000000,4.000000,4.000000,4.000000,4.000000,4.000000,4.000000,100.000000,,,,,,,,,,,,,,,,,,,,,,,,,,,,
1702803100.780567,1702803101.133347,118.000000,0.000000,4179.358887,4154.487305,4284.358887,4224.102539,4134.615234,4119.743652,4215.256348,4127.692383,4130.128418,4131.794922,4600.641113,4443.846191,4321.922852,4526.538574,5829.000000,4.000000,75.000000,,,,0.000000,4.000000,4.000000,4.000000,4.000000,4.000000,4.000000,4.000000,4.000000,4.000000,4.000000,4.000000,4.000000,4.000000,4.000000,100.000000,,,,,,,,,,,,,,,,,,,,,,,,,,,,
1702803100.788375,1702803101.141055,119.000000,0.000000,4169.358887,4139.743652,4275.897461,4216.666504,4125.897461,4118.717773,4228.205078,4142.051270,4121.153809,4122.820313,4597.820313,4438.974121,4313.974121,4515.256348,5883.000000,4.000000,75.000000,,,,0.000000,4.000000,4.000000,4.000000,4.000000,4.000000,4.000000,4.000000,4.000000,4.000000,4.000000,4.000000,4.000000,4.000000,4.000000,100.000000,,,,,,,,,,,,,,,,,,,,,,,,,,,,
1702803100.796183,1702803101.148864,120.000000,0.000000,4162.051270,4129.102539,4267.563965,4213.846191,4117.692383,4116.666504,4228.333496,4157.948730,4122.563965,4127.692383,4595.512695,4436.025879,4310.256348,4505.641113,6761.000000,4.000000,75.000000,,,,0.000000,4.000000,4.000000,4.000000,4.000000,4.000000,4.000000,4.000000,4.000000,4.000000,4.000000,4.000000,4.000000,4.000000,4.000000,100.000000,,,,,,,,,,,,,,,,,30.000000,0.000000,0.712220,0.164795,-0.660889,0.169739,0.984495,0.021487,0.065438,-5.845173,15.288090,98.352531
1702803100.803991,1702803101.156572,121.000000,0.000000,4154.615234,4124.102539,4260.128418,4206.538574,4118.974121,4113.974121,4222.948730,4160.512695,4126.922852,4131.025879,4592.563965,4432.563965,4307.563965,4502.307617,6857.000000,4.000000,75.000000,,,,0.000000,4.000000,4.000000,4.000000,4.000000,4.000000,4.000000,4.000000,4.000000,4.000000,4.000000,4.000000,4.000000,4.000000,4.000000,100.000000,,,,,,,,,,,,,,,,,,,,,,,,,,,,
1702803100.811799,1702803101.164380,122.000000,0.000000,4151.153809,4123.333496,4256.538574,4201.025879,4120.384766,4117.436035,4224.871582,4155.769043,4126.666504,4128.846191,4599.743652,4430.384766,4309.102539,4505.897461,5829.000000,4.000000,75.000000,,,,0.000000,4.000000,4.000000,4.000000,4.000000,4.000000,4.000000,4.000000,4.000000,4.000000,4.000000,4.000000,4.000000,4.000000,4.000000,100.000000,,,,,,,,,,,,,,,,,,,,,,,,,,,,
1702803100.819607,1702803101.172088,123.000000,0.000000,4158.974121,4133.974121,4262.692383,4208.333496,4121.282227,4122.820313,4224.358887,4149.871582,4122.179688,4126.410156,4605.384766,4437.436035,4316.666504,4510.641113,5883.000000,4.000000,75.000000,,,,0.000000,4.000000,4.000000,4.000000,4.000000,4.000000,4.000000,4.000000,4.000000,4.000000,4.000000,4.000000,4.000000,4.000000,4.000000,100.000000,,,,,,,,,,,,,,,,,,,,,,,,,,,,
1702803100.827415,1702803101.179897,124.000000,0.000000,4170.641113,4146.025879,4273.717773,4219.102539,4122.179688,4122.051270,4220.256348,4140.512695,4119.102539,4134.230957,4602.051270,4444.871582,4323.717773,4517.179688,6761.000000,4.000000,75.000000,,,,0.000000,4.000000,4.000000,4.000000,4.000000,4.000000,4.000000,4.000000,4.000000,4.000000,4.000000,4.000000,4.000000,4.000000,4.000000,100.000000,,,,,,,,,,,,,,,,,31.000000,0.000000,0.712234,0.164917,-0.660828,0.169800,0.992309,0.024417,0.074716,-5.777323,15.392614,98.150612
1702803100.835223,1702803101.187605,125.000000,0.000000,4173.846191,4146.025879,4278.717773,4223.205078,4120.256348,4114.615234,4221.666504,4133.205078,4123.077148,4141.538574,4599.487305,4439.487305,4322.820313,4520.000000,6857.000000,4.000000,75.000000,,,,0.000000,4.000000,4.000000,4.000000,4.000000,4.000000,4.000000,4.000000,4.000000,4.000000,4.000000,4.000000,4.000000,4.000000,4.000000,100.000000,,,,,,,,,,,,,,,,,,,,,,,,,,,,
1702803100.843031,1702803101.195413,126.000000,0.000000,4172.436035,4145.128418,4276.153809,4221.410156,4122.692383,4107.307617,4220.128418,4132.307617,4127.436035,4134.358887,4594.615234,4431.922852,4317.563965,4517.307617,5829.000000,4.000000,75.000000,,,,0.000000,4.000000,4.000000,4.000000,4.000000,4.000000,4.000000,4.000000,4.000000,4.000000,4.000000,4.000000,4.000000,4.000000,4.000000,100.000000,,,,,,,,,,,,,,,,,,,,,,,,,,,,
1702803100.850839,1702803101.203121,127.000000,0.000000,4175.384766,4152.307617,4274.487305,4221.666504,4128.077148,4105.641113,4215.128418,4125.256348,4121.538574,4131.153809,4593.333496,4435.641113,4320.256348,4516.538574,75.000000,4.000000,75.000000,,,,0.000000,4.000000,4.000000,4.000000,4.000000,4.000000,4.000000,4.000000,4.000000,4.000000,4.000000,4.000000,4.000000,4.000000,4.000000,100.000000,,,,,,,,,,,,,,,,,,,,,,,,,,,,
1702803100.858647,1702803101.210930,0.000000,0.000000,4176.153809,4153.717773,4271.282227,4224.743652,4131.666504,4110.256348,4217.179688,4110.256348,4103.846191,4140.769043,4598.974121,4435.000000,4325.000000,4515.641113,5185.000000,4.000000,75.000000,,,,0.000000,4.000000,4.000000,4.000000,4.000000,4.000000,4.000000,4.000000,4.000000,4.000000,4.000000,4.000000,4.000000,4.000000,4.000000,100.000000,,,,,,,,,,,,,,,,,0.000000,0.000000,0.712262,0.164978,-0.660767,0.169861,0.993285,0.021487,0.078135,-5.732924,15.336686,98.168884
1702803100.866455,1702803101.218638,1.000000,0.000000,4167.179688,4144.358887,4266.025879,4224.358887,4130.769043,4117.948730,4220.256348,4108.205078,4096.153809,4139.230957,4591.538574,4426.025879,4317.179688,4509.487305,5415.000000,4.000000,75.000000,,,,0.000000,4.000000,4.000000,4.000000,4.000000,4.000000,4.000000,4.000000,4.000000,4.000000,4.000000,4.000000,4.000000,4.000000,4.000000,100.000000,,,,,,,,,,,,,,,,,,,,,,,,,,,,
1702803100.874264,1702803101.226546,2.000000,0.000000,4155.256348,4134.358887,4261.794922,4213.717773,4130.384766,4121.794922,4218.974121,4125.769043,4105.128418,4118.846191,4581.025879,4423.077148,4307.179688,4501.666504,4787.000000,4.000000,75.000000,,,,0.000000,4.000000,4.000000,4.000000,4.000000,4.000000,4.000000,4.000000,4.000000,4.000000,4.000000,4.000000,4.000000,4.000000,4.000000,100.000000,,,,,,,,,,,,,,,,,,,,,,,,,,,,
1702803100.882072,1702803101.234354,3.000000,0.000000,4150.256348,4128.077148,4256.666504,4202.051270,4130.384766,4119.871582,4222.051270,4141.538574,4112.307617,4107.820313,4590.384766,4425.512695,4311.538574,4499.743652,5263.000000,4.000000,75.000000,,,,0.000000,4.000000,4.000000,4.000000,4.000000,4.000000,4.000000,4.000000,4.000000,4.000000,4.000000,4.000000,4.000000,4.000000,4.000000,100.000000,,,,,,,,,,,,,,,,,,,,,,,,,,,,
1702803100.889880,1702803101.242262,4.000000,0.000000,4151.538574,4130.256348,4255.000000,4204.102539,4127.692383,4114.871582,4226.922852,4146.410156,4115.000000,4118.205078,4597.179688,4427.820313,4316.922852,4501.666504,5101.000000,4.000000,75.000000,,,,0.000000,4.000000,4.000000,4.000000,4.000000,4.000000,4.000000,4.000000,4.000000,4.000000,4.000000,4.000000,4.000000,4.000000,4.000000,100.000000,,,,,,,,,,,,,,,,,1.000000,0.000000,0.712162,0.164856,-0.660889,0.169922,0.986449,0.016604,0.070321,-5.626298,15.219684,98.201996
1702803100.897688,1702803101.250070,5.000000,0.000000,4155.897461,4136.025879,4261.410156,4213.333496,4122.179688,4108.974121,4223.974121,4146.025879,4114.230957,4123.461426,4583.846191,4428.974121,4310.897461,4502.307617,5116.000000,4.000000,75.000000,,,,0.000000,4.000000,4.000000,4.000000,4.000000,4.000000,4.000000,4.000000,4.000000,4.000000,4.000000,4.000000,4.000000,4.000000,4.000000,100.000000,,,,,,,,,,,,,,,,,,,,,,,,,,,,
1702803100.905496,1702803101.257879,6.000000,0.000000,4163.333496,4139.230957,4268.589844,4215.128418,4118.205078,4107.179688,4221.410156,4143.846191,4107.051270,4117.307617,4587.563965,4432.436035,4312.179688,4506.410156,1763.000000,4.000000,75.000000,,,,0.000000,4.000000,4.000000,4.000000,4.000000,4.000000,4.000000,4.000000,4.000000,4.000000,4.000000,4.000000,4.000000,4.000000,4.000000,100.000000,,,,,,,,,,,,,,,,,,,,,,,,,,,,
1702803100.913304,1702803101.265587,7.000000,0.000000,4168.461426,4144.102539,4268.974121,4216.153809,4122.820313,4110.512695,4222.307617,4137.948730,4100.384766,4121.538574,4607.307617,4435.384766,4323.205078,4515.641113,4701.000000,4.000000,75.000000,,,,0.000000,4.000000,4.000000,4.000000,4.000000,4.000000,4.000000,4.000000,4.000000,4.000000,4.000000,4.000000,4.000000,4.000000,4.000000,100.000000,,,,,,,,,,,,,,,,,,,,,,,,,,,,
1702803100.921112,1702803101.273495,8.000000,0.000000,4168.077148,4151.538574,4270.000000,4227.563965,4125.384766,4111.922852,4216.666504,4124.487305,4098.717773,4133.205078,4602.179688,4434.358887,4323.205078,4515.641113,5081.000000,4.000000,75.000000,,,,0.000000,4.000000,4.000000,4.000000,4.000000,4.000000,4.000000,4.000000,4.000000,4.000000,4.000000,4.000000,4.000000,4.000000,4.000000,100.000000,,,,,,,,,,,,,,,,,2.000000,0.000000,0.712119,0.164734,-0.660950,0.169983,0.990355,0.020999,0.064461,-5.580335,15.281049,98.065132
1702803100.928920,1702803101.281303,9.000000,0.000000,4174.487305,4156.538574,4277.563965,4237.179688,4127.307617,4110.256348,4212.692383,4121.282227,4108.205078,4139.615234,4600.128418,4438.333496,4326.922852,4515.128418,5233.000000,4.000000,75.000000,,,,0.000000,4.000000,4.000000,4.000000,4.000000,4.000000,4.000000,4.000000,4.000000,4.000000,4.000000,4.000000,4.000000,4.000000,4.000000,100.000000,,,,,,,,,,,,,,,,,,,,,,,,,,,,
1702803100.936728,1702803101.289211,10.000000,0.000000,4183.333496,4162.563965,4282.563965,4235.641113,4134.743652,4110.512695,4216.282227,4132.948730,4128.846191,4142.179688,4615.897461,4448.589844,4342.307617,4526.282227,5839.000000,4.000000,75.000000,,,,0.000000,4.000000,4.000000,4.000000,4.000000,4.000000,4.000000,4.000000,4.000000,4.000000,4.000000,4.000000,4.000000,4.000000,4.000000,100.000000,,,,,,,,,,,,,,,,,,,,,,,,,,,,
1702803100.944536,1702803101.297019,11.000000,0.000000,4175.897461,4164.871582,4277.820313,4230.256348,4137.436035,4109.871582,4217.436035,4130.128418,4132.563965,4135.128418,4609.871582,4444.743652,4337.563965,4525.000000,5901.000000,4.000000,75.000000,,,,0.000000,4.000000,4.000000,4.000000,4.000000,4.000000,4.000000,4.000000,4.000000,4.000000,4.000000,4.000000,4.000000,4.000000,4.000000,100.000000,,,,,,,,,,,,,,,,,,,,,,,,,,,,
1702803100.952344,1702803101.304927,12.000000,0.000000,4165.256348,4154.102539,4270.897461,4224.615234,4132.436035,4113.846191,4215.641113,4110.128418,4109.358887,4120.769043,4591.410156,4425.512695,4316.282227,4506.025879,6808.000000,4.000000,75.000000,,,,0.000000,4.000000,4.000000,4.000000,4.000000,4.000000,4.000000,4.000000,4.000000,4.000000,4.000000,4.000000,4.000000,4.000000,4.000000,100.000000,,,,,,,,,,,,,,,,,3.000000,0.000000,0.712218,0.164490,-0.660889,0.170044,0.980100,0.010743,0.068856,-5.738968,15.152944,98.125282
1702803100.960153,1702803101.312736,13.000000,0.000000,4166.922852,4148.589844,4267.948730,4221.410156,4128.974121,4123.589844,4219.230957,4107.692383,4099.743652,4121.025879,4592.820313,4420.128418,4315.897461,4500.256348,6858.000000,4.000000,75.000000,,,,0.000000,4.000000,4.000000,4.000000,4.000000,4.000000,4.000000,4.000000,4.000000,4.000000,4.000000,4.000000,4.000000,4.000000,4.000000,100.000000,,,,,,,,,,,,,,,,,,,,,,,,,,,,
1702803100.967960,1702803101.320644,14.000000,0.000000,4167.692383,4152.051270,4263.717773,4223.717773,4129.487305,4128.077148,4223.205078,4128.333496,4117.179688,4138.205078,4605.256348,4435.384766,4329.871582,4509.871582,5839.000000,4.000000,75.000000,,,,0.000000,4.000000,4.000000,4.000000,4.000000,4.000000,4.000000,4.000000,4.000000,4.000000,4.000000,4.000000,4.000000,4.000000,4.000000,100.000000,,,,,,,,,,,,,,,,,,,,,,,,,,,,
1702803100.975769,1702803101.328452,15.000000,0.000000,4167.820313,4150.384766,4265.000000,4229.102539,4123.974121,4125.000000,4223.077148,4145.897461,4133.717773,4146.410156,4616.153809,4449.615234,4336.410156,4517.948730,5901.000000,4.000000,75.000000,,,,0.000000,4.000000,4.000000,4.000000,4.000000,4.000000,4.000000,4.000000,4.000000,4.000000,4.000000,4.000000,4.000000,4.000000,4.000000,100.000000,,,,,,,,,,,,,,,,,,,,,,,,,,,,
1702803100.983577,1702803101.336160,16.000000,0.000000,4171.794922,4148.461426,4271.025879,4227.051270,4118.717773,4118.717773,4221.282227,4150.384766,4131.282227,4135.000000,4623.205078,4452.179688,4339.487305,4521.282227,0.000000,4.000000,75.000000,,,,0.000000,4.000000,4.000000,4.000000,4.000000,4.000000,4.000000,4.000000,4.000000,4.000000,4.000000,4.000000,4.000000,4.000000,4.000000,100.000000,,,,,,,,,,,,,,,,,4.000000,0.000000,0.712287,0.164246,-0.660828,0.170227,0.989867,0.015139,0.072274,-5.681738,15.020983,98.162758
1702803100.991385,1702803101.343968,17.000000,0.000000,4165.641113,4145.000000,4265.128418,4215.897461,4118.974121,4107.436035,4218.717773,4141.025879,4115.897461,4123.077148,4611.666504,4444.358887,4335.000000,4515.384766,0.000000,4.000000,75.000000,,,,0.000000,4.000000,4.000000,4.000000,4.000000,4.000000,4.000000,4.000000,4.000000,4.000000,4.000000,4.000000,4.000000,4.000000,4.000000,100.000000,,,,,,,,,,,,,,,,,,,,,,,,,,,,
1702803100.999193,1702803101.351677,18.000000,0.000000,4157.948730,4138.333496,4256.025879,4207.692383,4118.717773,4104.487305,4215.641113,4128.717773,4106.538574,4128.589844,4596.538574,4433.333496,4325.000000,4508.974121,0.000000,4.000000,75.000000,,,,0.000000,4.000000,4.000000,4.000000,4.000000,4.000000,4.000000,4.000000,4.000000,4.000000,4.000000,4.000000,4.000000,4.000000,4.000000,100.000000,,,,,,,,,,,,,,,,,,,,,,,,,,,,
1702803101.007001,1702803101.359585,19.000000,0.000000,4160.384766,4137.179688,4256.794922,4210.128418,4121.794922,4113.846191,4213.077148,4124.743652,4108.589844,4133.846191,4602.948730,4430.384766,4325.769043,4512.307617,0.000000,4.000000,75.000000,,,,0.000000,4.000000,4.000000,4.000000,4.000000,4.000000,4.000000,4.000000,4.000000,4.000000,4.000000,4.000000,4.000000,4.000000,4.000000,100.000000,,,,,,,,,,,,,,,,,,,,,,,,,,,,
1702803101.014809,1702803101.367394,20.000000,0.000000,4161.666504,4140.384766,4257.820313,4216.666504,4124.871582,4115.128418,4215.000000,4124.102539,4114.743652,4128.846191,4611.922852,4436.922852,4331.666504,4514.358887,0.000000,4.000000,75.000000,,,,0.000000,4.000000,4.000000,4.000000,4.000000,4.000000,4.000000,4.000000,4.000000,4.000000,4.000000,4.000000,4.000000,4.000000,4.000000,100.000000,,,,,,,,,,,,,,,,,5.000000,0.000000,0.712272,0.164185,-0.660828,0.170349,0.989867,0.014650,0.072763,-5.646898,14.918884,98.096481
1702803101.022617,1702803101.375202,21.000000,0.000000,4160.128418,4136.538574,4256.025879,4213.846191,4124.871582,4110.512695,4220.256348,4123.333496,4121.538574,4134.102539,4608.333496,4440.000000,4331.025879,4511.410156,0.000000,4.000000,75.000000,,,,0.000000,4.000000,4.000000,4.000000,4.000000,4.000000,4.000000,4.000000,4.000000,4.000000,4.000000,4.000000,4.000000,4.000000,4.000000,100.000000,,,,,,,,,,,,,,,,,,,,,,,,,,,,
1702803101.030425,1702803101.382910,22.000000,0.000000,4158.974121,4129.102539,4254.358887,4204.615234,4125.128418,4109.230957,4220.897461,4121.922852,4116.538574,4135.641113,4603.205078,4431.538574,4326.025879,4508.461426,0.000000,4.000000,75.000000,,,,0.000000,4.000000,4.000000,4.000000,4.000000,4.000000,4.000000,4.000000,4.000000,4.000000,4.000000,4.000000,4.000000,4.000000,4.000000,100.000000,,,,,,,,,,,,,,,,,,,,,,,,,,,,
1702803101.038233,1702803101.390719,23.000000,0.000000,4156.794922,4124.230957,4250.641113,4201.666504,4118.717773,4106.025879,4218.333496,4119.358887,4099.487305,4117.820313,4600.256348,4426.025879,4319.743652,4503.717773,0.000000,4.000000,75.000000,,,,0.000000,4.000000,4.000000,4.000000,4.000000,4.000000,4.000000,4.000000,4.000000,4.000000,4.000000,4.000000,4.000000,4.000000,4.000000,100.000000,,,,,,,,,,,,,,,,,,,,,,,,,,,,
1702803101.046041,1702803101.398427,24.000000,0.000000,4154.230957,4119.615234,4248.974121,4201.666504,4110.512695,4102.051270,4218.974121,4120.641113,4093.974365,4103.077148,4590.384766,4427.692383,4312.179688,4496.666504,0.000000,4.000000,75.000000,,,,0.000000,4.000000,4.000000,4.000000,4.000000,4.000000,4.000000,4.000000,4.000000,4.000000,4.000000,4.000000,4.000000,4.000000,4.000000,100.000000,,,,,,,,,,,,,,,,,6.000000,0.000000,0.712399,0.164063,-0.660706,0.170410,1.000122,0.009278,0.076670,-5.648874,14.760329,97.920166
1702803101.053849,1702803101.406235,25.000000,0.000000,4152.820313,4121.794922,4249.871582,4199.230957,4116.025879,4106.153809,4221.410156,4131.153809,4107.179688,4111.153809,4591.666504,4428.717773,4316.666504,4498.974121,0.000000,4.000000,75.000000,,,,0.000000,4.000000,4.000000,4.000000,4.000000,4.000000,4.000000,4.000000,4.000000,4.000000,4.000000,4.000000,4.000000,4.000000,4.000000,100.000000,,,,,,,,,,,,,,,,,,,,,,,,,,,,
1702803101.061658,1702803101.413943,26.000000,0.000000,4151.922852,4127.307617,4249.487305,4200.897461,4122.436035,4114.871582,4220.641113,4138.461426,4122.179688,4123.589844,4612.307617,4431.666504,4329.615234,4507.692383,0.000000,4.000000,75.000000,,,,0.000000,4.000000,4.000000,4.000000,4.000000,4.000000,4.000000,4.000000,4.000000,4.000000,4.000000,4.000000,4.000000,4.000000,4.000000,100.000000,1.000000,100.000000,4.000000,4.000000,4.000000,4.000000,4.000000,4.000000,4.000000,4.000000,4.000000,4.000000,4.000000,4.000000,4.000000,4.000000,,,,,,,,,,,,
1702803101.069466,1702803101.421751,27.000000,0.000000,4156.666504,4127.948730,4250.384766,4206.153809,4122.820313,4114.487305,4217.692383,4133.846191,4126.025879,4128.589844,4622.948730,4438.333496,4335.897461,4512.563965,0.000000,4.000000,75.000000,,,,0.000000,4.000000,4.000000,4.000000,4.000000,4.000000,4.000000,4.000000,4.000000,4.000000,4.000000,4.000000,4.000000,4.000000,4.000000,100.000000,,,,,,,,,,,,,,,,,,,,,,,,,,,,
1702803101.077274,1702803101.429459,28.000000,0.000000,4170.769043,4136.538574,4260.897461,4211.153809,4131.153809,4111.282227,4218.333496,4132.820313,4127.307617,4140.384766,4625.641113,4452.563965,4344.743652,4521.666504,0.000000,4.000000,75.000000,,,,0.000000,4.000000,4.000000,4.000000,4.000000,4.000000,4.000000,4.000000,4.000000,4.000000,4.000000,4.000000,4.000000,4.000000,4.000000,100.000000,,,,,,,,,,,,,,,,,7.000000,0.000000,0.712426,0.163818,-0.660706,0.170532,0.990844,0.013185,0.073739,-5.800653,14.850964,97.878151
1702803101.085082,1702803101.437367,29.000000,0.000000,4179.487305,4147.307617,4272.563965,4216.794922,4137.820313,4108.974121,4220.128418,4136.922852,4125.256348,4144.615234,4628.333496,4458.461426,4351.025879,4527.948730,0.000000,4.000000,75.000000,,,,0.000000,4.000000,4.000000,4.000000,4.000000,4.000000,4.000000,4.000000,4.000000,4.000000,4.000000,4.000000,4.000000,4.000000,4.000000,100.000000,,,,,,,,,,,,,,,,,,,,,,,,,,,,
1702803101.092890,1702803101.445175,30.000000,0.000000,4176.538574,4146.025879,4274.358887,4221.538574,4133.974121,4107.692383,4218.717773,4137.051270,4113.077148,4138.846191,4622.563965,4449.871582,4344.358887,4525.256348,0.000000,4.000000,75.000000,,,,0.000000,4.000000,4.000000,4.000000,4.000000,4.000000,4.000000,4.000000,4.000000,4.000000,4.000000,4.000000,4.000000,4.000000,4.000000,100.000000,,,,,,,,,,,,,,,,,,,,,,,,,,,,
1702803101.100698,1702803101.453084,31.000000,0.000000,4170.256348,4140.769043,4268.461426,4222.563965,4132.051270,4113.717773,4221.410156,4136.538574,4109.487305,4130.897461,4617.179688,4445.897461,4338.461426,4521.794922,0.000000,4.000000,75.000000,,,,0.000000,4.000000,4.000000,4.000000,4.000000,4.000000,4.000000,4.000000,4.000000,4.000000,4.000000,4.000000,4.000000,4.000000,4.000000,100.000000,,,,,,,,,,,,,,,,,,,,,,,,,,,,
1702803101.108506,1702803101.460892,32.000000,0.000000,4161.282227,4132.692383,4257.179688,4213.717773,4134.487305,4121.410156,4225.256348,4130.512695,4116.153809,4119.102539,4610.769043,4439.358887,4332.692383,4512.820313,0.000000,4.000000,75.000000,,,,0.000000,4.000000,4.000000,4.000000,4.000000,4.000000,4.000000,4.000000,4.000000,4.000000,4.000000,4.000000,4.000000,4.000000,4.000000,100.000000,,,,,,,,,,,,,,,,,8.000000,0.000000,0.712442,0.163818,-0.660767,0.170227,0.995239,0.014162,0.070809,-5.853922,14.849200,97.707001
1702803101.116314,1702803101.468800,33.000000,0.000000,4156.666504,4129.487305,4250.512695,4208.077148,4135.384766,4126.922852,4224.102539,4121.282227,4117.820313,4115.897461,4600.256348,4425.897461,4326.410156,4503.846191,0.000000,4.000000,75.000000,,,,0.000000,4.000000,4.000000,4.000000,4.000000,4.000000,4.000000,4.000000,4.000000,4.000000,4.000000,4.000000,4.000000,4.000000,4.000000,100.000000,,,,,,,,,,,,,,,,,,,,,,,,,,,,
1702803101.124122,1702803101.476608,34.000000,0.000000,4160.512695,4136.410156,4256.153809,4213.717773,4127.948730,4125.384766,4222.820313,4125.384766,4116.153809,4121.922852,4596.282227,4423.717773,4326.538574,4503.717773,0.000000,4.000000,75.000000,,,,0.000000,4.000000,4.000000,4.000000,4.000000,4.000000,4.000000,4.000000,4.000000,4.000000,4.000000,4.000000,4.000000,4.000000,4.000000,100.000000,,,,,,,,,,,,,,,,,,,,,,,,,,,,
1702803101.131930,1702803101.484516,35.000000,0.000000,4160.769043,4135.769043,4261.153809,4214.615234,4120.000000,4114.102539,4222.820313,4134.358887,4113.077148,4128.205078,4599.871582,4430.512695,4326.282227,4503.589844,0.000000,4.000000,75.000000,,,,0.000000,4.000000,4.000000,4.000000,4.000000,4.000000,4.000000,4.000000,4.000000,4.000000,4.000000,4.000000,4.000000,4.000000,4.000000,100.000000,,,,,,,,,,,,,,,,,,,,,,,,,,,,
1702803101.139738,1702803101.492324,36.000000,0.000000,4159.871582,4129.230957,4260.897461,4211.538574,4120.512695,4106.794922,4221.922852,4132.307617,4106.794922,4127.307617,4601.410156,4430.256348,4326.282227,4500.641113,0.000000,4.000000,75.000000,,,,0.000000,4.000000,4.000000,4.000000,4.000000,4.000000,4.000000,4.000000,4.000000,4.000000,4.000000,4.000000,4.000000,4.000000,4.000000,100.000000,,,,,,,,,,,,,,,,,9.000000,0.000000,0.712357,0.163879,-0.660828,0.170288,0.973263,0.010255,0.077646,-5.918530,14.830947,97.736298
1702803101.147546,1702803101.500233,37.000000,0.000000,4156.410156,4126.410156,4255.256348,4208.205078,4119.743652,4109.102539,4220.512695,4127.051270,4101.922852,4118.077148,4593.205078,4422.179688,4327.307617,4497.436035,0.000000,4.000000,75.000000,,,,0.000000,4.000000,4.000000,4.000000,4.000000,4.000000,4.000000,4.000000,4.000000,4.000000,4.000000,4.000000,4.000000,4.000000,4.000000,100.000000,,,,,,,,,,,,,,,,,,,,,,,,,,,,
1702803101.155354,1702803101.508041,38.000000,0.000000,4152.179688,4130.384766,4251.025879,4207.692383,4118.846191,4112.820313,4219.743652,4129.102539,4106.538574,4114.487305,4588.333496,4422.307617,4327.179688,4495.000000,0.000000,4.000000,75.000000,,,,0.000000,4.000000,4.000000,4.000000,4.000000,4.000000,4.000000,4.000000,4.000000,4.000000,4.000000,4.000000,4.000000,4.000000,4.000000,100.000000,,,,,,,,,,,,,,,,,,,,,,,,,,,,
1702803101.163163,1702803101.515949,39.000000,0.000000,4155.897461,4136.153809,4255.000000,4215.000000,4122.051270,4111.282227,4217.820313,4128.461426,4115.256348,4121.153809,4594.743652,4426.538574,4327.692383,4494.487305,0.000000,4.000000,75.000000,,,,0.000000,4.000000,4.000000,4.000000,4.000000,4.000000,4.000000,4.000000,4.000000,4.000000,4.000000,4.000000,4.000000,4.000000,4.000000,100.000000,,,,,,,,,,,,,,,,,,,,,,,,,,,,
1702803101.170971,1702803101.523757,40.000000,0.000000,4162.051270,4136.153809,4260.256348,4218.846191,4122.820313,4107.051270,4219.230957,4122.051270,4119.230957,4124.871582,4602.179688,4428.589844,4329.615234,4496.922852,0.000000,4.000000,75.000000,,,,0.000000,4.000000,4.000000,4.000000,4.000000,4.000000,4.000000,4.000000,4.000000,4.000000,4.000000,4.000000,4.000000,4.000000,4.000000,100.000000,,,,,,,,,,,,,,,,,10.000000,0.000000,0.712401,0.164063,-0.660767,0.170166,0.995239,0.009767,0.075693,-5.826676,14.781185,97.746002
1702803101.178779,1702803101.531465,41.000000,0.000000,4167.820313,4135.769043,4265.000000,4217.820313,4119.230957,4109.358887,4222.563965,4126.282227,4120.256348,4129.871582,4607.307617,4437.948730,4334.743652,4506.794922,0.000000,4.000000,75.000000,,,,0.000000,4.000000,4.000000,4.000000,4.000000,4.000000,4.000000,4.000000,4.000000,4.000000,4.000000,4.000000,4.000000,4.000000,4.000000,100.000000,,,,,,,,,,,,,,,,,,,,,,,,,,,,
1702803101.186587,1702803101.539274,42.000000,0.000000,4167.051270,4133.205078,4264.487305,4213.077148,4115.897461,4111.153809,4222.692383,4131.410156,4116.410156,4128.717773,4599.102539,4437.307617,4330.512695,4509.743652,0.000000,4.000000,75.000000,,,,0.000000,4.000000,4.000000,4.000000,4.000000,4.000000,4.000000,4.000000,4.000000,4.000000,4.000000,4.000000,4.000000,4.000000,4.000000,100.000000,,,,,,,,,,,,,,,,,,,,,,,,,,,,
1702803101.194395,1702803101.546982,43.000000,0.000000,4164.102539,4128.974121,4256.922852,4209.358887,4122.948730,4106.538574,4221.410156,4124.743652,4107.307617,4111.794922,4587.307617,4422.051270,4323.589844,4499.615234,0.000000,4.000000,75.000000,,,,0.000000,4.000000,4.000000,4.000000,4.000000,4.000000,4.000000,4.000000,4.000000,4.000000,4.000000,4.000000,4.000000,4.000000,4.000000,100.000000,,,,,,,,,,,,,,,,,,,,,,,,,,,,
1702803101.202203,1702803101.554790,44.000000,0.000000,4167.563965,4132.307617,4253.974121,4214.102539,4128.589844,4107.307617,4222.307617,4118.205078,4102.692383,4107.948730,4586.153809,4420.256348,4327.820313,4496.538574,0.000000,4.000000,75.000000,,,,0.000000,4.000000,4.000000,4.000000,4.000000,4.000000,4.000000,4.000000,4.000000,4.000000,4.000000,4.000000,4.000000,4.000000,4.000000,100.000000,,,,,,,,,,,,,,,,,11.000000,0.000000,0.712344,0.164246,-0.660767,0.170227,0.992309,0.010743,0.074716,-5.677342,14.636400,97.904739
1702803101.210011,1702803101.562498,45.000000,0.000000,4172.179688,4137.051270,4259.358887,4219.230957,4127.307617,4108.333496,4222.051270,4121.025879,4103.205078,4118.974121,4585.256348,4423.333496,4329.230957,4498.846191,0.000000,4.000000,75.000000,,,,0.000000,4.000000,4.000000,4.000000,4.000000,4.000000,4.000000,4.000000,4.000000,4.000000,4.000000,4.000000,4.000000,4.000000,4.000000,100.000000,,,,,,,,,,,,,,,,,,,,,,,,,,,,
1702803101.217819,1702803101.570307,46.000000,0.000000,4177.692383,4140.769043,4270.769043,4224.358887,4130.897461,4104.743652,4220.384766,4129.358887,4109.615234,4129.743652,4594.102539,4424.743652,4329.615234,4503.846191,0.000000,4.000000,75.000000,,,,0.000000,4.000000,4.000000,4.000000,4.000000,4.000000,4.000000,4.000000,4.000000,4.000000,4.000000,4.000000,4.000000,4.000000,4.000000,100.000000,,,,,,,,,,,,,,,,,,,,,,,,,,,,
1702803101.225627,1702803101.578015,47.000000,0.000000,4176.794922,4143.205078,4272.820313,4226.025879,4132.436035,4101.025879,4220.384766,4132.051270,4113.589844,4127.948730,4609.230957,4433.205078,4338.589844,4511.025879,0.000000,4.000000,75.000000,,,,0.000000,4.000000,4.000000,4.000000,4.000000,4.000000,4.000000,4.000000,4.000000,4.000000,4.000000,4.000000,4.000000,4.000000,4.000000,100.000000,,,,,,,,,,,,,,,,,,,,,,,,,,,,
1702803101.233435,1702803101.585823,48.000000,0.000000,4172.307617,4145.000000,4268.589844,4225.512695,4129.615234,4106.794922,4221.666504,4133.589844,4111.922852,4116.666504,4607.436035,4442.179688,4345.512695,4514.743652,0.000000,4.000000,75.000000,,,,0.000000,4.000000,4.000000,4.000000,4.000000,4.000000,4.000000,4.000000,4.000000,4.000000,4.000000,4.000000,4.000000,4.000000,4.000000,100.000000,,,,,,,,,,,,,,,,,12.000000,0.000000,0.712344,0.164246,-0.660767,0.170227,1.002075,0.013185,0.062996,-5.742941,14.572761,97.814262
1702803101.241243,1702803101.593531,49.000000,0.000000,4176.922852,4149.358887,4275.512695,4230.128418,4133.333496,4120.897461,4225.512695,4137.948730,4115.384766,4120.769043,4603.333496,4446.794922,4346.025879,4517.307617,0.000000,4.000000,75.000000,,,,0.000000,4.000000,4.000000,4.000000,4.000000,4.000000,4.000000,4.000000,4.000000,4.000000,4.000000,4.000000,4.000000,4.000000,4.000000,100.000000,,,,,,,,,,,,,,,,,,,,,,,,,,,,
1702803101.249051,1702803101.601340,50.000000,0.000000,4181.282227,4147.820313,4278.846191,4230.769043,4137.436035,4123.077148,4226.410156,4134.871582,4121.025879,4132.563965,4606.410156,4442.820313,4346.666504,4515.641113,0.000000,4.000000,75.000000,,,,0.000000,4.000000,4.000000,4.000000,4.000000,4.000000,4.000000,4.000000,4.000000,4.000000,4.000000,4.000000,4.000000,4.000000,4.000000,100.000000,,,,,,,,,,,,,,,,,,,,,,,,,,,,
1702803101.256859,1702803101.609048,51.000000,0.000000,4180.000000,4147.051270,4272.307617,4228.846191,4131.922852,4115.641113,4221.410156,4128.717773,4125.897461,4132.436035,4606.666504,4440.384766,4353.461426,4516.538574,0.000000,4.000000,75.000000,,,,0.000000,4.000000,4.000000,4.000000,4.000000,4.000000,4.000000,4.000000,4.000000,4.000000,4.000000,4.000000,4.000000,4.000000,4.000000,100.000000,,,,,,,,,,,,,,,,,,,,,,,,,,,,
1702803101.264668,1702803101.616856,52.000000,0.000000,4177.179688,4150.256348,4269.358887,4230.128418,4128.077148,4110.256348,4218.717773,4128.589844,4124.487305,4126.282227,4608.333496,4446.794922,4360.256348,4522.307617,0.000000,4.000000,75.000000,,,,0.000000,4.000000,4.000000,4.000000,4.000000,4.000000,4.000000,4.000000,4.000000,4.000000,4.000000,4.000000,4.000000,4.000000,4.000000,100.000000,,,,,,,,,,,,,,,,,13.000000,0.000000,0.712232,0.164185,-0.660950,0.170044,0.988890,0.022952,0.070809,-5.768647,14.532151,97.966171
1702803101.272476,1702803101.624564,53.000000,0.000000,4175.512695,4145.641113,4271.153809,4227.436035,4128.974121,4110.128418,4219.487305,4127.820313,4116.538574,4125.897461,4611.922852,4449.102539,4358.077148,4524.487305,0.000000,4.000000,75.000000,,,,0.000000,4.000000,4.000000,4.000000,4.000000,4.000000,4.000000,4.000000,4.000000,4.000000,4.000000,4.000000,4.000000,4.000000,4.000000,100.000000,,,,,,,,,,,,,,,,,,,,,,,,,,,,
1702803101.280284,1702803101.632372,54.000000,0.000000,4175.384766,4141.922852,4270.256348,4220.512695,4123.846191,4116.025879,4222.179688,4123.589844,4112.563965,4129.871582,4604.102539,4439.743652,4351.153809,4519.102539,0.000000,4.000000,75.000000,,,,0.000000,4.000000,4.000000,4.000000,4.000000,4.000000,4.000000,4.000000,4.000000,4.000000,4.000000,4.000000,4.000000,4.000000,4.000000,100.000000,,,,,,,,,,,,,,,,,,,,,,,,,,,,
1702803101.288092,1702803101.640080,55.000000,0.000000,4171.153809,4140.641113,4263.589844,4218.589844,4121.922852,4118.717773,4223.974121,4118.974121,4109.615234,4133.461426,4589.743652,4426.153809,4343.333496,4507.307617,0.000000,4.000000,75.000000,,,,0.000000,4.000000,4.000000,4.000000,4.000000,4.000000,4.000000,4.000000,4.000000,4.000000,4.000000,4.000000,4.000000,4.000000,4.000000,100.000000,,,,,,,,,,,,,,,,,,,,,,,,,,,,
1702803101.295900,1702803101.647888,56.000000,0.000000,4171.282227,4142.563965,4263.333496,4227.692383,4127.307617,4123.205078,4226.538574,4121.666504,4114.358887,4132.307617,4595.256348,4430.384766,4347.692383,4507.563965,0.000000,4.000000,75.000000,,,,0.000000,4.000000,4.000000,4.000000,4.000000,4.000000,4.000000,4.000000,4.000000,4.000000,4.000000,4.000000,4.000000,4.000000,4.000000,100.000000,,,,,,,,,,,,,,,,,14.000000,0.000000,0.712319,0.164368,-0.660889,0.169739,0.993285,0.009767,0.074228,-5.858449,14.645602,97.919556
1702803101.303708,1702803101.655596,57.000000,0.000000,4172.948730,4147.436035,4266.282227,4231.025879,4128.589844,4124.487305,4225.897461,4129.102539,4119.615234,4120.641113,4597.820313,4440.128418,4353.974121,4510.128418,0.000000,4.000000,75.000000,,,,0.000000,4.000000,4.000000,4.000000,4.000000,4.000000,4.000000,4.000000,4.000000,4.000000,4.000000,4.000000,4.000000,4.000000,4.000000,100.000000,,,,,,,,,,,,,,,,,,,,,,,,,,,,
1702803101.311516,1702803101.663504,58.000000,0.000000,4168.333496,4148.589844,4262.307617,4225.512695,4128.717773,4113.077148,4221.410156,4131.025879,4112.436035,4111.410156,4580.641113,4432.179688,4340.384766,4500.512695,0.000000,4.000000,75.000000,,,,0.000000,4.000000,4.000000,4.000000,4.000000,4.000000,4.000000,4.000000,4.000000,4.000000,4.000000,4.000000,4.000000,4.000000,4.000000,100.000000,,,,,,,,,,,,,,,,,,,,,,,,,,,,
1702803101.319324,1702803101.671312,59.000000,0.000000,4173.077148,4154.487305,4265.128418,4234.102539,4130.000000,4112.179688,4221.153809,4135.512695,4114.615234,4124.615234,4591.538574,4431.410156,4342.436035,4505.128418,0.000000,4.000000,75.000000,,,,0.000000,4.000000,4.000000,4.000000,4.000000,4.000000,4.000000,4.000000,4.000000,4.000000,4.000000,4.000000,4.000000,4.000000,4.000000,100.000000,,,,,,,,,,,,,,,,,,,,,,,,,,,,
1702803101.327132,1702803101.679220,60.000000,0.000000,4178.974121,4161.538574,4270.897461,4243.974121,4128.077148,4121.025879,4223.461426,4139.743652,4126.282227,4142.820313,4619.230957,4443.974121,4369.358887,4518.974121,0.000000,4.000000,75.000000,,,,0.000000,4.000000,4.000000,4.000000,4.000000,4.000000,4.000000,4.000000,4.000000,4.000000,4.000000,4.000000,4.000000,4.000000,4.000000,100.000000,,,,,,,,,,,,,,,,,15.000000,0.000000,0.712192,0.164551,-0.661011,0.169617,0.993774,0.005860,0.074716,-5.872604,14.847709,97.894264
1702803101.334940,1702803101.687028,61.000000,0.000000,4176.794922,4163.846191,4271.153809,4241.794922,4130.128418,4123.077148,4223.333496,4135.128418,4128.974121,4144.871582,4619.743652,4449.871582,4383.333496,4521.025879,0.000000,4.000000,75.000000,,,,0.000000,4.000000,4.000000,4.000000,4.000000,4.000000,4.000000,4.000000,4.000000,4.000000,4.000000,4.000000,4.000000,4.000000,4.000000,100.000000,,,,,,,,,,,,,,,,,,,,,,,,,,,,
1702803101.342748,1702803101.694937,62.000000,0.000000,4179.230957,4167.051270,4273.461426,4243.717773,4133.205078,4121.666504,4222.436035,4131.025879,4131.153809,4146.410156,4615.384766,4452.179688,4382.307617,4522.948730,0.000000,4.000000,75.000000,,,,0.000000,4.000000,4.000000,4.000000,4.000000,4.000000,4.000000,4.000000,4.000000,4.000000,4.000000,4.000000,4.000000,4.000000,4.000000,100.000000,,,,,,,,,,,,,,,,,,,,,,,,,,,,
1702803101.350556,1702803101.702745,63.000000,0.000000,4179.615234,4162.820313,4271.538574,4241.282227,4127.051270,4118.717773,4222.820313,4133.717773,4135.897461,4147.307617,4617.179688,4454.102539,4377.948730,4525.512695,0.000000,4.000000,75.000000,,,,0.000000,4.000000,4.000000,4.000000,4.000000,4.000000,4.000000,4.000000,4.000000,4.000000,4.000000,4.000000,4.000000,4.000000,4.000000,100.000000,,,,,,,,,,,,,,,,,,,,,,,,,,,,
1702803101.358364,1702803101.710553,64.000000,0.000000,4177.692383,4153.974121,4270.128418,4236.153809,4116.794922,4119.358887,4222.436035,4141.666504,4139.871582,4150.128418,4617.692383,4457.307617,4378.717773,4525.641113,5190.000000,4.000000,75.000000,,,,0.000000,4.000000,4.000000,4.000000,4.000000,4.000000,4.000000,4.000000,4.000000,4.000000,4.000000,4.000000,4.000000,4.000000,4.000000,100.000000,,,,,,,,,,,,,,,,,16.000000,0.000000,0.712262,0.164551,-0.660889,0.169800,0.990355,-0.004395,0.082530,-5.818677,14.846272,97.888168
1702803101.366173,1702803101.718361,65.000000,0.000000,4179.358887,4154.102539,4272.051270,4238.717773,4123.717773,4122.179688,4220.128418,4139.871582,4133.974121,4151.410156,4617.563965,4451.922852,4378.846191,4522.563965,5394.000000,4.000000,75.000000,,,,0.000000,4.000000,4.000000,4.000000,4.000000,4.000000,4.000000,4.000000,4.000000,4.000000,4.000000,4.000000,4.000000,4.000000,4.000000,100.000000,,,,,,,,,,,,,,,,,,,,,,,,,,,,
1702803101.373981,1702803101.726069,66.000000,0.000000,4177.948730,4159.871582,4270.000000,4242.948730,4143.974121,4131.025879,4220.641113,4125.256348,4113.974121,4138.846191,4610.128418,4436.153809,4370.256348,4513.846191,4776.000000,4.000000,75.000000,,,,0.000000,4.000000,4.000000,4.000000,4.000000,4.000000,4.000000,4.000000,4.000000,4.000000,4.000000,4.000000,4.000000,4.000000,4.000000,100.000000,,,,,,,,,,,,,,,,,,,,,,,,,,,,
1702803101.381789,1702803101.733878,67.000000,0.000000,4175.384766,4156.025879,4267.179688,4238.717773,4141.794922,4141.538574,4224.615234,4115.897461,4100.769043,4126.794922,4592.692383,4429.871582,4358.974121,4509.102539,5262.000000,4.000000,75.000000,,,,0.000000,4.000000,4.000000,4.000000,4.000000,4.000000,4.000000,4.000000,4.000000,4.000000,4.000000,4.000000,4.000000,4.000000,4.000000,100.000000,,,,,,,,,,,,,,,,,,,,,,,,,,,,
1702803101.389597,1702803101.741586,68.000000,0.000000,4176.538574,4142.692383,4266.666504,4226.922852,4127.307617,4133.846191,4225.897461,4120.384766,4106.538574,4125.512695,4587.563965,4437.436035,4356.153809,4515.128418,5085.000000,4.000000,75.000000,,,,0.000000,4.000000,4.000000,4.000000,4.000000,4.000000,4.000000,4.000000,4.000000,4.000000,4.000000,4.000000,4.000000,4.000000,4.000000,100.000000,,,,,,,,,,,,,,,,,17.000000,0.000000,0.712189,0.164551,-0.660889,0.170105,0.997192,0.016115,0.073739,-5.770143,14.878311,97.932686
1702803101.397405,1702803101.749394,69.000000,0.000000,4184.871582,4148.077148,4273.846191,4232.051270,4129.743652,4123.717773,4223.717773,4134.615234,4126.666504,4137.948730,4607.051270,4455.000000,4373.333496,4531.153809,5113.000000,4.000000,75.000000,,,,0.000000,4.000000,4.000000,4.000000,4.000000,4.000000,4.000000,4.000000,4.000000,4.000000,4.000000,4.000000,4.000000,4.000000,4.000000,100.000000,,,,,,,,,,,,,,,,,,,,,,,,,,,,
1702803101.405213,1702803101.757103,70.000000,0.000000,4190.000000,4165.000000,4279.230957,4249.871582,4127.051270,4123.589844,4223.846191,4145.384766,4138.846191,4148.205078,4617.692383,4465.384766,4386.922852,4538.461426,1765.000000,4.000000,75.000000,,,,0.000000,4.000000,4.000000,4.000000,4.000000,4.000000,4.000000,4.000000,4.000000,4.000000,4.000000,4.000000,4.000000,4.000000,4.000000,100.000000,,,,,,,,,,,,,,,,,,,,,,,,,,,,
1702803101.413021,1702803101.764911,71.000000,0.000000,4190.641113,4166.410156,4280.384766,4252.948730,4117.436035,4120.256348,4221.922852,4144.871582,4132.820313,4148.333496,4612.820313,4458.461426,4382.307617,4534.102539,4677.000000,4.000000,75.000000,,,,0.000000,4.000000,4.000000,4.000000,4.000000,4.000000,4.000000,4.000000,4.000000,4.000000,4.000000,4.000000,4.000000,4.000000,4.000000,100.000000,,,,,,,,,,,,,,,,,,,,,,,,,,,,
1702803101.420829,1702803101.772619,72.000000,0.000000,4194.743652,4166.025879,4287.563965,4247.820313,4123.333496,4111.410156,4218.974121,4138.846191,4125.641113,4152.179688,4619.230957,4456.922852,4384.743652,4537.820313,5061.000000,4.000000,75.000000,,,,0.000000,4.000000,4.000000,4.000000,4.000000,4.000000,4.000000,4.000000,4.000000,4.000000,4.000000,4.000000,4.000000,4.000000,4.000000,100.000000,,,,,,,,,,,,,,,,,18.000000,0.000000,0.712276,0.164429,-0.660889,0.169861,0.993285,0.009767,0.066903,-5.859795,15.040480,98.006088
1702803101.428637,1702803101.780527,73.000000,0.000000,4190.128418,4169.487305,4286.153809,4242.307617,4130.641113,4107.820313,4220.000000,4130.128418,4120.000000,4150.384766,4623.974121,4460.769043,4394.743652,4538.974121,5237.000000,4.000000,75.000000,,,,0.000000,4.000000,4.000000,4.000000,4.000000,4.000000,4.000000,4.000000,4.000000,4.000000,4.000000,4.000000,4.000000,4.000000,4.000000,100.000000,,,,,,,,,,,,,,,,,,,,,,,,,,,,
1702803101.436445,1702803101.788336,74.000000,0.000000,4182.307617,4167.692383,4276.410156,4242.692383,4128.717773,4116.282227,4223.717773,4123.077148,4116.410156,4145.769043,4620.641113,4459.743652,4399.743652,4533.333496,5824.000000,4.000000,75.000000,,,,0.000000,4.000000,4.000000,4.000000,4.000000,4.000000,4.000000,4.000000,4.000000,4.000000,4.000000,4.000000,4.000000,4.000000,4.000000,100.000000,,,,,,,,,,,,,,,,,,,,,,,,,,,,
1702803101.444253,1702803101.796244,75.000000,0.000000,4180.897461,4158.846191,4271.794922,4243.461426,4124.487305,4122.692383,4227.307617,4124.230957,4120.128418,4149.102539,4621.538574,4453.077148,4396.794922,4531.153809,5875.000000,4.000000,75.000000,,,,0.000000,4.000000,4.000000,4.000000,4.000000,4.000000,4.000000,4.000000,4.000000,4.000000,4.000000,4.000000,4.000000,4.000000,4.000000,100.000000,,,,,,,,,,,,,,,,,,,,,,,,,,,,
1702803101.452062,1702803101.804052,76.000000,0.000000,4184.358887,4157.051270,4274.102539,4239.871582,4128.846191,4120.384766,4226.922852,4126.025879,4126.282227,4151.538574,4616.538574,4446.410156,4390.641113,4529.358887,6771.000000,4.000000,75.000000,,,,0.000000,4.000000,4.000000,4.000000,4.000000,4.000000,4.000000,4.000000,4.000000,4.000000,4.000000,4.000000,4.000000,4.000000,4.000000,100.000000,,,,,,,,,,,,,,,,,19.000000,0.000000,0.712276,0.164307,-0.660950,0.169739,0.991332,0.028812,0.077158,-5.773816,15.053099,98.038811
1702803101.459870,1702803101.811960,77.000000,0.000000,4189.230957,4168.077148,4277.179688,4243.846191,4133.205078,4121.410156,4225.512695,4124.615234,4128.589844,4151.153809,4605.000000,4447.820313,4388.846191,4529.102539,6853.000000,4.000000,75.000000,,,,0.000000,4.000000,4.000000,4.000000,4.000000,4.000000,4.000000,4.000000,4.000000,4.000000,4.000000,4.000000,4.000000,4.000000,4.000000,100.000000,,,,,,,,,,,,,,,,,,,,,,,,,,,,
1702803101.467678,1702803101.819768,78.000000,0.000000,4181.794922,4162.563965,4270.384766,4242.179688,4126.666504,4119.230957,4223.333496,4121.282227,4118.589844,4140.897461,4598.333496,4440.128418,4379.102539,4522.436035,5824.000000,4.000000,75.000000,,,,0.000000,4.000000,4.000000,4.000000,4.000000,4.000000,4.000000,4.000000,4.000000,4.000000,4.000000,4.000000,4.000000,4.000000,4.000000,100.000000,,,,,,,,,,,,,,,,,,,,,,,,,,,,
1702803101.475486,1702803101.827676,79.000000,0.000000,4175.384766,4147.436035,4263.205078,4229.615234,4126.410156,4114.487305,4221.666504,4118.974121,4106.282227,4127.179688,4593.846191,4428.717773,4366.794922,4516.025879,5875.000000,4.000000,75.000000,,,,0.000000,4.000000,4.000000,4.000000,4.000000,4.000000,4.000000,4.000000,4.000000,4.000000,4.000000,4.000000,4.000000,4.000000,4.000000,100.000000,,,,,,,,,,,,,,,,,,,,,,,,,,,,
1702803101.483294,1702803101.835485,80.000000,0.000000,4180.384766,4145.897461,4264.102539,4224.871582,4131.922852,4118.717773,4224.743652,4118.589844,4106.538574,4123.205078,4585.641113,4432.307617,4365.000000,4519.743652,6771.000000,4.000000,75.000000,,,,0.000000,4.000000,4.000000,4.000000,4.000000,4.000000,4.000000,4.000000,4.000000,4.000000,4.000000,4.000000,4.000000,4.000000,4.000000,100.000000,,,,,,,,,,,,,,,,,20.000000,0.000000,0.712163,0.164246,-0.661072,0.169800,1.000122,0.021487,0.070321,-5.729767,15.031122,98.018265
1702803101.491102,1702803101.843393,81.000000,0.000000,4179.102539,4145.000000,4263.846191,4225.256348,4128.333496,4123.589844,4225.256348,4125.897461,4114.743652,4123.974121,4585.128418,4440.769043,4368.589844,4522.820313,6853.000000,4.000000,75.000000,,,,0.000000,4.000000,4.000000,4.000000,4.000000,4.000000,4.000000,4.000000,4.000000,4.000000,4.000000,4.000000,4.000000,4.000000,4.000000,100.000000,,,,,,,,,,,,,,,,,,,,,,,,,,,,
1702803101.498910,1702803101.851201,82.000000,0.000000,4177.051270,4144.871582,4267.948730,4226.922852,4120.769043,4125.000000,4225.512695,4139.102539,4125.384766,4133.846191,4605.384766,4450.000000,4378.205078,4527.436035,5824.000000,4.000000,75.000000,,,,0.000000,4.000000,4.000000,4.000000,4.000000,4.000000,4.000000,4.000000,4.000000,4.000000,4.000000,4.000000,4.000000,4.000000,4.000000,100.000000,,,,,,,,,,,,,,,,,,,,,,,,,,,,
1702803101.506718,1702803101.859109,83.000000,0.000000,4178.589844,4149.487305,4272.948730,4230.512695,4120.000000,4120.897461,4230.000000,4141.410156,4133.205078,4142.179688,4610.897461,4453.589844,4383.974121,4530.384766,5875.000000,4.000000,75.000000,,,,0.000000,4.000000,4.000000,4.000000,4.000000,4.000000,4.000000,4.000000,4.000000,4.000000,4.000000,4.000000,4.000000,4.000000,4.000000,100.000000,,,,,,,,,,,,,,,,,,,,,,,,,,,,
1702803101.514526,1702803101.866917,84.000000,0.000000,4183.077148,4155.897461,4272.563965,4236.922852,4126.025879,4114.102539,4232.307617,4138.077148,4138.205078,4145.384766,4607.051270,4453.589844,4389.743652,4532.820313,6771.000000,4.000000,75.000000,,,,0.000000,4.000000,4.000000,4.000000,4.000000,4.000000,4.000000,4.000000,4.000000,4.000000,4.000000,4.000000,4.000000,4.000000,4.000000,100.000000,,,,,,,,,,,,,,,,,21.000000,0.000000,0.712120,0.164368,-0.661072,0.169861,1.001587,0.013674,0.068368,-5.723457,15.078010,98.149773
1702803101.522334,1702803101.874825,85.000000,0.000000,4188.077148,4158.974121,4274.358887,4239.743652,4129.615234,4116.153809,4228.846191,4140.384766,4138.717773,4152.820313,4619.487305,4454.102539,4395.384766,4534.743652,6853.000000,4.000000,75.000000,,,,0.000000,4.000000,4.000000,4.000000,4.000000,4.000000,4.000000,4.000000,4.000000,4.000000,4.000000,4.000000,4.000000,4.000000,4.000000,100.000000,,,,,,,,,,,,,,,,,,,,,,,,,,,,
1702803101.530142,1702803101.882633,86.000000,0.000000,4180.769043,4152.307617,4270.769043,4230.384766,4129.102539,4117.820313,4225.769043,4135.769043,4128.589844,4154.230957,4619.358887,4448.205078,4393.461426,4530.256348,5824.000000,4.000000,75.000000,,,,0.000000,4.000000,4.000000,4.000000,4.000000,4.000000,4.000000,4.000000,4.000000,4.000000,4.000000,4.000000,4.000000,4.000000,4.000000,100.000000,,,,,,,,,,,,,,,,,,,,,,,,,,,,
1702803101.537950,1702803101.890542,87.000000,0.000000,4175.897461,4153.205078,4264.230957,4226.922852,4129.102539,4119.230957,4226.410156,4125.384766,4122.820313,4148.461426,4604.743652,4445.000000,4393.974121,4534.871582,5875.000000,4.000000,75.000000,,,,0.000000,4.000000,4.000000,4.000000,4.000000,4.000000,4.000000,4.000000,4.000000,4.000000,4.000000,4.000000,4.000000,4.000000,4.000000,100.000000,,,,,,,,,,,,,,,,,,,,,,,,,,,,
1702803101.545758,1702803101.898350,88.000000,0.000000,4171.153809,4151.410156,4258.974121,4227.307617,4126.025879,4122.692383,4224.358887,4117.692383,4119.358887,4135.256348,4585.256348,4432.820313,4363.974121,4520.512695,6771.000000,4.000000,75.000000,,,,0.000000,4.000000,4.000000,4.000000,4.000000,4.000000,4.000000,4.000000,4.000000,4.000000,4.000000,4.000000,4.000000,4.000000,4.000000,100.000000,,,,,,,,,,,,,,,,,22.000000,0.000000,0.712063,0.164551,-0.661072,0.169922,0.977170,0.008302,0.073251,-5.784445,15.170209,98.251457
1702803101.553567,1702803101.906058,89.000000,0.000000,4159.743652,4137.436035,4251.410156,4218.974121,4124.230957,4120.769043,4222.692383,4113.846191,4111.794922,4126.282227,4572.948730,4417.948730,4333.974121,4493.846191,6853.000000,4.000000,75.000000,,,,0.000000,4.000000,4.000000,4.000000,4.000000,4.000000,4.000000,4.000000,4.000000,4.000000,4.000000,4.000000,4.000000,4.000000,4.000000,100.000000,,,,,,,,,,,,,,,,,,,,,,,,,,,,
1702803101.561375,1702803101.913966,90.000000,0.000000,4162.436035,4134.487305,4251.794922,4217.051270,4125.256348,4117.692383,4226.153809,4120.256348,4114.615234,4129.615234,4582.948730,4432.820313,4373.205078,4514.871582,5824.000000,4.000000,75.000000,,,,0.000000,4.000000,4.000000,4.000000,4.000000,4.000000,4.000000,4.000000,4.000000,4.000000,4.000000,4.000000,4.000000,4.000000,4.000000,100.000000,1.000000,100.000000,4.000000,4.000000,4.000000,4.000000,4.000000,4.000000,4.000000,4.000000,4.000000,4.000000,4.000000,4.000000,4.000000,4.000000,,,,,,,,,,,,
1702803101.569183,1702803101.921775,91.000000,0.000000,4170.128418,4140.512695,4256.410156,4218.589844,4121.025879,4116.153809,4228.461426,4132.436035,4118.846191,4138.333496,4603.717773,4453.717773,4422.436035,4553.205078,5875.000000,4.000000,75.000000,,,,0.000000,4.000000,4.000000,4.000000,4.000000,4.000000,4.000000,4.000000,4.000000,4.000000,4.000000,4.000000,4.000000,4.000000,4.000000,100.000000,,,,,,,,,,,,,,,,,,,,,,,,,,,,
1702803101.576991,1702803101.929583,92.000000,0.000000,4168.717773,4140.000000,4259.871582,4219.230957,4114.871582,4115.128418,4229.871582,4142.179688,4121.538574,4147.051270,4619.487305,4459.871582,4426.025879,4556.153809,6771.000000,4.000000,75.000000,,,,0.000000,4.000000,4.000000,4.000000,4.000000,4.000000,4.000000,4.000000,4.000000,4.000000,4.000000,4.000000,4.000000,4.000000,4.000000,100.000000,,,,,,,,,,,,,,,,,23.000000,0.000000,0.711992,0.164612,-0.661133,0.169922,0.989379,0.015627,0.061531,-5.922667,15.086521,98.292976
1702803101.584799,1702803101.937292,93.000000,0.000000,4165.897461,4129.102539,4262.436035,4218.589844,4112.948730,4108.974121,4231.538574,4149.615234,4130.384766,4147.563965,4629.230957,4470.512695,4428.846191,4554.871582,6853.000000,4.000000,75.000000,,,,0.000000,4.000000,4.000000,4.000000,4.000000,4.000000,4.000000,4.000000,4.000000,4.000000,4.000000,4.000000,4.000000,4.000000,4.000000,100.000000,,,,,,,,,,,,,,,,,,,,,,,,,,,,
1702803101.592607,1702803101.945100,94.000000,0.000000,4168.461426,4125.128418,4267.563965,4219.102539,4116.153809,4106.922852,4228.461426,4154.743652,4137.563965,4145.256348,4631.794922,4482.692383,4440.641113,4568.589844,5824.000000,4.000000,75.000000,,,,0.000000,4.000000,4.000000,4.000000,4.000000,4.000000,4.000000,4.000000,4.000000,4.000000,4.000000,4.000000,4.000000,4.000000,4.000000,100.000000,,,,,,,,,,,,,,,,,,,,,,,,,,,,
1702803101.600415,1702803101.952808,95.000000,0.000000,4175.384766,4136.666504,4273.717773,4223.461426,4121.794922,4112.948730,4224.230957,4151.794922,4137.436035,4150.769043,4630.512695,4482.436035,4439.230957,4572.563965,5875.000000,4.000000,75.000000,,,,0.000000,4.000000,4.000000,4.000000,4.000000,4.000000,4.000000,4.000000,4.000000,4.000000,4.000000,4.000000,4.000000,4.000000,4.000000,100.000000,,,,,,,,,,,,,,,,,,,,,,,,,,,,
1702803101.608223,1702803101.960616,96.000000,0.000000,4180.000000,4141.794922,4273.974121,4222.563965,4125.897461,4112.692383,4222.563965,4136.538574,4133.589844,4156.410156,4634.487305,4477.948730,4438.974121,4567.820313,6771.000000,4.000000,75.000000,,,,0.000000,4.000000,4.000000,4.000000,4.000000,4.000000,4.000000,4.000000,4.000000,4.000000,4.000000,4.000000,4.000000,4.000000,4.000000,100.000000,,,,,,,,,,,,,,,,,24.000000,0.000000,0.711993,0.164734,-0.661133,0.169800,0.989867,0.008302,0.074228,-5.997067,15.177869,98.247017
1702803101.616031,1702803101.968325,97.000000,0.000000,4178.717773,4137.179688,4276.153809,4219.487305,4129.487305,4115.256348,4224.230957,4128.589844,4134.358887,4158.717773,4632.051270,4478.717773,4441.410156,4568.846191,6853.000000,4.000000,75.000000,,,,0.000000,4.000000,4.000000,4.000000,4.000000,4.000000,4.000000,4.000000,4.000000,4.000000,4.000000,4.000000,4.000000,4.000000,4.000000,100.000000,,,,,,,,,,,,,,,,,,,,,,,,,,,,
1702803101.623839,1702803101.976133,98.000000,0.000000,4171.538574,4133.589844,4275.128418,4218.589844,4129.615234,4118.333496,4227.051270,4131.922852,4136.282227,4153.205078,4616.282227,4473.077148,4431.153809,4563.846191,5824.000000,4.000000,75.000000,,,,0.000000,4.000000,4.000000,4.000000,4.000000,4.000000,4.000000,4.000000,4.000000,4.000000,4.000000,4.000000,4.000000,4.000000,4.000000,100.000000,,,,,,,,,,,,,,,,,,,,,,,,,,,,
1702803101.631647,1702803101.983841,99.000000,0.000000,4169.358887,4133.846191,4270.000000,4220.384766,4120.769043,4109.487305,4226.922852,4131.922852,4129.871582,4143.333496,4610.641113,4465.512695,4420.384766,4554.743652,5875.000000,4.000000,75.000000,,,,0.000000,4.000000,4.000000,4.000000,4.000000,4.000000,4.000000,4.000000,4.000000,4.000000,4.000000,4.000000,4.000000,4.000000,4.000000,100.000000,,,,,,,,,,,,,,,,,,,,,,,,,,,,
1702803101.639455,1702803101.991649,100.000000,0.000000,4175.384766,4138.589844,4273.717773,4224.358887,4117.051270,4107.820313,4223.717773,4131.025879,4122.307617,4139.230957,4618.974121,4469.230957,4419.743652,4556.410156,6771.000000,4.000000,75.000000,,,,0.000000,4.000000,4.000000,4.000000,4.000000,4.000000,4.000000,4.000000,4.000000,4.000000,4.000000,4.000000,4.000000,4.000000,4.000000,100.000000,,,,,,,,,,,,,,,,,25.000000,0.000000,0.711965,0.164673,-0.661194,0.169739,1.000610,0.007813,0.074228,-5.997360,15.243416,98.222313
1702803101.647263,1702803101.999357,101.000000,0.000000,4172.179688,4137.436035,4269.871582,4221.666504,4128.461426,4117.307617,4222.307617,4128.077148,4112.948730,4131.410156,4606.410156,4462.051270,4412.692383,4548.589844,6853.000000,4.000000,75.000000,,,,0.000000,4.000000,4.000000,4.000000,4.000000,4.000000,4.000000,4.000000,4.000000,4.000000,4.000000,4.000000,4.000000,4.000000,4.000000,100.000000,,,,,,,,,,,,,,,,,,,,,,,,,,,,
1702803101.655072,1702803102.007165,102.000000,0.000000,4165.000000,4127.563965,4256.922852,4217.436035,4132.563965,4128.974121,4230.512695,4130.128418,4107.436035,4127.179688,4590.000000,4449.743652,4405.128418,4534.230957,5824.000000,4.000000,75.000000,,,,0.000000,4.000000,4.000000,4.000000,4.000000,4.000000,4.000000,4.000000,4.000000,4.000000,4.000000,4.000000,4.000000,4.000000,4.000000,100.000000,,,,,,,,,,,,,,,,,,,,,,,,,,,,
1702803101.662880,1702803102.014873,103.000000,0.000000,4161.410156,4117.563965,4253.205078,4210.128418,4120.000000,4134.743652,4237.692383,4137.820313,4113.461426,4133.589844,4598.846191,4448.717773,4405.512695,4534.102539,5875.000000,4.000000,75.000000,,,,0.000000,4.000000,4.000000,4.000000,4.000000,4.000000,4.000000,4.000000,4.000000,4.000000,4.000000,4.000000,4.000000,4.000000,4.000000,100.000000,,,,,,,,,,,,,,,,,,,,,,,,,,,,
1702803101.670688,1702803102.022781,104.000000,0.000000,4154.487305,4112.948730,4253.205078,4199.230957,4116.025879,4124.871582,4233.846191,4136.282227,4116.922852,4129.871582,4598.205078,4443.846191,4402.948730,4533.717773,6771.000000,4.000000,75.000000,,,,0.000000,4.000000,4.000000,4.000000,4.000000,4.000000,4.000000,4.000000,4.000000,4.000000,4.000000,4.000000,4.000000,4.000000,4.000000,100.000000,,,,,,,,,,,,,,,,,26.000000,0.000000,0.711965,0.164673,-0.661194,0.169739,0.984984,0.011232,0.071298,-5.897624,15.202407,98.266747
1702803101.678496,1702803102.030589,105.000000,0.000000,4160.128418,4122.820313,4259.358887,4208.461426,4118.846191,4114.102539,4230.256348,4135.512695,4120.256348,4132.563965,4596.538574,4448.846191,4411.153809,4538.974121,6853.000000,4.000000,75.000000,,,,0.000000,4.000000,4.000000,4.000000,4.000000,4.000000,4.000000,4.000000,4.000000,4.000000,4.000000,4.000000,4.000000,4.000000,4.000000,100.000000,,,,,,,,,,,,,,,,,,,,,,,,,,,,
1702803101.686304,1702803102.038497,106.000000,0.000000,4173.717773,4138.717773,4270.384766,4226.538574,4119.871582,4109.615234,4231.025879,4141.794922,4134.871582,4148.333496,4617.179688,4469.358887,4428.846191,4555.256348,5824.000000,4.000000,75.000000,,,,0.000000,4.000000,4.000000,4.000000,4.000000,4.000000,4.000000,4.000000,4.000000,4.000000,4.000000,4.000000,4.000000,4.000000,4.000000,100.000000,,,,,,,,,,,,,,,,,,,,,,,,,,,,
1702803101.694112,1702803102.046306,107.000000,0.000000,4176.410156,4144.230957,4275.000000,4230.000000,4127.307617,4107.820313,4228.974121,4147.948730,4151.025879,4157.563965,4633.589844,4483.205078,4437.179688,4566.282227,5875.000000,4.000000,75.000000,,,,0.000000,4.000000,4.000000,4.000000,4.000000,4.000000,4.000000,4.000000,4.000000,4.000000,4.000000,4.000000,4.000000,4.000000,4.000000,100.000000,,,,,,,,,,,,,,,,,,,,,,,,,,,,
1702803101.701920,1702803102.054214,108.000000,0.000000,4171.794922,4141.666504,4271.922852,4226.666504,4127.948730,4109.743652,4222.179688,4147.436035,4152.051270,4159.487305,4628.717773,4477.307617,4435.256348,4562.051270,6771.000000,4.000000,75.000000,,,,0.000000,4.000000,4.000000,4.000000,4.000000,4.000000,4.000000,4.000000,4.000000,4.000000,4.000000,4.000000,4.000000,4.000000,4.000000,100.000000,,,,,,,,,,,,,,,,,27.000000,0.000000,0.712035,0.164551,-0.661133,0.169800,0.987425,0.016604,0.071786,-6.007862,15.182167,98.290077
1702803101.709728,1702803102.062022,109.000000,0.000000,4171.538574,4138.461426,4269.487305,4225.384766,4125.769043,4110.128418,4217.692383,4139.358887,4141.922852,4151.666504,4615.641113,4462.948730,4427.692383,4550.128418,6853.000000,4.000000,75.000000,,,,0.000000,4.000000,4.000000,4.000000,4.000000,4.000000,4.000000,4.000000,4.000000,4.000000,4.000000,4.000000,4.000000,4.000000,4.000000,100.000000,,,,,,,,,,,,,,,,,,,,,,,,,,,,
1702803101.717536,1702803102.069930,110.000000,0.000000,4178.717773,4144.487305,4280.000000,4230.128418,4131.025879,4112.179688,4220.256348,4139.102539,4146.025879,4148.974121,4622.563965,4469.871582,4429.487305,4552.307617,5824.000000,4.000000,75.000000,,,,0.000000,4.000000,4.000000,4.000000,4.000000,4.000000,4.000000,4.000000,4.000000,4.000000,4.000000,4.000000,4.000000,4.000000,4.000000,100.000000,,,,,,,,,,,,,,,,,,,,,,,,,,,,
1702803101.725344,1702803102.077738,111.000000,0.000000,4179.358887,4146.794922,4283.205078,4231.410156,4125.128418,4113.974121,4224.358887,4147.436035,4151.025879,4159.230957,4630.897461,4481.410156,4435.897461,4559.615234,5875.000000,4.000000,75.000000,,,,0.000000,4.000000,4.000000,4.000000,4.000000,4.000000,4.000000,4.000000,4.000000,4.000000,4.000000,4.000000,4.000000,4.000000,4.000000,100.000000,,,,,,,,,,,,,,,,,,,,,,,,,,,,
1702803101.733152,1702803102.085646,112.000000,0.000000,4167.948730,4129.615234,4266.538574,4218.717773,4113.589844,4113.461426,4229.615234,4148.077148,4137.563965,4149.102539,4610.000000,4468.974121,4423.717773,4547.179688,6771.000000,4.000000,75.000000,,,,0.000000,4.000000,4.000000,4.000000,4.000000,4.000000,4.000000,4.000000,4.000000,4.000000,4.000000,4.000000,4.000000,4.000000,4.000000,100.000000,,,,,,,,,,,,,,,,,28.000000,0.000000,0.712020,0.164490,-0.661133,0.169922,0.995727,0.018557,0.079600,-6.040409,15.097283,98.377731
1702803101.740960,1702803102.093455,113.000000,0.000000,4155.256348,4112.948730,4257.051270,4203.205078,4110.897461,4119.743652,4239.230957,4143.974121,4122.436035,4120.897461,4586.410156,4449.102539,4400.256348,4525.000000,6853.000000,4.000000,75.000000,,,,0.000000,4.000000,4.000000,4.000000,4.000000,4.000000,4.000000,4.000000,4.000000,4.000000,4.000000,4.000000,4.000000,4.000000,4.000000,100.000000,,,,,,,,,,,,,,,,,,,,,,,,,,,,
1702803101.748768,1702803102.101263,114.000000,0.000000,4145.256348,4106.922852,4255.128418,4193.974121,4110.897461,4127.179688,4244.102539,4143.333496,4114.871582,4108.333496,4580.641113,4439.871582,4387.051270,4515.384766,5824.000000,4.000000,75.000000,,,,0.000000,4.000000,4.000000,4.000000,4.000000,4.000000,4.000000,4.000000,4.000000,4.000000,4.000000,4.000000,4.000000,4.000000,4.000000,100.000000,,,,,,,,,,,,,,,,,,,,,,,,,,,,
1702803101.756576,1702803102.109071,115.000000,0.000000,4144.230957,4108.461426,4248.717773,4196.922852,4116.410156,4123.974121,4240.641113,4140.128418,4116.794922,4115.384766,4582.820313,4439.615234,4392.563965,4519.230957,5875.000000,4.000000,75.000000,,,,0.000000,4.000000,4.000000,4.000000,4.000000,4.000000,4.000000,4.000000,4.000000,4.000000,4.000000,4.000000,4.000000,4.000000,4.000000,100.000000,,,,,,,,,,,,,,,,,,,,,,,,,,,,
1702803101.764385,1702803102.116779,116.000000,0.000000,4153.589844,4117.948730,4248.205078,4208.205078,4124.487305,4116.025879,4235.384766,4136.538574,4127.307617,4129.743652,4588.205078,4443.589844,4406.153809,4527.820313,6771.000000,4.000000,75.000000,,,,0.000000,4.000000,4.000000,4.000000,4.000000,4.000000,4.000000,4.000000,4.000000,4.000000,4.000000,4.000000,4.000000,4.000000,4.000000,100.000000,,,,,,,,,,,,,,,,,29.000000,0.000000,0.712105,0.164490,-0.661011,0.170044,0.976682,0.005860,0.076670,-6.036368,15.137555,98.306625
1702803101.772193,1702803102.124588,117.000000,0.000000,4163.461426,4129.230957,4262.051270,4216.153809,4124.743652,4116.410156,4230.641113,4142.820313,4139.615234,4143.333496,4597.692383,4452.563965,4415.000000,4539.358887,6853.000000,4.000000,75.000000,,,,0.000000,4.000000,4.000000,4.000000,4.000000,4.000000,4.000000,4.000000,4.000000,4.000000,4.000000,4.000000,4.000000,4.000000,4.000000,100.000000,,,,,,,,,,,,,,,,,,,,,,,,,,,,
1702803101.780001,1702803102.132296,118.000000,0.000000,4171.410156,4139.230957,4275.384766,4220.384766,4121.922852,4119.487305,4231.666504,4154.230957,4147.051270,4145.769043,4604.230957,4465.256348,4417.436035,4547.692383,5824.000000,4.000000,75.000000,,,,0.000000,4.000000,4.000000,4.000000,4.000000,4.000000,4.000000,4.000000,4.000000,4.000000,4.000000,4.000000,4.000000,4.000000,4.000000,100.000000,,,,,,,,,,,,,,,,,,,,,,,,,,,,
1702803101.787809,1702803102.140104,119.000000,0.000000,4174.487305,4143.974121,4276.794922,4222.563965,4124.358887,4111.153809,4234.871582,4153.205078,4143.589844,4134.743652,4602.692383,4467.307617,4410.769043,4540.769043,5875.000000,4.000000,75.000000,,,,0.000000,4.000000,4.000000,4.000000,4.000000,4.000000,4.000000,4.000000,4.000000,4.000000,4.000000,4.000000,4.000000,4.000000,4.000000,100.000000,,,,,,,,,,,,,,,,,,,,,,,,,,,,
1702803101.795617,1702803102.147812,120.000000,0.000000,4175.000000,4143.589844,4275.641113,4226.282227,4135.256348,4109.871582,4232.948730,4144.102539,4137.436035,4132.820313,4608.846191,4464.230957,4410.128418,4535.512695,6771.000000,4.000000,75.000000,,,,0.000000,4.000000,4.000000,4.000000,4.000000,4.000000,4.000000,4.000000,4.000000,4.000000,4.000000,4.000000,4.000000,4.000000,4.000000,100.000000,,,,,,,,,,,,,,,,,30.000000,0.000000,0.712119,0.164490,-0.661011,0.169983,0.998657,0.007813,0.082530,-6.066065,15.190466,98.225967
1702803101.803425,1702803102.155621,121.000000,0.000000,4175.512695,4140.000000,4277.563965,4226.666504,4141.282227,4121.538574,4230.256348,4137.436035,4139.871582,4142.948730,4618.205078,4471.538574,4422.948730,4543.333496,6853.000000,4.000000,75.000000,,,,0.000000,4.000000,4.000000,4.000000,4.000000,4.000000,4.000000,4.000000,4.000000,4.000000,4.000000,4.000000,4.000000,4.000000,4.000000,100.000000,,,,,,,,,,,,,,,,,,,,,,,,,,,,
1702803101.811233,1702803102.163329,122.000000,0.000000,4172.051270,4138.461426,4275.897461,4220.769043,4137.692383,4125.897461,4230.769043,4137.307617,4145.512695,4145.000000,4615.769043,4473.589844,4428.974121,4545.128418,5824.000000,4.000000,75.000000,,,,0.000000,4.000000,4.000000,4.000000,4.000000,4.000000,4.000000,4.000000,4.000000,4.000000,4.000000,4.000000,4.000000,4.000000,4.000000,100.000000,,,,,,,,,,,,,,,,,,,,,,,,,,,,
1702803101.819041,1702803102.171137,123.000000,0.000000,4169.230957,4139.487305,4271.410156,4224.743652,4133.589844,4121.025879,4231.410156,4145.128418,4144.358887,4142.179688,4609.615234,4462.051270,4422.436035,4537.820313,5875.000000,4.000000,75.000000,,,,0.000000,4.000000,4.000000,4.000000,4.000000,4.000000,4.000000,4.000000,4.000000,4.000000,4.000000,4.000000,4.000000,4.000000,4.000000,100.000000,,,,,,,,,,,,,,,,,,,,,,,,,,,,
1702803101.826849,1702803102.178845,124.000000,0.000000,4163.205078,4131.282227,4264.743652,4224.615234,4127.307617,4116.025879,4233.333496,4145.769043,4129.358887,4129.487305,4594.102539,4446.538574,4410.897461,4528.205078,6771.000000,4.000000,75.000000,,,,0.000000,4.000000,4.000000,4.000000,4.000000,4.000000,4.000000,4.000000,4.000000,4.000000,4.000000,4.000000,4.000000,4.000000,4.000000,100.000000,,,,,,,,,,,,,,,,,31.000000,0.000000,0.712135,0.164612,-0.661011,0.169800,0.989379,0.018557,0.079111,-5.976125,15.221419,98.253365
