title:محمد نعم, start timestamp:1703414855.162482, stop timestamp:1703414866.093752, headset type:EPOCX, headset serial:E50206EF, headset firmware:720, channels:67, sampling rate:eeg_128;mot_32, samples:1401      , version:2.2, 
Timestamp,OriginalTimestamp,EEG.Counter,EEG.Interpolated,EEG.AF3,EEG.F7,EEG.F3,EEG.FC5,EEG.T7,EEG.P7,EEG.O1,EEG.O2,EEG.P8,EEG.T8,EEG.FC6,EEG.F4,EEG.F8,EEG.AF4,EEG.RawCq,EEG.Battery,EEG.BatteryPercent,MarkerIndex,MarkerType,MarkerValueInt,EEG.MarkerHardware,CQ.AF3,CQ.F7,CQ.F3,CQ.FC5,CQ.T7,CQ.P7,CQ.O1,CQ.O2,CQ.P8,CQ.T8,CQ.FC6,CQ.F4,CQ.F8,CQ.AF4,CQ.Overall,EQ.SampleRateQuality,EQ.OVERALL,EQ.AF3,EQ.F7,EQ.F3,EQ.FC5,EQ.T7,EQ.P7,EQ.O1,EQ.O2,EQ.P8,EQ.T8,EQ.FC6,EQ.F4,EQ.F8,EQ.AF4,MOT.CounterMems,MOT.InterpolatedMems,MOT.Q0,MOT.Q1,MOT.Q2,MOT.Q3,MOT.AccX,MOT.AccY,MOT.AccZ,MOT.MagX,MOT.MagY,MOT.MagZ
1703414855.162482,1703415054.728589,38.000000,0.000000,4342.692383,4250.897461,4342.563965,4297.948730,4238.077148,4130.641113,4212.563965,4237.563965,4230.384766,4202.436035,4570.641113,4500.000000,4414.358887,4555.384766,0.000000,3.000000,55.000000,,,,0.000000,4.000000,4.000000,4.000000,4.000000,4.000000,4.000000,4.000000,4.000000,4.000000,4.000000,4.000000,4.000000,4.000000,4.000000,100.000000,,,,,,,,,,,,,,,,,,,,,,,,,,,,
1703414855.170290,1703415054.736297,39.000000,0.000000,4341.025879,4250.256348,4343.333496,4283.461426,4235.641113,4143.333496,4213.205078,4237.820313,4229.358887,4209.487305,4575.256348,4504.743652,4398.077148,4549.487305,0.000000,3.000000,55.000000,,,,0.000000,4.000000,4.000000,4.000000,4.000000,4.000000,4.000000,4.000000,4.000000,4.000000,4.000000,4.000000,4.000000,4.000000,4.000000,100.000000,,,,,,,,,,,,,,,,,,,,,,,,,,,,
1703414855.178098,1703415054.744105,40.000000,0.000000,4325.384766,4240.128418,4331.538574,4263.717773,4230.641113,4145.384766,4213.846191,4238.461426,4224.102539,4203.846191,4567.820313,4495.512695,4390.384766,4521.922852,0.000000,3.000000,55.000000,,,,0.000000,4.000000,4.000000,4.000000,4.000000,4.000000,4.000000,4.000000,4.000000,4.000000,4.000000,4.000000,4.000000,4.000000,4.000000,100.000000,,,,,,,,,,,,,,,,,10.000000,0.000000,0.710859,0.182800,-0.633789,0.244080,1.005494,-0.043462,0.129410,-15.921894,-39.785408,66.772156
1703414855.185906,1703415054.751813,41.000000,0.000000,4313.461426,4231.666504,4324.230957,4259.358887,4230.512695,4141.794922,4212.948730,4231.153809,4215.769043,4193.077148,4550.128418,4474.230957,4374.230957,4505.000000,0.000000,3.000000,55.000000,,,,0.000000,4.000000,4.000000,4.000000,4.000000,4.000000,4.000000,4.000000,4.000000,4.000000,4.000000,4.000000,4.000000,4.000000,4.000000,100.000000,,,,,,,,,,,,,,,,,,,,,,,,,,,,
1703414855.193714,1703415054.759621,42.000000,0.000000,4306.410156,4232.948730,4327.179688,4262.307617,4230.128418,4141.538574,4213.077148,4230.384766,4216.666504,4193.333496,4549.615234,4467.948730,4363.333496,4519.871582,0.000000,3.000000,55.000000,,,,0.000000,4.000000,4.000000,4.000000,4.000000,4.000000,4.000000,4.000000,4.000000,4.000000,4.000000,4.000000,4.000000,4.000000,4.000000,100.000000,,,,,,,,,,,,,,,,,,,,,,,,,,,,
1703414855.201522,1703415054.767330,43.000000,0.000000,4292.563965,4233.205078,4325.769043,4259.358887,4228.974121,4141.025879,4214.358887,4239.102539,4224.743652,4200.512695,4557.563965,4473.077148,4367.307617,4528.589844,0.000000,3.000000,55.000000,,,,0.000000,4.000000,4.000000,4.000000,4.000000,4.000000,4.000000,4.000000,4.000000,4.000000,4.000000,4.000000,4.000000,4.000000,4.000000,100.000000,,,,,,,,,,,,,,,,,,,,,,,,,,,,
1703414855.209330,1703415054.775238,44.000000,0.000000,4284.743652,4234.230957,4323.974121,4264.871582,4238.461426,4139.615234,4214.230957,4245.897461,4229.487305,4205.512695,4560.641113,4477.436035,4365.128418,4519.102539,0.000000,3.000000,55.000000,,,,0.000000,4.000000,4.000000,4.000000,4.000000,4.000000,4.000000,4.000000,4.000000,4.000000,4.000000,4.000000,4.000000,4.000000,4.000000,100.000000,,,,,,,,,,,,,,,,,11.000000,0.000000,0.710807,0.182922,-0.633789,0.244141,0.991332,-0.064949,0.114760,-15.879704,-39.840199,66.644936
1703414855.217138,1703415054.783046,45.000000,0.000000,4288.205078,4242.820313,4330.000000,4277.948730,4244.358887,4138.077148,4214.102539,4246.153809,4231.538574,4213.717773,4564.102539,4483.461426,4361.410156,4517.179688,0.000000,3.000000,55.000000,,,,0.000000,4.000000,4.000000,4.000000,4.000000,4.000000,4.000000,4.000000,4.000000,4.000000,4.000000,4.000000,4.000000,4.000000,4.000000,100.000000,,,,,,,,,,,,,,,,,,,,,,,,,,,,
1703414855.224946,1703415054.790954,46.000000,0.000000,4290.512695,4248.974121,4332.948730,4278.205078,4244.743652,4136.410156,4216.538574,4244.871582,4236.666504,4219.102539,4569.615234,4486.410156,4370.000000,4521.538574,0.000000,3.000000,55.000000,,,,0.000000,4.000000,4.000000,4.000000,4.000000,4.000000,4.000000,4.000000,4.000000,4.000000,4.000000,4.000000,4.000000,4.000000,4.000000,100.000000,,,,,,,,,,,,,,,,,,,,,,,,,,,,
1703414855.232755,1703415054.798762,47.000000,0.000000,4290.769043,4247.307617,4334.102539,4275.512695,4243.974121,4138.461426,4216.025879,4252.820313,4247.563965,4216.538574,4574.871582,4496.794922,4380.769043,4523.333496,0.000000,3.000000,55.000000,,,,0.000000,4.000000,4.000000,4.000000,4.000000,4.000000,4.000000,4.000000,4.000000,4.000000,4.000000,4.000000,4.000000,4.000000,4.000000,100.000000,,,,,,,,,,,,,,,,,,,,,,,,,,,,
1703414855.240563,1703415054.806670,48.000000,0.000000,4293.205078,4249.615234,4343.589844,4286.153809,4237.820313,4139.615234,4214.871582,4260.769043,4252.948730,4221.025879,4584.615234,4514.358887,4383.461426,4526.282227,0.000000,3.000000,55.000000,,,,0.000000,4.000000,4.000000,4.000000,4.000000,4.000000,4.000000,4.000000,4.000000,4.000000,4.000000,4.000000,4.000000,4.000000,4.000000,100.000000,,,,,,,,,,,,,,,,,12.000000,0.000000,0.710793,0.183105,-0.633728,0.244202,0.984007,-0.057624,0.124527,-15.908401,-40.039513,66.630447
1703414855.248371,1703415054.814478,49.000000,0.000000,4292.948730,4252.948730,4344.487305,4291.794922,4239.615234,4134.230957,4216.794922,4256.153809,4251.922852,4225.769043,4590.512695,4509.743652,4381.282227,4523.846191,0.000000,3.000000,55.000000,,,,0.000000,4.000000,4.000000,4.000000,4.000000,4.000000,4.000000,4.000000,4.000000,4.000000,4.000000,4.000000,4.000000,4.000000,4.000000,100.000000,,,,,,,,,,,,,,,,,,,,,,,,,,,,
1703414855.256179,1703415054.822387,50.000000,0.000000,4297.820313,4251.153809,4331.666504,4281.153809,4246.025879,4126.025879,4214.871582,4247.307617,4247.436035,4221.153809,4581.922852,4490.641113,4377.692383,4518.974121,0.000000,3.000000,55.000000,,,,0.000000,4.000000,4.000000,4.000000,4.000000,4.000000,4.000000,4.000000,4.000000,4.000000,4.000000,4.000000,4.000000,4.000000,4.000000,100.000000,,,,,,,,,,,,,,,,,,,,,,,,,,,,
1703414855.263987,1703415054.830195,51.000000,0.000000,4320.256348,4251.922852,4330.384766,4277.179688,4240.512695,4121.922852,4209.102539,4240.512695,4235.769043,4213.846191,4571.153809,4487.692383,4375.128418,4524.743652,0.000000,3.000000,55.000000,,,,0.000000,4.000000,4.000000,4.000000,4.000000,4.000000,4.000000,4.000000,4.000000,4.000000,4.000000,4.000000,4.000000,4.000000,4.000000,100.000000,,,,,,,,,,,,,,,,,,,,,,,,,,,,
1703414855.271795,1703415054.838103,52.000000,0.000000,4353.846191,4258.333496,4343.717773,4288.077148,4228.846191,4127.563965,4207.692383,4236.410156,4228.077148,4205.128418,4570.512695,4499.615234,4380.384766,4544.743652,0.000000,3.000000,55.000000,,,,0.000000,4.000000,4.000000,4.000000,4.000000,4.000000,4.000000,4.000000,4.000000,4.000000,4.000000,4.000000,4.000000,4.000000,4.000000,100.000000,,,,,,,,,,,,,,,,,13.000000,0.000000,0.710679,0.183289,-0.633850,0.244080,0.970822,-0.052252,0.125992,-16.034227,-40.068893,66.684067
1703414855.279603,1703415054.845911,53.000000,0.000000,4387.692383,4267.436035,4351.538574,4296.922852,4230.897461,4136.282227,4211.794922,4233.974121,4228.461426,4196.410156,4570.512695,4506.922852,4388.205078,4564.487305,0.000000,3.000000,55.000000,,,,0.000000,4.000000,4.000000,4.000000,4.000000,4.000000,4.000000,4.000000,4.000000,4.000000,4.000000,4.000000,4.000000,4.000000,4.000000,100.000000,,,,,,,,,,,,,,,,,,,,,,,,,,,,
1703414855.287411,1703415054.853819,54.000000,0.000000,4409.102539,4275.897461,4351.666504,4296.153809,4243.333496,4140.000000,4215.641113,4233.974121,4227.948730,4192.436035,4567.692383,4504.615234,4387.051270,4571.666504,0.000000,3.000000,55.000000,,,,0.000000,4.000000,4.000000,4.000000,4.000000,4.000000,4.000000,4.000000,4.000000,4.000000,4.000000,4.000000,4.000000,4.000000,4.000000,100.000000,,,,,,,,,,,,,,,,,,,,,,,,,,,,
1703414855.295219,1703415054.861627,55.000000,0.000000,4407.051270,4278.461426,4351.794922,4293.974121,4246.025879,4142.436035,4212.051270,4238.846191,4226.282227,4196.410156,4575.256348,4501.666504,4386.410156,4576.282227,0.000000,3.000000,55.000000,,,,0.000000,4.000000,4.000000,4.000000,4.000000,4.000000,4.000000,4.000000,4.000000,4.000000,4.000000,4.000000,4.000000,4.000000,4.000000,100.000000,,,,,,,,,,,,,,,,,,,,,,,,,,,,
1703414855.303027,1703415054.869336,56.000000,0.000000,4392.051270,4271.922852,4351.153809,4295.128418,4236.282227,4137.692383,4204.615234,4245.769043,4229.102539,4207.948730,4584.615234,4512.179688,4392.948730,4574.102539,0.000000,3.000000,55.000000,,,,0.000000,4.000000,4.000000,4.000000,4.000000,4.000000,4.000000,4.000000,4.000000,4.000000,4.000000,4.000000,4.000000,4.000000,4.000000,100.000000,,,,,,,,,,,,,,,,,14.000000,0.000000,0.710840,0.183411,-0.633728,0.243835,0.976682,-0.041509,0.123062,-16.130804,-40.212006,66.598991
1703414855.310835,1703415054.877144,57.000000,0.000000,4381.794922,4266.922852,4349.358887,4297.948730,4233.589844,4127.307617,4205.256348,4248.333496,4239.615234,4220.512695,4586.538574,4525.512695,4392.692383,4563.333496,0.000000,3.000000,55.000000,,,,0.000000,4.000000,4.000000,4.000000,4.000000,4.000000,4.000000,4.000000,4.000000,4.000000,4.000000,4.000000,4.000000,4.000000,4.000000,100.000000,,,,,,,,,,,,,,,,,,,,,,,,,,,,
1703414855.318643,1703415054.884852,58.000000,0.000000,4363.205078,4267.820313,4341.025879,4299.615234,4246.794922,4124.871582,4212.692383,4249.230957,4246.922852,4217.820313,4582.948730,4516.794922,4379.871582,4547.948730,0.000000,3.000000,55.000000,,,,0.000000,4.000000,4.000000,4.000000,4.000000,4.000000,4.000000,4.000000,4.000000,4.000000,4.000000,4.000000,4.000000,4.000000,4.000000,100.000000,,,,,,,,,,,,,,,,,,,,,,,,,,,,
1703414855.326451,1703415054.892660,59.000000,0.000000,4335.000000,4266.922852,4332.179688,4304.358887,4248.717773,4122.307617,4217.307617,4250.384766,4239.615234,4207.948730,4576.794922,4501.153809,4368.974121,4530.897461,0.000000,3.000000,55.000000,,,,0.000000,4.000000,4.000000,4.000000,4.000000,4.000000,4.000000,4.000000,4.000000,4.000000,4.000000,4.000000,4.000000,4.000000,4.000000,100.000000,,,,,,,,,,,,,,,,,,,,,,,,,,,,
1703414855.334259,1703415054.900369,60.000000,0.000000,4319.102539,4265.512695,4335.512695,4310.641113,4236.794922,4110.641113,4211.282227,4247.179688,4230.769043,4212.436035,4570.512695,4503.717773,4361.025879,4519.871582,0.000000,3.000000,55.000000,,,,0.000000,4.000000,4.000000,4.000000,4.000000,4.000000,4.000000,4.000000,4.000000,4.000000,4.000000,4.000000,4.000000,4.000000,4.000000,100.000000,,,,,,,,,,,,,,,,,15.000000,0.000000,0.710998,0.183594,-0.633545,0.243713,0.984007,-0.040532,0.133805,-15.917724,-40.074139,66.472427
1703414855.342067,1703415054.908177,61.000000,0.000000,4317.179688,4265.000000,4339.358887,4307.436035,4231.410156,4103.717773,4203.333496,4245.769043,4236.666504,4218.589844,4567.051270,4511.025879,4353.974121,4517.692383,0.000000,3.000000,55.000000,,,,0.000000,4.000000,4.000000,4.000000,4.000000,4.000000,4.000000,4.000000,4.000000,4.000000,4.000000,4.000000,4.000000,4.000000,4.000000,100.000000,,,,,,,,,,,,,,,,,,,,,,,,,,,,
1703414855.349875,1703415054.915885,62.000000,0.000000,4307.179688,4263.717773,4335.512695,4300.769043,4238.846191,4105.256348,4207.948730,4255.000000,4249.230957,4215.897461,4575.384766,4509.487305,4359.871582,4521.794922,0.000000,3.000000,55.000000,,,,0.000000,4.000000,4.000000,4.000000,4.000000,4.000000,4.000000,4.000000,4.000000,4.000000,4.000000,4.000000,4.000000,4.000000,4.000000,100.000000,,,,,,,,,,,,,,,,,,,,,,,,,,,,
1703414855.357683,1703415054.923693,63.000000,0.000000,4295.000000,4263.846191,4332.692383,4304.487305,4250.769043,4107.307617,4216.666504,4261.410156,4250.512695,4218.846191,4584.358887,4507.948730,4366.794922,4521.025879,0.000000,3.000000,55.000000,,,,0.000000,4.000000,4.000000,4.000000,4.000000,4.000000,4.000000,4.000000,4.000000,4.000000,4.000000,4.000000,4.000000,4.000000,4.000000,100.000000,,,,,,,,,,,,,,,,,,,,,,,,,,,,
1703414855.365491,1703415054.931402,64.000000,0.000000,4300.128418,4262.948730,4334.615234,4309.102539,4244.871582,4108.077148,4212.307617,4252.307617,4238.717773,4222.692383,4580.512695,4508.333496,4360.897461,4513.974121,5604.000000,3.000000,55.000000,,,,0.000000,4.000000,4.000000,4.000000,4.000000,4.000000,4.000000,4.000000,4.000000,4.000000,4.000000,4.000000,4.000000,4.000000,4.000000,100.000000,,,,,,,,,,,,,,,,,16.000000,0.000000,0.710949,0.183655,-0.633606,0.243652,0.985472,-0.043951,0.124039,-15.842618,-40.033390,66.441849
1703414855.373299,1703415054.939210,65.000000,0.000000,4299.230957,4253.589844,4331.282227,4302.307617,4229.230957,4099.102539,4204.487305,4244.743652,4233.846191,4215.512695,4566.410156,4506.025879,4356.153809,4502.436035,5541.000000,3.000000,55.000000,,,,0.000000,4.000000,4.000000,4.000000,4.000000,4.000000,4.000000,4.000000,4.000000,4.000000,4.000000,4.000000,4.000000,4.000000,4.000000,100.000000,,,,,,,,,,,,,,,,,,,,,,,,,,,,
1703414855.381107,1703415054.946918,66.000000,0.000000,4281.538574,4244.358887,4319.230957,4293.205078,4230.769043,4087.564209,4202.563965,4249.358887,4237.051270,4203.974121,4555.512695,4498.205078,4351.794922,4493.589844,5455.000000,3.000000,55.000000,,,,0.000000,4.000000,4.000000,4.000000,4.000000,4.000000,4.000000,4.000000,4.000000,4.000000,4.000000,4.000000,4.000000,4.000000,4.000000,100.000000,,,,,,,,,,,,,,,,,,,,,,,,,,,,
1703414855.388915,1703415054.954826,67.000000,0.000000,4272.307617,4246.025879,4310.384766,4292.051270,4242.948730,4090.641113,4202.307617,4249.230957,4232.692383,4199.743652,4557.563965,4488.205078,4340.000000,4491.153809,5390.000000,3.000000,55.000000,,,,0.000000,4.000000,4.000000,4.000000,4.000000,4.000000,4.000000,4.000000,4.000000,4.000000,4.000000,4.000000,4.000000,4.000000,4.000000,100.000000,,,,,,,,,,,,,,,,,,,,,,,,,,,,
1703414855.396724,1703415054.962634,68.000000,0.000000,4277.051270,4251.153809,4314.871582,4297.948730,4242.436035,4098.333496,4207.948730,4243.846191,4234.358887,4206.794922,4563.461426,4490.641113,4341.153809,4484.230957,5300.000000,3.000000,55.000000,,,,0.000000,4.000000,4.000000,4.000000,4.000000,4.000000,4.000000,4.000000,4.000000,4.000000,4.000000,4.000000,4.000000,4.000000,4.000000,100.000000,,,,,,,,,,,,,,,,,17.000000,0.000000,0.710887,0.183472,-0.633728,0.243652,0.982542,-0.041997,0.126969,-16.091690,-40.180050,66.497665
1703414855.404532,1703415054.970542,69.000000,0.000000,4282.179688,4251.794922,4325.641113,4307.948730,4237.179688,4096.666504,4211.666504,4246.666504,4244.487305,4215.512695,4563.077148,4497.692383,4350.512695,4484.230957,4258.000000,3.000000,55.000000,,,,0.000000,4.000000,4.000000,4.000000,4.000000,4.000000,4.000000,4.000000,4.000000,4.000000,4.000000,4.000000,4.000000,4.000000,4.000000,100.000000,,,,,,,,,,,,,,,,,,,,,,,,,,,,
1703414855.412340,1703415054.978351,70.000000,0.000000,4274.871582,4249.230957,4322.051270,4307.436035,4244.487305,4092.435791,4204.871582,4247.563965,4240.769043,4219.102539,4555.256348,4491.666504,4346.538574,4490.769043,4248.000000,3.000000,55.000000,,,,0.000000,4.000000,4.000000,4.000000,4.000000,4.000000,4.000000,4.000000,4.000000,4.000000,4.000000,4.000000,4.000000,4.000000,4.000000,100.000000,,,,,,,,,,,,,,,,,,,,,,,,,,,,
1703414855.420148,1703415054.986259,71.000000,0.000000,4257.563965,4247.179688,4310.641113,4298.461426,4245.897461,4093.589844,4200.256348,4243.461426,4229.871582,4211.025879,4546.538574,4478.205078,4333.974121,4479.487305,5171.000000,3.000000,55.000000,,,,0.000000,4.000000,4.000000,4.000000,4.000000,4.000000,4.000000,4.000000,4.000000,4.000000,4.000000,4.000000,4.000000,4.000000,4.000000,100.000000,,,,,,,,,,,,,,,,,,,,,,,,,,,,
1703414855.427956,1703415054.994067,72.000000,0.000000,4245.256348,4246.922852,4307.436035,4298.077148,4236.410156,4093.846191,4201.410156,4243.974121,4232.436035,4198.333496,4540.897461,4471.794922,4324.230957,4457.948730,5387.000000,3.000000,55.000000,,,,0.000000,4.000000,4.000000,4.000000,4.000000,4.000000,4.000000,4.000000,4.000000,4.000000,4.000000,4.000000,4.000000,4.000000,4.000000,100.000000,,,,,,,,,,,,,,,,,18.000000,0.000000,0.710845,0.183472,-0.633728,0.243774,0.979123,-0.045416,0.116225,-16.115854,-40.328712,66.531235
1703414855.435764,1703415055.001975,73.000000,0.000000,4247.436035,4246.538574,4309.358887,4302.307617,4236.922852,4092.564209,4202.307617,4248.205078,4241.282227,4201.025879,4550.128418,4475.897461,4330.256348,4458.717773,5302.000000,3.000000,55.000000,,,,0.000000,4.000000,4.000000,4.000000,4.000000,4.000000,4.000000,4.000000,4.000000,4.000000,4.000000,4.000000,4.000000,4.000000,4.000000,100.000000,,,,,,,,,,,,,,,,,,,,,,,,,,,,
1703414855.443572,1703415055.009783,74.000000,0.000000,4252.948730,4244.615234,4311.153809,4303.333496,4245.769043,4099.871582,4203.205078,4249.487305,4241.025879,4209.102539,4554.615234,4479.230957,4339.102539,4468.333496,6022.000000,3.000000,55.000000,,,,0.000000,4.000000,4.000000,4.000000,4.000000,4.000000,4.000000,4.000000,4.000000,4.000000,4.000000,4.000000,4.000000,4.000000,4.000000,100.000000,,,,,,,,,,,,,,,,,,,,,,,,,,,,
1703414855.451380,1703415055.017691,75.000000,0.000000,4249.230957,4242.051270,4308.589844,4301.410156,4246.794922,4105.256348,4203.461426,4245.512695,4236.922852,4206.666504,4540.000000,4473.461426,4334.102539,4460.384766,6305.000000,3.000000,55.000000,,,,0.000000,4.000000,4.000000,4.000000,4.000000,4.000000,4.000000,4.000000,4.000000,4.000000,4.000000,4.000000,4.000000,4.000000,4.000000,100.000000,,,,,,,,,,,,,,,,,,,,,,,,,,,,
1703414855.459188,1703415055.025500,76.000000,0.000000,4240.641113,4236.410156,4305.128418,4295.512695,4239.102539,4101.410156,4201.922852,4243.461426,4241.794922,4200.256348,4540.000000,4470.512695,4331.410156,4455.000000,6831.000000,3.000000,55.000000,,,,0.000000,4.000000,4.000000,4.000000,4.000000,4.000000,4.000000,4.000000,4.000000,4.000000,4.000000,4.000000,4.000000,4.000000,4.000000,100.000000,,,,,,,,,,,,,,,,,19.000000,0.000000,0.710905,0.183289,-0.633667,0.243896,0.987425,-0.048346,0.132829,-16.004269,-40.212509,66.644775
1703414855.466996,1703415055.033408,77.000000,0.000000,4245.000000,4231.025879,4309.743652,4294.615234,4232.179688,4101.538574,4203.333496,4246.025879,4248.717773,4198.461426,4552.179688,4484.230957,4340.000000,4464.743652,7337.000000,3.000000,55.000000,,,,0.000000,4.000000,4.000000,4.000000,4.000000,4.000000,4.000000,4.000000,4.000000,4.000000,4.000000,4.000000,4.000000,4.000000,4.000000,100.000000,,,,,,,,,,,,,,,,,,,,,,,,,,,,
1703414855.474804,1703415055.041216,78.000000,0.000000,4259.615234,4240.000000,4319.615234,4304.487305,4235.384766,4108.205078,4204.102539,4249.743652,4247.307617,4209.615234,4559.230957,4504.230957,4347.563965,4476.025879,6022.000000,3.000000,55.000000,,,,0.000000,4.000000,4.000000,4.000000,4.000000,4.000000,4.000000,4.000000,4.000000,4.000000,4.000000,4.000000,4.000000,4.000000,4.000000,100.000000,,,,,,,,,,,,,,,,,,,,,,,,,,,,
1703414855.482612,1703415055.049124,79.000000,0.000000,4262.948730,4249.358887,4322.820313,4309.102539,4239.487305,4110.641113,4204.615234,4249.615234,4245.769043,4226.153809,4566.538574,4505.512695,4349.358887,4478.846191,6305.000000,3.000000,55.000000,,,,0.000000,4.000000,4.000000,4.000000,4.000000,4.000000,4.000000,4.000000,4.000000,4.000000,4.000000,4.000000,4.000000,4.000000,4.000000,100.000000,,,,,,,,,,,,,,,,,,,,,,,,,,,,
1703414855.490420,1703415055.056932,80.000000,0.000000,4257.307617,4240.512695,4317.051270,4302.436035,4231.538574,4108.974121,4204.871582,4250.000000,4250.512695,4223.461426,4570.769043,4495.769043,4356.410156,4476.538574,6831.000000,3.000000,55.000000,,,,0.000000,4.000000,4.000000,4.000000,4.000000,4.000000,4.000000,4.000000,4.000000,4.000000,4.000000,4.000000,4.000000,4.000000,4.000000,100.000000,,,,,,,,,,,,,,,,,20.000000,0.000000,0.711048,0.182861,-0.633606,0.243958,0.998169,-0.054206,0.127457,-16.037176,-40.224590,66.663635
1703414855.498228,1703415055.064641,81.000000,0.000000,4253.461426,4231.410156,4312.307617,4296.666504,4227.563965,4108.589844,4202.692383,4253.717773,4251.666504,4211.666504,4564.871582,4494.487305,4359.487305,4476.282227,7337.000000,3.000000,55.000000,,,,0.000000,4.000000,4.000000,4.000000,4.000000,4.000000,4.000000,4.000000,4.000000,4.000000,4.000000,4.000000,4.000000,4.000000,4.000000,100.000000,,,,,,,,,,,,,,,,,,,,,,,,,,,,
1703414855.506036,1703415055.072449,82.000000,0.000000,4251.153809,4235.256348,4313.974121,4295.384766,4235.384766,4109.487305,4202.820313,4253.974121,4250.256348,4214.743652,4560.256348,4498.974121,4351.282227,4475.769043,6022.000000,3.000000,55.000000,,,,0.000000,4.000000,4.000000,4.000000,4.000000,4.000000,4.000000,4.000000,4.000000,4.000000,4.000000,4.000000,4.000000,4.000000,4.000000,100.000000,,,,,,,,,,,,,,,,,,,,,,,,,,,,
1703414855.513844,1703415055.080157,83.000000,0.000000,4255.769043,4235.641113,4315.256348,4295.897461,4235.256348,4110.512695,4204.487305,4249.487305,4249.358887,4216.538574,4561.538574,4501.025879,4348.461426,4474.487305,6305.000000,3.000000,55.000000,,,,0.000000,4.000000,4.000000,4.000000,4.000000,4.000000,4.000000,4.000000,4.000000,4.000000,4.000000,4.000000,4.000000,4.000000,4.000000,100.000000,,,,,,,,,,,,,,,,,,,,,,,,,,,,
1703414855.521652,1703415055.087965,84.000000,0.000000,4261.922852,4229.615234,4310.256348,4295.512695,4231.410156,4111.410156,4204.102539,4248.974121,4244.743652,4211.410156,4560.128418,4498.333496,4353.333496,4477.179688,6831.000000,3.000000,55.000000,,,,0.000000,4.000000,4.000000,4.000000,4.000000,4.000000,4.000000,4.000000,4.000000,4.000000,4.000000,4.000000,4.000000,4.000000,4.000000,100.000000,1.000000,91.666664,4.000000,4.000000,4.000000,4.000000,4.000000,3.000000,4.000000,4.000000,4.000000,4.000000,4.000000,4.000000,4.000000,4.000000,21.000000,0.000000,0.710955,0.182556,-0.633728,0.244141,0.984495,-0.070321,0.128922,-16.050125,-40.268799,66.697266
1703414855.529460,1703415055.095674,85.000000,0.000000,4261.666504,4231.538574,4307.436035,4294.102539,4234.230957,4115.384766,4203.717773,4251.922852,4243.717773,4218.717773,4565.384766,4493.974121,4358.205078,4478.077148,7337.000000,3.000000,55.000000,,,,0.000000,4.000000,4.000000,4.000000,4.000000,4.000000,4.000000,4.000000,4.000000,4.000000,4.000000,4.000000,4.000000,4.000000,4.000000,100.000000,,,,,,,,,,,,,,,,,,,,,,,,,,,,
1703414855.537269,1703415055.103582,86.000000,0.000000,4258.205078,4235.769043,4309.743652,4296.794922,4236.153809,4121.794922,4202.948730,4249.743652,4243.333496,4220.512695,4566.025879,4494.102539,4356.666504,4478.333496,6022.000000,3.000000,55.000000,,,,0.000000,4.000000,4.000000,4.000000,4.000000,4.000000,4.000000,4.000000,4.000000,4.000000,4.000000,4.000000,4.000000,4.000000,4.000000,100.000000,,,,,,,,,,,,,,,,,,,,,,,,,,,,
1703414855.545076,1703415055.111390,87.000000,0.000000,4252.820313,4233.974121,4310.769043,4298.717773,4230.512695,4122.307617,4201.794922,4244.102539,4236.538574,4202.948730,4553.205078,4494.615234,4347.436035,4470.000000,6305.000000,3.000000,55.000000,,,,0.000000,4.000000,4.000000,4.000000,4.000000,4.000000,4.000000,4.000000,4.000000,4.000000,4.000000,4.000000,4.000000,4.000000,4.000000,100.000000,,,,,,,,,,,,,,,,,,,,,,,,,,,,
1703414855.552884,1703415055.119299,88.000000,0.000000,4247.179688,4231.794922,4310.256348,4294.230957,4228.461426,4121.153809,4203.205078,4246.025879,4237.051270,4201.794922,4551.153809,4494.230957,4343.333496,4456.666504,6831.000000,3.000000,55.000000,,,,0.000000,4.000000,4.000000,4.000000,4.000000,4.000000,4.000000,4.000000,4.000000,4.000000,4.000000,4.000000,4.000000,4.000000,4.000000,100.000000,,,,,,,,,,,,,,,,,22.000000,0.000000,0.710877,0.182190,-0.633850,0.244324,0.991820,-0.056159,0.122574,-15.995111,-40.108585,66.627541
1703414855.560693,1703415055.127107,89.000000,0.000000,4247.820313,4232.692383,4312.563965,4298.077148,4239.358887,4130.000000,4205.512695,4251.538574,4246.410156,4220.897461,4563.846191,4497.820313,4351.538574,4460.769043,7337.000000,3.000000,55.000000,,,,0.000000,4.000000,4.000000,4.000000,4.000000,4.000000,4.000000,4.000000,4.000000,4.000000,4.000000,4.000000,4.000000,4.000000,4.000000,100.000000,,,,,,,,,,,,,,,,,,,,,,,,,,,,
1703414855.568501,1703415055.134916,90.000000,0.000000,4250.000000,4235.897461,4314.871582,4308.077148,4243.974121,4136.794922,4204.615234,4249.102539,4246.538574,4216.922852,4568.077148,4498.974121,4353.589844,4474.871582,6022.000000,3.000000,55.000000,,,,0.000000,4.000000,4.000000,4.000000,4.000000,4.000000,4.000000,4.000000,4.000000,4.000000,4.000000,4.000000,4.000000,4.000000,4.000000,100.000000,,,,,,,,,,,,,,,,,,,,,,,,,,,,
1703414855.576309,1703415055.142624,91.000000,0.000000,4247.179688,4233.589844,4313.205078,4302.563965,4234.615234,4130.897461,4202.436035,4248.461426,4243.077148,4203.974121,4566.794922,4500.384766,4349.102539,4480.000000,6305.000000,3.000000,55.000000,,,,0.000000,4.000000,4.000000,4.000000,4.000000,4.000000,4.000000,4.000000,4.000000,4.000000,4.000000,4.000000,4.000000,4.000000,4.000000,100.000000,,,,,,,,,,,,,,,,,,,,,,,,,,,,
1703414855.584117,1703415055.150432,92.000000,0.000000,4244.487305,4232.307617,4315.769043,4293.717773,4232.692383,4130.897461,4202.051270,4251.153809,4249.230957,4215.512695,4567.948730,4504.102539,4351.538574,4469.487305,6831.000000,3.000000,55.000000,,,,0.000000,4.000000,4.000000,4.000000,4.000000,4.000000,4.000000,4.000000,4.000000,4.000000,4.000000,4.000000,4.000000,4.000000,4.000000,100.000000,,,,,,,,,,,,,,,,,23.000000,0.000000,0.710861,0.182007,-0.633850,0.244507,0.996215,-0.047369,0.120132,-15.945601,-40.264393,66.514786
1703414855.591925,1703415055.158140,93.000000,0.000000,4244.871582,4240.512695,4318.717773,4300.769043,4236.282227,4140.000000,4203.589844,4241.922852,4253.974121,4222.948730,4559.743652,4498.333496,4348.974121,4459.102539,7337.000000,3.000000,55.000000,,,,0.000000,4.000000,4.000000,4.000000,4.000000,4.000000,4.000000,4.000000,4.000000,4.000000,4.000000,4.000000,4.000000,4.000000,4.000000,100.000000,,,,,,,,,,,,,,,,,,,,,,,,,,,,
1703414855.599733,1703415055.166048,94.000000,0.000000,4245.000000,4240.128418,4312.948730,4308.077148,4231.666504,4139.358887,4203.974121,4230.384766,4245.384766,4213.333496,4556.922852,4491.153809,4341.794922,4467.307617,6022.000000,3.000000,55.000000,,,,0.000000,4.000000,4.000000,4.000000,4.000000,4.000000,4.000000,4.000000,4.000000,4.000000,4.000000,4.000000,4.000000,4.000000,4.000000,100.000000,,,,,,,,,,,,,,,,,,,,,,,,,,,,
1703414855.607541,1703415055.173856,95.000000,0.000000,4244.743652,4235.384766,4313.461426,4306.282227,4229.358887,4135.897461,4202.179688,4231.666504,4234.487305,4213.461426,4560.769043,4492.563965,4343.846191,4474.487305,6305.000000,3.000000,55.000000,,,,0.000000,4.000000,4.000000,4.000000,4.000000,4.000000,4.000000,4.000000,4.000000,4.000000,4.000000,4.000000,4.000000,4.000000,4.000000,100.000000,,,,,,,,,,,,,,,,,,,,,,,,,,,,
1703414855.615349,1703415055.181764,96.000000,0.000000,4245.384766,4240.256348,4318.974121,4308.205078,4233.589844,4138.077148,4201.922852,4235.641113,4239.615234,4221.153809,4556.794922,4493.461426,4348.077148,4466.538574,6831.000000,3.000000,55.000000,,,,0.000000,4.000000,4.000000,4.000000,4.000000,4.000000,4.000000,4.000000,4.000000,4.000000,4.000000,4.000000,4.000000,4.000000,4.000000,100.000000,,,,,,,,,,,,,,,,,24.000000,0.000000,0.710900,0.181824,-0.633789,0.244690,0.985472,-0.053717,0.121597,-15.967708,-40.204620,66.513306
1703414855.623157,1703415055.189572,97.000000,0.000000,4245.384766,4242.307617,4314.102539,4305.769043,4233.589844,4137.307617,4204.102539,4233.589844,4246.794922,4213.333496,4552.307617,4488.974121,4346.282227,4458.461426,7337.000000,3.000000,55.000000,,,,0.000000,4.000000,4.000000,4.000000,4.000000,4.000000,4.000000,4.000000,4.000000,4.000000,4.000000,4.000000,4.000000,4.000000,4.000000,100.000000,,,,,,,,,,,,,,,,,,,,,,,,,,,,
1703414855.630965,1703415055.197480,98.000000,0.000000,4248.333496,4239.615234,4313.333496,4298.205078,4231.794922,4137.051270,4202.948730,4232.051270,4241.666504,4207.692383,4555.384766,4487.820313,4346.282227,4465.512695,6022.000000,3.000000,55.000000,,,,0.000000,4.000000,4.000000,4.000000,4.000000,4.000000,4.000000,4.000000,4.000000,4.000000,4.000000,4.000000,4.000000,4.000000,4.000000,100.000000,,,,,,,,,,,,,,,,,,,,,,,,,,,,
1703414855.638773,1703415055.205289,99.000000,0.000000,4262.436035,4242.051270,4321.538574,4298.846191,4232.179688,4138.974121,4202.563965,4230.641113,4237.948730,4212.179688,4556.025879,4490.384766,4351.794922,4477.692383,6305.000000,3.000000,55.000000,,,,0.000000,4.000000,4.000000,4.000000,4.000000,4.000000,4.000000,4.000000,4.000000,4.000000,4.000000,4.000000,4.000000,4.000000,4.000000,100.000000,,,,,,,,,,,,,,,,,,,,,,,,,,,,
1703414855.646581,1703415055.213197,100.000000,0.000000,4293.205078,4251.794922,4324.743652,4306.025879,4233.717773,4141.794922,4207.820313,4227.692383,4237.948730,4208.205078,4553.205078,4491.282227,4353.589844,4487.307617,6831.000000,3.000000,55.000000,,,,0.000000,4.000000,4.000000,4.000000,4.000000,4.000000,4.000000,4.000000,4.000000,4.000000,4.000000,4.000000,4.000000,4.000000,4.000000,100.000000,,,,,,,,,,,,,,,,,25.000000,0.000000,0.710829,0.181641,-0.633850,0.244873,0.992309,-0.059578,0.123550,-16.004271,-40.267490,66.495308
1703414855.654389,1703415055.221005,101.000000,0.000000,4324.743652,4258.589844,4326.794922,4307.563965,4235.769043,4145.512695,4209.102539,4229.615234,4240.641113,4205.641113,4559.871582,4497.820313,4360.769043,4503.974121,7337.000000,3.000000,55.000000,,,,0.000000,4.000000,4.000000,4.000000,4.000000,4.000000,4.000000,4.000000,4.000000,4.000000,4.000000,4.000000,4.000000,4.000000,4.000000,100.000000,,,,,,,,,,,,,,,,,,,,,,,,,,,,
1703414855.662197,1703415055.228913,102.000000,0.000000,4343.077148,4259.615234,4332.179688,4305.256348,4233.077148,4142.436035,4204.230957,4231.794922,4243.717773,4208.589844,4571.410156,4511.025879,4378.333496,4526.025879,6022.000000,3.000000,55.000000,,,,0.000000,4.000000,4.000000,4.000000,4.000000,4.000000,4.000000,4.000000,4.000000,4.000000,4.000000,4.000000,4.000000,4.000000,4.000000,100.000000,,,,,,,,,,,,,,,,,,,,,,,,,,,,
1703414855.670005,1703415055.236721,103.000000,0.000000,4357.179688,4266.794922,4337.948730,4308.717773,4229.615234,4138.333496,4202.692383,4229.871582,4242.563965,4207.436035,4572.307617,4515.512695,4387.692383,4540.512695,6305.000000,3.000000,55.000000,,,,0.000000,4.000000,4.000000,4.000000,4.000000,4.000000,4.000000,4.000000,4.000000,4.000000,4.000000,4.000000,4.000000,4.000000,4.000000,100.000000,,,,,,,,,,,,,,,,,,,,,,,,,,,,
1703414855.677813,1703415055.244430,104.000000,0.000000,4367.820313,4278.974121,4341.666504,4313.717773,4232.820313,4140.384766,4203.589844,4230.769043,4240.000000,4209.358887,4569.487305,4512.436035,4382.307617,4542.820313,6831.000000,3.000000,55.000000,,,,0.000000,4.000000,4.000000,4.000000,4.000000,4.000000,4.000000,4.000000,4.000000,4.000000,4.000000,4.000000,4.000000,4.000000,4.000000,100.000000,,,,,,,,,,,,,,,,,26.000000,0.000000,0.710768,0.181335,-0.633911,0.245117,0.979123,-0.065926,0.130875,-15.903843,-40.357410,66.479111
1703414855.685621,1703415055.252238,105.000000,0.000000,4361.282227,4273.846191,4342.563965,4313.461426,4235.641113,4140.256348,4202.051270,4228.461426,4234.102539,4211.794922,4569.871582,4509.871582,4378.333496,4538.589844,7337.000000,3.000000,55.000000,,,,0.000000,4.000000,4.000000,4.000000,4.000000,4.000000,4.000000,4.000000,4.000000,4.000000,4.000000,4.000000,4.000000,4.000000,4.000000,100.000000,,,,,,,,,,,,,,,,,,,,,,,,,,,,
1703414855.693429,1703415055.259946,106.000000,0.000000,4346.153809,4257.307617,4336.922852,4307.436035,4233.205078,4138.077148,4201.666504,4220.641113,4224.487305,4203.461426,4558.077148,4507.692383,4375.256348,4529.358887,6022.000000,3.000000,55.000000,,,,0.000000,4.000000,4.000000,4.000000,4.000000,4.000000,4.000000,4.000000,4.000000,4.000000,4.000000,4.000000,4.000000,4.000000,4.000000,100.000000,,,,,,,,,,,,,,,,,,,,,,,,,,,,
1703414855.701238,1703415055.267754,107.000000,0.000000,4341.922852,4258.846191,4329.615234,4303.974121,4231.922852,4138.846191,4203.717773,4222.179688,4226.922852,4203.205078,4549.358887,4510.512695,4370.897461,4522.948730,6305.000000,3.000000,55.000000,,,,0.000000,4.000000,4.000000,4.000000,4.000000,4.000000,4.000000,4.000000,4.000000,4.000000,4.000000,4.000000,4.000000,4.000000,4.000000,100.000000,,,,,,,,,,,,,,,,,,,,,,,,,,,,
1703414855.709046,1703415055.275463,108.000000,0.000000,4341.282227,4264.615234,4331.538574,4307.692383,4232.948730,4140.256348,4206.922852,4228.333496,4236.282227,4215.641113,4562.436035,4509.102539,4369.871582,4521.794922,6831.000000,3.000000,55.000000,,,,0.000000,4.000000,4.000000,4.000000,4.000000,4.000000,4.000000,4.000000,4.000000,4.000000,4.000000,4.000000,4.000000,4.000000,4.000000,100.000000,,,,,,,,,,,,,,,,,27.000000,0.000000,0.710789,0.181091,-0.633911,0.245239,0.989379,-0.057624,0.124527,-15.880125,-40.421669,66.481201
1703414855.716854,1703415055.283271,109.000000,0.000000,4339.743652,4265.000000,4339.102539,4312.436035,4232.563965,4148.461426,4212.179688,4227.179688,4233.846191,4212.948730,4567.820313,4499.743652,4369.615234,4512.692383,7337.000000,3.000000,55.000000,,,,0.000000,4.000000,4.000000,4.000000,4.000000,4.000000,4.000000,4.000000,4.000000,4.000000,4.000000,4.000000,4.000000,4.000000,4.000000,100.000000,,,,,,,,,,,,,,,,,,,,,,,,,,,,
1703414855.724662,1703415055.290979,110.000000,0.000000,4339.871582,4266.922852,4335.769043,4311.410156,4231.794922,4155.000000,4212.307617,4227.820313,4232.692383,4208.846191,4556.153809,4497.692383,4369.102539,4502.948730,6022.000000,3.000000,55.000000,,,,0.000000,4.000000,4.000000,4.000000,4.000000,4.000000,4.000000,4.000000,4.000000,4.000000,4.000000,4.000000,4.000000,4.000000,4.000000,100.000000,,,,,,,,,,,,,,,,,,,,,,,,,,,,
1703414855.732470,1703415055.298787,111.000000,0.000000,4332.051270,4263.717773,4326.410156,4307.948730,4234.487305,4146.025879,4205.512695,4229.871582,4235.641113,4211.922852,4552.051270,4501.794922,4369.871582,4504.871582,6305.000000,3.000000,55.000000,,,,0.000000,4.000000,4.000000,4.000000,4.000000,4.000000,4.000000,4.000000,4.000000,4.000000,4.000000,4.000000,4.000000,4.000000,4.000000,100.000000,,,,,,,,,,,,,,,,,,,,,,,,,,,,
1703414855.740278,1703415055.306495,112.000000,0.000000,4317.820313,4260.512695,4324.487305,4308.974121,4238.205078,4141.666504,4201.666504,4223.717773,4231.282227,4206.025879,4556.410156,4496.025879,4366.794922,4510.000000,6831.000000,3.000000,55.000000,,,,0.000000,4.000000,4.000000,4.000000,4.000000,4.000000,4.000000,4.000000,4.000000,4.000000,4.000000,4.000000,4.000000,4.000000,4.000000,100.000000,,,,,,,,,,,,,,,,,28.000000,0.000000,0.710777,0.180969,-0.633911,0.245361,0.983030,-0.061043,0.126969,-15.858780,-40.312836,66.483086
1703414855.748086,1703415055.314303,113.000000,0.000000,4307.436035,4258.461426,4322.820313,4304.487305,4237.307617,4152.692383,4206.025879,4221.538574,4229.487305,4201.025879,4550.897461,4488.974121,4361.666504,4501.025879,7337.000000,3.000000,55.000000,,,,0.000000,4.000000,4.000000,4.000000,4.000000,4.000000,4.000000,4.000000,4.000000,4.000000,4.000000,4.000000,4.000000,4.000000,4.000000,100.000000,,,,,,,,,,,,,,,,,,,,,,,,,,,,
1703414855.755894,1703415055.322012,114.000000,0.000000,4309.487305,4251.538574,4321.538574,4296.410156,4232.179688,4150.384766,4212.436035,4232.820313,4241.666504,4215.256348,4552.307617,4502.820313,4369.358887,4497.051270,6022.000000,3.000000,55.000000,,,,0.000000,4.000000,4.000000,4.000000,4.000000,4.000000,4.000000,4.000000,4.000000,4.000000,4.000000,4.000000,4.000000,4.000000,4.000000,100.000000,,,,,,,,,,,,,,,,,,,,,,,,,,,,
1703414855.763702,1703415055.329819,115.000000,0.000000,4310.128418,4245.000000,4326.538574,4297.692383,4230.128418,4137.179688,4214.615234,4245.256348,4255.256348,4235.897461,4577.051270,4522.820313,4389.102539,4515.897461,6305.000000,3.000000,55.000000,,,,0.000000,4.000000,4.000000,4.000000,4.000000,4.000000,4.000000,4.000000,4.000000,4.000000,4.000000,4.000000,4.000000,4.000000,4.000000,100.000000,,,,,,,,,,,,,,,,,,,,,,,,,,,,
1703414855.771510,1703415055.337528,116.000000,0.000000,4299.743652,4244.487305,4330.256348,4303.846191,4229.743652,4142.436035,4213.333496,4246.666504,4251.410156,4235.128418,4588.974121,4516.794922,4392.307617,4518.205078,6831.000000,3.000000,55.000000,,,,0.000000,4.000000,4.000000,4.000000,4.000000,4.000000,4.000000,4.000000,4.000000,4.000000,4.000000,4.000000,4.000000,4.000000,4.000000,100.000000,,,,,,,,,,,,,,,,,29.000000,0.000000,0.710834,0.181091,-0.633789,0.245422,0.981077,-0.059089,0.125504,-15.889568,-40.248219,66.484772
1703414855.779318,1703415055.345436,117.000000,0.000000,4294.358887,4247.563965,4329.615234,4306.282227,4229.615234,4152.820313,4212.179688,4243.333496,4245.897461,4227.436035,4575.384766,4503.461426,4384.230957,4494.487305,7337.000000,3.000000,55.000000,,,,0.000000,4.000000,4.000000,4.000000,4.000000,4.000000,4.000000,4.000000,4.000000,4.000000,4.000000,4.000000,4.000000,4.000000,4.000000,100.000000,,,,,,,,,,,,,,,,,,,,,,,,,,,,
1703414855.787126,1703415055.353244,118.000000,0.000000,4294.743652,4250.000000,4328.589844,4307.179688,4232.436035,4147.563965,4212.948730,4246.410156,4250.897461,4231.153809,4568.974121,4509.230957,4384.871582,4486.153809,6022.000000,3.000000,55.000000,,,,0.000000,4.000000,4.000000,4.000000,4.000000,4.000000,4.000000,4.000000,4.000000,4.000000,4.000000,4.000000,4.000000,4.000000,4.000000,100.000000,,,,,,,,,,,,,,,,,,,,,,,,,,,,
1703414855.794934,1703415055.361152,119.000000,0.000000,4285.384766,4250.128418,4326.794922,4308.461426,4235.769043,4138.461426,4211.794922,4248.333496,4250.000000,4224.487305,4572.563965,4508.205078,4381.025879,4492.820313,6305.000000,3.000000,55.000000,,,,0.000000,4.000000,4.000000,4.000000,4.000000,4.000000,4.000000,4.000000,4.000000,4.000000,4.000000,4.000000,4.000000,4.000000,4.000000,100.000000,,,,,,,,,,,,,,,,,,,,,,,,,,,,
1703414855.802742,1703415055.368960,120.000000,0.000000,4277.179688,4248.717773,4327.051270,4309.230957,4239.102539,4137.948730,4211.282227,4245.641113,4245.512695,4215.897461,4570.000000,4502.692383,4372.436035,4497.436035,6831.000000,3.000000,55.000000,,,,0.000000,4.000000,4.000000,4.000000,4.000000,4.000000,4.000000,4.000000,4.000000,4.000000,4.000000,4.000000,4.000000,4.000000,4.000000,100.000000,,,,,,,,,,,,,,,,,30.000000,0.000000,0.711034,0.181030,-0.633606,0.245361,0.982542,-0.050787,0.126480,-15.950611,-40.323395,66.419632
1703414855.810550,1703415055.376868,121.000000,0.000000,4275.769043,4248.846191,4326.410156,4310.000000,4247.436035,4139.358887,4215.512695,4245.000000,4248.974121,4221.794922,4569.358887,4506.153809,4372.179688,4496.025879,7337.000000,3.000000,55.000000,,,,0.000000,4.000000,4.000000,4.000000,4.000000,4.000000,4.000000,4.000000,4.000000,4.000000,4.000000,4.000000,4.000000,4.000000,4.000000,100.000000,,,,,,,,,,,,,,,,,,,,,,,,,,,,
1703414855.818358,1703415055.384677,122.000000,0.000000,4265.769043,4248.717773,4319.871582,4308.974121,4250.897461,4135.256348,4215.512695,4248.589844,4253.461426,4226.025879,4573.077148,4501.025879,4373.846191,4483.077148,6022.000000,3.000000,55.000000,,,,0.000000,4.000000,4.000000,4.000000,4.000000,4.000000,4.000000,4.000000,4.000000,4.000000,4.000000,4.000000,4.000000,4.000000,4.000000,100.000000,,,,,,,,,,,,,,,,,,,,,,,,,,,,
1703414855.826166,1703415055.392585,123.000000,0.000000,4255.128418,4246.538574,4311.153809,4306.538574,4237.307617,4127.051270,4206.282227,4244.615234,4249.358887,4213.205078,4563.333496,4489.871582,4363.333496,4468.717773,6305.000000,3.000000,55.000000,,,,0.000000,4.000000,4.000000,4.000000,4.000000,4.000000,4.000000,4.000000,4.000000,4.000000,4.000000,4.000000,4.000000,4.000000,4.000000,100.000000,,,,,,,,,,,,,,,,,,,,,,,,,,,,
1703414855.833974,1703415055.400393,124.000000,0.000000,4258.717773,4242.563965,4308.589844,4305.512695,4227.948730,4122.820313,4199.615234,4234.230957,4239.743652,4205.128418,4548.717773,4486.538574,4350.897461,4467.179688,6831.000000,3.000000,55.000000,,,,0.000000,4.000000,4.000000,4.000000,4.000000,4.000000,4.000000,4.000000,4.000000,4.000000,4.000000,4.000000,4.000000,4.000000,4.000000,100.000000,,,,,,,,,,,,,,,,,31.000000,0.000000,0.710973,0.181091,-0.633728,0.245178,0.983518,-0.056648,0.122085,-15.705550,-40.174389,66.477669
1703414855.841782,1703415055.408301,125.000000,0.000000,4267.692383,4242.948730,4313.846191,4306.538574,4240.384766,4127.436035,4205.384766,4238.077148,4245.128418,4216.410156,4555.641113,4493.846191,4361.794922,4476.538574,7337.000000,3.000000,55.000000,,,,0.000000,4.000000,4.000000,4.000000,4.000000,4.000000,4.000000,4.000000,4.000000,4.000000,4.000000,4.000000,4.000000,4.000000,4.000000,100.000000,,,,,,,,,,,,,,,,,,,,,,,,,,,,
1703414855.849590,1703415055.416109,126.000000,0.000000,4277.179688,4249.102539,4321.025879,4309.615234,4249.743652,4136.282227,4213.205078,4252.436035,4262.179688,4231.410156,4572.307617,4502.820313,4381.025879,4484.871582,6022.000000,3.000000,55.000000,,,,0.000000,4.000000,4.000000,4.000000,4.000000,4.000000,4.000000,4.000000,4.000000,4.000000,4.000000,4.000000,4.000000,4.000000,4.000000,100.000000,,,,,,,,,,,,,,,,,,,,,,,,,,,,
1703414855.857398,1703415055.423917,127.000000,0.000000,4285.512695,4250.256348,4321.794922,4310.384766,4241.538574,4138.333496,4210.769043,4250.897461,4263.077148,4236.025879,4572.563965,4501.538574,4381.922852,4481.538574,55.000000,3.000000,55.000000,,,,0.000000,4.000000,4.000000,4.000000,4.000000,4.000000,4.000000,4.000000,4.000000,4.000000,4.000000,4.000000,4.000000,4.000000,4.000000,100.000000,,,,,,,,,,,,,,,,,,,,,,,,,,,,
1703414855.865207,1703415055.431726,0.000000,0.000000,4280.000000,4245.897461,4314.102539,4302.436035,4233.461426,4129.743652,4203.461426,4235.256348,4247.563965,4221.794922,4557.051270,4488.717773,4368.589844,4473.589844,5604.000000,3.000000,55.000000,,,,0.000000,4.000000,4.000000,4.000000,4.000000,4.000000,4.000000,4.000000,4.000000,4.000000,4.000000,4.000000,4.000000,4.000000,4.000000,100.000000,,,,,,,,,,,,,,,,,0.000000,0.000000,0.710876,0.181091,-0.633789,0.245300,0.985960,-0.048834,0.127457,-15.701662,-40.223618,66.529900
1703414855.873015,1703415055.439434,1.000000,0.000000,4268.077148,4243.846191,4310.512695,4294.615234,4231.666504,4127.948730,4203.846191,4228.333496,4234.487305,4206.666504,4548.205078,4478.717773,4358.333496,4473.589844,5546.000000,3.000000,55.000000,,,,0.000000,4.000000,4.000000,4.000000,4.000000,4.000000,4.000000,4.000000,4.000000,4.000000,4.000000,4.000000,4.000000,4.000000,4.000000,100.000000,,,,,,,,,,,,,,,,,,,,,,,,,,,,
1703414855.880823,1703415055.447242,2.000000,0.000000,4265.000000,4242.692383,4310.128418,4294.615234,4232.051270,4136.025879,4208.205078,4232.563965,4233.461426,4212.051270,4548.077148,4483.461426,4355.256348,4467.692383,5459.000000,3.000000,55.000000,,,,0.000000,4.000000,4.000000,4.000000,4.000000,4.000000,4.000000,4.000000,4.000000,4.000000,4.000000,4.000000,4.000000,4.000000,4.000000,100.000000,,,,,,,,,,,,,,,,,,,,,,,,,,,,
1703414855.888631,1703415055.454950,3.000000,0.000000,4263.077148,4242.948730,4307.820313,4296.794922,4238.589844,4138.717773,4209.102539,4235.000000,4239.615234,4216.282227,4543.461426,4488.205078,4353.974121,4454.102539,5385.000000,3.000000,55.000000,,,,0.000000,4.000000,4.000000,4.000000,4.000000,4.000000,4.000000,4.000000,4.000000,4.000000,4.000000,4.000000,4.000000,4.000000,4.000000,100.000000,,,,,,,,,,,,,,,,,,,,,,,,,,,,
1703414855.896439,1703415055.462759,4.000000,0.000000,4255.384766,4243.205078,4309.102539,4300.384766,4245.769043,4134.102539,4208.846191,4233.589844,4244.487305,4206.282227,4543.846191,4480.897461,4355.000000,4457.307617,5287.000000,3.000000,55.000000,,,,0.000000,4.000000,4.000000,4.000000,4.000000,4.000000,4.000000,4.000000,4.000000,4.000000,4.000000,4.000000,4.000000,4.000000,4.000000,100.000000,,,,,,,,,,,,,,,,,1.000000,0.000000,0.710894,0.181152,-0.633728,0.245361,0.975705,-0.054694,0.127457,-15.748162,-40.167923,66.460243
1703414855.904247,1703415055.470467,5.000000,0.000000,4245.384766,4234.487305,4304.358887,4299.230957,4244.487305,4127.307617,4203.333496,4230.897461,4243.461426,4201.025879,4547.563965,4470.384766,4352.436035,4461.153809,4245.000000,3.000000,55.000000,,,,0.000000,4.000000,4.000000,4.000000,4.000000,4.000000,4.000000,4.000000,4.000000,4.000000,4.000000,4.000000,4.000000,4.000000,4.000000,100.000000,,,,,,,,,,,,,,,,,,,,,,,,,,,,
1703414855.912055,1703415055.478275,6.000000,0.000000,4240.000000,4228.846191,4296.538574,4294.871582,4242.563965,4122.436035,4198.974121,4232.307617,4238.717773,4210.641113,4546.025879,4469.487305,4348.717773,4444.102539,4238.000000,3.000000,55.000000,,,,0.000000,4.000000,4.000000,4.000000,4.000000,4.000000,4.000000,4.000000,4.000000,4.000000,4.000000,4.000000,4.000000,4.000000,4.000000,100.000000,,,,,,,,,,,,,,,,,,,,,,,,,,,,
1703414855.919863,1703415055.485983,7.000000,0.000000,4245.128418,4240.769043,4304.230957,4301.922852,4247.820313,4123.974121,4209.102539,4247.051270,4245.769043,4223.974121,4555.128418,4483.333496,4361.794922,4443.974121,5178.000000,3.000000,55.000000,,,,0.000000,4.000000,4.000000,4.000000,4.000000,4.000000,4.000000,4.000000,4.000000,4.000000,4.000000,4.000000,4.000000,4.000000,4.000000,100.000000,,,,,,,,,,,,,,,,,,,,,,,,,,,,
1703414855.927671,1703415055.493791,8.000000,0.000000,4255.000000,4249.871582,4318.974121,4312.307617,4248.717773,4125.512695,4215.641113,4261.666504,4261.153809,4232.563965,4571.025879,4500.641113,4380.897461,4469.743652,5392.000000,3.000000,55.000000,,,,0.000000,4.000000,4.000000,4.000000,4.000000,4.000000,4.000000,4.000000,4.000000,4.000000,4.000000,4.000000,4.000000,4.000000,4.000000,100.000000,,,,,,,,,,,,,,,,,2.000000,0.000000,0.711037,0.181030,-0.633484,0.245667,0.995239,-0.070321,0.134782,-15.623346,-40.101131,66.414223
1703414855.935479,1703415055.501499,9.000000,0.000000,4259.871582,4247.563965,4318.077148,4311.538574,4236.538574,4123.461426,4205.897461,4254.743652,4263.077148,4231.794922,4573.205078,4499.230957,4379.615234,4481.282227,5288.000000,3.000000,55.000000,,,,0.000000,4.000000,4.000000,4.000000,4.000000,4.000000,4.000000,4.000000,4.000000,4.000000,4.000000,4.000000,4.000000,4.000000,4.000000,100.000000,,,,,,,,,,,,,,,,,,,,,,,,,,,,
1703414855.943287,1703415055.509307,10.000000,0.000000,4261.153809,4247.179688,4311.282227,4305.512695,4230.897461,4124.102539,4201.282227,4244.743652,4255.641113,4231.410156,4570.256348,4488.333496,4376.025879,4480.128418,6023.000000,3.000000,55.000000,,,,0.000000,4.000000,4.000000,4.000000,4.000000,4.000000,4.000000,4.000000,4.000000,4.000000,4.000000,4.000000,4.000000,4.000000,4.000000,100.000000,,,,,,,,,,,,,,,,,,,,,,,,,,,,
1703414855.951095,1703415055.517015,11.000000,0.000000,4266.153809,4245.384766,4309.358887,4298.077148,4241.538574,4122.563965,4203.846191,4248.205078,4253.205078,4232.307617,4564.743652,4492.436035,4384.102539,4488.333496,6317.000000,3.000000,55.000000,,,,0.000000,4.000000,4.000000,4.000000,4.000000,4.000000,4.000000,4.000000,4.000000,4.000000,4.000000,4.000000,4.000000,4.000000,4.000000,100.000000,,,,,,,,,,,,,,,,,,,,,,,,,,,,
1703414855.958903,1703415055.524923,12.000000,0.000000,4280.769043,4244.743652,4312.820313,4296.282227,4249.487305,4124.743652,4201.922852,4248.461426,4248.333496,4221.538574,4553.589844,4491.538574,4377.948730,4495.769043,6843.000000,3.000000,55.000000,,,,0.000000,4.000000,4.000000,4.000000,4.000000,4.000000,4.000000,4.000000,4.000000,4.000000,4.000000,4.000000,4.000000,4.000000,4.000000,100.000000,,,,,,,,,,,,,,,,,3.000000,0.000000,0.710971,0.180664,-0.633545,0.245972,0.985960,-0.057136,0.125992,-15.611012,-40.041016,66.456131
1703414855.966711,1703415055.532732,13.000000,0.000000,4303.333496,4251.666504,4321.922852,4302.563965,4247.692383,4135.897461,4206.025879,4244.102539,4245.128418,4214.743652,4561.025879,4476.666504,4371.922852,4503.333496,7342.000000,3.000000,55.000000,,,,0.000000,4.000000,4.000000,4.000000,4.000000,4.000000,4.000000,4.000000,4.000000,4.000000,4.000000,4.000000,4.000000,4.000000,4.000000,100.000000,,,,,,,,,,,,,,,,,,,,,,,,,,,,
1703414855.974519,1703415055.540640,14.000000,0.000000,4316.794922,4250.769043,4323.077148,4299.871582,4245.512695,4140.256348,4211.153809,4245.641113,4246.538574,4217.179688,4572.436035,4471.538574,4384.487305,4517.820313,6023.000000,3.000000,55.000000,,,,0.000000,4.000000,4.000000,4.000000,4.000000,4.000000,4.000000,4.000000,4.000000,4.000000,4.000000,4.000000,4.000000,4.000000,4.000000,100.000000,,,,,,,,,,,,,,,,,,,,,,,,,,,,
1703414855.982327,1703415055.548448,15.000000,0.000000,4324.871582,4250.256348,4321.922852,4298.205078,4242.948730,4141.282227,4209.102539,4247.692383,4238.717773,4218.717773,4566.025879,4480.128418,4390.000000,4528.077148,6317.000000,3.000000,55.000000,,,,0.000000,4.000000,4.000000,4.000000,4.000000,4.000000,4.000000,4.000000,4.000000,4.000000,4.000000,4.000000,4.000000,4.000000,4.000000,100.000000,,,,,,,,,,,,,,,,,,,,,,,,,,,,
1703414855.990135,1703415055.556356,16.000000,0.000000,4347.179688,4273.333496,4333.077148,4314.743652,4246.282227,4152.692383,4212.051270,4248.205078,4235.000000,4222.179688,4566.538574,4486.538574,4391.666504,4538.974121,0.000000,3.000000,55.000000,,,,0.000000,4.000000,4.000000,4.000000,4.000000,4.000000,4.000000,4.000000,4.000000,4.000000,4.000000,4.000000,4.000000,4.000000,4.000000,100.000000,,,,,,,,,,,,,,,,,4.000000,0.000000,0.710973,0.180359,-0.633606,0.246033,0.989867,-0.052741,0.119155,-15.699910,-40.220249,66.460518
1703414855.997943,1703415055.564164,17.000000,0.000000,4365.256348,4283.461426,4345.256348,4324.871582,4251.153809,4159.358887,4218.333496,4249.230957,4243.846191,4225.000000,4577.051270,4490.384766,4406.153809,4551.410156,0.000000,3.000000,55.000000,,,,0.000000,4.000000,4.000000,4.000000,4.000000,4.000000,4.000000,4.000000,4.000000,4.000000,4.000000,4.000000,4.000000,4.000000,4.000000,100.000000,,,,,,,,,,,,,,,,,,,,,,,,,,,,
1703414856.005751,1703415055.572072,18.000000,0.000000,4361.410156,4268.077148,4348.077148,4319.102539,4242.820313,4153.974121,4215.897461,4248.974121,4249.487305,4227.948730,4581.794922,4500.128418,4419.615234,4557.948730,0.000000,3.000000,55.000000,,,,0.000000,4.000000,4.000000,4.000000,4.000000,4.000000,4.000000,4.000000,4.000000,4.000000,4.000000,4.000000,4.000000,4.000000,4.000000,100.000000,,,,,,,,,,,,,,,,,,,,,,,,,,,,
1703414856.013559,1703415055.579881,19.000000,0.000000,4357.820313,4269.358887,4351.410156,4320.769043,4237.563965,4158.589844,4208.333496,4244.743652,4245.384766,4232.563965,4583.846191,4500.128418,4415.000000,4557.436035,0.000000,3.000000,55.000000,,,,0.000000,4.000000,4.000000,4.000000,4.000000,4.000000,4.000000,4.000000,4.000000,4.000000,4.000000,4.000000,4.000000,4.000000,4.000000,100.000000,,,,,,,,,,,,,,,,,,,,,,,,,,,,
1703414856.021367,1703415055.587789,20.000000,0.000000,4359.743652,4282.179688,4351.410156,4326.410156,4247.948730,4167.563965,4207.051270,4242.436035,4241.666504,4237.179688,4587.307617,4491.794922,4408.333496,4554.615234,0.000000,3.000000,55.000000,,,,0.000000,4.000000,4.000000,4.000000,4.000000,4.000000,4.000000,4.000000,4.000000,4.000000,4.000000,4.000000,4.000000,4.000000,4.000000,100.000000,1.000000,91.666664,4.000000,4.000000,4.000000,4.000000,4.000000,3.000000,4.000000,4.000000,4.000000,4.000000,4.000000,4.000000,4.000000,4.000000,5.000000,0.000000,0.711068,0.180115,-0.633545,0.246094,0.972775,-0.064461,0.132340,-15.696586,-40.164890,66.464462
1703414856.029176,1703415055.595597,21.000000,0.000000,4353.974121,4282.563965,4344.358887,4327.948730,4252.692383,4168.333496,4213.077148,4247.179688,4244.487305,4233.205078,4586.794922,4493.333496,4411.282227,4552.436035,0.000000,3.000000,55.000000,,,,0.000000,4.000000,4.000000,4.000000,4.000000,4.000000,4.000000,4.000000,4.000000,4.000000,4.000000,4.000000,4.000000,4.000000,4.000000,100.000000,,,,,,,,,,,,,,,,,,,,,,,,,,,,
1703414856.036984,1703415055.603505,22.000000,0.000000,4342.692383,4277.051270,4343.205078,4326.794922,4247.692383,4166.666504,4214.230957,4245.641113,4244.487305,4225.384766,4581.538574,4489.102539,4410.641113,4544.102539,0.000000,3.000000,55.000000,,,,0.000000,4.000000,4.000000,4.000000,4.000000,4.000000,4.000000,4.000000,4.000000,4.000000,4.000000,4.000000,4.000000,4.000000,4.000000,100.000000,,,,,,,,,,,,,,,,,,,,,,,,,,,,
1703414856.044792,1703415055.611313,23.000000,0.000000,4329.871582,4266.410156,4340.384766,4317.948730,4246.794922,4158.717773,4204.487305,4238.077148,4235.769043,4220.769043,4579.230957,4480.128418,4407.563965,4537.948730,0.000000,3.000000,55.000000,,,,0.000000,4.000000,4.000000,4.000000,4.000000,4.000000,4.000000,4.000000,4.000000,4.000000,4.000000,4.000000,4.000000,4.000000,4.000000,100.000000,,,,,,,,,,,,,,,,,,,,,,,,,,,,
1703414856.052600,1703415055.619021,24.000000,0.000000,4323.077148,4258.077148,4332.948730,4311.538574,4245.000000,4152.948730,4199.615234,4238.717773,4230.256348,4220.128418,4580.128418,4488.077148,4408.077148,4533.974121,0.000000,3.000000,55.000000,,,,0.000000,4.000000,4.000000,4.000000,4.000000,4.000000,4.000000,4.000000,4.000000,4.000000,4.000000,4.000000,4.000000,4.000000,4.000000,100.000000,,,,,,,,,,,,,,,,,6.000000,0.000000,0.711132,0.179993,-0.633484,0.246155,1.001587,-0.065438,0.134294,-15.826927,-40.415070,66.434685
1703414856.060408,1703415055.626830,25.000000,0.000000,4326.922852,4267.307617,4337.051270,4318.717773,4242.307617,4159.871582,4204.230957,4244.743652,4239.102539,4227.051270,4584.358887,4497.051270,4412.820313,4529.615234,0.000000,3.000000,55.000000,,,,0.000000,4.000000,4.000000,4.000000,4.000000,4.000000,4.000000,4.000000,4.000000,4.000000,4.000000,4.000000,4.000000,4.000000,4.000000,100.000000,,,,,,,,,,,,,,,,,,,,,,,,,,,,
1703414856.068216,1703415055.634538,26.000000,0.000000,4323.846191,4271.410156,4343.589844,4325.769043,4243.717773,4162.051270,4204.102539,4244.743652,4246.922852,4233.846191,4590.769043,4489.230957,4417.436035,4529.358887,0.000000,3.000000,55.000000,,,,0.000000,4.000000,4.000000,4.000000,4.000000,4.000000,4.000000,4.000000,4.000000,4.000000,4.000000,4.000000,4.000000,4.000000,4.000000,100.000000,,,,,,,,,,,,,,,,,,,,,,,,,,,,
1703414856.076024,1703415055.642346,27.000000,0.000000,4312.563965,4263.205078,4341.282227,4325.512695,4246.025879,4159.358887,4203.077148,4242.563965,4246.538574,4233.333496,4590.128418,4487.820313,4416.538574,4529.230957,0.000000,3.000000,55.000000,,,,0.000000,4.000000,4.000000,4.000000,4.000000,4.000000,4.000000,4.000000,4.000000,4.000000,4.000000,4.000000,4.000000,4.000000,4.000000,100.000000,,,,,,,,,,,,,,,,,,,,,,,,,,,,
1703414856.083832,1703415055.650055,28.000000,0.000000,4312.820313,4266.282227,4343.077148,4327.436035,4248.205078,4167.692383,4205.641113,4246.025879,4246.794922,4230.384766,4590.128418,4496.538574,4413.717773,4529.487305,0.000000,3.000000,55.000000,,,,0.000000,4.000000,4.000000,4.000000,4.000000,4.000000,4.000000,4.000000,4.000000,4.000000,4.000000,4.000000,4.000000,4.000000,4.000000,100.000000,,,,,,,,,,,,,,,,,7.000000,0.000000,0.711122,0.180115,-0.633484,0.246094,0.984984,-0.062508,0.124039,-15.894235,-40.523560,66.374550
1703414856.091640,1703415055.657963,29.000000,0.000000,4311.794922,4271.666504,4343.717773,4324.230957,4243.205078,4168.974121,4204.487305,4250.512695,4247.436035,4234.615234,4588.333496,4497.051270,4410.897461,4521.153809,0.000000,3.000000,55.000000,,,,0.000000,4.000000,4.000000,4.000000,4.000000,4.000000,4.000000,4.000000,4.000000,4.000000,4.000000,4.000000,4.000000,4.000000,4.000000,100.000000,,,,,,,,,,,,,,,,,,,,,,,,,,,,
1703414856.099448,1703415055.665771,30.000000,0.000000,4294.230957,4262.563965,4333.077148,4312.436035,4237.948730,4155.256348,4200.384766,4251.794922,4247.436035,4232.692383,4575.256348,4487.436035,4402.307617,4498.717773,0.000000,3.000000,55.000000,,,,0.000000,4.000000,4.000000,4.000000,4.000000,4.000000,4.000000,4.000000,4.000000,4.000000,4.000000,4.000000,4.000000,4.000000,4.000000,100.000000,,,,,,,,,,,,,,,,,,,,,,,,,,,,
1703414856.107256,1703415055.673680,31.000000,0.000000,4277.820313,4250.769043,4325.128418,4308.077148,4242.051270,4154.358887,4201.025879,4250.000000,4245.256348,4221.025879,4568.333496,4480.769043,4395.512695,4488.205078,0.000000,3.000000,55.000000,,,,0.000000,4.000000,4.000000,4.000000,4.000000,4.000000,4.000000,4.000000,4.000000,4.000000,4.000000,4.000000,4.000000,4.000000,4.000000,100.000000,,,,,,,,,,,,,,,,,,,,,,,,,,,,
1703414856.115064,1703415055.681488,32.000000,0.000000,4269.743652,4248.205078,4325.128418,4308.461426,4246.794922,4162.051270,4203.974121,4245.384766,4236.922852,4215.512695,4568.974121,4475.641113,4392.051270,4492.051270,0.000000,3.000000,55.000000,,,,0.000000,4.000000,4.000000,4.000000,4.000000,4.000000,4.000000,4.000000,4.000000,4.000000,4.000000,4.000000,4.000000,4.000000,4.000000,100.000000,,,,,,,,,,,,,,,,,8.000000,0.000000,0.711221,0.180237,-0.633362,0.246033,0.984007,-0.055671,0.124039,-16.071478,-40.721207,66.287094
1703414856.122872,1703415055.689297,33.000000,0.000000,4261.025879,4248.846191,4322.307617,4307.436035,4245.128418,4156.666504,4204.615234,4241.922852,4233.717773,4216.025879,4563.974121,4468.333496,4383.077148,4482.051270,0.000000,3.000000,55.000000,,,,0.000000,4.000000,4.000000,4.000000,4.000000,4.000000,4.000000,4.000000,4.000000,4.000000,4.000000,4.000000,4.000000,4.000000,4.000000,100.000000,,,,,,,,,,,,,,,,,,,,,,,,,,,,
1703414856.130680,1703415055.697005,34.000000,0.000000,4256.025879,4246.794922,4319.358887,4307.820313,4245.256348,4148.589844,4203.717773,4246.666504,4242.307617,4222.436035,4565.384766,4470.512695,4383.974121,4470.256348,0.000000,3.000000,55.000000,,,,0.000000,4.000000,4.000000,4.000000,4.000000,4.000000,4.000000,4.000000,4.000000,4.000000,4.000000,4.000000,4.000000,4.000000,4.000000,100.000000,,,,,,,,,,,,,,,,,,,,,,,,,,,,
1703414856.138488,1703415055.704813,35.000000,0.000000,4257.948730,4246.025879,4320.512695,4309.358887,4247.948730,4153.333496,4203.077148,4251.922852,4245.128418,4226.666504,4573.974121,4480.384766,4394.743652,4472.307617,0.000000,3.000000,55.000000,,,,0.000000,4.000000,4.000000,4.000000,4.000000,4.000000,4.000000,4.000000,4.000000,4.000000,4.000000,4.000000,4.000000,4.000000,4.000000,100.000000,,,,,,,,,,,,,,,,,,,,,,,,,,,,
1703414856.146296,1703415055.712521,36.000000,0.000000,4260.256348,4251.794922,4325.256348,4314.743652,4246.794922,4156.153809,4205.641113,4250.641113,4244.743652,4228.205078,4575.769043,4485.384766,4400.256348,4476.794922,0.000000,3.000000,55.000000,,,,0.000000,4.000000,4.000000,4.000000,4.000000,4.000000,4.000000,4.000000,4.000000,4.000000,4.000000,4.000000,4.000000,4.000000,4.000000,100.000000,,,,,,,,,,,,,,,,,9.000000,0.000000,0.711295,0.180542,-0.633240,0.245911,0.992797,-0.058601,0.141131,-16.114330,-40.882420,66.358383
1703414856.154104,1703415055.720329,37.000000,0.000000,4258.974121,4254.358887,4325.000000,4318.205078,4246.282227,4144.230957,4206.025879,4250.512695,4245.384766,4229.487305,4573.333496,4485.256348,4400.512695,4476.282227,0.000000,3.000000,55.000000,,,,0.000000,4.000000,4.000000,4.000000,4.000000,4.000000,4.000000,4.000000,4.000000,4.000000,4.000000,4.000000,4.000000,4.000000,4.000000,100.000000,,,,,,,,,,,,,,,,,,,,,,,,,,,,
1703414856.161912,1703415055.728037,38.000000,0.000000,4252.820313,4249.102539,4318.077148,4312.179688,4245.641113,4135.769043,4200.256348,4247.051270,4237.436035,4228.846191,4568.974121,4480.384766,4394.230957,4469.102539,0.000000,3.000000,55.000000,,,,0.000000,4.000000,4.000000,4.000000,4.000000,4.000000,4.000000,4.000000,4.000000,4.000000,4.000000,4.000000,4.000000,4.000000,4.000000,100.000000,,,,,,,,,,,,,,,,,,,,,,,,,,,,
1703414856.169721,1703415055.735945,39.000000,0.000000,4248.333496,4247.692383,4313.846191,4308.461426,4235.512695,4139.230957,4199.230957,4240.256348,4231.153809,4229.615234,4564.358887,4473.205078,4390.897461,4468.333496,0.000000,3.000000,55.000000,,,,0.000000,4.000000,4.000000,4.000000,4.000000,4.000000,4.000000,4.000000,4.000000,4.000000,4.000000,4.000000,4.000000,4.000000,4.000000,100.000000,,,,,,,,,,,,,,,,,,,,,,,,,,,,
1703414856.177529,1703415055.743753,40.000000,0.000000,4254.487305,4250.256348,4316.794922,4313.974121,4225.769043,4140.897461,4202.948730,4240.128418,4232.179688,4228.333496,4567.820313,4473.077148,4397.307617,4477.948730,0.000000,3.000000,55.000000,,,,0.000000,4.000000,4.000000,4.000000,4.000000,4.000000,4.000000,4.000000,4.000000,4.000000,4.000000,4.000000,4.000000,4.000000,4.000000,100.000000,,,,,,,,,,,,,,,,,10.000000,0.000000,0.711366,0.180725,-0.633179,0.245728,0.984495,-0.058601,0.132829,-16.086231,-40.877510,66.355881
1703414856.185336,1703415055.751661,41.000000,0.000000,4263.333496,4249.230957,4320.384766,4313.589844,4237.948730,4139.230957,4202.051270,4245.256348,4234.230957,4224.615234,4576.282227,4480.897461,4404.102539,4479.871582,0.000000,3.000000,55.000000,,,,0.000000,4.000000,4.000000,4.000000,4.000000,4.000000,4.000000,4.000000,4.000000,4.000000,4.000000,4.000000,4.000000,4.000000,4.000000,100.000000,,,,,,,,,,,,,,,,,,,,,,,,,,,,
1703414856.193145,1703415055.759469,42.000000,0.000000,4266.538574,4248.205078,4324.230957,4308.974121,4248.974121,4138.461426,4202.179688,4249.743652,4242.179688,4228.461426,4585.128418,4489.487305,4409.358887,4479.358887,0.000000,3.000000,55.000000,,,,0.000000,4.000000,4.000000,4.000000,4.000000,4.000000,4.000000,4.000000,4.000000,4.000000,4.000000,4.000000,4.000000,4.000000,4.000000,100.000000,,,,,,,,,,,,,,,,,,,,,,,,,,,,
1703414856.200953,1703415055.767377,43.000000,0.000000,4263.589844,4249.487305,4322.820313,4310.000000,4237.948730,4133.589844,4205.384766,4251.153809,4248.717773,4233.846191,4586.794922,4492.179688,4413.205078,4481.666504,0.000000,3.000000,55.000000,,,,0.000000,4.000000,4.000000,4.000000,4.000000,4.000000,4.000000,4.000000,4.000000,4.000000,4.000000,4.000000,4.000000,4.000000,4.000000,100.000000,,,,,,,,,,,,,,,,,,,,,,,,,,,,
1703414856.208761,1703415055.775186,44.000000,0.000000,4263.077148,4250.512695,4315.641113,4312.563965,4236.153809,4130.769043,4203.974121,4251.025879,4247.563965,4231.410156,4583.974121,4490.128418,4413.205078,4483.333496,0.000000,3.000000,55.000000,,,,0.000000,4.000000,4.000000,4.000000,4.000000,4.000000,4.000000,4.000000,4.000000,4.000000,4.000000,4.000000,4.000000,4.000000,4.000000,100.000000,,,,,,,,,,,,,,,,,11.000000,0.000000,0.711448,0.180603,-0.633240,0.245422,0.977170,-0.056648,0.126969,-16.060940,-40.789761,66.320290
1703414856.216569,1703415055.783094,45.000000,0.000000,4274.102539,4258.461426,4315.769043,4313.589844,4252.563965,4136.025879,4203.974121,4250.384766,4248.205078,4236.153809,4585.128418,4490.769043,4415.769043,4492.948730,0.000000,3.000000,55.000000,,,,0.000000,4.000000,4.000000,4.000000,4.000000,4.000000,4.000000,4.000000,4.000000,4.000000,4.000000,4.000000,4.000000,4.000000,4.000000,100.000000,,,,,,,,,,,,,,,,,,,,,,,,,,,,
1703414856.224377,1703415055.790902,46.000000,0.000000,4281.794922,4262.307617,4320.000000,4312.307617,4248.589844,4138.333496,4206.153809,4250.769043,4248.077148,4251.025879,4586.922852,4488.333496,4418.974121,4491.666504,0.000000,3.000000,55.000000,,,,0.000000,4.000000,4.000000,4.000000,4.000000,4.000000,4.000000,4.000000,4.000000,4.000000,4.000000,4.000000,4.000000,4.000000,4.000000,100.000000,,,,,,,,,,,,,,,,,,,,,,,,,,,,
1703414856.232185,1703415055.798710,47.000000,0.000000,4271.410156,4253.846191,4322.563965,4316.153809,4233.205078,4136.025879,4202.307617,4255.641113,4243.974121,4249.615234,4585.384766,4490.000000,4416.538574,4470.897461,0.000000,3.000000,55.000000,,,,0.000000,4.000000,4.000000,4.000000,4.000000,4.000000,4.000000,4.000000,4.000000,4.000000,4.000000,4.000000,4.000000,4.000000,4.000000,100.000000,,,,,,,,,,,,,,,,,,,,,,,,,,,,
1703414856.239993,1703415055.806518,48.000000,0.000000,4262.948730,4251.666504,4326.282227,4322.948730,4238.589844,4137.179688,4199.358887,4255.384766,4240.512695,4228.077148,4579.871582,4492.436035,4412.436035,4473.205078,0.000000,3.000000,55.000000,,,,0.000000,4.000000,4.000000,4.000000,4.000000,4.000000,4.000000,4.000000,4.000000,4.000000,4.000000,4.000000,4.000000,4.000000,4.000000,100.000000,,,,,,,,,,,,,,,,,12.000000,0.000000,0.711512,0.180420,-0.633362,0.245056,0.981565,-0.046881,0.125015,-15.904846,-40.627449,66.538261
1703414856.247801,1703415055.814227,49.000000,0.000000,4263.333496,4255.384766,4319.487305,4318.717773,4241.410156,4138.333496,4201.922852,4248.717773,4240.000000,4219.487305,4576.410156,4480.641113,4409.230957,4491.153809,0.000000,3.000000,55.000000,,,,0.000000,4.000000,4.000000,4.000000,4.000000,4.000000,4.000000,4.000000,4.000000,4.000000,4.000000,4.000000,4.000000,4.000000,4.000000,100.000000,,,,,,,,,,,,,,,,,,,,,,,,,,,,
1703414856.255609,1703415055.822035,50.000000,0.000000,4257.051270,4250.384766,4313.846191,4310.512695,4231.153809,4137.307617,4202.820313,4249.871582,4243.974121,4230.897461,4581.538574,4472.820313,4408.589844,4485.256348,0.000000,3.000000,55.000000,,,,0.000000,4.000000,4.000000,4.000000,4.000000,4.000000,4.000000,4.000000,4.000000,4.000000,4.000000,4.000000,4.000000,4.000000,4.000000,100.000000,,,,,,,,,,,,,,,,,,,,,,,,,,,,
1703414856.263417,1703415055.829743,51.000000,0.000000,4251.666504,4246.666504,4321.922852,4311.538574,4238.461426,4142.436035,4204.102539,4258.974121,4248.589844,4237.051270,4586.922852,4479.615234,4413.589844,4476.282227,0.000000,3.000000,55.000000,,,,0.000000,4.000000,4.000000,4.000000,4.000000,4.000000,4.000000,4.000000,4.000000,4.000000,4.000000,4.000000,4.000000,4.000000,4.000000,100.000000,,,,,,,,,,,,,,,,,,,,,,,,,,,,
1703414856.271225,1703415055.837551,52.000000,0.000000,4253.461426,4249.487305,4322.563965,4313.589844,4250.512695,4147.692383,4207.307617,4260.769043,4250.128418,4234.871582,4580.897461,4482.179688,4415.000000,4479.615234,0.000000,3.000000,55.000000,,,,0.000000,4.000000,4.000000,4.000000,4.000000,4.000000,4.000000,4.000000,4.000000,4.000000,4.000000,4.000000,4.000000,4.000000,4.000000,100.000000,,,,,,,,,,,,,,,,,13.000000,0.000000,0.711608,0.180420,-0.633301,0.244934,0.984984,-0.059578,0.133805,-15.881028,-40.631371,66.501106
1703414856.279033,1703415055.845260,53.000000,0.000000,4247.307617,4247.179688,4309.871582,4307.948730,4236.153809,4141.538574,4203.717773,4250.897461,4243.846191,4230.256348,4566.794922,4471.410156,4404.230957,4472.948730,0.000000,3.000000,55.000000,,,,0.000000,4.000000,4.000000,4.000000,4.000000,4.000000,4.000000,4.000000,4.000000,4.000000,4.000000,4.000000,4.000000,4.000000,4.000000,100.000000,,,,,,,,,,,,,,,,,,,,,,,,,,,,
1703414856.286841,1703415055.853068,54.000000,0.000000,4241.794922,4244.743652,4307.820313,4307.051270,4226.410156,4134.871582,4198.846191,4248.205078,4240.769043,4226.410156,4565.256348,4470.769043,4399.871582,4467.436035,0.000000,3.000000,55.000000,,,,0.000000,4.000000,4.000000,4.000000,4.000000,4.000000,4.000000,4.000000,4.000000,4.000000,4.000000,4.000000,4.000000,4.000000,4.000000,100.000000,,,,,,,,,,,,,,,,,,,,,,,,,,,,
1703414856.294649,1703415055.860776,55.000000,0.000000,4251.282227,4250.128418,4316.025879,4312.820313,4236.538574,4143.461426,4202.307617,4257.436035,4247.436035,4228.333496,4577.563965,4482.051270,4410.641113,4474.871582,0.000000,3.000000,55.000000,,,,0.000000,4.000000,4.000000,4.000000,4.000000,4.000000,4.000000,4.000000,4.000000,4.000000,4.000000,4.000000,4.000000,4.000000,4.000000,100.000000,,,,,,,,,,,,,,,,,,,,,,,,,,,,
1703414856.302457,1703415055.868584,56.000000,0.000000,4262.563965,4256.410156,4320.128418,4315.128418,4236.153809,4153.717773,4204.615234,4258.077148,4249.487305,4233.461426,4578.461426,4481.666504,4417.948730,4478.589844,0.000000,3.000000,55.000000,,,,0.000000,4.000000,4.000000,4.000000,4.000000,4.000000,4.000000,4.000000,4.000000,4.000000,4.000000,4.000000,4.000000,4.000000,4.000000,100.000000,,,,,,,,,,,,,,,,,14.000000,0.000000,0.711575,0.180420,-0.633362,0.244873,0.983518,-0.053717,0.125504,-15.859592,-40.534901,66.584328
1703414856.310265,1703415055.876292,57.000000,0.000000,4270.641113,4261.282227,4321.794922,4312.436035,4236.282227,4153.333496,4202.307617,4248.333496,4244.743652,4228.333496,4567.948730,4477.436035,4413.589844,4481.794922,0.000000,3.000000,55.000000,,,,0.000000,4.000000,4.000000,4.000000,4.000000,4.000000,4.000000,4.000000,4.000000,4.000000,4.000000,4.000000,4.000000,4.000000,4.000000,100.000000,,,,,,,,,,,,,,,,,,,,,,,,,,,,
1703414856.318073,1703415055.884100,58.000000,0.000000,4283.461426,4261.666504,4319.358887,4311.153809,4246.025879,4151.666504,4202.179688,4245.512695,4238.589844,4217.563965,4564.358887,4476.794922,4409.102539,4487.948730,0.000000,3.000000,55.000000,,,,0.000000,4.000000,4.000000,4.000000,4.000000,4.000000,4.000000,4.000000,4.000000,4.000000,4.000000,4.000000,4.000000,4.000000,4.000000,100.000000,,,,,,,,,,,,,,,,,,,,,,,,,,,,
1703414856.325881,1703415055.891808,59.000000,0.000000,4301.538574,4262.307617,4319.487305,4314.743652,4247.692383,4155.897461,4202.948730,4247.692383,4234.615234,4217.692383,4571.410156,4476.025879,4417.051270,4497.436035,0.000000,3.000000,55.000000,,,,0.000000,4.000000,4.000000,4.000000,4.000000,4.000000,4.000000,4.000000,4.000000,4.000000,4.000000,4.000000,4.000000,4.000000,4.000000,100.000000,,,,,,,,,,,,,,,,,,,,,,,,,,,,
1703414856.333690,1703415055.899616,60.000000,0.000000,4321.153809,4270.641113,4330.000000,4320.897461,4248.589844,4165.512695,4208.461426,4247.307617,4239.871582,4230.512695,4582.051270,4485.256348,4436.025879,4517.051270,0.000000,3.000000,55.000000,,,,0.000000,4.000000,4.000000,4.000000,4.000000,4.000000,4.000000,4.000000,4.000000,4.000000,4.000000,4.000000,4.000000,4.000000,4.000000,100.000000,,,,,,,,,,,,,,,,,15.000000,0.000000,0.711575,0.180420,-0.633362,0.244873,0.984007,-0.059578,0.126480,-15.956966,-40.398079,66.559227
1703414856.341498,1703415055.907324,61.000000,0.000000,4339.487305,4279.102539,4336.794922,4323.974121,4246.538574,4167.307617,4214.230957,4247.820313,4245.000000,4238.589844,4580.641113,4496.153809,4443.077148,4528.333496,0.000000,3.000000,55.000000,,,,0.000000,4.000000,4.000000,4.000000,4.000000,4.000000,4.000000,4.000000,4.000000,4.000000,4.000000,4.000000,4.000000,4.000000,4.000000,100.000000,,,,,,,,,,,,,,,,,,,,,,,,,,,,
1703414856.349306,1703415055.915232,62.000000,0.000000,4345.256348,4271.282227,4333.205078,4316.153809,4233.717773,4157.436035,4206.538574,4248.974121,4243.205078,4234.230957,4575.256348,4494.230957,4436.666504,4531.794922,0.000000,3.000000,55.000000,,,,0.000000,4.000000,4.000000,4.000000,4.000000,4.000000,4.000000,4.000000,4.000000,4.000000,4.000000,4.000000,4.000000,4.000000,4.000000,100.000000,,,,,,,,,,,,,,,,,,,,,,,,,,,,
1703414856.357114,1703415055.923040,63.000000,0.000000,4340.769043,4261.666504,4332.563965,4311.282227,4234.871582,4157.307617,4200.512695,4250.128418,4243.717773,4231.922852,4583.717773,4493.846191,4441.410156,4537.820313,0.000000,3.000000,55.000000,,,,0.000000,4.000000,4.000000,4.000000,4.000000,4.000000,4.000000,4.000000,4.000000,4.000000,4.000000,4.000000,4.000000,4.000000,4.000000,100.000000,,,,,,,,,,,,,,,,,,,,,,,,,,,,
1703414856.364922,1703415055.930949,64.000000,0.000000,4340.512695,4272.051270,4339.487305,4321.282227,4253.205078,4169.358887,4207.179688,4250.128418,4240.256348,4232.179688,4590.000000,4498.205078,4449.487305,4527.051270,5606.000000,3.000000,55.000000,,,,0.000000,4.000000,4.000000,4.000000,4.000000,4.000000,4.000000,4.000000,4.000000,4.000000,4.000000,4.000000,4.000000,4.000000,4.000000,100.000000,,,,,,,,,,,,,,,,,16.000000,0.000000,0.711388,0.180481,-0.633484,0.245056,0.979612,-0.043462,0.126480,-15.977937,-40.674934,66.436638
1703414856.372730,1703415055.938757,65.000000,0.000000,4334.230957,4278.974121,4337.948730,4325.897461,4248.974121,4171.153809,4208.974121,4246.666504,4228.461426,4232.563965,4580.256348,4497.820313,4444.358887,4508.461426,5547.000000,3.000000,55.000000,,,,0.000000,4.000000,4.000000,4.000000,4.000000,4.000000,4.000000,4.000000,4.000000,4.000000,4.000000,4.000000,4.000000,4.000000,4.000000,100.000000,,,,,,,,,,,,,,,,,,,,,,,,,,,,
1703414856.380538,1703415055.946665,66.000000,0.000000,4318.077148,4266.025879,4330.769043,4322.179688,4234.230957,4166.282227,4203.589844,4245.512695,4228.077148,4231.538574,4572.692383,4496.794922,4434.743652,4510.000000,5455.000000,3.000000,55.000000,,,,0.000000,4.000000,4.000000,4.000000,4.000000,4.000000,4.000000,4.000000,4.000000,4.000000,4.000000,4.000000,4.000000,4.000000,4.000000,100.000000,,,,,,,,,,,,,,,,,,,,,,,,,,,,
1703414856.388346,1703415055.954473,67.000000,0.000000,4306.410156,4260.641113,4330.512695,4325.256348,4239.230957,4164.487305,4202.948730,4245.512695,4234.487305,4222.948730,4573.717773,4488.717773,4426.282227,4509.487305,5389.000000,3.000000,55.000000,,,,0.000000,4.000000,4.000000,4.000000,4.000000,4.000000,4.000000,4.000000,4.000000,4.000000,4.000000,4.000000,4.000000,4.000000,4.000000,100.000000,,,,,,,,,,,,,,,,,,,,,,,,,,,,
1703414856.396154,1703415055.962381,68.000000,0.000000,4295.897461,4265.256348,4326.025879,4325.000000,4242.692383,4159.102539,4203.077148,4245.897461,4233.077148,4216.538574,4569.487305,4476.410156,4416.410156,4490.897461,5278.000000,3.000000,55.000000,,,,0.000000,4.000000,4.000000,4.000000,4.000000,4.000000,4.000000,4.000000,4.000000,4.000000,4.000000,4.000000,4.000000,4.000000,4.000000,100.000000,,,,,,,,,,,,,,,,,17.000000,0.000000,0.711363,0.180542,-0.633423,0.245239,0.993285,-0.060066,0.124527,-16.146809,-40.557442,66.476311
1703414856.403962,1703415055.970189,69.000000,0.000000,4281.025879,4258.461426,4314.487305,4312.948730,4233.589844,4156.922852,4203.205078,4246.666504,4228.205078,4216.666504,4555.769043,4471.794922,4406.922852,4477.820313,4235.000000,3.000000,55.000000,,,,0.000000,4.000000,4.000000,4.000000,4.000000,4.000000,4.000000,4.000000,4.000000,4.000000,4.000000,4.000000,4.000000,4.000000,4.000000,100.000000,,,,,,,,,,,,,,,,,,,,,,,,,,,,
1703414856.411770,1703415055.978097,70.000000,0.000000,4273.205078,4250.769043,4306.666504,4306.410156,4231.410156,4156.410156,4202.563965,4245.897461,4224.487305,4215.769043,4550.000000,4467.051270,4401.410156,4473.333496,4238.000000,3.000000,55.000000,,,,0.000000,4.000000,4.000000,4.000000,4.000000,4.000000,4.000000,4.000000,4.000000,4.000000,4.000000,4.000000,4.000000,4.000000,4.000000,100.000000,,,,,,,,,,,,,,,,,,,,,,,,,,,,
1703414856.419578,1703415055.985906,71.000000,0.000000,4275.000000,4259.102539,4308.077148,4309.102539,4239.487305,4152.051270,4200.512695,4245.897461,4226.922852,4213.717773,4553.461426,4459.743652,4400.384766,4467.307617,5175.000000,3.000000,55.000000,,,,0.000000,4.000000,4.000000,4.000000,4.000000,4.000000,4.000000,4.000000,4.000000,4.000000,4.000000,4.000000,4.000000,4.000000,4.000000,100.000000,,,,,,,,,,,,,,,,,,,,,,,,,,,,
1703414856.427386,1703415055.993814,72.000000,0.000000,4277.820313,4260.128418,4310.769043,4312.051270,4248.205078,4169.358887,4206.538574,4248.205078,4233.461426,4212.820313,4546.538574,4465.641113,4397.179688,4465.512695,5392.000000,3.000000,55.000000,,,,0.000000,4.000000,4.000000,4.000000,4.000000,4.000000,4.000000,4.000000,4.000000,4.000000,4.000000,4.000000,4.000000,4.000000,4.000000,100.000000,,,,,,,,,,,,,,,,,18.000000,0.000000,0.711324,0.180481,-0.633484,0.245239,0.974728,-0.054206,0.129410,-16.148796,-40.601700,66.445343
1703414856.435194,1703415056.001622,73.000000,0.000000,4278.589844,4251.025879,4310.641113,4316.922852,4248.974121,4207.948730,4214.487305,4249.871582,4227.820313,4212.948730,4543.205078,4475.512695,4393.205078,4469.743652,5288.000000,3.000000,55.000000,,,,0.000000,4.000000,4.000000,4.000000,4.000000,4.000000,4.000000,4.000000,4.000000,4.000000,4.000000,4.000000,4.000000,4.000000,4.000000,100.000000,,,,,,,,,,,,,,,,,,,,,,,,,,,,
1703414856.443002,1703415056.009330,74.000000,0.000000,4283.589844,4256.282227,4311.153809,4318.846191,4243.077148,4222.563965,4215.256348,4245.769043,4218.077148,4217.051270,4553.974121,4472.563965,4399.102539,4475.384766,6018.000000,3.000000,55.000000,,,,0.000000,4.000000,4.000000,4.000000,4.000000,4.000000,4.000000,4.000000,4.000000,4.000000,4.000000,4.000000,4.000000,4.000000,4.000000,100.000000,,,,,,,,,,,,,,,,,,,,,,,,,,,,
1703414856.450810,1703415056.017139,75.000000,0.000000,4283.846191,4263.205078,4311.410156,4312.948730,4235.897461,4206.666504,4214.230957,4237.307617,4218.333496,4218.717773,4556.410156,4463.974121,4408.461426,4477.692383,6320.000000,3.000000,55.000000,,,,0.000000,4.000000,4.000000,4.000000,4.000000,4.000000,4.000000,4.000000,4.000000,4.000000,4.000000,4.000000,4.000000,4.000000,4.000000,100.000000,,,,,,,,,,,,,,,,,,,,,,,,,,,,
1703414856.458618,1703415056.024847,76.000000,0.000000,4270.256348,4251.538574,4307.051270,4306.538574,4229.487305,4197.692383,4212.563965,4227.948730,4215.897461,4212.692383,4548.077148,4461.282227,4404.871582,4468.205078,6831.000000,3.000000,55.000000,,,,0.000000,4.000000,4.000000,4.000000,4.000000,4.000000,4.000000,4.000000,4.000000,4.000000,4.000000,4.000000,4.000000,4.000000,4.000000,100.000000,,,,,,,,,,,,,,,,,19.000000,0.000000,0.711231,0.180420,-0.633606,0.245239,0.994262,-0.058113,0.133805,-16.100582,-40.641529,66.450806
1703414856.466426,1703415056.032655,77.000000,0.000000,4265.769043,4246.666504,4304.102539,4309.487305,4233.205078,4203.589844,4212.948730,4228.589844,4211.153809,4215.769043,4548.333496,4467.692383,4400.641113,4455.256348,7363.000000,3.000000,55.000000,,,,0.000000,4.000000,4.000000,4.000000,4.000000,4.000000,4.000000,4.000000,4.000000,4.000000,4.000000,4.000000,4.000000,4.000000,4.000000,100.000000,,,,,,,,,,,,,,,,,,,,,,,,,,,,
1703414856.474234,1703415056.040363,78.000000,0.000000,4278.461426,4262.307617,4315.000000,4317.563965,4249.102539,4206.666504,4216.538574,4241.666504,4223.974121,4230.897461,4566.666504,4481.153809,4416.922852,4467.179688,6018.000000,3.000000,55.000000,,,,0.000000,4.000000,4.000000,4.000000,4.000000,4.000000,4.000000,4.000000,4.000000,4.000000,4.000000,4.000000,4.000000,4.000000,4.000000,100.000000,,,,,,,,,,,,,,,,,,,,,,,,,,,,
1703414856.482042,1703415056.048172,79.000000,0.000000,4281.025879,4266.794922,4324.487305,4317.307617,4250.000000,4204.487305,4215.000000,4250.769043,4238.846191,4237.436035,4578.974121,4490.512695,4429.615234,4482.692383,6320.000000,3.000000,55.000000,,,,0.000000,4.000000,4.000000,4.000000,4.000000,4.000000,4.000000,4.000000,4.000000,4.000000,4.000000,4.000000,4.000000,4.000000,4.000000,100.000000,,,,,,,,,,,,,,,,,,,,,,,,,,,,
1703414856.489851,1703415056.055880,80.000000,0.000000,4266.282227,4254.358887,4317.051270,4310.897461,4242.692383,4204.102539,4211.282227,4247.179688,4233.205078,4231.282227,4565.384766,4487.307617,4417.436035,4467.307617,6831.000000,3.000000,55.000000,,,,0.000000,4.000000,4.000000,4.000000,4.000000,4.000000,4.000000,4.000000,4.000000,4.000000,4.000000,4.000000,4.000000,4.000000,4.000000,100.000000,,,,,,,,,,,,,,,,,20.000000,0.000000,0.711270,0.180481,-0.633545,0.245239,0.989379,-0.052252,0.128434,-16.073858,-40.527374,66.405731
1703414856.497659,1703415056.063688,81.000000,0.000000,4252.051270,4248.461426,4308.333496,4308.717773,4246.922852,4204.615234,4212.436035,4240.769043,4229.358887,4228.589844,4554.743652,4477.179688,4407.948730,4451.794922,7363.000000,3.000000,55.000000,,,,0.000000,4.000000,4.000000,4.000000,4.000000,4.000000,4.000000,4.000000,4.000000,4.000000,4.000000,4.000000,4.000000,4.000000,4.000000,100.000000,,,,,,,,,,,,,,,,,,,,,,,,,,,,
1703414856.505467,1703415056.071396,82.000000,0.000000,4248.077148,4248.333496,4310.384766,4309.743652,4239.487305,4203.333496,4212.563965,4241.282227,4233.717773,4230.769043,4565.384766,4472.307617,4412.307617,4458.461426,6018.000000,3.000000,55.000000,,,,0.000000,4.000000,4.000000,4.000000,4.000000,4.000000,4.000000,4.000000,4.000000,4.000000,4.000000,4.000000,4.000000,4.000000,4.000000,100.000000,,,,,,,,,,,,,,,,,,,,,,,,,,,,
1703414856.513275,1703415056.079304,83.000000,0.000000,4252.179688,4247.051270,4312.692383,4310.512695,4227.179688,4200.769043,4211.922852,4246.282227,4233.974121,4235.000000,4573.333496,4482.563965,4415.128418,4467.307617,6320.000000,3.000000,55.000000,,,,0.000000,4.000000,4.000000,4.000000,4.000000,4.000000,4.000000,4.000000,4.000000,4.000000,4.000000,4.000000,4.000000,4.000000,4.000000,100.000000,,,,,,,,,,,,,,,,,,,,,,,,,,,,
1703414856.521083,1703415056.087112,84.000000,0.000000,4253.846191,4244.358887,4310.256348,4308.205078,4238.846191,4202.948730,4215.641113,4246.410156,4234.615234,4234.743652,4568.333496,4491.153809,4412.307617,4463.717773,6831.000000,3.000000,55.000000,,,,0.000000,4.000000,4.000000,4.000000,4.000000,4.000000,4.000000,4.000000,4.000000,4.000000,4.000000,4.000000,4.000000,4.000000,4.000000,100.000000,1.000000,91.666664,4.000000,4.000000,4.000000,4.000000,4.000000,3.000000,4.000000,4.000000,4.000000,4.000000,4.000000,4.000000,4.000000,4.000000,21.000000,0.000000,0.711185,0.180603,-0.633606,0.245239,0.977658,-0.059578,0.121597,-15.983138,-40.491306,66.298492
1703414856.528891,1703415056.095020,85.000000,0.000000,4247.307617,4245.000000,4310.769043,4304.615234,4248.846191,4205.000000,4216.922852,4235.897461,4227.563965,4220.384766,4557.820313,4475.000000,4404.102539,4451.666504,7363.000000,3.000000,55.000000,,,,0.000000,4.000000,4.000000,4.000000,4.000000,4.000000,4.000000,4.000000,4.000000,4.000000,4.000000,4.000000,4.000000,4.000000,4.000000,100.000000,,,,,,,,,,,,,,,,,,,,,,,,,,,,
1703414856.536699,1703415056.102828,86.000000,0.000000,4245.512695,4246.282227,4310.512695,4307.563965,4245.897461,4201.282227,4213.461426,4227.051270,4215.512695,4214.358887,4550.897461,4455.128418,4399.871582,4444.358887,6018.000000,3.000000,55.000000,,,,0.000000,4.000000,4.000000,4.000000,4.000000,4.000000,4.000000,4.000000,4.000000,4.000000,4.000000,4.000000,4.000000,4.000000,4.000000,100.000000,,,,,,,,,,,,,,,,,,,,,,,,,,,,
1703414856.544507,1703415056.110736,87.000000,0.000000,4246.410156,4241.153809,4306.282227,4312.692383,4248.589844,4201.282227,4213.717773,4229.358887,4218.205078,4225.128418,4550.384766,4460.641113,4402.436035,4443.846191,6320.000000,3.000000,55.000000,,,,0.000000,4.000000,4.000000,4.000000,4.000000,4.000000,4.000000,4.000000,4.000000,4.000000,4.000000,4.000000,4.000000,4.000000,4.000000,100.000000,,,,,,,,,,,,,,,,,,,,,,,,,,,,
1703414856.552315,1703415056.118545,88.000000,0.000000,4245.000000,4237.692383,4303.333496,4308.589844,4245.897461,4197.436035,4215.000000,4234.102539,4231.538574,4225.384766,4551.666504,4472.820313,4401.666504,4443.077148,6831.000000,3.000000,55.000000,,,,0.000000,4.000000,4.000000,4.000000,4.000000,4.000000,4.000000,4.000000,4.000000,4.000000,4.000000,4.000000,4.000000,4.000000,4.000000,100.000000,,,,,,,,,,,,,,,,,22.000000,0.000000,0.711084,0.180786,-0.633667,0.245239,0.987914,-0.058113,0.119155,-16.034824,-40.542175,66.535309
1703414856.560123,1703415056.126453,89.000000,0.000000,4248.333496,4243.333496,4303.077148,4304.871582,4230.897461,4185.512695,4213.846191,4235.000000,4230.512695,4215.897461,4554.102539,4471.666504,4404.487305,4443.717773,7363.000000,3.000000,55.000000,,,,0.000000,4.000000,4.000000,4.000000,4.000000,4.000000,4.000000,4.000000,4.000000,4.000000,4.000000,4.000000,4.000000,4.000000,4.000000,100.000000,,,,,,,,,,,,,,,,,,,,,,,,,,,,
1703414856.567931,1703415056.134261,90.000000,0.000000,4251.666504,4249.102539,4305.641113,4310.769043,4231.153809,4187.563965,4213.461426,4232.820313,4220.512695,4218.205078,4558.461426,4467.179688,4409.743652,4444.871582,6018.000000,3.000000,55.000000,,,,0.000000,4.000000,4.000000,4.000000,4.000000,4.000000,4.000000,4.000000,4.000000,4.000000,4.000000,4.000000,4.000000,4.000000,4.000000,100.000000,,,,,,,,,,,,,,,,,,,,,,,,,,,,
1703414856.575739,1703415056.142169,91.000000,0.000000,4250.512695,4246.922852,4307.820313,4311.538574,4245.512695,4197.820313,4214.487305,4230.897461,4219.743652,4222.692383,4554.743652,4463.589844,4405.897461,4443.461426,6320.000000,3.000000,55.000000,,,,0.000000,4.000000,4.000000,4.000000,4.000000,4.000000,4.000000,4.000000,4.000000,4.000000,4.000000,4.000000,4.000000,4.000000,4.000000,100.000000,,,,,,,,,,,,,,,,,,,,,,,,,,,,
1703414856.583547,1703415056.149977,92.000000,0.000000,4249.615234,4242.948730,4309.358887,4305.000000,4246.538574,4192.179688,4215.000000,4228.589844,4218.333496,4218.461426,4548.974121,4464.102539,4401.153809,4441.410156,6831.000000,3.000000,55.000000,,,,0.000000,4.000000,4.000000,4.000000,4.000000,4.000000,4.000000,4.000000,4.000000,4.000000,4.000000,4.000000,4.000000,4.000000,4.000000,100.000000,,,,,,,,,,,,,,,,,23.000000,0.000000,0.711048,0.181091,-0.633667,0.245117,0.985960,-0.065926,0.126969,-16.081343,-40.454624,66.665108
1703414856.591355,1703415056.157885,93.000000,0.000000,4246.922852,4244.230957,4310.128418,4306.666504,4240.897461,4185.256348,4215.641113,4233.717773,4216.666504,4218.846191,4552.948730,4472.179688,4404.487305,4439.230957,7363.000000,3.000000,55.000000,,,,0.000000,4.000000,4.000000,4.000000,4.000000,4.000000,4.000000,4.000000,4.000000,4.000000,4.000000,4.000000,4.000000,4.000000,4.000000,100.000000,,,,,,,,,,,,,,,,,,,,,,,,,,,,
1703414856.599163,1703415056.165694,94.000000,0.000000,4242.948730,4247.563965,4309.230957,4310.128418,4245.512695,4190.897461,4217.436035,4239.615234,4224.487305,4218.717773,4556.538574,4478.461426,4404.358887,4436.922852,6018.000000,3.000000,55.000000,,,,0.000000,4.000000,4.000000,4.000000,4.000000,4.000000,4.000000,4.000000,4.000000,4.000000,4.000000,4.000000,4.000000,4.000000,4.000000,100.000000,,,,,,,,,,,,,,,,,,,,,,,,,,,,
1703414856.606971,1703415056.173502,95.000000,0.000000,4245.256348,4252.436035,4309.358887,4310.000000,4250.512695,4190.769043,4219.102539,4236.282227,4231.922852,4215.000000,4552.436035,4473.974121,4396.025879,4431.538574,6320.000000,3.000000,55.000000,,,,0.000000,4.000000,4.000000,4.000000,4.000000,4.000000,4.000000,4.000000,4.000000,4.000000,4.000000,4.000000,4.000000,4.000000,4.000000,100.000000,,,,,,,,,,,,,,,,,,,,,,,,,,,,
1703414856.614779,1703415056.181310,96.000000,0.000000,4248.077148,4249.487305,4310.897461,4310.128418,4246.153809,4184.358887,4218.077148,4238.205078,4232.563965,4222.436035,4554.871582,4475.000000,4398.974121,4432.307617,6831.000000,3.000000,55.000000,,,,0.000000,4.000000,4.000000,4.000000,4.000000,4.000000,4.000000,4.000000,4.000000,4.000000,4.000000,4.000000,4.000000,4.000000,4.000000,100.000000,,,,,,,,,,,,,,,,,24.000000,0.000000,0.711047,0.181213,-0.633728,0.244873,0.987425,-0.033696,0.118178,-16.056541,-40.409161,66.548599
1703414856.622587,1703415056.189018,97.000000,0.000000,4236.025879,4236.666504,4308.974121,4305.641113,4244.230957,4178.717773,4218.077148,4248.205078,4233.589844,4233.846191,4559.743652,4485.769043,4407.051270,4441.282227,7363.000000,3.000000,55.000000,,,,0.000000,4.000000,4.000000,4.000000,4.000000,4.000000,4.000000,4.000000,4.000000,4.000000,4.000000,4.000000,4.000000,4.000000,4.000000,100.000000,,,,,,,,,,,,,,,,,,,,,,,,,,,,
1703414856.630396,1703415056.196827,98.000000,0.000000,4226.794922,4236.794922,4307.820313,4301.410156,4248.846191,4176.794922,4223.333496,4248.077148,4235.384766,4232.179688,4554.743652,4482.307617,4402.436035,4442.307617,6018.000000,3.000000,55.000000,,,,0.000000,4.000000,4.000000,4.000000,4.000000,4.000000,4.000000,4.000000,4.000000,4.000000,4.000000,4.000000,4.000000,4.000000,4.000000,100.000000,,,,,,,,,,,,,,,,,,,,,,,,,,,,
1703414856.638204,1703415056.204535,99.000000,0.000000,4238.077148,4248.205078,4310.128418,4301.410156,4249.487305,4180.641113,4223.205078,4241.794922,4234.230957,4228.077148,4556.153809,4472.436035,4401.538574,4436.922852,6320.000000,3.000000,55.000000,,,,0.000000,4.000000,4.000000,4.000000,4.000000,4.000000,4.000000,4.000000,4.000000,4.000000,4.000000,4.000000,4.000000,4.000000,4.000000,100.000000,,,,,,,,,,,,,,,,,,,,,,,,,,,,
1703414856.646011,1703415056.212343,100.000000,0.000000,4250.000000,4243.974121,4310.641113,4298.461426,4245.769043,4183.205078,4217.436035,4243.589844,4233.461426,4233.974121,4567.179688,4475.000000,4410.256348,4442.307617,6831.000000,3.000000,55.000000,,,,0.000000,4.000000,4.000000,4.000000,4.000000,4.000000,4.000000,4.000000,4.000000,4.000000,4.000000,4.000000,4.000000,4.000000,4.000000,100.000000,,,,,,,,,,,,,,,,,25.000000,0.000000,0.711040,0.181274,-0.633789,0.244690,0.977658,-0.043951,0.123062,-16.034220,-40.484913,66.493736
1703414856.653820,1703415056.220051,101.000000,0.000000,4248.205078,4231.794922,4309.487305,4293.461426,4244.358887,4181.153809,4223.974121,4246.282227,4234.615234,4237.692383,4572.307617,4485.897461,4414.102539,4455.641113,7363.000000,3.000000,55.000000,,,,0.000000,4.000000,4.000000,4.000000,4.000000,4.000000,4.000000,4.000000,4.000000,4.000000,4.000000,4.000000,4.000000,4.000000,4.000000,100.000000,,,,,,,,,,,,,,,,,,,,,,,,,,,,
1703414856.661628,1703415056.227960,102.000000,0.000000,4244.102539,4230.512695,4308.717773,4294.230957,4241.666504,4182.692383,4231.025879,4245.512695,4234.871582,4232.948730,4564.871582,4490.128418,4411.025879,4457.307617,6018.000000,3.000000,55.000000,,,,0.000000,4.000000,4.000000,4.000000,4.000000,4.000000,4.000000,4.000000,4.000000,4.000000,4.000000,4.000000,4.000000,4.000000,4.000000,100.000000,,,,,,,,,,,,,,,,,,,,,,,,,,,,
1703414856.669436,1703415056.235768,103.000000,0.000000,4247.563965,4235.897461,4306.153809,4295.256348,4233.974121,4184.230957,4221.538574,4247.179688,4233.461426,4227.563965,4556.794922,4480.128418,4405.897461,4447.179688,6320.000000,3.000000,55.000000,,,,0.000000,4.000000,4.000000,4.000000,4.000000,4.000000,4.000000,4.000000,4.000000,4.000000,4.000000,4.000000,4.000000,4.000000,4.000000,100.000000,,,,,,,,,,,,,,,,,,,,,,,,,,,,
1703414856.677244,1703415056.243676,104.000000,0.000000,4251.282227,4238.589844,4301.153809,4295.128418,4230.769043,4176.025879,4215.769043,4246.922852,4232.692383,4230.384766,4556.666504,4472.307617,4404.487305,4441.410156,6831.000000,3.000000,55.000000,,,,0.000000,4.000000,4.000000,4.000000,4.000000,4.000000,4.000000,4.000000,4.000000,4.000000,4.000000,4.000000,4.000000,4.000000,4.000000,100.000000,,,,,,,,,,,,,,,,,26.000000,0.000000,0.711009,0.181396,-0.633789,0.244690,0.991332,-0.044927,0.118178,-16.064131,-40.469753,66.394363
1703414856.685052,1703415056.251485,105.000000,0.000000,4249.230957,4237.307617,4301.922852,4294.871582,4231.922852,4171.282227,4218.846191,4241.794922,4228.974121,4229.487305,4559.230957,4475.641113,4407.307617,4446.153809,7363.000000,3.000000,55.000000,,,,0.000000,4.000000,4.000000,4.000000,4.000000,4.000000,4.000000,4.000000,4.000000,4.000000,4.000000,4.000000,4.000000,4.000000,4.000000,100.000000,,,,,,,,,,,,,,,,,,,,,,,,,,,,
1703414856.692860,1703415056.259293,106.000000,0.000000,4248.333496,4232.563965,4304.743652,4293.077148,4230.641113,4173.974121,4215.256348,4230.769043,4219.102539,4217.563965,4555.769043,4474.615234,4403.717773,4439.487305,6018.000000,3.000000,55.000000,,,,0.000000,4.000000,4.000000,4.000000,4.000000,4.000000,4.000000,4.000000,4.000000,4.000000,4.000000,4.000000,4.000000,4.000000,4.000000,100.000000,,,,,,,,,,,,,,,,,,,,,,,,,,,,
1703414856.700668,1703415056.267001,107.000000,0.000000,4247.051270,4233.333496,4300.641113,4293.717773,4234.358887,4174.487305,4213.846191,4225.128418,4216.538574,4213.974121,4548.333496,4464.487305,4395.384766,4426.025879,6320.000000,3.000000,55.000000,,,,0.000000,4.000000,4.000000,4.000000,4.000000,4.000000,4.000000,4.000000,4.000000,4.000000,4.000000,4.000000,4.000000,4.000000,4.000000,100.000000,,,,,,,,,,,,,,,,,,,,,,,,,,,,
1703414856.708476,1703415056.274809,108.000000,0.000000,4240.000000,4236.025879,4294.358887,4293.717773,4241.153809,4172.436035,4218.205078,4228.717773,4218.461426,4214.230957,4540.128418,4457.820313,4393.461426,4424.358887,6831.000000,3.000000,55.000000,,,,0.000000,4.000000,4.000000,4.000000,4.000000,4.000000,4.000000,4.000000,4.000000,4.000000,4.000000,4.000000,4.000000,4.000000,4.000000,100.000000,,,,,,,,,,,,,,,,,27.000000,0.000000,0.711019,0.181274,-0.633789,0.244751,0.996215,-0.055671,0.129410,-16.141052,-40.589447,66.354927
1703414856.716284,1703415056.282517,109.000000,0.000000,4230.897461,4233.974121,4294.358887,4292.179688,4240.897461,4170.897461,4215.256348,4227.820313,4212.948730,4207.307617,4530.769043,4463.205078,4391.794922,4416.666504,7363.000000,3.000000,55.000000,,,,0.000000,4.000000,4.000000,4.000000,4.000000,4.000000,4.000000,4.000000,4.000000,4.000000,4.000000,4.000000,4.000000,4.000000,4.000000,100.000000,,,,,,,,,,,,,,,,,,,,,,,,,,,,
1703414856.724092,1703415056.290325,110.000000,0.000000,4231.025879,4234.102539,4303.077148,4294.358887,4233.589844,4171.922852,4211.666504,4229.487305,4218.974121,4209.230957,4540.512695,4470.641113,4393.461426,4407.563965,6018.000000,3.000000,55.000000,,,,0.000000,4.000000,4.000000,4.000000,4.000000,4.000000,4.000000,4.000000,4.000000,4.000000,4.000000,4.000000,4.000000,4.000000,4.000000,100.000000,,,,,,,,,,,,,,,,,,,,,,,,,,,,
1703414856.731900,1703415056.298034,111.000000,0.000000,4232.179688,4234.102539,4306.794922,4295.384766,4230.512695,4170.512695,4215.128418,4243.205078,4230.897461,4224.871582,4559.102539,4467.307617,4400.897461,4419.487305,6320.000000,3.000000,55.000000,,,,0.000000,4.000000,4.000000,4.000000,4.000000,4.000000,4.000000,4.000000,4.000000,4.000000,4.000000,4.000000,4.000000,4.000000,4.000000,100.000000,,,,,,,,,,,,,,,,,,,,,,,,,,,,
1703414856.739708,1703415056.305841,112.000000,0.000000,4224.230957,4231.282227,4299.871582,4294.487305,4237.948730,4170.384766,4216.282227,4247.692383,4224.358887,4227.820313,4556.666504,4458.205078,4400.000000,4430.512695,6831.000000,3.000000,55.000000,,,,0.000000,4.000000,4.000000,4.000000,4.000000,4.000000,4.000000,4.000000,4.000000,4.000000,4.000000,4.000000,4.000000,4.000000,4.000000,100.000000,,,,,,,,,,,,,,,,,28.000000,0.000000,0.710985,0.181030,-0.633850,0.244873,0.976682,-0.066414,0.130387,-16.226946,-40.597168,66.336105
1703414856.747516,1703415056.313550,113.000000,0.000000,4216.922852,4231.410156,4292.436035,4293.077148,4249.615234,4178.077148,4215.769043,4236.282227,4216.025879,4215.384766,4546.025879,4457.820313,4395.384766,4420.000000,7363.000000,3.000000,55.000000,,,,0.000000,4.000000,4.000000,4.000000,4.000000,4.000000,4.000000,4.000000,4.000000,4.000000,4.000000,4.000000,4.000000,4.000000,4.000000,100.000000,,,,,,,,,,,,,,,,,,,,,,,,,,,,
1703414856.755324,1703415056.321458,114.000000,0.000000,4214.487305,4226.282227,4292.436035,4285.897461,4245.384766,4181.025879,4218.461426,4231.794922,4224.615234,4218.205078,4547.692383,4461.025879,4399.743652,4416.410156,6018.000000,3.000000,55.000000,,,,0.000000,4.000000,4.000000,4.000000,4.000000,4.000000,4.000000,4.000000,4.000000,4.000000,4.000000,4.000000,4.000000,4.000000,4.000000,100.000000,,,,,,,,,,,,,,,,,,,,,,,,,,,,
1703414856.763132,1703415056.329266,115.000000,0.000000,4209.743652,4217.948730,4293.205078,4280.128418,4232.307617,4176.153809,4218.717773,4235.769043,4230.128418,4225.128418,4552.051270,4454.743652,4402.948730,4426.410156,6320.000000,3.000000,55.000000,,,,0.000000,4.000000,4.000000,4.000000,4.000000,4.000000,4.000000,4.000000,4.000000,4.000000,4.000000,4.000000,4.000000,4.000000,4.000000,100.000000,,,,,,,,,,,,,,,,,,,,,,,,,,,,
1703414856.770940,1703415056.337174,116.000000,0.000000,4213.846191,4220.384766,4291.666504,4285.512695,4240.769043,4180.256348,4216.025879,4232.179688,4218.974121,4220.128418,4551.025879,4442.563965,4399.230957,4428.717773,6831.000000,3.000000,55.000000,,,,0.000000,4.000000,4.000000,4.000000,4.000000,4.000000,4.000000,4.000000,4.000000,4.000000,4.000000,4.000000,4.000000,4.000000,4.000000,100.000000,,,,,,,,,,,,,,,,,29.000000,0.000000,0.710961,0.180908,-0.633911,0.244873,0.982053,-0.055183,0.124039,-16.220919,-40.604118,66.319160
1703414856.778748,1703415056.344982,117.000000,0.000000,4225.384766,4229.487305,4296.153809,4294.743652,4250.128418,4189.743652,4216.410156,4231.794922,4215.128418,4221.538574,4554.358887,4441.538574,4405.897461,4428.333496,7363.000000,3.000000,55.000000,,,,0.000000,4.000000,4.000000,4.000000,4.000000,4.000000,4.000000,4.000000,4.000000,4.000000,4.000000,4.000000,4.000000,4.000000,4.000000,100.000000,,,,,,,,,,,,,,,,,,,,,,,,,,,,
1703414856.786556,1703415056.352890,118.000000,0.000000,4223.461426,4231.666504,4295.641113,4296.538574,4236.922852,4187.948730,4216.282227,4234.743652,4219.743652,4228.333496,4549.871582,4445.641113,4410.000000,4427.179688,6018.000000,3.000000,55.000000,,,,0.000000,4.000000,4.000000,4.000000,4.000000,4.000000,4.000000,4.000000,4.000000,4.000000,4.000000,4.000000,4.000000,4.000000,4.000000,100.000000,,,,,,,,,,,,,,,,,,,,,,,,,,,,
1703414856.794365,1703415056.360699,119.000000,0.000000,4218.077148,4229.743652,4292.820313,4293.205078,4233.589844,4189.358887,4213.077148,4228.717773,4218.589844,4224.487305,4546.153809,4438.846191,4401.794922,4429.230957,6320.000000,3.000000,55.000000,,,,0.000000,4.000000,4.000000,4.000000,4.000000,4.000000,4.000000,4.000000,4.000000,4.000000,4.000000,4.000000,4.000000,4.000000,4.000000,100.000000,,,,,,,,,,,,,,,,,,,,,,,,,,,,
1703414856.802173,1703415056.368607,120.000000,0.000000,4233.333496,4233.077148,4302.307617,4296.025879,4251.025879,4199.487305,4215.128418,4233.205078,4224.743652,4227.820313,4566.025879,4439.615234,4414.871582,4444.102539,6831.000000,3.000000,55.000000,,,,0.000000,4.000000,4.000000,4.000000,4.000000,4.000000,4.000000,4.000000,4.000000,4.000000,4.000000,4.000000,4.000000,4.000000,4.000000,100.000000,,,,,,,,,,,,,,,,,30.000000,0.000000,0.710992,0.180786,-0.633911,0.244873,0.987914,-0.052741,0.129410,-16.048826,-40.493706,66.287239
1703414856.809981,1703415056.376415,121.000000,0.000000,4244.871582,4237.563965,4309.615234,4299.871582,4254.358887,4201.922852,4218.589844,4243.461426,4229.743652,4238.461426,4573.974121,4448.077148,4431.282227,4450.256348,7363.000000,3.000000,55.000000,,,,0.000000,4.000000,4.000000,4.000000,4.000000,4.000000,4.000000,4.000000,4.000000,4.000000,4.000000,4.000000,4.000000,4.000000,4.000000,100.000000,,,,,,,,,,,,,,,,,,,,,,,,,,,,
1703414856.817789,1703415056.384323,122.000000,0.000000,4236.025879,4234.358887,4300.512695,4296.794922,4242.692383,4201.410156,4217.051270,4238.077148,4227.436035,4233.589844,4554.487305,4444.487305,4417.051270,4436.538574,6018.000000,3.000000,55.000000,,,,0.000000,4.000000,4.000000,4.000000,4.000000,4.000000,4.000000,4.000000,4.000000,4.000000,4.000000,4.000000,4.000000,4.000000,4.000000,100.000000,,,,,,,,,,,,,,,,,,,,,,,,,,,,
1703414856.825597,1703415056.392131,123.000000,0.000000,4227.948730,4230.384766,4290.000000,4291.794922,4244.743652,4202.692383,4216.282227,4231.153809,4226.410156,4228.461426,4547.563965,4440.000000,4406.538574,4426.794922,6320.000000,3.000000,55.000000,,,,0.000000,4.000000,4.000000,4.000000,4.000000,4.000000,4.000000,4.000000,4.000000,4.000000,4.000000,4.000000,4.000000,4.000000,4.000000,100.000000,,,,,,,,,,,,,,,,,,,,,,,,,,,,
1703414856.833405,1703415056.399839,124.000000,0.000000,4230.256348,4233.589844,4297.051270,4293.333496,4252.436035,4203.974121,4218.717773,4237.820313,4222.820313,4232.692383,4555.256348,4443.461426,4416.025879,4427.820313,6831.000000,3.000000,55.000000,,,,0.000000,4.000000,4.000000,4.000000,4.000000,4.000000,4.000000,4.000000,4.000000,4.000000,4.000000,4.000000,4.000000,4.000000,4.000000,100.000000,,,,,,,,,,,,,,,,,31.000000,0.000000,0.710908,0.180786,-0.633911,0.245117,0.975705,-0.062508,0.121597,-16.027277,-40.561001,66.341850
1703414856.841213,1703415056.407648,125.000000,0.000000,4232.692383,4235.256348,4308.717773,4301.282227,4246.282227,4205.512695,4221.153809,4246.282227,4221.666504,4235.769043,4560.897461,4444.358887,4419.102539,4433.974121,7363.000000,3.000000,55.000000,,,,0.000000,4.000000,4.000000,4.000000,4.000000,4.000000,4.000000,4.000000,4.000000,4.000000,4.000000,4.000000,4.000000,4.000000,4.000000,100.000000,,,,,,,,,,,,,,,,,,,,,,,,,,,,
1703414856.849021,1703415056.415356,126.000000,0.000000,4232.436035,4236.410156,4310.641113,4305.256348,4239.615234,4204.615234,4220.641113,4246.538574,4229.743652,4231.153809,4560.512695,4445.512695,4417.436035,4438.205078,6018.000000,3.000000,55.000000,,,,0.000000,4.000000,4.000000,4.000000,4.000000,4.000000,4.000000,4.000000,4.000000,4.000000,4.000000,4.000000,4.000000,4.000000,4.000000,100.000000,,,,,,,,,,,,,,,,,,,,,,,,,,,,
1703414856.856829,1703415056.423164,127.000000,0.000000,4232.179688,4239.487305,4308.461426,4299.358887,4246.666504,4201.922852,4218.077148,4244.871582,4231.538574,4220.897461,4553.717773,4455.128418,4415.512695,4437.179688,55.000000,3.000000,55.000000,,,,0.000000,4.000000,4.000000,4.000000,4.000000,4.000000,4.000000,4.000000,4.000000,4.000000,4.000000,4.000000,4.000000,4.000000,4.000000,100.000000,,,,,,,,,,,,,,,,,,,,,,,,,,,,
1703414856.864637,1703415056.430872,0.000000,0.000000,4236.153809,4236.153809,4308.461426,4295.256348,4252.436035,4207.563965,4218.205078,4245.512695,4227.948730,4223.589844,4558.589844,4463.974121,4413.846191,4442.563965,5611.000000,3.000000,55.000000,,,,0.000000,4.000000,4.000000,4.000000,4.000000,4.000000,4.000000,4.000000,4.000000,4.000000,4.000000,4.000000,4.000000,4.000000,4.000000,100.000000,,,,,,,,,,,,,,,,,0.000000,0.000000,0.710932,0.180908,-0.633850,0.245117,0.994750,-0.067391,0.127457,-16.074551,-40.471569,66.324333
1703414856.872445,1703415056.438681,1.000000,0.000000,4237.563965,4239.487305,4312.436035,4300.384766,4245.897461,4214.102539,4220.769043,4247.436035,4235.256348,4232.820313,4574.230957,4463.333496,4422.179688,4449.615234,5552.000000,3.000000,55.000000,,,,0.000000,4.000000,4.000000,4.000000,4.000000,4.000000,4.000000,4.000000,4.000000,4.000000,4.000000,4.000000,4.000000,4.000000,4.000000,100.000000,,,,,,,,,,,,,,,,,,,,,,,,,,,,
1703414856.880253,1703415056.446389,2.000000,0.000000,4232.692383,4249.102539,4311.025879,4299.743652,4246.282227,4207.948730,4219.871582,4249.615234,4235.769043,4232.948730,4573.333496,4460.128418,4431.666504,4443.974121,5455.000000,3.000000,55.000000,,,,0.000000,4.000000,4.000000,4.000000,4.000000,4.000000,4.000000,4.000000,4.000000,4.000000,4.000000,4.000000,4.000000,4.000000,4.000000,100.000000,,,,,,,,,,,,,,,,,,,,,,,,,,,,
1703414856.888061,1703415056.454197,3.000000,0.000000,4234.230957,4240.128418,4306.410156,4292.563965,4251.538574,4201.153809,4218.077148,4245.384766,4228.846191,4232.436035,4564.487305,4457.692383,4429.358887,4439.358887,5390.000000,3.000000,55.000000,,,,0.000000,4.000000,4.000000,4.000000,4.000000,4.000000,4.000000,4.000000,4.000000,4.000000,4.000000,4.000000,4.000000,4.000000,4.000000,100.000000,,,,,,,,,,,,,,,,,,,,,,,,,,,,
1703414856.895869,1703415056.461905,4.000000,0.000000,4245.384766,4231.666504,4308.333496,4294.358887,4244.487305,4200.769043,4218.333496,4239.615234,4231.922852,4235.256348,4570.384766,4450.641113,4425.256348,4445.384766,5287.000000,3.000000,55.000000,,,,0.000000,4.000000,4.000000,4.000000,4.000000,4.000000,4.000000,4.000000,4.000000,4.000000,4.000000,4.000000,4.000000,4.000000,4.000000,100.000000,,,,,,,,,,,,,,,,,1.000000,0.000000,0.710826,0.181274,-0.633911,0.244995,0.976682,-0.047857,0.130875,-16.050428,-40.374413,66.375237
1703414856.903677,1703415056.469713,5.000000,0.000000,4250.128418,4243.717773,4309.487305,4295.384766,4241.025879,4204.871582,4219.871582,4239.743652,4232.692383,4233.589844,4572.436035,4452.436035,4431.025879,4446.922852,4231.000000,3.000000,55.000000,,,,0.000000,4.000000,4.000000,4.000000,4.000000,4.000000,4.000000,4.000000,4.000000,4.000000,4.000000,4.000000,4.000000,4.000000,4.000000,100.000000,,,,,,,,,,,,,,,,,,,,,,,,,,,,
1703414856.911485,1703415056.477421,6.000000,0.000000,4255.769043,4251.282227,4306.538574,4291.922852,4248.461426,4211.025879,4223.077148,4243.461426,4229.230957,4228.205078,4561.666504,4458.717773,4432.563965,4443.077148,4238.000000,3.000000,55.000000,,,,0.000000,4.000000,4.000000,4.000000,4.000000,4.000000,4.000000,4.000000,4.000000,4.000000,4.000000,4.000000,4.000000,4.000000,4.000000,100.000000,,,,,,,,,,,,,,,,,,,,,,,,,,,,
1703414856.919293,1703415056.485329,7.000000,0.000000,4278.333496,4248.974121,4308.717773,4294.743652,4251.538574,4211.153809,4223.717773,4246.794922,4232.436035,4230.256348,4560.128418,4454.615234,4429.230957,4450.256348,5175.000000,3.000000,55.000000,,,,0.000000,4.000000,4.000000,4.000000,4.000000,4.000000,4.000000,4.000000,4.000000,4.000000,4.000000,4.000000,4.000000,4.000000,4.000000,100.000000,,,,,,,,,,,,,,,,,,,,,,,,,,,,
1703414856.927101,1703415056.493138,8.000000,0.000000,4293.077148,4250.128418,4312.307617,4296.410156,4247.948730,4210.512695,4220.000000,4242.820313,4233.077148,4232.307617,4562.179688,4447.820313,4435.641113,4464.358887,5392.000000,3.000000,55.000000,,,,0.000000,4.000000,4.000000,4.000000,4.000000,4.000000,4.000000,4.000000,4.000000,4.000000,4.000000,4.000000,4.000000,4.000000,4.000000,100.000000,,,,,,,,,,,,,,,,,2.000000,0.000000,0.710908,0.181580,-0.633850,0.244690,0.989867,-0.048346,0.125504,-16.295385,-40.286972,66.421043
1703414856.934909,1703415056.501046,9.000000,0.000000,4284.487305,4251.025879,4314.230957,4297.692383,4250.256348,4212.436035,4218.205078,4235.256348,4219.230957,4220.000000,4555.769043,4449.358887,4439.230957,4461.666504,5323.000000,3.000000,55.000000,,,,0.000000,4.000000,4.000000,4.000000,4.000000,4.000000,4.000000,4.000000,4.000000,4.000000,4.000000,4.000000,4.000000,4.000000,4.000000,100.000000,,,,,,,,,,,,,,,,,,,,,,,,,,,,
1703414856.942717,1703415056.508854,10.000000,0.000000,4279.102539,4251.410156,4317.436035,4306.410156,4259.230957,4208.461426,4224.358887,4230.769043,4214.102539,4216.922852,4553.974121,4459.102539,4439.871582,4446.025879,6018.000000,3.000000,55.000000,,,,0.000000,4.000000,4.000000,4.000000,4.000000,4.000000,4.000000,4.000000,4.000000,4.000000,4.000000,4.000000,4.000000,4.000000,4.000000,100.000000,,,,,,,,,,,,,,,,,,,,,,,,,,,,
1703414856.950525,1703415056.516762,11.000000,0.000000,4280.512695,4251.282227,4315.512695,4307.436035,4254.871582,4202.179688,4227.563965,4218.205078,4223.205078,4232.692383,4551.922852,4456.282227,4440.641113,4440.384766,6322.000000,3.000000,55.000000,,,,0.000000,4.000000,4.000000,4.000000,4.000000,4.000000,4.000000,4.000000,4.000000,4.000000,4.000000,4.000000,4.000000,4.000000,4.000000,100.000000,,,,,,,,,,,,,,,,,,,,,,,,,,,,
1703414856.958334,1703415056.524570,12.000000,0.000000,4273.974121,4249.487305,4306.538574,4297.692383,4246.794922,4201.282227,4221.410156,4205.256348,4223.333496,4229.615234,4546.025879,4440.000000,4435.897461,4447.179688,6848.000000,3.000000,55.000000,,,,0.000000,4.000000,4.000000,4.000000,4.000000,4.000000,4.000000,4.000000,4.000000,4.000000,4.000000,4.000000,4.000000,4.000000,4.000000,100.000000,,,,,,,,,,,,,,,,,3.000000,0.000000,0.711131,0.181885,-0.633606,0.244446,0.989867,-0.044927,0.127945,-16.315847,-40.324940,66.312271
1703414856.966142,1703415056.532478,13.000000,0.000000,4261.922852,4249.615234,4299.358887,4294.743652,4255.512695,4200.000000,4217.692383,4210.897461,4217.051270,4218.846191,4549.102539,4440.256348,4431.410156,4447.436035,7353.000000,3.000000,55.000000,,,,0.000000,4.000000,4.000000,4.000000,4.000000,4.000000,4.000000,4.000000,4.000000,4.000000,4.000000,4.000000,4.000000,4.000000,4.000000,100.000000,,,,,,,,,,,,,,,,,,,,,,,,,,,,
1703414856.973950,1703415056.540287,14.000000,0.000000,4250.641113,4248.717773,4295.256348,4297.820313,4260.897461,4194.743652,4220.000000,4221.282227,4219.102539,4224.871582,4549.358887,4446.538574,4427.436035,4433.974121,6018.000000,3.000000,55.000000,,,,0.000000,4.000000,4.000000,4.000000,4.000000,4.000000,4.000000,4.000000,4.000000,4.000000,4.000000,4.000000,4.000000,4.000000,4.000000,100.000000,,,,,,,,,,,,,,,,,,,,,,,,,,,,
1703414856.981758,1703415056.548195,15.000000,0.000000,4238.717773,4245.769043,4294.230957,4299.358887,4250.256348,4190.641113,4218.846191,4222.436035,4226.153809,4227.051270,4541.282227,4438.589844,4419.102539,4425.000000,6322.000000,3.000000,55.000000,,,,0.000000,4.000000,4.000000,4.000000,4.000000,4.000000,4.000000,4.000000,4.000000,4.000000,4.000000,4.000000,4.000000,4.000000,4.000000,100.000000,,,,,,,,,,,,,,,,,,,,,,,,,,,,
1703414856.989566,1703415056.556003,16.000000,0.000000,4232.820313,4246.025879,4295.256348,4298.333496,4246.922852,4187.436035,4216.666504,4230.000000,4228.589844,4221.794922,4545.897461,4431.538574,4419.487305,4426.153809,0.000000,3.000000,55.000000,,,,0.000000,4.000000,4.000000,4.000000,4.000000,4.000000,4.000000,4.000000,4.000000,4.000000,4.000000,4.000000,4.000000,4.000000,4.000000,100.000000,,,,,,,,,,,,,,,,,4.000000,0.000000,0.711198,0.182068,-0.633667,0.243958,0.982053,-0.036137,0.113783,-16.200930,-40.259113,66.297714
1703414856.997374,1703415056.563911,17.000000,0.000000,4232.179688,4242.436035,4294.102539,4293.461426,4252.820313,4184.102539,4219.102539,4238.077148,4229.743652,4223.205078,4553.974121,4437.179688,4429.871582,4424.358887,0.000000,3.000000,55.000000,,,,0.000000,4.000000,4.000000,4.000000,4.000000,4.000000,4.000000,4.000000,4.000000,4.000000,4.000000,4.000000,4.000000,4.000000,4.000000,100.000000,,,,,,,,,,,,,,,,,,,,,,,,,,,,
1703414857.005182,1703415056.571719,18.000000,0.000000,4231.538574,4236.538574,4294.871582,4295.512695,4247.179688,4182.051270,4218.461426,4237.436035,4229.230957,4222.051270,4554.487305,4446.538574,4428.589844,4422.307617,0.000000,3.000000,55.000000,,,,0.000000,4.000000,4.000000,4.000000,4.000000,4.000000,4.000000,4.000000,4.000000,4.000000,4.000000,4.000000,4.000000,4.000000,4.000000,100.000000,,,,,,,,,,,,,,,,,,,,,,,,,,,,
1703414857.012990,1703415056.579428,19.000000,0.000000,4232.948730,4234.358887,4297.436035,4296.410156,4236.922852,4182.436035,4214.743652,4234.230957,4223.589844,4217.948730,4553.205078,4445.897461,4416.666504,4423.205078,0.000000,3.000000,55.000000,,,,0.000000,4.000000,4.000000,4.000000,4.000000,4.000000,4.000000,4.000000,4.000000,4.000000,4.000000,4.000000,4.000000,4.000000,4.000000,100.000000,,,,,,,,,,,,,,,,,,,,,,,,,,,,
1703414857.020798,1703415056.587236,20.000000,0.000000,4231.666504,4231.153809,4295.256348,4284.358887,4239.230957,4180.641113,4212.563965,4229.487305,4216.538574,4219.358887,4542.307617,4435.384766,4408.589844,4417.179688,0.000000,3.000000,55.000000,,,,0.000000,4.000000,4.000000,4.000000,4.000000,4.000000,4.000000,4.000000,4.000000,4.000000,4.000000,4.000000,4.000000,4.000000,4.000000,100.000000,1.000000,100.000000,4.000000,4.000000,4.000000,4.000000,4.000000,4.000000,4.000000,4.000000,4.000000,4.000000,4.000000,4.000000,4.000000,4.000000,5.000000,0.000000,0.711240,0.182068,-0.633667,0.243835,0.992797,-0.054206,0.130387,-16.097502,-40.383202,66.201271
1703414857.028606,1703415056.594944,21.000000,0.000000,4228.205078,4228.974121,4292.179688,4281.794922,4247.692383,4177.307617,4215.512695,4230.256348,4216.025879,4217.436035,4533.205078,4435.897461,4407.563965,4411.153809,0.000000,3.000000,55.000000,,,,0.000000,4.000000,4.000000,4.000000,4.000000,4.000000,4.000000,4.000000,4.000000,4.000000,4.000000,4.000000,4.000000,4.000000,4.000000,100.000000,,,,,,,,,,,,,,,,,,,,,,,,,,,,
1703414857.036414,1703415056.602752,22.000000,0.000000,4232.179688,4232.820313,4293.589844,4294.743652,4241.538574,4181.282227,4219.615234,4235.128418,4219.358887,4218.205078,4545.000000,4447.436035,4414.487305,4421.922852,0.000000,3.000000,55.000000,,,,0.000000,4.000000,4.000000,4.000000,4.000000,4.000000,4.000000,4.000000,4.000000,4.000000,4.000000,4.000000,4.000000,4.000000,4.000000,100.000000,,,,,,,,,,,,,,,,,,,,,,,,,,,,
1703414857.044222,1703415056.610461,23.000000,0.000000,4239.871582,4236.794922,4296.794922,4298.846191,4231.410156,4185.000000,4216.922852,4233.205078,4216.153809,4220.769043,4556.153809,4447.051270,4416.794922,4433.589844,0.000000,3.000000,55.000000,,,,0.000000,4.000000,4.000000,4.000000,4.000000,4.000000,4.000000,4.000000,4.000000,4.000000,4.000000,4.000000,4.000000,4.000000,4.000000,100.000000,,,,,,,,,,,,,,,,,,,,,,,,,,,,
1703414857.052030,1703415056.618269,24.000000,0.000000,4241.666504,4235.128418,4296.410156,4293.077148,4241.153809,4182.948730,4214.102539,4229.358887,4214.358887,4212.948730,4548.461426,4436.410156,4410.128418,4423.461426,0.000000,3.000000,55.000000,,,,0.000000,4.000000,4.000000,4.000000,4.000000,4.000000,4.000000,4.000000,4.000000,4.000000,4.000000,4.000000,4.000000,4.000000,4.000000,100.000000,,,,,,,,,,,,,,,,,6.000000,0.000000,0.711243,0.182007,-0.633728,0.243713,0.982542,-0.044439,0.126969,-16.137753,-40.494881,66.231148
1703414857.059838,1703415056.625977,25.000000,0.000000,4245.769043,4236.282227,4293.974121,4292.692383,4245.384766,4183.589844,4217.948730,4229.743652,4219.230957,4212.563965,4538.974121,4432.179688,4409.743652,4417.436035,0.000000,3.000000,55.000000,,,,0.000000,4.000000,4.000000,4.000000,4.000000,4.000000,4.000000,4.000000,4.000000,4.000000,4.000000,4.000000,4.000000,4.000000,4.000000,100.000000,,,,,,,,,,,,,,,,,,,,,,,,,,,,
1703414857.067646,1703415056.633785,26.000000,0.000000,4247.948730,4235.512695,4292.436035,4296.410156,4228.846191,4180.641113,4215.769043,4232.436035,4218.846191,4220.641113,4538.589844,4434.615234,4413.589844,4423.461426,0.000000,3.000000,55.000000,,,,0.000000,4.000000,4.000000,4.000000,4.000000,4.000000,4.000000,4.000000,4.000000,4.000000,4.000000,4.000000,4.000000,4.000000,4.000000,100.000000,,,,,,,,,,,,,,,,,,,,,,,,,,,,
1703414857.075454,1703415056.641493,27.000000,0.000000,4238.333496,4230.512695,4295.384766,4293.589844,4228.846191,4175.128418,4207.436035,4232.179688,4214.487305,4220.641113,4539.230957,4437.307617,4408.974121,4415.128418,0.000000,3.000000,55.000000,,,,0.000000,4.000000,4.000000,4.000000,4.000000,4.000000,4.000000,4.000000,4.000000,4.000000,4.000000,4.000000,4.000000,4.000000,4.000000,100.000000,,,,,,,,,,,,,,,,,,,,,,,,,,,,
1703414857.083262,1703415056.649301,28.000000,0.000000,4228.461426,4225.897461,4294.743652,4284.615234,4243.589844,4174.230957,4209.230957,4232.948730,4216.794922,4214.871582,4543.589844,4433.205078,4407.307617,4407.563965,0.000000,3.000000,55.000000,,,,0.000000,4.000000,4.000000,4.000000,4.000000,4.000000,4.000000,4.000000,4.000000,4.000000,4.000000,4.000000,4.000000,4.000000,4.000000,100.000000,,,,,,,,,,,,,,,,,7.000000,0.000000,0.711318,0.182007,-0.633667,0.243652,0.985472,-0.057624,0.116713,-16.240644,-40.478725,66.291367
1703414857.091070,1703415056.657009,29.000000,0.000000,4226.538574,4218.717773,4283.974121,4279.487305,4238.717773,4171.410156,4214.487305,4233.717773,4215.384766,4210.641113,4544.102539,4427.948730,4407.563965,4411.410156,0.000000,3.000000,55.000000,,,,0.000000,4.000000,4.000000,4.000000,4.000000,4.000000,4.000000,4.000000,4.000000,4.000000,4.000000,4.000000,4.000000,4.000000,4.000000,100.000000,,,,,,,,,,,,,,,,,,,,,,,,,,,,
1703414857.098879,1703415056.664918,30.000000,0.000000,4225.897461,4221.410156,4281.922852,4282.948730,4230.256348,4169.615234,4212.179688,4231.282227,4207.948730,4208.717773,4534.615234,4432.436035,4399.230957,4408.589844,0.000000,3.000000,55.000000,,,,0.000000,4.000000,4.000000,4.000000,4.000000,4.000000,4.000000,4.000000,4.000000,4.000000,4.000000,4.000000,4.000000,4.000000,4.000000,100.000000,,,,,,,,,,,,,,,,,,,,,,,,,,,,
1703414857.106686,1703415056.672726,31.000000,0.000000,4219.358887,4230.256348,4288.974121,4282.820313,4235.769043,4172.307617,4211.153809,4236.282227,4212.948730,4213.974121,4543.077148,4440.000000,4402.179688,4413.333496,0.000000,3.000000,55.000000,,,,0.000000,4.000000,4.000000,4.000000,4.000000,4.000000,4.000000,4.000000,4.000000,4.000000,4.000000,4.000000,4.000000,4.000000,4.000000,100.000000,,,,,,,,,,,,,,,,,,,,,,,,,,,,
1703414857.114494,1703415056.680634,32.000000,0.000000,4213.589844,4228.717773,4285.256348,4279.102539,4233.589844,4171.410156,4213.846191,4246.153809,4221.666504,4218.333496,4558.333496,4439.615234,4410.128418,4423.333496,0.000000,3.000000,55.000000,,,,0.000000,4.000000,4.000000,4.000000,4.000000,4.000000,4.000000,4.000000,4.000000,4.000000,4.000000,4.000000,4.000000,4.000000,4.000000,100.000000,,,,,,,,,,,,,,,,,8.000000,0.000000,0.711271,0.182190,-0.633667,0.243652,0.990355,-0.047857,0.123550,-16.166580,-40.380856,66.428894
1703414857.122303,1703415056.688442,33.000000,0.000000,4214.615234,4226.153809,4282.948730,4282.820313,4231.282227,4167.692383,4212.563965,4246.410156,4219.230957,4214.358887,4551.153809,4437.307617,4401.922852,4415.128418,0.000000,3.000000,55.000000,,,,0.000000,4.000000,4.000000,4.000000,4.000000,4.000000,4.000000,4.000000,4.000000,4.000000,4.000000,4.000000,4.000000,4.000000,4.000000,100.000000,,,,,,,,,,,,,,,,,,,,,,,,,,,,
1703414857.130111,1703415056.696350,34.000000,0.000000,4215.256348,4233.333496,4292.948730,4293.077148,4242.179688,4169.487305,4212.051270,4244.358887,4219.615234,4215.000000,4548.077148,4440.769043,4405.256348,4411.538574,0.000000,3.000000,55.000000,,,,0.000000,4.000000,4.000000,4.000000,4.000000,4.000000,4.000000,4.000000,4.000000,4.000000,4.000000,4.000000,4.000000,4.000000,4.000000,100.000000,,,,,,,,,,,,,,,,,,,,,,,,,,,,
1703414857.137919,1703415056.704158,35.000000,0.000000,4214.487305,4235.641113,4295.769043,4292.948730,4245.128418,4172.051270,4212.948730,4247.051270,4223.974121,4212.692383,4555.641113,4439.743652,4413.077148,4413.846191,0.000000,3.000000,55.000000,,,,0.000000,4.000000,4.000000,4.000000,4.000000,4.000000,4.000000,4.000000,4.000000,4.000000,4.000000,4.000000,4.000000,4.000000,4.000000,100.000000,,,,,,,,,,,,,,,,,,,,,,,,,,,,
1703414857.145727,1703415056.712066,36.000000,0.000000,4220.641113,4228.205078,4287.692383,4282.820313,4233.974121,4169.615234,4207.179688,4245.641113,4218.846191,4210.384766,4551.538574,4434.230957,4403.461426,4409.871582,0.000000,3.000000,55.000000,,,,0.000000,4.000000,4.000000,4.000000,4.000000,4.000000,4.000000,4.000000,4.000000,4.000000,4.000000,4.000000,4.000000,4.000000,4.000000,100.000000,,,,,,,,,,,,,,,,,9.000000,0.000000,0.711271,0.182190,-0.633667,0.243652,0.983518,-0.058601,0.130875,-16.116589,-40.409435,66.569336
1703414857.153535,1703415056.719875,37.000000,0.000000,4234.358887,4229.615234,4289.487305,4284.743652,4230.512695,4167.307617,4202.692383,4242.820313,4212.948730,4217.948730,4545.897461,4439.615234,4408.333496,4423.205078,0.000000,3.000000,55.000000,,,,0.000000,4.000000,4.000000,4.000000,4.000000,4.000000,4.000000,4.000000,4.000000,4.000000,4.000000,4.000000,4.000000,4.000000,4.000000,100.000000,,,,,,,,,,,,,,,,,,,,,,,,,,,,
1703414857.161343,1703415056.727783,38.000000,0.000000,4260.000000,4241.794922,4301.410156,4296.538574,4234.743652,4173.205078,4208.077148,4241.666504,4213.846191,4214.743652,4554.487305,4450.256348,4428.717773,4448.974121,0.000000,3.000000,55.000000,,,,0.000000,4.000000,4.000000,4.000000,4.000000,4.000000,4.000000,4.000000,4.000000,4.000000,4.000000,4.000000,4.000000,4.000000,4.000000,100.000000,,,,,,,,,,,,,,,,,,,,,,,,,,,,
1703414857.169151,1703415056.735591,39.000000,0.000000,4307.692383,4256.538574,4311.922852,4298.589844,4232.179688,4184.615234,4217.051270,4238.333496,4217.948730,4205.384766,4563.589844,4462.692383,4439.102539,4475.769043,0.000000,3.000000,55.000000,,,,0.000000,4.000000,4.000000,4.000000,4.000000,4.000000,4.000000,4.000000,4.000000,4.000000,4.000000,4.000000,4.000000,4.000000,4.000000,100.000000,,,,,,,,,,,,,,,,,,,,,,,,,,,,
1703414857.176959,1703415056.743499,40.000000,0.000000,4347.948730,4263.077148,4313.461426,4296.922852,4229.871582,4188.333496,4215.641113,4231.666504,4213.717773,4209.615234,4561.153809,4465.256348,4443.333496,4493.589844,0.000000,3.000000,55.000000,,,,0.000000,4.000000,4.000000,4.000000,4.000000,4.000000,4.000000,4.000000,4.000000,4.000000,4.000000,4.000000,4.000000,4.000000,4.000000,100.000000,,,,,,,,,,,,,,,,,10.000000,0.000000,0.711118,0.182068,-0.633850,0.243713,0.988402,-0.067879,0.127945,-16.221596,-40.401825,66.462402
1703414857.184767,1703415056.751307,41.000000,0.000000,4356.025879,4259.487305,4308.205078,4296.794922,4232.948730,4183.077148,4205.384766,4225.256348,4202.820313,4211.410156,4553.589844,4450.512695,4445.128418,4494.487305,0.000000,3.000000,55.000000,,,,0.000000,4.000000,4.000000,4.000000,4.000000,4.000000,4.000000,4.000000,4.000000,4.000000,4.000000,4.000000,4.000000,4.000000,4.000000,100.000000,,,,,,,,,,,,,,,,,,,,,,,,,,,,
