title:ملاح نعم, start timestamp:1703495653.721733, stop timestamp:1703495664.582700, headset type:EPOCX, headset serial:E50206EF, headset firmware:720, channels:67, sampling rate:eeg_128;mot_32, samples:1392      , version:2.2, 
Timestamp,OriginalTimestamp,EEG.Counter,EEG.Interpolated,EEG.AF3,EEG.F7,EEG.F3,EEG.FC5,EEG.T7,EEG.P7,EEG.O1,EEG.O2,EEG.P8,EEG.T8,EEG.FC6,EEG.F4,EEG.F8,EEG.AF4,EEG.RawCq,EEG.Battery,EEG.BatteryPercent,MarkerIndex,MarkerType,MarkerValueInt,EEG.MarkerHardware,CQ.AF3,CQ.F7,CQ.F3,CQ.FC5,CQ.T7,CQ.P7,CQ.O1,CQ.O2,CQ.P8,CQ.T8,CQ.FC6,CQ.F4,CQ.F8,CQ.AF4,CQ.Overall,EQ.SampleRateQuality,EQ.OVERALL,EQ.AF3,EQ.F7,EQ.F3,EQ.FC5,EQ.T7,EQ.P7,EQ.O1,EQ.O2,EQ.P8,EQ.T8,EQ.FC6,EQ.F4,EQ.F8,EQ.AF4,MOT.CounterMems,MOT.InterpolatedMems,MOT.Q0,MOT.Q1,MOT.Q2,MOT.Q3,MOT.AccX,MOT.AccY,MOT.AccZ,MOT.MagX,MOT.MagY,MOT.MagZ
1703495653.721733,1703495653.721941,13.000000,0.000000,4217.051270,4217.307617,4306.025879,4267.051270,4207.820313,4186.410156,4227.820313,4240.128418,4230.512695,4181.666504,4567.563965,4471.282227,4387.307617,4481.282227,5829.000000,4.000000,76.000000,,,,0.000000,4.000000,4.000000,4.000000,4.000000,4.000000,4.000000,4.000000,4.000000,4.000000,4.000000,4.000000,4.000000,4.000000,4.000000,100.000000,,,,,,,,,,,,,,,,,,,,,,,,,,,,
1703495653.729541,1703495653.729849,14.000000,0.000000,4225.897461,4226.922852,4311.410156,4273.333496,4201.922852,4185.384766,4225.769043,4236.410156,4229.743652,4178.974121,4552.820313,4478.077148,4368.846191,4472.179688,6102.000000,4.000000,76.000000,,,,0.000000,4.000000,4.000000,4.000000,4.000000,4.000000,4.000000,4.000000,4.000000,4.000000,4.000000,4.000000,4.000000,4.000000,4.000000,100.000000,,,,,,,,,,,,,,,,,,,,,,,,,,,,
1703495653.737349,1703495653.737657,15.000000,0.000000,4232.948730,4237.051270,4313.077148,4284.487305,4185.897461,4183.333496,4217.820313,4232.307617,4229.743652,4167.436035,4564.358887,4471.025879,4370.897461,4481.153809,6292.000000,4.000000,76.000000,,,,0.000000,4.000000,4.000000,4.000000,4.000000,4.000000,4.000000,4.000000,4.000000,4.000000,4.000000,4.000000,4.000000,4.000000,4.000000,100.000000,,,,,,,,,,,,,,,,,,,,,,,,,,,,
1703495653.745157,1703495653.745565,16.000000,0.000000,4227.692383,4226.410156,4307.820313,4285.512695,4197.307617,4183.589844,4217.692383,4233.461426,4229.358887,4171.025879,4576.538574,4465.000000,4372.948730,4498.077148,0.000000,4.000000,76.000000,,,,0.000000,4.000000,4.000000,4.000000,4.000000,4.000000,4.000000,4.000000,4.000000,4.000000,4.000000,4.000000,4.000000,4.000000,4.000000,100.000000,,,,,,,,,,,,,,,,,4.000000,0.000000,0.644818,0.285278,-0.680969,0.197754,0.993774,0.081553,-0.014650,-17.443264,-38.230621,63.826874
1703495653.752965,1703495653.753372,17.000000,0.000000,4219.487305,4211.282227,4298.974121,4270.897461,4215.897461,4187.179688,4224.230957,4232.820313,4227.692383,4183.077148,4556.410156,4466.538574,4347.820313,4490.769043,0.000000,4.000000,76.000000,,,,0.000000,4.000000,4.000000,4.000000,4.000000,4.000000,4.000000,4.000000,4.000000,4.000000,4.000000,4.000000,4.000000,4.000000,4.000000,100.000000,,,,,,,,,,,,,,,,,,,,,,,,,,,,
1703495653.760773,1703495653.761080,18.000000,0.000000,4216.025879,4208.205078,4291.153809,4260.897461,4199.487305,4188.333496,4222.051270,4237.563965,4229.871582,4186.153809,4555.128418,4460.769043,4343.461426,4476.410156,0.000000,4.000000,76.000000,,,,0.000000,4.000000,4.000000,4.000000,4.000000,4.000000,4.000000,4.000000,4.000000,4.000000,4.000000,4.000000,4.000000,4.000000,4.000000,100.000000,,,,,,,,,,,,,,,,,,,,,,,,,,,,
1703495653.768581,1703495653.768888,19.000000,0.000000,4206.025879,4200.128418,4283.205078,4252.820313,4184.230957,4185.000000,4214.487305,4247.436035,4239.487305,4182.820313,4583.846191,4453.333496,4366.410156,4478.461426,0.000000,4.000000,76.000000,,,,0.000000,4.000000,4.000000,4.000000,4.000000,4.000000,4.000000,4.000000,4.000000,4.000000,4.000000,4.000000,4.000000,4.000000,4.000000,100.000000,,,,,,,,,,,,,,,,,,,,,,,,,,,,
1703495653.776389,1703495653.776596,20.000000,0.000000,4194.615234,4185.512695,4282.692383,4236.538574,4201.794922,4182.948730,4215.897461,4247.563965,4242.820313,4191.922852,4585.128418,4463.333496,4367.948730,4470.769043,0.000000,4.000000,76.000000,,,,0.000000,4.000000,4.000000,4.000000,4.000000,4.000000,4.000000,4.000000,4.000000,4.000000,4.000000,4.000000,4.000000,4.000000,4.000000,100.000000,,,,,,,,,,,,,,,,,5.000000,0.000000,0.645012,0.285278,-0.680786,0.197754,0.999634,0.081065,-0.013185,-17.398937,-38.124226,63.894184
1703495653.784197,1703495653.784404,21.000000,0.000000,4192.179688,4188.077148,4283.077148,4238.077148,4203.717773,4183.589844,4217.820313,4243.717773,4235.512695,4204.358887,4570.256348,4466.538574,4357.820313,4457.820313,0.000000,4.000000,76.000000,,,,0.000000,4.000000,4.000000,4.000000,4.000000,4.000000,4.000000,4.000000,4.000000,4.000000,4.000000,4.000000,4.000000,4.000000,4.000000,100.000000,,,,,,,,,,,,,,,,,,,,,,,,,,,,
1703495653.792005,1703495653.792111,22.000000,0.000000,4196.153809,4199.487305,4283.205078,4249.102539,4185.769043,4183.461426,4214.230957,4242.563965,4231.666504,4195.641113,4565.641113,4456.025879,4356.410156,4465.897461,0.000000,4.000000,76.000000,,,,0.000000,4.000000,4.000000,4.000000,4.000000,4.000000,4.000000,4.000000,4.000000,4.000000,4.000000,4.000000,4.000000,4.000000,4.000000,100.000000,,,,,,,,,,,,,,,,,,,,,,,,,,,,
1703495653.799813,1703495653.799919,23.000000,0.000000,4206.666504,4202.051270,4290.641113,4246.666504,4190.512695,4181.025879,4215.384766,4238.333496,4233.846191,4173.589844,4557.948730,4462.307617,4349.487305,4482.307617,0.000000,4.000000,76.000000,,,,0.000000,4.000000,4.000000,4.000000,4.000000,4.000000,4.000000,4.000000,4.000000,4.000000,4.000000,4.000000,4.000000,4.000000,4.000000,100.000000,,,,,,,,,,,,,,,,,,,,,,,,,,,,
1703495653.807621,1703495653.807627,24.000000,0.000000,4218.077148,4206.666504,4297.179688,4251.922852,4204.743652,4182.307617,4217.179688,4232.307617,4230.512695,4167.436035,4564.102539,4476.282227,4353.589844,4488.461426,0.000000,4.000000,76.000000,,,,0.000000,4.000000,4.000000,4.000000,4.000000,4.000000,4.000000,4.000000,4.000000,4.000000,4.000000,4.000000,4.000000,4.000000,4.000000,100.000000,,,,,,,,,,,,,,,,,6.000000,0.000000,0.645084,0.285156,-0.680786,0.197693,0.991820,0.068856,-0.021975,-17.342377,-38.178471,63.938099
1703495653.815430,1703495653.815535,25.000000,0.000000,4220.384766,4218.461426,4303.974121,4268.205078,4197.436035,4183.205078,4217.307617,4231.538574,4220.512695,4172.692383,4577.948730,4479.871582,4370.897461,4488.717773,0.000000,4.000000,76.000000,,,,0.000000,4.000000,4.000000,4.000000,4.000000,4.000000,4.000000,4.000000,4.000000,4.000000,4.000000,4.000000,4.000000,4.000000,4.000000,100.000000,,,,,,,,,,,,,,,,,,,,,,,,,,,,
1703495653.823238,1703495653.823343,26.000000,0.000000,4225.897461,4221.794922,4309.102539,4271.410156,4175.641113,4172.563965,4215.641113,4230.769043,4216.153809,4171.666504,4574.743652,4481.153809,4376.282227,4498.846191,0.000000,4.000000,76.000000,,,,0.000000,4.000000,4.000000,4.000000,4.000000,4.000000,4.000000,4.000000,4.000000,4.000000,4.000000,4.000000,4.000000,4.000000,4.000000,100.000000,,,,,,,,,,,,,,,,,,,,,,,,,,,,
1703495653.831046,1703495653.831251,27.000000,0.000000,4248.205078,4218.717773,4309.102539,4272.436035,4174.358887,4167.436035,4213.333496,4235.256348,4223.077148,4174.615234,4576.794922,4487.307617,4383.077148,4510.512695,0.000000,4.000000,76.000000,,,,0.000000,4.000000,4.000000,4.000000,4.000000,4.000000,4.000000,4.000000,4.000000,4.000000,4.000000,4.000000,4.000000,4.000000,4.000000,100.000000,,,,,,,,,,,,,,,,,,,,,,,,,,,,
1703495653.838853,1703495653.839060,28.000000,0.000000,4254.230957,4222.563965,4306.666504,4277.307617,4197.436035,4181.153809,4217.436035,4247.179688,4231.794922,4187.820313,4587.692383,4488.205078,4391.153809,4491.410156,0.000000,4.000000,76.000000,,,,0.000000,4.000000,4.000000,4.000000,4.000000,4.000000,4.000000,4.000000,4.000000,4.000000,4.000000,4.000000,4.000000,4.000000,4.000000,100.000000,,,,,,,,,,,,,,,,,7.000000,0.000000,0.645084,0.285156,-0.680786,0.197693,0.996215,0.088878,-0.020510,-17.391472,-38.243958,63.994289
1703495653.846661,1703495653.846868,29.000000,0.000000,4224.615234,4218.461426,4293.461426,4259.743652,4205.897461,4187.179688,4218.205078,4248.077148,4233.717773,4192.692383,4574.743652,4467.436035,4378.077148,4458.205078,0.000000,4.000000,76.000000,,,,0.000000,4.000000,4.000000,4.000000,4.000000,4.000000,4.000000,4.000000,4.000000,4.000000,4.000000,4.000000,4.000000,4.000000,4.000000,100.000000,,,,,,,,,,,,,,,,,,,,,,,,,,,,
1703495653.854470,1703495653.854575,30.000000,0.000000,4197.820313,4200.256348,4275.256348,4235.384766,4186.410156,4173.589844,4207.436035,4234.871582,4232.948730,4175.384766,4540.769043,4445.641113,4351.410156,4453.717773,0.000000,4.000000,76.000000,,,,0.000000,4.000000,4.000000,4.000000,4.000000,4.000000,4.000000,4.000000,4.000000,4.000000,4.000000,4.000000,4.000000,4.000000,4.000000,100.000000,,,,,,,,,,,,,,,,,,,,,,,,,,,,
1703495653.862278,1703495653.862383,31.000000,0.000000,4190.256348,4185.384766,4268.846191,4230.769043,4178.333496,4168.333496,4200.128418,4226.538574,4232.563965,4160.000000,4528.589844,4443.846191,4340.384766,4455.897461,0.000000,4.000000,76.000000,,,,0.000000,4.000000,4.000000,4.000000,4.000000,4.000000,4.000000,4.000000,4.000000,4.000000,4.000000,4.000000,4.000000,4.000000,4.000000,100.000000,,,,,,,,,,,,,,,,,,,,,,,,,,,,
1703495653.870086,1703495653.870091,32.000000,0.000000,4180.256348,4181.153809,4270.384766,4226.025879,4190.128418,4175.384766,4203.077148,4228.589844,4233.846191,4164.743652,4548.077148,4444.487305,4350.641113,4445.769043,0.000000,4.000000,76.000000,,,,0.000000,4.000000,4.000000,4.000000,4.000000,4.000000,4.000000,4.000000,4.000000,4.000000,4.000000,4.000000,4.000000,4.000000,4.000000,100.000000,,,,,,,,,,,,,,,,,8.000000,0.000000,0.645132,0.285339,-0.680664,0.197693,0.987914,0.083018,-0.021487,-17.202326,-38.336227,63.861526
1703495653.877894,1703495653.877898,33.000000,0.000000,4170.000000,4183.205078,4268.205078,4219.487305,4185.128418,4173.974121,4203.205078,4224.871582,4231.025879,4161.794922,4548.589844,4437.436035,4346.153809,4440.128418,0.000000,4.000000,76.000000,,,,0.000000,4.000000,4.000000,4.000000,4.000000,4.000000,4.000000,4.000000,4.000000,4.000000,4.000000,4.000000,4.000000,4.000000,4.000000,100.000000,,,,,,,,,,,,,,,,,,,,,,,,,,,,
1703495653.885702,1703495653.885606,34.000000,0.000000,4178.333496,4187.563965,4265.512695,4232.692383,4177.307617,4169.358887,4202.563965,4214.230957,4223.589844,4148.205078,4525.769043,4434.230957,4328.333496,4431.282227,0.000000,4.000000,76.000000,,,,0.000000,4.000000,4.000000,4.000000,4.000000,4.000000,4.000000,4.000000,4.000000,4.000000,4.000000,4.000000,4.000000,4.000000,4.000000,100.000000,,,,,,,,,,,,,,,,,,,,,,,,,,,,
1703495653.893510,1703495653.893513,35.000000,0.000000,4193.461426,4195.384766,4270.000000,4249.871582,4184.487305,4171.153809,4207.051270,4217.179688,4218.846191,4151.922852,4530.000000,4443.461426,4336.282227,4430.128418,0.000000,4.000000,76.000000,,,,0.000000,4.000000,4.000000,4.000000,4.000000,4.000000,4.000000,4.000000,4.000000,4.000000,4.000000,4.000000,4.000000,4.000000,4.000000,100.000000,,,,,,,,,,,,,,,,,,,,,,,,,,,,
1703495653.901318,1703495653.901321,36.000000,0.000000,4200.641113,4208.974121,4282.436035,4249.615234,4183.974121,4172.692383,4207.563965,4227.692383,4220.128418,4165.769043,4551.538574,4457.563965,4357.692383,4447.051270,0.000000,4.000000,76.000000,,,,0.000000,4.000000,4.000000,4.000000,4.000000,4.000000,4.000000,4.000000,4.000000,4.000000,4.000000,4.000000,4.000000,4.000000,4.000000,100.000000,,,,,,,,,,,,,,,,,9.000000,0.000000,0.645115,0.285583,-0.680542,0.197815,0.977170,0.082041,-0.021975,-17.032093,-38.169270,63.775375
1703495653.909126,1703495653.909229,37.000000,0.000000,4211.282227,4216.666504,4287.820313,4247.820313,4179.358887,4171.153809,4203.077148,4226.538574,4222.307617,4168.974121,4549.487305,4461.282227,4355.256348,4453.077148,0.000000,4.000000,76.000000,,,,0.000000,4.000000,4.000000,4.000000,4.000000,4.000000,4.000000,4.000000,4.000000,4.000000,4.000000,4.000000,4.000000,4.000000,4.000000,100.000000,,,,,,,,,,,,,,,,,,,,,,,,,,,,
1703495653.916934,1703495653.917037,38.000000,0.000000,4218.205078,4212.436035,4285.256348,4249.230957,4185.000000,4170.000000,4202.692383,4226.282227,4223.717773,4166.153809,4546.153809,4458.717773,4350.897461,4454.615234,0.000000,4.000000,76.000000,,,,0.000000,4.000000,4.000000,4.000000,4.000000,4.000000,4.000000,4.000000,4.000000,4.000000,4.000000,4.000000,4.000000,4.000000,4.000000,100.000000,,,,,,,,,,,,,,,,,,,,,,,,,,,,
1703495653.924742,1703495653.924945,39.000000,0.000000,4218.589844,4211.922852,4284.102539,4252.179688,4189.358887,4169.615234,4203.846191,4231.922852,4224.743652,4161.538574,4555.000000,4463.461426,4362.051270,4471.282227,0.000000,4.000000,76.000000,,,,0.000000,4.000000,4.000000,4.000000,4.000000,4.000000,4.000000,4.000000,4.000000,4.000000,4.000000,4.000000,4.000000,4.000000,4.000000,100.000000,,,,,,,,,,,,,,,,,,,,,,,,,,,,
1703495653.932550,1703495653.932753,40.000000,0.000000,4232.563965,4221.025879,4293.205078,4258.461426,4180.128418,4170.641113,4201.538574,4232.179688,4226.794922,4165.769043,4553.974121,4479.230957,4368.717773,4471.794922,0.000000,4.000000,76.000000,,,,0.000000,4.000000,4.000000,4.000000,4.000000,4.000000,4.000000,4.000000,4.000000,4.000000,4.000000,4.000000,4.000000,4.000000,4.000000,100.000000,,,,,,,,,,,,,,,,,10.000000,0.000000,0.645061,0.285767,-0.680481,0.197937,0.976193,0.076670,-0.020999,-17.095551,-38.019012,63.864506
1703495653.940358,1703495653.940661,41.000000,0.000000,4241.282227,4220.256348,4302.820313,4254.615234,4184.743652,4171.922852,4201.282227,4236.666504,4232.179688,4184.230957,4561.666504,4484.487305,4374.871582,4467.051270,0.000000,4.000000,76.000000,,,,0.000000,4.000000,4.000000,4.000000,4.000000,4.000000,4.000000,4.000000,4.000000,4.000000,4.000000,4.000000,4.000000,4.000000,4.000000,100.000000,,,,,,,,,,,,,,,,,,,,,,,,,,,,
1703495653.948166,1703495653.948569,42.000000,0.000000,4223.974121,4207.692383,4292.692383,4250.897461,4201.282227,4172.436035,4204.230957,4240.512695,4235.128418,4189.358887,4577.051270,4466.025879,4386.410156,4482.179688,0.000000,4.000000,76.000000,,,,0.000000,4.000000,4.000000,4.000000,4.000000,4.000000,4.000000,4.000000,4.000000,4.000000,4.000000,4.000000,4.000000,4.000000,4.000000,100.000000,1.000000,41.666668,4.000000,4.000000,3.000000,4.000000,3.000000,1.000000,4.000000,4.000000,4.000000,4.000000,3.000000,4.000000,4.000000,1.000000,,,,,,,,,,,,
1703495653.955974,1703495653.956378,43.000000,0.000000,4212.436035,4207.692383,4281.922852,4265.128418,4195.000000,4174.743652,4204.358887,4235.641113,4233.333496,4176.666504,4565.769043,4456.410156,4381.794922,4487.051270,0.000000,4.000000,76.000000,,,,0.000000,4.000000,4.000000,4.000000,4.000000,4.000000,4.000000,4.000000,4.000000,4.000000,4.000000,4.000000,4.000000,4.000000,4.000000,100.000000,,,,,,,,,,,,,,,,,,,,,,,,,,,,
1703495653.963782,1703495653.964186,44.000000,0.000000,4217.307617,4218.333496,4280.769043,4268.589844,4180.512695,4175.256348,4201.794922,4231.538574,4232.179688,4171.794922,4540.897461,4455.641113,4357.307617,4464.358887,0.000000,4.000000,76.000000,,,,0.000000,4.000000,4.000000,4.000000,4.000000,4.000000,4.000000,4.000000,4.000000,4.000000,4.000000,4.000000,4.000000,4.000000,4.000000,100.000000,,,,,,,,,,,,,,,,,11.000000,0.000000,0.645236,0.285767,-0.680298,0.197998,0.987425,0.074716,-0.017092,-17.152662,-38.083775,63.861389
1703495653.971590,1703495653.971894,45.000000,0.000000,4208.205078,4215.384766,4272.307617,4247.692383,4184.358887,4171.282227,4200.641113,4226.025879,4232.307617,4169.615234,4532.563965,4442.948730,4346.282227,4435.256348,0.000000,4.000000,76.000000,,,,0.000000,4.000000,4.000000,4.000000,4.000000,4.000000,4.000000,4.000000,4.000000,4.000000,4.000000,4.000000,4.000000,4.000000,4.000000,100.000000,,,,,,,,,,,,,,,,,,,,,,,,,,,,
1703495653.979398,1703495653.979702,46.000000,0.000000,4192.820313,4200.897461,4266.922852,4236.794922,4196.025879,4170.641113,4202.436035,4219.743652,4232.692383,4157.820313,4531.282227,4441.538574,4353.461426,4429.230957,0.000000,4.000000,76.000000,,,,0.000000,4.000000,4.000000,4.000000,4.000000,4.000000,4.000000,4.000000,4.000000,4.000000,4.000000,4.000000,4.000000,4.000000,4.000000,100.000000,,,,,,,,,,,,,,,,,,,,,,,,,,,,
1703495653.987206,1703495653.987410,47.000000,0.000000,4196.922852,4199.615234,4269.871582,4243.974121,4187.179688,4171.025879,4201.153809,4217.948730,4227.948730,4148.846191,4530.128418,4451.922852,4352.563965,4441.666504,0.000000,4.000000,76.000000,,,,0.000000,4.000000,4.000000,4.000000,4.000000,4.000000,4.000000,4.000000,4.000000,4.000000,4.000000,4.000000,4.000000,4.000000,4.000000,100.000000,,,,,,,,,,,,,,,,,,,,,,,,,,,,
1703495653.995014,1703495653.995217,48.000000,0.000000,4209.358887,4201.025879,4273.846191,4245.897461,4168.846191,4168.333496,4197.563965,4217.179688,4221.410156,4153.717773,4534.743652,4455.128418,4349.743652,4450.000000,0.000000,4.000000,76.000000,,,,0.000000,4.000000,4.000000,4.000000,4.000000,4.000000,4.000000,4.000000,4.000000,4.000000,4.000000,4.000000,4.000000,4.000000,4.000000,100.000000,,,,,,,,,,,,,,,,,12.000000,0.000000,0.645447,0.285767,-0.680115,0.197937,0.992309,0.074228,-0.002930,-16.937395,-37.942066,63.775249
1703495654.002822,1703495654.002925,49.000000,0.000000,4215.128418,4199.358887,4281.025879,4243.846191,4176.794922,4168.589844,4200.128418,4215.512695,4218.077148,4165.128418,4537.051270,4456.794922,4360.512695,4447.563965,0.000000,4.000000,76.000000,,,,0.000000,4.000000,4.000000,4.000000,4.000000,4.000000,4.000000,4.000000,4.000000,4.000000,4.000000,4.000000,4.000000,4.000000,4.000000,100.000000,,,,,,,,,,,,,,,,,,,,,,,,,,,,
1703495654.010630,1703495654.010733,50.000000,0.000000,4215.641113,4211.025879,4284.230957,4249.871582,4187.820313,4170.128418,4204.615234,4215.384766,4219.230957,4167.179688,4536.410156,4458.717773,4370.512695,4454.743652,0.000000,4.000000,76.000000,,,,0.000000,4.000000,4.000000,4.000000,4.000000,4.000000,4.000000,4.000000,4.000000,4.000000,4.000000,4.000000,4.000000,4.000000,4.000000,100.000000,,,,,,,,,,,,,,,,,,,,,,,,,,,,
1703495654.018438,1703495654.018441,51.000000,0.000000,4218.589844,4215.512695,4286.410156,4249.871582,4177.692383,4167.179688,4202.820313,4209.487305,4219.102539,4156.922852,4538.461426,4463.333496,4363.717773,4475.128418,0.000000,4.000000,76.000000,,,,0.000000,4.000000,4.000000,4.000000,4.000000,4.000000,4.000000,4.000000,4.000000,4.000000,4.000000,4.000000,4.000000,4.000000,4.000000,100.000000,,,,,,,,,,,,,,,,,,,,,,,,,,,,
1703495654.026246,1703495654.026249,52.000000,0.000000,4221.025879,4203.461426,4290.512695,4244.102539,4173.077148,4167.307617,4199.358887,4205.256348,4214.743652,4151.282227,4537.563965,4468.846191,4364.358887,4479.230957,0.000000,4.000000,76.000000,,,,0.000000,4.000000,4.000000,4.000000,4.000000,4.000000,4.000000,4.000000,4.000000,4.000000,4.000000,4.000000,4.000000,4.000000,4.000000,100.000000,,,,,,,,,,,,,,,,,13.000000,0.000000,0.645549,0.285828,-0.679993,0.197937,0.984495,0.079111,-0.016115,-17.110323,-37.997860,63.681057
1703495654.034054,1703495654.033956,53.000000,0.000000,4212.820313,4200.512695,4285.256348,4247.051270,4180.256348,4170.769043,4200.641113,4210.384766,4218.846191,4153.974121,4535.897461,4467.692383,4375.128418,4465.641113,0.000000,4.000000,76.000000,,,,0.000000,4.000000,4.000000,4.000000,4.000000,4.000000,4.000000,4.000000,4.000000,4.000000,4.000000,4.000000,4.000000,4.000000,4.000000,100.000000,,,,,,,,,,,,,,,,,,,,,,,,,,,,
1703495654.041862,1703495654.041764,54.000000,0.000000,4208.461426,4202.307617,4278.461426,4244.871582,4177.179688,4170.128418,4201.410156,4218.589844,4232.179688,4164.487305,4551.153809,4469.230957,4379.743652,4454.615234,0.000000,4.000000,76.000000,,,,0.000000,4.000000,4.000000,4.000000,4.000000,4.000000,4.000000,4.000000,4.000000,4.000000,4.000000,4.000000,4.000000,4.000000,4.000000,100.000000,,,,,,,,,,,,,,,,,,,,,,,,,,,,
1703495654.049670,1703495654.049471,55.000000,0.000000,4215.384766,4196.922852,4283.077148,4235.897461,4177.692383,4170.512695,4200.128418,4222.307617,4236.282227,4178.333496,4553.974121,4472.307617,4375.769043,4462.692383,0.000000,4.000000,76.000000,,,,0.000000,4.000000,4.000000,4.000000,4.000000,4.000000,4.000000,4.000000,4.000000,4.000000,4.000000,4.000000,4.000000,4.000000,4.000000,100.000000,,,,,,,,,,,,,,,,,,,,,,,,,,,,
1703495654.057478,1703495654.057279,56.000000,0.000000,4218.461426,4200.384766,4289.743652,4240.897461,4186.282227,4172.692383,4202.436035,4219.102539,4230.769043,4167.692383,4531.794922,4470.000000,4369.230957,4481.666504,0.000000,4.000000,76.000000,,,,0.000000,4.000000,4.000000,4.000000,4.000000,4.000000,4.000000,4.000000,4.000000,4.000000,4.000000,4.000000,4.000000,4.000000,4.000000,100.000000,,,,,,,,,,,,,,,,,14.000000,0.000000,0.645632,0.285889,-0.679871,0.197998,0.989867,0.088878,-0.023929,-17.115957,-37.864738,63.612953
1703495654.065286,1703495654.064986,57.000000,0.000000,4213.974121,4207.179688,4277.692383,4252.948730,4186.153809,4173.846191,4203.846191,4217.179688,4230.769043,4151.025879,4530.256348,4461.025879,4373.077148,4470.641113,0.000000,4.000000,76.000000,,,,0.000000,4.000000,4.000000,4.000000,4.000000,4.000000,4.000000,4.000000,4.000000,4.000000,4.000000,4.000000,4.000000,4.000000,4.000000,100.000000,,,,,,,,,,,,,,,,,,,,,,,,,,,,
1703495654.073094,1703495654.072894,58.000000,0.000000,4207.948730,4202.051270,4259.743652,4247.436035,4184.615234,4174.871582,4202.692383,4213.333496,4228.717773,4152.820313,4535.384766,4445.384766,4369.102539,4425.256348,0.000000,4.000000,76.000000,,,,0.000000,4.000000,4.000000,4.000000,4.000000,4.000000,4.000000,4.000000,4.000000,4.000000,4.000000,4.000000,4.000000,4.000000,4.000000,100.000000,,,,,,,,,,,,,,,,,,,,,,,,,,,,
1703495654.080902,1703495654.080702,59.000000,0.000000,4198.461426,4199.615234,4263.205078,4233.974121,4175.512695,4173.974121,4198.974121,4202.948730,4218.974121,4142.436035,4513.333496,4434.743652,4346.282227,4407.948730,0.000000,4.000000,76.000000,,,,0.000000,4.000000,4.000000,4.000000,4.000000,4.000000,4.000000,4.000000,4.000000,4.000000,4.000000,4.000000,4.000000,4.000000,4.000000,100.000000,,,,,,,,,,,,,,,,,,,,,,,,,,,,
1703495654.088710,1703495654.088610,60.000000,0.000000,4188.077148,4200.256348,4268.974121,4234.871582,4168.205078,4172.307617,4199.102539,4196.666504,4215.769043,4122.563965,4493.461426,4428.333496,4336.922852,4428.717773,0.000000,4.000000,76.000000,,,,0.000000,4.000000,4.000000,4.000000,4.000000,4.000000,4.000000,4.000000,4.000000,4.000000,4.000000,4.000000,4.000000,4.000000,4.000000,100.000000,,,,,,,,,,,,,,,,,15.000000,0.000000,0.645696,0.285950,-0.679749,0.198120,0.984495,0.077158,-0.023440,-17.337694,-37.911598,63.768322
1703495654.096518,1703495654.096418,61.000000,0.000000,4183.846191,4189.743652,4265.384766,4234.487305,4176.538574,4170.256348,4197.307617,4200.384766,4214.487305,4121.282227,4492.692383,4426.025879,4350.384766,4432.692383,0.000000,4.000000,76.000000,,,,0.000000,4.000000,4.000000,4.000000,4.000000,4.000000,4.000000,4.000000,4.000000,4.000000,4.000000,4.000000,4.000000,4.000000,4.000000,100.000000,,,,,,,,,,,,,,,,,,,,,,,,,,,,
1703495654.104326,1703495654.104326,62.000000,0.000000,4183.589844,4181.538574,4266.025879,4228.077148,4178.461426,4167.436035,4189.358887,4200.384766,4212.051270,4123.589844,4495.384766,4430.512695,4354.871582,4420.897461,0.000000,4.000000,76.000000,,,,0.000000,4.000000,4.000000,4.000000,4.000000,4.000000,4.000000,4.000000,4.000000,4.000000,4.000000,4.000000,4.000000,4.000000,4.000000,100.000000,,,,,,,,,,,,,,,,,,,,,,,,,,,,
1703495654.112135,1703495654.112134,63.000000,0.000000,4191.410156,4191.538574,4270.384766,4237.692383,4175.000000,4167.820313,4190.641113,4196.282227,4213.077148,4120.256348,4502.436035,4434.230957,4347.948730,4423.461426,0.000000,4.000000,76.000000,,,,0.000000,4.000000,4.000000,4.000000,4.000000,4.000000,4.000000,4.000000,4.000000,4.000000,4.000000,4.000000,4.000000,4.000000,4.000000,100.000000,,,,,,,,,,,,,,,,,,,,,,,,,,,,
1703495654.119943,1703495654.120042,64.000000,0.000000,4199.871582,4200.256348,4274.230957,4251.410156,4180.128418,4172.051270,4199.487305,4198.717773,4214.487305,4117.820313,4506.794922,4442.051270,4351.282227,4428.461426,4336.000000,4.000000,76.000000,,,,0.000000,4.000000,4.000000,4.000000,4.000000,4.000000,4.000000,4.000000,4.000000,4.000000,4.000000,4.000000,4.000000,4.000000,4.000000,100.000000,,,,,,,,,,,,,,,,,16.000000,0.000000,0.645805,0.286011,-0.679565,0.198303,0.995727,0.064949,-0.010255,-17.370592,-37.870438,63.774822
1703495654.127751,1703495654.127850,65.000000,0.000000,4202.436035,4198.077148,4276.922852,4246.922852,4186.794922,4173.077148,4200.384766,4203.333496,4220.256348,4127.948730,4512.307617,4451.153809,4363.205078,4432.307617,5786.000000,4.000000,76.000000,,,,0.000000,4.000000,4.000000,4.000000,4.000000,4.000000,4.000000,4.000000,4.000000,4.000000,4.000000,4.000000,4.000000,4.000000,4.000000,100.000000,,,,,,,,,,,,,,,,,,,,,,,,,,,,
1703495654.135558,1703495654.135757,66.000000,0.000000,4204.358887,4196.282227,4279.102539,4242.948730,4182.051270,4171.666504,4197.436035,4211.153809,4230.256348,4150.128418,4522.820313,4453.461426,4365.384766,4424.102539,5634.000000,4.000000,76.000000,,,,0.000000,4.000000,4.000000,4.000000,4.000000,4.000000,4.000000,4.000000,4.000000,4.000000,4.000000,4.000000,4.000000,4.000000,4.000000,100.000000,,,,,,,,,,,,,,,,,,,,,,,,,,,,
1703495654.143367,1703495654.143565,67.000000,0.000000,4203.461426,4201.794922,4281.666504,4249.743652,4174.871582,4176.153809,4200.000000,4215.256348,4233.077148,4158.205078,4519.871582,4452.563965,4360.384766,4420.384766,5626.000000,4.000000,76.000000,,,,0.000000,4.000000,4.000000,4.000000,4.000000,4.000000,4.000000,4.000000,4.000000,4.000000,4.000000,4.000000,4.000000,4.000000,4.000000,100.000000,,,,,,,,,,,,,,,,,,,,,,,,,,,,
1703495654.151175,1703495654.151273,68.000000,0.000000,4207.563965,4203.333496,4283.589844,4247.436035,4182.051270,4183.717773,4203.974121,4215.256348,4231.025879,4158.077148,4521.025879,4456.153809,4371.666504,4459.743652,5449.000000,4.000000,76.000000,,,,0.000000,4.000000,4.000000,4.000000,4.000000,4.000000,4.000000,4.000000,4.000000,4.000000,4.000000,4.000000,4.000000,4.000000,4.000000,100.000000,,,,,,,,,,,,,,,,,17.000000,0.000000,0.645963,0.286133,-0.679382,0.198242,0.982542,0.080088,-0.008790,-17.400200,-37.950062,63.697342
1703495654.158983,1703495654.159081,69.000000,0.000000,4216.025879,4192.051270,4282.436035,4242.051270,4191.538574,4183.589844,4202.179688,4218.846191,4232.692383,4173.974121,4540.128418,4463.205078,4387.051270,4472.692383,4447.000000,4.000000,76.000000,,,,0.000000,4.000000,4.000000,4.000000,4.000000,4.000000,4.000000,4.000000,4.000000,4.000000,4.000000,4.000000,4.000000,4.000000,4.000000,100.000000,,,,,,,,,,,,,,,,,,,,,,,,,,,,
1703495654.166791,1703495654.166788,70.000000,0.000000,4211.666504,4187.820313,4274.615234,4243.333496,4182.692383,4174.487305,4196.410156,4213.333496,4228.461426,4173.717773,4548.461426,4454.358887,4384.487305,4436.410156,3607.000000,4.000000,76.000000,,,,0.000000,4.000000,4.000000,4.000000,4.000000,4.000000,4.000000,4.000000,4.000000,4.000000,4.000000,4.000000,4.000000,4.000000,4.000000,100.000000,,,,,,,,,,,,,,,,,,,,,,,,,,,,
1703495654.174599,1703495654.174596,71.000000,0.000000,4201.922852,4195.128418,4269.230957,4242.563965,4170.897461,4171.666504,4194.102539,4200.769043,4218.333496,4144.615234,4528.589844,4441.794922,4374.487305,4437.436035,3491.000000,4.000000,76.000000,,,,0.000000,4.000000,4.000000,4.000000,4.000000,4.000000,4.000000,4.000000,4.000000,4.000000,4.000000,4.000000,4.000000,4.000000,4.000000,100.000000,,,,,,,,,,,,,,,,,,,,,,,,,,,,
1703495654.182407,1703495654.182304,72.000000,0.000000,4203.461426,4200.512695,4272.692383,4244.102539,4170.641113,4175.641113,4193.077148,4201.410156,4218.974121,4141.282227,4504.871582,4448.461426,4367.307617,4453.717773,2194.000000,4.000000,76.000000,,,,0.000000,4.000000,4.000000,4.000000,4.000000,4.000000,4.000000,4.000000,4.000000,4.000000,4.000000,4.000000,4.000000,4.000000,4.000000,100.000000,,,,,,,,,,,,,,,,,18.000000,0.000000,0.646012,0.286438,-0.679260,0.198059,0.989379,0.085460,-0.006348,-17.276846,-37.788387,63.827606
1703495654.190215,1703495654.190112,73.000000,0.000000,4205.512695,4198.333496,4273.333496,4244.102539,4173.077148,4174.358887,4191.153809,4203.589844,4217.563965,4154.743652,4512.436035,4452.692383,4366.538574,4437.436035,5933.000000,4.000000,76.000000,,,,0.000000,4.000000,4.000000,4.000000,4.000000,4.000000,4.000000,4.000000,4.000000,4.000000,4.000000,4.000000,4.000000,4.000000,4.000000,100.000000,,,,,,,,,,,,,,,,,,,,,,,,,,,,
1703495654.198023,1703495654.197820,74.000000,0.000000,4203.077148,4193.461426,4271.922852,4239.358887,4182.563965,4173.974121,4197.051270,4189.615234,4205.384766,4128.846191,4526.922852,4443.974121,4366.538574,4433.077148,6067.000000,4.000000,76.000000,,,,0.000000,4.000000,4.000000,4.000000,4.000000,4.000000,4.000000,4.000000,4.000000,4.000000,4.000000,4.000000,4.000000,4.000000,4.000000,100.000000,,,,,,,,,,,,,,,,,,,,,,,,,,,,
1703495654.205831,1703495654.205627,75.000000,0.000000,4196.153809,4187.436035,4268.846191,4237.051270,4188.846191,4174.743652,4199.743652,4181.282227,4204.615234,4101.410156,4512.436035,4438.205078,4358.717773,4442.563965,6332.000000,4.000000,76.000000,,,,0.000000,4.000000,4.000000,4.000000,4.000000,4.000000,4.000000,4.000000,4.000000,4.000000,4.000000,4.000000,4.000000,4.000000,4.000000,100.000000,,,,,,,,,,,,,,,,,,,,,,,,,,,,
1703495654.213639,1703495654.213335,76.000000,0.000000,4183.974121,4177.179688,4264.743652,4233.077148,4174.871582,4170.897461,4193.461426,4191.153809,4215.512695,4121.025879,4505.000000,4440.000000,4357.307617,4422.948730,6728.000000,4.000000,76.000000,,,,0.000000,4.000000,4.000000,4.000000,4.000000,4.000000,4.000000,4.000000,4.000000,4.000000,4.000000,4.000000,4.000000,4.000000,4.000000,100.000000,,,,,,,,,,,,,,,,,19.000000,0.000000,0.646140,0.286438,-0.679138,0.198059,0.985960,0.090343,0.000977,-17.265827,-37.876217,63.744846
1703495654.221447,1703495654.221143,77.000000,0.000000,4182.563965,4177.948730,4268.461426,4220.897461,4160.512695,4171.922852,4195.897461,4201.410156,4221.025879,4141.922852,4518.461426,4445.256348,4362.948730,4410.256348,5846.000000,4.000000,76.000000,,,,0.000000,4.000000,4.000000,4.000000,4.000000,4.000000,4.000000,4.000000,4.000000,4.000000,4.000000,4.000000,4.000000,4.000000,4.000000,100.000000,,,,,,,,,,,,,,,,,,,,,,,,,,,,
1703495654.229255,1703495654.228850,78.000000,0.000000,4185.000000,4180.128418,4265.897461,4202.436035,4157.051270,4175.000000,4201.922852,4202.436035,4225.512695,4129.487305,4516.410156,4442.436035,4359.487305,4417.179688,6067.000000,4.000000,76.000000,,,,0.000000,4.000000,4.000000,4.000000,4.000000,4.000000,4.000000,4.000000,4.000000,4.000000,4.000000,4.000000,4.000000,4.000000,4.000000,100.000000,,,,,,,,,,,,,,,,,,,,,,,,,,,,
1703495654.237063,1703495654.236658,79.000000,0.000000,4175.641113,4172.563965,4261.025879,4185.769043,4159.230957,4172.948730,4197.820313,4200.512695,4233.717773,4123.846191,4496.922852,4434.230957,4355.769043,4412.563965,6332.000000,4.000000,76.000000,,,,0.000000,4.000000,4.000000,4.000000,4.000000,4.000000,4.000000,4.000000,4.000000,4.000000,4.000000,4.000000,4.000000,4.000000,4.000000,100.000000,,,,,,,,,,,,,,,,,,,,,,,,,,,,
1703495654.244871,1703495654.244366,80.000000,0.000000,4175.641113,4172.820313,4268.846191,4177.436035,4171.794922,4178.461426,4197.948730,4201.538574,4231.153809,4143.333496,4486.282227,4437.948730,4358.717773,4406.538574,6728.000000,4.000000,76.000000,,,,0.000000,4.000000,4.000000,4.000000,4.000000,4.000000,4.000000,4.000000,4.000000,4.000000,4.000000,4.000000,4.000000,4.000000,4.000000,100.000000,,,,,,,,,,,,,,,,,20.000000,0.000000,0.646146,0.286255,-0.679138,0.198303,0.998657,0.094250,-0.021975,-17.322578,-37.938595,63.820362
1703495654.252679,1703495654.252274,81.000000,0.000000,4186.794922,4186.025879,4269.487305,4186.922852,4174.358887,4185.769043,4202.563965,4201.282227,4220.128418,4149.615234,4500.769043,4440.512695,4362.179688,4412.436035,5846.000000,4.000000,76.000000,,,,0.000000,4.000000,4.000000,4.000000,4.000000,4.000000,4.000000,4.000000,4.000000,4.000000,4.000000,4.000000,4.000000,4.000000,4.000000,100.000000,,,,,,,,,,,,,,,,,,,,,,,,,,,,
1703495654.260487,1703495654.260082,82.000000,0.000000,4178.846191,4191.025879,4262.307617,4198.717773,4155.769043,4178.589844,4198.461426,4195.384766,4216.794922,4135.641113,4513.461426,4437.436035,4367.820313,4414.743652,6067.000000,4.000000,76.000000,,,,0.000000,4.000000,4.000000,4.000000,4.000000,4.000000,4.000000,4.000000,4.000000,4.000000,4.000000,4.000000,4.000000,4.000000,4.000000,100.000000,,,,,,,,,,,,,,,,,,,,,,,,,,,,
1703495654.268295,1703495654.267990,83.000000,0.000000,4171.153809,4185.641113,4262.307617,4196.538574,4152.436035,4173.205078,4194.102539,4192.948730,4219.358887,4137.692383,4506.025879,4437.436035,4371.538574,4413.717773,6332.000000,4.000000,76.000000,,,,0.000000,4.000000,4.000000,4.000000,4.000000,4.000000,4.000000,4.000000,4.000000,4.000000,4.000000,4.000000,4.000000,4.000000,4.000000,100.000000,,,,,,,,,,,,,,,,,,,,,,,,,,,,
1703495654.276103,1703495654.275798,84.000000,0.000000,4187.436035,4187.436035,4264.615234,4193.461426,4172.179688,4177.820313,4199.871582,4199.871582,4213.461426,4150.128418,4510.000000,4439.615234,4367.179688,4418.205078,6728.000000,4.000000,76.000000,,,,0.000000,4.000000,4.000000,4.000000,4.000000,4.000000,4.000000,4.000000,4.000000,4.000000,4.000000,4.000000,4.000000,4.000000,4.000000,100.000000,,,,,,,,,,,,,,,,,21.000000,0.000000,0.646070,0.286072,-0.679199,0.198608,0.986937,0.091808,-0.022952,-17.340321,-37.944736,63.688324
1703495654.283911,1703495654.283706,85.000000,0.000000,4205.000000,4189.743652,4269.615234,4198.333496,4174.871582,4175.769043,4200.512695,4199.487305,4202.563965,4147.307617,4527.563965,4447.948730,4367.563965,4416.153809,5846.000000,4.000000,76.000000,,,,0.000000,4.000000,4.000000,4.000000,4.000000,4.000000,4.000000,4.000000,4.000000,4.000000,4.000000,4.000000,4.000000,4.000000,4.000000,100.000000,,,,,,,,,,,,,,,,,,,,,,,,,,,,
1703495654.291719,1703495654.291513,86.000000,0.000000,4202.179688,4187.307617,4274.230957,4204.743652,4153.077148,4169.487305,4191.410156,4190.897461,4199.358887,4139.358887,4531.922852,4450.897461,4375.512695,4424.358887,6067.000000,4.000000,76.000000,,,,0.000000,4.000000,4.000000,4.000000,4.000000,4.000000,4.000000,4.000000,4.000000,4.000000,4.000000,4.000000,4.000000,4.000000,4.000000,100.000000,,,,,,,,,,,,,,,,,,,,,,,,,,,,
1703495654.299527,1703495654.299421,87.000000,0.000000,4190.128418,4183.846191,4272.563965,4201.153809,4145.256348,4168.846191,4191.538574,4185.641113,4194.230957,4129.871582,4519.487305,4441.666504,4367.948730,4442.179688,6332.000000,4.000000,76.000000,,,,0.000000,4.000000,4.000000,4.000000,4.000000,4.000000,4.000000,4.000000,4.000000,4.000000,4.000000,4.000000,4.000000,4.000000,4.000000,100.000000,,,,,,,,,,,,,,,,,,,,,,,,,,,,
1703495654.307335,1703495654.307229,88.000000,0.000000,4184.358887,4177.563965,4266.538574,4196.410156,4167.307617,4175.897461,4201.282227,4180.128418,4191.153809,4116.025879,4501.666504,4435.000000,4354.871582,4431.666504,6728.000000,4.000000,76.000000,,,,0.000000,4.000000,4.000000,4.000000,4.000000,4.000000,4.000000,4.000000,4.000000,4.000000,4.000000,4.000000,4.000000,4.000000,4.000000,100.000000,,,,,,,,,,,,,,,,,22.000000,0.000000,0.646028,0.285767,-0.679260,0.198975,0.985960,0.072763,-0.017092,-17.522955,-37.916927,63.652828
1703495654.315143,1703495654.315137,89.000000,0.000000,4182.307617,4172.820313,4262.179688,4201.153809,4177.948730,4182.563965,4203.846191,4177.051270,4197.307617,4116.153809,4489.615234,4435.769043,4354.358887,4413.333496,5846.000000,4.000000,76.000000,,,,0.000000,4.000000,4.000000,4.000000,4.000000,4.000000,4.000000,4.000000,4.000000,4.000000,4.000000,4.000000,4.000000,4.000000,4.000000,100.000000,,,,,,,,,,,,,,,,,,,,,,,,,,,,
1703495654.322951,1703495654.322945,90.000000,0.000000,4175.256348,4167.051270,4261.410156,4196.025879,4155.000000,4175.000000,4195.512695,4179.487305,4201.025879,4124.487305,4489.615234,4432.179688,4349.615234,4407.436035,6067.000000,4.000000,76.000000,,,,0.000000,4.000000,4.000000,4.000000,4.000000,4.000000,4.000000,4.000000,4.000000,4.000000,4.000000,4.000000,4.000000,4.000000,4.000000,100.000000,,,,,,,,,,,,,,,,,,,,,,,,,,,,
1703495654.330759,1703495654.330653,91.000000,0.000000,4169.615234,4166.282227,4257.692383,4183.333496,4150.641113,4170.384766,4191.922852,4179.743652,4206.666504,4117.948730,4492.051270,4425.641113,4344.102539,4397.692383,6332.000000,4.000000,76.000000,,,,0.000000,4.000000,4.000000,4.000000,4.000000,4.000000,4.000000,4.000000,4.000000,4.000000,4.000000,4.000000,4.000000,4.000000,4.000000,100.000000,,,,,,,,,,,,,,,,,,,,,,,,,,,,
1703495654.338567,1703495654.338460,92.000000,0.000000,4170.641113,4169.871582,4256.410156,4186.538574,4173.077148,4180.384766,4198.077148,4183.077148,4216.282227,4118.077148,4500.641113,4430.128418,4355.128418,4403.333496,6728.000000,4.000000,76.000000,,,,0.000000,4.000000,4.000000,4.000000,4.000000,4.000000,4.000000,4.000000,4.000000,4.000000,4.000000,4.000000,4.000000,4.000000,4.000000,100.000000,,,,,,,,,,,,,,,,,23.000000,0.000000,0.646044,0.285706,-0.679199,0.199219,0.986449,0.069833,-0.003907,-17.420660,-37.925236,63.654209
1703495654.346375,1703495654.346168,93.000000,0.000000,4172.179688,4169.615234,4259.743652,4197.051270,4171.153809,4180.897461,4201.025879,4192.436035,4217.820313,4139.615234,4515.897461,4438.846191,4367.307617,4433.717773,5846.000000,4.000000,76.000000,,,,0.000000,4.000000,4.000000,4.000000,4.000000,4.000000,4.000000,4.000000,4.000000,4.000000,4.000000,4.000000,4.000000,4.000000,4.000000,100.000000,,,,,,,,,,,,,,,,,,,,,,,,,,,,
1703495654.354183,1703495654.353976,94.000000,0.000000,4177.563965,4170.512695,4257.820313,4199.358887,4155.256348,4171.794922,4198.589844,4196.666504,4213.846191,4152.563965,4513.846191,4437.307617,4361.410156,4430.256348,6067.000000,4.000000,76.000000,,,,0.000000,4.000000,4.000000,4.000000,4.000000,4.000000,4.000000,4.000000,4.000000,4.000000,4.000000,4.000000,4.000000,4.000000,4.000000,100.000000,,,,,,,,,,,,,,,,,,,,,,,,,,,,
1703495654.361991,1703495654.361684,95.000000,0.000000,4184.102539,4176.410156,4260.384766,4193.846191,4158.333496,4172.948730,4197.563965,4196.025879,4213.461426,4150.641113,4505.000000,4436.153809,4362.820313,4406.538574,6332.000000,4.000000,76.000000,,,,0.000000,4.000000,4.000000,4.000000,4.000000,4.000000,4.000000,4.000000,4.000000,4.000000,4.000000,4.000000,4.000000,4.000000,4.000000,100.000000,,,,,,,,,,,,,,,,,,,,,,,,,,,,
1703495654.369800,1703495654.369491,96.000000,0.000000,4187.820313,4183.974121,4266.282227,4191.922852,4172.179688,4177.051270,4200.641113,4195.000000,4215.512695,4149.487305,4503.205078,4435.897461,4372.051270,4412.051270,6728.000000,4.000000,76.000000,,,,0.000000,4.000000,4.000000,4.000000,4.000000,4.000000,4.000000,4.000000,4.000000,4.000000,4.000000,4.000000,4.000000,4.000000,4.000000,100.000000,,,,,,,,,,,,,,,,,24.000000,0.000000,0.646043,0.285767,-0.679138,0.199341,0.991332,0.087901,-0.013185,-17.478594,-37.999378,63.805458
1703495654.377607,1703495654.377199,97.000000,0.000000,4196.282227,4191.794922,4267.436035,4207.307617,4177.563965,4175.384766,4205.256348,4194.102539,4215.256348,4154.230957,4502.436035,4431.410156,4367.563965,4422.692383,5846.000000,4.000000,76.000000,,,,0.000000,4.000000,4.000000,4.000000,4.000000,4.000000,4.000000,4.000000,4.000000,4.000000,4.000000,4.000000,4.000000,4.000000,4.000000,100.000000,,,,,,,,,,,,,,,,,,,,,,,,,,,,
1703495654.385415,1703495654.385107,98.000000,0.000000,4201.666504,4193.846191,4266.410156,4219.102539,4165.512695,4170.641113,4199.487305,4195.384766,4208.205078,4156.922852,4502.563965,4433.461426,4365.128418,4423.333496,6067.000000,4.000000,76.000000,,,,0.000000,4.000000,4.000000,4.000000,4.000000,4.000000,4.000000,4.000000,4.000000,4.000000,4.000000,4.000000,4.000000,4.000000,4.000000,100.000000,,,,,,,,,,,,,,,,,,,,,,,,,,,,
1703495654.393223,1703495654.392916,99.000000,0.000000,4198.974121,4189.358887,4264.871582,4207.820313,4148.461426,4166.794922,4188.974121,4189.743652,4199.615234,4143.077148,4504.615234,4437.820313,4370.128418,4428.589844,6332.000000,4.000000,76.000000,,,,0.000000,4.000000,4.000000,4.000000,4.000000,4.000000,4.000000,4.000000,4.000000,4.000000,4.000000,4.000000,4.000000,4.000000,4.000000,100.000000,,,,,,,,,,,,,,,,,,,,,,,,,,,,
1703495654.401032,1703495654.400824,100.000000,0.000000,4191.410156,4183.974121,4267.051270,4195.128418,4149.358887,4163.717773,4187.692383,4183.717773,4199.358887,4125.384766,4498.974121,4436.538574,4359.230957,4410.128418,6728.000000,4.000000,76.000000,,,,0.000000,4.000000,4.000000,4.000000,4.000000,4.000000,4.000000,4.000000,4.000000,4.000000,4.000000,4.000000,4.000000,4.000000,4.000000,100.000000,,,,,,,,,,,,,,,,,25.000000,0.000000,0.646097,0.285645,-0.679138,0.199341,1.001587,0.071298,-0.009278,-17.297401,-38.082775,63.841576
1703495654.408840,1703495654.408632,101.000000,0.000000,4186.153809,4185.512695,4269.358887,4201.153809,4166.666504,4159.743652,4192.307617,4185.641113,4203.846191,4129.358887,4492.948730,4431.666504,4343.974121,4382.051270,5846.000000,4.000000,76.000000,,,,0.000000,4.000000,4.000000,4.000000,4.000000,4.000000,4.000000,4.000000,4.000000,4.000000,4.000000,4.000000,4.000000,4.000000,4.000000,100.000000,,,,,,,,,,,,,,,,,,,,,,,,,,,,
1703495654.416648,1703495654.416540,102.000000,0.000000,4188.333496,4183.461426,4264.743652,4206.025879,4169.487305,4155.128418,4192.436035,4185.641113,4202.948730,4130.000000,4487.436035,4424.358887,4341.410156,4391.538574,6067.000000,4.000000,76.000000,,,,0.000000,4.000000,4.000000,4.000000,4.000000,4.000000,4.000000,4.000000,4.000000,4.000000,4.000000,4.000000,4.000000,4.000000,4.000000,100.000000,,,,,,,,,,,,,,,,,,,,,,,,,,,,
1703495654.424456,1703495654.424348,103.000000,0.000000,4186.666504,4168.333496,4257.563965,4196.538574,4154.358887,4154.102539,4188.846191,4181.282227,4198.974121,4112.051270,4474.230957,4415.897461,4334.230957,4410.000000,6332.000000,4.000000,76.000000,,,,0.000000,4.000000,4.000000,4.000000,4.000000,4.000000,4.000000,4.000000,4.000000,4.000000,4.000000,4.000000,4.000000,4.000000,4.000000,100.000000,,,,,,,,,,,,,,,,,,,,,,,,,,,,
1703495654.432264,1703495654.432156,104.000000,0.000000,4170.512695,4155.512695,4256.410156,4181.922852,4145.769043,4153.846191,4183.846191,4181.538574,4204.743652,4110.000000,4466.282227,4410.512695,4324.230957,4399.743652,6728.000000,4.000000,76.000000,,,,0.000000,4.000000,4.000000,4.000000,4.000000,4.000000,4.000000,4.000000,4.000000,4.000000,4.000000,4.000000,4.000000,4.000000,4.000000,100.000000,,,,,,,,,,,,,,,,,26.000000,0.000000,0.646161,0.285645,-0.679077,0.199341,0.975217,0.088390,-0.019045,-17.550995,-38.107830,63.890755
1703495654.440072,1703495654.439864,105.000000,0.000000,4163.974121,4153.461426,4260.769043,4176.153809,4150.256348,4153.333496,4182.051270,4185.641113,4214.743652,4119.487305,4470.769043,4418.205078,4326.666504,4385.256348,5846.000000,4.000000,76.000000,,,,0.000000,4.000000,4.000000,4.000000,4.000000,4.000000,4.000000,4.000000,4.000000,4.000000,4.000000,4.000000,4.000000,4.000000,4.000000,100.000000,,,,,,,,,,,,,,,,,,,,,,,,,,,,
1703495654.447880,1703495654.447772,106.000000,0.000000,4171.666504,4155.000000,4252.692383,4184.358887,4156.410156,4156.282227,4186.794922,4185.000000,4214.871582,4116.922852,4478.077148,4420.128418,4328.589844,4383.461426,6067.000000,4.000000,76.000000,,,,0.000000,4.000000,4.000000,4.000000,4.000000,4.000000,4.000000,4.000000,4.000000,4.000000,4.000000,4.000000,4.000000,4.000000,4.000000,100.000000,1.000000,75.000000,4.000000,4.000000,4.000000,4.000000,3.000000,3.000000,4.000000,4.000000,4.000000,4.000000,3.000000,4.000000,4.000000,3.000000,,,,,,,,,,,,
1703495654.455688,1703495654.455580,107.000000,0.000000,4169.615234,4160.769043,4240.897461,4193.846191,4155.897461,4157.820313,4189.615234,4182.179688,4213.333496,4115.512695,4471.666504,4407.820313,4321.410156,4380.641113,6332.000000,4.000000,76.000000,,,,0.000000,4.000000,4.000000,4.000000,4.000000,4.000000,4.000000,4.000000,4.000000,4.000000,4.000000,4.000000,4.000000,4.000000,4.000000,100.000000,,,,,,,,,,,,,,,,,,,,,,,,,,,,
1703495654.463496,1703495654.463488,108.000000,0.000000,4171.025879,4168.846191,4251.666504,4197.179688,4157.051270,4156.153809,4186.538574,4182.948730,4217.436035,4118.846191,4463.974121,4411.282227,4319.358887,4382.179688,6728.000000,4.000000,76.000000,,,,0.000000,4.000000,4.000000,4.000000,4.000000,4.000000,4.000000,4.000000,4.000000,4.000000,4.000000,4.000000,4.000000,4.000000,4.000000,100.000000,,,,,,,,,,,,,,,,,27.000000,0.000000,0.646072,0.285950,-0.679016,0.199402,0.979612,0.087413,-0.008302,-17.629229,-38.063713,63.868343
1703495654.471304,1703495654.471296,109.000000,0.000000,4188.461426,4173.589844,4267.179688,4199.871582,4164.487305,4156.538574,4186.666504,4186.794922,4212.563965,4128.974121,4476.538574,4427.692383,4334.230957,4400.769043,5846.000000,4.000000,76.000000,,,,0.000000,4.000000,4.000000,4.000000,4.000000,4.000000,4.000000,4.000000,4.000000,4.000000,4.000000,4.000000,4.000000,4.000000,4.000000,100.000000,,,,,,,,,,,,,,,,,,,,,,,,,,,,
1703495654.479112,1703495654.479204,110.000000,0.000000,4200.897461,4181.538574,4269.615234,4208.589844,4174.102539,4160.641113,4196.153809,4193.717773,4203.461426,4146.410156,4492.820313,4436.410156,4342.692383,4419.487305,6067.000000,4.000000,76.000000,,,,0.000000,4.000000,4.000000,4.000000,4.000000,4.000000,4.000000,4.000000,4.000000,4.000000,4.000000,4.000000,4.000000,4.000000,4.000000,100.000000,,,,,,,,,,,,,,,,,,,,,,,,,,,,
1703495654.486920,1703495654.487011,111.000000,0.000000,4202.692383,4188.205078,4268.974121,4220.256348,4173.333496,4160.256348,4200.128418,4198.846191,4203.205078,4145.000000,4501.538574,4434.615234,4327.692383,4425.384766,6332.000000,4.000000,76.000000,,,,0.000000,4.000000,4.000000,4.000000,4.000000,4.000000,4.000000,4.000000,4.000000,4.000000,4.000000,4.000000,4.000000,4.000000,4.000000,100.000000,,,,,,,,,,,,,,,,,,,,,,,,,,,,
1703495654.494728,1703495654.494919,112.000000,0.000000,4202.051270,4183.846191,4269.615234,4213.974121,4155.000000,4156.282227,4188.846191,4200.512695,4204.487305,4135.256348,4507.820313,4430.641113,4311.666504,4427.820313,6728.000000,4.000000,76.000000,,,,0.000000,4.000000,4.000000,4.000000,4.000000,4.000000,4.000000,4.000000,4.000000,4.000000,4.000000,4.000000,4.000000,4.000000,4.000000,100.000000,,,,,,,,,,,,,,,,,28.000000,0.000000,0.646180,0.286072,-0.678772,0.199707,1.004029,0.079600,-0.002442,-17.582972,-38.090675,63.948177
1703495654.502536,1703495654.502727,113.000000,0.000000,4200.641113,4182.307617,4276.282227,4208.589844,4146.794922,4155.000000,4183.717773,4200.000000,4203.589844,4137.179688,4513.333496,4436.538574,4305.128418,4427.948730,5846.000000,4.000000,76.000000,,,,0.000000,4.000000,4.000000,4.000000,4.000000,4.000000,4.000000,4.000000,4.000000,4.000000,4.000000,4.000000,4.000000,4.000000,4.000000,100.000000,,,,,,,,,,,,,,,,,,,,,,,,,,,,
1703495654.510344,1703495654.510635,114.000000,0.000000,4207.051270,4186.922852,4279.358887,4227.436035,4159.743652,4151.666504,4191.025879,4199.230957,4203.333496,4134.871582,4514.615234,4445.256348,4296.153809,4426.410156,6067.000000,4.000000,76.000000,,,,0.000000,4.000000,4.000000,4.000000,4.000000,4.000000,4.000000,4.000000,4.000000,4.000000,4.000000,4.000000,4.000000,4.000000,4.000000,100.000000,,,,,,,,,,,,,,,,,,,,,,,,,,,,
1703495654.518152,1703495654.518544,115.000000,0.000000,4220.256348,4187.307617,4272.820313,4235.512695,4169.230957,4149.743652,4198.717773,4207.307617,4204.871582,4142.563965,4521.282227,4451.538574,4293.077148,4437.051270,6332.000000,4.000000,76.000000,,,,0.000000,4.000000,4.000000,4.000000,4.000000,4.000000,4.000000,4.000000,4.000000,4.000000,4.000000,4.000000,4.000000,4.000000,4.000000,100.000000,,,,,,,,,,,,,,,,,,,,,,,,,,,,
1703495654.525960,1703495654.526352,116.000000,0.000000,4215.256348,4185.769043,4271.282227,4220.384766,4164.358887,4151.666504,4195.000000,4214.871582,4206.025879,4159.102539,4528.589844,4451.025879,4295.641113,4443.333496,6728.000000,4.000000,76.000000,,,,0.000000,4.000000,4.000000,4.000000,4.000000,4.000000,4.000000,4.000000,4.000000,4.000000,4.000000,4.000000,4.000000,4.000000,4.000000,100.000000,,,,,,,,,,,,,,,,,29.000000,0.000000,0.646169,0.286011,-0.678772,0.199829,0.993285,0.081553,-0.007325,-17.591341,-38.064941,63.936691
1703495654.533768,1703495654.534160,117.000000,0.000000,4198.974121,4181.153809,4271.025879,4219.487305,4162.692383,4152.051270,4191.025879,4206.794922,4206.666504,4148.205078,4515.897461,4438.077148,4291.153809,4427.563965,5846.000000,4.000000,76.000000,,,,0.000000,4.000000,4.000000,4.000000,4.000000,4.000000,4.000000,4.000000,4.000000,4.000000,4.000000,4.000000,4.000000,4.000000,4.000000,100.000000,,,,,,,,,,,,,,,,,,,,,,,,,,,,
1703495654.541576,1703495654.541868,118.000000,0.000000,4196.153809,4173.846191,4268.461426,4230.128418,4170.384766,4152.563965,4196.025879,4198.846191,4205.256348,4128.717773,4490.641113,4430.128418,4275.384766,4409.358887,6067.000000,4.000000,76.000000,,,,0.000000,4.000000,4.000000,4.000000,4.000000,4.000000,4.000000,4.000000,4.000000,4.000000,4.000000,4.000000,4.000000,4.000000,4.000000,100.000000,,,,,,,,,,,,,,,,,,,,,,,,,,,,
1703495654.549384,1703495654.549676,119.000000,0.000000,4194.871582,4170.897461,4265.769043,4226.153809,4173.077148,4157.692383,4195.769043,4203.077148,4203.589844,4136.025879,4487.820313,4427.179688,4265.128418,4409.615234,6332.000000,4.000000,76.000000,,,,0.000000,4.000000,4.000000,4.000000,4.000000,4.000000,4.000000,4.000000,4.000000,4.000000,4.000000,4.000000,4.000000,4.000000,4.000000,100.000000,,,,,,,,,,,,,,,,,,,,,,,,,,,,
1703495654.557192,1703495654.557384,120.000000,0.000000,4182.948730,4167.692383,4254.871582,4211.922852,4163.846191,4158.717773,4186.153809,4202.179688,4203.205078,4143.974121,4498.461426,4416.153809,4267.820313,4407.436035,6728.000000,4.000000,76.000000,,,,0.000000,4.000000,4.000000,4.000000,4.000000,4.000000,4.000000,4.000000,4.000000,4.000000,4.000000,4.000000,4.000000,4.000000,4.000000,100.000000,,,,,,,,,,,,,,,,,30.000000,0.000000,0.645955,0.285950,-0.678894,0.200195,0.981077,0.087413,-0.010743,-17.482208,-38.058449,64.043022
1703495654.565000,1703495654.565192,121.000000,0.000000,4177.179688,4165.641113,4253.974121,4207.948730,4157.948730,4155.128418,4183.077148,4198.333496,4204.230957,4133.974121,4489.230957,4413.205078,4269.615234,4389.615234,5846.000000,4.000000,76.000000,,,,0.000000,4.000000,4.000000,4.000000,4.000000,4.000000,4.000000,4.000000,4.000000,4.000000,4.000000,4.000000,4.000000,4.000000,4.000000,100.000000,,,,,,,,,,,,,,,,,,,,,,,,,,,,
1703495654.572808,1703495654.572899,122.000000,0.000000,4185.641113,4169.743652,4267.307617,4212.820313,4167.820313,4157.820313,4190.769043,4201.410156,4211.794922,4133.461426,4485.128418,4422.051270,4273.717773,4385.769043,6067.000000,4.000000,76.000000,,,,0.000000,4.000000,4.000000,4.000000,4.000000,4.000000,4.000000,4.000000,4.000000,4.000000,4.000000,4.000000,4.000000,4.000000,4.000000,100.000000,,,,,,,,,,,,,,,,,,,,,,,,,,,,
1703495654.580616,1703495654.580707,123.000000,0.000000,4196.153809,4173.077148,4270.897461,4217.307617,4171.282227,4162.051270,4194.358887,4203.333496,4215.512695,4142.563965,4502.948730,4427.051270,4285.641113,4405.897461,6332.000000,4.000000,76.000000,,,,0.000000,4.000000,4.000000,4.000000,4.000000,4.000000,4.000000,4.000000,4.000000,4.000000,4.000000,4.000000,4.000000,4.000000,4.000000,100.000000,,,,,,,,,,,,,,,,,,,,,,,,,,,,
1703495654.588424,1703495654.588415,124.000000,0.000000,4198.589844,4174.230957,4268.205078,4219.743652,4154.487305,4157.948730,4188.461426,4201.410156,4206.153809,4141.794922,4507.692383,4428.077148,4292.436035,4425.256348,6728.000000,4.000000,76.000000,,,,0.000000,4.000000,4.000000,4.000000,4.000000,4.000000,4.000000,4.000000,4.000000,4.000000,4.000000,4.000000,4.000000,4.000000,4.000000,100.000000,,,,,,,,,,,,,,,,,31.000000,0.000000,0.645816,0.285889,-0.679016,0.200317,0.988402,0.072274,-0.016115,-17.417320,-38.002602,63.938721
1703495654.596232,1703495654.596223,125.000000,0.000000,4203.077148,4181.538574,4272.307617,4229.230957,4148.717773,4153.974121,4187.948730,4201.025879,4198.077148,4136.794922,4501.153809,4430.000000,4294.487305,4437.563965,5846.000000,4.000000,76.000000,,,,0.000000,4.000000,4.000000,4.000000,4.000000,4.000000,4.000000,4.000000,4.000000,4.000000,4.000000,4.000000,4.000000,4.000000,4.000000,100.000000,,,,,,,,,,,,,,,,,,,,,,,,,,,,
1703495654.604040,1703495654.603931,126.000000,0.000000,4210.000000,4187.948730,4276.666504,4238.974121,4162.051270,4157.692383,4193.461426,4202.692383,4198.589844,4140.512695,4507.563965,4438.589844,4299.871582,4441.666504,6067.000000,4.000000,76.000000,,,,0.000000,4.000000,4.000000,4.000000,4.000000,4.000000,4.000000,4.000000,4.000000,4.000000,4.000000,4.000000,4.000000,4.000000,4.000000,100.000000,,,,,,,,,,,,,,,,,,,,,,,,,,,,
1703495654.611848,1703495654.611838,127.000000,0.000000,4208.589844,4184.102539,4275.000000,4226.922852,4170.512695,4161.666504,4193.333496,4197.692383,4198.333496,4139.871582,4507.051270,4441.410156,4298.974121,4432.436035,76.000000,4.000000,76.000000,,,,0.000000,4.000000,4.000000,4.000000,4.000000,4.000000,4.000000,4.000000,4.000000,4.000000,4.000000,4.000000,4.000000,4.000000,4.000000,100.000000,,,,,,,,,,,,,,,,,,,,,,,,,,,,
1703495654.619656,1703495654.619646,0.000000,0.000000,4202.563965,4176.922852,4275.512695,4215.128418,4171.538574,4159.615234,4191.025879,4193.077148,4197.563965,4122.051270,4492.563965,4434.102539,4295.128418,4423.717773,4340.000000,4.000000,76.000000,,,,0.000000,4.000000,4.000000,4.000000,4.000000,4.000000,4.000000,4.000000,4.000000,4.000000,4.000000,4.000000,4.000000,4.000000,4.000000,100.000000,,,,,,,,,,,,,,,,,0.000000,0.000000,0.645686,0.286011,-0.679016,0.200562,0.988402,0.069833,-0.012209,-17.325588,-37.969009,63.911514
1703495654.627464,1703495654.627554,1.000000,0.000000,4195.769043,4172.307617,4273.461426,4224.230957,4172.051270,4157.563965,4191.666504,4196.794922,4200.128418,4112.820313,4487.692383,4427.820313,4296.282227,4423.077148,5781.000000,4.000000,76.000000,,,,0.000000,4.000000,4.000000,4.000000,4.000000,4.000000,4.000000,4.000000,4.000000,4.000000,4.000000,4.000000,4.000000,4.000000,4.000000,100.000000,,,,,,,,,,,,,,,,,,,,,,,,,,,,
1703495654.635272,1703495654.635362,2.000000,0.000000,4188.205078,4169.743652,4262.307617,4228.205078,4164.487305,4157.051270,4188.077148,4199.871582,4201.922852,4124.358887,4487.563965,4418.974121,4290.512695,4410.384766,5627.000000,4.000000,76.000000,,,,0.000000,4.000000,4.000000,4.000000,4.000000,4.000000,4.000000,4.000000,4.000000,4.000000,4.000000,4.000000,4.000000,4.000000,4.000000,100.000000,,,,,,,,,,,,,,,,,,,,,,,,,,,,
1703495654.643080,1703495654.643270,3.000000,0.000000,4179.487305,4166.538574,4258.589844,4213.589844,4160.384766,4155.128418,4185.000000,4198.846191,4205.512695,4125.256348,4479.743652,4411.794922,4279.230957,4386.025879,5619.000000,4.000000,76.000000,,,,0.000000,4.000000,4.000000,4.000000,4.000000,4.000000,4.000000,4.000000,4.000000,4.000000,4.000000,4.000000,4.000000,4.000000,4.000000,100.000000,,,,,,,,,,,,,,,,,,,,,,,,,,,,
1703495654.650888,1703495654.651078,4.000000,0.000000,4167.051270,4165.769043,4260.897461,4212.307617,4164.230957,4156.282227,4187.307617,4199.358887,4212.948730,4121.538574,4469.743652,4414.871582,4277.179688,4382.692383,5427.000000,4.000000,76.000000,,,,0.000000,4.000000,4.000000,4.000000,4.000000,4.000000,4.000000,4.000000,4.000000,4.000000,4.000000,4.000000,4.000000,4.000000,4.000000,100.000000,,,,,,,,,,,,,,,,,1.000000,0.000000,0.645550,0.286377,-0.678955,0.200684,0.982053,0.088390,-0.010743,-17.276363,-37.955441,63.953697
1703495654.658697,1703495654.658986,5.000000,0.000000,4166.922852,4170.384766,4262.820313,4228.205078,4162.563965,4165.256348,4187.051270,4201.922852,4213.846191,4133.717773,4468.717773,4418.077148,4288.974121,4398.589844,4433.000000,4.000000,76.000000,,,,0.000000,4.000000,4.000000,4.000000,4.000000,4.000000,4.000000,4.000000,4.000000,4.000000,4.000000,4.000000,4.000000,4.000000,4.000000,100.000000,,,,,,,,,,,,,,,,,,,,,,,,,,,,
1703495654.666505,1703495654.666794,6.000000,0.000000,4183.077148,4164.615234,4265.512695,4224.230957,4163.461426,4170.897461,4185.641113,4201.153809,4205.256348,4141.666504,4478.077148,4416.538574,4296.410156,4402.307617,3585.000000,4.000000,76.000000,,,,0.000000,4.000000,4.000000,4.000000,4.000000,4.000000,4.000000,4.000000,4.000000,4.000000,4.000000,4.000000,4.000000,4.000000,4.000000,100.000000,,,,,,,,,,,,,,,,,,,,,,,,,,,,
1703495654.674312,1703495654.674702,7.000000,0.000000,4182.436035,4155.512695,4259.487305,4212.307617,4157.563965,4163.077148,4184.102539,4197.563965,4200.000000,4135.769043,4485.128418,4412.948730,4290.769043,4394.743652,3485.000000,4.000000,76.000000,,,,0.000000,4.000000,4.000000,4.000000,4.000000,4.000000,4.000000,4.000000,4.000000,4.000000,4.000000,4.000000,4.000000,4.000000,4.000000,100.000000,,,,,,,,,,,,,,,,,,,,,,,,,,,,
1703495654.682120,1703495654.682510,8.000000,0.000000,4176.153809,4163.205078,4262.692383,4216.922852,4152.692383,4161.410156,4184.358887,4198.717773,4204.102539,4134.743652,4493.205078,4423.974121,4297.436035,4407.307617,2186.000000,4.000000,76.000000,,,,0.000000,4.000000,4.000000,4.000000,4.000000,4.000000,4.000000,4.000000,4.000000,4.000000,4.000000,4.000000,4.000000,4.000000,4.000000,100.000000,,,,,,,,,,,,,,,,,2.000000,0.000000,0.645431,0.286499,-0.679016,0.200684,0.994750,0.078623,-0.022952,-17.332060,-37.959896,64.008324
1703495654.689929,1703495654.690418,9.000000,0.000000,4193.077148,4173.077148,4283.333496,4218.589844,4172.307617,4169.102539,4187.436035,4204.358887,4204.487305,4150.256348,4503.461426,4438.333496,4310.769043,4424.871582,5920.000000,4.000000,76.000000,,,,0.000000,4.000000,4.000000,4.000000,4.000000,4.000000,4.000000,4.000000,4.000000,4.000000,4.000000,4.000000,4.000000,4.000000,4.000000,100.000000,,,,,,,,,,,,,,,,,,,,,,,,,,,,
1703495654.697737,1703495654.698226,10.000000,0.000000,4211.025879,4177.563965,4291.153809,4222.948730,4186.922852,4168.205078,4190.769043,4201.666504,4199.230957,4153.717773,4496.666504,4435.641113,4306.666504,4428.589844,6085.000000,4.000000,76.000000,,,,0.000000,4.000000,4.000000,4.000000,4.000000,4.000000,4.000000,4.000000,4.000000,4.000000,4.000000,4.000000,4.000000,4.000000,4.000000,100.000000,,,,,,,,,,,,,,,,,,,,,,,,,,,,
1703495654.705545,1703495654.706133,11.000000,0.000000,4223.974121,4193.717773,4289.743652,4245.256348,4173.077148,4164.871582,4194.743652,4197.436035,4200.641113,4141.666504,4495.641113,4441.538574,4312.820313,4444.358887,6320.000000,4.000000,76.000000,,,,0.000000,4.000000,4.000000,4.000000,4.000000,4.000000,4.000000,4.000000,4.000000,4.000000,4.000000,4.000000,4.000000,4.000000,4.000000,100.000000,,,,,,,,,,,,,,,,,,,,,,,,,,,,
1703495654.713353,1703495654.713941,12.000000,0.000000,4229.230957,4201.282227,4289.102539,4257.179688,4167.820313,4167.948730,4195.897461,4203.974121,4204.487305,4145.128418,4514.358887,4450.512695,4331.922852,4463.589844,6713.000000,4.000000,76.000000,,,,0.000000,4.000000,4.000000,4.000000,4.000000,4.000000,4.000000,4.000000,4.000000,4.000000,4.000000,4.000000,4.000000,4.000000,4.000000,100.000000,,,,,,,,,,,,,,,,,3.000000,0.000000,0.645359,0.286560,-0.679077,0.200623,0.987914,0.083995,-0.020510,-17.448854,-38.030575,64.040825
1703495654.721161,1703495654.721649,13.000000,0.000000,4218.461426,4190.128418,4285.512695,4242.563965,4172.051270,4169.743652,4193.846191,4205.128418,4202.692383,4152.948730,4513.589844,4444.358887,4329.615234,4464.230957,5829.000000,4.000000,76.000000,,,,0.000000,4.000000,4.000000,4.000000,4.000000,4.000000,4.000000,4.000000,4.000000,4.000000,4.000000,4.000000,4.000000,4.000000,4.000000,100.000000,,,,,,,,,,,,,,,,,,,,,,,,,,,,
1703495654.728969,1703495654.729457,14.000000,0.000000,4214.615234,4180.000000,4287.179688,4230.384766,4152.179688,4167.307617,4187.307617,4200.256348,4200.256348,4151.025879,4515.256348,4443.205078,4329.487305,4455.769043,6085.000000,4.000000,76.000000,,,,0.000000,4.000000,4.000000,4.000000,4.000000,4.000000,4.000000,4.000000,4.000000,4.000000,4.000000,4.000000,4.000000,4.000000,4.000000,100.000000,,,,,,,,,,,,,,,,,,,,,,,,,,,,
1703495654.736777,1703495654.737165,15.000000,0.000000,4215.256348,4171.922852,4287.179688,4232.179688,4153.205078,4168.333496,4185.256348,4210.897461,4202.051270,4155.769043,4539.102539,4447.948730,4346.282227,4449.871582,6320.000000,4.000000,76.000000,,,,0.000000,4.000000,4.000000,4.000000,4.000000,4.000000,4.000000,4.000000,4.000000,4.000000,4.000000,4.000000,4.000000,4.000000,4.000000,100.000000,,,,,,,,,,,,,,,,,,,,,,,,,,,,
1703495654.744585,1703495654.744973,16.000000,0.000000,4204.871582,4171.922852,4282.307617,4235.128418,4175.256348,4172.051270,4192.179688,4219.615234,4202.692383,4158.333496,4528.077148,4444.102539,4341.538574,4435.512695,0.000000,4.000000,76.000000,,,,0.000000,4.000000,4.000000,4.000000,4.000000,4.000000,4.000000,4.000000,4.000000,4.000000,4.000000,4.000000,4.000000,4.000000,4.000000,100.000000,,,,,,,,,,,,,,,,,4.000000,0.000000,0.645221,0.286682,-0.679138,0.200684,0.992797,0.080576,-0.013185,-17.570635,-37.944183,64.086746
1703495654.752393,1703495654.752680,17.000000,0.000000,4198.205078,4184.487305,4279.358887,4227.307617,4158.461426,4172.051270,4189.743652,4205.128418,4200.769043,4147.820313,4493.333496,4428.589844,4320.769043,4417.436035,0.000000,4.000000,76.000000,,,,0.000000,4.000000,4.000000,4.000000,4.000000,4.000000,4.000000,4.000000,4.000000,4.000000,4.000000,4.000000,4.000000,4.000000,4.000000,100.000000,,,,,,,,,,,,,,,,,,,,,,,,,,,,
1703495654.760201,1703495654.760488,18.000000,0.000000,4199.358887,4182.692383,4274.871582,4220.384766,4147.051270,4168.205078,4184.487305,4196.794922,4201.922852,4146.153809,4494.743652,4417.051270,4315.000000,4419.743652,0.000000,4.000000,76.000000,,,,0.000000,4.000000,4.000000,4.000000,4.000000,4.000000,4.000000,4.000000,4.000000,4.000000,4.000000,4.000000,4.000000,4.000000,4.000000,100.000000,,,,,,,,,,,,,,,,,,,,,,,,,,,,
1703495654.768009,1703495654.768196,19.000000,0.000000,4197.563965,4170.384766,4270.000000,4230.769043,4177.948730,4170.897461,4192.179688,4203.717773,4203.589844,4148.461426,4507.948730,4416.794922,4323.974121,4434.230957,0.000000,4.000000,76.000000,,,,0.000000,4.000000,4.000000,4.000000,4.000000,4.000000,4.000000,4.000000,4.000000,4.000000,4.000000,4.000000,4.000000,4.000000,4.000000,100.000000,,,,,,,,,,,,,,,,,,,,,,,,,,,,
1703495654.775817,1703495654.776004,20.000000,0.000000,4198.589844,4172.820313,4267.948730,4239.358887,4181.153809,4172.307617,4191.538574,4199.743652,4202.307617,4133.333496,4498.846191,4412.692383,4326.025879,4429.743652,0.000000,4.000000,76.000000,,,,0.000000,4.000000,4.000000,4.000000,4.000000,4.000000,4.000000,4.000000,4.000000,4.000000,4.000000,4.000000,4.000000,4.000000,4.000000,100.000000,,,,,,,,,,,,,,,,,5.000000,0.000000,0.645065,0.286804,-0.679199,0.200806,0.997680,0.086436,-0.015139,-17.463572,-38.033100,64.094734
1703495654.783625,1703495654.783711,21.000000,0.000000,4199.615234,4174.102539,4273.717773,4230.128418,4147.948730,4162.948730,4180.000000,4189.871582,4200.000000,4125.000000,4489.743652,4410.769043,4316.153809,4407.948730,0.000000,4.000000,76.000000,,,,0.000000,4.000000,4.000000,4.000000,4.000000,4.000000,4.000000,4.000000,4.000000,4.000000,4.000000,4.000000,4.000000,4.000000,4.000000,100.000000,,,,,,,,,,,,,,,,,,,,,,,,,,,,
1703495654.791433,1703495654.791519,22.000000,0.000000,4198.717773,4169.487305,4281.794922,4224.230957,4154.358887,4160.512695,4181.794922,4189.871582,4197.692383,4136.538574,4489.743652,4422.563965,4318.461426,4420.256348,0.000000,4.000000,76.000000,,,,0.000000,4.000000,4.000000,4.000000,4.000000,4.000000,4.000000,4.000000,4.000000,4.000000,4.000000,4.000000,4.000000,4.000000,4.000000,100.000000,,,,,,,,,,,,,,,,,,,,,,,,,,,,
1703495654.799241,1703495654.799226,23.000000,0.000000,4208.461426,4177.307617,4285.128418,4226.794922,4177.436035,4167.436035,4187.820313,4184.615234,4195.897461,4135.256348,4490.512695,4430.256348,4332.563965,4446.410156,0.000000,4.000000,76.000000,,,,0.000000,4.000000,4.000000,4.000000,4.000000,4.000000,4.000000,4.000000,4.000000,4.000000,4.000000,4.000000,4.000000,4.000000,4.000000,100.000000,,,,,,,,,,,,,,,,,,,,,,,,,,,,
1703495654.807049,1703495654.807134,24.000000,0.000000,4225.641113,4193.205078,4292.307617,4237.307617,4170.512695,4169.230957,4186.794922,4180.000000,4197.563965,4126.025879,4498.974121,4436.410156,4337.179688,4433.717773,0.000000,4.000000,76.000000,,,,0.000000,4.000000,4.000000,4.000000,4.000000,4.000000,4.000000,4.000000,4.000000,4.000000,4.000000,4.000000,4.000000,4.000000,4.000000,100.000000,,,,,,,,,,,,,,,,,6.000000,0.000000,0.644797,0.287048,-0.679260,0.201111,0.986937,0.068368,-0.017092,-17.550549,-38.113121,64.135262
1703495654.814857,1703495654.814942,25.000000,0.000000,4236.025879,4202.820313,4296.282227,4250.897461,4160.897461,4167.563965,4187.051270,4192.307617,4200.256348,4145.769043,4517.692383,4447.436035,4341.025879,4429.358887,0.000000,4.000000,76.000000,,,,0.000000,4.000000,4.000000,4.000000,4.000000,4.000000,4.000000,4.000000,4.000000,4.000000,4.000000,4.000000,4.000000,4.000000,4.000000,100.000000,,,,,,,,,,,,,,,,,,,,,,,,,,,,
1703495654.822665,1703495654.822850,26.000000,0.000000,4234.487305,4202.692383,4294.230957,4243.846191,4166.282227,4172.307617,4191.666504,4202.820313,4202.051270,4171.025879,4538.717773,4452.948730,4357.307617,4462.820313,0.000000,4.000000,76.000000,,,,0.000000,4.000000,4.000000,4.000000,4.000000,4.000000,4.000000,4.000000,4.000000,4.000000,4.000000,4.000000,4.000000,4.000000,4.000000,100.000000,,,,,,,,,,,,,,,,,,,,,,,,,,,,
1703495654.830473,1703495654.830658,27.000000,0.000000,4228.846191,4197.948730,4293.205078,4232.307617,4182.563965,4181.538574,4200.641113,4202.307617,4210.128418,4172.179688,4544.358887,4454.230957,4375.641113,4480.128418,0.000000,4.000000,76.000000,,,,0.000000,4.000000,4.000000,4.000000,4.000000,4.000000,4.000000,4.000000,4.000000,4.000000,4.000000,4.000000,4.000000,4.000000,4.000000,100.000000,,,,,,,,,,,,,,,,,,,,,,,,,,,,
1703495654.838281,1703495654.838566,28.000000,0.000000,4228.461426,4189.743652,4287.436035,4237.692383,4176.922852,4180.512695,4199.487305,4208.846191,4215.897461,4167.820313,4530.000000,4447.820313,4375.897461,4459.615234,0.000000,4.000000,76.000000,,,,0.000000,4.000000,4.000000,4.000000,4.000000,4.000000,4.000000,4.000000,4.000000,4.000000,4.000000,4.000000,4.000000,4.000000,4.000000,100.000000,,,,,,,,,,,,,,,,,7.000000,0.000000,0.644704,0.287231,-0.679199,0.201355,0.988890,0.064461,-0.028812,-17.545492,-38.318478,64.138405
1703495654.846089,1703495654.846374,29.000000,0.000000,4220.512695,4182.948730,4280.256348,4240.384766,4149.487305,4173.717773,4185.897461,4215.128418,4213.461426,4170.384766,4513.846191,4434.487305,4357.692383,4445.256348,0.000000,4.000000,76.000000,,,,0.000000,4.000000,4.000000,4.000000,4.000000,4.000000,4.000000,4.000000,4.000000,4.000000,4.000000,4.000000,4.000000,4.000000,4.000000,100.000000,,,,,,,,,,,,,,,,,,,,,,,,,,,,
1703495654.853897,1703495654.854282,30.000000,0.000000,4204.230957,4186.538574,4275.769043,4240.641113,4160.000000,4178.717773,4186.282227,4205.641113,4210.897461,4166.538574,4515.512695,4425.256348,4347.692383,4452.563965,0.000000,4.000000,76.000000,,,,0.000000,4.000000,4.000000,4.000000,4.000000,4.000000,4.000000,4.000000,4.000000,4.000000,4.000000,4.000000,4.000000,4.000000,4.000000,100.000000,,,,,,,,,,,,,,,,,,,,,,,,,,,,
1703495654.861705,1703495654.862090,31.000000,0.000000,4202.436035,4190.512695,4273.974121,4246.922852,4194.615234,4188.846191,4198.974121,4198.846191,4207.563965,4158.846191,4523.077148,4423.205078,4349.102539,4451.410156,0.000000,4.000000,76.000000,,,,0.000000,4.000000,4.000000,4.000000,4.000000,4.000000,4.000000,4.000000,4.000000,4.000000,4.000000,4.000000,4.000000,4.000000,4.000000,100.000000,,,,,,,,,,,,,,,,,,,,,,,,,,,,
1703495654.869513,1703495654.869998,32.000000,0.000000,4212.820313,4187.051270,4273.589844,4243.333496,4193.077148,4186.153809,4201.538574,4195.512695,4201.153809,4142.692383,4498.717773,4418.717773,4333.846191,4430.769043,0.000000,4.000000,76.000000,,,,0.000000,4.000000,4.000000,4.000000,4.000000,4.000000,4.000000,4.000000,4.000000,4.000000,4.000000,4.000000,4.000000,4.000000,4.000000,100.000000,,,,,,,,,,,,,,,,,8.000000,0.000000,0.644693,0.287170,-0.679199,0.201477,0.993285,0.076181,-0.010743,-17.340944,-38.269962,64.024567
1703495654.877321,1703495654.877806,33.000000,0.000000,4215.384766,4193.077148,4270.769043,4243.461426,4182.051270,4184.871582,4199.102539,4184.358887,4200.256348,4127.692383,4468.717773,4412.436035,4315.769043,4410.000000,0.000000,4.000000,76.000000,,,,0.000000,4.000000,4.000000,4.000000,4.000000,4.000000,4.000000,4.000000,4.000000,4.000000,4.000000,4.000000,4.000000,4.000000,4.000000,100.000000,,,,,,,,,,,,,,,,,,,,,,,,,,,,
1703495654.885129,1703495654.885713,34.000000,0.000000,4217.563965,4203.333496,4278.333496,4247.436035,4188.333496,4190.256348,4202.436035,4187.051270,4202.436035,4137.563965,4484.487305,4420.897461,4329.615234,4417.820313,0.000000,4.000000,76.000000,,,,0.000000,4.000000,4.000000,4.000000,4.000000,4.000000,4.000000,4.000000,4.000000,4.000000,4.000000,4.000000,4.000000,4.000000,4.000000,100.000000,,,,,,,,,,,,,,,,,,,,,,,,,,,,
1703495654.892937,1703495654.893521,35.000000,0.000000,4223.077148,4194.102539,4289.871582,4236.922852,4177.948730,4181.025879,4197.948730,4194.615234,4200.256348,4142.820313,4507.563965,4433.077148,4354.358887,4450.512695,0.000000,4.000000,76.000000,,,,0.000000,4.000000,4.000000,4.000000,4.000000,4.000000,4.000000,4.000000,4.000000,4.000000,4.000000,4.000000,4.000000,4.000000,4.000000,100.000000,,,,,,,,,,,,,,,,,,,,,,,,,,,,
1703495654.900745,1703495654.901229,36.000000,0.000000,4219.871582,4183.333496,4288.077148,4235.128418,4161.153809,4169.487305,4189.487305,4187.051270,4198.077148,4132.179688,4491.153809,4433.333496,4349.230957,4468.333496,0.000000,4.000000,76.000000,,,,0.000000,4.000000,4.000000,4.000000,4.000000,4.000000,4.000000,4.000000,4.000000,4.000000,4.000000,4.000000,4.000000,4.000000,4.000000,100.000000,,,,,,,,,,,,,,,,,9.000000,0.000000,0.644730,0.287231,-0.679138,0.201477,0.981565,0.074228,-0.002930,-17.306849,-38.209633,64.072105
1703495654.908553,1703495654.909037,37.000000,0.000000,4221.410156,4194.102539,4286.794922,4246.666504,4171.538574,4176.410156,4194.871582,4188.846191,4201.025879,4143.846191,4491.025879,4441.794922,4346.282227,4454.615234,0.000000,4.000000,76.000000,,,,0.000000,4.000000,4.000000,4.000000,4.000000,4.000000,4.000000,4.000000,4.000000,4.000000,4.000000,4.000000,4.000000,4.000000,4.000000,100.000000,,,,,,,,,,,,,,,,,,,,,,,,,,,,
1703495654.916361,1703495654.916745,38.000000,0.000000,4236.794922,4202.436035,4292.948730,4249.743652,4189.102539,4188.333496,4205.897461,4205.769043,4211.282227,4171.410156,4535.128418,4456.410156,4373.077148,4450.641113,0.000000,4.000000,76.000000,,,,0.000000,4.000000,4.000000,4.000000,4.000000,4.000000,4.000000,4.000000,4.000000,4.000000,4.000000,4.000000,4.000000,4.000000,4.000000,100.000000,,,,,,,,,,,,,,,,,,,,,,,,,,,,
1703495654.924169,1703495654.924552,39.000000,0.000000,4237.692383,4194.358887,4292.436035,4246.410156,4172.563965,4186.153809,4202.692383,4214.743652,4220.512695,4177.436035,4552.307617,4458.333496,4383.461426,4476.666504,0.000000,4.000000,76.000000,,,,0.000000,4.000000,4.000000,4.000000,4.000000,4.000000,4.000000,4.000000,4.000000,4.000000,4.000000,4.000000,4.000000,4.000000,4.000000,100.000000,,,,,,,,,,,,,,,,,,,,,,,,,,,,
1703495654.931977,1703495654.932260,40.000000,0.000000,4220.128418,4187.436035,4285.384766,4241.794922,4146.153809,4177.051270,4191.282227,4214.102539,4218.717773,4176.282227,4537.051270,4450.384766,4369.102539,4476.153809,0.000000,4.000000,76.000000,,,,0.000000,4.000000,4.000000,4.000000,4.000000,4.000000,4.000000,4.000000,4.000000,4.000000,4.000000,4.000000,4.000000,4.000000,4.000000,100.000000,,,,,,,,,,,,,,,,,10.000000,0.000000,0.644869,0.287292,-0.679016,0.201355,0.981565,0.082041,-0.020999,-17.292831,-38.255337,64.014900
1703495654.939785,1703495654.940168,41.000000,0.000000,4211.025879,4186.410156,4284.230957,4236.410156,4163.333496,4182.307617,4195.000000,4217.051270,4215.256348,4184.230957,4534.487305,4446.666504,4371.794922,4458.974121,0.000000,4.000000,76.000000,,,,0.000000,4.000000,4.000000,4.000000,4.000000,4.000000,4.000000,4.000000,4.000000,4.000000,4.000000,4.000000,4.000000,4.000000,4.000000,100.000000,,,,,,,,,,,,,,,,,,,,,,,,,,,,
1703495654.947594,1703495654.947977,42.000000,0.000000,4217.307617,4183.333496,4288.589844,4234.487305,4190.256348,4193.974121,4204.743652,4220.128418,4218.461426,4185.769043,4532.948730,4450.641113,4375.641113,4462.948730,0.000000,4.000000,76.000000,,,,0.000000,4.000000,4.000000,4.000000,4.000000,4.000000,4.000000,4.000000,4.000000,4.000000,4.000000,4.000000,4.000000,4.000000,4.000000,100.000000,1.000000,75.000000,4.000000,4.000000,4.000000,4.000000,3.000000,3.000000,4.000000,4.000000,4.000000,4.000000,4.000000,4.000000,4.000000,3.000000,,,,,,,,,,,,
1703495654.955402,1703495654.955885,43.000000,0.000000,4219.615234,4185.128418,4282.692383,4236.538574,4185.897461,4191.538574,4202.948730,4213.077148,4215.512695,4173.077148,4517.948730,4440.897461,4356.410156,4444.102539,0.000000,4.000000,76.000000,,,,0.000000,4.000000,4.000000,4.000000,4.000000,4.000000,4.000000,4.000000,4.000000,4.000000,4.000000,4.000000,4.000000,4.000000,4.000000,100.000000,,,,,,,,,,,,,,,,,,,,,,,,,,,,
1703495654.963210,1703495654.963693,44.000000,0.000000,4215.769043,4187.307617,4275.512695,4241.410156,4183.461426,4186.153809,4198.717773,4200.128418,4205.000000,4156.282227,4509.358887,4426.538574,4350.384766,4420.256348,0.000000,4.000000,76.000000,,,,0.000000,4.000000,4.000000,4.000000,4.000000,4.000000,4.000000,4.000000,4.000000,4.000000,4.000000,4.000000,4.000000,4.000000,4.000000,100.000000,,,,,,,,,,,,,,,,,11.000000,0.000000,0.644925,0.287354,-0.678955,0.201294,0.996215,0.082530,-0.019534,-17.413548,-38.213135,64.046738
1703495654.971017,1703495654.971601,45.000000,0.000000,4215.641113,4184.615234,4282.692383,4250.384766,4193.974121,4191.153809,4202.307617,4199.743652,4201.922852,4158.333496,4513.589844,4435.641113,4367.179688,4448.974121,0.000000,4.000000,76.000000,,,,0.000000,4.000000,4.000000,4.000000,4.000000,4.000000,4.000000,4.000000,4.000000,4.000000,4.000000,4.000000,4.000000,4.000000,4.000000,100.000000,,,,,,,,,,,,,,,,,,,,,,,,,,,,
1703495654.978826,1703495654.979409,46.000000,0.000000,4219.102539,4192.820313,4288.077148,4256.410156,4186.282227,4193.717773,4204.743652,4204.615234,4203.589844,4165.769043,4515.256348,4442.820313,4368.717773,4471.666504,0.000000,4.000000,76.000000,,,,0.000000,4.000000,4.000000,4.000000,4.000000,4.000000,4.000000,4.000000,4.000000,4.000000,4.000000,4.000000,4.000000,4.000000,4.000000,100.000000,,,,,,,,,,,,,,,,,,,,,,,,,,,,
1703495654.986634,1703495654.987217,47.000000,0.000000,4222.692383,4204.487305,4283.461426,4261.922852,4180.897461,4186.794922,4202.563965,4192.820313,4200.512695,4146.153809,4494.230957,4431.025879,4347.436035,4438.589844,0.000000,4.000000,76.000000,,,,0.000000,4.000000,4.000000,4.000000,4.000000,4.000000,4.000000,4.000000,4.000000,4.000000,4.000000,4.000000,4.000000,4.000000,4.000000,100.000000,,,,,,,,,,,,,,,,,,,,,,,,,,,,
1703495654.994442,1703495654.994925,48.000000,0.000000,4228.974121,4203.333496,4283.333496,4266.282227,4193.846191,4184.615234,4202.179688,4180.897461,4197.948730,4126.282227,4473.846191,4425.256348,4340.384766,4431.922852,0.000000,4.000000,76.000000,,,,0.000000,4.000000,4.000000,4.000000,4.000000,4.000000,4.000000,4.000000,4.000000,4.000000,4.000000,4.000000,4.000000,4.000000,4.000000,100.000000,,,,,,,,,,,,,,,,,12.000000,0.000000,0.644964,0.287598,-0.678833,0.201233,0.993285,0.074716,-0.015139,-17.388861,-38.308487,64.158730
1703495655.002250,1703495655.002733,49.000000,0.000000,4233.461426,4201.922852,4290.897461,4262.307617,4195.512695,4189.230957,4203.333496,4188.077148,4199.230957,4138.589844,4490.512695,4434.743652,4362.563965,4458.846191,0.000000,4.000000,76.000000,,,,0.000000,4.000000,4.000000,4.000000,4.000000,4.000000,4.000000,4.000000,4.000000,4.000000,4.000000,4.000000,4.000000,4.000000,4.000000,100.000000,,,,,,,,,,,,,,,,,,,,,,,,,,,,
1703495655.010058,1703495655.010440,50.000000,0.000000,4232.179688,4206.153809,4293.974121,4262.179688,4189.487305,4190.641113,4203.846191,4198.846191,4199.487305,4154.871582,4513.077148,4439.230957,4380.000000,4455.512695,0.000000,4.000000,76.000000,,,,0.000000,4.000000,4.000000,4.000000,4.000000,4.000000,4.000000,4.000000,4.000000,4.000000,4.000000,4.000000,4.000000,4.000000,4.000000,100.000000,,,,,,,,,,,,,,,,,,,,,,,,,,,,
1703495655.017866,1703495655.018348,51.000000,0.000000,4226.282227,4199.871582,4285.384766,4262.820313,4183.333496,4187.948730,4201.153809,4199.358887,4203.461426,4157.307617,4509.102539,4430.000000,4376.410156,4443.461426,0.000000,4.000000,76.000000,,,,0.000000,4.000000,4.000000,4.000000,4.000000,4.000000,4.000000,4.000000,4.000000,4.000000,4.000000,4.000000,4.000000,4.000000,4.000000,100.000000,,,,,,,,,,,,,,,,,,,,,,,,,,,,
1703495655.025674,1703495655.026156,52.000000,0.000000,4219.487305,4192.820313,4281.666504,4253.333496,4183.333496,4189.487305,4200.641113,4198.717773,4212.948730,4161.282227,4500.000000,4430.000000,4371.153809,4443.205078,0.000000,4.000000,76.000000,,,,0.000000,4.000000,4.000000,4.000000,4.000000,4.000000,4.000000,4.000000,4.000000,4.000000,4.000000,4.000000,4.000000,4.000000,4.000000,100.000000,,,,,,,,,,,,,,,,,13.000000,0.000000,0.644992,0.287781,-0.678711,0.201294,0.991820,0.079111,-0.010743,-17.449974,-38.310974,64.009529
1703495655.033482,1703495655.034064,53.000000,0.000000,4215.000000,4194.358887,4283.205078,4247.436035,4196.153809,4197.436035,4203.846191,4205.769043,4218.846191,4170.512695,4505.512695,4436.794922,4375.897461,4442.436035,0.000000,4.000000,76.000000,,,,0.000000,4.000000,4.000000,4.000000,4.000000,4.000000,4.000000,4.000000,4.000000,4.000000,4.000000,4.000000,4.000000,4.000000,4.000000,100.000000,,,,,,,,,,,,,,,,,,,,,,,,,,,,
1703495655.041290,1703495655.041872,54.000000,0.000000,4207.436035,4189.102539,4276.282227,4251.922852,4200.000000,4202.563965,4204.358887,4215.256348,4219.230957,4171.666504,4511.538574,4431.153809,4378.077148,4438.333496,0.000000,4.000000,76.000000,,,,0.000000,4.000000,4.000000,4.000000,4.000000,4.000000,4.000000,4.000000,4.000000,4.000000,4.000000,4.000000,4.000000,4.000000,4.000000,100.000000,,,,,,,,,,,,,,,,,,,,,,,,,,,,
1703495655.049098,1703495655.049780,55.000000,0.000000,4198.205078,4181.282227,4273.717773,4251.025879,4188.461426,4199.230957,4202.692383,4215.897461,4217.820313,4161.282227,4508.974121,4430.000000,4370.128418,4436.153809,0.000000,4.000000,76.000000,,,,0.000000,4.000000,4.000000,4.000000,4.000000,4.000000,4.000000,4.000000,4.000000,4.000000,4.000000,4.000000,4.000000,4.000000,4.000000,100.000000,,,,,,,,,,,,,,,,,,,,,,,,,,,,
1703495655.056906,1703495655.057588,56.000000,0.000000,4197.948730,4179.871582,4275.641113,4240.897461,4183.077148,4192.563965,4200.128418,4207.051270,4217.436035,4159.102539,4503.461426,4434.230957,4364.743652,4432.820313,0.000000,4.000000,76.000000,,,,0.000000,4.000000,4.000000,4.000000,4.000000,4.000000,4.000000,4.000000,4.000000,4.000000,4.000000,4.000000,4.000000,4.000000,4.000000,100.000000,,,,,,,,,,,,,,,,,14.000000,0.000000,0.644887,0.287659,-0.678772,0.201599,0.983030,0.082530,-0.020999,-17.504976,-38.396542,63.908573
1703495655.064714,1703495655.065496,57.000000,0.000000,4200.384766,4180.769043,4271.666504,4240.128418,4181.153809,4189.102539,4197.179688,4202.436035,4213.717773,4162.692383,4495.384766,4432.948730,4361.153809,4429.102539,0.000000,4.000000,76.000000,,,,0.000000,4.000000,4.000000,4.000000,4.000000,4.000000,4.000000,4.000000,4.000000,4.000000,4.000000,4.000000,4.000000,4.000000,4.000000,100.000000,,,,,,,,,,,,,,,,,,,,,,,,,,,,
1703495655.072522,1703495655.073304,58.000000,0.000000,4200.384766,4182.948730,4271.410156,4247.179688,4186.282227,4195.897461,4199.871582,4202.307617,4206.922852,4160.000000,4498.333496,4432.307617,4360.128418,4427.948730,0.000000,4.000000,76.000000,,,,0.000000,4.000000,4.000000,4.000000,4.000000,4.000000,4.000000,4.000000,4.000000,4.000000,4.000000,4.000000,4.000000,4.000000,4.000000,100.000000,,,,,,,,,,,,,,,,,,,,,,,,,,,,
1703495655.080330,1703495655.081012,59.000000,0.000000,4203.717773,4186.153809,4270.384766,4246.666504,4199.358887,4198.589844,4204.871582,4198.974121,4202.307617,4152.051270,4501.794922,4429.615234,4367.436035,4426.153809,0.000000,4.000000,76.000000,,,,0.000000,4.000000,4.000000,4.000000,4.000000,4.000000,4.000000,4.000000,4.000000,4.000000,4.000000,4.000000,4.000000,4.000000,4.000000,100.000000,,,,,,,,,,,,,,,,,,,,,,,,,,,,
1703495655.088138,1703495655.088920,60.000000,0.000000,4204.230957,4185.641113,4272.179688,4252.436035,4184.743652,4192.692383,4202.051270,4197.563965,4201.538574,4144.743652,4494.358887,4425.384766,4366.153809,4433.333496,0.000000,4.000000,76.000000,,,,0.000000,4.000000,4.000000,4.000000,4.000000,4.000000,4.000000,4.000000,4.000000,4.000000,4.000000,4.000000,4.000000,4.000000,4.000000,100.000000,,,,,,,,,,,,,,,,,15.000000,0.000000,0.644780,0.287598,-0.678772,0.202026,0.983030,0.070321,-0.008302,-17.521145,-38.173553,63.951050
1703495655.095946,1703495655.096728,61.000000,0.000000,4197.307617,4186.538574,4282.948730,4265.769043,4159.743652,4192.948730,4196.922852,4198.461426,4200.256348,4146.025879,4487.948730,4432.307617,4361.666504,4440.641113,0.000000,4.000000,76.000000,,,,0.000000,4.000000,4.000000,4.000000,4.000000,4.000000,4.000000,4.000000,4.000000,4.000000,4.000000,4.000000,4.000000,4.000000,4.000000,100.000000,,,,,,,,,,,,,,,,,,,,,,,,,,,,
1703495655.103754,1703495655.104537,62.000000,0.000000,4203.077148,4188.717773,4287.307617,4258.974121,4172.436035,4196.538574,4199.871582,4192.307617,4197.692383,4143.205078,4477.820313,4441.538574,4364.230957,4435.769043,0.000000,4.000000,76.000000,,,,0.000000,4.000000,4.000000,4.000000,4.000000,4.000000,4.000000,4.000000,4.000000,4.000000,4.000000,4.000000,4.000000,4.000000,4.000000,100.000000,,,,,,,,,,,,,,,,,,,,,,,,,,,,
1703495655.111562,1703495655.112245,63.000000,0.000000,4213.974121,4188.077148,4277.436035,4246.794922,4201.282227,4197.307617,4205.384766,4185.512695,4198.589844,4131.025879,4477.436035,4433.717773,4361.282227,4423.589844,0.000000,4.000000,76.000000,,,,0.000000,4.000000,4.000000,4.000000,4.000000,4.000000,4.000000,4.000000,4.000000,4.000000,4.000000,4.000000,4.000000,4.000000,4.000000,100.000000,,,,,,,,,,,,,,,,,,,,,,,,,,,,
1703495655.119370,1703495655.120052,64.000000,0.000000,4207.692383,4188.717773,4268.846191,4257.307617,4203.333496,4199.358887,4204.871582,4189.615234,4200.384766,4138.077148,4497.307617,4419.615234,4357.692383,4427.051270,4348.000000,4.000000,76.000000,,,,0.000000,4.000000,4.000000,4.000000,4.000000,4.000000,4.000000,4.000000,4.000000,4.000000,4.000000,4.000000,4.000000,4.000000,4.000000,100.000000,,,,,,,,,,,,,,,,,16.000000,0.000000,0.644816,0.287720,-0.678650,0.202148,0.994750,0.069344,-0.018557,-17.485697,-38.056198,64.022614
1703495655.127178,1703495655.127760,65.000000,0.000000,4198.077148,4183.333496,4272.563965,4256.282227,4189.743652,4201.025879,4202.179688,4200.128418,4202.307617,4161.025879,4500.769043,4422.820313,4363.974121,4443.589844,5756.000000,4.000000,76.000000,,,,0.000000,4.000000,4.000000,4.000000,4.000000,4.000000,4.000000,4.000000,4.000000,4.000000,4.000000,4.000000,4.000000,4.000000,4.000000,100.000000,,,,,,,,,,,,,,,,,,,,,,,,,,,,
1703495655.134986,1703495655.135568,66.000000,0.000000,4196.922852,4172.436035,4269.743652,4235.769043,4187.179688,4198.717773,4201.666504,4208.589844,4209.743652,4165.384766,4489.871582,4430.128418,4366.025879,4449.743652,5631.000000,4.000000,76.000000,,,,0.000000,4.000000,4.000000,4.000000,4.000000,4.000000,4.000000,4.000000,4.000000,4.000000,4.000000,4.000000,4.000000,4.000000,4.000000,100.000000,,,,,,,,,,,,,,,,,,,,,,,,,,,,
1703495655.142794,1703495655.143276,67.000000,0.000000,4190.000000,4167.563965,4261.025879,4234.102539,4184.230957,4193.589844,4201.666504,4213.589844,4218.205078,4165.000000,4501.538574,4423.846191,4359.102539,4440.128418,5594.000000,4.000000,76.000000,,,,0.000000,4.000000,4.000000,4.000000,4.000000,4.000000,4.000000,4.000000,4.000000,4.000000,4.000000,4.000000,4.000000,4.000000,4.000000,100.000000,,,,,,,,,,,,,,,,,,,,,,,,,,,,
1703495655.150602,1703495655.151084,68.000000,0.000000,4186.282227,4175.384766,4266.153809,4244.871582,4176.922852,4195.000000,4201.922852,4216.794922,4219.743652,4175.128418,4509.358887,4424.615234,4358.077148,4429.230957,5434.000000,4.000000,76.000000,,,,0.000000,4.000000,4.000000,4.000000,4.000000,4.000000,4.000000,4.000000,4.000000,4.000000,4.000000,4.000000,4.000000,4.000000,4.000000,100.000000,,,,,,,,,,,,,,,,,17.000000,0.000000,0.644818,0.287903,-0.678589,0.202087,1.003052,0.083506,-0.011232,-17.387127,-38.017246,63.987019
1703495655.158410,1703495655.158791,69.000000,0.000000,4197.563965,4187.051270,4274.358887,4249.358887,4183.461426,4198.333496,4203.205078,4216.922852,4218.205078,4176.025879,4500.128418,4435.384766,4362.820313,4432.948730,4425.000000,4.000000,76.000000,,,,0.000000,4.000000,4.000000,4.000000,4.000000,4.000000,4.000000,4.000000,4.000000,4.000000,4.000000,4.000000,4.000000,4.000000,4.000000,100.000000,,,,,,,,,,,,,,,,,,,,,,,,,,,,
1703495655.166218,1703495655.166599,70.000000,0.000000,4202.179688,4188.077148,4276.025879,4249.102539,4182.563965,4191.410156,4200.641113,4216.794922,4213.974121,4173.846191,4505.000000,4442.820313,4369.230957,4435.897461,3588.000000,4.000000,76.000000,,,,0.000000,4.000000,4.000000,4.000000,4.000000,4.000000,4.000000,4.000000,4.000000,4.000000,4.000000,4.000000,4.000000,4.000000,4.000000,100.000000,,,,,,,,,,,,,,,,,,,,,,,,,,,,
1703495655.174026,1703495655.174307,71.000000,0.000000,4197.436035,4186.025879,4275.256348,4246.025879,4167.563965,4181.538574,4195.384766,4212.179688,4208.077148,4171.794922,4512.563965,4444.615234,4377.948730,4440.000000,3490.000000,4.000000,76.000000,,,,0.000000,4.000000,4.000000,4.000000,4.000000,4.000000,4.000000,4.000000,4.000000,4.000000,4.000000,4.000000,4.000000,4.000000,4.000000,100.000000,,,,,,,,,,,,,,,,,,,,,,,,,,,,
1703495655.181834,1703495655.182114,72.000000,0.000000,4207.948730,4194.615234,4278.077148,4254.487305,4181.666504,4184.743652,4202.051270,4205.512695,4204.743652,4164.358887,4505.128418,4448.846191,4382.436035,4454.102539,2192.000000,4.000000,76.000000,,,,0.000000,4.000000,4.000000,4.000000,4.000000,4.000000,4.000000,4.000000,4.000000,4.000000,4.000000,4.000000,4.000000,4.000000,4.000000,100.000000,,,,,,,,,,,,,,,,,18.000000,0.000000,0.644930,0.288025,-0.678467,0.201965,0.992797,0.075693,-0.006837,-17.431747,-38.065521,63.954983
1703495655.189642,1703495655.189822,73.000000,0.000000,4219.102539,4198.589844,4282.563965,4267.948730,4189.743652,4180.512695,4201.922852,4200.512695,4202.307617,4152.692383,4496.410156,4452.051270,4373.717773,4443.717773,5925.000000,4.000000,76.000000,,,,0.000000,4.000000,4.000000,4.000000,4.000000,4.000000,4.000000,4.000000,4.000000,4.000000,4.000000,4.000000,4.000000,4.000000,4.000000,100.000000,,,,,,,,,,,,,,,,,,,,,,,,,,,,
1703495655.197450,1703495655.197730,74.000000,0.000000,4209.102539,4188.589844,4277.563965,4265.000000,4164.615234,4164.871582,4186.794922,4191.666504,4197.820313,4142.179688,4501.538574,4438.333496,4364.743652,4422.563965,6078.000000,4.000000,76.000000,,,,0.000000,4.000000,4.000000,4.000000,4.000000,4.000000,4.000000,4.000000,4.000000,4.000000,4.000000,4.000000,4.000000,4.000000,4.000000,100.000000,,,,,,,,,,,,,,,,,,,,,,,,,,,,
1703495655.205258,1703495655.205538,75.000000,0.000000,4200.384766,4183.717773,4272.436035,4261.282227,4174.358887,4165.769043,4191.282227,4187.563965,4198.333496,4137.948730,4510.000000,4430.384766,4364.358887,4440.512695,6356.000000,4.000000,76.000000,,,,0.000000,4.000000,4.000000,4.000000,4.000000,4.000000,4.000000,4.000000,4.000000,4.000000,4.000000,4.000000,4.000000,4.000000,4.000000,100.000000,,,,,,,,,,,,,,,,,,,,,,,,,,,,
1703495655.213066,1703495655.213445,76.000000,0.000000,4202.436035,4186.410156,4276.282227,4266.922852,4197.179688,4173.589844,4199.871582,4187.820313,4200.256348,4134.358887,4496.922852,4436.282227,4355.256348,4457.307617,6780.000000,4.000000,76.000000,,,,0.000000,4.000000,4.000000,4.000000,4.000000,4.000000,4.000000,4.000000,4.000000,4.000000,4.000000,4.000000,4.000000,4.000000,4.000000,100.000000,,,,,,,,,,,,,,,,,19.000000,0.000000,0.645040,0.287964,-0.678406,0.201904,0.996215,0.095226,-0.018069,-17.555241,-37.975636,64.059486
1703495655.220874,1703495655.221253,77.000000,0.000000,4193.846191,4185.897461,4273.717773,4260.384766,4178.717773,4170.512695,4192.820313,4186.666504,4193.461426,4137.692383,4480.000000,4424.230957,4345.384766,4412.948730,5850.000000,4.000000,76.000000,,,,0.000000,4.000000,4.000000,4.000000,4.000000,4.000000,4.000000,4.000000,4.000000,4.000000,4.000000,4.000000,4.000000,4.000000,4.000000,100.000000,,,,,,,,,,,,,,,,,,,,,,,,,,,,
1703495655.228682,1703495655.229161,78.000000,0.000000,4178.461426,4180.769043,4264.871582,4250.128418,4169.102539,4167.820313,4191.922852,4191.666504,4190.897461,4140.256348,4470.256348,4412.051270,4343.461426,4373.974121,6078.000000,4.000000,76.000000,,,,0.000000,4.000000,4.000000,4.000000,4.000000,4.000000,4.000000,4.000000,4.000000,4.000000,4.000000,4.000000,4.000000,4.000000,4.000000,100.000000,,,,,,,,,,,,,,,,,,,,,,,,,,,,
1703495655.236490,1703495655.236969,79.000000,0.000000,4178.205078,4174.871582,4262.051270,4251.794922,4179.871582,4170.897461,4195.512695,4202.563965,4201.282227,4131.153809,4463.846191,4419.358887,4341.025879,4398.461426,6356.000000,4.000000,76.000000,,,,0.000000,4.000000,4.000000,4.000000,4.000000,4.000000,4.000000,4.000000,4.000000,4.000000,4.000000,4.000000,4.000000,4.000000,4.000000,100.000000,,,,,,,,,,,,,,,,,,,,,,,,,,,,
1703495655.244299,1703495655.244877,80.000000,0.000000,4186.410156,4172.179688,4266.153809,4242.436035,4169.487305,4170.641113,4192.692383,4205.384766,4208.077148,4124.615234,4473.846191,4418.461426,4342.179688,4420.256348,6780.000000,4.000000,76.000000,,,,0.000000,4.000000,4.000000,4.000000,4.000000,4.000000,4.000000,4.000000,4.000000,4.000000,4.000000,4.000000,4.000000,4.000000,4.000000,100.000000,,,,,,,,,,,,,,,,,20.000000,0.000000,0.645161,0.288025,-0.678284,0.201843,0.973263,0.074228,-0.013674,-17.699717,-38.011406,64.170204
1703495655.252107,1703495655.252685,81.000000,0.000000,4187.948730,4177.563965,4272.820313,4232.563965,4169.615234,4169.102539,4193.077148,4198.717773,4204.615234,4130.000000,4496.538574,4416.922852,4347.692383,4413.846191,5850.000000,4.000000,76.000000,,,,0.000000,4.000000,4.000000,4.000000,4.000000,4.000000,4.000000,4.000000,4.000000,4.000000,4.000000,4.000000,4.000000,4.000000,4.000000,100.000000,,,,,,,,,,,,,,,,,,,,,,,,,,,,
1703495655.259915,1703495655.260593,82.000000,0.000000,4185.384766,4179.358887,4270.897461,4241.025879,4187.948730,4169.358887,4195.897461,4195.512695,4201.794922,4145.641113,4500.384766,4425.128418,4352.307617,4413.205078,6078.000000,4.000000,76.000000,,,,0.000000,4.000000,4.000000,4.000000,4.000000,4.000000,4.000000,4.000000,4.000000,4.000000,4.000000,4.000000,4.000000,4.000000,4.000000,100.000000,,,,,,,,,,,,,,,,,,,,,,,,,,,,
1703495655.267722,1703495655.268401,83.000000,0.000000,4185.769043,4174.487305,4265.897461,4250.897461,4184.487305,4168.974121,4195.641113,4197.307617,4204.102539,4151.794922,4488.333496,4429.871582,4359.230957,4417.563965,6356.000000,4.000000,76.000000,,,,0.000000,4.000000,4.000000,4.000000,4.000000,4.000000,4.000000,4.000000,4.000000,4.000000,4.000000,4.000000,4.000000,4.000000,4.000000,100.000000,,,,,,,,,,,,,,,,,,,,,,,,,,,,
1703495655.275531,1703495655.276309,84.000000,0.000000,4194.358887,4182.436035,4267.692383,4254.487305,4175.769043,4169.743652,4196.922852,4197.692383,4208.461426,4149.615234,4498.589844,4433.717773,4373.205078,4422.051270,6780.000000,4.000000,76.000000,,,,0.000000,4.000000,4.000000,4.000000,4.000000,4.000000,4.000000,4.000000,4.000000,4.000000,4.000000,4.000000,4.000000,4.000000,4.000000,100.000000,,,,,,,,,,,,,,,,,21.000000,0.000000,0.645363,0.288147,-0.678040,0.201843,0.981565,0.079111,-0.026370,-17.563078,-38.043598,64.186516
1703495655.283339,1703495655.284117,85.000000,0.000000,4212.179688,4195.000000,4273.717773,4256.666504,4181.538574,4169.743652,4196.025879,4194.743652,4210.897461,4159.871582,4522.563965,4438.974121,4387.307617,4435.897461,5850.000000,4.000000,76.000000,,,,0.000000,4.000000,4.000000,4.000000,4.000000,4.000000,4.000000,4.000000,4.000000,4.000000,4.000000,4.000000,4.000000,4.000000,4.000000,100.000000,,,,,,,,,,,,,,,,,,,,,,,,,,,,
1703495655.291147,1703495655.291825,86.000000,0.000000,4230.641113,4201.282227,4288.717773,4263.077148,4187.563965,4168.333496,4197.692383,4196.282227,4206.666504,4171.282227,4539.487305,4451.794922,4403.589844,4465.000000,6078.000000,4.000000,76.000000,,,,0.000000,4.000000,4.000000,4.000000,4.000000,4.000000,4.000000,4.000000,4.000000,4.000000,4.000000,4.000000,4.000000,4.000000,4.000000,100.000000,,,,,,,,,,,,,,,,,,,,,,,,,,,,
1703495655.298955,1703495655.299632,87.000000,0.000000,4239.358887,4212.051270,4295.256348,4280.641113,4184.871582,4169.358887,4202.051270,4203.205078,4199.743652,4168.974121,4545.641113,4461.538574,4415.641113,4483.461426,6356.000000,4.000000,76.000000,,,,0.000000,4.000000,4.000000,4.000000,4.000000,4.000000,4.000000,4.000000,4.000000,4.000000,4.000000,4.000000,4.000000,4.000000,4.000000,100.000000,,,,,,,,,,,,,,,,,,,,,,,,,,,,
1703495655.306763,1703495655.307340,88.000000,0.000000,4234.871582,4217.436035,4287.948730,4291.538574,4186.666504,4171.025879,4201.794922,4211.666504,4202.820313,4176.538574,4545.769043,4460.512695,4411.410156,4469.615234,6780.000000,4.000000,76.000000,,,,0.000000,4.000000,4.000000,4.000000,4.000000,4.000000,4.000000,4.000000,4.000000,4.000000,4.000000,4.000000,4.000000,4.000000,4.000000,100.000000,,,,,,,,,,,,,,,,,22.000000,0.000000,0.645629,0.288269,-0.677734,0.201843,0.997680,0.075204,-0.012697,-17.573437,-37.989239,64.367867
1703495655.314571,1703495655.315148,89.000000,0.000000,4228.846191,4206.410156,4286.666504,4270.897461,4196.025879,4170.000000,4199.871582,4219.615234,4211.410156,4184.230957,4550.256348,4453.846191,4403.846191,4448.717773,5850.000000,4.000000,76.000000,,,,0.000000,4.000000,4.000000,4.000000,4.000000,4.000000,4.000000,4.000000,4.000000,4.000000,4.000000,4.000000,4.000000,4.000000,4.000000,100.000000,,,,,,,,,,,,,,,,,,,,,,,,,,,,
1703495655.322379,1703495655.322856,90.000000,0.000000,4224.871582,4196.153809,4281.410156,4256.410156,4188.589844,4168.205078,4195.256348,4218.589844,4211.794922,4158.205078,4537.307617,4439.615234,4397.948730,4455.128418,6078.000000,4.000000,76.000000,,,,0.000000,4.000000,4.000000,4.000000,4.000000,4.000000,4.000000,4.000000,4.000000,4.000000,4.000000,4.000000,4.000000,4.000000,4.000000,100.000000,,,,,,,,,,,,,,,,,,,,,,,,,,,,
1703495655.330187,1703495655.330663,91.000000,0.000000,4212.948730,4191.025879,4266.153809,4269.358887,4172.436035,4165.000000,4190.641113,4212.563965,4206.410156,4137.179688,4510.641113,4428.077148,4385.256348,4462.563965,6356.000000,4.000000,76.000000,,,,0.000000,4.000000,4.000000,4.000000,4.000000,4.000000,4.000000,4.000000,4.000000,4.000000,4.000000,4.000000,4.000000,4.000000,4.000000,100.000000,,,,,,,,,,,,,,,,,,,,,,,,,,,,
1703495655.337995,1703495655.338371,92.000000,0.000000,4201.538574,4185.512695,4259.230957,4273.333496,4182.692383,4166.794922,4195.128418,4215.512695,4210.897461,4151.282227,4507.179688,4427.307617,4377.948730,4448.974121,6780.000000,4.000000,76.000000,,,,0.000000,4.000000,4.000000,4.000000,4.000000,4.000000,4.000000,4.000000,4.000000,4.000000,4.000000,4.000000,4.000000,4.000000,4.000000,100.000000,,,,,,,,,,,,,,,,,23.000000,0.000000,0.645765,0.288208,-0.677612,0.201904,0.994262,0.084483,-0.010743,-17.516092,-37.873650,64.431076
1703495655.345803,1703495655.346279,93.000000,0.000000,4199.230957,4184.230957,4260.384766,4256.282227,4192.436035,4169.358887,4196.410156,4218.333496,4217.051270,4164.230957,4517.307617,4425.769043,4381.538574,4439.487305,5850.000000,4.000000,76.000000,,,,0.000000,4.000000,4.000000,4.000000,4.000000,4.000000,4.000000,4.000000,4.000000,4.000000,4.000000,4.000000,4.000000,4.000000,4.000000,100.000000,,,,,,,,,,,,,,,,,,,,,,,,,,,,
1703495655.353611,1703495655.354088,94.000000,0.000000,4195.769043,4178.461426,4260.641113,4244.743652,4169.743652,4161.794922,4185.512695,4205.641113,4208.974121,4153.461426,4505.000000,4417.692383,4377.820313,4422.436035,6078.000000,4.000000,76.000000,,,,0.000000,4.000000,4.000000,4.000000,4.000000,4.000000,4.000000,4.000000,4.000000,4.000000,4.000000,4.000000,4.000000,4.000000,4.000000,100.000000,,,,,,,,,,,,,,,,,,,,,,,,,,,,
1703495655.361419,1703495655.361896,95.000000,0.000000,4196.153809,4174.871582,4266.666504,4254.358887,4172.307617,4160.641113,4187.692383,4197.563965,4206.538574,4146.282227,4503.846191,4423.461426,4374.743652,4419.102539,6356.000000,4.000000,76.000000,,,,0.000000,4.000000,4.000000,4.000000,4.000000,4.000000,4.000000,4.000000,4.000000,4.000000,4.000000,4.000000,4.000000,4.000000,4.000000,100.000000,,,,,,,,,,,,,,,,,,,,,,,,,,,,
1703495655.369227,1703495655.369604,96.000000,0.000000,4208.974121,4183.333496,4278.846191,4266.282227,4198.589844,4170.384766,4200.000000,4209.358887,4213.974121,4161.794922,4533.333496,4446.410156,4386.794922,4442.436035,6780.000000,4.000000,76.000000,,,,0.000000,4.000000,4.000000,4.000000,4.000000,4.000000,4.000000,4.000000,4.000000,4.000000,4.000000,4.000000,4.000000,4.000000,4.000000,100.000000,,,,,,,,,,,,,,,,,24.000000,0.000000,0.645817,0.287964,-0.677612,0.202087,0.999634,0.078135,-0.022952,-17.547817,-37.852951,64.404633
1703495655.377035,1703495655.377512,97.000000,0.000000,4215.769043,4186.282227,4278.974121,4263.333496,4186.538574,4168.974121,4193.974121,4212.179688,4214.743652,4175.128418,4541.794922,4450.384766,4394.871582,4446.153809,5850.000000,4.000000,76.000000,,,,0.000000,4.000000,4.000000,4.000000,4.000000,4.000000,4.000000,4.000000,4.000000,4.000000,4.000000,4.000000,4.000000,4.000000,4.000000,100.000000,,,,,,,,,,,,,,,,,,,,,,,,,,,,
1703495655.384843,1703495655.385320,98.000000,0.000000,4210.897461,4182.051270,4274.102539,4258.846191,4172.436035,4162.563965,4186.538574,4200.897461,4209.615234,4166.282227,4526.025879,4439.615234,4392.307617,4443.205078,6078.000000,4.000000,76.000000,,,,0.000000,4.000000,4.000000,4.000000,4.000000,4.000000,4.000000,4.000000,4.000000,4.000000,4.000000,4.000000,4.000000,4.000000,4.000000,100.000000,,,,,,,,,,,,,,,,,,,,,,,,,,,,
1703495655.392651,1703495655.393227,99.000000,0.000000,4216.410156,4185.769043,4282.051270,4268.717773,4188.589844,4168.077148,4197.179688,4202.948730,4204.615234,4165.897461,4534.615234,4448.333496,4394.743652,4472.948730,6356.000000,4.000000,76.000000,,,,0.000000,4.000000,4.000000,4.000000,4.000000,4.000000,4.000000,4.000000,4.000000,4.000000,4.000000,4.000000,4.000000,4.000000,4.000000,100.000000,,,,,,,,,,,,,,,,,,,,,,,,,,,,
1703495655.400459,1703495655.401035,100.000000,0.000000,4229.615234,4192.820313,4290.512695,4280.897461,4189.230957,4166.282227,4201.025879,4207.051270,4199.102539,4175.641113,4558.974121,4457.820313,4400.128418,4483.589844,6780.000000,4.000000,76.000000,,,,0.000000,4.000000,4.000000,4.000000,4.000000,4.000000,4.000000,4.000000,4.000000,4.000000,4.000000,4.000000,4.000000,4.000000,4.000000,100.000000,,,,,,,,,,,,,,,,,25.000000,0.000000,0.645831,0.287903,-0.677551,0.202332,0.991332,0.077646,-0.015627,-17.426369,-37.817654,64.347504
1703495655.408267,1703495655.408943,101.000000,0.000000,4236.666504,4198.333496,4292.179688,4282.563965,4177.948730,4155.256348,4193.717773,4202.563965,4197.948730,4163.846191,4557.051270,4452.563965,4397.179688,4458.461426,5850.000000,4.000000,76.000000,,,,0.000000,4.000000,4.000000,4.000000,4.000000,4.000000,4.000000,4.000000,4.000000,4.000000,4.000000,4.000000,4.000000,4.000000,4.000000,100.000000,,,,,,,,,,,,,,,,,,,,,,,,,,,,
1703495655.416075,1703495655.416751,102.000000,0.000000,4237.948730,4199.487305,4292.436035,4283.461426,4195.769043,4158.974121,4198.589844,4206.922852,4208.333496,4164.487305,4540.256348,4452.051270,4399.230957,4473.846191,6078.000000,4.000000,76.000000,,,,0.000000,4.000000,4.000000,4.000000,4.000000,4.000000,4.000000,4.000000,4.000000,4.000000,4.000000,4.000000,4.000000,4.000000,4.000000,100.000000,,,,,,,,,,,,,,,,,,,,,,,,,,,,
1703495655.423883,1703495655.424659,103.000000,0.000000,4227.820313,4188.205078,4287.563965,4279.743652,4203.333496,4166.922852,4202.051270,4217.692383,4215.641113,4185.128418,4541.282227,4453.077148,4398.077148,4498.333496,6356.000000,4.000000,76.000000,,,,0.000000,4.000000,4.000000,4.000000,4.000000,4.000000,4.000000,4.000000,4.000000,4.000000,4.000000,4.000000,4.000000,4.000000,4.000000,100.000000,,,,,,,,,,,,,,,,,,,,,,,,,,,,
1703495655.431691,1703495655.432467,104.000000,0.000000,4214.743652,4180.641113,4283.205078,4271.025879,4183.077148,4168.846191,4198.589844,4214.615234,4214.615234,4177.692383,4539.487305,4447.563965,4379.743652,4465.897461,6780.000000,4.000000,76.000000,,,,0.000000,4.000000,4.000000,4.000000,4.000000,4.000000,4.000000,4.000000,4.000000,4.000000,4.000000,4.000000,4.000000,4.000000,4.000000,100.000000,,,,,,,,,,,,,,,,,26.000000,0.000000,0.645903,0.287842,-0.677490,0.202393,0.991820,0.078623,-0.017580,-17.583733,-37.869225,64.179420
1703495655.439499,1703495655.440375,105.000000,0.000000,4213.589844,4181.794922,4280.000000,4262.948730,4180.256348,4171.282227,4198.333496,4206.922852,4214.615234,4162.948730,4526.153809,4439.743652,4373.589844,4439.743652,5850.000000,4.000000,76.000000,,,,0.000000,4.000000,4.000000,4.000000,4.000000,4.000000,4.000000,4.000000,4.000000,4.000000,4.000000,4.000000,4.000000,4.000000,4.000000,100.000000,,,,,,,,,,,,,,,,,,,,,,,,,,,,
1703495655.447307,1703495655.448183,106.000000,0.000000,4215.128418,4173.974121,4276.794922,4259.230957,4183.333496,4173.589844,4197.563965,4210.384766,4216.666504,4171.410156,4520.384766,4435.000000,4382.179688,4448.205078,6078.000000,4.000000,76.000000,,,,0.000000,4.000000,4.000000,4.000000,4.000000,4.000000,4.000000,4.000000,4.000000,4.000000,4.000000,4.000000,4.000000,4.000000,4.000000,100.000000,1.000000,91.666664,4.000000,4.000000,4.000000,4.000000,4.000000,4.000000,4.000000,4.000000,4.000000,4.000000,4.000000,4.000000,4.000000,3.000000,,,,,,,,,,,,
1703495655.455115,1703495655.455891,107.000000,0.000000,4210.256348,4173.717773,4274.871582,4266.410156,4180.897461,4176.153809,4199.230957,4210.897461,4212.563965,4174.615234,4521.794922,4436.922852,4375.384766,4438.077148,6356.000000,4.000000,76.000000,,,,0.000000,4.000000,4.000000,4.000000,4.000000,4.000000,4.000000,4.000000,4.000000,4.000000,4.000000,4.000000,4.000000,4.000000,4.000000,100.000000,,,,,,,,,,,,,,,,,,,,,,,,,,,,
1703495655.462923,1703495655.463699,108.000000,0.000000,4213.461426,4192.948730,4275.512695,4277.307617,4192.563965,4182.307617,4202.563965,4201.538574,4204.358887,4162.692383,4526.282227,4443.205078,4367.692383,4433.333496,6780.000000,4.000000,76.000000,,,,0.000000,4.000000,4.000000,4.000000,4.000000,4.000000,4.000000,4.000000,4.000000,4.000000,4.000000,4.000000,4.000000,4.000000,4.000000,100.000000,,,,,,,,,,,,,,,,,27.000000,0.000000,0.646027,0.287781,-0.677307,0.202698,0.984495,0.081553,-0.015627,-17.508692,-37.782299,64.111481
1703495655.470731,1703495655.471407,109.000000,0.000000,4230.769043,4201.538574,4288.077148,4282.692383,4205.000000,4186.666504,4203.461426,4203.974121,4202.179688,4163.461426,4534.871582,4450.769043,4380.000000,4468.077148,5850.000000,4.000000,76.000000,,,,0.000000,4.000000,4.000000,4.000000,4.000000,4.000000,4.000000,4.000000,4.000000,4.000000,4.000000,4.000000,4.000000,4.000000,4.000000,100.000000,,,,,,,,,,,,,,,,,,,,,,,,,,,,
1703495655.478539,1703495655.479214,110.000000,0.000000,4237.692383,4197.692383,4297.051270,4288.717773,4202.179688,4182.692383,4205.128418,4216.538574,4200.512695,4170.641113,4544.487305,4451.282227,4389.230957,4491.922852,6078.000000,4.000000,76.000000,,,,0.000000,4.000000,4.000000,4.000000,4.000000,4.000000,4.000000,4.000000,4.000000,4.000000,4.000000,4.000000,4.000000,4.000000,4.000000,100.000000,,,,,,,,,,,,,,,,,,,,,,,,,,,,
1703495655.486347,1703495655.486922,111.000000,0.000000,4229.230957,4202.692383,4294.102539,4296.153809,4201.410156,4176.025879,4206.794922,4215.897461,4198.077148,4162.051270,4554.615234,4455.256348,4384.358887,4483.205078,6356.000000,4.000000,76.000000,,,,0.000000,4.000000,4.000000,4.000000,4.000000,4.000000,4.000000,4.000000,4.000000,4.000000,4.000000,4.000000,4.000000,4.000000,4.000000,100.000000,,,,,,,,,,,,,,,,,,,,,,,,,,,,
1703495655.494155,1703495655.494730,112.000000,0.000000,4234.102539,4206.153809,4300.769043,4297.948730,4205.128418,4171.794922,4204.743652,4209.743652,4197.563965,4157.563965,4558.846191,4468.333496,4387.051270,4485.512695,6780.000000,4.000000,76.000000,,,,0.000000,4.000000,4.000000,4.000000,4.000000,4.000000,4.000000,4.000000,4.000000,4.000000,4.000000,4.000000,4.000000,4.000000,4.000000,100.000000,,,,,,,,,,,,,,,,,28.000000,0.000000,0.646245,0.287537,-0.677185,0.202759,0.991820,0.081553,-0.015627,-17.407824,-37.804070,64.033669
1703495655.501964,1703495655.502438,113.000000,0.000000,4251.282227,4201.153809,4307.051270,4293.846191,4195.512695,4169.615234,4201.153809,4213.846191,4199.615234,4168.974121,4552.051270,4468.974121,4397.563965,4500.641113,5850.000000,4.000000,76.000000,,,,0.000000,4.000000,4.000000,4.000000,4.000000,4.000000,4.000000,4.000000,4.000000,4.000000,4.000000,4.000000,4.000000,4.000000,4.000000,100.000000,,,,,,,,,,,,,,,,,,,,,,,,,,,,
1703495655.509771,1703495655.510346,114.000000,0.000000,4257.051270,4202.692383,4305.512695,4290.384766,4186.282227,4168.205078,4198.974121,4216.666504,4200.256348,4174.743652,4552.179688,4466.410156,4398.717773,4483.717773,6078.000000,4.000000,76.000000,,,,0.000000,4.000000,4.000000,4.000000,4.000000,4.000000,4.000000,4.000000,4.000000,4.000000,4.000000,4.000000,4.000000,4.000000,4.000000,100.000000,,,,,,,,,,,,,,,,,,,,,,,,,,,,
1703495655.517579,1703495655.518154,115.000000,0.000000,4251.282227,4205.769043,4303.846191,4293.717773,4201.153809,4175.512695,4203.077148,4217.179688,4201.282227,4177.307617,4570.128418,4470.769043,4390.897461,4471.025879,6356.000000,4.000000,76.000000,,,,0.000000,4.000000,4.000000,4.000000,4.000000,4.000000,4.000000,4.000000,4.000000,4.000000,4.000000,4.000000,4.000000,4.000000,4.000000,100.000000,,,,,,,,,,,,,,,,,,,,,,,,,,,,
1703495655.525387,1703495655.526062,116.000000,0.000000,4235.897461,4191.794922,4290.641113,4291.025879,4205.641113,4182.179688,4203.717773,4224.743652,4208.974121,4185.000000,4572.179688,4460.256348,4381.922852,4487.820313,6780.000000,4.000000,76.000000,,,,0.000000,4.000000,4.000000,4.000000,4.000000,4.000000,4.000000,4.000000,4.000000,4.000000,4.000000,4.000000,4.000000,4.000000,4.000000,100.000000,,,,,,,,,,,,,,,,,29.000000,0.000000,0.646492,0.287354,-0.677063,0.202637,0.988890,0.083018,-0.008790,-17.433706,-37.856998,63.930298
1703495655.533196,1703495655.533871,117.000000,0.000000,4209.871582,4172.820313,4273.974121,4267.692383,4169.358887,4172.820313,4189.487305,4227.948730,4217.692383,4181.153809,4551.025879,4443.974121,4364.615234,4475.256348,5850.000000,4.000000,76.000000,,,,0.000000,4.000000,4.000000,4.000000,4.000000,4.000000,4.000000,4.000000,4.000000,4.000000,4.000000,4.000000,4.000000,4.000000,4.000000,100.000000,,,,,,,,,,,,,,,,,,,,,,,,,,,,
1703495655.541004,1703495655.541779,118.000000,0.000000,4196.282227,4166.538574,4269.230957,4254.102539,4156.922852,4169.871582,4185.000000,4220.000000,4214.871582,4163.333496,4531.153809,4435.512695,4342.563965,4441.922852,6078.000000,4.000000,76.000000,,,,0.000000,4.000000,4.000000,4.000000,4.000000,4.000000,4.000000,4.000000,4.000000,4.000000,4.000000,4.000000,4.000000,4.000000,4.000000,100.000000,,,,,,,,,,,,,,,,,,,,,,,,,,,,
1703495655.548812,1703495655.549587,119.000000,0.000000,4198.333496,4172.692383,4273.846191,4262.307617,4196.025879,4182.307617,4200.897461,4213.333496,4205.769043,4151.922852,4517.948730,4429.487305,4327.948730,4426.410156,6356.000000,4.000000,76.000000,,,,0.000000,4.000000,4.000000,4.000000,4.000000,4.000000,4.000000,4.000000,4.000000,4.000000,4.000000,4.000000,4.000000,4.000000,4.000000,100.000000,,,,,,,,,,,,,,,,,,,,,,,,,,,,
1703495655.556620,1703495655.557395,120.000000,0.000000,4198.717773,4178.077148,4281.538574,4261.538574,4207.692383,4185.384766,4204.358887,4207.563965,4203.077148,4153.974121,4512.436035,4430.384766,4320.128418,4415.897461,6780.000000,4.000000,76.000000,,,,0.000000,4.000000,4.000000,4.000000,4.000000,4.000000,4.000000,4.000000,4.000000,4.000000,4.000000,4.000000,4.000000,4.000000,4.000000,100.000000,,,,,,,,,,,,,,,,,30.000000,0.000000,0.646674,0.287231,-0.676941,0.202637,0.985472,0.086436,-0.017092,-17.490337,-38.021297,63.803936
1703495655.564428,1703495655.565103,121.000000,0.000000,4207.179688,4182.820313,4287.307617,4265.641113,4184.615234,4180.000000,4195.384766,4202.692383,4204.615234,4161.153809,4516.410156,4441.282227,4328.077148,4429.102539,5850.000000,4.000000,76.000000,,,,0.000000,4.000000,4.000000,4.000000,4.000000,4.000000,4.000000,4.000000,4.000000,4.000000,4.000000,4.000000,4.000000,4.000000,4.000000,100.000000,,,,,,,,,,,,,,,,,,,,,,,,,,,,
1703495655.572236,1703495655.572910,122.000000,0.000000,4224.487305,4194.230957,4294.358887,4289.102539,4181.025879,4182.563965,4199.230957,4204.871582,4202.820313,4160.384766,4524.358887,4456.410156,4344.487305,4472.051270,6078.000000,4.000000,76.000000,,,,0.000000,4.000000,4.000000,4.000000,4.000000,4.000000,4.000000,4.000000,4.000000,4.000000,4.000000,4.000000,4.000000,4.000000,4.000000,100.000000,,,,,,,,,,,,,,,,,,,,,,,,,,,,
1703495655.580044,1703495655.580618,123.000000,0.000000,4236.538574,4202.051270,4302.948730,4295.641113,4192.051270,4185.897461,4203.974121,4207.948730,4200.256348,4159.230957,4539.358887,4465.641113,4351.666504,4484.487305,6356.000000,4.000000,76.000000,,,,0.000000,4.000000,4.000000,4.000000,4.000000,4.000000,4.000000,4.000000,4.000000,4.000000,4.000000,4.000000,4.000000,4.000000,4.000000,100.000000,,,,,,,,,,,,,,,,,,,,,,,,,,,,
1703495655.587852,1703495655.588526,124.000000,0.000000,4243.974121,4203.717773,4309.871582,4288.205078,4197.307617,4186.025879,4201.282227,4210.769043,4201.538574,4177.820313,4565.512695,4470.256348,4361.153809,4464.871582,6780.000000,4.000000,76.000000,,,,0.000000,4.000000,4.000000,4.000000,4.000000,4.000000,4.000000,4.000000,4.000000,4.000000,4.000000,4.000000,4.000000,4.000000,4.000000,100.000000,,,,,,,,,,,,,,,,,31.000000,0.000000,0.646826,0.287048,-0.676819,0.202820,0.971310,0.078623,-0.008790,-17.391302,-37.935833,63.923542
1703495655.595660,1703495655.596334,125.000000,0.000000,4253.589844,4211.794922,4312.820313,4293.846191,4202.563965,4187.307617,4203.461426,4217.563965,4202.051270,4192.563965,4584.487305,4477.179688,4380.384766,4473.717773,5850.000000,4.000000,76.000000,,,,0.000000,4.000000,4.000000,4.000000,4.000000,4.000000,4.000000,4.000000,4.000000,4.000000,4.000000,4.000000,4.000000,4.000000,4.000000,100.000000,,,,,,,,,,,,,,,,,,,,,,,,,,,,
1703495655.603468,1703495655.604241,126.000000,0.000000,4258.974121,4219.743652,4308.205078,4298.333496,4195.384766,4185.641113,4202.563965,4219.230957,4201.153809,4185.000000,4578.205078,4477.820313,4387.563965,4500.641113,6078.000000,4.000000,76.000000,,,,0.000000,4.000000,4.000000,4.000000,4.000000,4.000000,4.000000,4.000000,4.000000,4.000000,4.000000,4.000000,4.000000,4.000000,4.000000,100.000000,,,,,,,,,,,,,,,,,,,,,,,,,,,,
1703495655.611276,1703495655.612049,127.000000,0.000000,4257.307617,4210.769043,4307.051270,4294.487305,4184.358887,4181.794922,4198.717773,4215.769043,4207.692383,4179.230957,4565.256348,4476.282227,4380.641113,4497.051270,76.000000,4.000000,76.000000,,,,0.000000,4.000000,4.000000,4.000000,4.000000,4.000000,4.000000,4.000000,4.000000,4.000000,4.000000,4.000000,4.000000,4.000000,4.000000,100.000000,,,,,,,,,,,,,,,,,,,,,,,,,,,,
1703495655.619084,1703495655.619957,0.000000,0.000000,4251.794922,4200.769043,4309.487305,4291.922852,4185.384766,4184.358887,4200.769043,4218.974121,4216.538574,4188.077148,4573.333496,4475.769043,4380.512695,4477.820313,4357.000000,4.000000,76.000000,,,,0.000000,4.000000,4.000000,4.000000,4.000000,4.000000,4.000000,4.000000,4.000000,4.000000,4.000000,4.000000,4.000000,4.000000,4.000000,100.000000,,,,,,,,,,,,,,,,,0.000000,0.000000,0.646915,0.287048,-0.676697,0.202942,0.990355,0.086925,-0.017092,-17.352173,-38.025585,63.947853
1703495655.626892,1703495655.627765,1.000000,0.000000,4236.666504,4198.589844,4302.051270,4282.436035,4187.307617,4189.871582,4203.589844,4228.205078,4216.538574,4191.538574,4582.563965,4466.153809,4380.000000,4476.538574,5783.000000,4.000000,76.000000,,,,0.000000,4.000000,4.000000,4.000000,4.000000,4.000000,4.000000,4.000000,4.000000,4.000000,4.000000,4.000000,4.000000,4.000000,4.000000,100.000000,,,,,,,,,,,,,,,,,,,,,,,,,,,,
1703495655.634700,1703495655.635673,2.000000,0.000000,4220.000000,4188.974121,4292.563965,4273.077148,4197.307617,4192.563965,4203.717773,4231.794922,4213.205078,4188.205078,4565.641113,4456.666504,4371.538574,4476.538574,5631.000000,4.000000,76.000000,,,,0.000000,4.000000,4.000000,4.000000,4.000000,4.000000,4.000000,4.000000,4.000000,4.000000,4.000000,4.000000,4.000000,4.000000,4.000000,100.000000,,,,,,,,,,,,,,,,,,,,,,,,,,,,
1703495655.642508,1703495655.643581,3.000000,0.000000,4216.794922,4181.025879,4287.051270,4272.692383,4201.282227,4190.641113,4204.615234,4225.000000,4216.922852,4186.410156,4550.384766,4449.871582,4361.410156,4461.153809,5589.000000,4.000000,76.000000,,,,0.000000,4.000000,4.000000,4.000000,4.000000,4.000000,4.000000,4.000000,4.000000,4.000000,4.000000,4.000000,4.000000,4.000000,4.000000,100.000000,,,,,,,,,,,,,,,,,,,,,,,,,,,,
1703495655.650316,1703495655.651390,4.000000,0.000000,4217.948730,4180.769043,4287.563965,4268.589844,4188.589844,4190.256348,4203.461426,4220.000000,4216.794922,4182.307617,4551.153809,4447.692383,4356.666504,4456.025879,5449.000000,4.000000,76.000000,,,,0.000000,4.000000,4.000000,4.000000,4.000000,4.000000,4.000000,4.000000,4.000000,4.000000,4.000000,4.000000,4.000000,4.000000,4.000000,100.000000,,,,,,,,,,,,,,,,,1.000000,0.000000,0.647006,0.286987,-0.676636,0.202942,0.986449,0.065438,-0.009767,-17.300289,-38.089691,63.936401
1703495655.658124,1703495655.659298,5.000000,0.000000,4214.615234,4183.846191,4295.641113,4268.461426,4188.717773,4194.102539,4201.794922,4220.641113,4208.461426,4179.487305,4549.102539,4451.025879,4358.717773,4453.846191,4422.000000,4.000000,76.000000,,,,0.000000,4.000000,4.000000,4.000000,4.000000,4.000000,4.000000,4.000000,4.000000,4.000000,4.000000,4.000000,4.000000,4.000000,4.000000,100.000000,,,,,,,,,,,,,,,,,,,,,,,,,,,,
1703495655.665932,1703495655.667107,6.000000,0.000000,4219.871582,4192.563965,4300.256348,4275.512695,4199.615234,4193.077148,4207.563965,4216.410156,4201.025879,4173.205078,4549.358887,4448.717773,4360.897461,4436.666504,3588.000000,4.000000,76.000000,,,,0.000000,4.000000,4.000000,4.000000,4.000000,4.000000,4.000000,4.000000,4.000000,4.000000,4.000000,4.000000,4.000000,4.000000,4.000000,100.000000,,,,,,,,,,,,,,,,,,,,,,,,,,,,
1703495655.673740,1703495655.674915,7.000000,0.000000,4235.128418,4200.641113,4300.769043,4280.384766,4198.205078,4191.538574,4210.897461,4212.563965,4203.077148,4163.717773,4548.974121,4452.948730,4359.230957,4449.487305,3495.000000,4.000000,76.000000,,,,0.000000,4.000000,4.000000,4.000000,4.000000,4.000000,4.000000,4.000000,4.000000,4.000000,4.000000,4.000000,4.000000,4.000000,4.000000,100.000000,,,,,,,,,,,,,,,,,,,,,,,,,,,,
1703495655.681548,1703495655.682623,8.000000,0.000000,4234.615234,4199.102539,4304.230957,4282.948730,4192.948730,4192.051270,4205.512695,4210.128418,4207.948730,4158.333496,4546.922852,4461.410156,4355.384766,4477.948730,2191.000000,4.000000,76.000000,,,,0.000000,4.000000,4.000000,4.000000,4.000000,4.000000,4.000000,4.000000,4.000000,4.000000,4.000000,4.000000,4.000000,4.000000,4.000000,100.000000,,,,,,,,,,,,,,,,,2.000000,0.000000,0.647279,0.286804,-0.676453,0.202942,0.994262,0.092785,-0.016115,-17.270260,-37.997391,63.709427
1703495655.689356,1703495655.690431,9.000000,0.000000,4229.615234,4198.077148,4314.230957,4283.846191,4188.589844,4191.538574,4205.256348,4206.282227,4203.846191,4153.717773,4549.487305,4463.333496,4355.128418,4472.563965,5938.000000,4.000000,76.000000,,,,0.000000,4.000000,4.000000,4.000000,4.000000,4.000000,4.000000,4.000000,4.000000,4.000000,4.000000,4.000000,4.000000,4.000000,4.000000,100.000000,,,,,,,,,,,,,,,,,,,,,,,,,,,,
1703495655.697164,1703495655.698139,10.000000,0.000000,4242.948730,4207.179688,4317.179688,4286.282227,4178.846191,4192.307617,4209.102539,4207.051270,4199.487305,4153.589844,4553.461426,4466.025879,4357.436035,4468.461426,6052.000000,4.000000,76.000000,,,,0.000000,4.000000,4.000000,4.000000,4.000000,4.000000,4.000000,4.000000,4.000000,4.000000,4.000000,4.000000,4.000000,4.000000,4.000000,100.000000,,,,,,,,,,,,,,,,,,,,,,,,,,,,
1703495655.704972,1703495655.705946,11.000000,0.000000,4251.282227,4217.179688,4308.846191,4297.820313,4190.641113,4197.051270,4211.153809,4212.692383,4200.384766,4162.051270,4563.846191,4470.897461,4370.641113,4495.641113,6327.000000,4.000000,76.000000,,,,0.000000,4.000000,4.000000,4.000000,4.000000,4.000000,4.000000,4.000000,4.000000,4.000000,4.000000,4.000000,4.000000,4.000000,4.000000,100.000000,,,,,,,,,,,,,,,,,,,,,,,,,,,,
1703495655.712780,1703495655.713654,12.000000,0.000000,4239.615234,4215.384766,4310.256348,4299.358887,4207.307617,4200.128418,4213.846191,4215.769043,4200.769043,4168.589844,4570.512695,4474.871582,4383.846191,4501.153809,6740.000000,4.000000,76.000000,,,,0.000000,4.000000,4.000000,4.000000,4.000000,4.000000,4.000000,4.000000,4.000000,4.000000,4.000000,4.000000,4.000000,4.000000,4.000000,100.000000,,,,,,,,,,,,,,,,,3.000000,0.000000,0.647385,0.286621,-0.676392,0.203064,0.989867,0.091808,-0.015627,-17.176567,-38.030983,63.805153
1703495655.720588,1703495655.721462,13.000000,0.000000,4232.179688,4206.538574,4314.615234,4280.384766,4200.512695,4199.487305,4215.769043,4220.512695,4208.077148,4178.205078,4565.897461,4474.487305,4384.743652,4472.436035,5856.000000,4.000000,76.000000,,,,0.000000,4.000000,4.000000,4.000000,4.000000,4.000000,4.000000,4.000000,4.000000,4.000000,4.000000,4.000000,4.000000,4.000000,4.000000,100.000000,,,,,,,,,,,,,,,,,,,,,,,,,,,,
1703495655.728396,1703495655.729170,14.000000,0.000000,4229.615234,4198.205078,4301.666504,4275.128418,4195.769043,4203.461426,4215.512695,4225.000000,4216.153809,4186.153809,4565.128418,4465.897461,4379.871582,4452.179688,6052.000000,4.000000,76.000000,,,,0.000000,4.000000,4.000000,4.000000,4.000000,4.000000,4.000000,4.000000,4.000000,4.000000,4.000000,4.000000,4.000000,4.000000,4.000000,100.000000,,,,,,,,,,,,,,,,,,,,,,,,,,,,
1703495655.736204,1703495655.736977,15.000000,0.000000,4211.282227,4187.692383,4288.717773,4275.384766,4199.230957,4203.333496,4210.769043,4220.128418,4212.307617,4168.333496,4558.077148,4451.794922,4365.897461,4446.794922,6327.000000,4.000000,76.000000,,,,0.000000,4.000000,4.000000,4.000000,4.000000,4.000000,4.000000,4.000000,4.000000,4.000000,4.000000,4.000000,4.000000,4.000000,4.000000,100.000000,,,,,,,,,,,,,,,,,,,,,,,,,,,,
1703495655.744012,1703495655.744685,16.000000,0.000000,4192.563965,4184.743652,4291.282227,4260.512695,4203.333496,4201.153809,4210.769043,4215.384766,4206.794922,4160.128418,4542.179688,4443.589844,4354.615234,4459.487305,0.000000,4.000000,76.000000,,,,0.000000,4.000000,4.000000,4.000000,4.000000,4.000000,4.000000,4.000000,4.000000,4.000000,4.000000,4.000000,4.000000,4.000000,4.000000,100.000000,,,,,,,,,,,,,,,,,4.000000,0.000000,0.647556,0.286438,-0.676270,0.203186,0.984007,0.084971,-0.017092,-17.142244,-37.927887,63.724636
