title:شويكي نعم, start timestamp:1703500447.093970, stop timestamp:1703500457.876866, headset type:EPOCX, headset serial:E50206EF, headset firmware:720, channels:67, sampling rate:eeg_128;mot_32, samples:1382      , version:2.2, 
Timestamp,OriginalTimestamp,EEG.Counter,EEG.Interpolated,EEG.AF3,EEG.F7,EEG.F3,EEG.FC5,EEG.T7,EEG.P7,EEG.O1,EEG.O2,EEG.P8,EEG.T8,EEG.FC6,EEG.F4,EEG.F8,EEG.AF4,EEG.RawCq,EEG.Battery,EEG.BatteryPercent,MarkerIndex,MarkerType,MarkerValueInt,EEG.MarkerHardware,CQ.AF3,CQ.F7,CQ.F3,CQ.FC5,CQ.T7,CQ.P7,CQ.O1,CQ.O2,CQ.P8,CQ.T8,CQ.FC6,CQ.F4,CQ.F8,CQ.AF4,CQ.Overall,EQ.SampleRateQuality,EQ.OVERALL,EQ.AF3,EQ.F7,EQ.F3,EQ.FC5,EQ.T7,EQ.P7,EQ.O1,EQ.O2,EQ.P8,EQ.T8,EQ.FC6,EQ.F4,EQ.F8,EQ.AF4,MOT.CounterMems,MOT.InterpolatedMems,MOT.Q0,MOT.Q1,MOT.Q2,MOT.Q3,MOT.AccX,MOT.AccY,MOT.AccZ,MOT.MagX,MOT.MagY,MOT.MagZ
1703500447.093970,1703500447.094849,107.000000,0.000000,4262.820313,4245.512695,4315.000000,4266.282227,4216.666504,4228.974121,4201.666504,4215.897461,4214.230957,4226.666504,4533.461426,4448.589844,4371.666504,4399.102539,6277.000000,3.000000,72.000000,,,,0.000000,4.000000,4.000000,4.000000,4.000000,4.000000,4.000000,4.000000,4.000000,4.000000,4.000000,4.000000,4.000000,4.000000,4.000000,100.000000,,,,,,,,,,,,,,,,,,,,,,,,,,,,
1703500447.101778,1703500447.102557,108.000000,0.000000,4261.025879,4243.974121,4320.897461,4263.333496,4228.333496,4230.769043,4201.922852,4217.692383,4216.666504,4215.897461,4536.666504,4458.846191,4375.897461,4401.666504,6798.000000,3.000000,72.000000,,,,0.000000,4.000000,4.000000,4.000000,4.000000,4.000000,4.000000,4.000000,4.000000,4.000000,4.000000,4.000000,4.000000,4.000000,4.000000,100.000000,,,,,,,,,,,,,,,,,27.000000,0.000000,0.606371,0.301147,-0.648987,0.347046,0.988402,-0.109388,0.041021,-12.215808,-37.423664,62.990894
1703500447.109586,1703500447.110365,109.000000,0.000000,4252.820313,4252.179688,4320.897461,4268.974121,4244.358887,4235.384766,4204.487305,4226.666504,4218.333496,4223.974121,4539.871582,4468.333496,4384.358887,4401.666504,7281.000000,3.000000,72.000000,,,,0.000000,4.000000,4.000000,4.000000,4.000000,4.000000,4.000000,4.000000,4.000000,4.000000,4.000000,4.000000,4.000000,4.000000,4.000000,100.000000,,,,,,,,,,,,,,,,,,,,,,,,,,,,
1703500447.117394,1703500447.118073,110.000000,0.000000,4246.538574,4246.922852,4311.153809,4263.846191,4235.128418,4230.641113,4201.025879,4227.820313,4224.743652,4239.230957,4538.717773,4464.358887,4379.871582,4397.820313,6037.000000,3.000000,72.000000,,,,0.000000,4.000000,4.000000,4.000000,4.000000,4.000000,4.000000,4.000000,4.000000,4.000000,4.000000,4.000000,4.000000,4.000000,4.000000,100.000000,,,,,,,,,,,,,,,,,,,,,,,,,,,,
1703500447.125202,1703500447.125981,111.000000,0.000000,4245.128418,4233.077148,4307.692383,4258.461426,4225.769043,4227.820313,4197.948730,4225.000000,4226.794922,4217.179688,4535.641113,4455.512695,4368.333496,4396.922852,6277.000000,3.000000,72.000000,,,,0.000000,4.000000,4.000000,4.000000,4.000000,4.000000,4.000000,4.000000,4.000000,4.000000,4.000000,4.000000,4.000000,4.000000,4.000000,100.000000,,,,,,,,,,,,,,,,,,,,,,,,,,,,
1703500447.133010,1703500447.133789,112.000000,0.000000,4245.384766,4231.538574,4312.948730,4262.436035,4231.666504,4230.256348,4199.615234,4226.410156,4223.846191,4198.717773,4532.563965,4450.384766,4368.589844,4393.589844,6798.000000,3.000000,72.000000,,,,0.000000,4.000000,4.000000,4.000000,4.000000,4.000000,4.000000,4.000000,4.000000,4.000000,4.000000,4.000000,4.000000,4.000000,4.000000,100.000000,,,,,,,,,,,,,,,,,28.000000,0.000000,0.606492,0.301025,-0.648865,0.347168,0.990355,-0.099133,0.034672,-12.227561,-37.381298,62.908474
1703500447.140818,1703500447.141598,113.000000,0.000000,4244.487305,4235.000000,4312.179688,4261.153809,4224.487305,4225.384766,4197.948730,4222.948730,4215.769043,4218.461426,4523.846191,4449.230957,4367.820313,4382.820313,7281.000000,3.000000,72.000000,,,,0.000000,4.000000,4.000000,4.000000,4.000000,4.000000,4.000000,4.000000,4.000000,4.000000,4.000000,4.000000,4.000000,4.000000,4.000000,100.000000,,,,,,,,,,,,,,,,,,,,,,,,,,,,
1703500447.148626,1703500447.149305,114.000000,0.000000,4244.871582,4232.948730,4306.410156,4256.538574,4208.077148,4219.743652,4195.000000,4210.128418,4203.717773,4222.948730,4515.128418,4445.128418,4357.820313,4378.205078,6037.000000,3.000000,72.000000,,,,0.000000,4.000000,4.000000,4.000000,4.000000,4.000000,4.000000,4.000000,4.000000,4.000000,4.000000,4.000000,4.000000,4.000000,4.000000,100.000000,,,,,,,,,,,,,,,,,,,,,,,,,,,,
1703500447.156434,1703500447.157113,115.000000,0.000000,4246.153809,4228.717773,4307.820313,4258.205078,4210.384766,4218.717773,4200.000000,4206.282227,4196.794922,4203.974121,4513.974121,4440.512695,4354.871582,4382.179688,6277.000000,3.000000,72.000000,,,,0.000000,4.000000,4.000000,4.000000,4.000000,4.000000,4.000000,4.000000,4.000000,4.000000,4.000000,4.000000,4.000000,4.000000,4.000000,100.000000,,,,,,,,,,,,,,,,,,,,,,,,,,,,
1703500447.164242,1703500447.164821,116.000000,0.000000,4243.589844,4229.487305,4310.512695,4260.512695,4223.846191,4218.717773,4204.230957,4212.948730,4198.974121,4206.282227,4515.512695,4443.717773,4357.692383,4381.794922,6798.000000,3.000000,72.000000,,,,0.000000,4.000000,4.000000,4.000000,4.000000,4.000000,4.000000,4.000000,4.000000,4.000000,4.000000,4.000000,4.000000,4.000000,4.000000,100.000000,,,,,,,,,,,,,,,,,29.000000,0.000000,0.606557,0.301086,-0.648743,0.347229,0.986937,-0.105970,0.046881,-12.304805,-37.359833,62.900959
1703500447.172050,1703500447.172629,117.000000,0.000000,4246.282227,4233.589844,4313.333496,4260.641113,4226.153809,4220.384766,4203.077148,4215.512695,4200.897461,4214.743652,4518.077148,4452.307617,4359.102539,4383.333496,7281.000000,3.000000,72.000000,,,,0.000000,4.000000,4.000000,4.000000,4.000000,4.000000,4.000000,4.000000,4.000000,4.000000,4.000000,4.000000,4.000000,4.000000,4.000000,100.000000,,,,,,,,,,,,,,,,,,,,,,,,,,,,
1703500447.179858,1703500447.180337,118.000000,0.000000,4255.641113,4236.922852,4317.436035,4262.563965,4219.102539,4222.051270,4202.692383,4213.205078,4197.948730,4209.871582,4520.000000,4457.179688,4362.820313,4388.077148,6037.000000,3.000000,72.000000,,,,0.000000,4.000000,4.000000,4.000000,4.000000,4.000000,4.000000,4.000000,4.000000,4.000000,4.000000,4.000000,4.000000,4.000000,4.000000,100.000000,,,,,,,,,,,,,,,,,,,,,,,,,,,,
1703500447.187666,1703500447.188144,119.000000,0.000000,4255.128418,4236.922852,4315.897461,4263.333496,4224.358887,4220.128418,4200.641113,4213.077148,4202.948730,4211.538574,4521.922852,4457.692383,4368.077148,4388.333496,6277.000000,3.000000,72.000000,,,,0.000000,4.000000,4.000000,4.000000,4.000000,4.000000,4.000000,4.000000,4.000000,4.000000,4.000000,4.000000,4.000000,4.000000,4.000000,100.000000,,,,,,,,,,,,,,,,,,,,,,,,,,,,
1703500447.195474,1703500447.195852,120.000000,0.000000,4250.000000,4239.358887,4315.512695,4264.871582,4233.333496,4219.358887,4199.230957,4216.538574,4213.461426,4218.589844,4524.871582,4461.410156,4368.717773,4392.051270,6798.000000,3.000000,72.000000,,,,0.000000,4.000000,4.000000,4.000000,4.000000,4.000000,4.000000,4.000000,4.000000,4.000000,4.000000,4.000000,4.000000,4.000000,4.000000,100.000000,,,,,,,,,,,,,,,,,30.000000,0.000000,0.606637,0.301453,-0.648499,0.347229,0.993774,-0.101575,0.048834,-12.274324,-37.373852,62.827530
1703500447.203282,1703500447.203760,121.000000,0.000000,4256.153809,4241.410156,4318.205078,4268.461426,4221.410156,4219.358887,4199.487305,4215.897461,4216.153809,4218.333496,4524.102539,4462.436035,4366.538574,4395.512695,7281.000000,3.000000,72.000000,,,,0.000000,4.000000,4.000000,4.000000,4.000000,4.000000,4.000000,4.000000,4.000000,4.000000,4.000000,4.000000,4.000000,4.000000,4.000000,100.000000,,,,,,,,,,,,,,,,,,,,,,,,,,,,
1703500447.211090,1703500447.211568,122.000000,0.000000,4262.051270,4240.384766,4315.256348,4265.769043,4211.025879,4215.384766,4196.410156,4215.128418,4216.153809,4217.563965,4527.436035,4457.820313,4369.358887,4392.692383,6037.000000,3.000000,72.000000,,,,0.000000,4.000000,4.000000,4.000000,4.000000,4.000000,4.000000,4.000000,4.000000,4.000000,4.000000,4.000000,4.000000,4.000000,4.000000,100.000000,,,,,,,,,,,,,,,,,,,,,,,,,,,,
1703500447.218898,1703500447.219476,123.000000,0.000000,4261.282227,4242.563965,4312.563965,4266.025879,4225.512695,4217.051270,4196.538574,4217.692383,4219.358887,4216.794922,4536.922852,4459.871582,4375.000000,4393.589844,6277.000000,3.000000,72.000000,,,,0.000000,4.000000,4.000000,4.000000,4.000000,4.000000,4.000000,4.000000,4.000000,4.000000,4.000000,4.000000,4.000000,4.000000,4.000000,100.000000,,,,,,,,,,,,,,,,,,,,,,,,,,,,
1703500447.226706,1703500447.227284,124.000000,0.000000,4260.641113,4244.871582,4311.922852,4273.846191,4237.436035,4226.922852,4200.897461,4218.333496,4222.051270,4214.871582,4540.641113,4460.897461,4367.563965,4397.692383,6798.000000,3.000000,72.000000,,,,0.000000,4.000000,4.000000,4.000000,4.000000,4.000000,4.000000,4.000000,4.000000,4.000000,4.000000,4.000000,4.000000,4.000000,4.000000,100.000000,,,,,,,,,,,,,,,,,31.000000,0.000000,0.606685,0.301880,-0.648254,0.347229,0.990844,-0.095226,0.041509,-12.446892,-37.319798,62.878109
1703500447.234514,1703500447.235192,125.000000,0.000000,4255.000000,4241.538574,4307.051270,4271.794922,4230.769043,4232.436035,4203.077148,4216.538574,4213.077148,4223.461426,4536.794922,4449.743652,4342.563965,4391.025879,7281.000000,3.000000,72.000000,,,,0.000000,4.000000,4.000000,4.000000,4.000000,4.000000,4.000000,4.000000,4.000000,4.000000,4.000000,4.000000,4.000000,4.000000,4.000000,100.000000,,,,,,,,,,,,,,,,,,,,,,,,,,,,
1703500447.242322,1703500447.243000,126.000000,0.000000,4245.384766,4234.230957,4304.230957,4262.563965,4224.871582,4229.743652,4205.512695,4212.948730,4202.436035,4231.666504,4536.153809,4442.563965,4321.666504,4377.307617,6037.000000,3.000000,72.000000,,,,0.000000,4.000000,4.000000,4.000000,4.000000,4.000000,4.000000,4.000000,4.000000,4.000000,4.000000,4.000000,4.000000,4.000000,4.000000,100.000000,,,,,,,,,,,,,,,,,,,,,,,,,,,,
1703500447.250131,1703500447.250907,127.000000,0.000000,4245.641113,4230.641113,4308.974121,4263.205078,4225.641113,4229.358887,4211.282227,4218.589844,4208.589844,4230.897461,4545.384766,4453.717773,4323.333496,4380.769043,72.000000,3.000000,72.000000,,,,0.000000,4.000000,4.000000,4.000000,4.000000,4.000000,4.000000,4.000000,4.000000,4.000000,4.000000,4.000000,4.000000,4.000000,4.000000,100.000000,,,,,,,,,,,,,,,,,,,,,,,,,,,,
1703500447.257939,1703500447.258715,0.000000,0.000000,4247.820313,4231.282227,4309.487305,4263.333496,4218.205078,4227.820313,4210.512695,4228.333496,4219.615234,4230.256348,4553.589844,4464.743652,4325.256348,4395.512695,5589.000000,3.000000,72.000000,,,,0.000000,4.000000,4.000000,4.000000,4.000000,4.000000,4.000000,4.000000,4.000000,4.000000,4.000000,4.000000,4.000000,4.000000,4.000000,100.000000,,,,,,,,,,,,,,,,,0.000000,0.000000,0.606668,0.302368,-0.648010,0.347290,1.001099,-0.111342,0.046881,-12.552202,-37.471153,62.873634
1703500447.265746,1703500447.266424,1.000000,0.000000,4245.641113,4230.384766,4308.333496,4260.128418,4210.641113,4219.615234,4204.230957,4226.922852,4216.794922,4231.282227,4557.692383,4464.102539,4321.025879,4396.794922,5537.000000,3.000000,72.000000,,,,0.000000,4.000000,4.000000,4.000000,4.000000,4.000000,4.000000,4.000000,4.000000,4.000000,4.000000,4.000000,4.000000,4.000000,4.000000,100.000000,,,,,,,,,,,,,,,,,,,,,,,,,,,,
1703500447.273555,1703500447.274231,2.000000,0.000000,4254.871582,4233.717773,4315.512695,4270.256348,4221.410156,4215.384766,4204.487305,4224.358887,4213.846191,4234.230957,4566.025879,4470.384766,4330.256348,4394.487305,5387.000000,3.000000,72.000000,,,,0.000000,4.000000,4.000000,4.000000,4.000000,4.000000,4.000000,4.000000,4.000000,4.000000,4.000000,4.000000,4.000000,4.000000,4.000000,100.000000,,,,,,,,,,,,,,,,,,,,,,,,,,,,
1703500447.281363,1703500447.281940,3.000000,0.000000,4264.230957,4240.641113,4322.563965,4280.000000,4231.794922,4215.769043,4205.384766,4225.897461,4218.077148,4234.743652,4572.820313,4476.922852,4338.974121,4398.589844,5372.000000,3.000000,72.000000,,,,0.000000,4.000000,4.000000,4.000000,4.000000,4.000000,4.000000,4.000000,4.000000,4.000000,4.000000,4.000000,4.000000,4.000000,4.000000,100.000000,,,,,,,,,,,,,,,,,,,,,,,,,,,,
1703500447.289171,1703500447.289748,4.000000,0.000000,4263.461426,4244.615234,4320.769043,4276.922852,4229.615234,4213.846191,4200.000000,4217.307617,4213.717773,4231.666504,4568.717773,4472.179688,4338.333496,4399.230957,5287.000000,3.000000,72.000000,,,,0.000000,4.000000,4.000000,4.000000,4.000000,4.000000,4.000000,4.000000,4.000000,4.000000,4.000000,4.000000,4.000000,4.000000,4.000000,100.000000,,,,,,,,,,,,,,,,,1.000000,0.000000,0.606642,0.302612,-0.647888,0.347351,0.994262,-0.105482,0.032719,-12.563649,-37.440704,62.836269
1703500447.296979,1703500447.297456,5.000000,0.000000,4271.282227,4248.717773,4322.820313,4281.666504,4233.717773,4216.025879,4204.871582,4214.615234,4214.487305,4232.563965,4568.846191,4480.256348,4347.307617,4405.256348,5253.000000,3.000000,72.000000,,,,0.000000,4.000000,4.000000,4.000000,4.000000,4.000000,4.000000,4.000000,4.000000,4.000000,4.000000,4.000000,4.000000,4.000000,4.000000,100.000000,,,,,,,,,,,,,,,,,,,,,,,,,,,,
1703500447.304787,1703500447.305264,6.000000,0.000000,4284.871582,4253.974121,4327.436035,4288.589844,4239.230957,4221.410156,4214.358887,4225.641113,4224.871582,4233.077148,4576.410156,4493.205078,4358.717773,4416.538574,4629.000000,3.000000,72.000000,,,,0.000000,4.000000,4.000000,4.000000,4.000000,4.000000,4.000000,4.000000,4.000000,4.000000,4.000000,4.000000,4.000000,4.000000,4.000000,100.000000,,,,,,,,,,,,,,,,,,,,,,,,,,,,
1703500447.312595,1703500447.312972,7.000000,0.000000,4285.769043,4250.512695,4319.102539,4281.153809,4233.077148,4220.384766,4209.743652,4224.487305,4222.820313,4230.256348,4570.512695,4483.205078,4354.102539,4408.974121,5113.000000,3.000000,72.000000,,,,0.000000,4.000000,4.000000,4.000000,4.000000,4.000000,4.000000,4.000000,4.000000,4.000000,4.000000,4.000000,4.000000,4.000000,4.000000,100.000000,,,,,,,,,,,,,,,,,,,,,,,,,,,,
1703500447.320403,1703500447.320780,8.000000,0.000000,4278.717773,4244.871582,4311.025879,4276.794922,4231.025879,4216.410156,4206.794922,4220.512695,4223.205078,4240.769043,4557.307617,4475.000000,4347.051270,4395.512695,5389.000000,3.000000,72.000000,,,,0.000000,4.000000,4.000000,4.000000,4.000000,4.000000,4.000000,4.000000,4.000000,4.000000,4.000000,4.000000,4.000000,4.000000,4.000000,100.000000,1.000000,100.000000,4.000000,4.000000,4.000000,4.000000,4.000000,4.000000,4.000000,4.000000,4.000000,4.000000,4.000000,4.000000,4.000000,4.000000,2.000000,0.000000,0.606619,0.302979,-0.647705,0.347412,0.980588,-0.094738,0.043462,-12.640617,-37.446632,62.852642
1703500447.328211,1703500447.328487,9.000000,0.000000,4279.358887,4247.179688,4313.333496,4283.077148,4227.179688,4217.051270,4215.256348,4230.128418,4233.717773,4256.666504,4554.743652,4477.948730,4351.282227,4400.641113,5419.000000,3.000000,72.000000,,,,0.000000,4.000000,4.000000,4.000000,4.000000,4.000000,4.000000,4.000000,4.000000,4.000000,4.000000,4.000000,4.000000,4.000000,4.000000,100.000000,,,,,,,,,,,,,,,,,,,,,,,,,,,,
1703500447.336019,1703500447.336295,10.000000,0.000000,4281.922852,4246.153809,4314.615234,4282.436035,4215.128418,4217.051270,4216.410156,4234.230957,4229.871582,4244.358887,4551.794922,4470.769043,4351.282227,4404.358887,6037.000000,3.000000,72.000000,,,,0.000000,4.000000,4.000000,4.000000,4.000000,4.000000,4.000000,4.000000,4.000000,4.000000,4.000000,4.000000,4.000000,4.000000,4.000000,100.000000,,,,,,,,,,,,,,,,,,,,,,,,,,,,
1703500447.343827,1703500447.344003,11.000000,0.000000,4271.922852,4242.692383,4316.794922,4281.922852,4222.692383,4213.589844,4212.563965,4229.743652,4214.743652,4219.102539,4537.948730,4468.589844,4344.358887,4395.512695,6275.000000,3.000000,72.000000,,,,0.000000,4.000000,4.000000,4.000000,4.000000,4.000000,4.000000,4.000000,4.000000,4.000000,4.000000,4.000000,4.000000,4.000000,4.000000,100.000000,,,,,,,,,,,,,,,,,,,,,,,,,,,,
1703500447.351635,1703500447.351811,12.000000,0.000000,4252.436035,4245.641113,4322.179688,4289.615234,4238.333496,4214.230957,4218.205078,4228.974121,4215.256348,4222.179688,4533.974121,4477.563965,4347.692383,4396.666504,6790.000000,3.000000,72.000000,,,,0.000000,4.000000,4.000000,4.000000,4.000000,4.000000,4.000000,4.000000,4.000000,4.000000,4.000000,4.000000,4.000000,4.000000,4.000000,100.000000,,,,,,,,,,,,,,,,,3.000000,0.000000,0.606506,0.303406,-0.647644,0.347351,0.993774,-0.092785,0.033207,-12.643223,-37.468636,62.900711
1703500447.359443,1703500447.359519,13.000000,0.000000,4249.871582,4250.384766,4325.384766,4294.615234,4233.205078,4219.487305,4225.256348,4231.794922,4218.846191,4230.641113,4544.743652,4483.846191,4360.000000,4407.820313,7271.000000,3.000000,72.000000,,,,0.000000,4.000000,4.000000,4.000000,4.000000,4.000000,4.000000,4.000000,4.000000,4.000000,4.000000,4.000000,4.000000,4.000000,4.000000,100.000000,,,,,,,,,,,,,,,,,,,,,,,,,,,,
1703500447.367251,1703500447.367427,14.000000,0.000000,4265.512695,4252.051270,4328.974121,4296.794922,4229.487305,4214.743652,4222.820313,4226.922852,4208.589844,4217.051270,4546.025879,4485.897461,4361.538574,4411.922852,6037.000000,3.000000,72.000000,,,,0.000000,4.000000,4.000000,4.000000,4.000000,4.000000,4.000000,4.000000,4.000000,4.000000,4.000000,4.000000,4.000000,4.000000,4.000000,100.000000,,,,,,,,,,,,,,,,,,,,,,,,,,,,
1703500447.375059,1703500447.375235,15.000000,0.000000,4263.333496,4244.743652,4330.512695,4294.102539,4230.256348,4203.717773,4217.051270,4218.461426,4198.846191,4214.487305,4540.000000,4482.051270,4356.410156,4405.000000,6275.000000,3.000000,72.000000,,,,0.000000,4.000000,4.000000,4.000000,4.000000,4.000000,4.000000,4.000000,4.000000,4.000000,4.000000,4.000000,4.000000,4.000000,4.000000,100.000000,,,,,,,,,,,,,,,,,,,,,,,,,,,,
1703500447.382867,1703500447.383143,16.000000,0.000000,4247.820313,4237.948730,4322.820313,4287.307617,4215.641113,4206.153809,4212.563965,4213.205078,4200.641113,4224.743652,4534.615234,4476.794922,4356.922852,4396.538574,0.000000,3.000000,72.000000,,,,0.000000,4.000000,4.000000,4.000000,4.000000,4.000000,4.000000,4.000000,4.000000,4.000000,4.000000,4.000000,4.000000,4.000000,4.000000,100.000000,,,,,,,,,,,,,,,,,4.000000,0.000000,0.606375,0.303528,-0.647644,0.347473,0.985960,-0.092296,0.031742,-12.678900,-37.438438,62.943974
1703500447.390675,1703500447.390951,17.000000,0.000000,4247.820313,4245.641113,4313.846191,4292.051270,4218.974121,4218.077148,4213.461426,4215.128418,4211.153809,4219.743652,4532.563965,4478.077148,4360.769043,4396.282227,0.000000,3.000000,72.000000,,,,0.000000,4.000000,4.000000,4.000000,4.000000,4.000000,4.000000,4.000000,4.000000,4.000000,4.000000,4.000000,4.000000,4.000000,4.000000,100.000000,,,,,,,,,,,,,,,,,,,,,,,,,,,,
1703500447.398483,1703500447.398859,18.000000,0.000000,4251.410156,4248.589844,4309.230957,4294.871582,4241.922852,4220.512695,4222.307617,4222.051270,4218.461426,4216.410156,4537.563965,4477.820313,4365.897461,4400.384766,0.000000,3.000000,72.000000,,,,0.000000,4.000000,4.000000,4.000000,4.000000,4.000000,4.000000,4.000000,4.000000,4.000000,4.000000,4.000000,4.000000,4.000000,4.000000,100.000000,,,,,,,,,,,,,,,,,,,,,,,,,,,,
1703500447.406291,1703500447.406668,19.000000,0.000000,4246.153809,4236.282227,4301.410156,4283.461426,4242.692383,4221.153809,4229.871582,4227.820313,4223.077148,4229.871582,4537.692383,4474.102539,4367.692383,4396.538574,0.000000,3.000000,72.000000,,,,0.000000,4.000000,4.000000,4.000000,4.000000,4.000000,4.000000,4.000000,4.000000,4.000000,4.000000,4.000000,4.000000,4.000000,4.000000,100.000000,,,,,,,,,,,,,,,,,,,,,,,,,,,,
1703500447.414099,1703500447.414575,20.000000,0.000000,4244.743652,4236.153809,4293.205078,4283.077148,4237.307617,4229.102539,4228.077148,4229.743652,4231.410156,4234.743652,4526.794922,4471.410156,4364.743652,4395.000000,0.000000,3.000000,72.000000,,,,0.000000,4.000000,4.000000,4.000000,4.000000,4.000000,4.000000,4.000000,4.000000,4.000000,4.000000,4.000000,4.000000,4.000000,4.000000,100.000000,,,,,,,,,,,,,,,,,5.000000,0.000000,0.606235,0.303528,-0.647644,0.347717,0.992309,-0.093761,0.041021,-12.694344,-37.611263,62.866241
1703500447.421907,1703500447.422383,21.000000,0.000000,4247.563965,4249.230957,4299.743652,4294.358887,4241.666504,4229.102539,4226.410156,4230.128418,4233.717773,4229.487305,4521.538574,4472.692383,4365.256348,4403.846191,0.000000,3.000000,72.000000,,,,0.000000,4.000000,4.000000,4.000000,4.000000,4.000000,4.000000,4.000000,4.000000,4.000000,4.000000,4.000000,4.000000,4.000000,4.000000,100.000000,,,,,,,,,,,,,,,,,,,,,,,,,,,,
1703500447.429715,1703500447.430291,22.000000,0.000000,4249.230957,4249.102539,4310.897461,4296.282227,4240.512695,4220.256348,4231.538574,4232.179688,4231.666504,4229.102539,4531.153809,4476.538574,4371.922852,4405.897461,0.000000,3.000000,72.000000,,,,0.000000,4.000000,4.000000,4.000000,4.000000,4.000000,4.000000,4.000000,4.000000,4.000000,4.000000,4.000000,4.000000,4.000000,4.000000,100.000000,,,,,,,,,,,,,,,,,,,,,,,,,,,,
1703500447.437523,1703500447.438099,23.000000,0.000000,4257.051270,4248.461426,4312.179688,4297.820313,4235.000000,4216.538574,4232.563965,4233.589844,4230.000000,4234.358887,4536.922852,4478.846191,4380.897461,4404.358887,0.000000,3.000000,72.000000,,,,0.000000,4.000000,4.000000,4.000000,4.000000,4.000000,4.000000,4.000000,4.000000,4.000000,4.000000,4.000000,4.000000,4.000000,4.000000,100.000000,,,,,,,,,,,,,,,,,,,,,,,,,,,,
1703500447.445331,1703500447.446007,24.000000,0.000000,4266.666504,4255.256348,4315.769043,4302.563965,4227.948730,4216.282227,4230.000000,4230.384766,4222.692383,4231.922852,4529.743652,4480.512695,4381.410156,4409.358887,0.000000,3.000000,72.000000,,,,0.000000,4.000000,4.000000,4.000000,4.000000,4.000000,4.000000,4.000000,4.000000,4.000000,4.000000,4.000000,4.000000,4.000000,4.000000,100.000000,,,,,,,,,,,,,,,,,6.000000,0.000000,0.605969,0.303528,-0.647827,0.347839,0.993285,-0.096203,0.043462,-12.724909,-37.450138,62.862953
1703500447.453139,1703500447.453815,25.000000,0.000000,4267.179688,4254.615234,4322.948730,4301.538574,4221.666504,4211.025879,4230.384766,4221.410156,4216.025879,4220.384766,4522.948730,4482.820313,4375.897461,4413.077148,0.000000,3.000000,72.000000,,,,0.000000,4.000000,4.000000,4.000000,4.000000,4.000000,4.000000,4.000000,4.000000,4.000000,4.000000,4.000000,4.000000,4.000000,4.000000,100.000000,,,,,,,,,,,,,,,,,,,,,,,,,,,,
1703500447.460947,1703500447.461523,26.000000,0.000000,4264.871582,4251.666504,4326.794922,4303.974121,4229.230957,4203.333496,4231.025879,4216.410156,4212.692383,4218.589844,4526.025879,4483.846191,4377.948730,4411.282227,0.000000,3.000000,72.000000,,,,0.000000,4.000000,4.000000,4.000000,4.000000,4.000000,4.000000,4.000000,4.000000,4.000000,4.000000,4.000000,4.000000,4.000000,4.000000,100.000000,,,,,,,,,,,,,,,,,,,,,,,,,,,,
1703500447.468755,1703500447.469331,27.000000,0.000000,4265.769043,4252.051270,4325.512695,4306.410156,4235.641113,4201.794922,4228.461426,4213.333496,4203.077148,4221.666504,4521.410156,4476.922852,4378.974121,4405.000000,0.000000,3.000000,72.000000,,,,0.000000,4.000000,4.000000,4.000000,4.000000,4.000000,4.000000,4.000000,4.000000,4.000000,4.000000,4.000000,4.000000,4.000000,4.000000,100.000000,,,,,,,,,,,,,,,,,,,,,,,,,,,,
1703500447.476564,1703500447.477039,28.000000,0.000000,4263.717773,4247.948730,4317.051270,4304.358887,4231.538574,4211.410156,4229.358887,4202.948730,4200.256348,4209.230957,4510.000000,4468.333496,4372.692383,4398.205078,0.000000,3.000000,72.000000,,,,0.000000,4.000000,4.000000,4.000000,4.000000,4.000000,4.000000,4.000000,4.000000,4.000000,4.000000,4.000000,4.000000,4.000000,4.000000,100.000000,,,,,,,,,,,,,,,,,7.000000,0.000000,0.605589,0.303406,-0.648010,0.348267,0.984007,-0.083995,0.033207,-12.785751,-37.405121,62.759991
1703500447.484372,1703500447.484947,29.000000,0.000000,4260.897461,4247.948730,4309.230957,4306.666504,4238.205078,4225.000000,4240.641113,4203.205078,4213.846191,4204.871582,4515.897461,4474.358887,4373.589844,4397.820313,0.000000,3.000000,72.000000,,,,0.000000,4.000000,4.000000,4.000000,4.000000,4.000000,4.000000,4.000000,4.000000,4.000000,4.000000,4.000000,4.000000,4.000000,4.000000,100.000000,,,,,,,,,,,,,,,,,,,,,,,,,,,,
1703500447.492180,1703500447.492755,30.000000,0.000000,4258.974121,4252.179688,4299.358887,4303.461426,4247.563965,4228.333496,4247.820313,4217.948730,4228.846191,4228.461426,4526.538574,4477.436035,4382.563965,4400.769043,0.000000,3.000000,72.000000,,,,0.000000,4.000000,4.000000,4.000000,4.000000,4.000000,4.000000,4.000000,4.000000,4.000000,4.000000,4.000000,4.000000,4.000000,4.000000,100.000000,,,,,,,,,,,,,,,,,,,,,,,,,,,,
1703500447.499987,1703500447.500664,31.000000,0.000000,4252.436035,4243.717773,4283.974121,4294.358887,4232.563965,4220.384766,4244.102539,4227.179688,4236.153809,4245.128418,4525.128418,4466.153809,4387.179688,4396.025879,0.000000,3.000000,72.000000,,,,0.000000,4.000000,4.000000,4.000000,4.000000,4.000000,4.000000,4.000000,4.000000,4.000000,4.000000,4.000000,4.000000,4.000000,4.000000,100.000000,,,,,,,,,,,,,,,,,,,,,,,,,,,,
1703500447.507796,1703500447.508472,32.000000,0.000000,4246.025879,4230.897461,4275.128418,4291.538574,4214.615234,4214.487305,4242.051270,4229.871582,4236.025879,4236.538574,4521.153809,4460.000000,4381.282227,4389.487305,0.000000,3.000000,72.000000,,,,0.000000,4.000000,4.000000,4.000000,4.000000,4.000000,4.000000,4.000000,4.000000,4.000000,4.000000,4.000000,4.000000,4.000000,4.000000,100.000000,,,,,,,,,,,,,,,,,8.000000,0.000000,0.605318,0.303406,-0.648132,0.348511,0.993774,-0.095226,0.035161,-12.923843,-37.331276,62.700657
1703500447.515604,1703500447.516380,33.000000,0.000000,4246.410156,4227.692383,4277.820313,4290.897461,4222.179688,4216.025879,4245.641113,4233.717773,4234.358887,4229.102539,4520.128418,4464.102539,4373.589844,4390.000000,0.000000,3.000000,72.000000,,,,0.000000,4.000000,4.000000,4.000000,4.000000,4.000000,4.000000,4.000000,4.000000,4.000000,4.000000,4.000000,4.000000,4.000000,4.000000,100.000000,,,,,,,,,,,,,,,,,,,,,,,,,,,,
1703500447.523412,1703500447.524188,34.000000,0.000000,4245.769043,4223.077148,4285.128418,4289.871582,4232.948730,4217.179688,4246.922852,4233.846191,4236.282227,4230.641113,4518.589844,4468.974121,4373.717773,4391.794922,0.000000,3.000000,72.000000,,,,0.000000,4.000000,4.000000,4.000000,4.000000,4.000000,4.000000,4.000000,4.000000,4.000000,4.000000,4.000000,4.000000,4.000000,4.000000,100.000000,,,,,,,,,,,,,,,,,,,,,,,,,,,,
1703500447.531220,1703500447.531996,35.000000,0.000000,4245.769043,4216.794922,4293.333496,4292.692383,4228.846191,4215.769043,4246.025879,4232.948730,4235.512695,4232.820313,4526.410156,4480.128418,4381.666504,4399.230957,0.000000,3.000000,72.000000,,,,0.000000,4.000000,4.000000,4.000000,4.000000,4.000000,4.000000,4.000000,4.000000,4.000000,4.000000,4.000000,4.000000,4.000000,4.000000,100.000000,,,,,,,,,,,,,,,,,,,,,,,,,,,,
1703500447.539028,1703500447.539704,36.000000,0.000000,4258.846191,4218.461426,4299.358887,4294.615234,4224.487305,4212.692383,4245.769043,4233.589844,4232.051270,4235.512695,4537.692383,4492.948730,4388.205078,4412.307617,0.000000,3.000000,72.000000,,,,0.000000,4.000000,4.000000,4.000000,4.000000,4.000000,4.000000,4.000000,4.000000,4.000000,4.000000,4.000000,4.000000,4.000000,4.000000,100.000000,,,,,,,,,,,,,,,,,9.000000,0.000000,0.604774,0.303467,-0.648315,0.349060,0.985472,-0.104993,0.036626,-12.898126,-37.448151,62.680592
1703500447.546836,1703500447.547512,37.000000,0.000000,4265.128418,4221.282227,4298.974121,4292.692383,4222.179688,4204.743652,4240.641113,4227.948730,4222.563965,4227.948730,4532.051270,4488.846191,4384.487305,4408.717773,0.000000,3.000000,72.000000,,,,0.000000,4.000000,4.000000,4.000000,4.000000,4.000000,4.000000,4.000000,4.000000,4.000000,4.000000,4.000000,4.000000,4.000000,4.000000,100.000000,,,,,,,,,,,,,,,,,,,,,,,,,,,,
1703500447.554644,1703500447.555220,38.000000,0.000000,4250.641113,4213.589844,4294.358887,4289.743652,4219.358887,4198.717773,4232.563965,4212.692383,4204.230957,4206.153809,4518.974121,4475.512695,4373.717773,4394.358887,0.000000,3.000000,72.000000,,,,0.000000,4.000000,4.000000,4.000000,4.000000,4.000000,4.000000,4.000000,4.000000,4.000000,4.000000,4.000000,4.000000,4.000000,4.000000,100.000000,,,,,,,,,,,,,,,,,,,,,,,,,,,,
1703500447.562452,1703500447.563027,39.000000,0.000000,4243.205078,4203.077148,4293.205078,4283.846191,4212.307617,4197.563965,4229.358887,4200.128418,4194.358887,4192.307617,4513.974121,4473.077148,4366.666504,4394.358887,0.000000,3.000000,72.000000,,,,0.000000,4.000000,4.000000,4.000000,4.000000,4.000000,4.000000,4.000000,4.000000,4.000000,4.000000,4.000000,4.000000,4.000000,4.000000,100.000000,,,,,,,,,,,,,,,,,,,,,,,,,,,,
1703500447.570260,1703500447.570735,40.000000,0.000000,4250.000000,4199.230957,4291.922852,4280.256348,4202.563965,4202.307617,4233.461426,4205.128418,4197.051270,4195.512695,4513.589844,4474.487305,4368.333496,4398.333496,0.000000,3.000000,72.000000,,,,0.000000,4.000000,4.000000,4.000000,4.000000,4.000000,4.000000,4.000000,4.000000,4.000000,4.000000,4.000000,4.000000,4.000000,4.000000,100.000000,,,,,,,,,,,,,,,,,10.000000,0.000000,0.604506,0.303650,-0.648315,0.349365,0.995239,-0.098157,0.021975,-12.841646,-37.453335,62.679199
1703500447.578068,1703500447.578643,41.000000,0.000000,4247.820313,4201.410156,4285.769043,4281.410156,4208.846191,4211.538574,4241.410156,4213.974121,4204.102539,4201.538574,4513.589844,4465.512695,4369.358887,4391.153809,0.000000,3.000000,72.000000,,,,0.000000,4.000000,4.000000,4.000000,4.000000,4.000000,4.000000,4.000000,4.000000,4.000000,4.000000,4.000000,4.000000,4.000000,4.000000,100.000000,,,,,,,,,,,,,,,,,,,,,,,,,,,,
1703500447.585876,1703500447.586452,42.000000,0.000000,4241.410156,4200.384766,4282.692383,4280.769043,4231.025879,4220.897461,4248.205078,4213.846191,4212.436035,4209.743652,4510.641113,4456.794922,4365.512695,4381.282227,0.000000,3.000000,72.000000,,,,0.000000,4.000000,4.000000,4.000000,4.000000,4.000000,4.000000,4.000000,4.000000,4.000000,4.000000,4.000000,4.000000,4.000000,4.000000,100.000000,,,,,,,,,,,,,,,,,,,,,,,,,,,,
1703500447.593684,1703500447.594359,43.000000,0.000000,4245.384766,4192.436035,4283.333496,4280.256348,4236.282227,4227.436035,4250.641113,4213.589844,4218.846191,4221.922852,4505.256348,4455.128418,4362.948730,4373.461426,0.000000,3.000000,72.000000,,,,0.000000,4.000000,4.000000,4.000000,4.000000,4.000000,4.000000,4.000000,4.000000,4.000000,4.000000,4.000000,4.000000,4.000000,4.000000,100.000000,,,,,,,,,,,,,,,,,,,,,,,,,,,,
1703500447.601492,1703500447.602167,44.000000,0.000000,4247.436035,4187.692383,4280.384766,4279.871582,4228.589844,4228.461426,4249.487305,4216.922852,4222.820313,4229.743652,4510.000000,4452.563965,4366.282227,4374.230957,0.000000,3.000000,72.000000,,,,0.000000,4.000000,4.000000,4.000000,4.000000,4.000000,4.000000,4.000000,4.000000,4.000000,4.000000,4.000000,4.000000,4.000000,4.000000,100.000000,,,,,,,,,,,,,,,,,11.000000,0.000000,0.604414,0.303894,-0.648254,0.349426,0.983518,-0.105482,0.036626,-12.857482,-37.424667,62.744614
1703500447.609300,1703500447.610075,45.000000,0.000000,4244.615234,4191.922852,4284.743652,4282.563965,4231.025879,4225.769043,4249.230957,4224.230957,4231.025879,4230.512695,4521.666504,4457.051270,4375.512695,4384.615234,0.000000,3.000000,72.000000,,,,0.000000,4.000000,4.000000,4.000000,4.000000,4.000000,4.000000,4.000000,4.000000,4.000000,4.000000,4.000000,4.000000,4.000000,4.000000,100.000000,,,,,,,,,,,,,,,,,,,,,,,,,,,,
1703500447.617108,1703500447.617883,46.000000,0.000000,4251.666504,4198.461426,4297.563965,4289.358887,4227.179688,4218.717773,4249.743652,4230.512695,4237.563965,4231.922852,4528.205078,4469.615234,4384.358887,4394.615234,0.000000,3.000000,72.000000,,,,0.000000,4.000000,4.000000,4.000000,4.000000,4.000000,4.000000,4.000000,4.000000,4.000000,4.000000,4.000000,4.000000,4.000000,4.000000,100.000000,,,,,,,,,,,,,,,,,,,,,,,,,,,,
1703500447.624916,1703500447.625791,47.000000,0.000000,4265.512695,4199.358887,4306.282227,4294.358887,4208.205078,4207.436035,4245.000000,4225.641113,4231.153809,4234.743652,4530.641113,4478.333496,4387.563965,4400.897461,0.000000,3.000000,72.000000,,,,0.000000,4.000000,4.000000,4.000000,4.000000,4.000000,4.000000,4.000000,4.000000,4.000000,4.000000,4.000000,4.000000,4.000000,4.000000,100.000000,,,,,,,,,,,,,,,,,,,,,,,,,,,,
1703500447.632724,1703500447.633599,48.000000,0.000000,4268.974121,4198.461426,4311.538574,4295.641113,4202.820313,4196.282227,4235.769043,4216.922852,4221.025879,4231.282227,4530.256348,4484.743652,4386.666504,4404.358887,0.000000,3.000000,72.000000,,,,0.000000,4.000000,4.000000,4.000000,4.000000,4.000000,4.000000,4.000000,4.000000,4.000000,4.000000,4.000000,4.000000,4.000000,4.000000,100.000000,,,,,,,,,,,,,,,,,12.000000,0.000000,0.604583,0.304077,-0.648010,0.349426,0.992309,-0.099133,0.035649,-12.971733,-37.448868,62.720150
1703500447.640532,1703500447.641307,49.000000,0.000000,4263.461426,4201.410156,4314.358887,4297.051270,4216.025879,4189.487305,4232.307617,4214.871582,4212.948730,4219.871582,4528.205078,4490.512695,4386.282227,4405.384766,0.000000,3.000000,72.000000,,,,0.000000,4.000000,4.000000,4.000000,4.000000,4.000000,4.000000,4.000000,4.000000,4.000000,4.000000,4.000000,4.000000,4.000000,4.000000,100.000000,,,,,,,,,,,,,,,,,,,,,,,,,,,,
1703500447.648340,1703500447.649115,50.000000,0.000000,4263.333496,4198.333496,4314.230957,4291.538574,4218.205078,4184.230957,4232.051270,4207.051270,4199.358887,4203.461426,4521.794922,4488.077148,4381.025879,4401.794922,0.000000,3.000000,72.000000,,,,0.000000,4.000000,4.000000,4.000000,4.000000,4.000000,4.000000,4.000000,4.000000,4.000000,4.000000,4.000000,4.000000,4.000000,4.000000,100.000000,,,,,,,,,,,,,,,,,,,,,,,,,,,,
1703500447.656148,1703500447.656823,51.000000,0.000000,4264.358887,4191.025879,4310.128418,4282.179688,4212.051270,4188.846191,4230.128418,4195.769043,4187.307617,4200.256348,4512.307617,4476.025879,4371.410156,4393.077148,0.000000,3.000000,72.000000,,,,0.000000,4.000000,4.000000,4.000000,4.000000,4.000000,4.000000,4.000000,4.000000,4.000000,4.000000,4.000000,4.000000,4.000000,4.000000,100.000000,,,,,,,,,,,,,,,,,,,,,,,,,,,,
1703500447.663956,1703500447.664631,52.000000,0.000000,4257.307617,4189.102539,4300.641113,4280.769043,4220.000000,4209.743652,4238.077148,4194.871582,4183.589844,4201.666504,4503.333496,4465.769043,4364.487305,4383.717773,0.000000,3.000000,72.000000,,,,0.000000,4.000000,4.000000,4.000000,4.000000,4.000000,4.000000,4.000000,4.000000,4.000000,4.000000,4.000000,4.000000,4.000000,4.000000,100.000000,,,,,,,,,,,,,,,,,13.000000,0.000000,0.604802,0.304443,-0.647766,0.349182,0.985960,-0.095715,0.035649,-13.007894,-37.487312,62.798138
1703500447.671764,1703500447.672339,53.000000,0.000000,4242.948730,4181.922852,4289.358887,4276.666504,4218.461426,4219.871582,4247.436035,4195.769043,4185.000000,4183.077148,4492.692383,4456.922852,4351.794922,4374.871582,0.000000,3.000000,72.000000,,,,0.000000,4.000000,4.000000,4.000000,4.000000,4.000000,4.000000,4.000000,4.000000,4.000000,4.000000,4.000000,4.000000,4.000000,4.000000,100.000000,,,,,,,,,,,,,,,,,,,,,,,,,,,,
1703500447.679572,1703500447.680147,54.000000,0.000000,4231.282227,4171.666504,4281.282227,4265.512695,4207.948730,4217.948730,4250.256348,4200.897461,4197.179688,4177.820313,4486.153809,4446.794922,4338.333496,4365.641113,0.000000,3.000000,72.000000,,,,0.000000,4.000000,4.000000,4.000000,4.000000,4.000000,4.000000,4.000000,4.000000,4.000000,4.000000,4.000000,4.000000,4.000000,4.000000,100.000000,,,,,,,,,,,,,,,,,,,,,,,,,,,,
1703500447.687380,1703500447.687855,55.000000,0.000000,4229.743652,4174.358887,4277.563965,4264.615234,4221.538574,4226.025879,4259.102539,4220.641113,4217.692383,4207.051270,4490.256348,4451.153809,4342.436035,4361.025879,0.000000,3.000000,72.000000,,,,0.000000,4.000000,4.000000,4.000000,4.000000,4.000000,4.000000,4.000000,4.000000,4.000000,4.000000,4.000000,4.000000,4.000000,4.000000,100.000000,,,,,,,,,,,,,,,,,,,,,,,,,,,,
1703500447.695188,1703500447.695663,56.000000,0.000000,4231.538574,4182.948730,4278.846191,4271.153809,4235.384766,4230.128418,4263.333496,4233.717773,4223.205078,4223.589844,4493.333496,4461.538574,4354.871582,4365.128418,0.000000,3.000000,72.000000,,,,0.000000,4.000000,4.000000,4.000000,4.000000,4.000000,4.000000,4.000000,4.000000,4.000000,4.000000,4.000000,4.000000,4.000000,4.000000,100.000000,,,,,,,,,,,,,,,,,14.000000,0.000000,0.604985,0.304749,-0.647583,0.348938,0.982053,-0.102552,0.038579,-12.907104,-37.488583,62.784988
1703500447.702996,1703500447.703371,57.000000,0.000000,4236.922852,4183.461426,4284.871582,4275.769043,4231.922852,4222.307617,4258.461426,4232.051270,4219.487305,4210.128418,4496.282227,4461.025879,4358.205078,4375.128418,0.000000,3.000000,72.000000,,,,0.000000,4.000000,4.000000,4.000000,4.000000,4.000000,4.000000,4.000000,4.000000,4.000000,4.000000,4.000000,4.000000,4.000000,4.000000,100.000000,,,,,,,,,,,,,,,,,,,,,,,,,,,,
1703500447.710805,1703500447.711178,58.000000,0.000000,4246.922852,4184.487305,4293.974121,4278.846191,4230.256348,4219.102539,4259.102539,4227.307617,4216.794922,4202.692383,4505.769043,4460.512695,4358.205078,4382.436035,0.000000,3.000000,72.000000,,,,0.000000,4.000000,4.000000,4.000000,4.000000,4.000000,4.000000,4.000000,4.000000,4.000000,4.000000,4.000000,4.000000,4.000000,4.000000,100.000000,,,,,,,,,,,,,,,,,,,,,,,,,,,,
1703500447.718613,1703500447.718886,59.000000,0.000000,4252.948730,4192.051270,4302.051270,4281.794922,4225.897461,4214.615234,4254.102539,4220.256348,4206.410156,4203.205078,4507.436035,4465.128418,4360.897461,4383.077148,0.000000,3.000000,72.000000,,,,0.000000,4.000000,4.000000,4.000000,4.000000,4.000000,4.000000,4.000000,4.000000,4.000000,4.000000,4.000000,4.000000,4.000000,4.000000,100.000000,,,,,,,,,,,,,,,,,,,,,,,,,,,,
1703500447.726421,1703500447.726694,60.000000,0.000000,4260.641113,4199.871582,4312.179688,4288.333496,4209.615234,4201.282227,4241.410156,4212.948730,4197.563965,4200.128418,4503.205078,4469.615234,4367.179688,4389.102539,0.000000,3.000000,72.000000,,,,0.000000,4.000000,4.000000,4.000000,4.000000,4.000000,4.000000,4.000000,4.000000,4.000000,4.000000,4.000000,4.000000,4.000000,4.000000,100.000000,,,,,,,,,,,,,,,,,15.000000,0.000000,0.605053,0.304932,-0.647400,0.348999,0.985472,-0.097668,0.033696,-12.949727,-37.489723,62.773159
1703500447.734229,1703500447.734402,61.000000,0.000000,4278.333496,4205.769043,4323.077148,4296.282227,4208.461426,4197.563965,4245.256348,4211.025879,4200.384766,4200.897461,4513.974121,4480.641113,4377.436035,4405.128418,0.000000,3.000000,72.000000,,,,0.000000,4.000000,4.000000,4.000000,4.000000,4.000000,4.000000,4.000000,4.000000,4.000000,4.000000,4.000000,4.000000,4.000000,4.000000,100.000000,,,,,,,,,,,,,,,,,,,,,,,,,,,,
1703500447.742037,1703500447.742310,62.000000,0.000000,4285.128418,4206.025879,4323.461426,4298.461426,4225.897461,4200.897461,4247.820313,4207.051270,4201.666504,4203.205078,4525.641113,4492.820313,4386.794922,4415.769043,0.000000,3.000000,72.000000,,,,0.000000,4.000000,4.000000,4.000000,4.000000,4.000000,4.000000,4.000000,4.000000,4.000000,4.000000,4.000000,4.000000,4.000000,4.000000,100.000000,,,,,,,,,,,,,,,,,,,,,,,,,,,,
1703500447.749845,1703500447.750118,63.000000,0.000000,4272.563965,4204.487305,4313.205078,4293.077148,4228.974121,4198.717773,4234.487305,4198.846191,4198.077148,4203.589844,4517.692383,4489.102539,4385.256348,4407.436035,0.000000,3.000000,72.000000,,,,0.000000,4.000000,4.000000,4.000000,4.000000,4.000000,4.000000,4.000000,4.000000,4.000000,4.000000,4.000000,4.000000,4.000000,4.000000,100.000000,,,,,,,,,,,,,,,,,,,,,,,,,,,,
1703500447.757653,1703500447.758026,64.000000,0.000000,4260.128418,4202.692383,4301.794922,4284.358887,4224.743652,4204.358887,4235.128418,4196.538574,4197.436035,4200.512695,4504.358887,4472.948730,4373.589844,4393.077148,5594.000000,3.000000,72.000000,,,,0.000000,4.000000,4.000000,4.000000,4.000000,4.000000,4.000000,4.000000,4.000000,4.000000,4.000000,4.000000,4.000000,4.000000,4.000000,100.000000,,,,,,,,,,,,,,,,,16.000000,0.000000,0.605048,0.304993,-0.647278,0.349182,0.990844,-0.088878,0.037602,-13.021421,-37.407417,62.795841
1703500447.765461,1703500447.765834,65.000000,0.000000,4250.897461,4192.948730,4292.179688,4277.820313,4228.461426,4216.410156,4248.589844,4204.358887,4198.461426,4198.589844,4501.538574,4461.538574,4363.589844,4387.563965,5549.000000,3.000000,72.000000,,,,0.000000,4.000000,4.000000,4.000000,4.000000,4.000000,4.000000,4.000000,4.000000,4.000000,4.000000,4.000000,4.000000,4.000000,4.000000,100.000000,,,,,,,,,,,,,,,,,,,,,,,,,,,,
1703500447.773269,1703500447.773742,66.000000,0.000000,4243.589844,4184.743652,4291.794922,4275.641113,4230.641113,4225.641113,4252.436035,4221.153809,4207.179688,4205.769043,4504.230957,4465.000000,4362.563965,4383.333496,5387.000000,3.000000,72.000000,,,,0.000000,4.000000,4.000000,4.000000,4.000000,4.000000,4.000000,4.000000,4.000000,4.000000,4.000000,4.000000,4.000000,4.000000,4.000000,100.000000,,,,,,,,,,,,,,,,,,,,,,,,,,,,
1703500447.781077,1703500447.781550,67.000000,0.000000,4241.666504,4184.743652,4293.974121,4273.077148,4224.358887,4229.487305,4250.512695,4237.692383,4227.692383,4217.307617,4508.333496,4474.871582,4369.230957,4383.846191,5384.000000,3.000000,72.000000,,,,0.000000,4.000000,4.000000,4.000000,4.000000,4.000000,4.000000,4.000000,4.000000,4.000000,4.000000,4.000000,4.000000,4.000000,4.000000,100.000000,,,,,,,,,,,,,,,,,,,,,,,,,,,,
1703500447.788885,1703500447.789458,68.000000,0.000000,4243.717773,4185.769043,4293.077148,4270.512695,4213.077148,4223.589844,4251.666504,4240.641113,4235.512695,4215.384766,4508.333496,4476.922852,4371.282227,4390.641113,5302.000000,3.000000,72.000000,,,,0.000000,4.000000,4.000000,4.000000,4.000000,4.000000,4.000000,4.000000,4.000000,4.000000,4.000000,4.000000,4.000000,4.000000,4.000000,100.000000,,,,,,,,,,,,,,,,,17.000000,0.000000,0.604906,0.305054,-0.647217,0.349487,0.991332,-0.104017,0.036137,-13.085945,-37.533344,62.982925
1703500447.796693,1703500447.797266,69.000000,0.000000,4252.307617,4189.487305,4298.589844,4273.974121,4211.538574,4216.538574,4251.538574,4235.641113,4222.051270,4204.487305,4506.794922,4478.974121,4369.743652,4393.205078,5255.000000,3.000000,72.000000,,,,0.000000,4.000000,4.000000,4.000000,4.000000,4.000000,4.000000,4.000000,4.000000,4.000000,4.000000,4.000000,4.000000,4.000000,4.000000,100.000000,,,,,,,,,,,,,,,,,,,,,,,,,,,,
1703500447.804501,1703500447.805174,70.000000,0.000000,4262.179688,4198.333496,4310.128418,4281.922852,4224.871582,4216.538574,4248.589844,4233.846191,4213.846191,4198.077148,4512.820313,4486.666504,4375.769043,4395.256348,4629.000000,3.000000,72.000000,,,,0.000000,4.000000,4.000000,4.000000,4.000000,4.000000,4.000000,4.000000,4.000000,4.000000,4.000000,4.000000,4.000000,4.000000,4.000000,100.000000,,,,,,,,,,,,,,,,,,,,,,,,,,,,
1703500447.812309,1703500447.812982,71.000000,0.000000,4270.641113,4204.871582,4317.307617,4289.102539,4235.256348,4217.692383,4248.974121,4230.000000,4216.666504,4196.922852,4517.307617,4491.666504,4380.384766,4403.974121,5113.000000,3.000000,72.000000,,,,0.000000,4.000000,4.000000,4.000000,4.000000,4.000000,4.000000,4.000000,4.000000,4.000000,4.000000,4.000000,4.000000,4.000000,4.000000,100.000000,,,,,,,,,,,,,,,,,,,,,,,,,,,,
1703500447.820117,1703500447.820790,72.000000,0.000000,4274.358887,4208.461426,4320.128418,4293.589844,4228.974121,4214.487305,4245.897461,4219.871582,4214.102539,4203.205078,4516.922852,4490.641113,4383.974121,4414.358887,5387.000000,3.000000,72.000000,,,,0.000000,4.000000,4.000000,4.000000,4.000000,4.000000,4.000000,4.000000,4.000000,4.000000,4.000000,4.000000,4.000000,4.000000,4.000000,100.000000,1.000000,100.000000,4.000000,4.000000,4.000000,4.000000,4.000000,4.000000,4.000000,4.000000,4.000000,4.000000,4.000000,4.000000,4.000000,4.000000,18.000000,0.000000,0.604886,0.304932,-0.647095,0.349854,0.991820,-0.089366,0.043462,-13.044018,-37.496677,62.851299
1703500447.827925,1703500447.828598,73.000000,0.000000,4273.461426,4213.077148,4324.487305,4295.000000,4224.743652,4208.205078,4237.692383,4214.871582,4211.025879,4214.487305,4520.769043,4489.871582,4392.436035,4418.077148,5419.000000,3.000000,72.000000,,,,0.000000,4.000000,4.000000,4.000000,4.000000,4.000000,4.000000,4.000000,4.000000,4.000000,4.000000,4.000000,4.000000,4.000000,4.000000,100.000000,,,,,,,,,,,,,,,,,,,,,,,,,,,,
1703500447.835733,1703500447.836506,74.000000,0.000000,4274.230957,4214.487305,4327.563965,4296.153809,4228.974121,4202.179688,4233.205078,4214.487305,4216.282227,4221.282227,4525.769043,4493.333496,4395.512695,4416.282227,6035.000000,3.000000,72.000000,,,,0.000000,4.000000,4.000000,4.000000,4.000000,4.000000,4.000000,4.000000,4.000000,4.000000,4.000000,4.000000,4.000000,4.000000,4.000000,100.000000,,,,,,,,,,,,,,,,,,,,,,,,,,,,
1703500447.843541,1703500447.844314,75.000000,0.000000,4274.743652,4216.025879,4318.974121,4292.051270,4219.871582,4201.538574,4231.410156,4204.230957,4214.871582,4215.512695,4523.333496,4490.384766,4390.256348,4415.000000,6270.000000,3.000000,72.000000,,,,0.000000,4.000000,4.000000,4.000000,4.000000,4.000000,4.000000,4.000000,4.000000,4.000000,4.000000,4.000000,4.000000,4.000000,4.000000,100.000000,,,,,,,,,,,,,,,,,,,,,,,,,,,,
1703500447.851349,1703500447.852022,76.000000,0.000000,4269.743652,4215.641113,4310.897461,4282.948730,4211.025879,4207.948730,4231.410156,4197.307617,4205.384766,4203.077148,4513.846191,4479.615234,4383.205078,4407.179688,6795.000000,3.000000,72.000000,,,,0.000000,4.000000,4.000000,4.000000,4.000000,4.000000,4.000000,4.000000,4.000000,4.000000,4.000000,4.000000,4.000000,4.000000,4.000000,100.000000,,,,,,,,,,,,,,,,,19.000000,0.000000,0.604977,0.304871,-0.646973,0.349976,0.987425,-0.098157,0.044927,-12.906282,-37.430340,62.849503
1703500447.859157,1703500447.859830,77.000000,0.000000,4260.128418,4209.615234,4310.384766,4280.384766,4223.205078,4214.615234,4239.871582,4207.948730,4207.948730,4199.743652,4505.512695,4470.641113,4376.153809,4390.897461,7272.000000,3.000000,72.000000,,,,0.000000,4.000000,4.000000,4.000000,4.000000,4.000000,4.000000,4.000000,4.000000,4.000000,4.000000,4.000000,4.000000,4.000000,4.000000,100.000000,,,,,,,,,,,,,,,,,,,,,,,,,,,,
1703500447.866965,1703500447.867538,78.000000,0.000000,4253.846191,4201.666504,4302.820313,4278.205078,4239.743652,4218.461426,4249.102539,4218.077148,4218.333496,4206.538574,4503.461426,4466.282227,4369.230957,4387.820313,6035.000000,3.000000,72.000000,,,,0.000000,4.000000,4.000000,4.000000,4.000000,4.000000,4.000000,4.000000,4.000000,4.000000,4.000000,4.000000,4.000000,4.000000,4.000000,100.000000,,,,,,,,,,,,,,,,,,,,,,,,,,,,
1703500447.874773,1703500447.875346,79.000000,0.000000,4242.436035,4190.384766,4291.666504,4268.077148,4231.922852,4218.205078,4246.666504,4224.102539,4217.436035,4203.333496,4504.487305,4463.846191,4364.615234,4392.948730,6270.000000,3.000000,72.000000,,,,0.000000,4.000000,4.000000,4.000000,4.000000,4.000000,4.000000,4.000000,4.000000,4.000000,4.000000,4.000000,4.000000,4.000000,4.000000,100.000000,,,,,,,,,,,,,,,,,,,,,,,,,,,,
1703500447.882581,1703500447.883054,80.000000,0.000000,4231.025879,4182.563965,4291.410156,4260.128418,4216.282227,4216.922852,4244.230957,4228.461426,4212.051270,4186.282227,4503.333496,4460.897461,4363.077148,4388.846191,6795.000000,3.000000,72.000000,,,,0.000000,4.000000,4.000000,4.000000,4.000000,4.000000,4.000000,4.000000,4.000000,4.000000,4.000000,4.000000,4.000000,4.000000,4.000000,100.000000,,,,,,,,,,,,,,,,,20.000000,0.000000,0.605138,0.304810,-0.646851,0.349976,0.989379,-0.095715,0.043951,-12.782321,-37.320641,62.764553
1703500447.890389,1703500447.890862,81.000000,0.000000,4238.717773,4191.538574,4295.000000,4263.461426,4227.179688,4218.589844,4250.384766,4224.487305,4213.461426,4183.077148,4506.025879,4464.871582,4367.179688,4387.563965,7272.000000,3.000000,72.000000,,,,0.000000,4.000000,4.000000,4.000000,4.000000,4.000000,4.000000,4.000000,4.000000,4.000000,4.000000,4.000000,4.000000,4.000000,4.000000,100.000000,,,,,,,,,,,,,,,,,,,,,,,,,,,,
1703500447.898197,1703500447.898570,82.000000,0.000000,4248.589844,4201.666504,4292.307617,4270.000000,4232.692383,4218.846191,4245.256348,4217.692383,4207.820313,4198.974121,4510.897461,4472.179688,4373.589844,4391.025879,6035.000000,3.000000,72.000000,,,,0.000000,4.000000,4.000000,4.000000,4.000000,4.000000,4.000000,4.000000,4.000000,4.000000,4.000000,4.000000,4.000000,4.000000,4.000000,100.000000,,,,,,,,,,,,,,,,,,,,,,,,,,,,
1703500447.906005,1703500447.906377,83.000000,0.000000,4247.820313,4196.794922,4294.871582,4274.358887,4215.512695,4217.307617,4234.230957,4215.897461,4199.358887,4204.615234,4512.307617,4473.846191,4376.025879,4390.000000,6270.000000,3.000000,72.000000,,,,0.000000,4.000000,4.000000,4.000000,4.000000,4.000000,4.000000,4.000000,4.000000,4.000000,4.000000,4.000000,4.000000,4.000000,4.000000,100.000000,,,,,,,,,,,,,,,,,,,,,,,,,,,,
1703500447.913813,1703500447.914085,84.000000,0.000000,4252.820313,4201.153809,4306.410156,4280.000000,4217.948730,4216.153809,4236.666504,4215.000000,4205.769043,4196.410156,4519.102539,4479.487305,4382.820313,4398.589844,6795.000000,3.000000,72.000000,,,,0.000000,4.000000,4.000000,4.000000,4.000000,4.000000,4.000000,4.000000,4.000000,4.000000,4.000000,4.000000,4.000000,4.000000,4.000000,100.000000,,,,,,,,,,,,,,,,,21.000000,0.000000,0.605101,0.304932,-0.646729,0.350159,0.985472,-0.100598,0.031742,-12.787422,-37.288578,62.621429
1703500447.921621,1703500447.921993,85.000000,0.000000,4268.077148,4217.692383,4313.205078,4282.948730,4239.358887,4217.820313,4240.256348,4217.051270,4219.743652,4209.743652,4531.666504,4492.307617,4395.128418,4418.589844,7272.000000,3.000000,72.000000,,,,0.000000,4.000000,4.000000,4.000000,4.000000,4.000000,4.000000,4.000000,4.000000,4.000000,4.000000,4.000000,4.000000,4.000000,4.000000,100.000000,,,,,,,,,,,,,,,,,,,,,,,,,,,,
1703500447.929429,1703500447.929802,86.000000,0.000000,4265.897461,4213.974121,4312.307617,4281.794922,4239.230957,4220.512695,4236.025879,4221.666504,4224.487305,4231.025879,4533.846191,4493.461426,4396.410156,4420.128418,6035.000000,3.000000,72.000000,,,,0.000000,4.000000,4.000000,4.000000,4.000000,4.000000,4.000000,4.000000,4.000000,4.000000,4.000000,4.000000,4.000000,4.000000,4.000000,100.000000,,,,,,,,,,,,,,,,,,,,,,,,,,,,
1703500447.937238,1703500447.937710,87.000000,0.000000,4250.256348,4199.230957,4306.410156,4281.153809,4231.410156,4220.256348,4233.205078,4216.538574,4214.487305,4216.025879,4520.128418,4478.461426,4380.641113,4397.948730,6270.000000,3.000000,72.000000,,,,0.000000,4.000000,4.000000,4.000000,4.000000,4.000000,4.000000,4.000000,4.000000,4.000000,4.000000,4.000000,4.000000,4.000000,4.000000,100.000000,,,,,,,,,,,,,,,,,,,,,,,,,,,,
1703500447.945046,1703500447.945518,88.000000,0.000000,4246.538574,4198.717773,4297.692383,4275.256348,4232.051270,4218.461426,4234.102539,4212.051270,4207.948730,4196.666504,4514.871582,4469.358887,4374.102539,4390.641113,6795.000000,3.000000,72.000000,,,,0.000000,4.000000,4.000000,4.000000,4.000000,4.000000,4.000000,4.000000,4.000000,4.000000,4.000000,4.000000,4.000000,4.000000,4.000000,100.000000,,,,,,,,,,,,,,,,,22.000000,0.000000,0.605166,0.304993,-0.646606,0.350220,0.993774,-0.097668,0.048834,-12.908680,-37.326385,62.609287
1703500447.952854,1703500447.953426,89.000000,0.000000,4248.205078,4202.179688,4293.589844,4268.333496,4219.615234,4215.128418,4234.102539,4214.358887,4213.974121,4202.051270,4522.051270,4472.051270,4382.051270,4402.051270,7272.000000,3.000000,72.000000,,,,0.000000,4.000000,4.000000,4.000000,4.000000,4.000000,4.000000,4.000000,4.000000,4.000000,4.000000,4.000000,4.000000,4.000000,4.000000,100.000000,,,,,,,,,,,,,,,,,,,,,,,,,,,,
1703500447.960662,1703500447.961234,90.000000,0.000000,4247.692383,4196.666504,4295.256348,4268.974121,4215.128418,4214.871582,4233.846191,4217.563965,4220.897461,4206.538574,4520.897461,4477.692383,4379.487305,4397.692383,6035.000000,3.000000,72.000000,,,,0.000000,4.000000,4.000000,4.000000,4.000000,4.000000,4.000000,4.000000,4.000000,4.000000,4.000000,4.000000,4.000000,4.000000,4.000000,100.000000,,,,,,,,,,,,,,,,,,,,,,,,,,,,
1703500447.968470,1703500447.969142,91.000000,0.000000,4245.641113,4195.384766,4293.717773,4272.948730,4231.538574,4219.230957,4238.333496,4225.128418,4220.769043,4203.589844,4516.153809,4473.589844,4373.077148,4388.974121,6270.000000,3.000000,72.000000,,,,0.000000,4.000000,4.000000,4.000000,4.000000,4.000000,4.000000,4.000000,4.000000,4.000000,4.000000,4.000000,4.000000,4.000000,4.000000,100.000000,,,,,,,,,,,,,,,,,,,,,,,,,,,,
1703500447.976278,1703500447.976950,92.000000,0.000000,4244.487305,4201.282227,4291.794922,4275.512695,4234.230957,4218.974121,4241.794922,4228.461426,4212.820313,4202.948730,4514.871582,4463.974121,4373.974121,4392.436035,6795.000000,3.000000,72.000000,,,,0.000000,4.000000,4.000000,4.000000,4.000000,4.000000,4.000000,4.000000,4.000000,4.000000,4.000000,4.000000,4.000000,4.000000,4.000000,100.000000,,,,,,,,,,,,,,,,,23.000000,0.000000,0.605164,0.305115,-0.646484,0.350342,0.976193,-0.097180,0.037114,-12.751145,-37.393745,62.681690
1703500447.984086,1703500447.984858,93.000000,0.000000,4245.897461,4202.051270,4294.358887,4278.589844,4229.871582,4216.538574,4238.333496,4221.410156,4210.256348,4203.333496,4515.128418,4465.769043,4375.512695,4394.102539,7272.000000,3.000000,72.000000,,,,0.000000,4.000000,4.000000,4.000000,4.000000,4.000000,4.000000,4.000000,4.000000,4.000000,4.000000,4.000000,4.000000,4.000000,4.000000,100.000000,,,,,,,,,,,,,,,,,,,,,,,,,,,,
1703500447.991894,1703500447.992666,94.000000,0.000000,4253.077148,4198.974121,4299.871582,4278.333496,4231.410156,4218.333496,4233.205078,4216.153809,4211.538574,4199.743652,4519.230957,4474.102539,4377.820313,4395.769043,6035.000000,3.000000,72.000000,,,,0.000000,4.000000,4.000000,4.000000,4.000000,4.000000,4.000000,4.000000,4.000000,4.000000,4.000000,4.000000,4.000000,4.000000,4.000000,100.000000,,,,,,,,,,,,,,,,,,,,,,,,,,,,
1703500447.999702,1703500448.000574,95.000000,0.000000,4262.436035,4206.410156,4307.692383,4282.307617,4229.487305,4220.769043,4234.102539,4219.743652,4209.230957,4198.846191,4523.205078,4477.820313,4384.230957,4405.641113,6270.000000,3.000000,72.000000,,,,0.000000,4.000000,4.000000,4.000000,4.000000,4.000000,4.000000,4.000000,4.000000,4.000000,4.000000,4.000000,4.000000,4.000000,4.000000,100.000000,,,,,,,,,,,,,,,,,,,,,,,,,,,,
1703500448.007510,1703500448.008382,96.000000,0.000000,4264.743652,4219.487305,4314.487305,4293.333496,4235.897461,4220.641113,4234.102539,4216.410156,4205.897461,4211.538574,4524.230957,4480.000000,4390.769043,4410.512695,6795.000000,3.000000,72.000000,,,,0.000000,4.000000,4.000000,4.000000,4.000000,4.000000,4.000000,4.000000,4.000000,4.000000,4.000000,4.000000,4.000000,4.000000,4.000000,100.000000,,,,,,,,,,,,,,,,,24.000000,0.000000,0.605130,0.305359,-0.646301,0.350525,0.980588,-0.093761,0.031254,-12.626031,-37.321037,62.713524
1703500448.015318,1703500448.016290,97.000000,0.000000,4263.589844,4213.846191,4312.820313,4290.897461,4246.922852,4219.102539,4230.000000,4203.461426,4203.333496,4211.794922,4519.871582,4476.922852,4385.512695,4405.897461,7272.000000,3.000000,72.000000,,,,0.000000,4.000000,4.000000,4.000000,4.000000,4.000000,4.000000,4.000000,4.000000,4.000000,4.000000,4.000000,4.000000,4.000000,4.000000,100.000000,,,,,,,,,,,,,,,,,,,,,,,,,,,,
1703500448.023126,1703500448.024097,98.000000,0.000000,4260.641113,4199.230957,4302.051270,4279.102539,4240.641113,4217.948730,4227.179688,4194.487305,4197.820313,4188.461426,4509.358887,4463.974121,4376.025879,4402.307617,6035.000000,3.000000,72.000000,,,,0.000000,4.000000,4.000000,4.000000,4.000000,4.000000,4.000000,4.000000,4.000000,4.000000,4.000000,4.000000,4.000000,4.000000,4.000000,100.000000,,,,,,,,,,,,,,,,,,,,,,,,,,,,
1703500448.030934,1703500448.031806,99.000000,0.000000,4251.282227,4198.461426,4296.282227,4276.794922,4231.538574,4222.051270,4231.025879,4196.538574,4195.128418,4183.974121,4503.717773,4461.794922,4377.051270,4394.102539,6270.000000,3.000000,72.000000,,,,0.000000,4.000000,4.000000,4.000000,4.000000,4.000000,4.000000,4.000000,4.000000,4.000000,4.000000,4.000000,4.000000,4.000000,4.000000,100.000000,,,,,,,,,,,,,,,,,,,,,,,,,,,,
1703500448.038742,1703500448.039614,100.000000,0.000000,4248.333496,4202.563965,4303.077148,4280.256348,4235.897461,4230.256348,4242.307617,4208.589844,4202.948730,4205.897461,4512.692383,4474.230957,4378.717773,4392.692383,6795.000000,3.000000,72.000000,,,,0.000000,4.000000,4.000000,4.000000,4.000000,4.000000,4.000000,4.000000,4.000000,4.000000,4.000000,4.000000,4.000000,4.000000,4.000000,100.000000,,,,,,,,,,,,,,,,,25.000000,0.000000,0.604939,0.305786,-0.646179,0.350708,0.991332,-0.100110,0.035161,-12.730094,-37.288937,62.708836
1703500448.046550,1703500448.047322,101.000000,0.000000,4255.512695,4201.282227,4305.641113,4282.692383,4233.333496,4231.282227,4249.487305,4222.820313,4213.974121,4210.384766,4522.563965,4478.333496,4374.102539,4405.769043,7272.000000,3.000000,72.000000,,,,0.000000,4.000000,4.000000,4.000000,4.000000,4.000000,4.000000,4.000000,4.000000,4.000000,4.000000,4.000000,4.000000,4.000000,4.000000,100.000000,,,,,,,,,,,,,,,,,,,,,,,,,,,,
1703500448.054358,1703500448.055130,102.000000,0.000000,4252.179688,4199.871582,4296.666504,4281.282227,4225.128418,4228.333496,4246.025879,4233.205078,4220.641113,4200.128418,4524.871582,4478.974121,4376.794922,4407.307617,6035.000000,3.000000,72.000000,,,,0.000000,4.000000,4.000000,4.000000,4.000000,4.000000,4.000000,4.000000,4.000000,4.000000,4.000000,4.000000,4.000000,4.000000,4.000000,100.000000,,,,,,,,,,,,,,,,,,,,,,,,,,,,
1703500448.062166,1703500448.062838,103.000000,0.000000,4246.282227,4196.538574,4293.205078,4276.922852,4230.000000,4225.128418,4243.205078,4235.384766,4219.871582,4199.487305,4524.358887,4486.794922,4381.282227,4396.922852,6270.000000,3.000000,72.000000,,,,0.000000,4.000000,4.000000,4.000000,4.000000,4.000000,4.000000,4.000000,4.000000,4.000000,4.000000,4.000000,4.000000,4.000000,4.000000,100.000000,,,,,,,,,,,,,,,,,,,,,,,,,,,,
1703500448.069974,1703500448.070746,104.000000,0.000000,4256.410156,4194.487305,4300.384766,4279.871582,4236.153809,4221.922852,4245.512695,4233.333496,4218.461426,4206.025879,4525.256348,4490.769043,4380.897461,4405.384766,6795.000000,3.000000,72.000000,,,,0.000000,4.000000,4.000000,4.000000,4.000000,4.000000,4.000000,4.000000,4.000000,4.000000,4.000000,4.000000,4.000000,4.000000,4.000000,100.000000,,,,,,,,,,,,,,,,,26.000000,0.000000,0.605001,0.305969,-0.645935,0.350891,0.980588,-0.099622,0.041997,-12.757085,-37.160042,62.804619
1703500448.077782,1703500448.078554,105.000000,0.000000,4266.153809,4199.871582,4308.717773,4288.589844,4234.358887,4222.179688,4243.205078,4229.487305,4220.000000,4202.948730,4525.384766,4485.256348,4382.820313,4417.179688,7272.000000,3.000000,72.000000,,,,0.000000,4.000000,4.000000,4.000000,4.000000,4.000000,4.000000,4.000000,4.000000,4.000000,4.000000,4.000000,4.000000,4.000000,4.000000,100.000000,,,,,,,,,,,,,,,,,,,,,,,,,,,,
1703500448.085590,1703500448.086362,106.000000,0.000000,4263.333496,4204.615234,4309.615234,4291.538574,4234.871582,4221.282227,4235.512695,4222.179688,4216.666504,4186.794922,4520.384766,4480.256348,4381.153809,4409.487305,6035.000000,3.000000,72.000000,,,,0.000000,4.000000,4.000000,4.000000,4.000000,4.000000,4.000000,4.000000,4.000000,4.000000,4.000000,4.000000,4.000000,4.000000,4.000000,100.000000,,,,,,,,,,,,,,,,,,,,,,,,,,,,
1703500448.093398,1703500448.094070,107.000000,0.000000,4263.846191,4207.820313,4306.282227,4293.717773,4239.358887,4218.846191,4231.922852,4217.948730,4215.384766,4197.563965,4519.871582,4483.589844,4383.846191,4415.897461,6270.000000,3.000000,72.000000,,,,0.000000,4.000000,4.000000,4.000000,4.000000,4.000000,4.000000,4.000000,4.000000,4.000000,4.000000,4.000000,4.000000,4.000000,4.000000,100.000000,,,,,,,,,,,,,,,,,,,,,,,,,,,,
1703500448.101206,1703500448.101878,108.000000,0.000000,4272.563965,4214.230957,4309.358887,4297.179688,4231.153809,4217.563965,4232.692383,4217.436035,4219.358887,4229.487305,4522.563965,4490.512695,4394.743652,4431.538574,6795.000000,3.000000,72.000000,,,,0.000000,4.000000,4.000000,4.000000,4.000000,4.000000,4.000000,4.000000,4.000000,4.000000,4.000000,4.000000,4.000000,4.000000,4.000000,100.000000,,,,,,,,,,,,,,,,,27.000000,0.000000,0.604748,0.305908,-0.645935,0.351379,0.996215,-0.111342,0.050787,-12.648043,-37.244038,62.940823
1703500448.109014,1703500448.109586,109.000000,0.000000,4279.358887,4218.333496,4313.461426,4295.512695,4228.077148,4216.922852,4228.717773,4216.922852,4224.230957,4229.102539,4522.563965,4492.051270,4397.307617,4427.948730,7272.000000,3.000000,72.000000,,,,0.000000,4.000000,4.000000,4.000000,4.000000,4.000000,4.000000,4.000000,4.000000,4.000000,4.000000,4.000000,4.000000,4.000000,4.000000,100.000000,,,,,,,,,,,,,,,,,,,,,,,,,,,,
1703500448.116822,1703500448.117393,110.000000,0.000000,4281.153809,4220.512695,4313.589844,4297.179688,4245.641113,4220.128418,4229.358887,4218.717773,4232.179688,4214.102539,4523.974121,4489.615234,4390.769043,4422.820313,6035.000000,3.000000,72.000000,,,,0.000000,4.000000,4.000000,4.000000,4.000000,4.000000,4.000000,4.000000,4.000000,4.000000,4.000000,4.000000,4.000000,4.000000,4.000000,100.000000,,,,,,,,,,,,,,,,,,,,,,,,,,,,
1703500448.124630,1703500448.125101,111.000000,0.000000,4270.897461,4221.025879,4308.077148,4299.487305,4250.769043,4229.358887,4238.974121,4221.922852,4234.615234,4213.717773,4520.384766,4480.000000,4384.743652,4417.436035,6270.000000,3.000000,72.000000,,,,0.000000,4.000000,4.000000,4.000000,4.000000,4.000000,4.000000,4.000000,4.000000,4.000000,4.000000,4.000000,4.000000,4.000000,4.000000,100.000000,,,,,,,,,,,,,,,,,,,,,,,,,,,,
1703500448.132438,1703500448.133009,112.000000,0.000000,4252.820313,4213.974121,4295.641113,4287.948730,4242.820313,4235.769043,4244.871582,4220.000000,4223.974121,4208.077148,4508.974121,4465.512695,4378.589844,4398.333496,6795.000000,3.000000,72.000000,,,,0.000000,4.000000,4.000000,4.000000,4.000000,4.000000,4.000000,4.000000,4.000000,4.000000,4.000000,4.000000,4.000000,4.000000,4.000000,100.000000,,,,,,,,,,,,,,,,,28.000000,0.000000,0.604434,0.305664,-0.646179,0.351685,0.979612,-0.104505,0.034672,-12.683239,-37.319633,62.896744
1703500448.140247,1703500448.140817,113.000000,0.000000,4246.282227,4206.410156,4291.538574,4277.948730,4244.615234,4236.153809,4248.077148,4218.333496,4216.538574,4197.179688,4504.102539,4460.256348,4373.717773,4385.512695,7272.000000,3.000000,72.000000,,,,0.000000,4.000000,4.000000,4.000000,4.000000,4.000000,4.000000,4.000000,4.000000,4.000000,4.000000,4.000000,4.000000,4.000000,4.000000,100.000000,,,,,,,,,,,,,,,,,,,,,,,,,,,,
1703500448.148054,1703500448.148726,114.000000,0.000000,4250.384766,4206.410156,4293.846191,4282.307617,4238.333496,4235.000000,4250.000000,4218.846191,4216.282227,4198.846191,4506.025879,4462.436035,4373.717773,4392.948730,6035.000000,3.000000,72.000000,,,,0.000000,4.000000,4.000000,4.000000,4.000000,4.000000,4.000000,4.000000,4.000000,4.000000,4.000000,4.000000,4.000000,4.000000,4.000000,100.000000,,,,,,,,,,,,,,,,,,,,,,,,,,,,
1703500448.155862,1703500448.156534,115.000000,0.000000,4250.000000,4209.871582,4290.128418,4282.563965,4222.563965,4229.487305,4247.051270,4215.769043,4206.922852,4199.102539,4503.077148,4458.974121,4372.307617,4397.436035,6270.000000,3.000000,72.000000,,,,0.000000,4.000000,4.000000,4.000000,4.000000,4.000000,4.000000,4.000000,4.000000,4.000000,4.000000,4.000000,4.000000,4.000000,4.000000,100.000000,,,,,,,,,,,,,,,,,,,,,,,,,,,,
1703500448.163670,1703500448.164442,116.000000,0.000000,4247.051270,4212.692383,4285.769043,4278.717773,4229.358887,4227.692383,4244.615234,4212.820313,4202.436035,4198.974121,4500.641113,4456.153809,4372.179688,4390.384766,6795.000000,3.000000,72.000000,,,,0.000000,4.000000,4.000000,4.000000,4.000000,4.000000,4.000000,4.000000,4.000000,4.000000,4.000000,4.000000,4.000000,4.000000,4.000000,100.000000,,,,,,,,,,,,,,,,,29.000000,0.000000,0.604253,0.305481,-0.646301,0.351929,0.982542,-0.094250,0.039067,-12.764915,-37.387669,62.857067
1703500448.171479,1703500448.172250,117.000000,0.000000,4250.384766,4214.743652,4288.717773,4285.897461,4242.051270,4228.205078,4247.692383,4215.384766,4214.230957,4206.153809,4508.077148,4466.153809,4378.717773,4391.794922,7272.000000,3.000000,72.000000,,,,0.000000,4.000000,4.000000,4.000000,4.000000,4.000000,4.000000,4.000000,4.000000,4.000000,4.000000,4.000000,4.000000,4.000000,4.000000,100.000000,,,,,,,,,,,,,,,,,,,,,,,,,,,,
1703500448.179287,1703500448.180157,118.000000,0.000000,4251.153809,4211.538574,4287.436035,4286.153809,4225.641113,4218.974121,4245.769043,4216.282227,4213.717773,4200.256348,4510.000000,4473.717773,4377.692383,4399.487305,6035.000000,3.000000,72.000000,,,,0.000000,4.000000,4.000000,4.000000,4.000000,4.000000,4.000000,4.000000,4.000000,4.000000,4.000000,4.000000,4.000000,4.000000,4.000000,100.000000,,,,,,,,,,,,,,,,,,,,,,,,,,,,
1703500448.187095,1703500448.188066,119.000000,0.000000,4246.922852,4210.512695,4280.256348,4277.307617,4215.512695,4211.282227,4235.897461,4213.846191,4206.025879,4193.077148,4507.179688,4473.077148,4374.102539,4400.128418,6270.000000,3.000000,72.000000,,,,0.000000,4.000000,4.000000,4.000000,4.000000,4.000000,4.000000,4.000000,4.000000,4.000000,4.000000,4.000000,4.000000,4.000000,4.000000,100.000000,,,,,,,,,,,,,,,,,,,,,,,,,,,,
1703500448.194903,1703500448.195874,120.000000,0.000000,4249.615234,4217.948730,4283.589844,4284.871582,4223.589844,4215.512695,4233.077148,4217.051270,4214.487305,4205.000000,4516.282227,4478.974121,4383.077148,4406.538574,6795.000000,3.000000,72.000000,,,,0.000000,4.000000,4.000000,4.000000,4.000000,4.000000,4.000000,4.000000,4.000000,4.000000,4.000000,4.000000,4.000000,4.000000,4.000000,100.000000,,,,,,,,,,,,,,,,,30.000000,0.000000,0.604111,0.305481,-0.646301,0.352173,0.993774,-0.110365,0.038091,-12.855090,-37.482235,62.871361
1703500448.202711,1703500448.203683,121.000000,0.000000,4253.974121,4220.641113,4291.666504,4292.948730,4218.846191,4216.922852,4235.256348,4220.641113,4221.025879,4212.948730,4527.692383,4485.000000,4389.358887,4416.153809,7272.000000,3.000000,72.000000,,,,0.000000,4.000000,4.000000,4.000000,4.000000,4.000000,4.000000,4.000000,4.000000,4.000000,4.000000,4.000000,4.000000,4.000000,4.000000,100.000000,,,,,,,,,,,,,,,,,,,,,,,,,,,,
1703500448.210519,1703500448.211391,122.000000,0.000000,4248.461426,4217.563965,4286.666504,4284.102539,4217.948730,4213.974121,4233.846191,4211.666504,4214.743652,4202.179688,4523.974121,4474.871582,4383.846191,4410.897461,6035.000000,3.000000,72.000000,,,,0.000000,4.000000,4.000000,4.000000,4.000000,4.000000,4.000000,4.000000,4.000000,4.000000,4.000000,4.000000,4.000000,4.000000,4.000000,100.000000,,,,,,,,,,,,,,,,,,,,,,,,,,,,
1703500448.218327,1703500448.219199,123.000000,0.000000,4235.769043,4215.897461,4278.077148,4277.051270,4231.538574,4216.538574,4231.153809,4202.179688,4208.717773,4194.743652,4509.615234,4460.641113,4376.794922,4399.230957,6270.000000,3.000000,72.000000,,,,0.000000,4.000000,4.000000,4.000000,4.000000,4.000000,4.000000,4.000000,4.000000,4.000000,4.000000,4.000000,4.000000,4.000000,4.000000,100.000000,,,,,,,,,,,,,,,,,,,,,,,,,,,,
1703500448.226135,1703500448.226907,124.000000,0.000000,4231.922852,4215.128418,4276.410156,4278.333496,4233.077148,4220.769043,4233.333496,4208.077148,4209.102539,4200.769043,4504.102539,4460.769043,4372.692383,4399.358887,6795.000000,3.000000,72.000000,,,,0.000000,4.000000,4.000000,4.000000,4.000000,4.000000,4.000000,4.000000,4.000000,4.000000,4.000000,4.000000,4.000000,4.000000,4.000000,100.000000,,,,,,,,,,,,,,,,,31.000000,0.000000,0.603766,0.305542,-0.646362,0.352600,0.975217,-0.097180,0.043951,-12.902914,-37.400681,62.767559
1703500448.233943,1703500448.234715,125.000000,0.000000,4242.307617,4214.615234,4279.487305,4279.358887,4227.051270,4222.948730,4241.153809,4217.692383,4212.307617,4202.307617,4516.538574,4471.922852,4377.051270,4410.641113,7272.000000,3.000000,72.000000,,,,0.000000,4.000000,4.000000,4.000000,4.000000,4.000000,4.000000,4.000000,4.000000,4.000000,4.000000,4.000000,4.000000,4.000000,4.000000,100.000000,,,,,,,,,,,,,,,,,,,,,,,,,,,,
1703500448.241751,1703500448.242423,126.000000,0.000000,4244.358887,4215.769043,4286.538574,4280.384766,4224.615234,4221.282227,4244.743652,4216.538574,4208.461426,4193.589844,4524.230957,4476.153809,4381.282227,4411.794922,6035.000000,3.000000,72.000000,,,,0.000000,4.000000,4.000000,4.000000,4.000000,4.000000,4.000000,4.000000,4.000000,4.000000,4.000000,4.000000,4.000000,4.000000,4.000000,100.000000,,,,,,,,,,,,,,,,,,,,,,,,,,,,
1703500448.249559,1703500448.250231,127.000000,0.000000,4232.051270,4215.256348,4286.538574,4278.461426,4206.282227,4215.128418,4236.410156,4212.436035,4197.820313,4190.256348,4513.589844,4465.641113,4372.563965,4397.948730,72.000000,3.000000,72.000000,,,,0.000000,4.000000,4.000000,4.000000,4.000000,4.000000,4.000000,4.000000,4.000000,4.000000,4.000000,4.000000,4.000000,4.000000,4.000000,100.000000,,,,,,,,,,,,,,,,,,,,,,,,,,,,
1703500448.257367,1703500448.257939,0.000000,0.000000,4233.077148,4213.333496,4280.897461,4276.282227,4201.538574,4212.948730,4230.641113,4216.282227,4199.230957,4199.615234,4511.410156,4466.153809,4371.153809,4398.846191,5592.000000,3.000000,72.000000,,,,0.000000,4.000000,4.000000,4.000000,4.000000,4.000000,4.000000,4.000000,4.000000,4.000000,4.000000,4.000000,4.000000,4.000000,4.000000,100.000000,,,,,,,,,,,,,,,,,0.000000,0.000000,0.603565,0.305786,-0.646301,0.352844,0.981077,-0.102552,0.026859,-12.945956,-37.410610,62.674137
1703500448.265175,1703500448.265746,1.000000,0.000000,4247.820313,4213.461426,4289.230957,4281.666504,4227.307617,4216.922852,4235.256348,4216.282227,4205.256348,4206.410156,4524.102539,4479.358887,4379.743652,4411.282227,5561.000000,3.000000,72.000000,,,,0.000000,4.000000,4.000000,4.000000,4.000000,4.000000,4.000000,4.000000,4.000000,4.000000,4.000000,4.000000,4.000000,4.000000,4.000000,100.000000,,,,,,,,,,,,,,,,,,,,,,,,,,,,
1703500448.272983,1703500448.273454,2.000000,0.000000,4250.000000,4219.358887,4298.846191,4289.230957,4231.282227,4218.333496,4236.282227,4206.025879,4201.410156,4201.282227,4524.871582,4472.051270,4379.615234,4407.563965,5394.000000,3.000000,72.000000,,,,0.000000,4.000000,4.000000,4.000000,4.000000,4.000000,4.000000,4.000000,4.000000,4.000000,4.000000,4.000000,4.000000,4.000000,4.000000,100.000000,,,,,,,,,,,,,,,,,,,,,,,,,,,,
1703500448.280791,1703500448.281262,3.000000,0.000000,4247.436035,4228.333496,4295.897461,4293.461426,4217.307617,4215.256348,4233.205078,4201.153809,4197.563965,4197.307617,4515.897461,4459.871582,4374.743652,4398.461426,5394.000000,3.000000,72.000000,,,,0.000000,4.000000,4.000000,4.000000,4.000000,4.000000,4.000000,4.000000,4.000000,4.000000,4.000000,4.000000,4.000000,4.000000,4.000000,100.000000,,,,,,,,,,,,,,,,,,,,,,,,,,,,
1703500448.288599,1703500448.288970,4.000000,0.000000,4250.256348,4226.410156,4294.615234,4290.512695,4213.589844,4212.563965,4232.820313,4203.717773,4200.128418,4199.487305,4516.794922,4463.333496,4374.871582,4401.153809,5325.000000,3.000000,72.000000,,,,0.000000,4.000000,4.000000,4.000000,4.000000,4.000000,4.000000,4.000000,4.000000,4.000000,4.000000,4.000000,4.000000,4.000000,4.000000,100.000000,,,,,,,,,,,,,,,,,1.000000,0.000000,0.603448,0.306274,-0.646179,0.352844,0.983030,-0.102552,0.042974,-13.051361,-37.469551,62.490055
1703500448.296407,1703500448.296778,5.000000,0.000000,4241.282227,4216.153809,4295.384766,4282.307617,4212.307617,4212.820313,4231.794922,4203.205078,4209.743652,4201.538574,4522.948730,4464.487305,4377.820313,4403.974121,5257.000000,3.000000,72.000000,,,,0.000000,4.000000,4.000000,4.000000,4.000000,4.000000,4.000000,4.000000,4.000000,4.000000,4.000000,4.000000,4.000000,4.000000,4.000000,100.000000,,,,,,,,,,,,,,,,,,,,,,,,,,,,
1703500448.304215,1703500448.304485,6.000000,0.000000,4230.897461,4216.666504,4289.743652,4275.769043,4218.717773,4215.897461,4232.692383,4206.282227,4216.282227,4199.743652,4519.487305,4460.769043,4376.153809,4397.692383,4629.000000,3.000000,72.000000,,,,0.000000,4.000000,4.000000,4.000000,4.000000,4.000000,4.000000,4.000000,4.000000,4.000000,4.000000,4.000000,4.000000,4.000000,4.000000,100.000000,,,,,,,,,,,,,,,,,,,,,,,,,,,,
1703500448.312023,1703500448.312293,7.000000,0.000000,4231.922852,4219.743652,4280.128418,4273.974121,4226.922852,4217.820313,4233.974121,4210.512695,4214.871582,4204.102539,4509.487305,4456.410156,4370.256348,4390.769043,5115.000000,3.000000,72.000000,,,,0.000000,4.000000,4.000000,4.000000,4.000000,4.000000,4.000000,4.000000,4.000000,4.000000,4.000000,4.000000,4.000000,4.000000,4.000000,100.000000,,,,,,,,,,,,,,,,,,,,,,,,,,,,
1703500448.319831,1703500448.320001,8.000000,0.000000,4233.974121,4217.307617,4277.563965,4274.230957,4219.102539,4217.436035,4234.871582,4205.512695,4210.512695,4206.922852,4503.461426,4450.641113,4366.922852,4389.358887,5385.000000,3.000000,72.000000,,,,0.000000,4.000000,4.000000,4.000000,4.000000,4.000000,4.000000,4.000000,4.000000,4.000000,4.000000,4.000000,4.000000,4.000000,4.000000,100.000000,1.000000,100.000000,4.000000,4.000000,4.000000,4.000000,4.000000,4.000000,4.000000,4.000000,4.000000,4.000000,4.000000,4.000000,4.000000,4.000000,2.000000,0.000000,0.603483,0.306580,-0.645935,0.352966,0.990355,-0.092785,0.033207,-13.029558,-37.389263,62.591049
1703500448.327639,1703500448.327809,9.000000,0.000000,4238.846191,4223.846191,4289.615234,4280.128418,4223.077148,4219.102539,4241.025879,4205.000000,4207.179688,4189.615234,4506.666504,4453.589844,4372.307617,4397.692383,5424.000000,3.000000,72.000000,,,,0.000000,4.000000,4.000000,4.000000,4.000000,4.000000,4.000000,4.000000,4.000000,4.000000,4.000000,4.000000,4.000000,4.000000,4.000000,100.000000,,,,,,,,,,,,,,,,,,,,,,,,,,,,
1703500448.335447,1703500448.335517,10.000000,0.000000,4249.230957,4234.871582,4299.358887,4288.077148,4231.538574,4220.384766,4245.512695,4214.615234,4206.410156,4184.358887,4514.102539,4462.307617,4378.589844,4410.384766,6035.000000,3.000000,72.000000,,,,0.000000,4.000000,4.000000,4.000000,4.000000,4.000000,4.000000,4.000000,4.000000,4.000000,4.000000,4.000000,4.000000,4.000000,4.000000,100.000000,,,,,,,,,,,,,,,,,,,,,,,,,,,,
1703500448.343255,1703500448.343425,11.000000,0.000000,4249.358887,4233.589844,4295.512695,4285.641113,4218.717773,4217.948730,4244.615234,4216.794922,4205.769043,4205.384766,4515.384766,4464.871582,4375.641113,4414.615234,6274.000000,3.000000,72.000000,,,,0.000000,4.000000,4.000000,4.000000,4.000000,4.000000,4.000000,4.000000,4.000000,4.000000,4.000000,4.000000,4.000000,4.000000,4.000000,100.000000,,,,,,,,,,,,,,,,,,,,,,,,,,,,
1703500448.351063,1703500448.351233,12.000000,0.000000,4236.410156,4226.410156,4293.205078,4278.717773,4219.615234,4217.051270,4245.000000,4211.538574,4201.666504,4210.000000,4514.358887,4464.230957,4371.794922,4407.692383,6795.000000,3.000000,72.000000,,,,0.000000,4.000000,4.000000,4.000000,4.000000,4.000000,4.000000,4.000000,4.000000,4.000000,4.000000,4.000000,4.000000,4.000000,4.000000,100.000000,,,,,,,,,,,,,,,,,3.000000,0.000000,0.603465,0.306885,-0.645874,0.352844,0.989379,-0.097668,0.038091,-12.993269,-37.333668,62.498611
1703500448.358871,1703500448.359141,13.000000,0.000000,4233.333496,4226.666504,4300.000000,4277.563965,4235.641113,4217.820313,4245.512695,4211.922852,4198.589844,4196.922852,4519.871582,4467.948730,4377.307617,4406.538574,7267.000000,3.000000,72.000000,,,,0.000000,4.000000,4.000000,4.000000,4.000000,4.000000,4.000000,4.000000,4.000000,4.000000,4.000000,4.000000,4.000000,4.000000,4.000000,100.000000,,,,,,,,,,,,,,,,,,,,,,,,,,,,
1703500448.366679,1703500448.366949,14.000000,0.000000,4243.333496,4233.974121,4308.077148,4280.769043,4233.205078,4216.666504,4245.128418,4215.000000,4203.461426,4198.205078,4526.153809,4475.769043,4382.820313,4420.641113,6035.000000,3.000000,72.000000,,,,0.000000,4.000000,4.000000,4.000000,4.000000,4.000000,4.000000,4.000000,4.000000,4.000000,4.000000,4.000000,4.000000,4.000000,4.000000,100.000000,,,,,,,,,,,,,,,,,,,,,,,,,,,,
1703500448.374488,1703500448.374857,15.000000,0.000000,4247.436035,4237.948730,4311.153809,4284.487305,4229.871582,4218.333496,4246.282227,4214.487305,4209.615234,4205.256348,4528.846191,4480.384766,4384.871582,4430.384766,6274.000000,3.000000,72.000000,,,,0.000000,4.000000,4.000000,4.000000,4.000000,4.000000,4.000000,4.000000,4.000000,4.000000,4.000000,4.000000,4.000000,4.000000,4.000000,100.000000,,,,,,,,,,,,,,,,,,,,,,,,,,,,
1703500448.382295,1703500448.382664,16.000000,0.000000,4241.410156,4239.871582,4310.512695,4290.256348,4228.974121,4223.077148,4246.922852,4215.256348,4214.615234,4208.846191,4533.205078,4478.974121,4392.307617,4429.487305,0.000000,3.000000,72.000000,,,,0.000000,4.000000,4.000000,4.000000,4.000000,4.000000,4.000000,4.000000,4.000000,4.000000,4.000000,4.000000,4.000000,4.000000,4.000000,100.000000,,,,,,,,,,,,,,,,,4.000000,0.000000,0.603538,0.307068,-0.645752,0.352783,0.995727,-0.093761,0.039556,-12.927276,-37.383636,62.382084
1703500448.390103,1703500448.390572,17.000000,0.000000,4235.641113,4245.128418,4308.461426,4295.897461,4216.282227,4220.384766,4245.769043,4217.307617,4219.743652,4215.512695,4532.436035,4477.948730,4394.615234,4425.000000,0.000000,3.000000,72.000000,,,,0.000000,4.000000,4.000000,4.000000,4.000000,4.000000,4.000000,4.000000,4.000000,4.000000,4.000000,4.000000,4.000000,4.000000,4.000000,100.000000,,,,,,,,,,,,,,,,,,,,,,,,,,,,
1703500448.397912,1703500448.398380,18.000000,0.000000,4236.153809,4248.333496,4310.769043,4294.615234,4219.871582,4217.820313,4247.307617,4217.692383,4220.897461,4219.487305,4527.563965,4480.512695,4388.717773,4422.051270,0.000000,3.000000,72.000000,,,,0.000000,4.000000,4.000000,4.000000,4.000000,4.000000,4.000000,4.000000,4.000000,4.000000,4.000000,4.000000,4.000000,4.000000,4.000000,100.000000,,,,,,,,,,,,,,,,,,,,,,,,,,,,
1703500448.405720,1703500448.406288,19.000000,0.000000,4236.025879,4241.794922,4311.922852,4293.589844,4234.615234,4223.589844,4249.615234,4216.410156,4220.384766,4215.769043,4522.820313,4477.051270,4382.436035,4416.153809,0.000000,3.000000,72.000000,,,,0.000000,4.000000,4.000000,4.000000,4.000000,4.000000,4.000000,4.000000,4.000000,4.000000,4.000000,4.000000,4.000000,4.000000,4.000000,100.000000,,,,,,,,,,,,,,,,,,,,,,,,,,,,
1703500448.413528,1703500448.414096,20.000000,0.000000,4225.512695,4232.948730,4302.051270,4293.077148,4232.692383,4230.384766,4248.974121,4215.641113,4216.410156,4208.461426,4511.794922,4463.461426,4373.077148,4407.051270,0.000000,3.000000,72.000000,,,,0.000000,4.000000,4.000000,4.000000,4.000000,4.000000,4.000000,4.000000,4.000000,4.000000,4.000000,4.000000,4.000000,4.000000,4.000000,100.000000,,,,,,,,,,,,,,,,,5.000000,0.000000,0.603466,0.307068,-0.645752,0.352905,0.980588,-0.101087,0.038091,-12.984548,-37.361938,62.593876
1703500448.421336,1703500448.421804,21.000000,0.000000,4212.436035,4232.436035,4296.538574,4291.794922,4229.102539,4229.487305,4249.743652,4212.436035,4207.307617,4196.410156,4505.256348,4456.922852,4367.692383,4404.871582,0.000000,3.000000,72.000000,,,,0.000000,4.000000,4.000000,4.000000,4.000000,4.000000,4.000000,4.000000,4.000000,4.000000,4.000000,4.000000,4.000000,4.000000,4.000000,100.000000,,,,,,,,,,,,,,,,,,,,,,,,,,,,
1703500448.429144,1703500448.429612,22.000000,0.000000,4203.077148,4234.230957,4302.820313,4293.333496,4227.051270,4222.051270,4249.230957,4207.692383,4200.256348,4188.077148,4509.615234,4461.153809,4367.307617,4403.461426,0.000000,3.000000,72.000000,,,,0.000000,4.000000,4.000000,4.000000,4.000000,4.000000,4.000000,4.000000,4.000000,4.000000,4.000000,4.000000,4.000000,4.000000,4.000000,100.000000,,,,,,,,,,,,,,,,,,,,,,,,,,,,
1703500448.436952,1703500448.437320,23.000000,0.000000,4180.000000,4234.102539,4299.615234,4293.461426,4212.563965,4216.538574,4245.128418,4204.358887,4196.794922,4184.358887,4506.153809,4454.615234,4355.512695,4394.487305,0.000000,3.000000,72.000000,,,,0.000000,4.000000,4.000000,4.000000,4.000000,4.000000,4.000000,4.000000,4.000000,4.000000,4.000000,4.000000,4.000000,4.000000,4.000000,100.000000,,,,,,,,,,,,,,,,,,,,,,,,,,,,
1703500448.444760,1703500448.445128,24.000000,0.000000,4146.153809,4239.102539,4291.410156,4291.282227,4205.000000,4218.333496,4247.692383,4201.410156,4188.461426,4173.974121,4493.205078,4443.717773,4342.179688,4385.000000,0.000000,3.000000,72.000000,,,,0.000000,4.000000,4.000000,4.000000,4.000000,4.000000,4.000000,4.000000,4.000000,4.000000,4.000000,4.000000,4.000000,4.000000,4.000000,100.000000,,,,,,,,,,,,,,,,,6.000000,0.000000,0.603328,0.307129,-0.645752,0.353088,0.988402,-0.107923,0.036626,-13.052759,-37.325745,62.634487
1703500448.452568,1703500448.452836,25.000000,0.000000,4129.230957,4246.153809,4292.948730,4291.025879,4215.641113,4221.666504,4251.922852,4200.256348,4180.128418,4165.769043,4488.846191,4443.333496,4343.205078,4385.769043,0.000000,3.000000,72.000000,,,,0.000000,4.000000,4.000000,4.000000,4.000000,4.000000,4.000000,4.000000,4.000000,4.000000,4.000000,4.000000,4.000000,4.000000,4.000000,100.000000,,,,,,,,,,,,,,,,,,,,,,,,,,,,
1703500448.460376,1703500448.460644,26.000000,0.000000,4124.358887,4250.897461,4294.102539,4294.743652,4226.794922,4223.461426,4250.128418,4200.512695,4186.922852,4175.641113,4497.948730,4444.615234,4351.922852,4392.307617,0.000000,3.000000,72.000000,,,,0.000000,4.000000,4.000000,4.000000,4.000000,4.000000,4.000000,4.000000,4.000000,4.000000,4.000000,4.000000,4.000000,4.000000,4.000000,100.000000,,,,,,,,,,,,,,,,,,,,,,,,,,,,
1703500448.468184,1703500448.468352,27.000000,0.000000,4118.077148,4256.922852,4295.128418,4302.051270,4233.333496,4228.717773,4253.846191,4199.615234,4199.102539,4195.000000,4506.794922,4449.615234,4361.025879,4397.692383,0.000000,3.000000,72.000000,,,,0.000000,4.000000,4.000000,4.000000,4.000000,4.000000,4.000000,4.000000,4.000000,4.000000,4.000000,4.000000,4.000000,4.000000,4.000000,100.000000,,,,,,,,,,,,,,,,,,,,,,,,,,,,
1703500448.475992,1703500448.476160,28.000000,0.000000,4117.563965,4265.000000,4299.871582,4310.769043,4227.436035,4232.948730,4261.922852,4203.077148,4204.230957,4207.051270,4511.410156,4456.153809,4367.948730,4403.717773,0.000000,3.000000,72.000000,,,,0.000000,4.000000,4.000000,4.000000,4.000000,4.000000,4.000000,4.000000,4.000000,4.000000,4.000000,4.000000,4.000000,4.000000,4.000000,100.000000,,,,,,,,,,,,,,,,,7.000000,0.000000,0.603023,0.307190,-0.645874,0.353333,0.989867,-0.099133,0.040044,-12.947484,-37.126503,62.671040
1703500448.483800,1703500448.483868,29.000000,0.000000,4116.666504,4268.717773,4298.205078,4314.358887,4215.512695,4232.436035,4261.538574,4206.282227,4205.384766,4205.384766,4509.871582,4451.538574,4366.025879,4404.358887,0.000000,3.000000,72.000000,,,,0.000000,4.000000,4.000000,4.000000,4.000000,4.000000,4.000000,4.000000,4.000000,4.000000,4.000000,4.000000,4.000000,4.000000,4.000000,100.000000,,,,,,,,,,,,,,,,,,,,,,,,,,,,
1703500448.491608,1703500448.491675,30.000000,0.000000,4108.333496,4266.538574,4294.743652,4311.153809,4221.410156,4232.563965,4258.333496,4201.025879,4202.692383,4193.077148,4496.538574,4442.179688,4355.128418,4396.410156,0.000000,3.000000,72.000000,,,,0.000000,4.000000,4.000000,4.000000,4.000000,4.000000,4.000000,4.000000,4.000000,4.000000,4.000000,4.000000,4.000000,4.000000,4.000000,100.000000,,,,,,,,,,,,,,,,,,,,,,,,,,,,
1703500448.499416,1703500448.499383,31.000000,0.000000,4103.974121,4263.717773,4295.384766,4309.743652,4235.641113,4232.563965,4260.641113,4197.179688,4200.128418,4181.922852,4488.717773,4441.794922,4351.922852,4393.333496,0.000000,3.000000,72.000000,,,,0.000000,4.000000,4.000000,4.000000,4.000000,4.000000,4.000000,4.000000,4.000000,4.000000,4.000000,4.000000,4.000000,4.000000,4.000000,100.000000,,,,,,,,,,,,,,,,,,,,,,,,,,,,
1703500448.507224,1703500448.507291,32.000000,0.000000,4106.025879,4263.846191,4296.410156,4310.128418,4229.358887,4229.358887,4262.948730,4201.794922,4200.512695,4184.743652,4497.051270,4446.410156,4356.922852,4399.230957,0.000000,3.000000,72.000000,,,,0.000000,4.000000,4.000000,4.000000,4.000000,4.000000,4.000000,4.000000,4.000000,4.000000,4.000000,4.000000,4.000000,4.000000,4.000000,100.000000,,,,,,,,,,,,,,,,,8.000000,0.000000,0.602774,0.307129,-0.645935,0.353699,0.988402,-0.094738,0.038579,-12.986069,-37.080521,62.670601
1703500448.515032,1703500448.515100,33.000000,0.000000,4105.256348,4266.153809,4296.794922,4311.282227,4221.410156,4232.436035,4263.461426,4203.205078,4203.205078,4188.974121,4502.307617,4445.897461,4356.794922,4401.666504,0.000000,3.000000,72.000000,,,,0.000000,4.000000,4.000000,4.000000,4.000000,4.000000,4.000000,4.000000,4.000000,4.000000,4.000000,4.000000,4.000000,4.000000,4.000000,100.000000,,,,,,,,,,,,,,,,,,,,,,,,,,,,
1703500448.522840,1703500448.523008,34.000000,0.000000,4097.436035,4262.307617,4296.794922,4308.077148,4217.948730,4232.179688,4263.589844,4199.487305,4197.051270,4176.794922,4493.974121,4443.205078,4351.282227,4398.461426,0.000000,3.000000,72.000000,,,,0.000000,4.000000,4.000000,4.000000,4.000000,4.000000,4.000000,4.000000,4.000000,4.000000,4.000000,4.000000,4.000000,4.000000,4.000000,100.000000,,,,,,,,,,,,,,,,,,,,,,,,,,,,
1703500448.530648,1703500448.530816,35.000000,0.000000,4089.358887,4251.666504,4295.641113,4297.436035,4203.077148,4220.512695,4260.128418,4200.000000,4186.922852,4163.333496,4486.538574,4443.846191,4345.128418,4397.307617,0.000000,3.000000,72.000000,,,,0.000000,4.000000,4.000000,4.000000,4.000000,4.000000,4.000000,4.000000,4.000000,4.000000,4.000000,4.000000,4.000000,4.000000,4.000000,100.000000,,,,,,,,,,,,,,,,,,,,,,,,,,,,
1703500448.538456,1703500448.538724,36.000000,0.000000,4090.000000,4247.820313,4293.974121,4292.051270,4205.641113,4219.487305,4258.974121,4202.051270,4192.692383,4177.563965,4494.487305,4445.641113,4346.538574,4402.307617,0.000000,3.000000,72.000000,,,,0.000000,4.000000,4.000000,4.000000,4.000000,4.000000,4.000000,4.000000,4.000000,4.000000,4.000000,4.000000,4.000000,4.000000,4.000000,100.000000,,,,,,,,,,,,,,,,,9.000000,0.000000,0.602566,0.307129,-0.645996,0.353943,0.989379,-0.106947,0.030277,-12.887462,-37.205803,62.703541
1703500448.546264,1703500448.546532,37.000000,0.000000,4093.846191,4253.974121,4294.487305,4296.666504,4223.589844,4230.256348,4263.589844,4201.922852,4201.025879,4198.077148,4506.666504,4444.487305,4353.205078,4411.153809,0.000000,3.000000,72.000000,,,,0.000000,4.000000,4.000000,4.000000,4.000000,4.000000,4.000000,4.000000,4.000000,4.000000,4.000000,4.000000,4.000000,4.000000,4.000000,100.000000,,,,,,,,,,,,,,,,,,,,,,,,,,,,
1703500448.554072,1703500448.554440,38.000000,0.000000,4095.000000,4258.846191,4296.538574,4299.102539,4223.589844,4230.641113,4260.641113,4201.794922,4197.179688,4193.717773,4503.846191,4446.025879,4357.820313,4413.589844,0.000000,3.000000,72.000000,,,,0.000000,4.000000,4.000000,4.000000,4.000000,4.000000,4.000000,4.000000,4.000000,4.000000,4.000000,4.000000,4.000000,4.000000,4.000000,100.000000,,,,,,,,,,,,,,,,,,,,,,,,,,,,
1703500448.561880,1703500448.562248,39.000000,0.000000,4098.461426,4257.179688,4293.717773,4295.000000,4215.512695,4221.153809,4249.743652,4200.128418,4195.641113,4183.205078,4491.666504,4445.000000,4355.000000,4409.615234,0.000000,3.000000,72.000000,,,,0.000000,4.000000,4.000000,4.000000,4.000000,4.000000,4.000000,4.000000,4.000000,4.000000,4.000000,4.000000,4.000000,4.000000,4.000000,100.000000,,,,,,,,,,,,,,,,,,,,,,,,,,,,
1703500448.569688,1703500448.570155,40.000000,0.000000,4106.025879,4263.589844,4297.436035,4299.230957,4223.333496,4219.871582,4249.358887,4198.077148,4200.641113,4186.538574,4491.538574,4442.436035,4350.384766,4410.769043,0.000000,3.000000,72.000000,,,,0.000000,4.000000,4.000000,4.000000,4.000000,4.000000,4.000000,4.000000,4.000000,4.000000,4.000000,4.000000,4.000000,4.000000,4.000000,100.000000,,,,,,,,,,,,,,,,,10.000000,0.000000,0.602393,0.307129,-0.646057,0.354126,0.985472,-0.094250,0.034184,-12.815382,-37.285221,62.766521
1703500448.577496,1703500448.577963,41.000000,0.000000,4108.589844,4267.307617,4302.692383,4303.589844,4226.282227,4220.769043,4251.153809,4197.563965,4198.717773,4187.307617,4496.538574,4445.128418,4352.563965,4412.307617,0.000000,3.000000,72.000000,,,,0.000000,4.000000,4.000000,4.000000,4.000000,4.000000,4.000000,4.000000,4.000000,4.000000,4.000000,4.000000,4.000000,4.000000,4.000000,100.000000,,,,,,,,,,,,,,,,,,,,,,,,,,,,
1703500448.585304,1703500448.585871,42.000000,0.000000,4105.641113,4254.358887,4296.538574,4295.897461,4212.692383,4217.563965,4245.000000,4198.846191,4196.666504,4183.717773,4496.153809,4446.538574,4354.358887,4411.153809,0.000000,3.000000,72.000000,,,,0.000000,4.000000,4.000000,4.000000,4.000000,4.000000,4.000000,4.000000,4.000000,4.000000,4.000000,4.000000,4.000000,4.000000,4.000000,100.000000,,,,,,,,,,,,,,,,,,,,,,,,,,,,
1703500448.593112,1703500448.593679,43.000000,0.000000,4110.000000,4252.051270,4297.820313,4291.282227,4215.897461,4223.589844,4250.256348,4202.436035,4199.487305,4184.230957,4496.153809,4450.128418,4347.436035,4416.282227,0.000000,3.000000,72.000000,,,,0.000000,4.000000,4.000000,4.000000,4.000000,4.000000,4.000000,4.000000,4.000000,4.000000,4.000000,4.000000,4.000000,4.000000,4.000000,100.000000,,,,,,,,,,,,,,,,,,,,,,,,,,,,
1703500448.600921,1703500448.601387,44.000000,0.000000,4119.743652,4263.461426,4309.358887,4295.769043,4232.692383,4235.128418,4262.563965,4209.230957,4200.000000,4181.153809,4500.512695,4457.179688,4342.436035,4425.769043,0.000000,3.000000,72.000000,,,,0.000000,4.000000,4.000000,4.000000,4.000000,4.000000,4.000000,4.000000,4.000000,4.000000,4.000000,4.000000,4.000000,4.000000,4.000000,100.000000,,,,,,,,,,,,,,,,,11.000000,0.000000,0.602318,0.307007,-0.646118,0.354248,0.984984,-0.101087,0.033696,-12.867177,-37.473366,62.706535
1703500448.608729,1703500448.609195,45.000000,0.000000,4128.333496,4266.282227,4311.410156,4297.692383,4237.692383,4238.333496,4264.358887,4218.205078,4202.179688,4180.384766,4506.410156,4463.205078,4349.358887,4430.384766,0.000000,3.000000,72.000000,,,,0.000000,4.000000,4.000000,4.000000,4.000000,4.000000,4.000000,4.000000,4.000000,4.000000,4.000000,4.000000,4.000000,4.000000,4.000000,100.000000,,,,,,,,,,,,,,,,,,,,,,,,,,,,
1703500448.616537,1703500448.616903,46.000000,0.000000,4132.692383,4263.333496,4308.205078,4295.512695,4230.897461,4235.128418,4260.512695,4217.179688,4203.205078,4185.897461,4503.974121,4461.794922,4352.563965,4428.974121,0.000000,3.000000,72.000000,,,,0.000000,4.000000,4.000000,4.000000,4.000000,4.000000,4.000000,4.000000,4.000000,4.000000,4.000000,4.000000,4.000000,4.000000,4.000000,100.000000,,,,,,,,,,,,,,,,,,,,,,,,,,,,
1703500448.624344,1703500448.624711,47.000000,0.000000,4139.487305,4265.128418,4315.769043,4298.333496,4221.922852,4230.256348,4256.025879,4207.307617,4200.641113,4179.102539,4500.128418,4459.102539,4350.897461,4433.846191,0.000000,3.000000,72.000000,,,,0.000000,4.000000,4.000000,4.000000,4.000000,4.000000,4.000000,4.000000,4.000000,4.000000,4.000000,4.000000,4.000000,4.000000,4.000000,100.000000,,,,,,,,,,,,,,,,,,,,,,,,,,,,
1703500448.632153,1703500448.632419,48.000000,0.000000,4150.512695,4269.487305,4326.282227,4305.897461,4211.410156,4221.282227,4250.000000,4206.922852,4200.384766,4171.666504,4503.461426,4467.692383,4356.410156,4443.974121,0.000000,3.000000,72.000000,,,,0.000000,4.000000,4.000000,4.000000,4.000000,4.000000,4.000000,4.000000,4.000000,4.000000,4.000000,4.000000,4.000000,4.000000,4.000000,100.000000,,,,,,,,,,,,,,,,,12.000000,0.000000,0.602180,0.307007,-0.646179,0.354370,0.976193,-0.087901,0.043951,-12.747127,-37.526028,62.685883
1703500448.639961,1703500448.640328,49.000000,0.000000,4157.051270,4277.692383,4329.102539,4312.820313,4215.897461,4216.282227,4247.948730,4215.769043,4204.230957,4190.897461,4511.025879,4477.436035,4364.871582,4448.461426,0.000000,3.000000,72.000000,,,,0.000000,4.000000,4.000000,4.000000,4.000000,4.000000,4.000000,4.000000,4.000000,4.000000,4.000000,4.000000,4.000000,4.000000,4.000000,100.000000,,,,,,,,,,,,,,,,,,,,,,,,,,,,
1703500448.647769,1703500448.648136,50.000000,0.000000,4154.743652,4281.538574,4328.333496,4312.563965,4232.948730,4218.461426,4249.743652,4216.666504,4206.025879,4209.358887,4516.538574,4478.205078,4366.794922,4445.256348,0.000000,3.000000,72.000000,,,,0.000000,4.000000,4.000000,4.000000,4.000000,4.000000,4.000000,4.000000,4.000000,4.000000,4.000000,4.000000,4.000000,4.000000,4.000000,100.000000,,,,,,,,,,,,,,,,,,,,,,,,,,,,
1703500448.655577,1703500448.655944,51.000000,0.000000,4150.256348,4269.743652,4327.563965,4309.230957,4231.282227,4221.666504,4248.077148,4213.461426,4203.077148,4196.666504,4520.000000,4473.717773,4365.128418,4443.333496,0.000000,3.000000,72.000000,,,,0.000000,4.000000,4.000000,4.000000,4.000000,4.000000,4.000000,4.000000,4.000000,4.000000,4.000000,4.000000,4.000000,4.000000,4.000000,100.000000,,,,,,,,,,,,,,,,,,,,,,,,,,,,
1703500448.663385,1703500448.663652,52.000000,0.000000,4152.692383,4262.563965,4322.436035,4307.948730,4231.153809,4228.717773,4246.153809,4214.487305,4202.179688,4192.051270,4520.000000,4470.000000,4365.769043,4446.153809,0.000000,3.000000,72.000000,,,,0.000000,4.000000,4.000000,4.000000,4.000000,4.000000,4.000000,4.000000,4.000000,4.000000,4.000000,4.000000,4.000000,4.000000,4.000000,100.000000,,,,,,,,,,,,,,,,,13.000000,0.000000,0.602066,0.307007,-0.646118,0.354675,0.969845,-0.106458,0.038579,-12.639080,-37.490093,62.700626
1703500448.671193,1703500448.671459,53.000000,0.000000,4149.871582,4262.179688,4313.846191,4301.538574,4231.794922,4227.307617,4243.333496,4207.948730,4202.307617,4200.000000,4511.666504,4463.205078,4361.282227,4439.230957,0.000000,3.000000,72.000000,,,,0.000000,4.000000,4.000000,4.000000,4.000000,4.000000,4.000000,4.000000,4.000000,4.000000,4.000000,4.000000,4.000000,4.000000,4.000000,100.000000,,,,,,,,,,,,,,,,,,,,,,,,,,,,
1703500448.679001,1703500448.679167,54.000000,0.000000,4142.051270,4254.743652,4308.589844,4294.358887,4217.179688,4215.641113,4236.794922,4198.333496,4199.871582,4190.769043,4505.897461,4456.153809,4352.692383,4426.282227,0.000000,3.000000,72.000000,,,,0.000000,4.000000,4.000000,4.000000,4.000000,4.000000,4.000000,4.000000,4.000000,4.000000,4.000000,4.000000,4.000000,4.000000,4.000000,100.000000,,,,,,,,,,,,,,,,,,,,,,,,,,,,
1703500448.686809,1703500448.687075,55.000000,0.000000,4139.358887,4246.410156,4307.563965,4290.769043,4217.563965,4220.256348,4238.974121,4204.871582,4198.205078,4190.256348,4510.000000,4458.974121,4352.307617,4423.974121,0.000000,3.000000,72.000000,,,,0.000000,4.000000,4.000000,4.000000,4.000000,4.000000,4.000000,4.000000,4.000000,4.000000,4.000000,4.000000,4.000000,4.000000,4.000000,100.000000,,,,,,,,,,,,,,,,,,,,,,,,,,,,
1703500448.694617,1703500448.694884,56.000000,0.000000,4139.487305,4244.230957,4310.641113,4288.717773,4235.384766,4232.563965,4246.282227,4215.897461,4201.410156,4202.563965,4517.948730,4463.846191,4356.025879,4429.487305,0.000000,3.000000,72.000000,,,,0.000000,4.000000,4.000000,4.000000,4.000000,4.000000,4.000000,4.000000,4.000000,4.000000,4.000000,4.000000,4.000000,4.000000,4.000000,100.000000,,,,,,,,,,,,,,,,,14.000000,0.000000,0.602005,0.307312,-0.645996,0.354736,0.981565,-0.101575,0.030277,-12.608505,-37.524418,62.730564
1703500448.702425,1703500448.702792,57.000000,0.000000,4138.589844,4247.948730,4311.922852,4287.563965,4231.153809,4227.692383,4244.743652,4217.563965,4209.230957,4201.922852,4520.897461,4462.051270,4355.128418,4428.589844,0.000000,3.000000,72.000000,,,,0.000000,4.000000,4.000000,4.000000,4.000000,4.000000,4.000000,4.000000,4.000000,4.000000,4.000000,4.000000,4.000000,4.000000,4.000000,100.000000,,,,,,,,,,,,,,,,,,,,,,,,,,,,
1703500448.710233,1703500448.710600,58.000000,0.000000,4139.358887,4249.358887,4308.205078,4290.897461,4219.615234,4218.077148,4241.153809,4218.461426,4218.205078,4198.974121,4522.051270,4463.717773,4356.666504,4420.641113,0.000000,3.000000,72.000000,,,,0.000000,4.000000,4.000000,4.000000,4.000000,4.000000,4.000000,4.000000,4.000000,4.000000,4.000000,4.000000,4.000000,4.000000,4.000000,100.000000,,,,,,,,,,,,,,,,,,,,,,,,,,,,
1703500448.718041,1703500448.718508,59.000000,0.000000,4140.512695,4245.641113,4306.538574,4289.743652,4215.512695,4216.922852,4240.128418,4222.051270,4218.333496,4195.641113,4523.077148,4468.717773,4359.358887,4420.769043,0.000000,3.000000,72.000000,,,,0.000000,4.000000,4.000000,4.000000,4.000000,4.000000,4.000000,4.000000,4.000000,4.000000,4.000000,4.000000,4.000000,4.000000,4.000000,100.000000,,,,,,,,,,,,,,,,,,,,,,,,,,,,
1703500448.725849,1703500448.726316,60.000000,0.000000,4140.897461,4241.794922,4306.538574,4281.666504,4201.922852,4216.282227,4234.487305,4220.256348,4206.666504,4187.307617,4523.974121,4464.743652,4357.179688,4426.025879,0.000000,3.000000,72.000000,,,,0.000000,4.000000,4.000000,4.000000,4.000000,4.000000,4.000000,4.000000,4.000000,4.000000,4.000000,4.000000,4.000000,4.000000,4.000000,100.000000,,,,,,,,,,,,,,,,,15.000000,0.000000,0.601969,0.307556,-0.645813,0.354919,0.988402,-0.093273,0.037602,-12.614322,-37.621975,62.740841
1703500448.733657,1703500448.734224,61.000000,0.000000,4145.769043,4243.589844,4307.179688,4284.102539,4204.743652,4214.487305,4231.410156,4216.410156,4200.897461,4198.974121,4528.717773,4464.102539,4359.102539,4425.897461,0.000000,3.000000,72.000000,,,,0.000000,4.000000,4.000000,4.000000,4.000000,4.000000,4.000000,4.000000,4.000000,4.000000,4.000000,4.000000,4.000000,4.000000,4.000000,100.000000,,,,,,,,,,,,,,,,,,,,,,,,,,,,
1703500448.741465,1703500448.742132,62.000000,0.000000,4153.974121,4248.846191,4313.205078,4297.051270,4231.410156,4217.692383,4235.384766,4216.794922,4209.615234,4219.615234,4534.743652,4474.871582,4370.128418,4432.307617,0.000000,3.000000,72.000000,,,,0.000000,4.000000,4.000000,4.000000,4.000000,4.000000,4.000000,4.000000,4.000000,4.000000,4.000000,4.000000,4.000000,4.000000,4.000000,100.000000,,,,,,,,,,,,,,,,,,,,,,,,,,,,
1703500448.749273,1703500448.749940,63.000000,0.000000,4161.922852,4250.256348,4320.641113,4301.153809,4236.794922,4218.974121,4234.358887,4217.948730,4212.563965,4216.538574,4540.512695,4480.769043,4379.102539,4443.589844,0.000000,3.000000,72.000000,,,,0.000000,4.000000,4.000000,4.000000,4.000000,4.000000,4.000000,4.000000,4.000000,4.000000,4.000000,4.000000,4.000000,4.000000,4.000000,100.000000,,,,,,,,,,,,,,,,,,,,,,,,,,,,
1703500448.757081,1703500448.757749,64.000000,0.000000,4168.974121,4250.384766,4321.025879,4296.025879,4227.692383,4218.077148,4231.410156,4212.051270,4203.717773,4211.538574,4536.538574,4477.179688,4376.282227,4436.794922,5592.000000,3.000000,72.000000,,,,0.000000,4.000000,4.000000,4.000000,4.000000,4.000000,4.000000,4.000000,4.000000,4.000000,4.000000,4.000000,4.000000,4.000000,4.000000,100.000000,,,,,,,,,,,,,,,,,16.000000,0.000000,0.601945,0.307495,-0.645630,0.355347,0.988890,-0.108900,0.041021,-12.636223,-37.609779,62.850090
1703500448.764889,1703500448.765657,65.000000,0.000000,4171.538574,4250.128418,4315.512695,4296.153809,4231.282227,4222.692383,4233.205078,4200.769043,4197.436035,4213.846191,4525.897461,4469.871582,4368.974121,4425.128418,5554.000000,3.000000,72.000000,,,,0.000000,4.000000,4.000000,4.000000,4.000000,4.000000,4.000000,4.000000,4.000000,4.000000,4.000000,4.000000,4.000000,4.000000,4.000000,100.000000,,,,,,,,,,,,,,,,,,,,,,,,,,,,
1703500448.772697,1703500448.773465,66.000000,0.000000,4165.000000,4247.692383,4310.769043,4297.692383,4224.358887,4229.102539,4232.948730,4200.641113,4199.743652,4207.563965,4519.871582,4460.769043,4364.743652,4428.205078,5394.000000,3.000000,72.000000,,,,0.000000,4.000000,4.000000,4.000000,4.000000,4.000000,4.000000,4.000000,4.000000,4.000000,4.000000,4.000000,4.000000,4.000000,4.000000,100.000000,,,,,,,,,,,,,,,,,,,,,,,,,,,,
1703500448.780505,1703500448.781273,67.000000,0.000000,4158.589844,4246.025879,4309.743652,4293.846191,4210.256348,4228.333496,4232.820313,4211.282227,4206.922852,4205.512695,4522.692383,4460.000000,4366.025879,4428.589844,5382.000000,3.000000,72.000000,,,,0.000000,4.000000,4.000000,4.000000,4.000000,4.000000,4.000000,4.000000,4.000000,4.000000,4.000000,4.000000,4.000000,4.000000,4.000000,100.000000,,,,,,,,,,,,,,,,,,,,,,,,,,,,
1703500448.788313,1703500448.789081,68.000000,0.000000,4163.077148,4247.563965,4309.871582,4291.538574,4224.487305,4226.538574,4240.256348,4219.871582,4218.846191,4216.410156,4532.051270,4467.307617,4372.179688,4427.948730,5318.000000,3.000000,72.000000,,,,0.000000,4.000000,4.000000,4.000000,4.000000,4.000000,4.000000,4.000000,4.000000,4.000000,4.000000,4.000000,4.000000,4.000000,4.000000,100.000000,,,,,,,,,,,,,,,,,17.000000,0.000000,0.601804,0.307373,-0.645752,0.355469,0.993285,-0.110853,0.044439,-12.655934,-37.598801,62.865082
1703500448.796121,1703500448.796789,69.000000,0.000000,4169.743652,4247.307617,4307.436035,4287.948730,4237.436035,4231.794922,4246.922852,4225.897461,4226.794922,4220.897461,4534.358887,4469.102539,4372.051270,4433.077148,5258.000000,3.000000,72.000000,,,,0.000000,4.000000,4.000000,4.000000,4.000000,4.000000,4.000000,4.000000,4.000000,4.000000,4.000000,4.000000,4.000000,4.000000,4.000000,100.000000,,,,,,,,,,,,,,,,,,,,,,,,,,,,
1703500448.803929,1703500448.804597,70.000000,0.000000,4164.743652,4242.948730,4300.512695,4281.794922,4223.205078,4230.256348,4243.589844,4230.641113,4223.077148,4215.512695,4527.179688,4461.666504,4366.794922,4429.615234,4629.000000,3.000000,72.000000,,,,0.000000,4.000000,4.000000,4.000000,4.000000,4.000000,4.000000,4.000000,4.000000,4.000000,4.000000,4.000000,4.000000,4.000000,4.000000,100.000000,,,,,,,,,,,,,,,,,,,,,,,,,,,,
1703500448.811737,1703500448.812305,71.000000,0.000000,4160.128418,4242.948730,4295.256348,4281.410156,4217.179688,4220.384766,4243.846191,4228.846191,4219.102539,4213.461426,4523.461426,4457.820313,4364.102539,4423.717773,5111.000000,3.000000,72.000000,,,,0.000000,4.000000,4.000000,4.000000,4.000000,4.000000,4.000000,4.000000,4.000000,4.000000,4.000000,4.000000,4.000000,4.000000,4.000000,100.000000,,,,,,,,,,,,,,,,,,,,,,,,,,,,
1703500448.819545,1703500448.820113,72.000000,0.000000,4167.051270,4246.025879,4295.769043,4281.538574,4215.897461,4216.025879,4246.922852,4222.820313,4215.000000,4214.487305,4526.282227,4462.820313,4360.256348,4426.282227,5384.000000,3.000000,72.000000,,,,0.000000,4.000000,4.000000,4.000000,4.000000,4.000000,4.000000,4.000000,4.000000,4.000000,4.000000,4.000000,4.000000,4.000000,4.000000,100.000000,1.000000,91.666664,4.000000,4.000000,4.000000,4.000000,4.000000,3.000000,4.000000,4.000000,4.000000,4.000000,4.000000,4.000000,4.000000,4.000000,18.000000,0.000000,0.601639,0.307312,-0.645935,0.355469,0.978147,-0.106458,0.037114,-12.623673,-37.705585,62.961906
1703500448.827354,1703500448.827821,73.000000,0.000000,4171.025879,4241.538574,4292.051270,4271.025879,4199.871582,4216.538574,4241.410156,4218.589844,4205.128418,4212.307617,4524.615234,4465.000000,4356.025879,4431.153809,5422.000000,3.000000,72.000000,,,,0.000000,4.000000,4.000000,4.000000,4.000000,4.000000,4.000000,4.000000,4.000000,4.000000,4.000000,4.000000,4.000000,4.000000,4.000000,100.000000,,,,,,,,,,,,,,,,,,,,,,,,,,,,
1703500448.835162,1703500448.835629,74.000000,0.000000,4168.461426,4234.102539,4282.307617,4262.563965,4202.051270,4215.641113,4240.641113,4216.794922,4197.307617,4207.820313,4522.563965,4463.974121,4357.179688,4427.563965,6032.000000,3.000000,72.000000,,,,0.000000,4.000000,4.000000,4.000000,4.000000,4.000000,4.000000,4.000000,4.000000,4.000000,4.000000,4.000000,4.000000,4.000000,4.000000,100.000000,,,,,,,,,,,,,,,,,,,,,,,,,,,,
1703500448.842970,1703500448.843337,75.000000,0.000000,4168.846191,4233.589844,4277.692383,4261.282227,4221.282227,4216.666504,4247.179688,4216.794922,4199.615234,4204.102539,4526.282227,4466.282227,4356.922852,4420.128418,6272.000000,3.000000,72.000000,,,,0.000000,4.000000,4.000000,4.000000,4.000000,4.000000,4.000000,4.000000,4.000000,4.000000,4.000000,4.000000,4.000000,4.000000,4.000000,100.000000,,,,,,,,,,,,,,,,,,,,,,,,,,,,
1703500448.850778,1703500448.851144,76.000000,0.000000,4170.384766,4232.692383,4277.692383,4252.820313,4213.461426,4217.948730,4246.153809,4216.794922,4201.282227,4200.769043,4525.128418,4467.436035,4352.307617,4422.820313,6788.000000,3.000000,72.000000,,,,0.000000,4.000000,4.000000,4.000000,4.000000,4.000000,4.000000,4.000000,4.000000,4.000000,4.000000,4.000000,4.000000,4.000000,4.000000,100.000000,,,,,,,,,,,,,,,,,19.000000,0.000000,0.601508,0.307312,-0.646057,0.355469,0.988402,-0.094250,0.038579,-12.577973,-37.618362,62.832382
1703500448.858586,1703500448.858852,77.000000,0.000000,4168.461426,4228.333496,4275.897461,4244.230957,4203.205078,4216.025879,4243.205078,4216.410156,4198.589844,4198.333496,4522.436035,4464.743652,4351.922852,4425.769043,7271.000000,3.000000,72.000000,,,,0.000000,4.000000,4.000000,4.000000,4.000000,4.000000,4.000000,4.000000,4.000000,4.000000,4.000000,4.000000,4.000000,4.000000,4.000000,100.000000,,,,,,,,,,,,,,,,,,,,,,,,,,,,
1703500448.866394,1703500448.866660,78.000000,0.000000,4170.256348,4231.666504,4275.128418,4245.769043,4216.922852,4219.102539,4245.384766,4217.948730,4207.051270,4203.846191,4527.948730,4463.077148,4356.666504,4425.128418,6032.000000,3.000000,72.000000,,,,0.000000,4.000000,4.000000,4.000000,4.000000,4.000000,4.000000,4.000000,4.000000,4.000000,4.000000,4.000000,4.000000,4.000000,4.000000,100.000000,,,,,,,,,,,,,,,,,,,,,,,,,,,,
1703500448.874202,1703500448.874368,79.000000,0.000000,4172.948730,4229.102539,4273.589844,4242.179688,4208.846191,4221.282227,4244.230957,4217.948730,4216.794922,4205.512695,4530.897461,4462.948730,4351.922852,4426.922852,6272.000000,3.000000,72.000000,,,,0.000000,4.000000,4.000000,4.000000,4.000000,4.000000,4.000000,4.000000,4.000000,4.000000,4.000000,4.000000,4.000000,4.000000,4.000000,100.000000,,,,,,,,,,,,,,,,,,,,,,,,,,,,
1703500448.882010,1703500448.882276,80.000000,0.000000,4167.563965,4217.692383,4270.512695,4229.230957,4188.717773,4217.307617,4242.307617,4219.487305,4214.743652,4197.436035,4522.948730,4460.384766,4342.179688,4423.077148,6788.000000,3.000000,72.000000,,,,0.000000,4.000000,4.000000,4.000000,4.000000,4.000000,4.000000,4.000000,4.000000,4.000000,4.000000,4.000000,4.000000,4.000000,4.000000,100.000000,,,,,,,,,,,,,,,,,20.000000,0.000000,0.601406,0.307312,-0.646118,0.355530,0.975705,-0.095715,0.040044,-12.520176,-37.723190,62.932476
1703500448.889818,1703500448.890084,81.000000,0.000000,4167.051270,4220.384766,4272.307617,4229.743652,4204.102539,4221.922852,4245.897461,4226.282227,4214.358887,4198.974121,4520.384766,4459.102539,4339.487305,4412.563965,7271.000000,3.000000,72.000000,,,,0.000000,4.000000,4.000000,4.000000,4.000000,4.000000,4.000000,4.000000,4.000000,4.000000,4.000000,4.000000,4.000000,4.000000,4.000000,100.000000,,,,,,,,,,,,,,,,,,,,,,,,,,,,
1703500448.897626,1703500448.897992,82.000000,0.000000,4180.769043,4232.820313,4279.871582,4234.871582,4224.487305,4231.282227,4247.948730,4228.205078,4216.794922,4199.743652,4526.153809,4463.717773,4336.794922,4414.487305,6032.000000,3.000000,72.000000,,,,0.000000,4.000000,4.000000,4.000000,4.000000,4.000000,4.000000,4.000000,4.000000,4.000000,4.000000,4.000000,4.000000,4.000000,4.000000,100.000000,,,,,,,,,,,,,,,,,,,,,,,,,,,,
1703500448.905434,1703500448.905800,83.000000,0.000000,4184.487305,4235.384766,4283.333496,4213.717773,4218.974121,4227.436035,4247.563965,4220.256348,4211.922852,4187.692383,4522.051270,4460.128418,4328.205078,4416.282227,6272.000000,3.000000,72.000000,,,,0.000000,4.000000,4.000000,4.000000,4.000000,4.000000,4.000000,4.000000,4.000000,4.000000,4.000000,4.000000,4.000000,4.000000,4.000000,100.000000,,,,,,,,,,,,,,,,,,,,,,,,,,,,
1703500448.913242,1703500448.913708,84.000000,0.000000,4171.153809,4227.051270,4278.717773,4175.641113,4200.384766,4215.384766,4247.692383,4207.820313,4199.230957,4181.538574,4504.230957,4441.666504,4315.897461,4398.461426,6788.000000,3.000000,72.000000,,,,0.000000,4.000000,4.000000,4.000000,4.000000,4.000000,4.000000,4.000000,4.000000,4.000000,4.000000,4.000000,4.000000,4.000000,4.000000,100.000000,,,,,,,,,,,,,,,,,21.000000,0.000000,0.601125,0.307495,-0.646057,0.355957,0.985472,-0.109877,0.037114,-12.668159,-37.750874,62.922562
1703500448.921050,1703500448.921516,85.000000,0.000000,4172.179688,4225.000000,4275.769043,4160.641113,4185.897461,4213.461426,4244.230957,4199.743652,4187.948730,4185.384766,4492.948730,4429.102539,4307.820313,4386.922852,7271.000000,3.000000,72.000000,,,,0.000000,4.000000,4.000000,4.000000,4.000000,4.000000,4.000000,4.000000,4.000000,4.000000,4.000000,4.000000,4.000000,4.000000,4.000000,100.000000,,,,,,,,,,,,,,,,,,,,,,,,,,,,
1703500448.928858,1703500448.929424,86.000000,0.000000,4188.077148,4232.307617,4279.358887,4169.358887,4193.461426,4216.282227,4238.589844,4197.051270,4184.487305,4186.922852,4498.974121,4430.897461,4316.025879,4394.487305,6032.000000,3.000000,72.000000,,,,0.000000,4.000000,4.000000,4.000000,4.000000,4.000000,4.000000,4.000000,4.000000,4.000000,4.000000,4.000000,4.000000,4.000000,4.000000,100.000000,,,,,,,,,,,,,,,,,,,,,,,,,,,,
1703500448.936666,1703500448.937232,87.000000,0.000000,4192.436035,4236.410156,4283.974121,4172.307617,4217.692383,4217.051270,4240.641113,4192.179688,4186.794922,4187.436035,4508.589844,4435.641113,4325.897461,4401.025879,6272.000000,3.000000,72.000000,,,,0.000000,4.000000,4.000000,4.000000,4.000000,4.000000,4.000000,4.000000,4.000000,4.000000,4.000000,4.000000,4.000000,4.000000,4.000000,100.000000,,,,,,,,,,,,,,,,,,,,,,,,,,,,
1703500448.944474,1703500448.945140,88.000000,0.000000,4186.666504,4232.820313,4281.153809,4168.589844,4220.897461,4221.666504,4245.256348,4187.820313,4185.512695,4187.948730,4503.846191,4432.436035,4318.846191,4397.179688,6788.000000,3.000000,72.000000,,,,0.000000,4.000000,4.000000,4.000000,4.000000,4.000000,4.000000,4.000000,4.000000,4.000000,4.000000,4.000000,4.000000,4.000000,4.000000,100.000000,,,,,,,,,,,,,,,,,22.000000,0.000000,0.601021,0.307800,-0.645874,0.356201,0.987914,-0.112807,0.025882,-12.668009,-37.825787,62.880306
1703500448.952282,1703500448.952948,89.000000,0.000000,4184.358887,4228.461426,4273.974121,4168.846191,4212.307617,4227.051270,4244.102539,4192.179688,4185.000000,4185.256348,4492.051270,4426.666504,4313.461426,4392.563965,7271.000000,3.000000,72.000000,,,,0.000000,4.000000,4.000000,4.000000,4.000000,4.000000,4.000000,4.000000,4.000000,4.000000,4.000000,4.000000,4.000000,4.000000,4.000000,100.000000,,,,,,,,,,,,,,,,,,,,,,,,,,,,
1703500448.960090,1703500448.960856,90.000000,0.000000,4185.256348,4227.179688,4275.384766,4171.538574,4219.230957,4229.615234,4244.743652,4201.025879,4193.077148,4185.256348,4494.230957,4428.461426,4321.794922,4395.000000,6032.000000,3.000000,72.000000,,,,0.000000,4.000000,4.000000,4.000000,4.000000,4.000000,4.000000,4.000000,4.000000,4.000000,4.000000,4.000000,4.000000,4.000000,4.000000,100.000000,,,,,,,,,,,,,,,,,,,,,,,,,,,,
1703500448.967898,1703500448.968664,91.000000,0.000000,4185.000000,4226.922852,4278.589844,4177.820313,4213.717773,4227.948730,4245.769043,4203.077148,4201.025879,4186.922852,4506.922852,4434.230957,4326.025879,4399.871582,6272.000000,3.000000,72.000000,,,,0.000000,4.000000,4.000000,4.000000,4.000000,4.000000,4.000000,4.000000,4.000000,4.000000,4.000000,4.000000,4.000000,4.000000,4.000000,100.000000,,,,,,,,,,,,,,,,,,,,,,,,,,,,
1703500448.975706,1703500448.976372,92.000000,0.000000,4185.641113,4228.205078,4276.794922,4183.974121,4198.589844,4222.563965,4242.051270,4204.102539,4202.692383,4190.384766,4509.871582,4439.102539,4324.871582,4402.307617,6788.000000,3.000000,72.000000,,,,0.000000,4.000000,4.000000,4.000000,4.000000,4.000000,4.000000,4.000000,4.000000,4.000000,4.000000,4.000000,4.000000,4.000000,4.000000,100.000000,,,,,,,,,,,,,,,,,23.000000,0.000000,0.601028,0.308228,-0.645630,0.356262,0.988402,-0.109877,0.037114,-12.451208,-37.809872,62.792274
1703500448.983514,1703500448.984180,93.000000,0.000000,4191.538574,4228.974121,4280.000000,4188.846191,4208.717773,4219.102539,4242.179688,4208.846191,4204.102539,4189.743652,4508.974121,4443.205078,4328.077148,4402.820313,7271.000000,3.000000,72.000000,,,,0.000000,4.000000,4.000000,4.000000,4.000000,4.000000,4.000000,4.000000,4.000000,4.000000,4.000000,4.000000,4.000000,4.000000,4.000000,100.000000,,,,,,,,,,,,,,,,,,,,,,,,,,,,
1703500448.991322,1703500448.991888,94.000000,0.000000,4199.615234,4227.692383,4290.384766,4195.256348,4223.846191,4219.358887,4245.000000,4215.000000,4204.615234,4183.589844,4515.128418,4450.128418,4334.358887,4409.871582,6032.000000,3.000000,72.000000,,,,0.000000,4.000000,4.000000,4.000000,4.000000,4.000000,4.000000,4.000000,4.000000,4.000000,4.000000,4.000000,4.000000,4.000000,4.000000,100.000000,,,,,,,,,,,,,,,,,,,,,,,,,,,,
1703500448.999130,1703500448.999696,95.000000,0.000000,4202.948730,4223.077148,4296.538574,4200.769043,4216.794922,4217.692383,4242.051270,4216.794922,4196.794922,4183.717773,4516.282227,4454.743652,4333.589844,4417.820313,6272.000000,3.000000,72.000000,,,,0.000000,4.000000,4.000000,4.000000,4.000000,4.000000,4.000000,4.000000,4.000000,4.000000,4.000000,4.000000,4.000000,4.000000,4.000000,100.000000,,,,,,,,,,,,,,,,,,,,,,,,,,,,
1703500449.006938,1703500449.007404,96.000000,0.000000,4201.538574,4218.205078,4293.589844,4201.666504,4211.025879,4216.025879,4239.102539,4208.974121,4185.641113,4176.538574,4502.820313,4451.153809,4319.487305,4414.102539,6788.000000,3.000000,72.000000,,,,0.000000,4.000000,4.000000,4.000000,4.000000,4.000000,4.000000,4.000000,4.000000,4.000000,4.000000,4.000000,4.000000,4.000000,4.000000,100.000000,,,,,,,,,,,,,,,,,24.000000,0.000000,0.601201,0.308472,-0.645386,0.356201,0.995239,-0.116225,0.040532,-12.656087,-37.728886,62.813049
1703500449.014746,1703500449.015212,97.000000,0.000000,4201.153809,4219.230957,4292.563965,4202.820313,4220.769043,4219.358887,4240.512695,4201.282227,4179.102539,4157.179688,4492.692383,4446.282227,4310.000000,4404.230957,7271.000000,3.000000,72.000000,,,,0.000000,4.000000,4.000000,4.000000,4.000000,4.000000,4.000000,4.000000,4.000000,4.000000,4.000000,4.000000,4.000000,4.000000,4.000000,100.000000,,,,,,,,,,,,,,,,,,,,,,,,,,,,
1703500449.022554,1703500449.022920,98.000000,0.000000,4202.307617,4218.846191,4296.282227,4207.563965,4213.205078,4217.948730,4237.436035,4196.666504,4170.769043,4155.641113,4490.512695,4443.717773,4311.794922,4396.794922,6032.000000,3.000000,72.000000,,,,0.000000,4.000000,4.000000,4.000000,4.000000,4.000000,4.000000,4.000000,4.000000,4.000000,4.000000,4.000000,4.000000,4.000000,4.000000,100.000000,,,,,,,,,,,,,,,,,,,,,,,,,,,,
1703500449.030362,1703500449.030727,99.000000,0.000000,4201.666504,4213.333496,4295.128418,4211.410156,4200.000000,4214.358887,4229.615234,4189.615234,4165.769043,4166.794922,4491.153809,4442.436035,4310.000000,4400.128418,6272.000000,3.000000,72.000000,,,,0.000000,4.000000,4.000000,4.000000,4.000000,4.000000,4.000000,4.000000,4.000000,4.000000,4.000000,4.000000,4.000000,4.000000,4.000000,100.000000,,,,,,,,,,,,,,,,,,,,,,,,,,,,
1703500449.038170,1703500449.038435,100.000000,0.000000,4207.820313,4217.820313,4295.256348,4215.512695,4212.563965,4215.128418,4230.897461,4191.153809,4173.077148,4170.384766,4498.717773,4447.563965,4308.974121,4410.000000,6788.000000,3.000000,72.000000,,,,0.000000,4.000000,4.000000,4.000000,4.000000,4.000000,4.000000,4.000000,4.000000,4.000000,4.000000,4.000000,4.000000,4.000000,4.000000,100.000000,,,,,,,,,,,,,,,,,25.000000,0.000000,0.601252,0.308655,-0.645386,0.355957,0.983518,-0.116713,0.047369,-12.757145,-37.655998,62.715076
1703500449.045978,1703500449.046243,101.000000,0.000000,4218.333496,4225.897461,4304.615234,4218.717773,4224.743652,4220.512695,4238.077148,4206.794922,4189.871582,4177.820313,4513.333496,4460.384766,4322.179688,4417.692383,7271.000000,3.000000,72.000000,,,,0.000000,4.000000,4.000000,4.000000,4.000000,4.000000,4.000000,4.000000,4.000000,4.000000,4.000000,4.000000,4.000000,4.000000,4.000000,100.000000,,,,,,,,,,,,,,,,,,,,,,,,,,,,
1703500449.053786,1703500449.053951,102.000000,0.000000,4220.769043,4222.563965,4310.256348,4219.487305,4217.820313,4225.128418,4242.307617,4218.717773,4202.307617,4187.948730,4524.102539,4469.230957,4337.179688,4422.948730,6032.000000,3.000000,72.000000,,,,0.000000,4.000000,4.000000,4.000000,4.000000,4.000000,4.000000,4.000000,4.000000,4.000000,4.000000,4.000000,4.000000,4.000000,4.000000,100.000000,,,,,,,,,,,,,,,,,,,,,,,,,,,,
1703500449.061595,1703500449.061859,103.000000,0.000000,4222.563965,4224.230957,4309.102539,4224.871582,4217.051270,4221.666504,4243.333496,4222.179688,4203.974121,4191.410156,4524.743652,4475.512695,4337.563965,4428.205078,6272.000000,3.000000,72.000000,,,,0.000000,4.000000,4.000000,4.000000,4.000000,4.000000,4.000000,4.000000,4.000000,4.000000,4.000000,4.000000,4.000000,4.000000,4.000000,100.000000,,,,,,,,,,,,,,,,,,,,,,,,,,,,
1703500449.069403,1703500449.069667,104.000000,0.000000,4227.692383,4230.256348,4311.922852,4230.256348,4215.769043,4214.871582,4240.384766,4228.974121,4207.692383,4200.128418,4526.282227,4483.589844,4334.871582,4433.589844,6788.000000,3.000000,72.000000,,,,0.000000,4.000000,4.000000,4.000000,4.000000,4.000000,4.000000,4.000000,4.000000,4.000000,4.000000,4.000000,4.000000,4.000000,4.000000,100.000000,,,,,,,,,,,,,,,,,26.000000,0.000000,0.601322,0.308716,-0.645325,0.355896,0.989867,-0.103040,0.040044,-12.748097,-37.657066,62.776901
1703500449.077211,1703500449.077575,105.000000,0.000000,4222.563965,4221.922852,4310.384766,4225.512695,4202.436035,4213.333496,4234.615234,4230.769043,4212.692383,4209.358887,4526.153809,4478.077148,4329.871582,4422.563965,7271.000000,3.000000,72.000000,,,,0.000000,4.000000,4.000000,4.000000,4.000000,4.000000,4.000000,4.000000,4.000000,4.000000,4.000000,4.000000,4.000000,4.000000,4.000000,100.000000,,,,,,,,,,,,,,,,,,,,,,,,,,,,
1703500449.085019,1703500449.085383,106.000000,0.000000,4213.589844,4212.692383,4299.358887,4221.410156,4207.179688,4217.692383,4232.692383,4221.794922,4206.922852,4200.384766,4512.307617,4463.589844,4315.256348,4405.000000,6032.000000,3.000000,72.000000,,,,0.000000,4.000000,4.000000,4.000000,4.000000,4.000000,4.000000,4.000000,4.000000,4.000000,4.000000,4.000000,4.000000,4.000000,4.000000,100.000000,,,,,,,,,,,,,,,,,,,,,,,,,,,,
1703500449.092827,1703500449.093292,107.000000,0.000000,4216.025879,4215.769043,4293.077148,4225.769043,4220.641113,4218.205078,4232.307617,4215.641113,4198.717773,4189.102539,4502.948730,4457.692383,4309.102539,4404.102539,6272.000000,3.000000,72.000000,,,,0.000000,4.000000,4.000000,4.000000,4.000000,4.000000,4.000000,4.000000,4.000000,4.000000,4.000000,4.000000,4.000000,4.000000,4.000000,100.000000,,,,,,,,,,,,,,,,,,,,,,,,,,,,
1703500449.100635,1703500449.101100,108.000000,0.000000,4217.948730,4217.692383,4296.410156,4228.717773,4220.384766,4216.025879,4232.692383,4217.307617,4199.871582,4184.615234,4505.897461,4458.717773,4311.794922,4406.282227,6788.000000,3.000000,72.000000,,,,0.000000,4.000000,4.000000,4.000000,4.000000,4.000000,4.000000,4.000000,4.000000,4.000000,4.000000,4.000000,4.000000,4.000000,4.000000,100.000000,,,,,,,,,,,,,,,,,27.000000,0.000000,0.601291,0.308777,-0.645325,0.355896,0.982053,-0.087413,0.039067,-12.806621,-37.674690,62.765881
1703500449.108443,1703500449.109008,109.000000,0.000000,4215.897461,4217.436035,4296.410156,4231.153809,4227.692383,4223.205078,4235.769043,4215.128418,4198.717773,4183.333496,4504.743652,4453.589844,4309.743652,4399.615234,7271.000000,3.000000,72.000000,,,,0.000000,4.000000,4.000000,4.000000,4.000000,4.000000,4.000000,4.000000,4.000000,4.000000,4.000000,4.000000,4.000000,4.000000,4.000000,100.000000,,,,,,,,,,,,,,,,,,,,,,,,,,,,
1703500449.116251,1703500449.116816,110.000000,0.000000,4221.538574,4220.256348,4294.358887,4235.641113,4234.102539,4230.769043,4237.179688,4212.436035,4195.512695,4188.846191,4504.871582,4452.563965,4315.000000,4403.205078,6032.000000,3.000000,72.000000,,,,0.000000,4.000000,4.000000,4.000000,4.000000,4.000000,4.000000,4.000000,4.000000,4.000000,4.000000,4.000000,4.000000,4.000000,4.000000,100.000000,,,,,,,,,,,,,,,,,,,,,,,,,,,,
