title:الما نعم, start timestamp:1703404523.510286, stop timestamp:1703404534.324435, headset type:EPOCX, headset serial:E50206EF, headset firmware:720, channels:67, sampling rate:eeg_128;mot_32, samples:1386      , version:2.2, 
Timestamp,OriginalTimestamp,EEG.Counter,EEG.Interpolated,EEG.AF3,EEG.F7,EEG.F3,EEG.FC5,EEG.T7,EEG.P7,EEG.O1,EEG.O2,EEG.P8,EEG.T8,EEG.FC6,EEG.F4,EEG.F8,EEG.AF4,EEG.RawCq,EEG.Battery,EEG.BatteryPercent,MarkerIndex,MarkerType,MarkerValueInt,EEG.MarkerHardware,CQ.AF3,CQ.F7,CQ.F3,CQ.FC5,CQ.T7,CQ.P7,CQ.O1,CQ.O2,CQ.P8,CQ.T8,CQ.FC6,CQ.F4,CQ.F8,CQ.AF4,CQ.Overall,EQ.SampleRateQuality,EQ.OVERALL,EQ.AF3,EQ.F7,EQ.F3,EQ.FC5,EQ.T7,EQ.P7,EQ.O1,EQ.O2,EQ.P8,EQ.T8,EQ.FC6,EQ.F4,EQ.F8,EQ.AF4,MOT.CounterMems,MOT.InterpolatedMems,MOT.Q0,MOT.Q1,MOT.Q2,MOT.Q3,MOT.AccX,MOT.AccY,MOT.AccZ,MOT.MagX,MOT.MagY,MOT.MagZ
1703404523.510286,1703404523.510933,54.000000,0.000000,4064.102539,4131.794922,4207.307617,4188.205078,4123.205078,4101.538574,4213.846191,4090.641113,4097.820313,4079.615479,4534.230957,4375.000000,4306.282227,4437.307617,0.000000,4.000000,85.000000,,,,0.000000,4.000000,4.000000,4.000000,4.000000,4.000000,4.000000,4.000000,4.000000,4.000000,4.000000,4.000000,4.000000,4.000000,4.000000,100.000000,,,,,,,,,,,,,,,,,,,,,,,,,,,,
1703404523.518094,1703404523.518841,55.000000,0.000000,4069.871826,4138.974121,4221.025879,4193.717773,4123.846191,4108.077148,4219.230957,4110.512695,4153.461426,4111.794922,4541.538574,4393.205078,4318.077148,4448.205078,0.000000,4.000000,85.000000,,,,0.000000,4.000000,4.000000,4.000000,4.000000,4.000000,4.000000,4.000000,4.000000,4.000000,4.000000,4.000000,4.000000,4.000000,4.000000,100.000000,,,,,,,,,,,,,,,,,,,,,,,,,,,,
1703404523.525902,1703404523.526649,56.000000,0.000000,4085.384521,4145.000000,4237.307617,4205.512695,4125.512695,4107.307617,4215.769043,4125.256348,4140.128418,4115.000000,4560.384766,4409.871582,4330.512695,4464.615234,0.000000,4.000000,85.000000,,,,0.000000,4.000000,4.000000,4.000000,4.000000,4.000000,4.000000,4.000000,4.000000,4.000000,4.000000,4.000000,4.000000,4.000000,4.000000,100.000000,,,,,,,,,,,,,,,,,14.000000,0.000000,0.619759,-0.411255,-0.591309,-0.311646,0.995727,-0.151386,-0.015627,-12.384922,-43.459850,65.084824
1703404523.533710,1703404523.534357,57.000000,0.000000,4093.846191,4151.922852,4236.538574,4213.589844,4140.000000,4097.948730,4217.820313,4127.051270,4106.794922,4104.230957,4565.897461,4411.282227,4325.769043,4468.205078,0.000000,4.000000,85.000000,,,,0.000000,4.000000,4.000000,4.000000,4.000000,4.000000,4.000000,4.000000,4.000000,4.000000,4.000000,4.000000,4.000000,4.000000,4.000000,100.000000,,,,,,,,,,,,,,,,,,,,,,,,,,,,
1703404523.541518,1703404523.542165,58.000000,0.000000,4103.974121,4160.769043,4241.794922,4220.000000,4148.077148,4092.564209,4221.666504,4123.333496,4096.410156,4133.333496,4569.358887,4418.846191,4333.846191,4475.256348,0.000000,4.000000,85.000000,,,,0.000000,4.000000,4.000000,4.000000,4.000000,4.000000,4.000000,4.000000,4.000000,4.000000,4.000000,4.000000,4.000000,4.000000,4.000000,100.000000,,,,,,,,,,,,,,,,,,,,,,,,,,,,
1703404523.549326,1703404523.549873,59.000000,0.000000,4108.333496,4159.230957,4244.487305,4216.538574,4130.000000,4091.923096,4213.717773,4114.871582,4074.230713,4120.256348,4570.769043,4423.077148,4345.769043,4478.974121,0.000000,4.000000,85.000000,,,,0.000000,4.000000,4.000000,4.000000,4.000000,4.000000,4.000000,4.000000,4.000000,4.000000,4.000000,4.000000,4.000000,4.000000,4.000000,100.000000,,,,,,,,,,,,,,,,,,,,,,,,,,,,
1703404523.557134,1703404523.557681,60.000000,0.000000,4107.692383,4147.436035,4241.538574,4205.128418,4109.487305,4092.948730,4206.538574,4098.974121,4076.794922,4083.076904,4564.743652,4415.769043,4339.871582,4477.051270,0.000000,4.000000,85.000000,,,,0.000000,4.000000,4.000000,4.000000,4.000000,4.000000,4.000000,4.000000,4.000000,4.000000,4.000000,4.000000,4.000000,4.000000,4.000000,100.000000,,,,,,,,,,,,,,,,,15.000000,0.000000,0.619579,-0.411438,-0.591370,-0.311646,0.971798,-0.148456,-0.000488,-12.363097,-43.547199,65.109680
1703404523.564942,1703404523.565389,61.000000,0.000000,4113.077148,4141.794922,4247.692383,4203.333496,4112.307617,4090.384521,4207.948730,4091.281982,4093.718018,4119.230957,4570.128418,4416.794922,4335.128418,4479.102539,0.000000,4.000000,85.000000,,,,0.000000,4.000000,4.000000,4.000000,4.000000,4.000000,4.000000,4.000000,4.000000,4.000000,4.000000,4.000000,4.000000,4.000000,4.000000,100.000000,,,,,,,,,,,,,,,,,,,,,,,,,,,,
1703404523.572750,1703404523.573197,62.000000,0.000000,4107.307617,4139.743652,4242.563965,4206.025879,4125.384766,4088.589844,4205.769043,4090.128174,4069.358887,4159.230957,4577.692383,4415.128418,4333.846191,4475.256348,0.000000,4.000000,85.000000,,,,0.000000,4.000000,4.000000,4.000000,4.000000,4.000000,4.000000,4.000000,4.000000,4.000000,4.000000,4.000000,4.000000,4.000000,4.000000,100.000000,,,,,,,,,,,,,,,,,,,,,,,,,,,,
1703404523.580558,1703404523.580905,63.000000,0.000000,4091.923096,4132.436035,4226.153809,4200.897461,4127.563965,4090.769287,4198.205078,4082.948730,4059.871826,4123.461426,4557.051270,4398.333496,4320.256348,4458.077148,0.000000,4.000000,85.000000,,,,0.000000,4.000000,4.000000,4.000000,4.000000,4.000000,4.000000,4.000000,4.000000,4.000000,4.000000,4.000000,4.000000,4.000000,4.000000,100.000000,,,,,,,,,,,,,,,,,,,,,,,,,,,,
1703404523.588366,1703404523.588713,64.000000,0.000000,4092.051270,4133.205078,4223.461426,4200.512695,4123.333496,4094.615479,4197.436035,4082.179443,4097.692383,4088.333252,4533.589844,4390.256348,4304.358887,4444.871582,4619.000000,4.000000,85.000000,,,,0.000000,4.000000,4.000000,4.000000,4.000000,4.000000,4.000000,4.000000,4.000000,4.000000,4.000000,4.000000,4.000000,4.000000,4.000000,100.000000,,,,,,,,,,,,,,,,,16.000000,0.000000,0.619258,-0.411255,-0.591736,-0.311829,0.991332,-0.147967,-0.003907,-12.410120,-43.525810,65.032043
1703404523.596174,1703404523.596421,65.000000,0.000000,4101.410156,4140.384766,4227.436035,4208.077148,4126.025879,4101.922852,4204.102539,4099.102539,4104.871582,4114.358887,4548.205078,4397.692383,4306.538574,4449.230957,5370.000000,4.000000,85.000000,,,,0.000000,4.000000,4.000000,4.000000,4.000000,4.000000,4.000000,4.000000,4.000000,4.000000,4.000000,4.000000,4.000000,4.000000,4.000000,100.000000,,,,,,,,,,,,,,,,,,,,,,,,,,,,
1703404523.603982,1703404523.604229,66.000000,0.000000,4098.077148,4131.794922,4225.769043,4206.794922,4118.717773,4106.794922,4207.436035,4120.256348,4081.923096,4113.461426,4572.307617,4405.256348,4315.384766,4455.256348,5225.000000,4.000000,85.000000,,,,0.000000,4.000000,4.000000,4.000000,4.000000,4.000000,4.000000,4.000000,4.000000,4.000000,4.000000,4.000000,4.000000,4.000000,4.000000,100.000000,,,,,,,,,,,,,,,,,,,,,,,,,,,,
1703404523.611791,1703404523.611937,67.000000,0.000000,4087.435791,4123.846191,4225.128418,4198.077148,4112.051270,4108.077148,4205.256348,4128.333496,4104.487305,4073.974365,4559.871582,4402.179688,4312.436035,4445.641113,5340.000000,4.000000,85.000000,,,,0.000000,4.000000,4.000000,4.000000,4.000000,4.000000,4.000000,4.000000,4.000000,4.000000,4.000000,4.000000,4.000000,4.000000,4.000000,100.000000,,,,,,,,,,,,,,,,,,,,,,,,,,,,
1703404523.619599,1703404523.619745,68.000000,0.000000,4085.256348,4132.692383,4223.717773,4197.436035,4128.589844,4109.102539,4210.128418,4128.461426,4147.051270,4091.538574,4544.615234,4396.282227,4308.846191,4438.077148,5056.000000,4.000000,85.000000,,,,0.000000,4.000000,4.000000,4.000000,4.000000,4.000000,4.000000,4.000000,4.000000,4.000000,4.000000,4.000000,4.000000,4.000000,4.000000,100.000000,,,,,,,,,,,,,,,,,17.000000,0.000000,0.619325,-0.411072,-0.591858,-0.311707,0.984007,-0.151874,-0.001953,-12.269109,-43.456562,64.995506
1703404523.627406,1703404523.627453,69.000000,0.000000,4091.281982,4136.794922,4225.256348,4201.666504,4145.128418,4107.307617,4214.487305,4130.128418,4144.743652,4148.205078,4558.974121,4399.743652,4318.077148,4451.410156,4408.000000,4.000000,85.000000,,,,0.000000,4.000000,4.000000,4.000000,4.000000,4.000000,4.000000,4.000000,4.000000,4.000000,4.000000,4.000000,4.000000,4.000000,4.000000,100.000000,,,,,,,,,,,,,,,,,,,,,,,,,,,,
1703404523.635215,1703404523.635361,70.000000,0.000000,4096.922852,4133.589844,4233.461426,4201.666504,4142.179688,4109.487305,4210.384766,4121.922852,4113.974121,4150.128418,4565.897461,4407.820313,4329.230957,4465.897461,2004.000000,4.000000,85.000000,,,,0.000000,4.000000,4.000000,4.000000,4.000000,4.000000,4.000000,4.000000,4.000000,4.000000,4.000000,4.000000,4.000000,4.000000,4.000000,100.000000,,,,,,,,,,,,,,,,,,,,,,,,,,,,
1703404523.643023,1703404523.643169,71.000000,0.000000,4102.307617,4133.205078,4236.282227,4200.384766,4126.922852,4110.641113,4207.436035,4092.692383,4099.743652,4117.051270,4546.794922,4403.846191,4325.128418,4463.589844,5136.000000,4.000000,85.000000,,,,0.000000,4.000000,4.000000,4.000000,4.000000,4.000000,4.000000,4.000000,4.000000,4.000000,4.000000,4.000000,4.000000,4.000000,4.000000,100.000000,,,,,,,,,,,,,,,,,,,,,,,,,,,,
1703404523.650831,1703404523.651077,72.000000,0.000000,4108.333496,4126.153809,4234.615234,4198.077148,4115.384766,4085.000000,4204.743652,4064.230713,4075.512939,4109.743652,4540.641113,4393.974121,4311.410156,4458.077148,4832.000000,4.000000,85.000000,,,,0.000000,4.000000,4.000000,4.000000,4.000000,4.000000,4.000000,4.000000,4.000000,4.000000,4.000000,4.000000,4.000000,4.000000,4.000000,100.000000,,,,,,,,,,,,,,,,,18.000000,0.000000,0.619459,-0.411194,-0.591858,-0.311279,0.977658,-0.144061,0.002930,-12.442198,-43.427574,64.945953
1703404523.658639,1703404523.658886,73.000000,0.000000,4105.769043,4115.897461,4236.025879,4192.948730,4115.384766,4050.769287,4196.153809,4063.461426,4028.205078,4104.615234,4553.846191,4397.692383,4309.230957,4458.589844,5046.000000,4.000000,85.000000,,,,0.000000,4.000000,4.000000,4.000000,4.000000,4.000000,4.000000,4.000000,4.000000,4.000000,4.000000,4.000000,4.000000,4.000000,4.000000,100.000000,1.000000,83.333336,4.000000,4.000000,4.000000,4.000000,4.000000,4.000000,4.000000,4.000000,3.000000,3.000000,4.000000,4.000000,4.000000,4.000000,,,,,,,,,,,,
1703404523.666447,1703404523.666794,74.000000,0.000000,4108.974121,4126.282227,4240.769043,4200.256348,4127.436035,4047.051270,4192.948730,4082.435791,4038.846191,4107.179688,4567.436035,4416.025879,4330.384766,4473.205078,5938.000000,4.000000,85.000000,,,,0.000000,4.000000,4.000000,4.000000,4.000000,4.000000,4.000000,4.000000,4.000000,4.000000,4.000000,4.000000,4.000000,4.000000,4.000000,100.000000,,,,,,,,,,,,,,,,,,,,,,,,,,,,
1703404523.674255,1703404523.674602,75.000000,0.000000,4130.769043,4150.897461,4248.333496,4221.794922,4136.153809,4069.487061,4201.282227,4104.743652,4084.871826,4142.820313,4588.846191,4434.230957,4354.102539,4497.948730,6177.000000,4.000000,85.000000,,,,0.000000,4.000000,4.000000,4.000000,4.000000,4.000000,4.000000,4.000000,4.000000,4.000000,4.000000,4.000000,4.000000,4.000000,4.000000,100.000000,,,,,,,,,,,,,,,,,,,,,,,,,,,,
1703404523.682063,1703404523.682510,76.000000,0.000000,4149.615234,4161.282227,4257.948730,4237.692383,4137.563965,4094.615479,4209.358887,4121.410156,4098.205078,4161.025879,4606.922852,4439.615234,4362.948730,4508.589844,6599.000000,4.000000,85.000000,,,,0.000000,4.000000,4.000000,4.000000,4.000000,4.000000,4.000000,4.000000,4.000000,4.000000,4.000000,4.000000,4.000000,4.000000,4.000000,100.000000,,,,,,,,,,,,,,,,,19.000000,0.000000,0.619665,-0.411377,-0.591675,-0.310974,0.985960,-0.139177,-0.009767,-12.331311,-43.351482,64.734695
1703404523.689871,1703404523.690318,77.000000,0.000000,4150.256348,4160.641113,4260.512695,4234.230957,4144.230957,4107.563965,4212.948730,4124.615234,4117.563965,4132.563965,4597.692383,4432.948730,4363.205078,4501.282227,6497.000000,4.000000,85.000000,,,,0.000000,4.000000,4.000000,4.000000,4.000000,4.000000,4.000000,4.000000,4.000000,4.000000,4.000000,4.000000,4.000000,4.000000,4.000000,100.000000,,,,,,,,,,,,,,,,,,,,,,,,,,,,
1703404523.697679,1703404523.698226,78.000000,0.000000,4128.461426,4151.153809,4239.230957,4212.051270,4142.051270,4112.436035,4212.436035,4106.666504,4125.000000,4093.333252,4561.410156,4408.077148,4339.487305,4480.256348,5938.000000,4.000000,85.000000,,,,0.000000,4.000000,4.000000,4.000000,4.000000,4.000000,4.000000,4.000000,4.000000,4.000000,4.000000,4.000000,4.000000,4.000000,4.000000,100.000000,,,,,,,,,,,,,,,,,,,,,,,,,,,,
1703404523.705487,1703404523.706034,79.000000,0.000000,4100.128418,4129.487305,4215.512695,4189.871582,4120.384766,4105.128418,4211.794922,4092.564209,4101.794922,4075.384521,4532.692383,4380.000000,4304.102539,4452.307617,6177.000000,4.000000,85.000000,,,,0.000000,4.000000,4.000000,4.000000,4.000000,4.000000,4.000000,4.000000,4.000000,4.000000,4.000000,4.000000,4.000000,4.000000,4.000000,100.000000,,,,,,,,,,,,,,,,,,,,,,,,,,,,
1703404523.713295,1703404523.713942,80.000000,0.000000,4112.563965,4133.077148,4226.538574,4199.871582,4110.641113,4086.666748,4216.538574,4116.538574,4114.871582,4102.436035,4547.307617,4395.641113,4312.179688,4457.563965,6599.000000,4.000000,85.000000,,,,0.000000,4.000000,4.000000,4.000000,4.000000,4.000000,4.000000,4.000000,4.000000,4.000000,4.000000,4.000000,4.000000,4.000000,4.000000,100.000000,,,,,,,,,,,,,,,,,20.000000,0.000000,0.619537,-0.411804,-0.591736,-0.310547,0.969357,-0.143572,-0.003418,-12.448180,-43.416336,64.794556
1703404523.721103,1703404523.721750,81.000000,0.000000,4150.128418,4163.205078,4252.436035,4223.846191,4122.563965,4082.435791,4218.205078,4145.512695,4114.487305,4161.153809,4584.358887,4431.922852,4351.153809,4492.820313,6497.000000,4.000000,85.000000,,,,0.000000,4.000000,4.000000,4.000000,4.000000,4.000000,4.000000,4.000000,4.000000,4.000000,4.000000,4.000000,4.000000,4.000000,4.000000,100.000000,,,,,,,,,,,,,,,,,,,,,,,,,,,,
1703404523.728911,1703404523.729458,82.000000,0.000000,4150.384766,4165.897461,4251.922852,4222.692383,4133.205078,4099.487305,4212.307617,4131.282227,4081.923096,4169.230957,4591.538574,4429.615234,4355.641113,4500.000000,5938.000000,4.000000,85.000000,,,,0.000000,4.000000,4.000000,4.000000,4.000000,4.000000,4.000000,4.000000,4.000000,4.000000,4.000000,4.000000,4.000000,4.000000,4.000000,100.000000,,,,,,,,,,,,,,,,,,,,,,,,,,,,
1703404523.736719,1703404523.737266,83.000000,0.000000,4134.230957,4152.307617,4240.384766,4215.256348,4145.641113,4109.743652,4205.128418,4101.410156,4102.179688,4128.974121,4577.436035,4410.769043,4336.794922,4484.871582,6177.000000,4.000000,85.000000,,,,0.000000,4.000000,4.000000,4.000000,4.000000,4.000000,4.000000,4.000000,4.000000,4.000000,4.000000,4.000000,4.000000,4.000000,4.000000,100.000000,,,,,,,,,,,,,,,,,,,,,,,,,,,,
1703404523.744527,1703404523.744974,84.000000,0.000000,4137.307617,4153.205078,4244.358887,4216.282227,4150.769043,4108.077148,4200.384766,4091.923096,4104.615234,4106.025879,4580.256348,4415.256348,4343.846191,4488.205078,6599.000000,4.000000,85.000000,,,,0.000000,4.000000,4.000000,4.000000,4.000000,4.000000,4.000000,4.000000,4.000000,4.000000,4.000000,4.000000,4.000000,4.000000,4.000000,100.000000,,,,,,,,,,,,,,,,,21.000000,0.000000,0.619591,-0.411377,-0.592041,-0.310425,0.984495,-0.164083,-0.005372,-12.403362,-43.491367,64.665100
1703404523.752335,1703404523.752782,85.000000,0.000000,4132.948730,4145.000000,4245.769043,4207.051270,4134.615234,4101.025879,4196.153809,4080.000000,4044.743652,4098.974121,4563.205078,4413.974121,4345.641113,4487.436035,6497.000000,4.000000,85.000000,,,,0.000000,4.000000,4.000000,4.000000,4.000000,4.000000,4.000000,4.000000,4.000000,4.000000,4.000000,4.000000,4.000000,4.000000,4.000000,100.000000,,,,,,,,,,,,,,,,,,,,,,,,,,,,
1703404523.760143,1703404523.760490,86.000000,0.000000,4125.641113,4132.692383,4237.820313,4196.410156,4116.922852,4088.205078,4195.769043,4068.333252,4044.358887,4101.538574,4534.102539,4402.051270,4325.000000,4472.179688,5938.000000,4.000000,85.000000,,,,0.000000,4.000000,4.000000,4.000000,4.000000,4.000000,4.000000,4.000000,4.000000,4.000000,4.000000,4.000000,4.000000,4.000000,4.000000,100.000000,,,,,,,,,,,,,,,,,,,,,,,,,,,,
1703404523.767951,1703404523.768298,87.000000,0.000000,4133.205078,4139.487305,4238.717773,4199.743652,4103.205078,4088.333252,4199.487305,4079.102539,4076.666748,4127.948730,4552.307617,4408.717773,4323.974121,4477.051270,6177.000000,4.000000,85.000000,,,,0.000000,4.000000,4.000000,4.000000,4.000000,4.000000,4.000000,4.000000,4.000000,4.000000,4.000000,4.000000,4.000000,4.000000,4.000000,100.000000,,,,,,,,,,,,,,,,,,,,,,,,,,,,
1703404523.775760,1703404523.776006,88.000000,0.000000,4144.487305,4149.871582,4248.846191,4210.000000,4105.256348,4090.256348,4202.692383,4102.820313,4083.333252,4132.179688,4590.641113,4427.948730,4352.307617,4503.333496,6599.000000,4.000000,85.000000,,,,0.000000,4.000000,4.000000,4.000000,4.000000,4.000000,4.000000,4.000000,4.000000,4.000000,4.000000,4.000000,4.000000,4.000000,4.000000,100.000000,,,,,,,,,,,,,,,,,22.000000,0.000000,0.619742,-0.410706,-0.592285,-0.310547,0.969357,-0.158711,-0.002442,-12.246359,-43.408897,64.481926
1703404523.783568,1703404523.783914,89.000000,0.000000,4152.692383,4150.128418,4255.256348,4215.897461,4133.077148,4089.615479,4208.717773,4129.487305,4120.641113,4101.794922,4590.897461,4445.897461,4364.743652,4509.615234,6497.000000,4.000000,85.000000,,,,0.000000,4.000000,4.000000,4.000000,4.000000,4.000000,4.000000,4.000000,4.000000,4.000000,4.000000,4.000000,4.000000,4.000000,4.000000,100.000000,,,,,,,,,,,,,,,,,,,,,,,,,,,,
1703404523.791376,1703404523.791722,90.000000,0.000000,4139.871582,4143.461426,4243.077148,4206.538574,4151.410156,4103.717773,4218.974121,4143.205078,4147.948730,4105.769043,4569.487305,4438.077148,4337.307617,4483.333496,5938.000000,4.000000,85.000000,,,,0.000000,4.000000,4.000000,4.000000,4.000000,4.000000,4.000000,4.000000,4.000000,4.000000,4.000000,4.000000,4.000000,4.000000,4.000000,100.000000,,,,,,,,,,,,,,,,,,,,,,,,,,,,
1703404523.799184,1703404523.799630,91.000000,0.000000,4116.794922,4134.743652,4225.897461,4194.615234,4137.692383,4105.000000,4220.384766,4129.487305,4115.897461,4134.615234,4562.948730,4408.974121,4309.487305,4464.102539,6177.000000,4.000000,85.000000,,,,0.000000,4.000000,4.000000,4.000000,4.000000,4.000000,4.000000,4.000000,4.000000,4.000000,4.000000,4.000000,4.000000,4.000000,4.000000,100.000000,,,,,,,,,,,,,,,,,,,,,,,,,,,,
1703404523.806992,1703404523.807439,92.000000,0.000000,4125.512695,4137.820313,4235.256348,4206.410156,4125.256348,4094.871826,4215.256348,4115.128418,4097.436035,4131.282227,4570.641113,4408.333496,4315.384766,4475.000000,6599.000000,4.000000,85.000000,,,,0.000000,4.000000,4.000000,4.000000,4.000000,4.000000,4.000000,4.000000,4.000000,4.000000,4.000000,4.000000,4.000000,4.000000,4.000000,100.000000,,,,,,,,,,,,,,,,,23.000000,0.000000,0.619802,-0.410522,-0.592285,-0.310669,0.976682,-0.158222,0.008302,-12.255056,-43.401340,64.633728
1703404523.814800,1703404523.815247,93.000000,0.000000,4141.922852,4147.307617,4252.820313,4220.769043,4130.128418,4106.153809,4214.743652,4113.333496,4099.102539,4102.692383,4566.410156,4426.153809,4334.615234,4483.077148,6497.000000,4.000000,85.000000,,,,0.000000,4.000000,4.000000,4.000000,4.000000,4.000000,4.000000,4.000000,4.000000,4.000000,4.000000,4.000000,4.000000,4.000000,4.000000,100.000000,,,,,,,,,,,,,,,,,,,,,,,,,,,,
1703404523.822608,1703404523.822955,94.000000,0.000000,4139.487305,4149.615234,4254.230957,4217.436035,4133.974121,4111.538574,4212.820313,4096.282227,4071.794922,4097.179688,4551.922852,4423.077148,4333.846191,4479.743652,5938.000000,4.000000,85.000000,,,,0.000000,4.000000,4.000000,4.000000,4.000000,4.000000,4.000000,4.000000,4.000000,4.000000,4.000000,4.000000,4.000000,4.000000,4.000000,100.000000,,,,,,,,,,,,,,,,,,,,,,,,,,,,
1703404523.830416,1703404523.830863,95.000000,0.000000,4142.563965,4153.077148,4256.282227,4218.333496,4132.820313,4095.256348,4205.256348,4077.051270,4048.205078,4120.897461,4563.589844,4418.974121,4329.615234,4488.717773,6177.000000,4.000000,85.000000,,,,0.000000,4.000000,4.000000,4.000000,4.000000,4.000000,4.000000,4.000000,4.000000,4.000000,4.000000,4.000000,4.000000,4.000000,4.000000,100.000000,,,,,,,,,,,,,,,,,,,,,,,,,,,,
1703404523.838224,1703404523.838671,96.000000,0.000000,4142.307617,4155.256348,4256.922852,4221.153809,4117.307617,4090.641113,4201.410156,4073.333252,4050.512939,4125.256348,4572.948730,4422.948730,4330.000000,4489.102539,6599.000000,4.000000,85.000000,,,,0.000000,4.000000,4.000000,4.000000,4.000000,4.000000,4.000000,4.000000,4.000000,4.000000,4.000000,4.000000,4.000000,4.000000,4.000000,100.000000,,,,,,,,,,,,,,,,,24.000000,0.000000,0.619869,-0.410278,-0.592224,-0.310974,0.968868,-0.163594,0.008302,-12.229551,-43.344540,64.637024
1703404523.846032,1703404523.846579,97.000000,0.000000,4136.538574,4153.846191,4255.000000,4216.025879,4107.563965,4095.000000,4204.615234,4070.641113,4054.487061,4117.307617,4556.538574,4419.230957,4326.282227,4478.846191,6497.000000,4.000000,85.000000,,,,0.000000,4.000000,4.000000,4.000000,4.000000,4.000000,4.000000,4.000000,4.000000,4.000000,4.000000,4.000000,4.000000,4.000000,4.000000,100.000000,,,,,,,,,,,,,,,,,,,,,,,,,,,,
1703404523.853840,1703404523.854388,98.000000,0.000000,4148.333496,4153.461426,4257.948730,4215.769043,4130.256348,4097.051270,4207.820313,4073.076904,4062.948730,4103.589844,4565.512695,4421.922852,4336.538574,4483.974121,5938.000000,4.000000,85.000000,,,,0.000000,4.000000,4.000000,4.000000,4.000000,4.000000,4.000000,4.000000,4.000000,4.000000,4.000000,4.000000,4.000000,4.000000,4.000000,100.000000,,,,,,,,,,,,,,,,,,,,,,,,,,,,
1703404523.861648,1703404523.862296,99.000000,0.000000,4159.487305,4155.769043,4258.333496,4220.769043,4155.128418,4106.538574,4210.769043,4095.128174,4109.487305,4093.076904,4594.743652,4437.179688,4355.384766,4496.538574,6177.000000,4.000000,85.000000,,,,0.000000,4.000000,4.000000,4.000000,4.000000,4.000000,4.000000,4.000000,4.000000,4.000000,4.000000,4.000000,4.000000,4.000000,4.000000,100.000000,,,,,,,,,,,,,,,,,,,,,,,,,,,,
1703404523.869456,1703404523.870104,100.000000,0.000000,4153.077148,4160.128418,4253.461426,4218.717773,4154.743652,4117.436035,4217.692383,4124.230957,4153.461426,4121.282227,4598.461426,4444.487305,4363.717773,4499.358887,6599.000000,4.000000,85.000000,,,,0.000000,4.000000,4.000000,4.000000,4.000000,4.000000,4.000000,4.000000,4.000000,4.000000,4.000000,4.000000,4.000000,4.000000,4.000000,100.000000,,,,,,,,,,,,,,,,,25.000000,0.000000,0.619902,-0.410400,-0.592041,-0.311096,0.979123,-0.162618,-0.004395,-12.239929,-43.510086,64.639992
1703404523.877264,1703404523.878012,101.000000,0.000000,4136.410156,4152.179688,4238.846191,4205.256348,4134.230957,4103.717773,4220.128418,4122.692383,4118.717773,4144.871582,4576.922852,4423.333496,4345.512695,4483.846191,6497.000000,4.000000,85.000000,,,,0.000000,4.000000,4.000000,4.000000,4.000000,4.000000,4.000000,4.000000,4.000000,4.000000,4.000000,4.000000,4.000000,4.000000,4.000000,100.000000,,,,,,,,,,,,,,,,,,,,,,,,,,,,
1703404523.885072,1703404523.885820,102.000000,0.000000,4124.615234,4134.102539,4221.666504,4193.461426,4127.820313,4067.564209,4215.000000,4104.743652,4078.846191,4116.538574,4556.153809,4391.410156,4315.256348,4461.025879,5938.000000,4.000000,85.000000,,,,0.000000,4.000000,4.000000,4.000000,4.000000,4.000000,4.000000,4.000000,4.000000,4.000000,4.000000,4.000000,4.000000,4.000000,4.000000,100.000000,,,,,,,,,,,,,,,,,,,,,,,,,,,,
1703404523.892880,1703404523.893728,103.000000,0.000000,4137.563965,4137.820313,4232.692383,4201.153809,4142.948730,4061.025635,4216.538574,4121.410156,4120.128418,4100.384766,4565.769043,4405.128418,4327.051270,4468.846191,6177.000000,4.000000,85.000000,,,,0.000000,4.000000,4.000000,4.000000,4.000000,4.000000,4.000000,4.000000,4.000000,4.000000,4.000000,4.000000,4.000000,4.000000,4.000000,100.000000,,,,,,,,,,,,,,,,,,,,,,,,,,,,
1703404523.900688,1703404523.901536,104.000000,0.000000,4166.666504,4164.487305,4259.487305,4218.077148,4143.846191,4093.205078,4221.666504,4154.487305,4155.512695,4142.948730,4606.666504,4453.077148,4374.102539,4512.563965,6599.000000,4.000000,85.000000,,,,0.000000,4.000000,4.000000,4.000000,4.000000,4.000000,4.000000,4.000000,4.000000,4.000000,4.000000,4.000000,4.000000,4.000000,4.000000,100.000000,,,,,,,,,,,,,,,,,26.000000,0.000000,0.619825,-0.410339,-0.592163,-0.311096,0.981077,-0.150409,-0.009767,-12.299270,-43.242413,64.692657
1703404523.908496,1703404523.909244,105.000000,0.000000,4180.384766,4172.692383,4265.384766,4226.538574,4126.666504,4110.769043,4218.846191,4137.051270,4114.743652,4160.384766,4621.025879,4462.307617,4389.871582,4531.794922,6497.000000,4.000000,85.000000,,,,0.000000,4.000000,4.000000,4.000000,4.000000,4.000000,4.000000,4.000000,4.000000,4.000000,4.000000,4.000000,4.000000,4.000000,4.000000,100.000000,,,,,,,,,,,,,,,,,,,,,,,,,,,,
1703404523.916304,1703404523.917052,106.000000,0.000000,4178.461426,4167.948730,4263.974121,4231.922852,4134.102539,4100.256348,4214.358887,4092.307617,4082.307617,4132.820313,4603.717773,4440.000000,4367.820313,4515.000000,5938.000000,4.000000,85.000000,,,,0.000000,4.000000,4.000000,4.000000,4.000000,4.000000,4.000000,4.000000,4.000000,4.000000,4.000000,4.000000,4.000000,4.000000,4.000000,100.000000,,,,,,,,,,,,,,,,,,,,,,,,,,,,
1703404523.924112,1703404523.924760,107.000000,0.000000,4180.512695,4168.461426,4269.743652,4234.743652,4158.717773,4102.820313,4213.974121,4084.358887,4075.128174,4129.358887,4596.410156,4435.256348,4353.077148,4507.563965,6177.000000,4.000000,85.000000,,,,0.000000,4.000000,4.000000,4.000000,4.000000,4.000000,4.000000,4.000000,4.000000,4.000000,4.000000,4.000000,4.000000,4.000000,4.000000,100.000000,,,,,,,,,,,,,,,,,,,,,,,,,,,,
1703404523.931920,1703404523.932568,108.000000,0.000000,4173.589844,4159.743652,4260.384766,4224.871582,4146.922852,4120.000000,4212.820313,4091.794922,4072.307617,4136.794922,4594.230957,4434.230957,4349.615234,4502.307617,6599.000000,4.000000,85.000000,,,,0.000000,4.000000,4.000000,4.000000,4.000000,4.000000,4.000000,4.000000,4.000000,4.000000,4.000000,4.000000,4.000000,4.000000,4.000000,100.000000,,,,,,,,,,,,,,,,,27.000000,0.000000,0.619747,-0.409790,-0.592529,-0.311279,0.976682,-0.145526,0.010255,-12.286009,-43.068169,64.673393
1703404523.939729,1703404523.940276,109.000000,0.000000,4151.153809,4150.000000,4240.256348,4211.282227,4129.230957,4117.179688,4210.256348,4091.538574,4108.461426,4137.051270,4589.615234,4419.871582,4348.717773,4484.615234,6497.000000,4.000000,85.000000,,,,0.000000,4.000000,4.000000,4.000000,4.000000,4.000000,4.000000,4.000000,4.000000,4.000000,4.000000,4.000000,4.000000,4.000000,4.000000,100.000000,,,,,,,,,,,,,,,,,,,,,,,,,,,,
1703404523.947537,1703404523.948084,110.000000,0.000000,4136.794922,4146.794922,4228.077148,4202.563965,4140.641113,4108.974121,4211.666504,4096.922852,4124.615234,4138.974121,4577.948730,4406.922852,4341.666504,4473.461426,5938.000000,4.000000,85.000000,,,,0.000000,4.000000,4.000000,4.000000,4.000000,4.000000,4.000000,4.000000,4.000000,4.000000,4.000000,4.000000,4.000000,4.000000,4.000000,100.000000,,,,,,,,,,,,,,,,,,,,,,,,,,,,
1703404523.955345,1703404523.955792,111.000000,0.000000,4136.666504,4138.205078,4224.102539,4199.102539,4140.641113,4121.025879,4218.077148,4112.820313,4109.615234,4134.230957,4566.282227,4402.820313,4326.922852,4468.974121,6177.000000,4.000000,85.000000,,,,0.000000,4.000000,4.000000,4.000000,4.000000,4.000000,4.000000,4.000000,4.000000,4.000000,4.000000,4.000000,4.000000,4.000000,4.000000,100.000000,,,,,,,,,,,,,,,,,,,,,,,,,,,,
1703404523.963153,1703404523.963600,112.000000,0.000000,4131.282227,4133.589844,4224.102539,4200.384766,4124.743652,4128.205078,4225.000000,4128.077148,4142.051270,4129.102539,4568.461426,4401.794922,4324.487305,4461.282227,6599.000000,4.000000,85.000000,,,,0.000000,4.000000,4.000000,4.000000,4.000000,4.000000,4.000000,4.000000,4.000000,4.000000,4.000000,4.000000,4.000000,4.000000,4.000000,100.000000,,,,,,,,,,,,,,,,,28.000000,0.000000,0.619675,-0.409058,-0.593079,-0.311340,0.985472,-0.161152,0.001953,-12.224075,-43.111355,64.706055
1703404523.970961,1703404523.971308,113.000000,0.000000,4118.589844,4135.641113,4218.205078,4191.794922,4126.538574,4106.794922,4221.410156,4119.871582,4139.102539,4120.897461,4559.615234,4389.615234,4325.769043,4451.794922,6497.000000,4.000000,85.000000,,,,0.000000,4.000000,4.000000,4.000000,4.000000,4.000000,4.000000,4.000000,4.000000,4.000000,4.000000,4.000000,4.000000,4.000000,4.000000,100.000000,,,,,,,,,,,,,,,,,,,,,,,,,,,,
1703404523.978769,1703404523.979116,114.000000,0.000000,4121.410156,4132.436035,4216.025879,4186.025879,4142.307617,4086.666748,4218.717773,4102.436035,4070.897461,4102.692383,4544.743652,4381.666504,4317.820313,4451.538574,5938.000000,4.000000,85.000000,,,,0.000000,4.000000,4.000000,4.000000,4.000000,4.000000,4.000000,4.000000,4.000000,4.000000,4.000000,4.000000,4.000000,4.000000,4.000000,100.000000,,,,,,,,,,,,,,,,,,,,,,,,,,,,
1703404523.986577,1703404523.986824,115.000000,0.000000,4140.641113,4140.256348,4234.230957,4204.358887,4135.128418,4095.512939,4226.538574,4118.974121,4095.256348,4100.769043,4566.538574,4410.769043,4324.487305,4472.307617,6177.000000,4.000000,85.000000,,,,0.000000,4.000000,4.000000,4.000000,4.000000,4.000000,4.000000,4.000000,4.000000,4.000000,4.000000,4.000000,4.000000,4.000000,4.000000,100.000000,,,,,,,,,,,,,,,,,,,,,,,,,,,,
1703404523.994385,1703404523.994632,116.000000,0.000000,4163.846191,4162.436035,4257.948730,4226.410156,4115.128418,4113.589844,4228.333496,4145.769043,4157.179688,4132.179688,4609.230957,4450.256348,4358.461426,4505.000000,6599.000000,4.000000,85.000000,,,,0.000000,4.000000,4.000000,4.000000,4.000000,4.000000,4.000000,4.000000,4.000000,4.000000,4.000000,4.000000,4.000000,4.000000,4.000000,100.000000,,,,,,,,,,,,,,,,,29.000000,0.000000,0.619637,-0.408508,-0.593689,-0.310974,0.993774,-0.149921,0.003418,-12.301667,-43.116886,64.685448
1703404524.002193,1703404524.002340,117.000000,0.000000,4173.333496,4170.641113,4261.538574,4228.846191,4133.205078,4123.205078,4220.512695,4129.871582,4106.538574,4151.538574,4616.153809,4450.897461,4381.538574,4511.282227,6497.000000,4.000000,85.000000,,,,0.000000,4.000000,4.000000,4.000000,4.000000,4.000000,4.000000,4.000000,4.000000,4.000000,4.000000,4.000000,4.000000,4.000000,4.000000,100.000000,,,,,,,,,,,,,,,,,,,,,,,,,,,,
1703404524.010001,1703404524.010148,118.000000,0.000000,4175.512695,4168.205078,4258.589844,4227.948730,4159.615234,4120.384766,4218.717773,4107.051270,4078.846191,4143.333496,4608.077148,4444.102539,4384.230957,4508.077148,5938.000000,4.000000,85.000000,,,,0.000000,4.000000,4.000000,4.000000,4.000000,4.000000,4.000000,4.000000,4.000000,4.000000,4.000000,4.000000,4.000000,4.000000,4.000000,100.000000,,,,,,,,,,,,,,,,,,,,,,,,,,,,
1703404524.017809,1703404524.017856,119.000000,0.000000,4188.846191,4171.282227,4268.461426,4230.641113,4154.615234,4118.589844,4226.794922,4121.282227,4143.717773,4153.461426,4628.717773,4464.615234,4398.717773,4533.333496,6177.000000,4.000000,85.000000,,,,0.000000,4.000000,4.000000,4.000000,4.000000,4.000000,4.000000,4.000000,4.000000,4.000000,4.000000,4.000000,4.000000,4.000000,4.000000,100.000000,,,,,,,,,,,,,,,,,,,,,,,,,,,,
1703404524.025617,1703404524.025764,120.000000,0.000000,4194.615234,4166.666504,4271.282227,4223.461426,4150.512695,4127.692383,4228.717773,4124.615234,4143.461426,4175.897461,4637.692383,4467.436035,4411.282227,4539.743652,6599.000000,4.000000,85.000000,,,,0.000000,4.000000,4.000000,4.000000,4.000000,4.000000,4.000000,4.000000,4.000000,4.000000,4.000000,4.000000,4.000000,4.000000,4.000000,100.000000,,,,,,,,,,,,,,,,,30.000000,0.000000,0.619587,-0.408325,-0.593994,-0.310730,0.981565,-0.156757,-0.002442,-12.288167,-43.121864,64.750237
1703404524.033425,1703404524.033572,121.000000,0.000000,4181.922852,4153.974121,4260.641113,4217.436035,4151.794922,4130.512695,4226.153809,4099.871582,4099.871582,4172.692383,4609.743652,4440.256348,4397.179688,4512.307617,6497.000000,4.000000,85.000000,,,,0.000000,4.000000,4.000000,4.000000,4.000000,4.000000,4.000000,4.000000,4.000000,4.000000,4.000000,4.000000,4.000000,4.000000,4.000000,100.000000,,,,,,,,,,,,,,,,,,,,,,,,,,,,
1703404524.041233,1703404524.041480,122.000000,0.000000,4167.179688,4148.589844,4251.410156,4214.487305,4142.051270,4124.487305,4228.846191,4100.641113,4117.563965,4148.333496,4596.666504,4427.436035,4380.512695,4499.487305,5938.000000,4.000000,85.000000,,,,0.000000,4.000000,4.000000,4.000000,4.000000,4.000000,4.000000,4.000000,4.000000,4.000000,4.000000,4.000000,4.000000,4.000000,4.000000,100.000000,,,,,,,,,,,,,,,,,,,,,,,,,,,,
1703404524.049041,1703404524.049289,123.000000,0.000000,4158.205078,4141.410156,4243.717773,4203.461426,4137.563965,4121.410156,4233.974121,4127.692383,4124.615234,4132.948730,4605.128418,4427.692383,4374.102539,4498.717773,6177.000000,4.000000,85.000000,,,,0.000000,4.000000,4.000000,4.000000,4.000000,4.000000,4.000000,4.000000,4.000000,4.000000,4.000000,4.000000,4.000000,4.000000,4.000000,100.000000,,,,,,,,,,,,,,,,,,,,,,,,,,,,
1703404524.056849,1703404524.057197,124.000000,0.000000,4152.692383,4127.179688,4235.769043,4196.666504,4133.333496,4125.641113,4236.666504,4138.205078,4100.769043,4137.179688,4594.102539,4423.205078,4363.717773,4489.615234,6599.000000,4.000000,85.000000,,,,0.000000,4.000000,4.000000,4.000000,4.000000,4.000000,4.000000,4.000000,4.000000,4.000000,4.000000,4.000000,4.000000,4.000000,4.000000,100.000000,,,,,,,,,,,,,,,,,31.000000,0.000000,0.619350,-0.408203,-0.594421,-0.310547,0.988402,-0.155292,-0.006348,-12.509351,-43.226341,64.708542
1703404524.064657,1703404524.065005,125.000000,0.000000,4146.666504,4125.000000,4234.358887,4200.128418,4118.461426,4121.410156,4237.179688,4135.641113,4112.820313,4130.000000,4577.436035,4425.897461,4351.410156,4483.589844,6497.000000,4.000000,85.000000,,,,0.000000,4.000000,4.000000,4.000000,4.000000,4.000000,4.000000,4.000000,4.000000,4.000000,4.000000,4.000000,4.000000,4.000000,4.000000,100.000000,,,,,,,,,,,,,,,,,,,,,,,,,,,,
1703404524.072465,1703404524.072913,126.000000,0.000000,4150.897461,4133.589844,4245.641113,4201.153809,4127.692383,4105.128418,4237.820313,4140.641113,4136.410156,4111.410156,4586.282227,4437.563965,4354.487305,4494.743652,5938.000000,4.000000,85.000000,,,,0.000000,4.000000,4.000000,4.000000,4.000000,4.000000,4.000000,4.000000,4.000000,4.000000,4.000000,4.000000,4.000000,4.000000,4.000000,100.000000,,,,,,,,,,,,,,,,,,,,,,,,,,,,
1703404524.080274,1703404524.080721,127.000000,0.000000,4164.358887,4138.846191,4252.436035,4200.641113,4138.077148,4103.717773,4232.820313,4137.948730,4125.897461,4115.000000,4596.282227,4441.410156,4368.846191,4504.487305,85.000000,4.000000,85.000000,,,,0.000000,4.000000,4.000000,4.000000,4.000000,4.000000,4.000000,4.000000,4.000000,4.000000,4.000000,4.000000,4.000000,4.000000,4.000000,100.000000,,,,,,,,,,,,,,,,,,,,,,,,,,,,
1703404524.088081,1703404524.088629,0.000000,0.000000,4171.666504,4146.538574,4255.128418,4211.282227,4116.153809,4119.487305,4231.153809,4132.436035,4102.307617,4151.538574,4602.051270,4446.282227,4384.743652,4506.538574,4600.000000,4.000000,85.000000,,,,0.000000,4.000000,4.000000,4.000000,4.000000,4.000000,4.000000,4.000000,4.000000,4.000000,4.000000,4.000000,4.000000,4.000000,4.000000,100.000000,,,,,,,,,,,,,,,,,0.000000,0.000000,0.619093,-0.408020,-0.594910,-0.310364,0.978635,-0.139665,-0.006348,-12.625082,-43.187042,64.837692
1703404524.095889,1703404524.096437,1.000000,0.000000,4178.717773,4160.384766,4265.641113,4225.897461,4125.256348,4128.461426,4235.384766,4137.179688,4093.461426,4166.666504,4622.179688,4458.205078,4399.102539,4514.743652,5349.000000,4.000000,85.000000,,,,0.000000,4.000000,4.000000,4.000000,4.000000,4.000000,4.000000,4.000000,4.000000,4.000000,4.000000,4.000000,4.000000,4.000000,4.000000,100.000000,,,,,,,,,,,,,,,,,,,,,,,,,,,,
1703404524.103698,1703404524.104145,2.000000,0.000000,4185.769043,4164.487305,4264.871582,4227.692383,4156.410156,4123.974121,4233.589844,4133.077148,4103.589844,4135.000000,4627.307617,4455.641113,4398.846191,4523.846191,5207.000000,4.000000,85.000000,,,,0.000000,4.000000,4.000000,4.000000,4.000000,4.000000,4.000000,4.000000,4.000000,4.000000,4.000000,4.000000,4.000000,4.000000,4.000000,100.000000,,,,,,,,,,,,,,,,,,,,,,,,,,,,
1703404524.111506,1703404524.111953,3.000000,0.000000,4173.077148,4151.025879,4244.230957,4214.230957,4136.794922,4119.871582,4229.487305,4120.384766,4132.436035,4117.820313,4596.666504,4435.256348,4372.436035,4509.358887,5322.000000,4.000000,85.000000,,,,0.000000,4.000000,4.000000,4.000000,4.000000,4.000000,4.000000,4.000000,4.000000,4.000000,4.000000,4.000000,4.000000,4.000000,4.000000,100.000000,,,,,,,,,,,,,,,,,,,,,,,,,,,,
1703404524.119314,1703404524.119661,4.000000,0.000000,4153.717773,4137.436035,4233.077148,4202.051270,4117.436035,4125.128418,4236.794922,4125.000000,4142.051270,4142.820313,4578.333496,4424.358887,4354.102539,4487.436035,5051.000000,4.000000,85.000000,,,,0.000000,4.000000,4.000000,4.000000,4.000000,4.000000,4.000000,4.000000,4.000000,4.000000,4.000000,4.000000,4.000000,4.000000,4.000000,100.000000,,,,,,,,,,,,,,,,,1.000000,0.000000,0.618722,-0.407654,-0.595642,-0.310181,0.978147,-0.136247,0.000000,-12.645907,-43.201672,64.870590
1703404524.127122,1703404524.127469,5.000000,0.000000,4151.025879,4133.333496,4235.128418,4200.128418,4139.102539,4125.641113,4242.692383,4134.615234,4120.641113,4153.717773,4588.717773,4426.153809,4361.922852,4486.282227,4440.000000,4.000000,85.000000,,,,0.000000,4.000000,4.000000,4.000000,4.000000,4.000000,4.000000,4.000000,4.000000,4.000000,4.000000,4.000000,4.000000,4.000000,4.000000,100.000000,,,,,,,,,,,,,,,,,,,,,,,,,,,,
1703404524.134930,1703404524.135177,6.000000,0.000000,4153.205078,4137.692383,4236.538574,4203.589844,4145.641113,4118.205078,4237.563965,4140.000000,4125.897461,4129.102539,4600.641113,4430.769043,4369.615234,4489.871582,2004.000000,4.000000,85.000000,,,,0.000000,4.000000,4.000000,4.000000,4.000000,4.000000,4.000000,4.000000,4.000000,4.000000,4.000000,4.000000,4.000000,4.000000,4.000000,100.000000,,,,,,,,,,,,,,,,,,,,,,,,,,,,
1703404524.142738,1703404524.142985,7.000000,0.000000,4157.820313,4138.846191,4243.846191,4205.000000,4135.384766,4130.128418,4236.410156,4149.615234,4142.307617,4127.563965,4600.641113,4438.589844,4368.205078,4492.563965,5133.000000,4.000000,85.000000,,,,0.000000,4.000000,4.000000,4.000000,4.000000,4.000000,4.000000,4.000000,4.000000,4.000000,4.000000,4.000000,4.000000,4.000000,4.000000,100.000000,,,,,,,,,,,,,,,,,,,,,,,,,,,,
1703404524.150546,1703404524.150693,8.000000,0.000000,4156.922852,4124.871582,4242.436035,4197.563965,4133.333496,4139.743652,4236.794922,4141.410156,4116.025879,4135.000000,4579.487305,4434.871582,4356.282227,4488.974121,4797.000000,4.000000,85.000000,,,,0.000000,4.000000,4.000000,4.000000,4.000000,4.000000,4.000000,4.000000,4.000000,4.000000,4.000000,4.000000,4.000000,4.000000,4.000000,100.000000,,,,,,,,,,,,,,,,,2.000000,0.000000,0.618751,-0.407532,-0.595886,-0.309814,0.978635,-0.139177,-0.006348,-12.547983,-43.198170,64.916862
1703404524.158354,1703404524.158501,9.000000,0.000000,4148.461426,4122.692383,4237.563965,4198.461426,4127.820313,4117.307617,4237.563965,4123.077148,4096.538574,4122.948730,4568.717773,4428.589844,4342.563965,4483.333496,5103.000000,4.000000,85.000000,,,,0.000000,4.000000,4.000000,4.000000,4.000000,4.000000,4.000000,4.000000,4.000000,4.000000,4.000000,4.000000,4.000000,4.000000,4.000000,100.000000,1.000000,58.333332,4.000000,3.000000,3.000000,4.000000,3.000000,4.000000,4.000000,3.000000,3.000000,1.000000,4.000000,4.000000,4.000000,4.000000,,,,,,,,,,,,
1703404524.166162,1703404524.166209,10.000000,0.000000,4164.230957,4144.358887,4256.666504,4215.641113,4132.307617,4112.563965,4244.358887,4130.897461,4124.358887,4127.948730,4599.358887,4446.922852,4360.256348,4497.692383,5948.000000,4.000000,85.000000,,,,0.000000,4.000000,4.000000,4.000000,4.000000,4.000000,4.000000,4.000000,4.000000,4.000000,4.000000,4.000000,4.000000,4.000000,4.000000,100.000000,,,,,,,,,,,,,,,,,,,,,,,,,,,,
1703404524.173970,1703404524.174017,11.000000,0.000000,4184.102539,4157.307617,4267.692383,4223.717773,4142.692383,4138.589844,4242.307617,4144.487305,4127.563965,4144.358887,4623.077148,4462.692383,4386.538574,4513.846191,6180.000000,4.000000,85.000000,,,,0.000000,4.000000,4.000000,4.000000,4.000000,4.000000,4.000000,4.000000,4.000000,4.000000,4.000000,4.000000,4.000000,4.000000,4.000000,100.000000,,,,,,,,,,,,,,,,,,,,,,,,,,,,
1703404524.181778,1703404524.181725,12.000000,0.000000,4177.307617,4153.205078,4255.384766,4221.666504,4144.615234,4140.769043,4237.820313,4133.974121,4105.128418,4146.666504,4613.077148,4453.077148,4382.307617,4513.974121,6631.000000,4.000000,85.000000,,,,0.000000,4.000000,4.000000,4.000000,4.000000,4.000000,4.000000,4.000000,4.000000,4.000000,4.000000,4.000000,4.000000,4.000000,4.000000,100.000000,,,,,,,,,,,,,,,,,3.000000,0.000000,0.618746,-0.407593,-0.596008,-0.309509,0.979123,-0.151874,-0.011720,-12.509851,-43.195019,64.958511
1703404524.189586,1703404524.189533,13.000000,0.000000,4163.846191,4141.922852,4249.102539,4216.025879,4138.333496,4128.077148,4243.589844,4120.897461,4112.051270,4135.384766,4598.589844,4437.563965,4365.128418,4505.384766,6497.000000,4.000000,85.000000,,,,0.000000,4.000000,4.000000,4.000000,4.000000,4.000000,4.000000,4.000000,4.000000,4.000000,4.000000,4.000000,4.000000,4.000000,4.000000,100.000000,,,,,,,,,,,,,,,,,,,,,,,,,,,,
1703404524.197394,1703404524.197241,14.000000,0.000000,4155.000000,4123.974121,4243.205078,4201.410156,4111.025879,4124.102539,4244.102539,4122.436035,4115.769043,4116.666504,4586.282227,4424.871582,4356.025879,4492.179688,5948.000000,4.000000,85.000000,,,,0.000000,4.000000,4.000000,4.000000,4.000000,4.000000,4.000000,4.000000,4.000000,4.000000,4.000000,4.000000,4.000000,4.000000,4.000000,100.000000,,,,,,,,,,,,,,,,,,,,,,,,,,,,
1703404524.205202,1703404524.205149,15.000000,0.000000,4152.948730,4126.282227,4234.358887,4201.153809,4098.077148,4122.820313,4241.153809,4138.333496,4105.384766,4119.871582,4584.230957,4424.871582,4358.461426,4486.922852,6180.000000,4.000000,85.000000,,,,0.000000,4.000000,4.000000,4.000000,4.000000,4.000000,4.000000,4.000000,4.000000,4.000000,4.000000,4.000000,4.000000,4.000000,4.000000,100.000000,,,,,,,,,,,,,,,,,,,,,,,,,,,,
1703404524.213010,1703404524.212957,16.000000,0.000000,4161.922852,4142.692383,4239.743652,4215.769043,4129.102539,4131.025879,4249.743652,4152.563965,4123.717773,4143.205078,4600.897461,4436.410156,4366.666504,4495.769043,0.000000,4.000000,85.000000,,,,0.000000,4.000000,4.000000,4.000000,4.000000,4.000000,4.000000,4.000000,4.000000,4.000000,4.000000,4.000000,4.000000,4.000000,4.000000,100.000000,,,,,,,,,,,,,,,,,4.000000,0.000000,0.618655,-0.407288,-0.596375,-0.309387,0.976682,-0.149432,-0.021487,-12.425533,-43.392185,64.745995
1703404524.220818,1703404524.220865,17.000000,0.000000,4158.974121,4131.922852,4241.282227,4206.922852,4148.589844,4130.256348,4253.333496,4142.563965,4140.128418,4126.922852,4588.974121,4427.692383,4359.743652,4492.307617,0.000000,4.000000,85.000000,,,,0.000000,4.000000,4.000000,4.000000,4.000000,4.000000,4.000000,4.000000,4.000000,4.000000,4.000000,4.000000,4.000000,4.000000,4.000000,100.000000,,,,,,,,,,,,,,,,,,,,,,,,,,,,
1703404524.228626,1703404524.228674,18.000000,0.000000,4151.282227,4121.410156,4237.179688,4194.615234,4137.948730,4113.974121,4242.820313,4132.307617,4132.820313,4110.769043,4560.000000,4416.282227,4348.589844,4482.436035,0.000000,4.000000,85.000000,,,,0.000000,4.000000,4.000000,4.000000,4.000000,4.000000,4.000000,4.000000,4.000000,4.000000,4.000000,4.000000,4.000000,4.000000,4.000000,100.000000,,,,,,,,,,,,,,,,,,,,,,,,,,,,
1703404524.236434,1703404524.236582,19.000000,0.000000,4164.358887,4135.256348,4246.794922,4209.871582,4134.743652,4115.128418,4238.333496,4139.871582,4122.436035,4146.538574,4577.948730,4433.974121,4359.487305,4497.307617,0.000000,4.000000,85.000000,,,,0.000000,4.000000,4.000000,4.000000,4.000000,4.000000,4.000000,4.000000,4.000000,4.000000,4.000000,4.000000,4.000000,4.000000,4.000000,100.000000,,,,,,,,,,,,,,,,,,,,,,,,,,,,
1703404524.244243,1703404524.244390,20.000000,0.000000,4174.230957,4143.974121,4255.769043,4220.000000,4135.128418,4125.128418,4240.769043,4143.077148,4102.948730,4165.769043,4618.461426,4448.974121,4379.487305,4513.333496,0.000000,4.000000,85.000000,,,,0.000000,4.000000,4.000000,4.000000,4.000000,4.000000,4.000000,4.000000,4.000000,4.000000,4.000000,4.000000,4.000000,4.000000,4.000000,100.000000,,,,,,,,,,,,,,,,,5.000000,0.000000,0.618608,-0.407227,-0.596497,-0.309326,0.969845,-0.139665,-0.011232,-12.332980,-43.302967,64.704727
1703404524.252051,1703404524.252298,21.000000,0.000000,4173.974121,4145.769043,4255.641113,4216.025879,4142.436035,4123.333496,4240.769043,4135.384766,4111.666504,4142.051270,4622.179688,4440.897461,4385.769043,4507.563965,0.000000,4.000000,85.000000,,,,0.000000,4.000000,4.000000,4.000000,4.000000,4.000000,4.000000,4.000000,4.000000,4.000000,4.000000,4.000000,4.000000,4.000000,4.000000,100.000000,,,,,,,,,,,,,,,,,,,,,,,,,,,,
1703404524.259858,1703404524.260106,22.000000,0.000000,4182.563965,4152.948730,4257.051270,4221.282227,4144.743652,4124.358887,4238.461426,4133.846191,4151.538574,4126.666504,4608.589844,4437.307617,4377.307617,4503.077148,0.000000,4.000000,85.000000,,,,0.000000,4.000000,4.000000,4.000000,4.000000,4.000000,4.000000,4.000000,4.000000,4.000000,4.000000,4.000000,4.000000,4.000000,4.000000,100.000000,,,,,,,,,,,,,,,,,,,,,,,,,,,,
1703404524.267667,1703404524.268014,23.000000,0.000000,4187.436035,4158.077148,4256.538574,4233.205078,4119.487305,4131.538574,4238.974121,4133.205078,4139.358887,4144.871582,4614.487305,4444.102539,4373.589844,4510.897461,0.000000,4.000000,85.000000,,,,0.000000,4.000000,4.000000,4.000000,4.000000,4.000000,4.000000,4.000000,4.000000,4.000000,4.000000,4.000000,4.000000,4.000000,4.000000,100.000000,,,,,,,,,,,,,,,,,,,,,,,,,,,,
1703404524.275475,1703404524.275821,24.000000,0.000000,4180.897461,4161.282227,4253.974121,4233.846191,4130.128418,4141.153809,4244.230957,4127.436035,4110.128418,4157.820313,4617.179688,4443.077148,4385.641113,4513.589844,0.000000,4.000000,85.000000,,,,0.000000,4.000000,4.000000,4.000000,4.000000,4.000000,4.000000,4.000000,4.000000,4.000000,4.000000,4.000000,4.000000,4.000000,4.000000,100.000000,,,,,,,,,,,,,,,,,6.000000,0.000000,0.618535,-0.406982,-0.596802,-0.309204,0.988890,-0.138200,-0.014162,-12.233015,-43.406002,64.767586
1703404524.283283,1703404524.283729,25.000000,0.000000,4175.512695,4160.384766,4251.794922,4222.820313,4163.974121,4142.051270,4247.436035,4131.794922,4145.641113,4143.461426,4607.436035,4438.077148,4390.641113,4507.307617,0.000000,4.000000,85.000000,,,,0.000000,4.000000,4.000000,4.000000,4.000000,4.000000,4.000000,4.000000,4.000000,4.000000,4.000000,4.000000,4.000000,4.000000,4.000000,100.000000,,,,,,,,,,,,,,,,,,,,,,,,,,,,
1703404524.291091,1703404524.291537,26.000000,0.000000,4170.641113,4147.820313,4250.641113,4215.769043,4143.077148,4129.230957,4247.948730,4142.051270,4163.589844,4124.358887,4597.436035,4437.307617,4369.487305,4503.589844,0.000000,4.000000,85.000000,,,,0.000000,4.000000,4.000000,4.000000,4.000000,4.000000,4.000000,4.000000,4.000000,4.000000,4.000000,4.000000,4.000000,4.000000,4.000000,100.000000,,,,,,,,,,,,,,,,,,,,,,,,,,,,
1703404524.298899,1703404524.299245,27.000000,0.000000,4168.717773,4136.922852,4252.563965,4215.897461,4116.666504,4128.846191,4248.461426,4147.563965,4132.563965,4110.000000,4587.692383,4438.717773,4353.846191,4506.538574,0.000000,4.000000,85.000000,,,,0.000000,4.000000,4.000000,4.000000,4.000000,4.000000,4.000000,4.000000,4.000000,4.000000,4.000000,4.000000,4.000000,4.000000,4.000000,100.000000,,,,,,,,,,,,,,,,,,,,,,,,,,,,
1703404524.306707,1703404524.307053,28.000000,0.000000,4169.487305,4134.358887,4251.153809,4214.615234,4140.000000,4136.282227,4250.897461,4153.589844,4125.128418,4123.333496,4590.000000,4442.051270,4362.051270,4507.692383,0.000000,4.000000,85.000000,,,,0.000000,4.000000,4.000000,4.000000,4.000000,4.000000,4.000000,4.000000,4.000000,4.000000,4.000000,4.000000,4.000000,4.000000,4.000000,100.000000,,,,,,,,,,,,,,,,,7.000000,0.000000,0.618547,-0.406738,-0.596924,-0.309265,0.980588,-0.139177,-0.002442,-12.209714,-43.482071,64.757492
1703404524.314515,1703404524.314761,29.000000,0.000000,4169.743652,4140.128418,4248.974121,4212.563965,4153.461426,4127.948730,4252.692383,4154.871582,4122.948730,4162.692383,4598.846191,4446.282227,4364.102539,4504.102539,0.000000,4.000000,85.000000,,,,0.000000,4.000000,4.000000,4.000000,4.000000,4.000000,4.000000,4.000000,4.000000,4.000000,4.000000,4.000000,4.000000,4.000000,4.000000,100.000000,,,,,,,,,,,,,,,,,,,,,,,,,,,,
1703404524.322323,1703404524.322569,30.000000,0.000000,4186.153809,4149.102539,4260.128418,4219.743652,4133.974121,4118.717773,4248.717773,4145.256348,4119.615234,4162.820313,4601.794922,4450.641113,4358.974121,4510.512695,0.000000,4.000000,85.000000,,,,0.000000,4.000000,4.000000,4.000000,4.000000,4.000000,4.000000,4.000000,4.000000,4.000000,4.000000,4.000000,4.000000,4.000000,4.000000,100.000000,,,,,,,,,,,,,,,,,,,,,,,,,,,,
1703404524.330131,1703404524.330277,31.000000,0.000000,4202.948730,4154.358887,4272.563965,4231.282227,4135.000000,4121.410156,4247.307617,4140.384766,4135.897461,4118.461426,4596.025879,4454.871582,4363.589844,4523.205078,0.000000,4.000000,85.000000,,,,0.000000,4.000000,4.000000,4.000000,4.000000,4.000000,4.000000,4.000000,4.000000,4.000000,4.000000,4.000000,4.000000,4.000000,4.000000,100.000000,,,,,,,,,,,,,,,,,,,,,,,,,,,,
1703404524.337939,1703404524.338085,32.000000,0.000000,4196.410156,4164.102539,4272.179688,4236.282227,4146.922852,4128.589844,4246.794922,4144.743652,4141.282227,4112.948730,4598.461426,4458.846191,4365.769043,4523.846191,0.000000,4.000000,85.000000,,,,0.000000,4.000000,4.000000,4.000000,4.000000,4.000000,4.000000,4.000000,4.000000,4.000000,4.000000,4.000000,4.000000,4.000000,4.000000,100.000000,,,,,,,,,,,,,,,,,8.000000,0.000000,0.618529,-0.406494,-0.597046,-0.309387,0.980588,-0.140642,-0.006348,-12.222075,-43.467197,64.881744
1703404524.345747,1703404524.345794,33.000000,0.000000,4188.333496,4173.077148,4267.436035,4236.153809,4133.077148,4127.948730,4244.743652,4142.820313,4119.615234,4136.666504,4605.897461,4455.256348,4364.102539,4517.436035,0.000000,4.000000,85.000000,,,,0.000000,4.000000,4.000000,4.000000,4.000000,4.000000,4.000000,4.000000,4.000000,4.000000,4.000000,4.000000,4.000000,4.000000,4.000000,100.000000,,,,,,,,,,,,,,,,,,,,,,,,,,,,
1703404524.353555,1703404524.353702,34.000000,0.000000,4198.589844,4170.256348,4268.589844,4234.358887,4127.948730,4123.205078,4244.102539,4142.820313,4126.153809,4141.282227,4605.512695,4454.487305,4374.743652,4523.205078,0.000000,4.000000,85.000000,,,,0.000000,4.000000,4.000000,4.000000,4.000000,4.000000,4.000000,4.000000,4.000000,4.000000,4.000000,4.000000,4.000000,4.000000,4.000000,100.000000,,,,,,,,,,,,,,,,,,,,,,,,,,,,
1703404524.361363,1703404524.361510,35.000000,0.000000,4204.102539,4162.051270,4270.000000,4234.230957,4156.153809,4130.512695,4246.538574,4154.358887,4166.410156,4155.897461,4609.358887,4465.128418,4381.025879,4533.589844,0.000000,4.000000,85.000000,,,,0.000000,4.000000,4.000000,4.000000,4.000000,4.000000,4.000000,4.000000,4.000000,4.000000,4.000000,4.000000,4.000000,4.000000,4.000000,100.000000,,,,,,,,,,,,,,,,,,,,,,,,,,,,
1703404524.369171,1703404524.369318,36.000000,0.000000,4189.230957,4156.282227,4262.820313,4230.256348,4172.820313,4139.743652,4248.333496,4157.692383,4160.897461,4165.897461,4616.538574,4461.922852,4371.538574,4524.871582,0.000000,4.000000,85.000000,,,,0.000000,4.000000,4.000000,4.000000,4.000000,4.000000,4.000000,4.000000,4.000000,4.000000,4.000000,4.000000,4.000000,4.000000,4.000000,100.000000,,,,,,,,,,,,,,,,,9.000000,0.000000,0.618638,-0.406189,-0.597046,-0.309570,0.995239,-0.137224,-0.012697,-12.233201,-43.370476,64.910240
1703404524.376979,1703404524.377026,37.000000,0.000000,4173.846191,4149.102539,4252.820313,4220.769043,4151.025879,4129.615234,4248.077148,4145.000000,4129.487305,4159.871582,4618.717773,4445.512695,4367.692383,4506.666504,0.000000,4.000000,85.000000,,,,0.000000,4.000000,4.000000,4.000000,4.000000,4.000000,4.000000,4.000000,4.000000,4.000000,4.000000,4.000000,4.000000,4.000000,4.000000,100.000000,,,,,,,,,,,,,,,,,,,,,,,,,,,,
1703404524.384787,1703404524.384834,38.000000,0.000000,4168.974121,4146.922852,4248.717773,4215.128418,4133.846191,4120.128418,4245.769043,4137.563965,4133.846191,4142.948730,4613.974121,4441.025879,4370.384766,4500.897461,0.000000,4.000000,85.000000,,,,0.000000,4.000000,4.000000,4.000000,4.000000,4.000000,4.000000,4.000000,4.000000,4.000000,4.000000,4.000000,4.000000,4.000000,4.000000,100.000000,,,,,,,,,,,,,,,,,,,,,,,,,,,,
1703404524.392595,1703404524.392542,39.000000,0.000000,4175.512695,4152.051270,4250.897461,4221.922852,4138.205078,4122.692383,4241.538574,4139.871582,4134.230957,4109.615234,4604.358887,4442.051270,4374.743652,4504.871582,0.000000,4.000000,85.000000,,,,0.000000,4.000000,4.000000,4.000000,4.000000,4.000000,4.000000,4.000000,4.000000,4.000000,4.000000,4.000000,4.000000,4.000000,4.000000,100.000000,,,,,,,,,,,,,,,,,,,,,,,,,,,,
1703404524.400403,1703404524.400450,40.000000,0.000000,4186.794922,4152.948730,4255.897461,4230.897461,4144.615234,4119.743652,4237.051270,4132.179688,4104.487305,4116.794922,4594.358887,4434.358887,4372.948730,4507.436035,0.000000,4.000000,85.000000,,,,0.000000,4.000000,4.000000,4.000000,4.000000,4.000000,4.000000,4.000000,4.000000,4.000000,4.000000,4.000000,4.000000,4.000000,4.000000,100.000000,,,,,,,,,,,,,,,,,10.000000,0.000000,0.618843,-0.406006,-0.596863,-0.309753,0.992309,-0.132340,-0.005372,-12.176548,-43.266762,65.002548
1703404524.408212,1703404524.408258,41.000000,0.000000,4186.282227,4156.282227,4257.436035,4230.512695,4154.102539,4116.153809,4231.538574,4118.461426,4112.692383,4153.205078,4596.282227,4432.948730,4362.948730,4504.871582,0.000000,4.000000,85.000000,,,,0.000000,4.000000,4.000000,4.000000,4.000000,4.000000,4.000000,4.000000,4.000000,4.000000,4.000000,4.000000,4.000000,4.000000,4.000000,100.000000,,,,,,,,,,,,,,,,,,,,,,,,,,,,
1703404524.416020,1703404524.416167,42.000000,0.000000,4183.589844,4157.436035,4258.333496,4227.436035,4153.589844,4117.692383,4233.333496,4123.461426,4137.948730,4137.692383,4602.820313,4443.717773,4357.307617,4503.974121,0.000000,4.000000,85.000000,,,,0.000000,4.000000,4.000000,4.000000,4.000000,4.000000,4.000000,4.000000,4.000000,4.000000,4.000000,4.000000,4.000000,4.000000,4.000000,100.000000,,,,,,,,,,,,,,,,,,,,,,,,,,,,
1703404524.423828,1703404524.423975,43.000000,0.000000,4193.846191,4152.307617,4263.333496,4226.794922,4136.922852,4116.794922,4241.410156,4139.102539,4136.153809,4110.256348,4596.922852,4453.205078,4364.102539,4513.333496,0.000000,4.000000,85.000000,,,,0.000000,4.000000,4.000000,4.000000,4.000000,4.000000,4.000000,4.000000,4.000000,4.000000,4.000000,4.000000,4.000000,4.000000,4.000000,100.000000,,,,,,,,,,,,,,,,,,,,,,,,,,,,
1703404524.431636,1703404524.431883,44.000000,0.000000,4203.589844,4158.589844,4268.717773,4232.820313,4138.461426,4118.077148,4241.153809,4138.461426,4138.717773,4139.743652,4597.436035,4453.077148,4372.307617,4521.922852,0.000000,4.000000,85.000000,,,,0.000000,4.000000,4.000000,4.000000,4.000000,4.000000,4.000000,4.000000,4.000000,4.000000,4.000000,4.000000,4.000000,4.000000,4.000000,100.000000,,,,,,,,,,,,,,,,,11.000000,0.000000,0.619020,-0.406006,-0.596680,-0.309753,0.976193,-0.131852,0.012209,-12.192226,-43.140087,65.052292
1703404524.439444,1703404524.439691,45.000000,0.000000,4206.922852,4174.743652,4272.307617,4244.358887,4158.333496,4122.948730,4241.794922,4136.025879,4134.358887,4167.179688,4615.897461,4455.128418,4379.102539,4523.846191,0.000000,4.000000,85.000000,,,,0.000000,4.000000,4.000000,4.000000,4.000000,4.000000,4.000000,4.000000,4.000000,4.000000,4.000000,4.000000,4.000000,4.000000,4.000000,100.000000,,,,,,,,,,,,,,,,,,,,,,,,,,,,
1703404524.447252,1703404524.447599,46.000000,0.000000,4212.307617,4179.615234,4277.563965,4246.025879,4152.948730,4126.025879,4246.153809,4150.000000,4132.563965,4146.922852,4636.794922,4469.230957,4396.666504,4534.102539,0.000000,4.000000,85.000000,,,,0.000000,4.000000,4.000000,4.000000,4.000000,4.000000,4.000000,4.000000,4.000000,4.000000,4.000000,4.000000,4.000000,4.000000,4.000000,100.000000,,,,,,,,,,,,,,,,,,,,,,,,,,,,
1703404524.455060,1703404524.455406,47.000000,0.000000,4205.384766,4163.717773,4270.384766,4230.641113,4130.897461,4122.820313,4243.077148,4150.641113,4138.333496,4122.948730,4631.153809,4467.436035,4394.871582,4534.358887,0.000000,4.000000,85.000000,,,,0.000000,4.000000,4.000000,4.000000,4.000000,4.000000,4.000000,4.000000,4.000000,4.000000,4.000000,4.000000,4.000000,4.000000,4.000000,100.000000,,,,,,,,,,,,,,,,,,,,,,,,,,,,
1703404524.462868,1703404524.463314,48.000000,0.000000,4180.641113,4145.641113,4250.641113,4215.769043,4136.153809,4119.358887,4240.512695,4130.384766,4129.358887,4120.128418,4601.666504,4442.051270,4366.666504,4508.589844,0.000000,4.000000,85.000000,,,,0.000000,4.000000,4.000000,4.000000,4.000000,4.000000,4.000000,4.000000,4.000000,4.000000,4.000000,4.000000,4.000000,4.000000,4.000000,100.000000,,,,,,,,,,,,,,,,,12.000000,0.000000,0.619159,-0.405884,-0.596619,-0.309753,0.980588,-0.131852,-0.008790,-12.173004,-43.076077,64.980400
1703404524.470676,1703404524.471122,49.000000,0.000000,4172.179688,4150.641113,4247.179688,4216.666504,4155.769043,4124.102539,4246.025879,4130.641113,4138.333496,4128.717773,4597.563965,4434.487305,4362.051270,4499.615234,0.000000,4.000000,85.000000,,,,0.000000,4.000000,4.000000,4.000000,4.000000,4.000000,4.000000,4.000000,4.000000,4.000000,4.000000,4.000000,4.000000,4.000000,4.000000,100.000000,,,,,,,,,,,,,,,,,,,,,,,,,,,,
1703404524.478484,1703404524.478830,50.000000,0.000000,4184.102539,4157.692383,4253.974121,4218.461426,4137.307617,4123.974121,4247.563965,4143.846191,4153.461426,4128.846191,4605.512695,4441.410156,4368.717773,4510.128418,0.000000,4.000000,85.000000,,,,0.000000,4.000000,4.000000,4.000000,4.000000,4.000000,4.000000,4.000000,4.000000,4.000000,4.000000,4.000000,4.000000,4.000000,4.000000,100.000000,,,,,,,,,,,,,,,,,,,,,,,,,,,,
1703404524.486292,1703404524.486638,51.000000,0.000000,4184.230957,4141.538574,4253.717773,4212.051270,4106.282227,4111.282227,4243.205078,4134.871582,4138.205078,4123.846191,4588.717773,4435.000000,4351.153809,4500.512695,0.000000,4.000000,85.000000,,,,0.000000,4.000000,4.000000,4.000000,4.000000,4.000000,4.000000,4.000000,4.000000,4.000000,4.000000,4.000000,4.000000,4.000000,4.000000,100.000000,,,,,,,,,,,,,,,,,,,,,,,,,,,,
1703404524.494100,1703404524.494346,52.000000,0.000000,4179.743652,4139.358887,4259.230957,4215.769043,4127.563965,4107.307617,4243.461426,4125.128418,4122.436035,4145.641113,4588.717773,4435.641113,4346.922852,4495.641113,0.000000,4.000000,85.000000,,,,0.000000,4.000000,4.000000,4.000000,4.000000,4.000000,4.000000,4.000000,4.000000,4.000000,4.000000,4.000000,4.000000,4.000000,4.000000,100.000000,,,,,,,,,,,,,,,,,13.000000,0.000000,0.619396,-0.405701,-0.596497,-0.309753,0.982542,-0.143084,0.002442,-12.289037,-43.218468,65.082359
1703404524.501908,1703404524.502154,53.000000,0.000000,4193.717773,4167.948730,4272.820313,4230.256348,4176.922852,4120.512695,4245.769043,4142.692383,4128.333496,4164.487305,4619.358887,4458.333496,4375.769043,4519.102539,0.000000,4.000000,85.000000,,,,0.000000,4.000000,4.000000,4.000000,4.000000,4.000000,4.000000,4.000000,4.000000,4.000000,4.000000,4.000000,4.000000,4.000000,4.000000,100.000000,,,,,,,,,,,,,,,,,,,,,,,,,,,,
1703404524.509716,1703404524.509862,54.000000,0.000000,4206.538574,4179.358887,4276.282227,4237.436035,4171.410156,4128.461426,4244.487305,4160.000000,4131.025879,4150.384766,4628.077148,4472.436035,4388.846191,4533.333496,0.000000,4.000000,85.000000,,,,0.000000,4.000000,4.000000,4.000000,4.000000,4.000000,4.000000,4.000000,4.000000,4.000000,4.000000,4.000000,4.000000,4.000000,4.000000,100.000000,,,,,,,,,,,,,,,,,,,,,,,,,,,,
1703404524.517524,1703404524.517670,55.000000,0.000000,4200.128418,4163.589844,4269.102539,4228.077148,4129.102539,4126.282227,4242.179688,4151.282227,4135.897461,4148.333496,4617.051270,4465.000000,4378.974121,4524.230957,0.000000,4.000000,85.000000,,,,0.000000,4.000000,4.000000,4.000000,4.000000,4.000000,4.000000,4.000000,4.000000,4.000000,4.000000,4.000000,4.000000,4.000000,4.000000,100.000000,,,,,,,,,,,,,,,,,,,,,,,,,,,,
1703404524.525332,1703404524.525379,56.000000,0.000000,4194.871582,4157.948730,4264.230957,4220.128418,4133.846191,4124.487305,4244.102539,4139.615234,4145.512695,4156.666504,4610.897461,4452.820313,4371.153809,4518.717773,0.000000,4.000000,85.000000,,,,0.000000,4.000000,4.000000,4.000000,4.000000,4.000000,4.000000,4.000000,4.000000,4.000000,4.000000,4.000000,4.000000,4.000000,4.000000,100.000000,,,,,,,,,,,,,,,,,14.000000,0.000000,0.619337,-0.405701,-0.596558,-0.309753,0.995239,-0.147479,-0.006837,-12.193466,-43.246624,64.940788
1703404524.533140,1703404524.533186,57.000000,0.000000,4199.102539,4167.179688,4266.153809,4223.846191,4153.077148,4120.256348,4247.436035,4149.871582,4148.461426,4147.563965,4608.333496,4453.461426,4372.179688,4523.461426,0.000000,4.000000,85.000000,,,,0.000000,4.000000,4.000000,4.000000,4.000000,4.000000,4.000000,4.000000,4.000000,4.000000,4.000000,4.000000,4.000000,4.000000,4.000000,100.000000,,,,,,,,,,,,,,,,,,,,,,,,,,,,
1703404524.540948,1703404524.540895,58.000000,0.000000,4204.871582,4172.948730,4269.358887,4225.641113,4139.487305,4125.641113,4248.846191,4159.871582,4158.589844,4139.871582,4616.282227,4464.487305,4380.897461,4527.820313,0.000000,4.000000,85.000000,,,,0.000000,4.000000,4.000000,4.000000,4.000000,4.000000,4.000000,4.000000,4.000000,4.000000,4.000000,4.000000,4.000000,4.000000,4.000000,100.000000,,,,,,,,,,,,,,,,,,,,,,,,,,,,
1703404524.548756,1703404524.548703,59.000000,0.000000,4197.563965,4160.000000,4261.153809,4215.256348,4136.794922,4135.641113,4246.410156,4143.077148,4146.153809,4135.641113,4608.717773,4456.794922,4362.179688,4514.487305,0.000000,4.000000,85.000000,,,,0.000000,4.000000,4.000000,4.000000,4.000000,4.000000,4.000000,4.000000,4.000000,4.000000,4.000000,4.000000,4.000000,4.000000,4.000000,100.000000,,,,,,,,,,,,,,,,,,,,,,,,,,,,
1703404524.556564,1703404524.556411,60.000000,0.000000,4175.000000,4140.897461,4247.820313,4205.512695,4144.871582,4122.948730,4240.256348,4121.666504,4112.948730,4116.282227,4574.743652,4428.974121,4326.410156,4486.025879,0.000000,4.000000,85.000000,,,,0.000000,4.000000,4.000000,4.000000,4.000000,4.000000,4.000000,4.000000,4.000000,4.000000,4.000000,4.000000,4.000000,4.000000,4.000000,100.000000,,,,,,,,,,,,,,,,,15.000000,0.000000,0.619586,-0.405640,-0.596436,-0.309570,0.984495,-0.135759,-0.000488,-12.274119,-43.271961,64.980042
1703404524.564372,1703404524.564219,61.000000,0.000000,4163.333496,4139.358887,4243.974121,4208.205078,4135.384766,4106.025879,4240.128418,4118.333496,4111.410156,4096.538574,4563.205078,4416.153809,4321.153809,4476.538574,0.000000,4.000000,85.000000,,,,0.000000,4.000000,4.000000,4.000000,4.000000,4.000000,4.000000,4.000000,4.000000,4.000000,4.000000,4.000000,4.000000,4.000000,4.000000,100.000000,,,,,,,,,,,,,,,,,,,,,,,,,,,,
1703404524.572181,1703404524.571927,62.000000,0.000000,4169.871582,4145.256348,4244.615234,4211.922852,4137.179688,4112.179688,4247.948730,4126.666504,4123.846191,4106.794922,4585.769043,4427.948730,4339.358887,4488.461426,0.000000,4.000000,85.000000,,,,0.000000,4.000000,4.000000,4.000000,4.000000,4.000000,4.000000,4.000000,4.000000,4.000000,4.000000,4.000000,4.000000,4.000000,4.000000,100.000000,,,,,,,,,,,,,,,,,,,,,,,,,,,,
1703404524.579989,1703404524.579835,63.000000,0.000000,4176.282227,4150.128418,4252.179688,4215.641113,4155.897461,4130.897461,4248.717773,4138.333496,4123.974121,4132.948730,4602.563965,4444.230957,4356.666504,4499.358887,0.000000,4.000000,85.000000,,,,0.000000,4.000000,4.000000,4.000000,4.000000,4.000000,4.000000,4.000000,4.000000,4.000000,4.000000,4.000000,4.000000,4.000000,4.000000,100.000000,,,,,,,,,,,,,,,,,,,,,,,,,,,,
1703404524.587797,1703404524.587643,64.000000,0.000000,4183.974121,4158.974121,4265.128418,4217.948730,4153.717773,4136.794922,4245.769043,4136.410156,4121.025879,4137.820313,4602.436035,4451.794922,4364.487305,4505.897461,4600.000000,4.000000,85.000000,,,,0.000000,4.000000,4.000000,4.000000,4.000000,4.000000,4.000000,4.000000,4.000000,4.000000,4.000000,4.000000,4.000000,4.000000,4.000000,100.000000,,,,,,,,,,,,,,,,,16.000000,0.000000,0.619758,-0.405701,-0.596375,-0.309265,0.986449,-0.130387,-0.001953,-12.196708,-43.311432,64.865372
1703404524.595605,1703404524.595551,65.000000,0.000000,4202.051270,4166.538574,4271.282227,4216.922852,4148.205078,4128.589844,4247.948730,4127.563965,4116.282227,4136.666504,4604.102539,4457.436035,4365.769043,4516.666504,5349.000000,4.000000,85.000000,,,,0.000000,4.000000,4.000000,4.000000,4.000000,4.000000,4.000000,4.000000,4.000000,4.000000,4.000000,4.000000,4.000000,4.000000,4.000000,100.000000,,,,,,,,,,,,,,,,,,,,,,,,,,,,
1703404524.603413,1703404524.603359,66.000000,0.000000,4217.436035,4173.717773,4278.846191,4228.077148,4151.538574,4125.128418,4248.205078,4139.615234,4129.743652,4157.948730,4618.974121,4468.333496,4375.641113,4532.563965,5207.000000,4.000000,85.000000,,,,0.000000,4.000000,4.000000,4.000000,4.000000,4.000000,4.000000,4.000000,4.000000,4.000000,4.000000,4.000000,4.000000,4.000000,4.000000,100.000000,,,,,,,,,,,,,,,,,,,,,,,,,,,,
1703404524.611221,1703404524.611267,67.000000,0.000000,4216.410156,4174.743652,4284.102539,4231.922852,4141.410156,4133.974121,4248.589844,4153.974121,4153.846191,4168.846191,4632.948730,4475.128418,4387.948730,4539.358887,5327.000000,4.000000,85.000000,,,,0.000000,4.000000,4.000000,4.000000,4.000000,4.000000,4.000000,4.000000,4.000000,4.000000,4.000000,4.000000,4.000000,4.000000,4.000000,100.000000,,,,,,,,,,,,,,,,,,,,,,,,,,,,
1703404524.619029,1703404524.619076,68.000000,0.000000,4206.538574,4166.025879,4272.820313,4221.025879,4131.922852,4139.743652,4249.102539,4145.641113,4147.179688,4139.358887,4625.641113,4467.307617,4380.128418,4529.230957,5086.000000,4.000000,85.000000,,,,0.000000,4.000000,4.000000,4.000000,4.000000,4.000000,4.000000,4.000000,4.000000,4.000000,4.000000,4.000000,4.000000,4.000000,4.000000,100.000000,,,,,,,,,,,,,,,,,17.000000,0.000000,0.619912,-0.405884,-0.596375,-0.308716,0.981077,-0.137712,0.001465,-12.343703,-43.313622,64.762169
1703404524.626837,1703404524.626983,69.000000,0.000000,4202.820313,4171.282227,4265.897461,4224.358887,4148.205078,4137.563965,4248.077148,4135.769043,4130.256348,4131.666504,4614.230957,4459.487305,4368.333496,4517.563965,4398.000000,4.000000,85.000000,,,,0.000000,4.000000,4.000000,4.000000,4.000000,4.000000,4.000000,4.000000,4.000000,4.000000,4.000000,4.000000,4.000000,4.000000,4.000000,100.000000,,,,,,,,,,,,,,,,,,,,,,,,,,,,
1703404524.634645,1703404524.634791,70.000000,0.000000,4210.256348,4185.897461,4275.128418,4238.717773,4169.230957,4135.256348,4249.615234,4139.487305,4143.589844,4162.820313,4617.948730,4461.410156,4375.384766,4522.436035,2000.000000,4.000000,85.000000,,,,0.000000,4.000000,4.000000,4.000000,4.000000,4.000000,4.000000,4.000000,4.000000,4.000000,4.000000,4.000000,4.000000,4.000000,4.000000,100.000000,,,,,,,,,,,,,,,,,,,,,,,,,,,,
1703404524.642453,1703404524.642699,71.000000,0.000000,4209.743652,4179.615234,4275.384766,4235.000000,4158.461426,4127.179688,4249.615234,4141.025879,4144.102539,4165.128418,4617.307617,4458.974121,4376.410156,4523.077148,5141.000000,4.000000,85.000000,,,,0.000000,4.000000,4.000000,4.000000,4.000000,4.000000,4.000000,4.000000,4.000000,4.000000,4.000000,4.000000,4.000000,4.000000,4.000000,100.000000,,,,,,,,,,,,,,,,,,,,,,,,,,,,
1703404524.650261,1703404524.650507,72.000000,0.000000,4199.487305,4167.307617,4262.051270,4227.692383,4137.563965,4120.897461,4246.410156,4135.000000,4119.615234,4147.436035,4606.666504,4449.230957,4366.025879,4511.666504,4849.000000,4.000000,85.000000,,,,0.000000,4.000000,4.000000,4.000000,4.000000,4.000000,4.000000,4.000000,4.000000,4.000000,4.000000,4.000000,4.000000,4.000000,4.000000,100.000000,,,,,,,,,,,,,,,,,18.000000,0.000000,0.620027,-0.405945,-0.596497,-0.308167,0.981565,-0.135270,-0.007813,-12.376000,-43.298927,64.735954
1703404524.658069,1703404524.658415,73.000000,0.000000,4199.615234,4168.846191,4259.102539,4229.487305,4147.563965,4123.974121,4245.512695,4126.794922,4114.487305,4151.538574,4601.410156,4445.128418,4364.743652,4506.410156,5023.000000,4.000000,85.000000,,,,0.000000,4.000000,4.000000,4.000000,4.000000,4.000000,4.000000,4.000000,4.000000,4.000000,4.000000,4.000000,4.000000,4.000000,4.000000,100.000000,1.000000,58.333332,4.000000,4.000000,4.000000,4.000000,3.000000,4.000000,4.000000,4.000000,3.000000,1.000000,4.000000,4.000000,4.000000,4.000000,,,,,,,,,,,,
1703404524.665877,1703404524.666223,74.000000,0.000000,4202.692383,4167.948730,4263.333496,4221.666504,4166.538574,4122.436035,4247.307617,4120.384766,4121.282227,4148.333496,4603.589844,4445.641113,4369.358887,4507.436035,5948.000000,4.000000,85.000000,,,,0.000000,4.000000,4.000000,4.000000,4.000000,4.000000,4.000000,4.000000,4.000000,4.000000,4.000000,4.000000,4.000000,4.000000,4.000000,100.000000,,,,,,,,,,,,,,,,,,,,,,,,,,,,
1703404524.673685,1703404524.674131,75.000000,0.000000,4199.230957,4165.384766,4261.666504,4213.589844,4153.974121,4123.589844,4246.922852,4126.410156,4129.615234,4140.512695,4608.589844,4445.000000,4370.128418,4512.436035,6177.000000,4.000000,85.000000,,,,0.000000,4.000000,4.000000,4.000000,4.000000,4.000000,4.000000,4.000000,4.000000,4.000000,4.000000,4.000000,4.000000,4.000000,4.000000,100.000000,,,,,,,,,,,,,,,,,,,,,,,,,,,,
1703404524.681493,1703404524.681939,76.000000,0.000000,4203.717773,4170.000000,4262.051270,4221.153809,4135.641113,4136.538574,4245.897461,4137.179688,4139.487305,4159.230957,4618.077148,4452.436035,4376.410156,4518.974121,6611.000000,4.000000,85.000000,,,,0.000000,4.000000,4.000000,4.000000,4.000000,4.000000,4.000000,4.000000,4.000000,4.000000,4.000000,4.000000,4.000000,4.000000,4.000000,100.000000,,,,,,,,,,,,,,,,,19.000000,0.000000,0.620281,-0.406067,-0.596497,-0.307495,0.966427,-0.146991,-0.017580,-12.221733,-43.319035,64.795692
1703404524.689301,1703404524.689647,77.000000,0.000000,4215.897461,4174.615234,4270.000000,4232.563965,4153.077148,4140.384766,4247.820313,4139.615234,4140.512695,4171.410156,4626.025879,4465.769043,4388.846191,4524.487305,6494.000000,4.000000,85.000000,,,,0.000000,4.000000,4.000000,4.000000,4.000000,4.000000,4.000000,4.000000,4.000000,4.000000,4.000000,4.000000,4.000000,4.000000,4.000000,100.000000,,,,,,,,,,,,,,,,,,,,,,,,,,,,
1703404524.697109,1703404524.697455,78.000000,0.000000,4220.256348,4182.179688,4275.000000,4235.256348,4171.410156,4135.512695,4248.717773,4142.051270,4146.922852,4151.025879,4629.102539,4471.153809,4389.487305,4533.205078,5948.000000,4.000000,85.000000,,,,0.000000,4.000000,4.000000,4.000000,4.000000,4.000000,4.000000,4.000000,4.000000,4.000000,4.000000,4.000000,4.000000,4.000000,4.000000,100.000000,,,,,,,,,,,,,,,,,,,,,,,,,,,,
1703404524.704918,1703404524.705163,79.000000,0.000000,4214.615234,4188.205078,4271.538574,4233.589844,4158.846191,4144.102539,4247.692383,4150.128418,4156.794922,4145.897461,4632.948730,4465.897461,4386.410156,4540.128418,6177.000000,4.000000,85.000000,,,,0.000000,4.000000,4.000000,4.000000,4.000000,4.000000,4.000000,4.000000,4.000000,4.000000,4.000000,4.000000,4.000000,4.000000,4.000000,100.000000,,,,,,,,,,,,,,,,,,,,,,,,,,,,
1703404524.712726,1703404524.712971,80.000000,0.000000,4216.794922,4187.563965,4270.641113,4236.153809,4153.205078,4150.256348,4248.974121,4155.769043,4151.922852,4167.948730,4636.282227,4464.615234,4393.717773,4538.846191,6611.000000,4.000000,85.000000,,,,0.000000,4.000000,4.000000,4.000000,4.000000,4.000000,4.000000,4.000000,4.000000,4.000000,4.000000,4.000000,4.000000,4.000000,4.000000,100.000000,,,,,,,,,,,,,,,,,20.000000,0.000000,0.620529,-0.406006,-0.596375,-0.307312,0.975705,-0.164571,0.004395,-12.066227,-43.237129,64.666122
1703404524.720533,1703404524.720679,81.000000,0.000000,4226.922852,4186.153809,4271.025879,4232.692383,4165.769043,4141.025879,4251.025879,4148.077148,4137.948730,4172.692383,4628.589844,4464.615234,4392.948730,4534.487305,6494.000000,4.000000,85.000000,,,,0.000000,4.000000,4.000000,4.000000,4.000000,4.000000,4.000000,4.000000,4.000000,4.000000,4.000000,4.000000,4.000000,4.000000,4.000000,100.000000,,,,,,,,,,,,,,,,,,,,,,,,,,,,
1703404524.728342,1703404524.728487,82.000000,0.000000,4221.410156,4181.025879,4268.077148,4225.769043,4163.589844,4137.179688,4250.256348,4139.230957,4130.384766,4158.205078,4614.102539,4459.358887,4379.615234,4526.025879,5948.000000,4.000000,85.000000,,,,0.000000,4.000000,4.000000,4.000000,4.000000,4.000000,4.000000,4.000000,4.000000,4.000000,4.000000,4.000000,4.000000,4.000000,4.000000,100.000000,,,,,,,,,,,,,,,,,,,,,,,,,,,,
1703404524.736150,1703404524.736195,83.000000,0.000000,4200.256348,4170.769043,4264.358887,4226.922852,4153.717773,4136.538574,4249.230957,4139.487305,4125.769043,4149.102539,4607.179688,4453.846191,4368.846191,4512.692383,6177.000000,4.000000,85.000000,,,,0.000000,4.000000,4.000000,4.000000,4.000000,4.000000,4.000000,4.000000,4.000000,4.000000,4.000000,4.000000,4.000000,4.000000,4.000000,100.000000,,,,,,,,,,,,,,,,,,,,,,,,,,,,
1703404524.743958,1703404524.744003,84.000000,0.000000,4200.641113,4165.897461,4267.179688,4228.461426,4153.589844,4127.563965,4248.205078,4138.333496,4128.461426,4144.743652,4607.820313,4451.922852,4364.487305,4512.820313,6611.000000,4.000000,85.000000,,,,0.000000,4.000000,4.000000,4.000000,4.000000,4.000000,4.000000,4.000000,4.000000,4.000000,4.000000,4.000000,4.000000,4.000000,4.000000,100.000000,,,,,,,,,,,,,,,,,21.000000,0.000000,0.620732,-0.406189,-0.596069,-0.307251,0.986937,-0.147479,-0.015139,-12.159604,-43.346748,64.699509
1703404524.751766,1703404524.751711,85.000000,0.000000,4219.615234,4177.179688,4272.692383,4230.512695,4153.461426,4128.717773,4246.153809,4137.051270,4143.974121,4139.487305,4611.282227,4458.205078,4367.820313,4523.717773,6494.000000,4.000000,85.000000,,,,0.000000,4.000000,4.000000,4.000000,4.000000,4.000000,4.000000,4.000000,4.000000,4.000000,4.000000,4.000000,4.000000,4.000000,4.000000,100.000000,,,,,,,,,,,,,,,,,,,,,,,,,,,,
1703404524.759574,1703404524.759519,86.000000,0.000000,4220.000000,4191.794922,4274.871582,4241.666504,4157.563965,4141.922852,4253.077148,4148.717773,4157.179688,4149.615234,4615.769043,4465.000000,4378.461426,4530.512695,5948.000000,4.000000,85.000000,,,,0.000000,4.000000,4.000000,4.000000,4.000000,4.000000,4.000000,4.000000,4.000000,4.000000,4.000000,4.000000,4.000000,4.000000,4.000000,100.000000,,,,,,,,,,,,,,,,,,,,,,,,,,,,
1703404524.767382,1703404524.767227,87.000000,0.000000,4212.820313,4192.436035,4274.230957,4245.512695,4170.000000,4142.563965,4260.384766,4153.333496,4158.974121,4167.051270,4618.846191,4463.205078,4384.871582,4535.769043,6177.000000,4.000000,85.000000,,,,0.000000,4.000000,4.000000,4.000000,4.000000,4.000000,4.000000,4.000000,4.000000,4.000000,4.000000,4.000000,4.000000,4.000000,4.000000,100.000000,,,,,,,,,,,,,,,,,,,,,,,,,,,,
1703404524.775190,1703404524.775135,88.000000,0.000000,4217.563965,4185.769043,4271.025879,4235.000000,4171.282227,4137.436035,4253.846191,4134.102539,4140.256348,4161.794922,4613.461426,4455.897461,4381.025879,4535.128418,6611.000000,4.000000,85.000000,,,,0.000000,4.000000,4.000000,4.000000,4.000000,4.000000,4.000000,4.000000,4.000000,4.000000,4.000000,4.000000,4.000000,4.000000,4.000000,100.000000,,,,,,,,,,,,,,,,,22.000000,0.000000,0.620663,-0.406433,-0.596069,-0.307068,0.988402,-0.142596,-0.007813,-12.226977,-43.345409,64.746223
1703404524.782998,1703404524.782944,89.000000,0.000000,4217.307617,4179.358887,4270.897461,4229.743652,4156.282227,4137.948730,4247.692383,4124.230957,4118.205078,4149.487305,4606.153809,4454.487305,4372.436035,4530.769043,6494.000000,4.000000,85.000000,,,,0.000000,4.000000,4.000000,4.000000,4.000000,4.000000,4.000000,4.000000,4.000000,4.000000,4.000000,4.000000,4.000000,4.000000,4.000000,100.000000,,,,,,,,,,,,,,,,,,,,,,,,,,,,
1703404524.790806,1703404524.790852,90.000000,0.000000,4212.051270,4177.051270,4274.871582,4233.333496,4143.205078,4138.846191,4250.000000,4135.769043,4131.922852,4149.102539,4614.102539,4463.077148,4371.666504,4535.512695,5948.000000,4.000000,85.000000,,,,0.000000,4.000000,4.000000,4.000000,4.000000,4.000000,4.000000,4.000000,4.000000,4.000000,4.000000,4.000000,4.000000,4.000000,4.000000,100.000000,,,,,,,,,,,,,,,,,,,,,,,,,,,,
1703404524.798614,1703404524.798660,91.000000,0.000000,4217.051270,4182.563965,4274.358887,4235.512695,4152.948730,4145.000000,4256.666504,4145.256348,4153.589844,4160.641113,4624.615234,4469.358887,4381.025879,4542.692383,6177.000000,4.000000,85.000000,,,,0.000000,4.000000,4.000000,4.000000,4.000000,4.000000,4.000000,4.000000,4.000000,4.000000,4.000000,4.000000,4.000000,4.000000,4.000000,100.000000,,,,,,,,,,,,,,,,,,,,,,,,,,,,
1703404524.806422,1703404524.806568,92.000000,0.000000,4221.794922,4183.717773,4267.692383,4233.077148,4171.410156,4154.102539,4257.307617,4149.487305,4153.846191,4166.794922,4620.256348,4467.051270,4381.922852,4540.641113,6611.000000,4.000000,85.000000,,,,0.000000,4.000000,4.000000,4.000000,4.000000,4.000000,4.000000,4.000000,4.000000,4.000000,4.000000,4.000000,4.000000,4.000000,4.000000,100.000000,,,,,,,,,,,,,,,,,23.000000,0.000000,0.620735,-0.406372,-0.596130,-0.306885,0.980588,-0.157734,-0.020999,-12.270946,-43.327534,64.771599
1703404524.814230,1703404524.814376,93.000000,0.000000,4209.358887,4175.641113,4265.512695,4229.743652,4159.871582,4151.025879,4252.307617,4156.153809,4155.512695,4151.282227,4613.205078,4463.589844,4372.820313,4532.051270,6494.000000,4.000000,85.000000,,,,0.000000,4.000000,4.000000,4.000000,4.000000,4.000000,4.000000,4.000000,4.000000,4.000000,4.000000,4.000000,4.000000,4.000000,4.000000,100.000000,,,,,,,,,,,,,,,,,,,,,,,,,,,,
1703404524.822038,1703404524.822284,94.000000,0.000000,4199.102539,4172.820313,4268.333496,4233.077148,4134.871582,4142.179688,4255.000000,4158.846191,4152.436035,4143.974121,4618.589844,4464.102539,4373.333496,4530.512695,5948.000000,4.000000,85.000000,,,,0.000000,4.000000,4.000000,4.000000,4.000000,4.000000,4.000000,4.000000,4.000000,4.000000,4.000000,4.000000,4.000000,4.000000,4.000000,100.000000,,,,,,,,,,,,,,,,,,,,,,,,,,,,
1703404524.829846,1703404524.830092,95.000000,0.000000,4201.410156,4171.153809,4261.666504,4231.153809,4142.051270,4142.692383,4260.384766,4151.153809,4139.615234,4156.666504,4616.794922,4456.922852,4376.794922,4532.307617,6177.000000,4.000000,85.000000,,,,0.000000,4.000000,4.000000,4.000000,4.000000,4.000000,4.000000,4.000000,4.000000,4.000000,4.000000,4.000000,4.000000,4.000000,4.000000,100.000000,,,,,,,,,,,,,,,,,,,,,,,,,,,,
1703404524.837654,1703404524.838000,96.000000,0.000000,4200.128418,4165.512695,4253.589844,4220.769043,4162.563965,4143.461426,4258.974121,4142.436035,4137.692383,4155.641113,4605.512695,4445.769043,4378.205078,4524.743652,6611.000000,4.000000,85.000000,,,,0.000000,4.000000,4.000000,4.000000,4.000000,4.000000,4.000000,4.000000,4.000000,4.000000,4.000000,4.000000,4.000000,4.000000,4.000000,100.000000,,,,,,,,,,,,,,,,,24.000000,0.000000,0.620818,-0.406250,-0.596252,-0.306641,0.992309,-0.142107,-0.016604,-12.377185,-43.578114,64.761108
1703404524.845462,1703404524.845808,97.000000,0.000000,4207.179688,4167.307617,4264.487305,4221.025879,4153.205078,4137.820313,4255.256348,4143.846191,4139.615234,4152.948730,4607.692383,4452.820313,4379.102539,4526.922852,6494.000000,4.000000,85.000000,,,,0.000000,4.000000,4.000000,4.000000,4.000000,4.000000,4.000000,4.000000,4.000000,4.000000,4.000000,4.000000,4.000000,4.000000,4.000000,100.000000,,,,,,,,,,,,,,,,,,,,,,,,,,,,
1703404524.853270,1703404524.853716,98.000000,0.000000,4218.974121,4171.794922,4278.077148,4230.897461,4139.358887,4135.256348,4256.410156,4152.179688,4141.282227,4158.077148,4615.256348,4467.692383,4371.410156,4541.153809,5948.000000,4.000000,85.000000,,,,0.000000,4.000000,4.000000,4.000000,4.000000,4.000000,4.000000,4.000000,4.000000,4.000000,4.000000,4.000000,4.000000,4.000000,4.000000,100.000000,,,,,,,,,,,,,,,,,,,,,,,,,,,,
1703404524.861078,1703404524.861524,99.000000,0.000000,4208.333496,4170.641113,4271.794922,4233.205078,4152.948730,4139.358887,4261.025879,4154.230957,4150.128418,4145.512695,4615.128418,4466.410156,4365.384766,4536.410156,6177.000000,4.000000,85.000000,,,,0.000000,4.000000,4.000000,4.000000,4.000000,4.000000,4.000000,4.000000,4.000000,4.000000,4.000000,4.000000,4.000000,4.000000,4.000000,100.000000,,,,,,,,,,,,,,,,,,,,,,,,,,,,
1703404524.868887,1703404524.869232,100.000000,0.000000,4203.461426,4169.743652,4265.128418,4230.000000,4155.128418,4141.794922,4259.871582,4146.282227,4141.282227,4140.384766,4610.512695,4456.410156,4368.461426,4530.000000,6611.000000,4.000000,85.000000,,,,0.000000,4.000000,4.000000,4.000000,4.000000,4.000000,4.000000,4.000000,4.000000,4.000000,4.000000,4.000000,4.000000,4.000000,4.000000,100.000000,,,,,,,,,,,,,,,,,25.000000,0.000000,0.620946,-0.406372,-0.596130,-0.306458,0.985472,-0.140154,-0.007813,-12.622800,-43.570301,64.735001
1703404524.876695,1703404524.877040,101.000000,0.000000,4216.922852,4171.282227,4270.897461,4230.897461,4138.717773,4139.615234,4254.230957,4137.563965,4128.589844,4156.282227,4602.692383,4453.589844,4368.589844,4535.256348,6494.000000,4.000000,85.000000,,,,0.000000,4.000000,4.000000,4.000000,4.000000,4.000000,4.000000,4.000000,4.000000,4.000000,4.000000,4.000000,4.000000,4.000000,4.000000,100.000000,,,,,,,,,,,,,,,,,,,,,,,,,,,,
1703404524.884503,1703404524.884748,102.000000,0.000000,4208.974121,4173.333496,4271.282227,4233.077148,4143.589844,4140.384766,4256.410156,4138.077148,4142.179688,4155.000000,4600.641113,4454.487305,4370.256348,4529.743652,5948.000000,4.000000,85.000000,,,,0.000000,4.000000,4.000000,4.000000,4.000000,4.000000,4.000000,4.000000,4.000000,4.000000,4.000000,4.000000,4.000000,4.000000,4.000000,100.000000,,,,,,,,,,,,,,,,,,,,,,,,,,,,
1703404524.892311,1703404524.892656,103.000000,0.000000,4195.641113,4173.717773,4267.948730,4230.641113,4161.538574,4145.000000,4263.589844,4148.461426,4150.128418,4147.179688,4616.922852,4460.128418,4386.666504,4528.589844,6177.000000,4.000000,85.000000,,,,0.000000,4.000000,4.000000,4.000000,4.000000,4.000000,4.000000,4.000000,4.000000,4.000000,4.000000,4.000000,4.000000,4.000000,4.000000,100.000000,,,,,,,,,,,,,,,,,,,,,,,,,,,,
1703404524.900119,1703404524.900464,104.000000,0.000000,4211.538574,4171.410156,4269.871582,4229.102539,4152.948730,4143.717773,4261.153809,4152.948730,4132.692383,4157.051270,4628.717773,4466.666504,4392.436035,4540.512695,6611.000000,4.000000,85.000000,,,,0.000000,4.000000,4.000000,4.000000,4.000000,4.000000,4.000000,4.000000,4.000000,4.000000,4.000000,4.000000,4.000000,4.000000,4.000000,100.000000,,,,,,,,,,,,,,,,,26.000000,0.000000,0.620866,-0.406494,-0.596130,-0.306458,0.970333,-0.148944,-0.004395,-12.577187,-43.446606,64.628166
1703404524.907927,1703404524.908372,105.000000,0.000000,4218.333496,4170.128418,4270.641113,4230.641113,4128.974121,4140.769043,4255.512695,4146.538574,4125.641113,4161.410156,4616.666504,4463.205078,4378.205078,4542.436035,6494.000000,4.000000,85.000000,,,,0.000000,4.000000,4.000000,4.000000,4.000000,4.000000,4.000000,4.000000,4.000000,4.000000,4.000000,4.000000,4.000000,4.000000,4.000000,100.000000,,,,,,,,,,,,,,,,,,,,,,,,,,,,
1703404524.915735,1703404524.916180,106.000000,0.000000,4204.230957,4170.256348,4267.051270,4225.769043,4132.436035,4142.051270,4255.384766,4141.794922,4134.358887,4159.743652,4605.641113,4455.384766,4374.102539,4534.615234,5948.000000,4.000000,85.000000,,,,0.000000,4.000000,4.000000,4.000000,4.000000,4.000000,4.000000,4.000000,4.000000,4.000000,4.000000,4.000000,4.000000,4.000000,4.000000,100.000000,,,,,,,,,,,,,,,,,,,,,,,,,,,,
1703404524.923543,1703404524.924089,107.000000,0.000000,4207.563965,4170.641113,4266.666504,4220.256348,4149.230957,4139.615234,4251.538574,4138.461426,4142.179688,4154.230957,4602.307617,4451.282227,4379.358887,4527.948730,6177.000000,4.000000,85.000000,,,,0.000000,4.000000,4.000000,4.000000,4.000000,4.000000,4.000000,4.000000,4.000000,4.000000,4.000000,4.000000,4.000000,4.000000,4.000000,100.000000,,,,,,,,,,,,,,,,,,,,,,,,,,,,
1703404524.931351,1703404524.931897,108.000000,0.000000,4214.358887,4172.051270,4271.153809,4229.358887,4153.846191,4138.846191,4248.205078,4139.102539,4147.179688,4140.641113,4601.666504,4454.358887,4372.948730,4526.538574,6611.000000,4.000000,85.000000,,,,0.000000,4.000000,4.000000,4.000000,4.000000,4.000000,4.000000,4.000000,4.000000,4.000000,4.000000,4.000000,4.000000,4.000000,4.000000,100.000000,,,,,,,,,,,,,,,,,27.000000,0.000000,0.620777,-0.406494,-0.596191,-0.306519,0.980100,-0.134782,-0.004883,-12.402801,-43.501945,64.582016
1703404524.939159,1703404524.939705,109.000000,0.000000,4208.589844,4176.410156,4275.128418,4240.384766,4156.538574,4152.051270,4251.666504,4150.769043,4157.563965,4139.487305,4611.153809,4464.743652,4369.358887,4536.410156,6494.000000,4.000000,85.000000,,,,0.000000,4.000000,4.000000,4.000000,4.000000,4.000000,4.000000,4.000000,4.000000,4.000000,4.000000,4.000000,4.000000,4.000000,4.000000,100.000000,,,,,,,,,,,,,,,,,,,,,,,,,,,,
1703404524.946967,1703404524.947413,110.000000,0.000000,4203.461426,4170.769043,4267.692383,4229.743652,4154.230957,4156.666504,4253.205078,4154.102539,4152.179688,4142.179688,4614.102539,4462.436035,4371.025879,4534.615234,5948.000000,4.000000,85.000000,,,,0.000000,4.000000,4.000000,4.000000,4.000000,4.000000,4.000000,4.000000,4.000000,4.000000,4.000000,4.000000,4.000000,4.000000,4.000000,100.000000,,,,,,,,,,,,,,,,,,,,,,,,,,,,
1703404524.954775,1703404524.955321,111.000000,0.000000,4205.384766,4161.410156,4261.794922,4217.563965,4145.897461,4131.025879,4248.205078,4143.846191,4130.128418,4141.153809,4607.179688,4451.794922,4369.102539,4519.615234,6177.000000,4.000000,85.000000,,,,0.000000,4.000000,4.000000,4.000000,4.000000,4.000000,4.000000,4.000000,4.000000,4.000000,4.000000,4.000000,4.000000,4.000000,4.000000,100.000000,,,,,,,,,,,,,,,,,,,,,,,,,,,,
1703404524.962583,1703404524.963129,112.000000,0.000000,4218.205078,4175.769043,4276.538574,4236.282227,4154.871582,4117.563965,4250.641113,4147.820313,4137.948730,4158.205078,4615.384766,4465.256348,4379.743652,4532.179688,6611.000000,4.000000,85.000000,,,,0.000000,4.000000,4.000000,4.000000,4.000000,4.000000,4.000000,4.000000,4.000000,4.000000,4.000000,4.000000,4.000000,4.000000,4.000000,100.000000,,,,,,,,,,,,,,,,,28.000000,0.000000,0.620875,-0.406250,-0.596130,-0.306763,0.981565,-0.150897,0.001953,-12.445854,-43.401752,64.640480
1703404524.970391,1703404524.971037,113.000000,0.000000,4228.077148,4190.897461,4287.179688,4253.846191,4171.922852,4143.846191,4258.077148,4162.563965,4168.846191,4176.410156,4626.794922,4477.563965,4386.282227,4546.153809,6494.000000,4.000000,85.000000,,,,0.000000,4.000000,4.000000,4.000000,4.000000,4.000000,4.000000,4.000000,4.000000,4.000000,4.000000,4.000000,4.000000,4.000000,4.000000,100.000000,,,,,,,,,,,,,,,,,,,,,,,,,,,,
1703404524.978199,1703404524.978846,114.000000,0.000000,4219.743652,4177.436035,4274.230957,4238.589844,4151.794922,4162.436035,4257.692383,4158.589844,4171.153809,4160.769043,4613.589844,4464.487305,4371.922852,4529.615234,5948.000000,4.000000,85.000000,,,,0.000000,4.000000,4.000000,4.000000,4.000000,4.000000,4.000000,4.000000,4.000000,4.000000,4.000000,4.000000,4.000000,4.000000,4.000000,100.000000,,,,,,,,,,,,,,,,,,,,,,,,,,,,
1703404524.986007,1703404524.986754,115.000000,0.000000,4209.743652,4160.897461,4266.153809,4225.128418,4128.974121,4148.717773,4256.025879,4151.025879,4152.051270,4143.846191,4601.410156,4460.000000,4368.205078,4519.487305,6177.000000,4.000000,85.000000,,,,0.000000,4.000000,4.000000,4.000000,4.000000,4.000000,4.000000,4.000000,4.000000,4.000000,4.000000,4.000000,4.000000,4.000000,4.000000,100.000000,,,,,,,,,,,,,,,,,,,,,,,,,,,,
1703404524.993815,1703404524.994562,116.000000,0.000000,4212.820313,4160.769043,4271.410156,4232.820313,4148.077148,4138.333496,4256.794922,4155.641113,4149.615234,4152.179688,4605.256348,4466.794922,4372.179688,4524.743652,6611.000000,4.000000,85.000000,,,,0.000000,4.000000,4.000000,4.000000,4.000000,4.000000,4.000000,4.000000,4.000000,4.000000,4.000000,4.000000,4.000000,4.000000,4.000000,100.000000,,,,,,,,,,,,,,,,,29.000000,0.000000,0.621220,-0.406311,-0.595886,-0.306458,0.982542,-0.137224,0.002930,-12.467936,-43.411575,64.593102
1703404525.001623,1703404525.002470,117.000000,0.000000,4198.846191,4153.333496,4262.436035,4227.051270,4156.666504,4142.692383,4252.948730,4148.589844,4133.717773,4149.230957,4591.282227,4450.256348,4348.717773,4507.307617,6494.000000,4.000000,85.000000,,,,0.000000,4.000000,4.000000,4.000000,4.000000,4.000000,4.000000,4.000000,4.000000,4.000000,4.000000,4.000000,4.000000,4.000000,4.000000,100.000000,,,,,,,,,,,,,,,,,,,,,,,,,,,,
1703404525.009431,1703404525.010278,118.000000,0.000000,4186.410156,4145.641113,4253.717773,4214.871582,4130.897461,4140.000000,4248.461426,4134.743652,4095.384521,4126.538574,4579.743652,4434.487305,4336.025879,4492.948730,5948.000000,4.000000,85.000000,,,,0.000000,4.000000,4.000000,4.000000,4.000000,4.000000,4.000000,4.000000,4.000000,4.000000,4.000000,4.000000,4.000000,4.000000,4.000000,100.000000,,,,,,,,,,,,,,,,,,,,,,,,,,,,
1703404525.017239,1703404525.018186,119.000000,0.000000,4207.948730,4157.563965,4266.282227,4224.615234,4133.589844,4138.589844,4251.282227,4134.871582,4105.641113,4127.307617,4596.922852,4446.410156,4361.153809,4511.410156,6177.000000,4.000000,85.000000,,,,0.000000,4.000000,4.000000,4.000000,4.000000,4.000000,4.000000,4.000000,4.000000,4.000000,4.000000,4.000000,4.000000,4.000000,4.000000,100.000000,,,,,,,,,,,,,,,,,,,,,,,,,,,,
1703404525.025047,1703404525.025994,120.000000,0.000000,4215.256348,4165.769043,4274.487305,4238.333496,4172.179688,4145.000000,4255.384766,4137.820313,4147.820313,4142.563965,4598.974121,4451.922852,4365.000000,4515.512695,6611.000000,4.000000,85.000000,,,,0.000000,4.000000,4.000000,4.000000,4.000000,4.000000,4.000000,4.000000,4.000000,4.000000,4.000000,4.000000,4.000000,4.000000,4.000000,100.000000,,,,,,,,,,,,,,,,,30.000000,0.000000,0.621565,-0.406372,-0.595642,-0.306152,0.984495,-0.150897,-0.000977,-12.387809,-43.387085,64.633789
1703404525.032856,1703404525.033702,121.000000,0.000000,4204.487305,4171.025879,4272.436035,4247.436035,4180.256348,4147.179688,4258.846191,4137.692383,4156.410156,4155.769043,4593.205078,4452.948730,4360.384766,4510.384766,6494.000000,4.000000,85.000000,,,,0.000000,4.000000,4.000000,4.000000,4.000000,4.000000,4.000000,4.000000,4.000000,4.000000,4.000000,4.000000,4.000000,4.000000,4.000000,100.000000,,,,,,,,,,,,,,,,,,,,,,,,,,,,
1703404525.040664,1703404525.041510,122.000000,0.000000,4209.743652,4178.589844,4275.641113,4250.384766,4164.230957,4144.230957,4260.769043,4141.025879,4147.179688,4168.333496,4612.820313,4462.820313,4377.179688,4517.948730,5948.000000,4.000000,85.000000,,,,0.000000,4.000000,4.000000,4.000000,4.000000,4.000000,4.000000,4.000000,4.000000,4.000000,4.000000,4.000000,4.000000,4.000000,4.000000,100.000000,,,,,,,,,,,,,,,,,,,,,,,,,,,,
1703404525.048472,1703404525.049218,123.000000,0.000000,4214.102539,4173.077148,4276.282227,4241.538574,4166.922852,4141.025879,4260.897461,4144.102539,4152.307617,4154.358887,4618.846191,4459.487305,4377.307617,4515.384766,6177.000000,4.000000,85.000000,,,,0.000000,4.000000,4.000000,4.000000,4.000000,4.000000,4.000000,4.000000,4.000000,4.000000,4.000000,4.000000,4.000000,4.000000,4.000000,100.000000,,,,,,,,,,,,,,,,,,,,,,,,,,,,
1703404525.056280,1703404525.057026,124.000000,0.000000,4196.538574,4159.615234,4264.615234,4230.897461,4170.384766,4145.000000,4262.948730,4147.948730,4147.820313,4134.487305,4597.307617,4446.538574,4356.666504,4504.358887,6611.000000,4.000000,85.000000,,,,0.000000,4.000000,4.000000,4.000000,4.000000,4.000000,4.000000,4.000000,4.000000,4.000000,4.000000,4.000000,4.000000,4.000000,4.000000,100.000000,,,,,,,,,,,,,,,,,31.000000,0.000000,0.621647,-0.406433,-0.595703,-0.305786,0.977170,-0.146502,-0.000977,-12.415694,-43.315044,64.787079
1703404525.064088,1703404525.064734,125.000000,0.000000,4181.025879,4155.128418,4254.358887,4229.487305,4168.461426,4153.974121,4263.205078,4156.922852,4129.487305,4149.230957,4594.487305,4445.128418,4354.358887,4499.102539,6494.000000,4.000000,85.000000,,,,0.000000,4.000000,4.000000,4.000000,4.000000,4.000000,4.000000,4.000000,4.000000,4.000000,4.000000,4.000000,4.000000,4.000000,4.000000,100.000000,,,,,,,,,,,,,,,,,,,,,,,,,,,,
1703404525.071896,1703404525.072542,126.000000,0.000000,4187.820313,4156.538574,4257.563965,4231.538574,4170.641113,4151.666504,4262.051270,4156.025879,4126.794922,4156.794922,4600.384766,4447.692383,4362.820313,4493.077148,5948.000000,4.000000,85.000000,,,,0.000000,4.000000,4.000000,4.000000,4.000000,4.000000,4.000000,4.000000,4.000000,4.000000,4.000000,4.000000,4.000000,4.000000,4.000000,100.000000,,,,,,,,,,,,,,,,,,,,,,,,,,,,
1703404525.079704,1703404525.080250,127.000000,0.000000,4201.025879,4161.794922,4264.230957,4232.051270,4168.333496,4139.615234,4261.282227,4138.333496,4135.256348,4130.512695,4587.692383,4441.794922,4355.641113,4492.179688,85.000000,4.000000,85.000000,,,,0.000000,4.000000,4.000000,4.000000,4.000000,4.000000,4.000000,4.000000,4.000000,4.000000,4.000000,4.000000,4.000000,4.000000,4.000000,100.000000,,,,,,,,,,,,,,,,,,,,,,,,,,,,
1703404525.087512,1703404525.088058,0.000000,0.000000,4201.025879,4169.743652,4266.666504,4232.436035,4166.153809,4135.000000,4259.230957,4125.128418,4139.358887,4130.897461,4582.820313,4439.487305,4348.974121,4496.025879,4600.000000,4.000000,85.000000,,,,0.000000,4.000000,4.000000,4.000000,4.000000,4.000000,4.000000,4.000000,4.000000,4.000000,4.000000,4.000000,4.000000,4.000000,4.000000,100.000000,,,,,,,,,,,,,,,,,0.000000,0.000000,0.621697,-0.406494,-0.595703,-0.305603,0.986937,-0.152362,-0.007813,-12.340792,-43.333538,64.808372
1703404525.095320,1703404525.095766,1.000000,0.000000,4186.282227,4160.512695,4265.000000,4230.384766,4167.436035,4138.974121,4254.871582,4130.000000,4138.461426,4148.974121,4586.794922,4443.205078,4349.230957,4491.410156,5355.000000,4.000000,85.000000,,,,0.000000,4.000000,4.000000,4.000000,4.000000,4.000000,4.000000,4.000000,4.000000,4.000000,4.000000,4.000000,4.000000,4.000000,4.000000,100.000000,,,,,,,,,,,,,,,,,,,,,,,,,,,,
1703404525.103128,1703404525.103574,2.000000,0.000000,4186.922852,4154.230957,4263.717773,4230.128418,4160.384766,4142.692383,4256.153809,4137.692383,4136.025879,4136.922852,4583.846191,4449.230957,4352.051270,4496.922852,5208.000000,4.000000,85.000000,,,,0.000000,4.000000,4.000000,4.000000,4.000000,4.000000,4.000000,4.000000,4.000000,4.000000,4.000000,4.000000,4.000000,4.000000,4.000000,100.000000,,,,,,,,,,,,,,,,,,,,,,,,,,,,
1703404525.110936,1703404525.111282,3.000000,0.000000,4197.948730,4167.436035,4266.794922,4235.128418,4154.358887,4142.692383,4265.128418,4141.538574,4139.358887,4139.743652,4590.128418,4454.487305,4356.538574,4507.563965,5332.000000,4.000000,85.000000,,,,0.000000,4.000000,4.000000,4.000000,4.000000,4.000000,4.000000,4.000000,4.000000,4.000000,4.000000,4.000000,4.000000,4.000000,4.000000,100.000000,,,,,,,,,,,,,,,,,,,,,,,,,,,,
1703404525.118744,1703404525.119090,4.000000,0.000000,4200.897461,4173.974121,4270.128418,4236.922852,4167.051270,4142.436035,4265.769043,4149.615234,4150.769043,4170.769043,4607.563965,4458.077148,4361.922852,4507.179688,5068.000000,4.000000,85.000000,,,,0.000000,4.000000,4.000000,4.000000,4.000000,4.000000,4.000000,4.000000,4.000000,4.000000,4.000000,4.000000,4.000000,4.000000,4.000000,100.000000,,,,,,,,,,,,,,,,,1.000000,0.000000,0.621717,-0.406738,-0.595703,-0.305237,0.964473,-0.154804,-0.007325,-12.306712,-43.416851,64.760864
1703404525.126552,1703404525.126798,5.000000,0.000000,4207.436035,4168.717773,4271.282227,4236.282227,4179.487305,4145.128418,4261.666504,4155.128418,4155.384766,4179.743652,4611.153809,4464.102539,4366.282227,4510.384766,4392.000000,4.000000,85.000000,,,,0.000000,4.000000,4.000000,4.000000,4.000000,4.000000,4.000000,4.000000,4.000000,4.000000,4.000000,4.000000,4.000000,4.000000,4.000000,100.000000,,,,,,,,,,,,,,,,,,,,,,,,,,,,
1703404525.134360,1703404525.134706,6.000000,0.000000,4207.692383,4168.205078,4272.436035,4239.358887,4173.077148,4145.897461,4265.000000,4153.589844,4150.641113,4160.256348,4603.717773,4465.128418,4367.051270,4511.794922,1995.000000,4.000000,85.000000,,,,0.000000,4.000000,4.000000,4.000000,4.000000,4.000000,4.000000,4.000000,4.000000,4.000000,4.000000,4.000000,4.000000,4.000000,4.000000,100.000000,,,,,,,,,,,,,,,,,,,,,,,,,,,,
1703404525.142168,1703404525.142514,7.000000,0.000000,4203.589844,4172.436035,4274.487305,4246.666504,4167.692383,4146.153809,4273.846191,4160.000000,4157.307617,4151.538574,4611.153809,4465.641113,4372.179688,4509.102539,5136.000000,4.000000,85.000000,,,,0.000000,4.000000,4.000000,4.000000,4.000000,4.000000,4.000000,4.000000,4.000000,4.000000,4.000000,4.000000,4.000000,4.000000,4.000000,100.000000,,,,,,,,,,,,,,,,,,,,,,,,,,,,
1703404525.149976,1703404525.150422,8.000000,0.000000,4206.922852,4171.666504,4276.282227,4246.666504,4171.666504,4152.179688,4276.538574,4172.948730,4166.538574,4165.512695,4621.794922,4470.897461,4378.717773,4514.102539,4854.000000,4.000000,85.000000,,,,0.000000,4.000000,4.000000,4.000000,4.000000,4.000000,4.000000,4.000000,4.000000,4.000000,4.000000,4.000000,4.000000,4.000000,4.000000,100.000000,,,,,,,,,,,,,,,,,2.000000,0.000000,0.621816,-0.406860,-0.595642,-0.304993,0.980588,-0.158222,-0.016604,-12.292707,-43.341831,64.818115
1703404525.157784,1703404525.158231,9.000000,0.000000,4202.307617,4170.128418,4268.974121,4238.333496,4165.897461,4150.128418,4273.461426,4173.717773,4158.205078,4172.563965,4614.487305,4466.666504,4374.487305,4510.256348,5006.000000,4.000000,85.000000,,,,0.000000,4.000000,4.000000,4.000000,4.000000,4.000000,4.000000,4.000000,4.000000,4.000000,4.000000,4.000000,4.000000,4.000000,4.000000,100.000000,1.000000,58.333332,4.000000,4.000000,4.000000,4.000000,3.000000,4.000000,4.000000,4.000000,3.000000,1.000000,4.000000,4.000000,4.000000,4.000000,,,,,,,,,,,,
1703404525.165592,1703404525.166139,10.000000,0.000000,4194.743652,4164.230957,4258.717773,4233.333496,4155.512695,4138.461426,4270.897461,4164.102539,4150.641113,4160.641113,4602.307617,4453.205078,4362.051270,4494.102539,5956.000000,4.000000,85.000000,,,,0.000000,4.000000,4.000000,4.000000,4.000000,4.000000,4.000000,4.000000,4.000000,4.000000,4.000000,4.000000,4.000000,4.000000,4.000000,100.000000,,,,,,,,,,,,,,,,,,,,,,,,,,,,
1703404525.173401,1703404525.173947,11.000000,0.000000,4193.846191,4154.615234,4262.051270,4233.077148,4157.436035,4135.897461,4269.358887,4152.179688,4154.230957,4147.307617,4599.615234,4445.769043,4355.769043,4488.333496,6177.000000,4.000000,85.000000,,,,0.000000,4.000000,4.000000,4.000000,4.000000,4.000000,4.000000,4.000000,4.000000,4.000000,4.000000,4.000000,4.000000,4.000000,4.000000,100.000000,,,,,,,,,,,,,,,,,,,,,,,,,,,,
1703404525.181208,1703404525.181855,12.000000,0.000000,4188.461426,4158.333496,4266.025879,4233.589844,4169.230957,4138.974121,4268.077148,4140.512695,4152.051270,4152.436035,4601.025879,4445.897461,4361.538574,4490.128418,6614.000000,4.000000,85.000000,,,,0.000000,4.000000,4.000000,4.000000,4.000000,4.000000,4.000000,4.000000,4.000000,4.000000,4.000000,4.000000,4.000000,4.000000,4.000000,100.000000,,,,,,,,,,,,,,,,,3.000000,0.000000,0.621897,-0.406738,-0.595703,-0.304871,0.979612,-0.145526,-0.002442,-12.413437,-43.357651,64.952965
1703404525.189016,1703404525.189663,13.000000,0.000000,4188.589844,4171.282227,4259.743652,4235.641113,4181.922852,4139.230957,4267.563965,4135.128418,4141.410156,4158.205078,4598.333496,4447.436035,4364.102539,4489.743652,6491.000000,4.000000,85.000000,,,,0.000000,4.000000,4.000000,4.000000,4.000000,4.000000,4.000000,4.000000,4.000000,4.000000,4.000000,4.000000,4.000000,4.000000,4.000000,100.000000,,,,,,,,,,,,,,,,,,,,,,,,,,,,
1703404525.196825,1703404525.197571,14.000000,0.000000,4197.179688,4170.128418,4261.666504,4232.307617,4171.538574,4140.641113,4269.871582,4140.897461,4132.948730,4152.179688,4597.692383,4448.974121,4363.589844,4495.384766,5956.000000,4.000000,85.000000,,,,0.000000,4.000000,4.000000,4.000000,4.000000,4.000000,4.000000,4.000000,4.000000,4.000000,4.000000,4.000000,4.000000,4.000000,4.000000,100.000000,,,,,,,,,,,,,,,,,,,,,,,,,,,,
1703404525.204633,1703404525.205380,15.000000,0.000000,4200.769043,4162.820313,4273.077148,4230.512695,4154.230957,4140.000000,4273.717773,4153.461426,4135.769043,4157.563965,4607.563965,4454.102539,4374.102539,4507.436035,6177.000000,4.000000,85.000000,,,,0.000000,4.000000,4.000000,4.000000,4.000000,4.000000,4.000000,4.000000,4.000000,4.000000,4.000000,4.000000,4.000000,4.000000,4.000000,100.000000,,,,,,,,,,,,,,,,,,,,,,,,,,,,
1703404525.212441,1703404525.213287,16.000000,0.000000,4206.153809,4169.743652,4274.358887,4239.230957,4168.461426,4139.871582,4274.743652,4161.025879,4149.358887,4173.846191,4618.333496,4462.692383,4380.641113,4511.538574,0.000000,4.000000,85.000000,,,,0.000000,4.000000,4.000000,4.000000,4.000000,4.000000,4.000000,4.000000,4.000000,4.000000,4.000000,4.000000,4.000000,4.000000,4.000000,100.000000,,,,,,,,,,,,,,,,,4.000000,0.000000,0.621959,-0.406738,-0.595825,-0.304504,0.987914,-0.149921,-0.011232,-12.372093,-43.471886,64.807671
1703404525.220249,1703404525.221095,17.000000,0.000000,4207.307617,4175.512695,4268.205078,4241.025879,4185.512695,4140.128418,4276.666504,4156.410156,4164.615234,4178.333496,4616.666504,4463.077148,4371.538574,4506.666504,0.000000,4.000000,85.000000,,,,0.000000,4.000000,4.000000,4.000000,4.000000,4.000000,4.000000,4.000000,4.000000,4.000000,4.000000,4.000000,4.000000,4.000000,4.000000,100.000000,,,,,,,,,,,,,,,,,,,,,,,,,,,,
1703404525.228057,1703404525.229003,18.000000,0.000000,4206.153809,4172.307617,4270.128418,4236.410156,4174.615234,4137.820313,4273.333496,4153.333496,4174.358887,4172.436035,4617.051270,4463.333496,4372.820313,4513.077148,0.000000,4.000000,85.000000,,,,0.000000,4.000000,4.000000,4.000000,4.000000,4.000000,4.000000,4.000000,4.000000,4.000000,4.000000,4.000000,4.000000,4.000000,4.000000,100.000000,,,,,,,,,,,,,,,,,,,,,,,,,,,,
1703404525.235865,1703404525.236811,19.000000,0.000000,4215.897461,4171.282227,4276.153809,4242.948730,4167.820313,4138.205078,4270.128418,4160.128418,4165.256348,4171.410156,4623.461426,4476.666504,4385.512695,4528.205078,0.000000,4.000000,85.000000,,,,0.000000,4.000000,4.000000,4.000000,4.000000,4.000000,4.000000,4.000000,4.000000,4.000000,4.000000,4.000000,4.000000,4.000000,4.000000,100.000000,,,,,,,,,,,,,,,,,,,,,,,,,,,,
1703404525.243673,1703404525.244519,20.000000,0.000000,4214.487305,4172.307617,4275.000000,4250.897461,4175.512695,4140.128418,4273.077148,4160.000000,4153.205078,4170.769043,4620.897461,4476.538574,4387.179688,4523.205078,0.000000,4.000000,85.000000,,,,0.000000,4.000000,4.000000,4.000000,4.000000,4.000000,4.000000,4.000000,4.000000,4.000000,4.000000,4.000000,4.000000,4.000000,4.000000,100.000000,,,,,,,,,,,,,,,,,5.000000,0.000000,0.622060,-0.406677,-0.595886,-0.304260,0.973752,-0.142107,-0.000977,-12.351551,-43.474697,64.693573
1703404525.251481,1703404525.252327,21.000000,0.000000,4198.205078,4172.563965,4267.051270,4244.230957,4171.410156,4139.871582,4273.717773,4150.641113,4157.179688,4169.615234,4614.743652,4459.743652,4381.153809,4504.743652,0.000000,4.000000,85.000000,,,,0.000000,4.000000,4.000000,4.000000,4.000000,4.000000,4.000000,4.000000,4.000000,4.000000,4.000000,4.000000,4.000000,4.000000,4.000000,100.000000,,,,,,,,,,,,,,,,,,,,,,,,,,,,
1703404525.259289,1703404525.260035,22.000000,0.000000,4195.512695,4169.743652,4263.205078,4234.230957,4167.820313,4138.333496,4271.025879,4156.794922,4149.615234,4171.538574,4612.307617,4457.820313,4376.025879,4504.102539,0.000000,4.000000,85.000000,,,,0.000000,4.000000,4.000000,4.000000,4.000000,4.000000,4.000000,4.000000,4.000000,4.000000,4.000000,4.000000,4.000000,4.000000,4.000000,100.000000,,,,,,,,,,,,,,,,,,,,,,,,,,,,
1703404525.267097,1703404525.267843,23.000000,0.000000,4199.358887,4167.820313,4265.128418,4232.692383,4172.820313,4134.615234,4271.666504,4166.922852,4137.692383,4151.666504,4604.871582,4460.256348,4366.794922,4507.692383,0.000000,4.000000,85.000000,,,,0.000000,4.000000,4.000000,4.000000,4.000000,4.000000,4.000000,4.000000,4.000000,4.000000,4.000000,4.000000,4.000000,4.000000,4.000000,100.000000,,,,,,,,,,,,,,,,,,,,,,,,,,,,
1703404525.274905,1703404525.275551,24.000000,0.000000,4197.692383,4168.846191,4266.153809,4231.794922,4172.692383,4126.410156,4271.025879,4154.487305,4150.256348,4135.256348,4596.153809,4448.974121,4356.794922,4493.846191,0.000000,4.000000,85.000000,,,,0.000000,4.000000,4.000000,4.000000,4.000000,4.000000,4.000000,4.000000,4.000000,4.000000,4.000000,4.000000,4.000000,4.000000,4.000000,100.000000,,,,,,,,,,,,,,,,,6.000000,0.000000,0.622159,-0.406616,-0.595825,-0.304260,0.969357,-0.144549,-0.003907,-12.333062,-43.527225,64.807549
1703404525.282713,1703404525.283359,25.000000,0.000000,4200.000000,4171.410156,4266.538574,4233.717773,4165.000000,4116.922852,4265.128418,4139.358887,4155.384766,4150.897461,4596.282227,4445.128418,4353.846191,4487.948730,0.000000,4.000000,85.000000,,,,0.000000,4.000000,4.000000,4.000000,4.000000,4.000000,4.000000,4.000000,4.000000,4.000000,4.000000,4.000000,4.000000,4.000000,4.000000,100.000000,,,,,,,,,,,,,,,,,,,,,,,,,,,,
1703404525.290521,1703404525.291067,26.000000,0.000000,4202.948730,4178.717773,4267.948730,4242.692383,4166.666504,4114.871582,4264.230957,4141.282227,4139.102539,4158.461426,4598.974121,4453.589844,4357.179688,4497.436035,0.000000,4.000000,85.000000,,,,0.000000,4.000000,4.000000,4.000000,4.000000,4.000000,4.000000,4.000000,4.000000,4.000000,4.000000,4.000000,4.000000,4.000000,4.000000,100.000000,,,,,,,,,,,,,,,,,,,,,,,,,,,,
1703404525.298329,1703404525.298875,27.000000,0.000000,4207.051270,4190.256348,4274.743652,4253.717773,4184.358887,4123.589844,4267.948730,4150.256348,4139.615234,4151.153809,4608.589844,4461.922852,4370.769043,4505.641113,0.000000,4.000000,85.000000,,,,0.000000,4.000000,4.000000,4.000000,4.000000,4.000000,4.000000,4.000000,4.000000,4.000000,4.000000,4.000000,4.000000,4.000000,4.000000,100.000000,,,,,,,,,,,,,,,,,,,,,,,,,,,,
1703404525.306137,1703404525.306583,28.000000,0.000000,4218.077148,4189.743652,4281.410156,4252.692383,4186.794922,4127.948730,4267.179688,4158.461426,4155.128418,4161.794922,4623.846191,4471.025879,4387.563965,4515.384766,0.000000,4.000000,85.000000,,,,0.000000,4.000000,4.000000,4.000000,4.000000,4.000000,4.000000,4.000000,4.000000,4.000000,4.000000,4.000000,4.000000,4.000000,4.000000,100.000000,,,,,,,,,,,,,,,,,7.000000,0.000000,0.622270,-0.406311,-0.595886,-0.304321,0.978147,-0.138200,-0.008302,-12.249756,-43.591171,64.676788
1703404525.313945,1703404525.314391,29.000000,0.000000,4226.153809,4185.897461,4285.128418,4251.153809,4175.641113,4122.820313,4265.897461,4166.538574,4163.077148,4177.307617,4628.333496,4479.487305,4395.256348,4528.589844,0.000000,4.000000,85.000000,,,,0.000000,4.000000,4.000000,4.000000,4.000000,4.000000,4.000000,4.000000,4.000000,4.000000,4.000000,4.000000,4.000000,4.000000,4.000000,100.000000,,,,,,,,,,,,,,,,,,,,,,,,,,,,
1703404525.321753,1703404525.322099,30.000000,0.000000,4223.205078,4194.230957,4283.717773,4257.820313,4180.000000,4128.077148,4266.794922,4171.666504,4165.769043,4180.384766,4629.487305,4479.102539,4396.025879,4528.077148,0.000000,4.000000,85.000000,,,,0.000000,4.000000,4.000000,4.000000,4.000000,4.000000,4.000000,4.000000,4.000000,4.000000,4.000000,4.000000,4.000000,4.000000,4.000000,100.000000,,,,,,,,,,,,,,,,,,,,,,,,,,,,
1703404525.329561,1703404525.329907,31.000000,0.000000,4216.666504,4195.512695,4276.410156,4256.666504,4188.461426,4137.307617,4268.846191,4166.153809,4160.256348,4180.256348,4627.051270,4469.615234,4390.512695,4513.974121,0.000000,4.000000,85.000000,,,,0.000000,4.000000,4.000000,4.000000,4.000000,4.000000,4.000000,4.000000,4.000000,4.000000,4.000000,4.000000,4.000000,4.000000,4.000000,100.000000,,,,,,,,,,,,,,,,,,,,,,,,,,,,
1703404525.337370,1703404525.337616,32.000000,0.000000,4216.025879,4185.128418,4267.692383,4249.871582,4184.871582,4128.974121,4264.487305,4153.846191,4152.051270,4167.179688,4609.487305,4455.897461,4372.307617,4508.461426,0.000000,4.000000,85.000000,,,,0.000000,4.000000,4.000000,4.000000,4.000000,4.000000,4.000000,4.000000,4.000000,4.000000,4.000000,4.000000,4.000000,4.000000,4.000000,100.000000,,,,,,,,,,,,,,,,,8.000000,0.000000,0.622603,-0.406250,-0.595642,-0.304199,0.992309,-0.159199,-0.007813,-12.374781,-43.582054,64.859116
1703404525.345178,1703404525.345424,33.000000,0.000000,4206.410156,4182.436035,4261.922852,4247.179688,4178.333496,4118.077148,4259.102539,4148.974121,4147.563965,4149.230957,4597.563965,4449.487305,4358.205078,4505.897461,0.000000,4.000000,85.000000,,,,0.000000,4.000000,4.000000,4.000000,4.000000,4.000000,4.000000,4.000000,4.000000,4.000000,4.000000,4.000000,4.000000,4.000000,4.000000,100.000000,,,,,,,,,,,,,,,,,,,,,,,,,,,,
1703404525.352986,1703404525.353132,34.000000,0.000000,4197.563965,4187.436035,4264.743652,4250.641113,4181.025879,4120.897461,4264.358887,4154.743652,4144.358887,4151.922852,4607.948730,4458.333496,4363.333496,4501.922852,0.000000,4.000000,85.000000,,,,0.000000,4.000000,4.000000,4.000000,4.000000,4.000000,4.000000,4.000000,4.000000,4.000000,4.000000,4.000000,4.000000,4.000000,4.000000,100.000000,,,,,,,,,,,,,,,,,,,,,,,,,,,,
1703404525.360794,1703404525.361040,35.000000,0.000000,4205.256348,4182.307617,4268.461426,4248.846191,4181.922852,4125.384766,4267.692383,4161.410156,4146.282227,4154.743652,4616.025879,4463.077148,4366.410156,4505.512695,0.000000,4.000000,85.000000,,,,0.000000,4.000000,4.000000,4.000000,4.000000,4.000000,4.000000,4.000000,4.000000,4.000000,4.000000,4.000000,4.000000,4.000000,4.000000,100.000000,,,,,,,,,,,,,,,,,,,,,,,,,,,,
1703404525.368602,1703404525.368848,36.000000,0.000000,4203.717773,4168.333496,4264.615234,4237.820313,4172.051270,4120.384766,4262.820313,4170.128418,4158.077148,4140.641113,4610.128418,4456.410156,4365.897461,4504.743652,0.000000,4.000000,85.000000,,,,0.000000,4.000000,4.000000,4.000000,4.000000,4.000000,4.000000,4.000000,4.000000,4.000000,4.000000,4.000000,4.000000,4.000000,4.000000,100.000000,,,,,,,,,,,,,,,,,9.000000,0.000000,0.622722,-0.406250,-0.595642,-0.303955,0.980588,-0.150409,-0.002442,-12.420636,-43.673847,64.806534
1703404525.376410,1703404525.376756,37.000000,0.000000,4195.769043,4166.282227,4261.794922,4236.025879,4169.615234,4117.563965,4267.692383,4173.717773,4158.461426,4141.538574,4608.846191,4457.307617,4374.230957,4502.948730,0.000000,4.000000,85.000000,,,,0.000000,4.000000,4.000000,4.000000,4.000000,4.000000,4.000000,4.000000,4.000000,4.000000,4.000000,4.000000,4.000000,4.000000,4.000000,100.000000,,,,,,,,,,,,,,,,,,,,,,,,,,,,
1703404525.384218,1703404525.384564,38.000000,0.000000,4207.436035,4180.128418,4271.794922,4246.282227,4185.256348,4121.410156,4274.358887,4165.384766,4140.641113,4162.692383,4616.538574,4465.897461,4381.538574,4513.846191,0.000000,4.000000,85.000000,,,,0.000000,4.000000,4.000000,4.000000,4.000000,4.000000,4.000000,4.000000,4.000000,4.000000,4.000000,4.000000,4.000000,4.000000,4.000000,100.000000,,,,,,,,,,,,,,,,,,,,,,,,,,,,
1703404525.392026,1703404525.392472,39.000000,0.000000,4219.358887,4189.102539,4278.461426,4251.153809,4191.282227,4127.051270,4269.102539,4154.743652,4130.000000,4167.563965,4615.512695,4465.512695,4374.230957,4520.128418,0.000000,4.000000,85.000000,,,,0.000000,4.000000,4.000000,4.000000,4.000000,4.000000,4.000000,4.000000,4.000000,4.000000,4.000000,4.000000,4.000000,4.000000,4.000000,100.000000,,,,,,,,,,,,,,,,,,,,,,,,,,,,
1703404525.399834,1703404525.400281,40.000000,0.000000,4216.410156,4183.717773,4273.205078,4248.333496,4182.179688,4128.589844,4270.256348,4148.717773,4139.102539,4150.512695,4605.641113,4457.307617,4364.358887,4513.205078,0.000000,4.000000,85.000000,,,,0.000000,4.000000,4.000000,4.000000,4.000000,4.000000,4.000000,4.000000,4.000000,4.000000,4.000000,4.000000,4.000000,4.000000,4.000000,100.000000,,,,,,,,,,,,,,,,,10.000000,0.000000,0.622693,-0.406250,-0.595703,-0.303894,0.981077,-0.161641,0.000488,-12.411905,-43.639797,64.842545
1703404525.407642,1703404525.408188,41.000000,0.000000,4216.410156,4186.153809,4276.538574,4248.333496,4184.358887,4120.512695,4277.307617,4155.128418,4160.641113,4149.487305,4608.717773,4463.589844,4367.692383,4518.333496,0.000000,4.000000,85.000000,,,,0.000000,4.000000,4.000000,4.000000,4.000000,4.000000,4.000000,4.000000,4.000000,4.000000,4.000000,4.000000,4.000000,4.000000,4.000000,100.000000,,,,,,,,,,,,,,,,,,,,,,,,,,,,
1703404525.415450,1703404525.415996,42.000000,0.000000,4218.974121,4189.358887,4284.230957,4247.563965,4185.512695,4108.974121,4275.897461,4170.897461,4172.692383,4165.000000,4621.666504,4478.974121,4371.666504,4527.820313,0.000000,4.000000,85.000000,,,,0.000000,4.000000,4.000000,4.000000,4.000000,4.000000,4.000000,4.000000,4.000000,4.000000,4.000000,4.000000,4.000000,4.000000,4.000000,100.000000,,,,,,,,,,,,,,,,,,,,,,,,,,,,
1703404525.423258,1703404525.423904,43.000000,0.000000,4216.666504,4177.692383,4280.512695,4246.666504,4175.769043,4106.025879,4275.256348,4178.077148,4156.922852,4162.179688,4622.692383,4480.512695,4370.128418,4524.358887,0.000000,4.000000,85.000000,,,,0.000000,4.000000,4.000000,4.000000,4.000000,4.000000,4.000000,4.000000,4.000000,4.000000,4.000000,4.000000,4.000000,4.000000,4.000000,100.000000,,,,,,,,,,,,,,,,,,,,,,,,,,,,
1703404525.431066,1703404525.431712,44.000000,0.000000,4215.641113,4173.205078,4274.230957,4247.820313,4172.051270,4112.436035,4276.794922,4168.461426,4132.307617,4146.666504,4609.358887,4469.743652,4364.358887,4516.794922,0.000000,4.000000,85.000000,,,,0.000000,4.000000,4.000000,4.000000,4.000000,4.000000,4.000000,4.000000,4.000000,4.000000,4.000000,4.000000,4.000000,4.000000,4.000000,100.000000,,,,,,,,,,,,,,,,,11.000000,0.000000,0.622880,-0.406189,-0.595581,-0.303833,0.986937,-0.163106,-0.004883,-12.437382,-43.709152,64.974960
1703404525.438874,1703404525.439520,45.000000,0.000000,4216.666504,4184.230957,4278.205078,4246.025879,4175.512695,4112.820313,4276.153809,4158.717773,4139.230957,4139.615234,4599.615234,4463.461426,4356.538574,4510.128418,0.000000,4.000000,85.000000,,,,0.000000,4.000000,4.000000,4.000000,4.000000,4.000000,4.000000,4.000000,4.000000,4.000000,4.000000,4.000000,4.000000,4.000000,4.000000,100.000000,,,,,,,,,,,,,,,,,,,,,,,,,,,,
1703404525.446682,1703404525.447328,46.000000,0.000000,4210.512695,4185.128418,4277.051270,4247.436035,4172.692383,4108.461426,4276.410156,4157.179688,4150.897461,4148.589844,4603.846191,4459.102539,4358.846191,4504.230957,0.000000,4.000000,85.000000,,,,0.000000,4.000000,4.000000,4.000000,4.000000,4.000000,4.000000,4.000000,4.000000,4.000000,4.000000,4.000000,4.000000,4.000000,4.000000,100.000000,,,,,,,,,,,,,,,,,,,,,,,,,,,,
1703404525.454490,1703404525.455036,47.000000,0.000000,4198.846191,4169.743652,4265.769043,4243.333496,4164.358887,4107.948730,4274.487305,4147.436035,4124.358887,4146.410156,4600.000000,4447.692383,4357.820313,4500.769043,0.000000,4.000000,85.000000,,,,0.000000,4.000000,4.000000,4.000000,4.000000,4.000000,4.000000,4.000000,4.000000,4.000000,4.000000,4.000000,4.000000,4.000000,4.000000,100.000000,,,,,,,,,,,,,,,,,,,,,,,,,,,,
1703404525.462298,1703404525.462844,48.000000,0.000000,4207.820313,4166.666504,4268.717773,4235.512695,4164.102539,4107.307617,4272.692383,4139.487305,4113.333496,4126.025879,4584.743652,4445.897461,4343.077148,4501.794922,0.000000,4.000000,85.000000,,,,0.000000,4.000000,4.000000,4.000000,4.000000,4.000000,4.000000,4.000000,4.000000,4.000000,4.000000,4.000000,4.000000,4.000000,4.000000,100.000000,,,,,,,,,,,,,,,,,12.000000,0.000000,0.623026,-0.406189,-0.595459,-0.303772,0.978147,-0.146014,0.004883,-12.476976,-43.671570,64.994133
1703404525.470106,1703404525.470552,49.000000,0.000000,4223.205078,4180.641113,4279.102539,4241.922852,4170.769043,4108.077148,4279.102539,4150.256348,4148.461426,4134.615234,4590.769043,4460.128418,4345.897461,4508.717773,0.000000,4.000000,85.000000,,,,0.000000,4.000000,4.000000,4.000000,4.000000,4.000000,4.000000,4.000000,4.000000,4.000000,4.000000,4.000000,4.000000,4.000000,4.000000,100.000000,,,,,,,,,,,,,,,,,,,,,,,,,,,,
1703404525.477914,1703404525.478460,50.000000,0.000000,4207.563965,4186.282227,4274.358887,4249.230957,4175.897461,4109.487305,4281.410156,4161.410156,4166.794922,4155.897461,4607.051270,4463.589844,4364.615234,4505.512695,0.000000,4.000000,85.000000,,,,0.000000,4.000000,4.000000,4.000000,4.000000,4.000000,4.000000,4.000000,4.000000,4.000000,4.000000,4.000000,4.000000,4.000000,4.000000,100.000000,,,,,,,,,,,,,,,,,,,,,,,,,,,,
1703404525.485722,1703404525.486269,51.000000,0.000000,4197.563965,4180.769043,4268.846191,4244.230957,4180.897461,4109.615234,4277.692383,4154.743652,4144.358887,4147.692383,4600.769043,4454.615234,4362.307617,4498.333496,0.000000,4.000000,85.000000,,,,0.000000,4.000000,4.000000,4.000000,4.000000,4.000000,4.000000,4.000000,4.000000,4.000000,4.000000,4.000000,4.000000,4.000000,4.000000,100.000000,,,,,,,,,,,,,,,,,,,,,,,,,,,,
1703404525.493530,1703404525.494177,52.000000,0.000000,4218.589844,4180.641113,4275.256348,4242.051270,4187.692383,4107.179688,4278.333496,4151.922852,4141.025879,4135.256348,4597.820313,4457.307617,4356.153809,4511.922852,0.000000,4.000000,85.000000,,,,0.000000,4.000000,4.000000,4.000000,4.000000,4.000000,4.000000,4.000000,4.000000,4.000000,4.000000,4.000000,4.000000,4.000000,4.000000,100.000000,,,,,,,,,,,,,,,,,13.000000,0.000000,0.622930,-0.406067,-0.595581,-0.303894,0.982542,-0.138200,-0.007325,-12.429279,-43.504414,64.961388
1703404525.501339,1703404525.501985,53.000000,0.000000,4220.384766,4186.794922,4275.000000,4245.256348,4179.743652,4100.897461,4279.358887,4156.025879,4156.410156,4152.820313,4611.538574,4465.384766,4367.820313,4522.436035,0.000000,4.000000,85.000000,,,,0.000000,4.000000,4.000000,4.000000,4.000000,4.000000,4.000000,4.000000,4.000000,4.000000,4.000000,4.000000,4.000000,4.000000,4.000000,100.000000,,,,,,,,,,,,,,,,,,,,,,,,,,,,
1703404525.509147,1703404525.509793,54.000000,0.000000,4213.461426,4193.077148,4271.666504,4250.128418,4169.102539,4100.897461,4279.102539,4157.692383,4147.948730,4171.922852,4620.128418,4470.769043,4379.230957,4521.666504,0.000000,4.000000,85.000000,,,,0.000000,4.000000,4.000000,4.000000,4.000000,4.000000,4.000000,4.000000,4.000000,4.000000,4.000000,4.000000,4.000000,4.000000,4.000000,100.000000,,,,,,,,,,,,,,,,,,,,,,,,,,,,
1703404525.516955,1703404525.517501,55.000000,0.000000,4235.384766,4204.102539,4282.179688,4263.589844,4187.436035,4116.153809,4281.282227,4167.051270,4145.897461,4166.538574,4628.589844,4480.769043,4386.410156,4536.410156,0.000000,4.000000,85.000000,,,,0.000000,4.000000,4.000000,4.000000,4.000000,4.000000,4.000000,4.000000,4.000000,4.000000,4.000000,4.000000,4.000000,4.000000,4.000000,100.000000,,,,,,,,,,,,,,,,,,,,,,,,,,,,
1703404525.524763,1703404525.525309,56.000000,0.000000,4240.256348,4206.153809,4285.769043,4266.410156,4204.743652,4128.461426,4284.230957,4170.256348,4170.641113,4155.384766,4632.307617,4479.230957,4385.769043,4536.410156,0.000000,4.000000,85.000000,,,,0.000000,4.000000,4.000000,4.000000,4.000000,4.000000,4.000000,4.000000,4.000000,4.000000,4.000000,4.000000,4.000000,4.000000,4.000000,100.000000,,,,,,,,,,,,,,,,,14.000000,0.000000,0.622875,-0.405701,-0.595825,-0.304016,0.980588,-0.153827,-0.001953,-12.536351,-43.637302,64.915245
