title:اسيد نعم, start timestamp:1703501938.214346, stop timestamp:1703501948.997274, headset type:EPOCX, headset serial:E50206EF, headset firmware:720, channels:67, sampling rate:eeg_128;mot_32, samples:1382      , version:2.2, 
Timestamp,OriginalTimestamp,EEG.Counter,EEG.Interpolated,EEG.AF3,EEG.F7,EEG.F3,EEG.FC5,EEG.T7,EEG.P7,EEG.O1,EEG.O2,EEG.P8,EEG.T8,EEG.FC6,EEG.F4,EEG.F8,EEG.AF4,EEG.RawCq,EEG.Battery,EEG.BatteryPercent,MarkerIndex,MarkerType,MarkerValueInt,EEG.MarkerHardware,CQ.AF3,CQ.F7,CQ.F3,CQ.FC5,CQ.T7,CQ.P7,CQ.O1,CQ.O2,CQ.P8,CQ.T8,CQ.FC6,CQ.F4,CQ.F8,CQ.AF4,CQ.Overall,EQ.SampleRateQuality,EQ.OVERALL,EQ.AF3,EQ.F7,EQ.F3,EQ.FC5,EQ.T7,EQ.P7,EQ.O1,EQ.O2,EQ.P8,EQ.T8,EQ.FC6,EQ.F4,EQ.F8,EQ.AF4,MOT.CounterMems,MOT.InterpolatedMems,MOT.Q0,MOT.Q1,MOT.Q2,MOT.Q3,MOT.AccX,MOT.AccY,MOT.AccZ,MOT.MagX,MOT.MagY,MOT.MagZ
1703501938.214346,1703501938.215236,20.000000,0.000000,4280.256348,4276.922852,4299.871582,4280.641113,4255.512695,4231.794922,4249.871582,4249.358887,4225.897461,4230.641113,4479.871582,4452.948730,4352.692383,4400.769043,0.000000,3.000000,67.000000,,,,0.000000,4.000000,4.000000,4.000000,4.000000,4.000000,4.000000,4.000000,4.000000,4.000000,4.000000,4.000000,4.000000,4.000000,4.000000,100.000000,,,,,,,,,,,,,,,,,5.000000,0.000000,0.722893,-0.217896,-0.645203,-0.116882,0.972775,-0.164083,0.066903,-13.631649,-40.843586,61.920475
1703501938.222154,1703501938.222945,21.000000,0.000000,4292.948730,4295.256348,4305.128418,4292.051270,4257.563965,4233.589844,4255.512695,4247.820313,4227.307617,4228.333496,4472.179688,4451.538574,4339.102539,4399.358887,0.000000,3.000000,67.000000,,,,0.000000,4.000000,4.000000,4.000000,4.000000,4.000000,4.000000,4.000000,4.000000,4.000000,4.000000,4.000000,4.000000,4.000000,4.000000,100.000000,,,,,,,,,,,,,,,,,,,,,,,,,,,,
1703501938.229962,1703501938.230753,22.000000,0.000000,4293.461426,4287.051270,4306.282227,4295.512695,4264.230957,4234.615234,4259.615234,4246.282227,4230.384766,4228.205078,4467.436035,4454.230957,4331.538574,4392.179688,0.000000,3.000000,67.000000,,,,0.000000,4.000000,4.000000,4.000000,4.000000,4.000000,4.000000,4.000000,4.000000,4.000000,4.000000,4.000000,4.000000,4.000000,4.000000,100.000000,,,,,,,,,,,,,,,,,,,,,,,,,,,,
1703501938.237770,1703501938.238461,23.000000,0.000000,4291.922852,4281.922852,4311.538574,4289.487305,4264.358887,4235.384766,4254.487305,4249.358887,4233.974121,4235.128418,4487.179688,4466.794922,4352.820313,4405.897461,0.000000,3.000000,67.000000,,,,0.000000,4.000000,4.000000,4.000000,4.000000,4.000000,4.000000,4.000000,4.000000,4.000000,4.000000,4.000000,4.000000,4.000000,4.000000,100.000000,,,,,,,,,,,,,,,,,,,,,,,,,,,,
1703501938.245578,1703501938.246269,24.000000,0.000000,4294.358887,4287.179688,4314.358887,4291.666504,4260.769043,4235.128418,4249.871582,4252.563965,4234.102539,4238.974121,4503.333496,4474.102539,4368.717773,4420.256348,0.000000,3.000000,67.000000,,,,0.000000,4.000000,4.000000,4.000000,4.000000,4.000000,4.000000,4.000000,4.000000,4.000000,4.000000,4.000000,4.000000,4.000000,4.000000,100.000000,,,,,,,,,,,,,,,,,6.000000,0.000000,0.722784,-0.217896,-0.645325,-0.116882,0.972287,-0.180198,0.064461,-13.601817,-40.709229,61.911762
1703501938.253386,1703501938.253977,25.000000,0.000000,4296.153809,4291.025879,4312.051270,4295.897461,4261.922852,4236.025879,4251.153809,4247.692383,4234.743652,4236.794922,4499.743652,4469.615234,4365.000000,4418.589844,0.000000,3.000000,67.000000,,,,0.000000,4.000000,4.000000,4.000000,4.000000,4.000000,4.000000,4.000000,4.000000,4.000000,4.000000,4.000000,4.000000,4.000000,4.000000,100.000000,,,,,,,,,,,,,,,,,,,,,,,,,,,,
1703501938.261194,1703501938.261885,26.000000,0.000000,4292.820313,4288.589844,4312.179688,4286.410156,4261.153809,4238.717773,4250.512695,4237.563965,4230.897461,4230.897461,4488.589844,4461.410156,4355.769043,4407.179688,0.000000,3.000000,67.000000,,,,0.000000,4.000000,4.000000,4.000000,4.000000,4.000000,4.000000,4.000000,4.000000,4.000000,4.000000,4.000000,4.000000,4.000000,4.000000,100.000000,,,,,,,,,,,,,,,,,,,,,,,,,,,,
1703501938.269002,1703501938.269693,27.000000,0.000000,4285.128418,4281.538574,4305.384766,4276.794922,4261.666504,4243.205078,4249.871582,4231.538574,4220.769043,4223.461426,4481.410156,4451.410156,4351.025879,4396.025879,0.000000,3.000000,67.000000,,,,0.000000,4.000000,4.000000,4.000000,4.000000,4.000000,4.000000,4.000000,4.000000,4.000000,4.000000,4.000000,4.000000,4.000000,4.000000,100.000000,1.000000,83.333336,4.000000,4.000000,4.000000,4.000000,3.000000,3.000000,4.000000,4.000000,4.000000,4.000000,4.000000,4.000000,4.000000,4.000000,,,,,,,,,,,,
1703501938.276810,1703501938.277601,28.000000,0.000000,4277.820313,4276.410156,4293.205078,4278.077148,4264.615234,4246.153809,4251.410156,4231.410156,4212.692383,4215.641113,4475.512695,4442.179688,4343.333496,4388.077148,0.000000,3.000000,67.000000,,,,0.000000,4.000000,4.000000,4.000000,4.000000,4.000000,4.000000,4.000000,4.000000,4.000000,4.000000,4.000000,4.000000,4.000000,4.000000,100.000000,,,,,,,,,,,,,,,,,7.000000,0.000000,0.722640,-0.217712,-0.645569,-0.116760,0.982053,-0.157246,0.068856,-13.724969,-40.654972,61.970585
1703501938.284618,1703501938.285409,29.000000,0.000000,4276.153809,4275.897461,4294.230957,4280.512695,4265.000000,4246.794922,4254.487305,4231.410156,4215.128418,4211.794922,4471.794922,4444.871582,4337.051270,4385.641113,0.000000,3.000000,67.000000,,,,0.000000,4.000000,4.000000,4.000000,4.000000,4.000000,4.000000,4.000000,4.000000,4.000000,4.000000,4.000000,4.000000,4.000000,4.000000,100.000000,,,,,,,,,,,,,,,,,,,,,,,,,,,,
1703501938.292426,1703501938.293317,30.000000,0.000000,4275.641113,4275.641113,4299.615234,4279.871582,4265.641113,4247.820313,4257.179688,4234.230957,4219.230957,4215.769043,4473.205078,4447.179688,4340.384766,4386.025879,0.000000,3.000000,67.000000,,,,0.000000,4.000000,4.000000,4.000000,4.000000,4.000000,4.000000,4.000000,4.000000,4.000000,4.000000,4.000000,4.000000,4.000000,4.000000,100.000000,,,,,,,,,,,,,,,,,,,,,,,,,,,,
1703501938.300234,1703501938.301126,31.000000,0.000000,4272.692383,4274.102539,4296.025879,4280.384766,4265.641113,4247.820313,4254.358887,4239.487305,4216.025879,4215.384766,4473.077148,4443.846191,4342.692383,4386.922852,0.000000,3.000000,67.000000,,,,0.000000,4.000000,4.000000,4.000000,4.000000,4.000000,4.000000,4.000000,4.000000,4.000000,4.000000,4.000000,4.000000,4.000000,4.000000,100.000000,,,,,,,,,,,,,,,,,,,,,,,,,,,,
1703501938.308042,1703501938.309034,32.000000,0.000000,4274.487305,4275.384766,4296.922852,4285.000000,4263.461426,4243.205078,4253.461426,4244.358887,4218.333496,4215.256348,4474.487305,4452.436035,4341.025879,4393.333496,0.000000,3.000000,67.000000,,,,0.000000,4.000000,4.000000,4.000000,4.000000,4.000000,4.000000,4.000000,4.000000,4.000000,4.000000,4.000000,4.000000,4.000000,4.000000,100.000000,,,,,,,,,,,,,,,,,8.000000,0.000000,0.722607,-0.217346,-0.645752,-0.116638,0.984984,-0.169454,0.065926,-13.835805,-40.739475,62.140194
1703501938.315850,1703501938.316842,33.000000,0.000000,4278.717773,4276.666504,4306.153809,4291.922852,4264.102539,4241.410156,4256.282227,4249.102539,4229.487305,4226.666504,4483.974121,4465.000000,4347.692383,4398.974121,0.000000,3.000000,67.000000,,,,0.000000,4.000000,4.000000,4.000000,4.000000,4.000000,4.000000,4.000000,4.000000,4.000000,4.000000,4.000000,4.000000,4.000000,4.000000,100.000000,,,,,,,,,,,,,,,,,,,,,,,,,,,,
1703501938.323659,1703501938.324750,34.000000,0.000000,4282.307617,4277.436035,4310.769043,4295.000000,4267.051270,4240.897461,4254.487305,4247.563965,4233.461426,4234.743652,4497.179688,4466.153809,4361.538574,4403.461426,0.000000,3.000000,67.000000,,,,0.000000,4.000000,4.000000,4.000000,4.000000,4.000000,4.000000,4.000000,4.000000,4.000000,4.000000,4.000000,4.000000,4.000000,4.000000,100.000000,,,,,,,,,,,,,,,,,,,,,,,,,,,,
1703501938.331467,1703501938.332558,35.000000,0.000000,4288.717773,4280.384766,4310.256348,4293.333496,4266.538574,4236.794922,4253.461426,4242.820313,4230.384766,4234.871582,4506.922852,4468.333496,4368.077148,4412.563965,0.000000,3.000000,67.000000,,,,0.000000,4.000000,4.000000,4.000000,4.000000,4.000000,4.000000,4.000000,4.000000,4.000000,4.000000,4.000000,4.000000,4.000000,4.000000,100.000000,,,,,,,,,,,,,,,,,,,,,,,,,,,,
1703501938.339275,1703501938.340466,36.000000,0.000000,4294.487305,4286.410156,4311.922852,4296.025879,4267.820313,4238.461426,4258.077148,4244.743652,4238.077148,4243.461426,4512.051270,4475.512695,4374.230957,4417.051270,0.000000,3.000000,67.000000,,,,0.000000,4.000000,4.000000,4.000000,4.000000,4.000000,4.000000,4.000000,4.000000,4.000000,4.000000,4.000000,4.000000,4.000000,4.000000,100.000000,,,,,,,,,,,,,,,,,9.000000,0.000000,0.722609,-0.217041,-0.645874,-0.116516,0.978635,-0.163106,0.072763,-13.752225,-40.732193,61.959507
1703501938.347083,1703501938.348275,37.000000,0.000000,4294.230957,4292.436035,4313.589844,4301.922852,4273.333496,4245.128418,4260.128418,4246.025879,4244.615234,4249.871582,4512.307617,4474.487305,4382.307617,4411.410156,0.000000,3.000000,67.000000,,,,0.000000,4.000000,4.000000,4.000000,4.000000,4.000000,4.000000,4.000000,4.000000,4.000000,4.000000,4.000000,4.000000,4.000000,4.000000,100.000000,,,,,,,,,,,,,,,,,,,,,,,,,,,,
1703501938.354891,1703501938.356183,38.000000,0.000000,4292.692383,4294.358887,4311.153809,4306.922852,4276.282227,4245.256348,4259.871582,4243.205078,4237.179688,4241.666504,4507.563965,4467.563965,4381.153809,4409.615234,0.000000,3.000000,67.000000,,,,0.000000,4.000000,4.000000,4.000000,4.000000,4.000000,4.000000,4.000000,4.000000,4.000000,4.000000,4.000000,4.000000,4.000000,4.000000,100.000000,,,,,,,,,,,,,,,,,,,,,,,,,,,,
1703501938.362699,1703501938.363991,39.000000,0.000000,4294.743652,4295.512695,4310.128418,4310.384766,4277.051270,4244.358887,4260.769043,4242.563965,4235.256348,4239.230957,4506.282227,4466.538574,4374.487305,4412.563965,0.000000,3.000000,67.000000,,,,0.000000,4.000000,4.000000,4.000000,4.000000,4.000000,4.000000,4.000000,4.000000,4.000000,4.000000,4.000000,4.000000,4.000000,4.000000,100.000000,,,,,,,,,,,,,,,,,,,,,,,,,,,,
1703501938.370507,1703501938.371699,40.000000,0.000000,4290.000000,4291.410156,4309.871582,4308.846191,4276.282227,4246.410156,4259.743652,4238.461426,4237.563965,4241.922852,4502.692383,4463.717773,4367.436035,4405.512695,0.000000,3.000000,67.000000,,,,0.000000,4.000000,4.000000,4.000000,4.000000,4.000000,4.000000,4.000000,4.000000,4.000000,4.000000,4.000000,4.000000,4.000000,4.000000,100.000000,,,,,,,,,,,,,,,,,10.000000,0.000000,0.722689,-0.216858,-0.645813,-0.116699,0.986937,-0.164571,0.079111,-13.710336,-40.692307,61.980225
1703501938.378315,1703501938.379507,41.000000,0.000000,4283.461426,4282.948730,4307.820313,4306.025879,4276.538574,4245.128418,4260.897461,4232.820313,4230.000000,4233.461426,4496.025879,4458.333496,4361.025879,4398.205078,0.000000,3.000000,67.000000,,,,0.000000,4.000000,4.000000,4.000000,4.000000,4.000000,4.000000,4.000000,4.000000,4.000000,4.000000,4.000000,4.000000,4.000000,4.000000,100.000000,,,,,,,,,,,,,,,,,,,,,,,,,,,,
1703501938.386123,1703501938.387215,42.000000,0.000000,4281.282227,4280.384766,4307.307617,4308.717773,4278.846191,4244.230957,4262.436035,4237.692383,4227.307617,4227.948730,4496.922852,4461.922852,4361.794922,4401.538574,0.000000,3.000000,67.000000,,,,0.000000,4.000000,4.000000,4.000000,4.000000,4.000000,4.000000,4.000000,4.000000,4.000000,4.000000,4.000000,4.000000,4.000000,4.000000,100.000000,,,,,,,,,,,,,,,,,,,,,,,,,,,,
1703501938.393931,1703501938.395124,43.000000,0.000000,4282.563965,4283.461426,4309.487305,4311.922852,4278.077148,4243.846191,4262.820313,4245.641113,4234.487305,4234.487305,4506.153809,4468.589844,4365.256348,4408.717773,0.000000,3.000000,67.000000,,,,0.000000,4.000000,4.000000,4.000000,4.000000,4.000000,4.000000,4.000000,4.000000,4.000000,4.000000,4.000000,4.000000,4.000000,4.000000,100.000000,,,,,,,,,,,,,,,,,,,,,,,,,,,,
1703501938.401739,1703501938.402932,44.000000,0.000000,4288.205078,4284.230957,4311.410156,4311.410156,4275.000000,4241.922852,4263.205078,4244.871582,4235.384766,4237.692383,4511.794922,4469.230957,4367.692383,4412.179688,0.000000,3.000000,67.000000,,,,0.000000,4.000000,4.000000,4.000000,4.000000,4.000000,4.000000,4.000000,4.000000,4.000000,4.000000,4.000000,4.000000,4.000000,4.000000,100.000000,,,,,,,,,,,,,,,,,11.000000,0.000000,0.722734,-0.216858,-0.645752,-0.116760,0.977170,-0.150409,0.066414,-13.705969,-40.823078,61.915535
1703501938.409547,1703501938.410740,45.000000,0.000000,4293.205078,4282.051270,4312.436035,4307.820313,4274.358887,4245.384766,4263.333496,4242.820313,4232.307617,4235.128418,4510.256348,4467.948730,4371.153809,4413.589844,0.000000,3.000000,67.000000,,,,0.000000,4.000000,4.000000,4.000000,4.000000,4.000000,4.000000,4.000000,4.000000,4.000000,4.000000,4.000000,4.000000,4.000000,4.000000,100.000000,,,,,,,,,,,,,,,,,,,,,,,,,,,,
1703501938.417355,1703501938.418448,46.000000,0.000000,4292.948730,4285.128418,4310.897461,4300.769043,4278.077148,4247.436035,4264.102539,4245.256348,4237.307617,4237.948730,4511.794922,4472.948730,4372.820313,4416.025879,0.000000,3.000000,67.000000,,,,0.000000,4.000000,4.000000,4.000000,4.000000,4.000000,4.000000,4.000000,4.000000,4.000000,4.000000,4.000000,4.000000,4.000000,4.000000,100.000000,,,,,,,,,,,,,,,,,,,,,,,,,,,,
1703501938.425163,1703501938.426256,47.000000,0.000000,4293.846191,4291.025879,4311.794922,4294.615234,4276.025879,4245.128418,4263.461426,4246.794922,4247.563965,4245.384766,4521.794922,4477.563965,4379.230957,4422.563965,0.000000,3.000000,67.000000,,,,0.000000,4.000000,4.000000,4.000000,4.000000,4.000000,4.000000,4.000000,4.000000,4.000000,4.000000,4.000000,4.000000,4.000000,4.000000,100.000000,,,,,,,,,,,,,,,,,,,,,,,,,,,,
1703501938.432971,1703501938.433964,48.000000,0.000000,4299.102539,4292.179688,4317.307617,4294.871582,4268.846191,4243.333496,4260.897461,4247.051270,4252.692383,4251.538574,4530.000000,4477.948730,4390.512695,4433.333496,0.000000,3.000000,67.000000,,,,0.000000,4.000000,4.000000,4.000000,4.000000,4.000000,4.000000,4.000000,4.000000,4.000000,4.000000,4.000000,4.000000,4.000000,4.000000,100.000000,,,,,,,,,,,,,,,,,12.000000,0.000000,0.722687,-0.216980,-0.645752,-0.116821,0.981565,-0.172384,0.067391,-13.668705,-40.690769,61.907314
1703501938.440779,1703501938.441772,49.000000,0.000000,4296.666504,4286.282227,4316.666504,4294.230957,4268.717773,4243.205078,4260.512695,4249.358887,4252.436035,4251.282227,4525.128418,4476.538574,4381.282227,4428.974121,0.000000,3.000000,67.000000,,,,0.000000,4.000000,4.000000,4.000000,4.000000,4.000000,4.000000,4.000000,4.000000,4.000000,4.000000,4.000000,4.000000,4.000000,4.000000,100.000000,,,,,,,,,,,,,,,,,,,,,,,,,,,,
1703501938.448588,1703501938.449480,50.000000,0.000000,4289.230957,4286.025879,4314.102539,4290.128418,4272.563965,4245.128418,4262.436035,4247.307617,4250.256348,4246.538574,4520.128418,4474.102539,4367.051270,4413.717773,0.000000,3.000000,67.000000,,,,0.000000,4.000000,4.000000,4.000000,4.000000,4.000000,4.000000,4.000000,4.000000,4.000000,4.000000,4.000000,4.000000,4.000000,4.000000,100.000000,,,,,,,,,,,,,,,,,,,,,,,,,,,,
1703501938.456396,1703501938.457288,51.000000,0.000000,4293.846191,4293.846191,4316.538574,4292.563965,4270.128418,4247.563965,4262.948730,4237.436035,4242.436035,4243.333496,4523.846191,4471.410156,4378.461426,4418.077148,0.000000,3.000000,67.000000,,,,0.000000,4.000000,4.000000,4.000000,4.000000,4.000000,4.000000,4.000000,4.000000,4.000000,4.000000,4.000000,4.000000,4.000000,4.000000,100.000000,,,,,,,,,,,,,,,,,,,,,,,,,,,,
1703501938.464203,1703501938.464996,52.000000,0.000000,4292.820313,4282.436035,4314.615234,4290.769043,4263.589844,4245.000000,4261.282227,4231.282227,4232.692383,4240.128418,4523.846191,4468.717773,4387.179688,4425.512695,0.000000,3.000000,67.000000,,,,0.000000,4.000000,4.000000,4.000000,4.000000,4.000000,4.000000,4.000000,4.000000,4.000000,4.000000,4.000000,4.000000,4.000000,4.000000,100.000000,,,,,,,,,,,,,,,,,13.000000,0.000000,0.722588,-0.217163,-0.645813,-0.116760,0.970822,-0.167013,0.065438,-13.651834,-40.771694,61.966583
1703501938.472012,1703501938.472804,53.000000,0.000000,4278.333496,4260.897461,4308.205078,4279.230957,4267.820313,4242.436035,4260.897461,4235.769043,4231.538574,4234.102539,4519.487305,4467.307617,4373.846191,4412.948730,0.000000,3.000000,67.000000,,,,0.000000,4.000000,4.000000,4.000000,4.000000,4.000000,4.000000,4.000000,4.000000,4.000000,4.000000,4.000000,4.000000,4.000000,4.000000,100.000000,,,,,,,,,,,,,,,,,,,,,,,,,,,,
1703501938.479820,1703501938.480512,54.000000,0.000000,4276.666504,4266.794922,4308.077148,4278.717773,4271.153809,4244.871582,4262.179688,4237.436035,4233.974121,4229.358887,4515.128418,4466.282227,4369.743652,4406.282227,0.000000,3.000000,67.000000,,,,0.000000,4.000000,4.000000,4.000000,4.000000,4.000000,4.000000,4.000000,4.000000,4.000000,4.000000,4.000000,4.000000,4.000000,4.000000,100.000000,,,,,,,,,,,,,,,,,,,,,,,,,,,,
1703501938.487628,1703501938.488420,55.000000,0.000000,4290.769043,4293.333496,4311.153809,4291.538574,4267.436035,4247.436035,4262.692383,4231.666504,4229.230957,4225.256348,4504.615234,4463.717773,4366.538574,4415.512695,0.000000,3.000000,67.000000,,,,0.000000,4.000000,4.000000,4.000000,4.000000,4.000000,4.000000,4.000000,4.000000,4.000000,4.000000,4.000000,4.000000,4.000000,4.000000,100.000000,,,,,,,,,,,,,,,,,,,,,,,,,,,,
1703501938.495436,1703501938.496229,56.000000,0.000000,4295.256348,4300.128418,4309.615234,4296.282227,4270.000000,4248.846191,4261.922852,4228.077148,4224.871582,4222.692383,4494.743652,4460.897461,4351.538574,4413.589844,0.000000,3.000000,67.000000,,,,0.000000,4.000000,4.000000,4.000000,4.000000,4.000000,4.000000,4.000000,4.000000,4.000000,4.000000,4.000000,4.000000,4.000000,4.000000,100.000000,,,,,,,,,,,,,,,,,14.000000,0.000000,0.722526,-0.217285,-0.645874,-0.116577,0.971798,-0.167501,0.071298,-13.836651,-40.777859,61.903259
1703501938.503244,1703501938.504137,57.000000,0.000000,4289.871582,4282.307617,4311.666504,4285.641113,4272.179688,4252.179688,4262.051270,4236.153809,4235.769043,4235.000000,4513.589844,4466.538574,4363.717773,4414.871582,0.000000,3.000000,67.000000,,,,0.000000,4.000000,4.000000,4.000000,4.000000,4.000000,4.000000,4.000000,4.000000,4.000000,4.000000,4.000000,4.000000,4.000000,4.000000,100.000000,,,,,,,,,,,,,,,,,,,,,,,,,,,,
1703501938.511052,1703501938.511945,58.000000,0.000000,4291.410156,4277.820313,4315.128418,4281.922852,4267.563965,4257.820313,4264.230957,4248.333496,4251.410156,4252.692383,4536.666504,4477.051270,4391.410156,4431.153809,0.000000,3.000000,67.000000,,,,0.000000,4.000000,4.000000,4.000000,4.000000,4.000000,4.000000,4.000000,4.000000,4.000000,4.000000,4.000000,4.000000,4.000000,4.000000,100.000000,,,,,,,,,,,,,,,,,,,,,,,,,,,,
1703501938.518860,1703501938.519853,59.000000,0.000000,4297.179688,4290.384766,4315.641113,4291.025879,4265.256348,4262.051270,4266.025879,4250.000000,4253.974121,4251.666504,4528.846191,4478.461426,4385.641113,4432.820313,0.000000,3.000000,67.000000,,,,0.000000,4.000000,4.000000,4.000000,4.000000,4.000000,4.000000,4.000000,4.000000,4.000000,4.000000,4.000000,4.000000,4.000000,4.000000,100.000000,,,,,,,,,,,,,,,,,,,,,,,,,,,,
1703501938.526668,1703501938.527661,60.000000,0.000000,4305.384766,4300.512695,4322.563965,4297.563965,4267.692383,4260.897461,4264.487305,4246.025879,4248.461426,4245.256348,4524.615234,4479.743652,4372.820313,4433.461426,0.000000,3.000000,67.000000,,,,0.000000,4.000000,4.000000,4.000000,4.000000,4.000000,4.000000,4.000000,4.000000,4.000000,4.000000,4.000000,4.000000,4.000000,4.000000,100.000000,,,,,,,,,,,,,,,,,15.000000,0.000000,0.722595,-0.217285,-0.645874,-0.116150,0.979123,-0.186546,0.073739,-13.736320,-40.733406,61.929600
1703501938.534476,1703501938.535569,61.000000,0.000000,4306.666504,4295.897461,4326.922852,4294.615234,4263.333496,4258.333496,4262.563965,4246.282227,4248.846191,4248.974121,4539.871582,4483.717773,4384.230957,4445.128418,0.000000,3.000000,67.000000,,,,0.000000,4.000000,4.000000,4.000000,4.000000,4.000000,4.000000,4.000000,4.000000,4.000000,4.000000,4.000000,4.000000,4.000000,4.000000,100.000000,,,,,,,,,,,,,,,,,,,,,,,,,,,,
1703501938.542284,1703501938.543377,62.000000,0.000000,4296.922852,4283.077148,4320.641113,4291.153809,4264.230957,4259.743652,4263.205078,4250.256348,4253.589844,4252.820313,4544.102539,4483.589844,4397.820313,4447.948730,0.000000,3.000000,67.000000,,,,0.000000,4.000000,4.000000,4.000000,4.000000,4.000000,4.000000,4.000000,4.000000,4.000000,4.000000,4.000000,4.000000,4.000000,4.000000,100.000000,,,,,,,,,,,,,,,,,,,,,,,,,,,,
1703501938.550092,1703501938.551086,63.000000,0.000000,4293.974121,4278.974121,4316.922852,4294.102539,4272.820313,4262.436035,4263.589844,4248.974121,4254.102539,4253.589844,4537.307617,4480.641113,4397.179688,4442.820313,0.000000,3.000000,67.000000,,,,0.000000,4.000000,4.000000,4.000000,4.000000,4.000000,4.000000,4.000000,4.000000,4.000000,4.000000,4.000000,4.000000,4.000000,4.000000,100.000000,,,,,,,,,,,,,,,,,,,,,,,,,,,,
1703501938.557900,1703501938.558893,64.000000,0.000000,4294.871582,4280.128418,4316.922852,4294.743652,4270.128418,4261.153809,4262.051270,4238.461426,4245.512695,4246.410156,4529.743652,4475.256348,4383.205078,4435.641113,5103.000000,3.000000,67.000000,,,,0.000000,4.000000,4.000000,4.000000,4.000000,4.000000,4.000000,4.000000,4.000000,4.000000,4.000000,4.000000,4.000000,4.000000,4.000000,100.000000,,,,,,,,,,,,,,,,,16.000000,0.000000,0.722652,-0.217224,-0.645874,-0.115906,0.981077,-0.167501,0.076181,-13.729354,-40.910065,61.869972
1703501938.565708,1703501938.566602,65.000000,0.000000,4292.051270,4280.128418,4312.436035,4294.102539,4262.948730,4258.717773,4262.948730,4229.615234,4233.205078,4232.307617,4518.846191,4466.922852,4371.282227,4427.307617,5534.000000,3.000000,67.000000,,,,0.000000,4.000000,4.000000,4.000000,4.000000,4.000000,4.000000,4.000000,4.000000,4.000000,4.000000,4.000000,4.000000,4.000000,4.000000,100.000000,,,,,,,,,,,,,,,,,,,,,,,,,,,,
1703501938.573516,1703501938.574410,66.000000,0.000000,4294.358887,4282.948730,4308.205078,4295.769043,4266.282227,4260.000000,4263.333496,4230.512695,4230.256348,4231.153809,4519.743652,4465.769043,4381.025879,4428.461426,5447.000000,3.000000,67.000000,,,,0.000000,4.000000,4.000000,4.000000,4.000000,4.000000,4.000000,4.000000,4.000000,4.000000,4.000000,4.000000,4.000000,4.000000,4.000000,100.000000,,,,,,,,,,,,,,,,,,,,,,,,,,,,
1703501938.581324,1703501938.582118,67.000000,0.000000,4294.487305,4277.179688,4309.487305,4295.256348,4272.948730,4261.794922,4262.307617,4237.692383,4237.179688,4242.179688,4534.230957,4472.436035,4395.128418,4438.333496,5479.000000,3.000000,67.000000,,,,0.000000,4.000000,4.000000,4.000000,4.000000,4.000000,4.000000,4.000000,4.000000,4.000000,4.000000,4.000000,4.000000,4.000000,4.000000,100.000000,,,,,,,,,,,,,,,,,,,,,,,,,,,,
1703501938.589132,1703501938.589926,68.000000,0.000000,4287.820313,4264.615234,4313.333496,4293.333496,4272.179688,4262.179688,4269.743652,4247.051270,4248.461426,4248.333496,4542.307617,4480.769043,4398.333496,4443.589844,5330.000000,3.000000,67.000000,,,,0.000000,4.000000,4.000000,4.000000,4.000000,4.000000,4.000000,4.000000,4.000000,4.000000,4.000000,4.000000,4.000000,4.000000,4.000000,100.000000,,,,,,,,,,,,,,,,,17.000000,0.000000,0.722663,-0.217285,-0.645874,-0.115723,0.982542,-0.183128,0.068368,-13.706419,-40.885723,61.849640
1703501938.596941,1703501938.597634,69.000000,0.000000,4290.000000,4275.000000,4315.512695,4297.563965,4271.922852,4263.077148,4276.410156,4256.025879,4260.512695,4255.384766,4544.230957,4484.871582,4399.487305,4443.846191,4632.000000,3.000000,67.000000,,,,0.000000,4.000000,4.000000,4.000000,4.000000,4.000000,4.000000,4.000000,4.000000,4.000000,4.000000,4.000000,4.000000,4.000000,4.000000,100.000000,,,,,,,,,,,,,,,,,,,,,,,,,,,,
1703501938.604749,1703501938.605442,70.000000,0.000000,4296.666504,4293.974121,4315.512695,4306.282227,4274.102539,4263.205078,4270.128418,4257.563965,4264.743652,4263.974121,4542.820313,4480.512695,4396.666504,4441.282227,4089.000000,3.000000,67.000000,,,,0.000000,4.000000,4.000000,4.000000,4.000000,4.000000,4.000000,4.000000,4.000000,4.000000,4.000000,4.000000,4.000000,4.000000,4.000000,100.000000,,,,,,,,,,,,,,,,,,,,,,,,,,,,
1703501938.612557,1703501938.613150,71.000000,0.000000,4293.846191,4286.025879,4318.846191,4309.615234,4276.794922,4264.487305,4264.871582,4259.230957,4265.384766,4265.128418,4547.692383,4483.077148,4393.205078,4439.871582,5205.000000,3.000000,67.000000,,,,0.000000,4.000000,4.000000,4.000000,4.000000,4.000000,4.000000,4.000000,4.000000,4.000000,4.000000,4.000000,4.000000,4.000000,4.000000,100.000000,,,,,,,,,,,,,,,,,,,,,,,,,,,,
1703501938.620365,1703501938.620958,72.000000,0.000000,4298.974121,4279.487305,4328.333496,4310.384766,4281.153809,4265.897461,4267.948730,4265.128418,4273.077148,4269.743652,4558.974121,4498.717773,4399.615234,4448.846191,5479.000000,3.000000,67.000000,,,,0.000000,4.000000,4.000000,4.000000,4.000000,4.000000,4.000000,4.000000,4.000000,4.000000,4.000000,4.000000,4.000000,4.000000,4.000000,100.000000,,,,,,,,,,,,,,,,,18.000000,0.000000,0.722645,-0.217346,-0.645874,-0.115723,0.975217,-0.186058,0.055183,-13.735777,-40.863819,61.948009
1703501938.628173,1703501938.628666,73.000000,0.000000,4311.410156,4287.307617,4337.179688,4310.897461,4276.025879,4262.563965,4269.358887,4266.922852,4279.102539,4277.692383,4561.410156,4510.512695,4402.436035,4459.102539,5512.000000,3.000000,67.000000,,,,0.000000,4.000000,4.000000,4.000000,4.000000,4.000000,4.000000,4.000000,4.000000,4.000000,4.000000,4.000000,4.000000,4.000000,4.000000,100.000000,,,,,,,,,,,,,,,,,,,,,,,,,,,,
1703501938.635981,1703501938.636474,74.000000,0.000000,4312.051270,4286.666504,4345.384766,4312.820313,4266.922852,4259.487305,4266.922852,4263.205078,4272.051270,4273.717773,4562.563965,4511.922852,4402.948730,4461.282227,6113.000000,3.000000,67.000000,,,,0.000000,4.000000,4.000000,4.000000,4.000000,4.000000,4.000000,4.000000,4.000000,4.000000,4.000000,4.000000,4.000000,4.000000,4.000000,100.000000,,,,,,,,,,,,,,,,,,,,,,,,,,,,
1703501938.643789,1703501938.644182,75.000000,0.000000,4308.077148,4284.358887,4347.307617,4316.282227,4268.846191,4264.358887,4265.769043,4255.256348,4262.051270,4265.641113,4566.282227,4507.948730,4408.589844,4461.666504,6446.000000,3.000000,67.000000,,,,0.000000,4.000000,4.000000,4.000000,4.000000,4.000000,4.000000,4.000000,4.000000,4.000000,4.000000,4.000000,4.000000,4.000000,4.000000,100.000000,,,,,,,,,,,,,,,,,,,,,,,,,,,,
1703501938.651597,1703501938.651990,76.000000,0.000000,4306.282227,4286.922852,4336.282227,4313.717773,4275.641113,4265.128418,4266.410156,4247.051270,4259.487305,4262.307617,4555.384766,4497.436035,4403.077148,4456.794922,6942.000000,3.000000,67.000000,,,,0.000000,4.000000,4.000000,4.000000,4.000000,4.000000,4.000000,4.000000,4.000000,4.000000,4.000000,4.000000,4.000000,4.000000,4.000000,100.000000,,,,,,,,,,,,,,,,,19.000000,0.000000,0.722643,-0.217468,-0.645813,-0.115845,0.985472,-0.171896,0.065926,-13.645533,-40.894104,61.936543
1703501938.659405,1703501938.659698,77.000000,0.000000,4300.000000,4282.820313,4323.461426,4309.358887,4275.128418,4262.436035,4271.538574,4243.974121,4258.077148,4260.897461,4538.846191,4483.717773,4393.077148,4448.333496,6387.000000,3.000000,67.000000,,,,0.000000,4.000000,4.000000,4.000000,4.000000,4.000000,4.000000,4.000000,4.000000,4.000000,4.000000,4.000000,4.000000,4.000000,4.000000,100.000000,,,,,,,,,,,,,,,,,,,,,,,,,,,,
1703501938.667213,1703501938.667606,78.000000,0.000000,4293.846191,4278.077148,4319.615234,4306.666504,4276.794922,4272.563965,4278.333496,4250.641113,4256.666504,4257.179688,4536.282227,4480.512695,4389.871582,4439.358887,6113.000000,3.000000,67.000000,,,,0.000000,4.000000,4.000000,4.000000,4.000000,4.000000,4.000000,4.000000,4.000000,4.000000,4.000000,4.000000,4.000000,4.000000,4.000000,100.000000,,,,,,,,,,,,,,,,,,,,,,,,,,,,
1703501938.675021,1703501938.675414,79.000000,0.000000,4291.410156,4278.077148,4316.153809,4301.538574,4282.563965,4281.794922,4279.487305,4260.256348,4259.871582,4251.794922,4537.307617,4480.128418,4383.717773,4428.846191,6446.000000,3.000000,67.000000,,,,0.000000,4.000000,4.000000,4.000000,4.000000,4.000000,4.000000,4.000000,4.000000,4.000000,4.000000,4.000000,4.000000,4.000000,4.000000,100.000000,,,,,,,,,,,,,,,,,,,,,,,,,,,,
1703501938.682829,1703501938.683322,80.000000,0.000000,4289.102539,4275.512695,4311.922852,4298.974121,4280.128418,4274.487305,4277.563965,4261.538574,4261.922852,4253.077148,4533.846191,4476.538574,4378.974121,4429.487305,6942.000000,3.000000,67.000000,,,,0.000000,4.000000,4.000000,4.000000,4.000000,4.000000,4.000000,4.000000,4.000000,4.000000,4.000000,4.000000,4.000000,4.000000,4.000000,100.000000,,,,,,,,,,,,,,,,,20.000000,0.000000,0.722624,-0.217468,-0.645813,-0.115967,0.969357,-0.176291,0.068368,-13.580979,-40.904694,61.776222
1703501938.690637,1703501938.691130,81.000000,0.000000,4292.179688,4276.153809,4320.769043,4306.666504,4279.102539,4270.897461,4279.102539,4262.051270,4266.025879,4266.282227,4536.282227,4482.051270,4379.230957,4438.846191,6387.000000,3.000000,67.000000,,,,0.000000,4.000000,4.000000,4.000000,4.000000,4.000000,4.000000,4.000000,4.000000,4.000000,4.000000,4.000000,4.000000,4.000000,4.000000,100.000000,,,,,,,,,,,,,,,,,,,,,,,,,,,,
1703501938.698445,1703501938.699039,82.000000,0.000000,4303.589844,4286.666504,4338.077148,4317.436035,4286.153809,4276.025879,4279.743652,4265.128418,4274.487305,4283.333496,4550.128418,4500.897461,4388.461426,4448.077148,6113.000000,3.000000,67.000000,,,,0.000000,4.000000,4.000000,4.000000,4.000000,4.000000,4.000000,4.000000,4.000000,4.000000,4.000000,4.000000,4.000000,4.000000,4.000000,100.000000,,,,,,,,,,,,,,,,,,,,,,,,,,,,
1703501938.706253,1703501938.706847,83.000000,0.000000,4312.563965,4289.358887,4344.871582,4318.461426,4287.820313,4276.666504,4277.692383,4268.333496,4281.922852,4298.461426,4576.538574,4517.307617,4417.307617,4465.384766,6446.000000,3.000000,67.000000,,,,0.000000,4.000000,4.000000,4.000000,4.000000,4.000000,4.000000,4.000000,4.000000,4.000000,4.000000,4.000000,4.000000,4.000000,4.000000,100.000000,,,,,,,,,,,,,,,,,,,,,,,,,,,,
1703501938.714061,1703501938.714755,84.000000,0.000000,4311.282227,4277.051270,4344.615234,4313.717773,4282.436035,4274.230957,4278.717773,4272.948730,4285.769043,4308.205078,4596.666504,4522.692383,4443.077148,4483.846191,6942.000000,3.000000,67.000000,,,,0.000000,4.000000,4.000000,4.000000,4.000000,4.000000,4.000000,4.000000,4.000000,4.000000,4.000000,4.000000,4.000000,4.000000,4.000000,100.000000,,,,,,,,,,,,,,,,,21.000000,0.000000,0.722505,-0.217468,-0.645935,-0.116028,0.976682,-0.152362,0.071298,-13.739548,-40.914223,61.881931
1703501938.721870,1703501938.722563,85.000000,0.000000,4306.538574,4275.897461,4345.512695,4314.102539,4278.717773,4270.512695,4282.051270,4271.025879,4281.666504,4300.897461,4584.230957,4518.333496,4430.769043,4475.384766,6387.000000,3.000000,67.000000,,,,0.000000,4.000000,4.000000,4.000000,4.000000,4.000000,4.000000,4.000000,4.000000,4.000000,4.000000,4.000000,4.000000,4.000000,4.000000,100.000000,,,,,,,,,,,,,,,,,,,,,,,,,,,,
1703501938.729678,1703501938.730471,86.000000,0.000000,4307.563965,4290.512695,4343.589844,4322.948730,4280.769043,4268.461426,4279.358887,4262.307617,4274.743652,4290.641113,4566.025879,4507.179688,4416.153809,4459.871582,6113.000000,3.000000,67.000000,,,,0.000000,4.000000,4.000000,4.000000,4.000000,4.000000,4.000000,4.000000,4.000000,4.000000,4.000000,4.000000,4.000000,4.000000,4.000000,100.000000,,,,,,,,,,,,,,,,,,,,,,,,,,,,
1703501938.737486,1703501938.738279,87.000000,0.000000,4311.922852,4294.871582,4340.641113,4328.974121,4286.153809,4275.256348,4278.717773,4261.538574,4276.410156,4298.461426,4575.512695,4505.512695,4427.692383,4470.128418,6446.000000,3.000000,67.000000,,,,0.000000,4.000000,4.000000,4.000000,4.000000,4.000000,4.000000,4.000000,4.000000,4.000000,4.000000,4.000000,4.000000,4.000000,4.000000,100.000000,,,,,,,,,,,,,,,,,,,,,,,,,,,,
1703501938.745294,1703501938.746187,88.000000,0.000000,4310.128418,4290.769043,4341.025879,4327.563965,4291.922852,4281.794922,4287.436035,4269.230957,4281.025879,4302.692383,4583.077148,4508.717773,4430.641113,4474.230957,6942.000000,3.000000,67.000000,,,,0.000000,4.000000,4.000000,4.000000,4.000000,4.000000,4.000000,4.000000,4.000000,4.000000,4.000000,4.000000,4.000000,4.000000,4.000000,100.000000,,,,,,,,,,,,,,,,,22.000000,0.000000,0.722505,-0.217468,-0.645935,-0.116028,0.965938,-0.166036,0.067391,-13.765594,-40.839470,61.727074
1703501938.753102,1703501938.753996,89.000000,0.000000,4307.692383,4294.102539,4337.563965,4328.717773,4293.974121,4280.512695,4295.128418,4273.974121,4282.179688,4298.077148,4573.333496,4505.256348,4423.589844,4463.846191,6387.000000,3.000000,67.000000,,,,0.000000,4.000000,4.000000,4.000000,4.000000,4.000000,4.000000,4.000000,4.000000,4.000000,4.000000,4.000000,4.000000,4.000000,4.000000,100.000000,,,,,,,,,,,,,,,,,,,,,,,,,,,,
1703501938.760910,1703501938.761704,90.000000,0.000000,4304.615234,4291.282227,4328.077148,4328.974121,4293.589844,4278.974121,4296.538574,4277.563965,4286.922852,4300.897461,4569.230957,4503.333496,4423.077148,4458.974121,6113.000000,3.000000,67.000000,,,,0.000000,4.000000,4.000000,4.000000,4.000000,4.000000,4.000000,4.000000,4.000000,4.000000,4.000000,4.000000,4.000000,4.000000,4.000000,100.000000,,,,,,,,,,,,,,,,,,,,,,,,,,,,
1703501938.768718,1703501938.769512,91.000000,0.000000,4299.358887,4282.307617,4325.000000,4325.641113,4291.538574,4279.230957,4295.512695,4280.256348,4291.282227,4303.589844,4572.692383,4503.589844,4421.282227,4460.256348,6446.000000,3.000000,67.000000,,,,0.000000,4.000000,4.000000,4.000000,4.000000,4.000000,4.000000,4.000000,4.000000,4.000000,4.000000,4.000000,4.000000,4.000000,4.000000,100.000000,1.000000,75.000000,4.000000,4.000000,4.000000,4.000000,3.000000,3.000000,3.000000,4.000000,4.000000,4.000000,4.000000,4.000000,4.000000,4.000000,,,,,,,,,,,,
1703501938.776526,1703501938.777220,92.000000,0.000000,4302.820313,4282.051270,4331.538574,4324.230957,4287.692383,4278.333496,4293.974121,4278.589844,4290.256348,4300.000000,4572.820313,4504.743652,4419.230957,4466.666504,6942.000000,3.000000,67.000000,,,,0.000000,4.000000,4.000000,4.000000,4.000000,4.000000,4.000000,4.000000,4.000000,4.000000,4.000000,4.000000,4.000000,4.000000,4.000000,100.000000,,,,,,,,,,,,,,,,,23.000000,0.000000,0.722378,-0.217346,-0.646118,-0.116028,0.964473,-0.167013,0.067391,-13.822367,-40.822189,61.721031
1703501938.784334,1703501938.785028,93.000000,0.000000,4308.846191,4286.025879,4335.897461,4325.000000,4289.230957,4277.820313,4293.589844,4276.922852,4285.897461,4298.589844,4574.230957,4510.128418,4423.077148,4474.102539,6387.000000,3.000000,67.000000,,,,0.000000,4.000000,4.000000,4.000000,4.000000,4.000000,4.000000,4.000000,4.000000,4.000000,4.000000,4.000000,4.000000,4.000000,4.000000,100.000000,,,,,,,,,,,,,,,,,,,,,,,,,,,,
1703501938.792142,1703501938.792736,94.000000,0.000000,4311.922852,4290.000000,4339.743652,4327.436035,4293.589844,4274.871582,4293.077148,4271.025879,4282.051270,4299.743652,4580.769043,4514.743652,4427.307617,4477.179688,6113.000000,3.000000,67.000000,,,,0.000000,4.000000,4.000000,4.000000,4.000000,4.000000,4.000000,4.000000,4.000000,4.000000,4.000000,4.000000,4.000000,4.000000,4.000000,100.000000,,,,,,,,,,,,,,,,,,,,,,,,,,,,
1703501938.799950,1703501938.800544,95.000000,0.000000,4318.077148,4293.077148,4347.436035,4330.256348,4292.307617,4275.128418,4291.666504,4266.025879,4285.128418,4303.205078,4587.179688,4517.307617,4434.230957,4481.282227,6446.000000,3.000000,67.000000,,,,0.000000,4.000000,4.000000,4.000000,4.000000,4.000000,4.000000,4.000000,4.000000,4.000000,4.000000,4.000000,4.000000,4.000000,4.000000,100.000000,,,,,,,,,,,,,,,,,,,,,,,,,,,,
1703501938.807758,1703501938.808252,96.000000,0.000000,4317.692383,4291.282227,4347.436035,4335.128418,4292.307617,4279.102539,4292.820313,4266.922852,4287.436035,4303.974121,4584.358887,4519.230957,4433.333496,4478.461426,6942.000000,3.000000,67.000000,,,,0.000000,4.000000,4.000000,4.000000,4.000000,4.000000,4.000000,4.000000,4.000000,4.000000,4.000000,4.000000,4.000000,4.000000,4.000000,100.000000,,,,,,,,,,,,,,,,,24.000000,0.000000,0.722367,-0.217102,-0.646179,-0.116211,0.969357,-0.160664,0.065438,-13.806797,-40.773304,61.648930
1703501938.815566,1703501938.816060,97.000000,0.000000,4315.384766,4296.410156,4340.384766,4341.282227,4297.051270,4280.000000,4293.589844,4264.871582,4282.307617,4297.179688,4576.922852,4512.051270,4421.282227,4468.333496,6387.000000,3.000000,67.000000,,,,0.000000,4.000000,4.000000,4.000000,4.000000,4.000000,4.000000,4.000000,4.000000,4.000000,4.000000,4.000000,4.000000,4.000000,4.000000,100.000000,,,,,,,,,,,,,,,,,,,,,,,,,,,,
1703501938.823374,1703501938.823768,98.000000,0.000000,4326.410156,4303.589844,4342.820313,4343.461426,4297.692383,4282.179688,4295.000000,4266.922852,4286.666504,4302.948730,4587.436035,4512.948730,4435.897461,4478.461426,6113.000000,3.000000,67.000000,,,,0.000000,4.000000,4.000000,4.000000,4.000000,4.000000,4.000000,4.000000,4.000000,4.000000,4.000000,4.000000,4.000000,4.000000,4.000000,100.000000,,,,,,,,,,,,,,,,,,,,,,,,,,,,
1703501938.831182,1703501938.831677,99.000000,0.000000,4329.871582,4293.461426,4349.743652,4339.743652,4295.512695,4290.384766,4303.589844,4280.769043,4304.358887,4320.897461,4606.538574,4528.974121,4464.358887,4495.769043,6446.000000,3.000000,67.000000,,,,0.000000,4.000000,4.000000,4.000000,4.000000,4.000000,4.000000,4.000000,4.000000,4.000000,4.000000,4.000000,4.000000,4.000000,4.000000,100.000000,,,,,,,,,,,,,,,,,,,,,,,,,,,,
1703501938.838990,1703501938.839485,100.000000,0.000000,4326.538574,4294.743652,4348.461426,4343.974121,4299.743652,4295.384766,4309.230957,4288.717773,4310.384766,4318.846191,4605.897461,4531.153809,4463.461426,4493.461426,6942.000000,3.000000,67.000000,,,,0.000000,4.000000,4.000000,4.000000,4.000000,4.000000,4.000000,4.000000,4.000000,4.000000,4.000000,4.000000,4.000000,4.000000,4.000000,100.000000,,,,,,,,,,,,,,,,,25.000000,0.000000,0.722431,-0.216858,-0.646179,-0.116272,0.980588,-0.160664,0.066414,-13.942784,-40.712639,61.850704
1703501938.846798,1703501938.847393,101.000000,0.000000,4337.948730,4317.307617,4343.205078,4354.871582,4303.461426,4293.846191,4306.794922,4280.769043,4299.358887,4302.051270,4587.692383,4517.436035,4443.077148,4486.153809,6387.000000,3.000000,67.000000,,,,0.000000,4.000000,4.000000,4.000000,4.000000,4.000000,4.000000,4.000000,4.000000,4.000000,4.000000,4.000000,4.000000,4.000000,4.000000,100.000000,,,,,,,,,,,,,,,,,,,,,,,,,,,,
1703501938.854607,1703501938.855201,102.000000,0.000000,4337.307617,4317.948730,4340.128418,4356.666504,4301.025879,4294.871582,4306.922852,4274.358887,4290.256348,4293.077148,4568.717773,4509.102539,4423.461426,4475.384766,6113.000000,3.000000,67.000000,,,,0.000000,4.000000,4.000000,4.000000,4.000000,4.000000,4.000000,4.000000,4.000000,4.000000,4.000000,4.000000,4.000000,4.000000,4.000000,100.000000,,,,,,,,,,,,,,,,,,,,,,,,,,,,
1703501938.862414,1703501938.863009,103.000000,0.000000,4326.153809,4307.307617,4341.794922,4357.820313,4298.846191,4291.025879,4308.974121,4275.769043,4291.922852,4293.077148,4567.051270,4512.307617,4415.897461,4467.436035,6446.000000,3.000000,67.000000,,,,0.000000,4.000000,4.000000,4.000000,4.000000,4.000000,4.000000,4.000000,4.000000,4.000000,4.000000,4.000000,4.000000,4.000000,4.000000,100.000000,,,,,,,,,,,,,,,,,,,,,,,,,,,,
1703501938.870223,1703501938.870717,104.000000,0.000000,4332.051270,4309.102539,4348.333496,4363.461426,4297.051270,4282.692383,4303.589844,4279.102539,4295.000000,4296.922852,4581.922852,4517.563965,4430.384766,4477.563965,6942.000000,3.000000,67.000000,,,,0.000000,4.000000,4.000000,4.000000,4.000000,4.000000,4.000000,4.000000,4.000000,4.000000,4.000000,4.000000,4.000000,4.000000,4.000000,100.000000,,,,,,,,,,,,,,,,,26.000000,0.000000,0.722550,-0.216858,-0.646057,-0.116211,0.978147,-0.170919,0.072763,-13.815172,-40.791374,61.948967
1703501938.878031,1703501938.878525,105.000000,0.000000,4331.282227,4302.307617,4349.102539,4360.769043,4297.820313,4286.282227,4301.025879,4276.666504,4294.358887,4296.922852,4586.922852,4517.948730,4440.384766,4482.307617,6387.000000,3.000000,67.000000,,,,0.000000,4.000000,4.000000,4.000000,4.000000,4.000000,4.000000,4.000000,4.000000,4.000000,4.000000,4.000000,4.000000,4.000000,4.000000,100.000000,,,,,,,,,,,,,,,,,,,,,,,,,,,,
1703501938.885839,1703501938.886233,106.000000,0.000000,4318.717773,4290.128418,4341.922852,4354.230957,4303.461426,4292.436035,4305.897461,4265.897461,4292.948730,4292.820313,4578.846191,4512.948730,4430.384766,4471.025879,6113.000000,3.000000,67.000000,,,,0.000000,4.000000,4.000000,4.000000,4.000000,4.000000,4.000000,4.000000,4.000000,4.000000,4.000000,4.000000,4.000000,4.000000,4.000000,100.000000,,,,,,,,,,,,,,,,,,,,,,,,,,,,
1703501938.893647,1703501938.894141,107.000000,0.000000,4322.307617,4292.436035,4341.282227,4353.717773,4305.384766,4289.871582,4303.077148,4265.769043,4294.871582,4299.615234,4579.743652,4515.512695,4432.307617,4473.205078,6446.000000,3.000000,67.000000,,,,0.000000,4.000000,4.000000,4.000000,4.000000,4.000000,4.000000,4.000000,4.000000,4.000000,4.000000,4.000000,4.000000,4.000000,4.000000,100.000000,,,,,,,,,,,,,,,,,,,,,,,,,,,,
1703501938.901455,1703501938.901950,108.000000,0.000000,4331.538574,4297.051270,4350.769043,4355.512695,4305.641113,4289.102539,4298.333496,4279.358887,4301.153809,4312.820313,4590.000000,4525.000000,4447.948730,4486.666504,6942.000000,3.000000,67.000000,,,,0.000000,4.000000,4.000000,4.000000,4.000000,4.000000,4.000000,4.000000,4.000000,4.000000,4.000000,4.000000,4.000000,4.000000,4.000000,100.000000,,,,,,,,,,,,,,,,,27.000000,0.000000,0.722531,-0.217102,-0.645996,-0.116211,0.977658,-0.172873,0.075204,-13.783655,-40.812237,62.004070
1703501938.909263,1703501938.909858,109.000000,0.000000,4337.436035,4306.922852,4350.769043,4357.307617,4307.692383,4290.769043,4300.128418,4274.871582,4299.230957,4309.487305,4586.666504,4522.307617,4448.461426,4490.256348,6387.000000,3.000000,67.000000,,,,0.000000,4.000000,4.000000,4.000000,4.000000,4.000000,4.000000,4.000000,4.000000,4.000000,4.000000,4.000000,4.000000,4.000000,4.000000,100.000000,,,,,,,,,,,,,,,,,,,,,,,,,,,,
1703501938.917071,1703501938.917666,110.000000,0.000000,4343.717773,4322.051270,4342.051270,4360.384766,4306.153809,4289.487305,4302.563965,4262.179688,4290.769043,4294.871582,4572.563965,4513.974121,4432.051270,4486.153809,6113.000000,3.000000,67.000000,,,,0.000000,4.000000,4.000000,4.000000,4.000000,4.000000,4.000000,4.000000,4.000000,4.000000,4.000000,4.000000,4.000000,4.000000,4.000000,100.000000,,,,,,,,,,,,,,,,,,,,,,,,,,,,
1703501938.924879,1703501938.925574,111.000000,0.000000,4340.897461,4321.025879,4342.179688,4358.333496,4302.563965,4292.563965,4307.307617,4273.077148,4292.948730,4293.461426,4573.333496,4517.820313,4425.384766,4486.538574,6446.000000,3.000000,67.000000,,,,0.000000,4.000000,4.000000,4.000000,4.000000,4.000000,4.000000,4.000000,4.000000,4.000000,4.000000,4.000000,4.000000,4.000000,4.000000,100.000000,,,,,,,,,,,,,,,,,,,,,,,,,,,,
1703501938.932687,1703501938.933382,112.000000,0.000000,4337.307617,4314.230957,4346.153809,4352.179688,4301.666504,4296.153809,4310.000000,4286.410156,4298.717773,4299.487305,4581.153809,4520.641113,4433.205078,4489.358887,6942.000000,3.000000,67.000000,,,,0.000000,4.000000,4.000000,4.000000,4.000000,4.000000,4.000000,4.000000,4.000000,4.000000,4.000000,4.000000,4.000000,4.000000,4.000000,100.000000,,,,,,,,,,,,,,,,,28.000000,0.000000,0.722558,-0.217407,-0.645874,-0.116150,0.971798,-0.165059,0.062996,-13.805289,-40.797680,62.053661
1703501938.940495,1703501938.941090,113.000000,0.000000,4340.256348,4311.410156,4342.563965,4342.692383,4297.179688,4289.743652,4304.358887,4278.333496,4290.256348,4294.615234,4580.512695,4511.794922,4440.256348,4489.102539,6387.000000,3.000000,67.000000,,,,0.000000,4.000000,4.000000,4.000000,4.000000,4.000000,4.000000,4.000000,4.000000,4.000000,4.000000,4.000000,4.000000,4.000000,4.000000,100.000000,,,,,,,,,,,,,,,,,,,,,,,,,,,,
1703501938.948303,1703501938.948898,114.000000,0.000000,4334.102539,4296.666504,4337.820313,4332.692383,4293.461426,4287.948730,4301.282227,4272.563965,4281.282227,4290.769043,4580.897461,4510.128418,4443.205078,4486.538574,6113.000000,3.000000,67.000000,,,,0.000000,4.000000,4.000000,4.000000,4.000000,4.000000,4.000000,4.000000,4.000000,4.000000,4.000000,4.000000,4.000000,4.000000,4.000000,100.000000,,,,,,,,,,,,,,,,,,,,,,,,,,,,
1703501938.956111,1703501938.956606,115.000000,0.000000,4322.563965,4284.358887,4338.589844,4333.461426,4301.410156,4294.358887,4303.333496,4277.179688,4281.153809,4293.846191,4583.333496,4514.358887,4439.487305,4480.384766,6446.000000,3.000000,67.000000,,,,0.000000,4.000000,4.000000,4.000000,4.000000,4.000000,4.000000,4.000000,4.000000,4.000000,4.000000,4.000000,4.000000,4.000000,4.000000,100.000000,,,,,,,,,,,,,,,,,,,,,,,,,,,,
1703501938.963919,1703501938.964515,116.000000,0.000000,4328.717773,4298.205078,4340.769043,4341.410156,4305.384766,4294.102539,4298.717773,4272.436035,4280.384766,4292.051270,4578.461426,4510.769043,4433.205078,4474.871582,6942.000000,3.000000,67.000000,,,,0.000000,4.000000,4.000000,4.000000,4.000000,4.000000,4.000000,4.000000,4.000000,4.000000,4.000000,4.000000,4.000000,4.000000,4.000000,100.000000,,,,,,,,,,,,,,,,,29.000000,0.000000,0.722458,-0.217773,-0.645874,-0.116089,0.962031,-0.159199,0.056648,-13.658094,-40.751247,62.031631
1703501938.971727,1703501938.972323,117.000000,0.000000,4342.307617,4316.538574,4340.256348,4343.205078,4298.461426,4290.512695,4293.846191,4265.256348,4280.384766,4289.615234,4573.333496,4508.077148,4427.948730,4477.948730,6387.000000,3.000000,67.000000,,,,0.000000,4.000000,4.000000,4.000000,4.000000,4.000000,4.000000,4.000000,4.000000,4.000000,4.000000,4.000000,4.000000,4.000000,4.000000,100.000000,,,,,,,,,,,,,,,,,,,,,,,,,,,,
1703501938.979535,1703501938.980131,118.000000,0.000000,4337.820313,4311.282227,4337.436035,4341.025879,4297.051270,4293.461426,4297.307617,4270.512695,4281.153809,4290.641113,4569.615234,4508.589844,4413.717773,4475.897461,6113.000000,3.000000,67.000000,,,,0.000000,4.000000,4.000000,4.000000,4.000000,4.000000,4.000000,4.000000,4.000000,4.000000,4.000000,4.000000,4.000000,4.000000,4.000000,100.000000,,,,,,,,,,,,,,,,,,,,,,,,,,,,
1703501938.987343,1703501938.987839,119.000000,0.000000,4328.461426,4303.846191,4336.282227,4340.000000,4301.794922,4294.615234,4296.410156,4274.487305,4281.666504,4287.436035,4562.948730,4506.282227,4403.333496,4465.641113,6446.000000,3.000000,67.000000,,,,0.000000,4.000000,4.000000,4.000000,4.000000,4.000000,4.000000,4.000000,4.000000,4.000000,4.000000,4.000000,4.000000,4.000000,4.000000,100.000000,,,,,,,,,,,,,,,,,,,,,,,,,,,,
1703501938.995152,1703501938.995647,120.000000,0.000000,4344.871582,4314.487305,4342.563965,4342.948730,4303.077148,4295.769043,4294.743652,4272.820313,4286.922852,4290.512695,4577.820313,4514.102539,4427.051270,4478.974121,6942.000000,3.000000,67.000000,,,,0.000000,4.000000,4.000000,4.000000,4.000000,4.000000,4.000000,4.000000,4.000000,4.000000,4.000000,4.000000,4.000000,4.000000,4.000000,100.000000,,,,,,,,,,,,,,,,,30.000000,0.000000,0.722378,-0.217773,-0.645996,-0.115906,0.983030,-0.171408,0.065438,-13.592284,-40.642788,61.945133
1703501939.002960,1703501939.003355,121.000000,0.000000,4361.794922,4315.512695,4352.563965,4345.641113,4304.230957,4305.000000,4304.615234,4284.487305,4302.436035,4308.717773,4609.358887,4534.102539,4461.282227,4507.820313,6387.000000,3.000000,67.000000,,,,0.000000,4.000000,4.000000,4.000000,4.000000,4.000000,4.000000,4.000000,4.000000,4.000000,4.000000,4.000000,4.000000,4.000000,4.000000,100.000000,,,,,,,,,,,,,,,,,,,,,,,,,,,,
1703501939.010768,1703501939.011163,122.000000,0.000000,4350.128418,4302.179688,4356.666504,4344.871582,4308.589844,4306.410156,4313.077148,4298.589844,4315.512695,4318.589844,4617.179688,4542.820313,4462.307617,4510.512695,6113.000000,3.000000,67.000000,,,,0.000000,4.000000,4.000000,4.000000,4.000000,4.000000,4.000000,4.000000,4.000000,4.000000,4.000000,4.000000,4.000000,4.000000,4.000000,100.000000,,,,,,,,,,,,,,,,,,,,,,,,,,,,
1703501939.018576,1703501939.018871,123.000000,0.000000,4345.641113,4309.102539,4356.025879,4345.897461,4309.102539,4299.102539,4306.922852,4290.769043,4309.102539,4310.641113,4603.974121,4536.410156,4450.384766,4500.897461,6446.000000,3.000000,67.000000,,,,0.000000,4.000000,4.000000,4.000000,4.000000,4.000000,4.000000,4.000000,4.000000,4.000000,4.000000,4.000000,4.000000,4.000000,4.000000,100.000000,,,,,,,,,,,,,,,,,,,,,,,,,,,,
1703501939.026384,1703501939.026679,124.000000,0.000000,4362.436035,4329.358887,4356.538574,4356.025879,4308.717773,4300.000000,4302.563965,4278.205078,4296.538574,4302.179688,4598.205078,4527.692383,4448.461426,4502.948730,6942.000000,3.000000,67.000000,,,,0.000000,4.000000,4.000000,4.000000,4.000000,4.000000,4.000000,4.000000,4.000000,4.000000,4.000000,4.000000,4.000000,4.000000,4.000000,100.000000,,,,,,,,,,,,,,,,,31.000000,0.000000,0.722361,-0.217712,-0.646057,-0.115784,0.977170,-0.166036,0.058601,-13.666389,-40.645176,62.000622
1703501939.034192,1703501939.034387,125.000000,0.000000,4363.717773,4329.615234,4351.922852,4361.282227,4310.000000,4304.743652,4309.487305,4277.179688,4294.230957,4297.820313,4591.410156,4522.563965,4436.922852,4498.717773,6387.000000,3.000000,67.000000,,,,0.000000,4.000000,4.000000,4.000000,4.000000,4.000000,4.000000,4.000000,4.000000,4.000000,4.000000,4.000000,4.000000,4.000000,4.000000,100.000000,,,,,,,,,,,,,,,,,,,,,,,,,,,,
1703501939.042000,1703501939.042195,126.000000,0.000000,4348.461426,4319.743652,4343.846191,4355.512695,4309.743652,4303.461426,4309.358887,4277.820313,4295.769043,4292.179688,4577.307617,4516.922852,4417.692383,4481.153809,6113.000000,3.000000,67.000000,,,,0.000000,4.000000,4.000000,4.000000,4.000000,4.000000,4.000000,4.000000,4.000000,4.000000,4.000000,4.000000,4.000000,4.000000,4.000000,100.000000,,,,,,,,,,,,,,,,,,,,,,,,,,,,
1703501939.049808,1703501939.049903,127.000000,0.000000,4348.205078,4319.743652,4345.000000,4355.641113,4312.051270,4303.333496,4305.128418,4276.282227,4294.487305,4291.025879,4577.307617,4513.589844,4419.230957,4477.051270,67.000000,3.000000,67.000000,,,,0.000000,4.000000,4.000000,4.000000,4.000000,4.000000,4.000000,4.000000,4.000000,4.000000,4.000000,4.000000,4.000000,4.000000,4.000000,100.000000,,,,,,,,,,,,,,,,,,,,,,,,,,,,
1703501939.057616,1703501939.057711,0.000000,0.000000,4354.102539,4315.897461,4348.589844,4356.538574,4312.563965,4302.563965,4308.205078,4278.077148,4296.025879,4295.256348,4588.589844,4519.743652,4440.000000,4490.000000,5103.000000,3.000000,67.000000,,,,0.000000,4.000000,4.000000,4.000000,4.000000,4.000000,4.000000,4.000000,4.000000,4.000000,4.000000,4.000000,4.000000,4.000000,4.000000,100.000000,,,,,,,,,,,,,,,,,0.000000,0.000000,0.722464,-0.217468,-0.646057,-0.115601,0.984984,-0.156757,0.067391,-13.466417,-40.547325,62.000557
1703501939.065424,1703501939.065419,1.000000,0.000000,4343.717773,4304.102539,4345.512695,4349.487305,4310.512695,4296.922852,4309.871582,4279.743652,4295.512695,4296.538574,4587.436035,4522.179688,4440.512695,4490.384766,5531.000000,3.000000,67.000000,,,,0.000000,4.000000,4.000000,4.000000,4.000000,4.000000,4.000000,4.000000,4.000000,4.000000,4.000000,4.000000,4.000000,4.000000,4.000000,100.000000,,,,,,,,,,,,,,,,,,,,,,,,,,,,
1703501939.073232,1703501939.073327,2.000000,0.000000,4338.717773,4307.948730,4342.051270,4351.282227,4310.769043,4299.102539,4309.358887,4279.871582,4293.589844,4295.000000,4577.820313,4517.563965,4421.922852,4477.820313,5440.000000,3.000000,67.000000,,,,0.000000,4.000000,4.000000,4.000000,4.000000,4.000000,4.000000,4.000000,4.000000,4.000000,4.000000,4.000000,4.000000,4.000000,4.000000,100.000000,,,,,,,,,,,,,,,,,,,,,,,,,,,,
1703501939.081040,1703501939.081136,3.000000,0.000000,4350.256348,4317.051270,4344.358887,4357.436035,4311.410156,4306.666504,4310.512695,4280.769043,4299.615234,4295.256348,4579.487305,4517.563965,4426.794922,4481.153809,5475.000000,3.000000,67.000000,,,,0.000000,4.000000,4.000000,4.000000,4.000000,4.000000,4.000000,4.000000,4.000000,4.000000,4.000000,4.000000,4.000000,4.000000,4.000000,100.000000,,,,,,,,,,,,,,,,,,,,,,,,,,,,
1703501939.088848,1703501939.089044,4.000000,0.000000,4352.948730,4305.256348,4346.922852,4350.641113,4309.871582,4305.641113,4310.000000,4280.384766,4304.871582,4295.000000,4586.794922,4521.025879,4439.743652,4493.589844,5328.000000,3.000000,67.000000,,,,0.000000,4.000000,4.000000,4.000000,4.000000,4.000000,4.000000,4.000000,4.000000,4.000000,4.000000,4.000000,4.000000,4.000000,4.000000,100.000000,,,,,,,,,,,,,,,,,1.000000,0.000000,0.722519,-0.217468,-0.645996,-0.115601,0.970333,-0.166524,0.061043,-13.336442,-40.642593,61.883835
1703501939.096656,1703501939.096852,5.000000,0.000000,4346.794922,4296.153809,4348.717773,4347.948730,4308.077148,4298.333496,4309.615234,4281.025879,4304.743652,4298.077148,4587.179688,4519.487305,4436.922852,4491.794922,4632.000000,3.000000,67.000000,,,,0.000000,4.000000,4.000000,4.000000,4.000000,4.000000,4.000000,4.000000,4.000000,4.000000,4.000000,4.000000,4.000000,4.000000,4.000000,100.000000,,,,,,,,,,,,,,,,,,,,,,,,,,,,
1703501939.104464,1703501939.104760,6.000000,0.000000,4352.948730,4312.563965,4354.358887,4361.410156,4310.000000,4295.384766,4311.666504,4281.794922,4305.769043,4304.615234,4585.000000,4519.743652,4435.000000,4488.974121,4089.000000,3.000000,67.000000,,,,0.000000,4.000000,4.000000,4.000000,4.000000,4.000000,4.000000,4.000000,4.000000,4.000000,4.000000,4.000000,4.000000,4.000000,4.000000,100.000000,,,,,,,,,,,,,,,,,,,,,,,,,,,,
1703501939.112272,1703501939.112568,7.000000,0.000000,4360.897461,4325.384766,4357.563965,4370.384766,4310.769043,4297.820313,4310.512695,4277.948730,4305.256348,4298.974121,4581.794922,4523.205078,4431.538574,4491.410156,5205.000000,3.000000,67.000000,,,,0.000000,4.000000,4.000000,4.000000,4.000000,4.000000,4.000000,4.000000,4.000000,4.000000,4.000000,4.000000,4.000000,4.000000,4.000000,100.000000,,,,,,,,,,,,,,,,,,,,,,,,,,,,
1703501939.120080,1703501939.120476,8.000000,0.000000,4360.769043,4322.692383,4360.256348,4370.897461,4309.743652,4301.922852,4309.487305,4280.641113,4305.000000,4294.230957,4587.692383,4527.692383,4430.512695,4495.256348,5479.000000,3.000000,67.000000,,,,0.000000,4.000000,4.000000,4.000000,4.000000,4.000000,4.000000,4.000000,4.000000,4.000000,4.000000,4.000000,4.000000,4.000000,4.000000,100.000000,,,,,,,,,,,,,,,,,2.000000,0.000000,0.722755,-0.217407,-0.645752,-0.115601,0.975217,-0.169454,0.076670,-13.436131,-40.511665,61.862118
1703501939.127889,1703501939.128285,9.000000,0.000000,4366.025879,4323.974121,4367.820313,4375.384766,4313.077148,4304.358887,4313.846191,4290.769043,4312.948730,4310.384766,4607.436035,4537.051270,4450.256348,4508.205078,5512.000000,3.000000,67.000000,,,,0.000000,4.000000,4.000000,4.000000,4.000000,4.000000,4.000000,4.000000,4.000000,4.000000,4.000000,4.000000,4.000000,4.000000,4.000000,100.000000,,,,,,,,,,,,,,,,,,,,,,,,,,,,
1703501939.135697,1703501939.135993,10.000000,0.000000,4365.897461,4325.512695,4366.666504,4375.256348,4312.436035,4298.974121,4308.717773,4287.692383,4313.846191,4315.641113,4606.666504,4537.563965,4455.384766,4508.974121,6108.000000,3.000000,67.000000,,,,0.000000,4.000000,4.000000,4.000000,4.000000,4.000000,4.000000,4.000000,4.000000,4.000000,4.000000,4.000000,4.000000,4.000000,4.000000,100.000000,,,,,,,,,,,,,,,,,,,,,,,,,,,,
1703501939.143505,1703501939.143801,11.000000,0.000000,4356.153809,4318.461426,4356.538574,4365.384766,4306.410156,4292.820313,4297.820313,4273.974121,4298.461426,4297.948730,4583.589844,4526.410156,4434.358887,4490.128418,6431.000000,3.000000,67.000000,,,,0.000000,4.000000,4.000000,4.000000,4.000000,4.000000,4.000000,4.000000,4.000000,4.000000,4.000000,4.000000,4.000000,4.000000,4.000000,100.000000,,,,,,,,,,,,,,,,,,,,,,,,,,,,
1703501939.151313,1703501939.151509,12.000000,0.000000,4354.230957,4309.743652,4354.743652,4358.717773,4306.153809,4294.743652,4300.000000,4272.436035,4290.384766,4293.717773,4585.000000,4521.410156,4437.820313,4490.512695,6933.000000,3.000000,67.000000,,,,0.000000,4.000000,4.000000,4.000000,4.000000,4.000000,4.000000,4.000000,4.000000,4.000000,4.000000,4.000000,4.000000,4.000000,4.000000,100.000000,,,,,,,,,,,,,,,,,3.000000,0.000000,0.722771,-0.217651,-0.645630,-0.115723,0.984984,-0.161641,0.070809,-13.459185,-40.627167,61.725906
1703501939.159121,1703501939.159317,13.000000,0.000000,4349.871582,4303.974121,4352.820313,4356.922852,4308.461426,4298.077148,4306.410156,4275.128418,4292.179688,4294.487305,4587.051270,4518.205078,4439.743652,4494.358887,6382.000000,3.000000,67.000000,,,,0.000000,4.000000,4.000000,4.000000,4.000000,4.000000,4.000000,4.000000,4.000000,4.000000,4.000000,4.000000,4.000000,4.000000,4.000000,100.000000,,,,,,,,,,,,,,,,,,,,,,,,,,,,
1703501939.166929,1703501939.167025,14.000000,0.000000,4338.077148,4307.307617,4341.922852,4353.077148,4306.025879,4296.410156,4305.512695,4270.897461,4289.358887,4278.717773,4564.871582,4510.128418,4411.922852,4473.461426,6108.000000,3.000000,67.000000,,,,0.000000,4.000000,4.000000,4.000000,4.000000,4.000000,4.000000,4.000000,4.000000,4.000000,4.000000,4.000000,4.000000,4.000000,4.000000,100.000000,,,,,,,,,,,,,,,,,,,,,,,,,,,,
1703501939.174737,1703501939.174833,15.000000,0.000000,4342.179688,4312.179688,4343.333496,4353.589844,4305.641113,4294.358887,4306.922852,4272.179688,4290.000000,4277.820313,4566.410156,4511.410156,4412.051270,4470.769043,6431.000000,3.000000,67.000000,,,,0.000000,4.000000,4.000000,4.000000,4.000000,4.000000,4.000000,4.000000,4.000000,4.000000,4.000000,4.000000,4.000000,4.000000,4.000000,100.000000,,,,,,,,,,,,,,,,,,,,,,,,,,,,
1703501939.182545,1703501939.182541,16.000000,0.000000,4355.256348,4308.717773,4354.871582,4356.666504,4307.948730,4300.384766,4312.436035,4281.410156,4301.922852,4294.615234,4587.948730,4524.230957,4440.128418,4491.025879,0.000000,3.000000,67.000000,,,,0.000000,4.000000,4.000000,4.000000,4.000000,4.000000,4.000000,4.000000,4.000000,4.000000,4.000000,4.000000,4.000000,4.000000,4.000000,100.000000,,,,,,,,,,,,,,,,,4.000000,0.000000,0.722707,-0.217896,-0.645630,-0.115662,0.986937,-0.165059,0.076670,-13.313267,-40.681118,61.603317
1703501939.190353,1703501939.190349,17.000000,0.000000,4353.717773,4305.000000,4355.897461,4353.205078,4308.205078,4309.871582,4310.256348,4287.820313,4310.000000,4297.948730,4588.333496,4530.769043,4445.512695,4495.000000,0.000000,3.000000,67.000000,,,,0.000000,4.000000,4.000000,4.000000,4.000000,4.000000,4.000000,4.000000,4.000000,4.000000,4.000000,4.000000,4.000000,4.000000,4.000000,100.000000,,,,,,,,,,,,,,,,,,,,,,,,,,,,
1703501939.198161,1703501939.198057,18.000000,0.000000,4349.358887,4305.512695,4355.256348,4350.641113,4309.487305,4312.436035,4310.256348,4292.563965,4311.282227,4296.922852,4589.230957,4532.563965,4440.128418,4495.256348,0.000000,3.000000,67.000000,,,,0.000000,4.000000,4.000000,4.000000,4.000000,4.000000,4.000000,4.000000,4.000000,4.000000,4.000000,4.000000,4.000000,4.000000,4.000000,100.000000,,,,,,,,,,,,,,,,,,,,,,,,,,,,
1703501939.205969,1703501939.205865,19.000000,0.000000,4359.230957,4311.282227,4363.717773,4358.589844,4311.666504,4310.897461,4317.948730,4297.948730,4316.794922,4308.077148,4604.743652,4538.205078,4450.128418,4506.922852,0.000000,3.000000,67.000000,,,,0.000000,4.000000,4.000000,4.000000,4.000000,4.000000,4.000000,4.000000,4.000000,4.000000,4.000000,4.000000,4.000000,4.000000,4.000000,100.000000,,,,,,,,,,,,,,,,,,,,,,,,,,,,
1703501939.213777,1703501939.213573,20.000000,0.000000,4368.589844,4320.769043,4368.333496,4364.102539,4310.641113,4310.641113,4318.717773,4298.589844,4324.102539,4315.512695,4609.871582,4542.051270,4459.615234,4513.205078,0.000000,3.000000,67.000000,,,,0.000000,4.000000,4.000000,4.000000,4.000000,4.000000,4.000000,4.000000,4.000000,4.000000,4.000000,4.000000,4.000000,4.000000,4.000000,100.000000,,,,,,,,,,,,,,,,,5.000000,0.000000,0.722691,-0.218079,-0.645630,-0.115417,0.968868,-0.167989,0.066414,-13.248607,-40.679672,61.692986
1703501939.221585,1703501939.221381,21.000000,0.000000,4368.846191,4330.384766,4365.897461,4364.871582,4310.256348,4310.897461,4312.820313,4296.025879,4321.794922,4312.563965,4602.563965,4543.205078,4452.051270,4513.333496,0.000000,3.000000,67.000000,,,,0.000000,4.000000,4.000000,4.000000,4.000000,4.000000,4.000000,4.000000,4.000000,4.000000,4.000000,4.000000,4.000000,4.000000,4.000000,100.000000,,,,,,,,,,,,,,,,,,,,,,,,,,,,
1703501939.229393,1703501939.229089,22.000000,0.000000,4369.615234,4333.846191,4370.256348,4367.051270,4311.410156,4310.897461,4311.153809,4294.871582,4315.128418,4311.410156,4600.769043,4542.179688,4443.846191,4513.717773,0.000000,3.000000,67.000000,,,,0.000000,4.000000,4.000000,4.000000,4.000000,4.000000,4.000000,4.000000,4.000000,4.000000,4.000000,4.000000,4.000000,4.000000,4.000000,100.000000,,,,,,,,,,,,,,,,,,,,,,,,,,,,
1703501939.237201,1703501939.236997,23.000000,0.000000,4372.051270,4330.000000,4375.769043,4365.897461,4311.025879,4310.769043,4312.820313,4288.077148,4310.769043,4310.512695,4603.589844,4539.743652,4447.692383,4509.358887,0.000000,3.000000,67.000000,,,,0.000000,4.000000,4.000000,4.000000,4.000000,4.000000,4.000000,4.000000,4.000000,4.000000,4.000000,4.000000,4.000000,4.000000,4.000000,100.000000,,,,,,,,,,,,,,,,,,,,,,,,,,,,
1703501939.245009,1703501939.244805,24.000000,0.000000,4369.871582,4327.307617,4371.410156,4359.871582,4305.384766,4309.358887,4310.512695,4279.230957,4302.179688,4302.179688,4598.461426,4537.179688,4451.794922,4509.230957,0.000000,3.000000,67.000000,,,,0.000000,4.000000,4.000000,4.000000,4.000000,4.000000,4.000000,4.000000,4.000000,4.000000,4.000000,4.000000,4.000000,4.000000,4.000000,100.000000,,,,,,,,,,,,,,,,,6.000000,0.000000,0.722748,-0.218201,-0.645569,-0.115173,0.966427,-0.170919,0.065926,-13.357080,-40.628372,61.723686
1703501939.252818,1703501939.252713,25.000000,0.000000,4356.922852,4313.077148,4362.051270,4347.436035,4301.794922,4308.974121,4310.769043,4281.410156,4299.358887,4297.436035,4589.358887,4531.410156,4448.205078,4508.846191,0.000000,3.000000,67.000000,,,,0.000000,4.000000,4.000000,4.000000,4.000000,4.000000,4.000000,4.000000,4.000000,4.000000,4.000000,4.000000,4.000000,4.000000,4.000000,100.000000,,,,,,,,,,,,,,,,,,,,,,,,,,,,
1703501939.260625,1703501939.260521,26.000000,0.000000,4339.102539,4292.436035,4352.692383,4336.794922,4305.384766,4310.769043,4312.692383,4284.743652,4302.436035,4295.641113,4585.000000,4525.128418,4443.077148,4497.307617,0.000000,3.000000,67.000000,,,,0.000000,4.000000,4.000000,4.000000,4.000000,4.000000,4.000000,4.000000,4.000000,4.000000,4.000000,4.000000,4.000000,4.000000,4.000000,100.000000,,,,,,,,,,,,,,,,,,,,,,,,,,,,
1703501939.268433,1703501939.268430,27.000000,0.000000,4339.358887,4296.153809,4348.589844,4343.077148,4305.000000,4311.794922,4310.256348,4281.538574,4297.948730,4285.384766,4580.769043,4522.820313,4437.563965,4490.256348,0.000000,3.000000,67.000000,,,,0.000000,4.000000,4.000000,4.000000,4.000000,4.000000,4.000000,4.000000,4.000000,4.000000,4.000000,4.000000,4.000000,4.000000,4.000000,100.000000,1.000000,75.000000,4.000000,4.000000,4.000000,4.000000,3.000000,3.000000,3.000000,4.000000,4.000000,4.000000,4.000000,4.000000,4.000000,4.000000,,,,,,,,,,,,
1703501939.276242,1703501939.276238,28.000000,0.000000,4348.974121,4312.820313,4352.436035,4349.487305,4302.436035,4310.641113,4311.282227,4286.153809,4298.205078,4280.641113,4576.922852,4523.974121,4429.615234,4493.077148,0.000000,3.000000,67.000000,,,,0.000000,4.000000,4.000000,4.000000,4.000000,4.000000,4.000000,4.000000,4.000000,4.000000,4.000000,4.000000,4.000000,4.000000,4.000000,100.000000,,,,,,,,,,,,,,,,,7.000000,0.000000,0.722841,-0.218201,-0.645508,-0.114929,0.973752,-0.183616,0.057624,-13.504704,-40.582199,61.667984
1703501939.284050,1703501939.284146,29.000000,0.000000,4346.153809,4311.410156,4355.128418,4342.179688,4301.666504,4308.846191,4314.102539,4296.025879,4308.461426,4289.743652,4580.128418,4525.512695,4423.974121,4491.538574,0.000000,3.000000,67.000000,,,,0.000000,4.000000,4.000000,4.000000,4.000000,4.000000,4.000000,4.000000,4.000000,4.000000,4.000000,4.000000,4.000000,4.000000,4.000000,100.000000,,,,,,,,,,,,,,,,,,,,,,,,,,,,
1703501939.291858,1703501939.291954,30.000000,0.000000,4342.436035,4305.641113,4354.358887,4339.615234,4300.128418,4309.615234,4312.051270,4296.538574,4313.974121,4297.179688,4586.410156,4528.974121,4427.307617,4488.974121,0.000000,3.000000,67.000000,,,,0.000000,4.000000,4.000000,4.000000,4.000000,4.000000,4.000000,4.000000,4.000000,4.000000,4.000000,4.000000,4.000000,4.000000,4.000000,100.000000,,,,,,,,,,,,,,,,,,,,,,,,,,,,
1703501939.299666,1703501939.299862,31.000000,0.000000,4352.179688,4311.153809,4357.051270,4348.974121,4299.871582,4311.282227,4310.000000,4294.487305,4317.051270,4301.153809,4593.717773,4535.128418,4440.256348,4499.743652,0.000000,3.000000,67.000000,,,,0.000000,4.000000,4.000000,4.000000,4.000000,4.000000,4.000000,4.000000,4.000000,4.000000,4.000000,4.000000,4.000000,4.000000,4.000000,100.000000,,,,,,,,,,,,,,,,,,,,,,,,,,,,
1703501939.307474,1703501939.307670,32.000000,0.000000,4360.641113,4313.077148,4361.666504,4351.922852,4299.102539,4310.384766,4313.077148,4295.641113,4319.358887,4308.589844,4600.512695,4539.230957,4449.615234,4511.153809,0.000000,3.000000,67.000000,,,,0.000000,4.000000,4.000000,4.000000,4.000000,4.000000,4.000000,4.000000,4.000000,4.000000,4.000000,4.000000,4.000000,4.000000,4.000000,100.000000,,,,,,,,,,,,,,,,,8.000000,0.000000,0.722833,-0.218262,-0.645508,-0.114868,0.984984,-0.185081,0.080088,-13.437568,-40.690647,61.767853
1703501939.315282,1703501939.315578,33.000000,0.000000,4358.461426,4311.025879,4366.666504,4349.743652,4300.384766,4310.128418,4315.769043,4296.410156,4315.641113,4309.871582,4601.666504,4540.897461,4447.436035,4509.615234,0.000000,3.000000,67.000000,,,,0.000000,4.000000,4.000000,4.000000,4.000000,4.000000,4.000000,4.000000,4.000000,4.000000,4.000000,4.000000,4.000000,4.000000,4.000000,100.000000,,,,,,,,,,,,,,,,,,,,,,,,,,,,
1703501939.323090,1703501939.323386,34.000000,0.000000,4354.743652,4307.948730,4367.820313,4349.871582,4305.512695,4312.563965,4318.077148,4297.307617,4316.410156,4305.128418,4599.871582,4542.436035,4446.922852,4506.794922,0.000000,3.000000,67.000000,,,,0.000000,4.000000,4.000000,4.000000,4.000000,4.000000,4.000000,4.000000,4.000000,4.000000,4.000000,4.000000,4.000000,4.000000,4.000000,100.000000,,,,,,,,,,,,,,,,,,,,,,,,,,,,
1703501939.330898,1703501939.331094,35.000000,0.000000,4355.641113,4305.512695,4361.794922,4350.256348,4307.436035,4312.692383,4320.256348,4293.589844,4313.205078,4298.333496,4593.717773,4540.384766,4448.717773,4507.436035,0.000000,3.000000,67.000000,,,,0.000000,4.000000,4.000000,4.000000,4.000000,4.000000,4.000000,4.000000,4.000000,4.000000,4.000000,4.000000,4.000000,4.000000,4.000000,100.000000,,,,,,,,,,,,,,,,,,,,,,,,,,,,
1703501939.338706,1703501939.338902,36.000000,0.000000,4351.538574,4311.025879,4356.794922,4351.153809,4306.025879,4310.512695,4319.615234,4282.436035,4296.666504,4282.563965,4575.256348,4526.025879,4430.000000,4494.487305,0.000000,3.000000,67.000000,,,,0.000000,4.000000,4.000000,4.000000,4.000000,4.000000,4.000000,4.000000,4.000000,4.000000,4.000000,4.000000,4.000000,4.000000,4.000000,100.000000,,,,,,,,,,,,,,,,,9.000000,0.000000,0.722860,-0.218384,-0.645447,-0.114807,0.968380,-0.167989,0.081065,-13.227144,-40.638248,61.841068
1703501939.346514,1703501939.346610,37.000000,0.000000,4341.282227,4310.384766,4356.538574,4348.461426,4308.974121,4310.769043,4317.563965,4276.410156,4289.487305,4272.051270,4560.256348,4512.436035,4409.230957,4475.897461,0.000000,3.000000,67.000000,,,,0.000000,4.000000,4.000000,4.000000,4.000000,4.000000,4.000000,4.000000,4.000000,4.000000,4.000000,4.000000,4.000000,4.000000,4.000000,100.000000,,,,,,,,,,,,,,,,,,,,,,,,,,,,
1703501939.354322,1703501939.354418,38.000000,0.000000,4338.846191,4300.641113,4354.358887,4344.230957,4311.025879,4310.256348,4313.717773,4283.205078,4297.307617,4278.717773,4563.589844,4517.307617,4415.256348,4479.358887,0.000000,3.000000,67.000000,,,,0.000000,4.000000,4.000000,4.000000,4.000000,4.000000,4.000000,4.000000,4.000000,4.000000,4.000000,4.000000,4.000000,4.000000,4.000000,100.000000,,,,,,,,,,,,,,,,,,,,,,,,,,,,
1703501939.362130,1703501939.362126,39.000000,0.000000,4342.179688,4297.051270,4348.717773,4341.666504,4304.615234,4306.282227,4311.153809,4288.077148,4300.128418,4284.230957,4571.282227,4524.743652,4427.051270,4490.128418,0.000000,3.000000,67.000000,,,,0.000000,4.000000,4.000000,4.000000,4.000000,4.000000,4.000000,4.000000,4.000000,4.000000,4.000000,4.000000,4.000000,4.000000,4.000000,100.000000,,,,,,,,,,,,,,,,,,,,,,,,,,,,
1703501939.369938,1703501939.369934,40.000000,0.000000,4335.000000,4294.102539,4349.102539,4336.282227,4299.743652,4306.025879,4316.666504,4294.615234,4307.948730,4288.333496,4580.384766,4526.538574,4432.179688,4489.615234,0.000000,3.000000,67.000000,,,,0.000000,4.000000,4.000000,4.000000,4.000000,4.000000,4.000000,4.000000,4.000000,4.000000,4.000000,4.000000,4.000000,4.000000,4.000000,100.000000,,,,,,,,,,,,,,,,,10.000000,0.000000,0.722878,-0.218323,-0.645447,-0.114807,0.973263,-0.160664,0.067879,-13.404429,-40.524426,61.840294
1703501939.377746,1703501939.377642,41.000000,0.000000,4334.743652,4292.179688,4355.769043,4333.974121,4306.410156,4311.538574,4325.641113,4310.128418,4326.153809,4303.589844,4595.769043,4534.230957,4447.436035,4496.922852,0.000000,3.000000,67.000000,,,,0.000000,4.000000,4.000000,4.000000,4.000000,4.000000,4.000000,4.000000,4.000000,4.000000,4.000000,4.000000,4.000000,4.000000,4.000000,100.000000,,,,,,,,,,,,,,,,,,,,,,,,,,,,
1703501939.385554,1703501939.385450,42.000000,0.000000,4349.871582,4306.794922,4355.769043,4340.897461,4309.743652,4310.256348,4320.641113,4307.051270,4324.102539,4307.563965,4596.794922,4532.820313,4453.589844,4509.743652,0.000000,3.000000,67.000000,,,,0.000000,4.000000,4.000000,4.000000,4.000000,4.000000,4.000000,4.000000,4.000000,4.000000,4.000000,4.000000,4.000000,4.000000,4.000000,100.000000,,,,,,,,,,,,,,,,,,,,,,,,,,,,
1703501939.393362,1703501939.393158,43.000000,0.000000,4350.769043,4318.333496,4351.153809,4344.487305,4302.436035,4303.461426,4309.487305,4287.820313,4306.153809,4288.589844,4575.897461,4519.230957,4430.128418,4502.436035,0.000000,3.000000,67.000000,,,,0.000000,4.000000,4.000000,4.000000,4.000000,4.000000,4.000000,4.000000,4.000000,4.000000,4.000000,4.000000,4.000000,4.000000,4.000000,100.000000,,,,,,,,,,,,,,,,,,,,,,,,,,,,
1703501939.401171,1703501939.401067,44.000000,0.000000,4342.051270,4312.051270,4355.128418,4342.563965,4300.512695,4304.358887,4313.846191,4283.974121,4302.820313,4279.230957,4563.846191,4519.487305,4414.615234,4488.589844,0.000000,3.000000,67.000000,,,,0.000000,4.000000,4.000000,4.000000,4.000000,4.000000,4.000000,4.000000,4.000000,4.000000,4.000000,4.000000,4.000000,4.000000,4.000000,100.000000,,,,,,,,,,,,,,,,,11.000000,0.000000,0.722831,-0.218201,-0.645508,-0.114990,0.973752,-0.169943,0.073739,-13.463986,-40.538647,61.772930
1703501939.408979,1703501939.408875,45.000000,0.000000,4345.769043,4305.897461,4359.358887,4340.512695,4303.205078,4307.692383,4318.589844,4285.641113,4304.102539,4282.692383,4568.077148,4524.871582,4422.948730,4490.512695,0.000000,3.000000,67.000000,,,,0.000000,4.000000,4.000000,4.000000,4.000000,4.000000,4.000000,4.000000,4.000000,4.000000,4.000000,4.000000,4.000000,4.000000,4.000000,100.000000,,,,,,,,,,,,,,,,,,,,,,,,,,,,
1703501939.416787,1703501939.416783,46.000000,0.000000,4345.256348,4300.641113,4356.538574,4336.538574,4300.384766,4306.538574,4313.974121,4281.794922,4299.615234,4281.282227,4570.128418,4522.948730,4429.102539,4494.230957,0.000000,3.000000,67.000000,,,,0.000000,4.000000,4.000000,4.000000,4.000000,4.000000,4.000000,4.000000,4.000000,4.000000,4.000000,4.000000,4.000000,4.000000,4.000000,100.000000,,,,,,,,,,,,,,,,,,,,,,,,,,,,
1703501939.424595,1703501939.424591,47.000000,0.000000,4336.410156,4292.179688,4356.922852,4335.769043,4300.384766,4307.563965,4318.077148,4285.897461,4300.384766,4277.051270,4567.692383,4522.563965,4426.025879,4495.256348,0.000000,3.000000,67.000000,,,,0.000000,4.000000,4.000000,4.000000,4.000000,4.000000,4.000000,4.000000,4.000000,4.000000,4.000000,4.000000,4.000000,4.000000,4.000000,100.000000,,,,,,,,,,,,,,,,,,,,,,,,,,,,
1703501939.432403,1703501939.432399,48.000000,0.000000,4336.538574,4297.563965,4358.846191,4341.922852,4307.307617,4310.128418,4326.794922,4290.897461,4300.256348,4271.410156,4559.871582,4521.025879,4414.230957,4492.692383,0.000000,3.000000,67.000000,,,,0.000000,4.000000,4.000000,4.000000,4.000000,4.000000,4.000000,4.000000,4.000000,4.000000,4.000000,4.000000,4.000000,4.000000,4.000000,100.000000,,,,,,,,,,,,,,,,,12.000000,0.000000,0.722877,-0.218018,-0.645508,-0.115051,0.975217,-0.173361,0.067879,-13.534255,-40.651451,61.695637
1703501939.440211,1703501939.440107,49.000000,0.000000,4342.436035,4312.051270,4355.641113,4346.538574,4306.153809,4308.077148,4324.615234,4287.307617,4295.769043,4266.153809,4554.487305,4517.563965,4405.256348,4488.846191,0.000000,3.000000,67.000000,,,,0.000000,4.000000,4.000000,4.000000,4.000000,4.000000,4.000000,4.000000,4.000000,4.000000,4.000000,4.000000,4.000000,4.000000,4.000000,100.000000,,,,,,,,,,,,,,,,,,,,,,,,,,,,
1703501939.448019,1703501939.447915,50.000000,0.000000,4334.230957,4298.333496,4350.512695,4336.794922,4300.512695,4308.333496,4323.461426,4292.692383,4302.563965,4270.384766,4561.538574,4520.256348,4409.358887,4488.846191,0.000000,3.000000,67.000000,,,,0.000000,4.000000,4.000000,4.000000,4.000000,4.000000,4.000000,4.000000,4.000000,4.000000,4.000000,4.000000,4.000000,4.000000,4.000000,100.000000,,,,,,,,,,,,,,,,,,,,,,,,,,,,
1703501939.455827,1703501939.455623,51.000000,0.000000,4324.615234,4278.077148,4347.307617,4325.641113,4301.410156,4312.563965,4324.615234,4299.102539,4309.615234,4279.487305,4571.410156,4523.077148,4424.230957,4491.666504,0.000000,3.000000,67.000000,,,,0.000000,4.000000,4.000000,4.000000,4.000000,4.000000,4.000000,4.000000,4.000000,4.000000,4.000000,4.000000,4.000000,4.000000,4.000000,100.000000,,,,,,,,,,,,,,,,,,,,,,,,,,,,
1703501939.463635,1703501939.463532,52.000000,0.000000,4329.358887,4290.000000,4344.358887,4328.333496,4301.538574,4306.025879,4315.512695,4288.333496,4300.769043,4277.051270,4563.461426,4515.641113,4425.641113,4492.051270,0.000000,3.000000,67.000000,,,,0.000000,4.000000,4.000000,4.000000,4.000000,4.000000,4.000000,4.000000,4.000000,4.000000,4.000000,4.000000,4.000000,4.000000,4.000000,100.000000,,,,,,,,,,,,,,,,,13.000000,0.000000,0.722960,-0.217957,-0.645447,-0.114990,0.973263,-0.168478,0.064949,-13.597496,-40.752972,61.659409
1703501939.471443,1703501939.471340,53.000000,0.000000,4334.871582,4305.769043,4343.846191,4335.000000,4296.410156,4293.461426,4307.820313,4275.897461,4289.615234,4264.871582,4546.282227,4505.641113,4409.487305,4486.538574,0.000000,3.000000,67.000000,,,,0.000000,4.000000,4.000000,4.000000,4.000000,4.000000,4.000000,4.000000,4.000000,4.000000,4.000000,4.000000,4.000000,4.000000,4.000000,100.000000,,,,,,,,,,,,,,,,,,,,,,,,,,,,
1703501939.479251,1703501939.479248,54.000000,0.000000,4333.589844,4301.025879,4345.769043,4337.179688,4294.358887,4292.051270,4309.358887,4273.077148,4287.820313,4262.563965,4547.692383,4503.846191,4407.436035,4485.128418,0.000000,3.000000,67.000000,,,,0.000000,4.000000,4.000000,4.000000,4.000000,4.000000,4.000000,4.000000,4.000000,4.000000,4.000000,4.000000,4.000000,4.000000,4.000000,100.000000,,,,,,,,,,,,,,,,,,,,,,,,,,,,
1703501939.487059,1703501939.487056,55.000000,0.000000,4336.282227,4297.820313,4352.820313,4341.153809,4298.333496,4296.922852,4315.897461,4275.512695,4292.179688,4271.794922,4559.871582,4512.436035,4422.179688,4490.769043,0.000000,3.000000,67.000000,,,,0.000000,4.000000,4.000000,4.000000,4.000000,4.000000,4.000000,4.000000,4.000000,4.000000,4.000000,4.000000,4.000000,4.000000,4.000000,100.000000,,,,,,,,,,,,,,,,,,,,,,,,,,,,
1703501939.494867,1703501939.494964,56.000000,0.000000,4343.974121,4299.743652,4362.307617,4344.743652,4299.615234,4295.769043,4318.717773,4283.846191,4302.692383,4284.615234,4572.307617,4525.512695,4436.410156,4506.153809,0.000000,3.000000,67.000000,,,,0.000000,4.000000,4.000000,4.000000,4.000000,4.000000,4.000000,4.000000,4.000000,4.000000,4.000000,4.000000,4.000000,4.000000,4.000000,100.000000,,,,,,,,,,,,,,,,,14.000000,0.000000,0.723032,-0.217834,-0.645386,-0.115112,0.979612,-0.171896,0.067391,-13.637746,-40.777676,61.743465
1703501939.502675,1703501939.502772,57.000000,0.000000,4340.384766,4295.256348,4361.538574,4341.153809,4298.846191,4293.077148,4314.615234,4289.615234,4308.461426,4286.666504,4574.743652,4530.384766,4434.615234,4510.769043,0.000000,3.000000,67.000000,,,,0.000000,4.000000,4.000000,4.000000,4.000000,4.000000,4.000000,4.000000,4.000000,4.000000,4.000000,4.000000,4.000000,4.000000,4.000000,100.000000,,,,,,,,,,,,,,,,,,,,,,,,,,,,
1703501939.510483,1703501939.510680,58.000000,0.000000,4335.000000,4297.820313,4352.948730,4340.256348,4296.538574,4293.717773,4311.153809,4282.563965,4299.102539,4273.461426,4560.256348,4521.282227,4422.692383,4494.102539,0.000000,3.000000,67.000000,,,,0.000000,4.000000,4.000000,4.000000,4.000000,4.000000,4.000000,4.000000,4.000000,4.000000,4.000000,4.000000,4.000000,4.000000,4.000000,100.000000,,,,,,,,,,,,,,,,,,,,,,,,,,,,
1703501939.518291,1703501939.518489,59.000000,0.000000,4338.205078,4298.717773,4353.974121,4341.666504,4291.666504,4293.846191,4312.307617,4280.641113,4295.897461,4270.512695,4558.077148,4517.307617,4424.487305,4496.538574,0.000000,3.000000,67.000000,,,,0.000000,4.000000,4.000000,4.000000,4.000000,4.000000,4.000000,4.000000,4.000000,4.000000,4.000000,4.000000,4.000000,4.000000,4.000000,100.000000,,,,,,,,,,,,,,,,,,,,,,,,,,,,
1703501939.526100,1703501939.526197,60.000000,0.000000,4341.922852,4292.820313,4361.410156,4344.230957,4292.820313,4295.256348,4312.948730,4296.794922,4311.282227,4287.436035,4579.871582,4534.230957,4445.000000,4520.897461,0.000000,3.000000,67.000000,,,,0.000000,4.000000,4.000000,4.000000,4.000000,4.000000,4.000000,4.000000,4.000000,4.000000,4.000000,4.000000,4.000000,4.000000,4.000000,100.000000,,,,,,,,,,,,,,,,,15.000000,0.000000,0.723032,-0.217834,-0.645386,-0.115112,0.964962,-0.161641,0.065438,-13.640638,-40.783241,61.835785
1703501939.533908,1703501939.534105,61.000000,0.000000,4348.205078,4307.948730,4358.846191,4352.820313,4299.743652,4296.666504,4311.922852,4298.589844,4315.641113,4288.974121,4582.820313,4536.410156,4447.948730,4522.307617,0.000000,3.000000,67.000000,,,,0.000000,4.000000,4.000000,4.000000,4.000000,4.000000,4.000000,4.000000,4.000000,4.000000,4.000000,4.000000,4.000000,4.000000,4.000000,100.000000,,,,,,,,,,,,,,,,,,,,,,,,,,,,
1703501939.541716,1703501939.541913,62.000000,0.000000,4350.256348,4321.153809,4352.051270,4355.000000,4303.077148,4296.025879,4312.436035,4281.410156,4301.922852,4275.256348,4562.692383,4516.025879,4425.384766,4504.230957,0.000000,3.000000,67.000000,,,,0.000000,4.000000,4.000000,4.000000,4.000000,4.000000,4.000000,4.000000,4.000000,4.000000,4.000000,4.000000,4.000000,4.000000,4.000000,100.000000,,,,,,,,,,,,,,,,,,,,,,,,,,,,
1703501939.549524,1703501939.549721,63.000000,0.000000,4340.128418,4303.974121,4348.333496,4346.025879,4300.897461,4295.512695,4311.153809,4279.102539,4297.563965,4275.000000,4560.641113,4510.897461,4424.358887,4501.666504,0.000000,3.000000,67.000000,,,,0.000000,4.000000,4.000000,4.000000,4.000000,4.000000,4.000000,4.000000,4.000000,4.000000,4.000000,4.000000,4.000000,4.000000,4.000000,100.000000,,,,,,,,,,,,,,,,,,,,,,,,,,,,
1703501939.557332,1703501939.557429,64.000000,0.000000,4333.333496,4291.922852,4345.384766,4340.384766,4297.563965,4294.487305,4310.512695,4281.666504,4297.307617,4276.666504,4564.487305,4514.102539,4436.025879,4503.461426,5103.000000,3.000000,67.000000,,,,0.000000,4.000000,4.000000,4.000000,4.000000,4.000000,4.000000,4.000000,4.000000,4.000000,4.000000,4.000000,4.000000,4.000000,4.000000,100.000000,,,,,,,,,,,,,,,,,16.000000,0.000000,0.722929,-0.217896,-0.645447,-0.115295,0.969357,-0.157734,0.062019,-13.726575,-40.871582,61.835541
1703501939.565140,1703501939.565237,65.000000,0.000000,4331.282227,4298.461426,4340.897461,4335.641113,4294.743652,4291.922852,4309.871582,4267.307617,4283.974121,4258.333496,4543.589844,4502.051270,4413.717773,4490.256348,5527.000000,3.000000,67.000000,,,,0.000000,4.000000,4.000000,4.000000,4.000000,4.000000,4.000000,4.000000,4.000000,4.000000,4.000000,4.000000,4.000000,4.000000,4.000000,100.000000,,,,,,,,,,,,,,,,,,,,,,,,,,,,
1703501939.572948,1703501939.572945,66.000000,0.000000,4322.179688,4294.871582,4335.384766,4325.256348,4290.897461,4290.512695,4307.051270,4259.230957,4275.897461,4246.282227,4526.410156,4491.538574,4389.230957,4480.384766,5440.000000,3.000000,67.000000,,,,0.000000,4.000000,4.000000,4.000000,4.000000,4.000000,4.000000,4.000000,4.000000,4.000000,4.000000,4.000000,4.000000,4.000000,4.000000,100.000000,,,,,,,,,,,,,,,,,,,,,,,,,,,,
1703501939.580756,1703501939.580753,67.000000,0.000000,4330.512695,4296.410156,4341.922852,4328.589844,4291.025879,4295.000000,4310.128418,4272.820313,4287.051270,4259.487305,4546.922852,4505.256348,4415.512695,4493.846191,5474.000000,3.000000,67.000000,,,,0.000000,4.000000,4.000000,4.000000,4.000000,4.000000,4.000000,4.000000,4.000000,4.000000,4.000000,4.000000,4.000000,4.000000,4.000000,100.000000,,,,,,,,,,,,,,,,,,,,,,,,,,,,
1703501939.588564,1703501939.588461,68.000000,0.000000,4342.436035,4300.128418,4350.897461,4336.922852,4292.820313,4297.563965,4312.179688,4286.666504,4299.102539,4272.692383,4572.948730,4521.025879,4446.025879,4509.615234,5325.000000,3.000000,67.000000,,,,0.000000,4.000000,4.000000,4.000000,4.000000,4.000000,4.000000,4.000000,4.000000,4.000000,4.000000,4.000000,4.000000,4.000000,4.000000,100.000000,,,,,,,,,,,,,,,,,17.000000,0.000000,0.722939,-0.217651,-0.645508,-0.115356,0.974240,-0.148456,0.070321,-13.703917,-40.884426,61.851986
1703501939.596372,1703501939.596269,69.000000,0.000000,4324.871582,4283.077148,4345.512695,4327.563965,4285.000000,4287.948730,4305.769043,4285.000000,4294.102539,4266.538574,4564.358887,4515.000000,4432.179688,4501.666504,4624.000000,3.000000,67.000000,,,,0.000000,4.000000,4.000000,4.000000,4.000000,4.000000,4.000000,4.000000,4.000000,4.000000,4.000000,4.000000,4.000000,4.000000,4.000000,100.000000,,,,,,,,,,,,,,,,,,,,,,,,,,,,
1703501939.604180,1703501939.603977,70.000000,0.000000,4338.589844,4303.846191,4360.256348,4344.615234,4295.512695,4303.333496,4322.692383,4296.794922,4306.666504,4278.461426,4572.563965,4530.000000,4441.410156,4515.769043,4081.000000,3.000000,67.000000,,,,0.000000,4.000000,4.000000,4.000000,4.000000,4.000000,4.000000,4.000000,4.000000,4.000000,4.000000,4.000000,4.000000,4.000000,4.000000,100.000000,,,,,,,,,,,,,,,,,,,,,,,,,,,,
1703501939.611988,1703501939.611886,71.000000,0.000000,4402.820313,4376.410156,4410.000000,4410.769043,4345.512695,4363.846191,4369.487305,4341.025879,4358.846191,4328.333496,4634.230957,4586.666504,4500.897461,4574.615234,5203.000000,3.000000,67.000000,,,,0.000000,4.000000,4.000000,4.000000,4.000000,4.000000,4.000000,4.000000,4.000000,4.000000,4.000000,4.000000,4.000000,4.000000,4.000000,100.000000,,,,,,,,,,,,,,,,,,,,,,,,,,,,
1703501939.619796,1703501939.619694,72.000000,0.000000,4437.948730,4413.589844,4441.282227,4455.512695,4385.000000,4409.102539,4396.666504,4373.974121,4395.256348,4362.179688,4677.692383,4623.589844,4532.820313,4612.563965,5472.000000,3.000000,67.000000,,,,0.000000,4.000000,4.000000,4.000000,4.000000,4.000000,4.000000,4.000000,4.000000,4.000000,4.000000,4.000000,4.000000,4.000000,4.000000,100.000000,,,,,,,,,,,,,,,,,18.000000,0.000000,0.723120,-0.217346,-0.645386,-0.115479,0.995239,-0.166036,0.072763,-13.600192,-40.862648,61.833454
1703501939.627604,1703501939.627502,73.000000,0.000000,4428.846191,4402.051270,4433.846191,4449.871582,4385.769043,4404.230957,4391.538574,4365.512695,4386.666504,4356.282227,4669.102539,4615.384766,4523.461426,4609.615234,5509.000000,3.000000,67.000000,,,,0.000000,4.000000,4.000000,4.000000,4.000000,4.000000,4.000000,4.000000,4.000000,4.000000,4.000000,4.000000,4.000000,4.000000,4.000000,100.000000,,,,,,,,,,,,,,,,,,,,,,,,,,,,
1703501939.635412,1703501939.635210,74.000000,0.000000,4428.717773,4398.461426,4429.102539,4443.974121,4382.948730,4397.948730,4390.256348,4360.000000,4384.615234,4357.436035,4666.794922,4613.717773,4532.179688,4613.846191,6105.000000,3.000000,67.000000,,,,0.000000,4.000000,4.000000,4.000000,4.000000,4.000000,4.000000,4.000000,4.000000,4.000000,4.000000,4.000000,4.000000,4.000000,4.000000,100.000000,,,,,,,,,,,,,,,,,,,,,,,,,,,,
1703501939.643220,1703501939.643118,75.000000,0.000000,4433.589844,4403.589844,4434.743652,4450.384766,4384.102539,4403.205078,4394.102539,4370.384766,4398.333496,4370.641113,4682.307617,4620.384766,4550.128418,4623.461426,6432.000000,3.000000,67.000000,,,,0.000000,4.000000,4.000000,4.000000,4.000000,4.000000,4.000000,4.000000,4.000000,4.000000,4.000000,4.000000,4.000000,4.000000,4.000000,100.000000,,,,,,,,,,,,,,,,,,,,,,,,,,,,
1703501939.651029,1703501939.650926,76.000000,0.000000,4421.410156,4397.436035,4427.051270,4444.615234,4373.333496,4390.128418,4380.769043,4358.461426,4384.743652,4357.948730,4666.153809,4603.717773,4530.897461,4610.512695,6927.000000,3.000000,67.000000,,,,0.000000,4.000000,4.000000,4.000000,4.000000,4.000000,4.000000,4.000000,4.000000,4.000000,4.000000,4.000000,4.000000,4.000000,4.000000,100.000000,,,,,,,,,,,,,,,,,19.000000,0.000000,0.723266,-0.217468,-0.645203,-0.115356,0.968868,-0.167013,0.075693,-13.656839,-40.859718,61.616776
1703501939.658836,1703501939.658835,77.000000,0.000000,4399.871582,4381.794922,4406.666504,4428.077148,4359.615234,4371.153809,4363.974121,4334.743652,4358.717773,4330.128418,4626.794922,4580.128418,4494.743652,4584.615234,6376.000000,3.000000,67.000000,,,,0.000000,4.000000,4.000000,4.000000,4.000000,4.000000,4.000000,4.000000,4.000000,4.000000,4.000000,4.000000,4.000000,4.000000,4.000000,100.000000,,,,,,,,,,,,,,,,,,,,,,,,,,,,
1703501939.666644,1703501939.666643,78.000000,0.000000,4383.205078,4362.820313,4391.794922,4410.512695,4348.846191,4361.025879,4357.179688,4327.692383,4348.846191,4320.384766,4611.025879,4570.256348,4483.333496,4567.692383,6105.000000,3.000000,67.000000,,,,0.000000,4.000000,4.000000,4.000000,4.000000,4.000000,4.000000,4.000000,4.000000,4.000000,4.000000,4.000000,4.000000,4.000000,4.000000,100.000000,,,,,,,,,,,,,,,,,,,,,,,,,,,,
1703501939.674453,1703501939.674551,79.000000,0.000000,4369.487305,4339.743652,4386.794922,4389.230957,4338.717773,4349.102539,4348.974121,4327.692383,4344.743652,4319.102539,4611.794922,4563.461426,4485.641113,4556.410156,6432.000000,3.000000,67.000000,,,,0.000000,4.000000,4.000000,4.000000,4.000000,4.000000,4.000000,4.000000,4.000000,4.000000,4.000000,4.000000,4.000000,4.000000,4.000000,100.000000,,,,,,,,,,,,,,,,,,,,,,,,,,,,
1703501939.682261,1703501939.682359,80.000000,0.000000,4351.794922,4322.563965,4378.333496,4372.179688,4328.333496,4333.205078,4336.410156,4322.820313,4339.487305,4309.871582,4601.794922,4550.384766,4476.410156,4544.102539,6927.000000,3.000000,67.000000,,,,0.000000,4.000000,4.000000,4.000000,4.000000,4.000000,4.000000,4.000000,4.000000,4.000000,4.000000,4.000000,4.000000,4.000000,4.000000,100.000000,,,,,,,,,,,,,,,,,20.000000,0.000000,0.723385,-0.217712,-0.645020,-0.115173,0.962520,-0.170431,0.070809,-13.641155,-40.740414,61.655098
1703501939.690069,1703501939.690267,81.000000,0.000000,4340.128418,4321.282227,4363.461426,4365.000000,4315.769043,4318.974121,4324.230957,4313.589844,4326.153809,4292.051270,4578.974121,4533.717773,4451.666504,4526.666504,6376.000000,3.000000,67.000000,,,,0.000000,4.000000,4.000000,4.000000,4.000000,4.000000,4.000000,4.000000,4.000000,4.000000,4.000000,4.000000,4.000000,4.000000,4.000000,100.000000,,,,,,,,,,,,,,,,,,,,,,,,,,,,
1703501939.697877,1703501939.698075,82.000000,0.000000,4339.358887,4323.333496,4357.051270,4360.000000,4309.871582,4310.384766,4314.487305,4300.384766,4310.769043,4277.692383,4558.205078,4521.922852,4427.692383,4506.922852,6105.000000,3.000000,67.000000,,,,0.000000,4.000000,4.000000,4.000000,4.000000,4.000000,4.000000,4.000000,4.000000,4.000000,4.000000,4.000000,4.000000,4.000000,4.000000,100.000000,,,,,,,,,,,,,,,,,,,,,,,,,,,,
1703501939.705685,1703501939.705983,83.000000,0.000000,4343.717773,4319.102539,4357.692383,4356.794922,4307.692383,4302.436035,4308.717773,4295.769043,4310.000000,4278.846191,4558.333496,4522.948730,4432.436035,4506.922852,6432.000000,3.000000,67.000000,,,,0.000000,4.000000,4.000000,4.000000,4.000000,4.000000,4.000000,4.000000,4.000000,4.000000,4.000000,4.000000,4.000000,4.000000,4.000000,100.000000,,,,,,,,,,,,,,,,,,,,,,,,,,,,
1703501939.713493,1703501939.713792,84.000000,0.000000,4349.615234,4315.512695,4358.461426,4355.384766,4299.102539,4297.051270,4304.230957,4295.256348,4308.717773,4286.794922,4575.000000,4530.384766,4456.410156,4527.179688,6927.000000,3.000000,67.000000,,,,0.000000,4.000000,4.000000,4.000000,4.000000,4.000000,4.000000,4.000000,4.000000,4.000000,4.000000,4.000000,4.000000,4.000000,4.000000,100.000000,,,,,,,,,,,,,,,,,21.000000,0.000000,0.723283,-0.217957,-0.645020,-0.115356,0.969357,-0.161641,0.070809,-13.693707,-40.833038,61.756256
1703501939.721301,1703501939.721700,85.000000,0.000000,4345.897461,4315.128418,4357.692383,4349.871582,4293.974121,4294.102539,4297.563965,4283.717773,4296.794922,4283.333496,4571.538574,4527.051270,4451.666504,4530.128418,6376.000000,3.000000,67.000000,,,,0.000000,4.000000,4.000000,4.000000,4.000000,4.000000,4.000000,4.000000,4.000000,4.000000,4.000000,4.000000,4.000000,4.000000,4.000000,100.000000,,,,,,,,,,,,,,,,,,,,,,,,,,,,
1703501939.729109,1703501939.729508,86.000000,0.000000,4333.205078,4309.871582,4354.615234,4342.051270,4293.717773,4287.436035,4292.563965,4275.769043,4290.769043,4275.256348,4550.128418,4515.256348,4428.717773,4508.077148,6105.000000,3.000000,67.000000,,,,0.000000,4.000000,4.000000,4.000000,4.000000,4.000000,4.000000,4.000000,4.000000,4.000000,4.000000,4.000000,4.000000,4.000000,4.000000,100.000000,,,,,,,,,,,,,,,,,,,,,,,,,,,,
1703501939.736917,1703501939.737216,87.000000,0.000000,4322.692383,4298.589844,4347.563965,4335.000000,4286.922852,4280.128418,4287.307617,4279.358887,4288.077148,4275.384766,4547.179688,4509.487305,4429.615234,4497.179688,6432.000000,3.000000,67.000000,,,,0.000000,4.000000,4.000000,4.000000,4.000000,4.000000,4.000000,4.000000,4.000000,4.000000,4.000000,4.000000,4.000000,4.000000,4.000000,100.000000,,,,,,,,,,,,,,,,,,,,,,,,,,,,
1703501939.744725,1703501939.745024,88.000000,0.000000,4313.461426,4287.051270,4336.922852,4325.769043,4277.179688,4275.512695,4281.282227,4271.538574,4275.384766,4267.051270,4544.487305,4501.282227,4427.563965,4493.077148,6927.000000,3.000000,67.000000,,,,0.000000,4.000000,4.000000,4.000000,4.000000,4.000000,4.000000,4.000000,4.000000,4.000000,4.000000,4.000000,4.000000,4.000000,4.000000,100.000000,,,,,,,,,,,,,,,,,22.000000,0.000000,0.723190,-0.218018,-0.645081,-0.115479,0.973752,-0.164571,0.073739,-13.941003,-40.849735,61.830631
1703501939.752533,1703501939.752732,89.000000,0.000000,4298.717773,4277.436035,4322.307617,4312.051270,4269.230957,4267.436035,4275.897461,4253.589844,4260.128418,4243.205078,4517.820313,4482.436035,4396.153809,4471.410156,6376.000000,3.000000,67.000000,,,,0.000000,4.000000,4.000000,4.000000,4.000000,4.000000,4.000000,4.000000,4.000000,4.000000,4.000000,4.000000,4.000000,4.000000,4.000000,100.000000,,,,,,,,,,,,,,,,,,,,,,,,,,,,
1703501939.760341,1703501939.760540,90.000000,0.000000,4282.307617,4267.436035,4310.897461,4296.282227,4260.897461,4258.846191,4268.846191,4254.102539,4251.282227,4227.307617,4495.256348,4468.717773,4367.820313,4446.794922,6105.000000,3.000000,67.000000,,,,0.000000,4.000000,4.000000,4.000000,4.000000,4.000000,4.000000,4.000000,4.000000,4.000000,4.000000,4.000000,4.000000,4.000000,4.000000,100.000000,,,,,,,,,,,,,,,,,,,,,,,,,,,,
1703501939.768149,1703501939.768248,91.000000,0.000000,4274.743652,4258.461426,4309.358887,4291.794922,4259.615234,4260.897461,4264.358887,4260.256348,4249.230957,4230.641113,4498.974121,4469.487305,4368.717773,4441.922852,6432.000000,3.000000,67.000000,,,,0.000000,4.000000,4.000000,4.000000,4.000000,4.000000,4.000000,4.000000,4.000000,4.000000,4.000000,4.000000,4.000000,4.000000,4.000000,100.000000,1.000000,75.000000,4.000000,4.000000,3.000000,4.000000,3.000000,3.000000,3.000000,3.000000,4.000000,4.000000,4.000000,4.000000,4.000000,4.000000,,,,,,,,,,,,
1703501939.775957,1703501939.776056,92.000000,0.000000,4280.512695,4256.153809,4309.615234,4293.974121,4261.794922,4262.563965,4264.487305,4251.666504,4248.461426,4233.974121,4506.666504,4469.487305,4380.641113,4451.410156,6927.000000,3.000000,67.000000,,,,0.000000,4.000000,4.000000,4.000000,4.000000,4.000000,4.000000,4.000000,4.000000,4.000000,4.000000,4.000000,4.000000,4.000000,4.000000,100.000000,,,,,,,,,,,,,,,,,23.000000,0.000000,0.723081,-0.218018,-0.645203,-0.115479,0.965938,-0.167013,0.069344,-13.830235,-40.798096,61.864235
1703501939.783765,1703501939.783764,93.000000,0.000000,4273.589844,4244.358887,4305.897461,4284.487305,4257.563965,4254.230957,4262.948730,4245.769043,4245.384766,4230.769043,4503.846191,4464.871582,4380.384766,4448.205078,6376.000000,3.000000,67.000000,,,,0.000000,4.000000,4.000000,4.000000,4.000000,4.000000,4.000000,4.000000,4.000000,4.000000,4.000000,4.000000,4.000000,4.000000,4.000000,100.000000,,,,,,,,,,,,,,,,,,,,,,,,,,,,
1703501939.791573,1703501939.791572,94.000000,0.000000,4263.077148,4241.025879,4305.897461,4278.461426,4257.563965,4247.820313,4261.922852,4251.666504,4247.436035,4233.589844,4507.948730,4464.358887,4375.769043,4443.589844,6105.000000,3.000000,67.000000,,,,0.000000,4.000000,4.000000,4.000000,4.000000,4.000000,4.000000,4.000000,4.000000,4.000000,4.000000,4.000000,4.000000,4.000000,4.000000,100.000000,,,,,,,,,,,,,,,,,,,,,,,,,,,,
1703501939.799382,1703501939.799280,95.000000,0.000000,4282.051270,4265.256348,4311.153809,4293.077148,4259.230957,4246.153809,4258.846191,4248.846191,4246.282227,4232.820313,4508.589844,4466.025879,4372.307617,4450.641113,6432.000000,3.000000,67.000000,,,,0.000000,4.000000,4.000000,4.000000,4.000000,4.000000,4.000000,4.000000,4.000000,4.000000,4.000000,4.000000,4.000000,4.000000,4.000000,100.000000,,,,,,,,,,,,,,,,,,,,,,,,,,,,
1703501939.807190,1703501939.807088,96.000000,0.000000,4299.230957,4276.153809,4316.410156,4307.307617,4253.205078,4242.948730,4250.384766,4236.666504,4236.410156,4225.897461,4495.512695,4466.538574,4362.692383,4452.948730,6927.000000,3.000000,67.000000,,,,0.000000,4.000000,4.000000,4.000000,4.000000,4.000000,4.000000,4.000000,4.000000,4.000000,4.000000,4.000000,4.000000,4.000000,4.000000,100.000000,,,,,,,,,,,,,,,,,24.000000,0.000000,0.723044,-0.217896,-0.645264,-0.115601,0.963008,-0.165548,0.069833,-13.730545,-40.751617,61.811142
1703501939.814998,1703501939.814796,97.000000,0.000000,4287.179688,4264.230957,4318.077148,4308.589844,4249.487305,4236.666504,4247.179688,4232.948730,4234.230957,4226.666504,4492.692383,4466.410156,4354.487305,4449.230957,6376.000000,3.000000,67.000000,,,,0.000000,4.000000,4.000000,4.000000,4.000000,4.000000,4.000000,4.000000,4.000000,4.000000,4.000000,4.000000,4.000000,4.000000,4.000000,100.000000,,,,,,,,,,,,,,,,,,,,,,,,,,,,
1703501939.822806,1703501939.822604,98.000000,0.000000,4275.512695,4261.666504,4313.077148,4300.512695,4247.692383,4231.410156,4249.487305,4234.487305,4235.512695,4225.256348,4500.769043,4464.615234,4355.384766,4445.128418,6105.000000,3.000000,67.000000,,,,0.000000,4.000000,4.000000,4.000000,4.000000,4.000000,4.000000,4.000000,4.000000,4.000000,4.000000,4.000000,4.000000,4.000000,4.000000,100.000000,,,,,,,,,,,,,,,,,,,,,,,,,,,,
1703501939.830614,1703501939.830312,99.000000,0.000000,4274.102539,4256.153809,4303.333496,4286.538574,4238.077148,4231.538574,4247.948730,4232.436035,4225.000000,4208.974121,4491.410156,4455.256348,4351.025879,4434.358887,6432.000000,3.000000,67.000000,,,,0.000000,4.000000,4.000000,4.000000,4.000000,4.000000,4.000000,4.000000,4.000000,4.000000,4.000000,4.000000,4.000000,4.000000,4.000000,100.000000,,,,,,,,,,,,,,,,,,,,,,,,,,,,
1703501939.838422,1703501939.838220,100.000000,0.000000,4260.000000,4230.256348,4292.692383,4274.871582,4230.000000,4229.743652,4247.051270,4228.077148,4212.563965,4196.666504,4474.743652,4442.563965,4337.436035,4419.615234,6927.000000,3.000000,67.000000,,,,0.000000,4.000000,4.000000,4.000000,4.000000,4.000000,4.000000,4.000000,4.000000,4.000000,4.000000,4.000000,4.000000,4.000000,4.000000,100.000000,,,,,,,,,,,,,,,,,25.000000,0.000000,0.723045,-0.217712,-0.645325,-0.115601,0.972287,-0.172384,0.062508,-13.507491,-40.843124,61.813362
1703501939.846230,1703501939.846029,101.000000,0.000000,4243.846191,4217.179688,4282.563965,4273.333496,4231.153809,4222.820313,4246.794922,4222.692383,4208.974121,4193.205078,4468.846191,4432.948730,4324.871582,4409.230957,6376.000000,3.000000,67.000000,,,,0.000000,4.000000,4.000000,4.000000,4.000000,4.000000,4.000000,4.000000,4.000000,4.000000,4.000000,4.000000,4.000000,4.000000,4.000000,100.000000,,,,,,,,,,,,,,,,,,,,,,,,,,,,
1703501939.854038,1703501939.853937,102.000000,0.000000,4241.282227,4233.717773,4277.563965,4276.922852,4235.256348,4217.436035,4242.307617,4216.922852,4210.641113,4187.051270,4457.436035,4424.358887,4310.000000,4395.641113,6105.000000,3.000000,67.000000,,,,0.000000,4.000000,4.000000,4.000000,4.000000,4.000000,4.000000,4.000000,4.000000,4.000000,4.000000,4.000000,4.000000,4.000000,4.000000,100.000000,,,,,,,,,,,,,,,,,,,,,,,,,,,,
1703501939.861846,1703501939.861745,103.000000,0.000000,4247.307617,4246.538574,4277.179688,4278.333496,4239.743652,4216.538574,4240.384766,4213.974121,4210.256348,4186.538574,4447.179688,4422.307617,4305.897461,4391.025879,6432.000000,3.000000,67.000000,,,,0.000000,4.000000,4.000000,4.000000,4.000000,4.000000,4.000000,4.000000,4.000000,4.000000,4.000000,4.000000,4.000000,4.000000,4.000000,100.000000,,,,,,,,,,,,,,,,,,,,,,,,,,,,
1703501939.869654,1703501939.869653,104.000000,0.000000,4255.384766,4237.692383,4279.358887,4280.384766,4244.358887,4218.461426,4243.589844,4219.230957,4213.717773,4204.615234,4460.384766,4431.538574,4325.128418,4407.307617,6927.000000,3.000000,67.000000,,,,0.000000,4.000000,4.000000,4.000000,4.000000,4.000000,4.000000,4.000000,4.000000,4.000000,4.000000,4.000000,4.000000,4.000000,4.000000,100.000000,,,,,,,,,,,,,,,,,26.000000,0.000000,0.723142,-0.217407,-0.645264,-0.115906,0.966915,-0.166524,0.065926,-13.290075,-40.775478,61.882027
1703501939.877462,1703501939.877461,105.000000,0.000000,4259.743652,4233.846191,4285.128418,4288.589844,4248.077148,4221.025879,4247.820313,4231.538574,4228.461426,4224.358887,4483.846191,4444.743652,4346.794922,4421.282227,6376.000000,3.000000,67.000000,,,,0.000000,4.000000,4.000000,4.000000,4.000000,4.000000,4.000000,4.000000,4.000000,4.000000,4.000000,4.000000,4.000000,4.000000,4.000000,100.000000,,,,,,,,,,,,,,,,,,,,,,,,,,,,
1703501939.885270,1703501939.885369,106.000000,0.000000,4262.179688,4246.922852,4292.948730,4296.666504,4247.948730,4217.563965,4245.256348,4233.333496,4234.102539,4225.512695,4488.461426,4450.128418,4350.897461,4427.436035,6105.000000,3.000000,67.000000,,,,0.000000,4.000000,4.000000,4.000000,4.000000,4.000000,4.000000,4.000000,4.000000,4.000000,4.000000,4.000000,4.000000,4.000000,4.000000,100.000000,,,,,,,,,,,,,,,,,,,,,,,,,,,,
1703501939.893078,1703501939.893178,107.000000,0.000000,4268.846191,4256.282227,4297.307617,4301.922852,4240.384766,4210.000000,4237.307617,4220.128418,4221.410156,4216.410156,4478.974121,4448.077148,4341.922852,4430.641113,6432.000000,3.000000,67.000000,,,,0.000000,4.000000,4.000000,4.000000,4.000000,4.000000,4.000000,4.000000,4.000000,4.000000,4.000000,4.000000,4.000000,4.000000,4.000000,100.000000,,,,,,,,,,,,,,,,,,,,,,,,,,,,
1703501939.900886,1703501939.900886,108.000000,0.000000,4276.538574,4258.205078,4301.410156,4308.077148,4233.589844,4208.589844,4234.487305,4214.615234,4218.077148,4213.974121,4478.589844,4449.743652,4339.615234,4428.846191,6927.000000,3.000000,67.000000,,,,0.000000,4.000000,4.000000,4.000000,4.000000,4.000000,4.000000,4.000000,4.000000,4.000000,4.000000,4.000000,4.000000,4.000000,4.000000,100.000000,,,,,,,,,,,,,,,,,27.000000,0.000000,0.723186,-0.217346,-0.645203,-0.116089,0.980100,-0.160176,0.070321,-13.261067,-40.631264,61.810490
1703501939.908694,1703501939.908694,109.000000,0.000000,4270.641113,4254.102539,4304.358887,4303.846191,4232.436035,4207.820313,4236.153809,4220.512695,4229.102539,4216.410156,4486.538574,4455.769043,4349.615234,4428.846191,6376.000000,3.000000,67.000000,,,,0.000000,4.000000,4.000000,4.000000,4.000000,4.000000,4.000000,4.000000,4.000000,4.000000,4.000000,4.000000,4.000000,4.000000,4.000000,100.000000,,,,,,,,,,,,,,,,,,,,,,,,,,,,
1703501939.916502,1703501939.916601,110.000000,0.000000,4261.538574,4245.128418,4302.436035,4293.205078,4230.256348,4202.307617,4234.871582,4220.384766,4226.538574,4212.436035,4489.743652,4453.077148,4356.410156,4432.563965,6105.000000,3.000000,67.000000,,,,0.000000,4.000000,4.000000,4.000000,4.000000,4.000000,4.000000,4.000000,4.000000,4.000000,4.000000,4.000000,4.000000,4.000000,4.000000,100.000000,,,,,,,,,,,,,,,,,,,,,,,,,,,,
1703501939.924310,1703501939.924409,111.000000,0.000000,4259.743652,4241.794922,4295.000000,4290.128418,4227.820313,4204.871582,4232.307617,4215.256348,4212.948730,4197.436035,4470.512695,4436.666504,4334.871582,4418.461426,6432.000000,3.000000,67.000000,,,,0.000000,4.000000,4.000000,4.000000,4.000000,4.000000,4.000000,4.000000,4.000000,4.000000,4.000000,4.000000,4.000000,4.000000,4.000000,100.000000,,,,,,,,,,,,,,,,,,,,,,,,,,,,
1703501939.932119,1703501939.932118,112.000000,0.000000,4252.179688,4248.461426,4281.025879,4286.666504,4230.769043,4210.256348,4233.205078,4209.615234,4203.974121,4182.563965,4441.025879,4421.282227,4306.538574,4389.487305,6927.000000,3.000000,67.000000,,,,0.000000,4.000000,4.000000,4.000000,4.000000,4.000000,4.000000,4.000000,4.000000,4.000000,4.000000,4.000000,4.000000,4.000000,4.000000,100.000000,,,,,,,,,,,,,,,,,28.000000,0.000000,0.723131,-0.217529,-0.645203,-0.116089,0.978147,-0.174826,0.072763,-13.301627,-40.734802,61.812775
1703501939.939927,1703501939.939925,113.000000,0.000000,4246.922852,4246.666504,4273.077148,4279.743652,4230.641113,4208.974121,4232.436035,4200.897461,4198.589844,4184.102539,4437.436035,4419.358887,4312.563965,4387.436035,6376.000000,3.000000,67.000000,,,,0.000000,4.000000,4.000000,4.000000,4.000000,4.000000,4.000000,4.000000,4.000000,4.000000,4.000000,4.000000,4.000000,4.000000,4.000000,100.000000,,,,,,,,,,,,,,,,,,,,,,,,,,,,
1703501939.947735,1703501939.947634,114.000000,0.000000,4250.128418,4233.205078,4276.794922,4276.538574,4231.153809,4211.025879,4232.692383,4202.563965,4203.333496,4198.846191,4456.922852,4428.333496,4334.230957,4406.794922,6105.000000,3.000000,67.000000,,,,0.000000,4.000000,4.000000,4.000000,4.000000,4.000000,4.000000,4.000000,4.000000,4.000000,4.000000,4.000000,4.000000,4.000000,4.000000,100.000000,,,,,,,,,,,,,,,,,,,,,,,,,,,,
1703501939.955543,1703501939.955442,115.000000,0.000000,4255.769043,4235.641113,4279.102539,4279.615234,4239.743652,4217.692383,4237.692383,4215.897461,4214.487305,4205.512695,4464.230957,4435.256348,4340.641113,4415.769043,6432.000000,3.000000,67.000000,,,,0.000000,4.000000,4.000000,4.000000,4.000000,4.000000,4.000000,4.000000,4.000000,4.000000,4.000000,4.000000,4.000000,4.000000,4.000000,100.000000,,,,,,,,,,,,,,,,,,,,,,,,,,,,
1703501939.963351,1703501939.963150,116.000000,0.000000,4262.179688,4257.179688,4280.641113,4289.743652,4242.307617,4217.948730,4236.666504,4219.102539,4217.436035,4202.436035,4458.333496,4437.820313,4336.153809,4414.487305,6927.000000,3.000000,67.000000,,,,0.000000,4.000000,4.000000,4.000000,4.000000,4.000000,4.000000,4.000000,4.000000,4.000000,4.000000,4.000000,4.000000,4.000000,4.000000,100.000000,,,,,,,,,,,,,,,,,29.000000,0.000000,0.723167,-0.217834,-0.645081,-0.115967,0.971310,-0.175803,0.072274,-13.454798,-40.811321,61.831497
1703501939.971159,1703501939.971058,117.000000,0.000000,4267.051270,4266.153809,4285.769043,4294.871582,4236.025879,4213.589844,4231.794922,4212.436035,4215.128418,4200.512695,4457.436035,4438.333496,4331.538574,4411.538574,6376.000000,3.000000,67.000000,,,,0.000000,4.000000,4.000000,4.000000,4.000000,4.000000,4.000000,4.000000,4.000000,4.000000,4.000000,4.000000,4.000000,4.000000,4.000000,100.000000,,,,,,,,,,,,,,,,,,,,,,,,,,,,
1703501939.978967,1703501939.978866,118.000000,0.000000,4262.948730,4252.563965,4286.025879,4285.641113,4232.692383,4210.769043,4232.051270,4212.051270,4214.871582,4200.384766,4457.051270,4437.051270,4324.615234,4407.948730,6105.000000,3.000000,67.000000,,,,0.000000,4.000000,4.000000,4.000000,4.000000,4.000000,4.000000,4.000000,4.000000,4.000000,4.000000,4.000000,4.000000,4.000000,4.000000,100.000000,,,,,,,,,,,,,,,,,,,,,,,,,,,,
1703501939.986775,1703501939.986774,119.000000,0.000000,4259.487305,4247.179688,4279.871582,4278.589844,4229.102539,4211.025879,4233.717773,4214.230957,4212.948730,4195.256348,4454.871582,4434.615234,4321.922852,4403.846191,6432.000000,3.000000,67.000000,,,,0.000000,4.000000,4.000000,4.000000,4.000000,4.000000,4.000000,4.000000,4.000000,4.000000,4.000000,4.000000,4.000000,4.000000,4.000000,100.000000,,,,,,,,,,,,,,,,,,,,,,,,,,,,
1703501939.994583,1703501939.994582,120.000000,0.000000,4260.128418,4249.102539,4282.051270,4280.641113,4227.051270,4215.641113,4231.666504,4215.256348,4214.487305,4195.000000,4457.436035,4438.333496,4330.000000,4406.666504,6927.000000,3.000000,67.000000,,,,0.000000,4.000000,4.000000,4.000000,4.000000,4.000000,4.000000,4.000000,4.000000,4.000000,4.000000,4.000000,4.000000,4.000000,4.000000,100.000000,,,,,,,,,,,,,,,,,30.000000,0.000000,0.723241,-0.217834,-0.645020,-0.115845,0.970333,-0.178244,0.059578,-13.559319,-40.763523,61.831680
1703501940.002391,1703501940.002390,121.000000,0.000000,4258.589844,4242.436035,4291.666504,4279.102539,4231.538574,4217.692383,4232.051270,4221.282227,4220.256348,4204.871582,4464.871582,4447.563965,4340.641113,4411.666504,6376.000000,3.000000,67.000000,,,,0.000000,4.000000,4.000000,4.000000,4.000000,4.000000,4.000000,4.000000,4.000000,4.000000,4.000000,4.000000,4.000000,4.000000,4.000000,100.000000,,,,,,,,,,,,,,,,,,,,,,,,,,,,
1703501940.010199,1703501940.010099,122.000000,0.000000,4261.538574,4245.641113,4291.922852,4278.589844,4229.487305,4214.871582,4234.358887,4217.436035,4213.077148,4202.307617,4461.410156,4443.461426,4337.820313,4406.666504,6105.000000,3.000000,67.000000,,,,0.000000,4.000000,4.000000,4.000000,4.000000,4.000000,4.000000,4.000000,4.000000,4.000000,4.000000,4.000000,4.000000,4.000000,4.000000,100.000000,,,,,,,,,,,,,,,,,,,,,,,,,,,,
1703501940.018007,1703501940.018007,123.000000,0.000000,4258.846191,4255.000000,4279.615234,4277.692383,4223.333496,4213.589844,4228.717773,4201.922852,4198.077148,4183.846191,4441.282227,4424.743652,4315.512695,4387.563965,6432.000000,3.000000,67.000000,,,,0.000000,4.000000,4.000000,4.000000,4.000000,4.000000,4.000000,4.000000,4.000000,4.000000,4.000000,4.000000,4.000000,4.000000,4.000000,100.000000,,,,,,,,,,,,,,,,,,,,,,,,,,,,
1703501940.025815,1703501940.025815,124.000000,0.000000,4243.589844,4242.820313,4271.153809,4267.820313,4225.000000,4215.000000,4224.615234,4199.230957,4198.077148,4179.871582,4436.282227,4415.384766,4303.589844,4374.230957,6927.000000,3.000000,67.000000,,,,0.000000,4.000000,4.000000,4.000000,4.000000,4.000000,4.000000,4.000000,4.000000,4.000000,4.000000,4.000000,4.000000,4.000000,4.000000,100.000000,,,,,,,,,,,,,,,,,31.000000,0.000000,0.723164,-0.217957,-0.645142,-0.115417,0.978635,-0.169454,0.069833,-13.503386,-40.703838,61.765179
1703501940.033623,1703501940.033723,125.000000,0.000000,4237.820313,4231.538574,4267.820313,4260.897461,4226.538574,4215.512695,4227.179688,4205.128418,4201.922852,4188.077148,4446.410156,4417.820313,4315.000000,4378.077148,6376.000000,3.000000,67.000000,,,,0.000000,4.000000,4.000000,4.000000,4.000000,4.000000,4.000000,4.000000,4.000000,4.000000,4.000000,4.000000,4.000000,4.000000,4.000000,100.000000,,,,,,,,,,,,,,,,,,,,,,,,,,,,
1703501940.041431,1703501940.041531,126.000000,0.000000,4246.538574,4242.692383,4263.974121,4263.974121,4225.897461,4216.153809,4227.179688,4201.410156,4198.077148,4183.717773,4438.077148,4415.256348,4316.282227,4380.128418,6105.000000,3.000000,67.000000,,,,0.000000,4.000000,4.000000,4.000000,4.000000,4.000000,4.000000,4.000000,4.000000,4.000000,4.000000,4.000000,4.000000,4.000000,4.000000,100.000000,,,,,,,,,,,,,,,,,,,,,,,,,,,,
1703501940.049239,1703501940.049439,127.000000,0.000000,4246.153809,4248.333496,4263.974121,4264.615234,4230.512695,4216.666504,4227.436035,4200.897461,4196.922852,4177.436035,4423.717773,4412.692383,4299.615234,4371.538574,67.000000,3.000000,67.000000,,,,0.000000,4.000000,4.000000,4.000000,4.000000,4.000000,4.000000,4.000000,4.000000,4.000000,4.000000,4.000000,4.000000,4.000000,4.000000,100.000000,,,,,,,,,,,,,,,,,,,,,,,,,,,,
1703501940.057047,1703501940.057247,0.000000,0.000000,4245.897461,4244.871582,4269.615234,4263.717773,4232.436035,4216.794922,4231.666504,4212.051270,4201.153809,4187.051270,4435.897461,4423.846191,4302.436035,4372.692383,5103.000000,3.000000,67.000000,,,,0.000000,4.000000,4.000000,4.000000,4.000000,4.000000,4.000000,4.000000,4.000000,4.000000,4.000000,4.000000,4.000000,4.000000,4.000000,100.000000,,,,,,,,,,,,,,,,,0.000000,0.000000,0.723141,-0.217896,-0.645264,-0.114990,0.973263,-0.173849,0.075204,-13.603047,-40.833454,61.971996
1703501940.064855,1703501940.065156,1.000000,0.000000,4253.333496,4240.641113,4273.717773,4264.487305,4229.487305,4215.769043,4231.025879,4214.230957,4206.538574,4198.205078,4457.948730,4436.538574,4329.230957,4388.205078,5526.000000,3.000000,67.000000,,,,0.000000,4.000000,4.000000,4.000000,4.000000,4.000000,4.000000,4.000000,4.000000,4.000000,4.000000,4.000000,4.000000,4.000000,4.000000,100.000000,,,,,,,,,,,,,,,,,,,,,,,,,,,,
1703501940.072663,1703501940.072964,2.000000,0.000000,4252.692383,4233.717773,4277.692383,4265.769043,4230.128418,4217.692383,4228.333496,4213.077148,4213.846191,4203.589844,4462.179688,4437.436035,4342.051270,4395.897461,5442.000000,3.000000,67.000000,,,,0.000000,4.000000,4.000000,4.000000,4.000000,4.000000,4.000000,4.000000,4.000000,4.000000,4.000000,4.000000,4.000000,4.000000,4.000000,100.000000,,,,,,,,,,,,,,,,,,,,,,,,,,,,
1703501940.080472,1703501940.080672,3.000000,0.000000,4252.820313,4240.256348,4281.538574,4272.820313,4232.179688,4221.922852,4233.846191,4222.820313,4224.230957,4209.743652,4460.897461,4437.820313,4336.410156,4393.461426,5475.000000,3.000000,67.000000,,,,0.000000,4.000000,4.000000,4.000000,4.000000,4.000000,4.000000,4.000000,4.000000,4.000000,4.000000,4.000000,4.000000,4.000000,4.000000,100.000000,,,,,,,,,,,,,,,,,,,,,,,,,,,,
1703501940.088280,1703501940.088480,4.000000,0.000000,4261.153809,4255.641113,4281.153809,4280.000000,4232.948730,4220.512695,4235.641113,4227.179688,4228.461426,4210.384766,4460.384766,4442.692383,4335.000000,4395.769043,5325.000000,3.000000,67.000000,,,,0.000000,4.000000,4.000000,4.000000,4.000000,4.000000,4.000000,4.000000,4.000000,4.000000,4.000000,4.000000,4.000000,4.000000,4.000000,100.000000,,,,,,,,,,,,,,,,,1.000000,0.000000,0.723063,-0.217773,-0.645447,-0.114685,0.986937,-0.174826,0.074228,-13.392743,-40.950108,62.074795
1703501940.096088,1703501940.096188,5.000000,0.000000,4264.615234,4253.717773,4281.410156,4282.179688,4234.102539,4219.102539,4232.948730,4220.128418,4222.692383,4204.358887,4451.922852,4442.179688,4330.512695,4393.205078,4644.000000,3.000000,67.000000,,,,0.000000,4.000000,4.000000,4.000000,4.000000,4.000000,4.000000,4.000000,4.000000,4.000000,4.000000,4.000000,4.000000,4.000000,4.000000,100.000000,,,,,,,,,,,,,,,,,,,,,,,,,,,,
1703501940.103896,1703501940.104096,6.000000,0.000000,4256.538574,4246.922852,4284.615234,4283.333496,4233.974121,4218.461426,4232.948730,4216.410156,4216.538574,4199.487305,4447.307617,4436.666504,4317.179688,4381.538574,4081.000000,3.000000,67.000000,,,,0.000000,4.000000,4.000000,4.000000,4.000000,4.000000,4.000000,4.000000,4.000000,4.000000,4.000000,4.000000,4.000000,4.000000,4.000000,100.000000,,,,,,,,,,,,,,,,,,,,,,,,,,,,
1703501940.111704,1703501940.111904,7.000000,0.000000,4251.153809,4247.563965,4288.333496,4283.077148,4234.358887,4217.563965,4231.410156,4218.461426,4217.563965,4202.436035,4458.974121,4440.512695,4324.358887,4385.897461,5208.000000,3.000000,67.000000,,,,0.000000,4.000000,4.000000,4.000000,4.000000,4.000000,4.000000,4.000000,4.000000,4.000000,4.000000,4.000000,4.000000,4.000000,4.000000,100.000000,,,,,,,,,,,,,,,,,,,,,,,,,,,,
1703501940.119512,1703501940.119712,8.000000,0.000000,4259.358887,4249.871582,4292.692383,4289.615234,4237.948730,4220.769043,4231.922852,4217.820313,4219.743652,4206.282227,4466.666504,4443.717773,4334.358887,4398.333496,5477.000000,3.000000,67.000000,,,,0.000000,4.000000,4.000000,4.000000,4.000000,4.000000,4.000000,4.000000,4.000000,4.000000,4.000000,4.000000,4.000000,4.000000,4.000000,100.000000,,,,,,,,,,,,,,,,,2.000000,0.000000,0.722954,-0.217773,-0.645569,-0.114685,0.976682,-0.180686,0.065926,-13.153469,-40.938431,62.000648
1703501940.127320,1703501940.127420,9.000000,0.000000,4267.307617,4255.000000,4291.794922,4297.307617,4238.205078,4222.179688,4235.000000,4216.666504,4213.589844,4202.820313,4453.461426,4436.153809,4310.512695,4389.102539,5512.000000,3.000000,67.000000,,,,0.000000,4.000000,4.000000,4.000000,4.000000,4.000000,4.000000,4.000000,4.000000,4.000000,4.000000,4.000000,4.000000,4.000000,4.000000,100.000000,,,,,,,,,,,,,,,,,,,,,,,,,,,,
1703501940.135128,1703501940.135228,10.000000,0.000000,4257.948730,4251.282227,4285.512695,4287.436035,4236.410156,4223.717773,4234.743652,4218.846191,4213.333496,4206.153809,4451.282227,4436.282227,4296.794922,4382.436035,6115.000000,3.000000,67.000000,,,,0.000000,4.000000,4.000000,4.000000,4.000000,4.000000,4.000000,4.000000,4.000000,4.000000,4.000000,4.000000,4.000000,4.000000,4.000000,100.000000,,,,,,,,,,,,,,,,,,,,,,,,,,,,
1703501940.142936,1703501940.142937,11.000000,0.000000,4247.820313,4242.692383,4282.820313,4275.256348,4239.230957,4227.436035,4232.051270,4219.743652,4218.589844,4213.717773,4463.333496,4442.692383,4313.461426,4391.666504,6432.000000,3.000000,67.000000,,,,0.000000,4.000000,4.000000,4.000000,4.000000,4.000000,4.000000,4.000000,4.000000,4.000000,4.000000,4.000000,4.000000,4.000000,4.000000,100.000000,,,,,,,,,,,,,,,,,,,,,,,,,,,,
1703501940.150744,1703501940.150744,12.000000,0.000000,4250.128418,4244.358887,4276.794922,4280.769043,4239.230957,4225.000000,4232.051270,4217.948730,4215.000000,4208.461426,4453.077148,4431.282227,4301.794922,4383.589844,6933.000000,3.000000,67.000000,,,,0.000000,4.000000,4.000000,4.000000,4.000000,4.000000,4.000000,4.000000,4.000000,4.000000,4.000000,4.000000,4.000000,4.000000,4.000000,100.000000,,,,,,,,,,,,,,,,,3.000000,0.000000,0.722817,-0.217834,-0.645691,-0.114746,0.979612,-0.171408,0.074228,-13.138122,-40.994587,62.050583
1703501940.158552,1703501940.158453,13.000000,0.000000,4246.666504,4243.333496,4263.717773,4276.922852,4232.820313,4216.153809,4231.666504,4214.230957,4207.692383,4196.025879,4432.179688,4414.871582,4270.769043,4361.794922,6381.000000,3.000000,67.000000,,,,0.000000,4.000000,4.000000,4.000000,4.000000,4.000000,4.000000,4.000000,4.000000,4.000000,4.000000,4.000000,4.000000,4.000000,4.000000,100.000000,,,,,,,,,,,,,,,,,,,,,,,,,,,,
1703501940.166360,1703501940.166261,14.000000,0.000000,4243.974121,4231.922852,4265.256348,4263.717773,4228.846191,4215.641113,4232.563965,4215.641113,4211.794922,4200.000000,4440.000000,4424.102539,4283.846191,4370.384766,6115.000000,3.000000,67.000000,,,,0.000000,4.000000,4.000000,4.000000,4.000000,4.000000,4.000000,4.000000,4.000000,4.000000,4.000000,4.000000,4.000000,4.000000,4.000000,100.000000,,,,,,,,,,,,,,,,,,,,,,,,,,,,
1703501940.174168,1703501940.173969,15.000000,0.000000,4247.563965,4229.102539,4278.205078,4268.846191,4233.589844,4221.538574,4238.077148,4225.000000,4223.205078,4212.051270,4460.512695,4439.871582,4308.461426,4391.410156,6432.000000,3.000000,67.000000,,,,0.000000,4.000000,4.000000,4.000000,4.000000,4.000000,4.000000,4.000000,4.000000,4.000000,4.000000,4.000000,4.000000,4.000000,4.000000,100.000000,,,,,,,,,,,,,,,,,,,,,,,,,,,,
1703501940.181976,1703501940.181777,16.000000,0.000000,4249.230957,4242.563965,4280.128418,4281.153809,4240.769043,4226.922852,4243.205078,4231.153809,4226.410156,4212.563965,4458.589844,4436.410156,4296.922852,4386.922852,0.000000,3.000000,67.000000,,,,0.000000,4.000000,4.000000,4.000000,4.000000,4.000000,4.000000,4.000000,4.000000,4.000000,4.000000,4.000000,4.000000,4.000000,4.000000,100.000000,,,,,,,,,,,,,,,,,4.000000,0.000000,0.722735,-0.217896,-0.645752,-0.114807,0.976682,-0.157734,0.076670,-13.190976,-40.895130,62.062191
1703501940.189784,1703501940.189485,17.000000,0.000000,4254.358887,4251.025879,4279.230957,4281.922852,4241.794922,4231.794922,4245.256348,4232.307617,4227.948730,4214.102539,4458.333496,4435.512695,4292.179688,4384.743652,0.000000,3.000000,67.000000,,,,0.000000,4.000000,4.000000,4.000000,4.000000,4.000000,4.000000,4.000000,4.000000,4.000000,4.000000,4.000000,4.000000,4.000000,4.000000,100.000000,,,,,,,,,,,,,,,,,,,,,,,,,,,,
1703501940.197592,1703501940.197393,18.000000,0.000000,4257.179688,4237.563965,4285.000000,4276.538574,4234.615234,4228.589844,4243.333496,4232.563965,4232.051270,4218.333496,4468.846191,4445.256348,4307.179688,4395.384766,0.000000,3.000000,67.000000,,,,0.000000,4.000000,4.000000,4.000000,4.000000,4.000000,4.000000,4.000000,4.000000,4.000000,4.000000,4.000000,4.000000,4.000000,4.000000,100.000000,,,,,,,,,,,,,,,,,,,,,,,,,,,,
1703501940.205401,1703501940.205201,19.000000,0.000000,4252.436035,4230.256348,4284.358887,4277.307617,4231.794922,4225.641113,4236.922852,4225.897461,4224.230957,4210.512695,4462.307617,4440.000000,4301.538574,4391.794922,0.000000,3.000000,67.000000,,,,0.000000,4.000000,4.000000,4.000000,4.000000,4.000000,4.000000,4.000000,4.000000,4.000000,4.000000,4.000000,4.000000,4.000000,4.000000,100.000000,,,,,,,,,,,,,,,,,,,,,,,,,,,,
1703501940.213209,1703501940.213109,20.000000,0.000000,4251.666504,4245.000000,4280.384766,4282.692383,4233.589844,4229.102539,4233.333496,4213.974121,4207.436035,4192.307617,4438.077148,4420.641113,4274.102539,4378.333496,0.000000,3.000000,67.000000,,,,0.000000,4.000000,4.000000,4.000000,4.000000,4.000000,4.000000,4.000000,4.000000,4.000000,4.000000,4.000000,4.000000,4.000000,4.000000,100.000000,,,,,,,,,,,,,,,,,5.000000,0.000000,0.722698,-0.217834,-0.645813,-0.114807,0.975705,-0.165059,0.069344,-13.238545,-41.055618,62.239307
1703501940.221017,1703501940.220917,21.000000,0.000000,4250.897461,4243.333496,4280.384766,4281.538574,4231.282227,4230.897461,4239.615234,4212.692383,4201.794922,4181.410156,4421.922852,4415.512695,4254.358887,4368.461426,0.000000,3.000000,67.000000,,,,0.000000,4.000000,4.000000,4.000000,4.000000,4.000000,4.000000,4.000000,4.000000,4.000000,4.000000,4.000000,4.000000,4.000000,4.000000,100.000000,,,,,,,,,,,,,,,,,,,,,,,,,,,,
1703501940.228825,1703501940.228825,22.000000,0.000000,4244.871582,4223.077148,4279.615234,4276.794922,4230.128418,4229.615234,4247.051270,4219.487305,4208.717773,4186.025879,4429.102539,4423.589844,4257.692383,4364.871582,0.000000,3.000000,67.000000,,,,0.000000,4.000000,4.000000,4.000000,4.000000,4.000000,4.000000,4.000000,4.000000,4.000000,4.000000,4.000000,4.000000,4.000000,4.000000,100.000000,,,,,,,,,,,,,,,,,,,,,,,,,,,,
