title:ليال نعم, start timestamp:1703407621.288794, stop timestamp:1703407632.141977, headset type:EPOCX, headset serial:E50206EF, headset firmware:720, channels:67, sampling rate:eeg_128;mot_32, samples:1391      , version:2.2, 
Timestamp,OriginalTimestamp,EEG.Counter,EEG.Interpolated,EEG.AF3,EEG.F7,EEG.F3,EEG.FC5,EEG.T7,EEG.P7,EEG.O1,EEG.O2,EEG.P8,EEG.T8,EEG.FC6,EEG.F4,EEG.F8,EEG.AF4,EEG.RawCq,EEG.Battery,EEG.BatteryPercent,MarkerIndex,MarkerType,MarkerValueInt,EEG.MarkerHardware,CQ.AF3,CQ.F7,CQ.F3,CQ.FC5,CQ.T7,CQ.P7,CQ.O1,CQ.O2,CQ.P8,CQ.T8,CQ.FC6,CQ.F4,CQ.F8,CQ.AF4,CQ.Overall,EQ.SampleRateQuality,EQ.OVERALL,EQ.AF3,EQ.F7,EQ.F3,EQ.FC5,EQ.T7,EQ.P7,EQ.O1,EQ.O2,EQ.P8,EQ.T8,EQ.FC6,EQ.F4,EQ.F8,EQ.AF4,MOT.CounterMems,MOT.InterpolatedMems,MOT.Q0,MOT.Q1,MOT.Q2,MOT.Q3,MOT.AccX,MOT.AccY,MOT.AccZ,MOT.MagX,MOT.MagY,MOT.MagZ
1703407621.288794,1703407621.289457,50.000000,0.000000,4188.717773,4168.461426,4286.794922,4230.128418,4186.794922,4142.563965,4185.769043,4166.282227,4163.974121,4179.871582,4617.563965,4491.282227,4412.051270,4489.230957,0.000000,4.000000,76.000000,,,,0.000000,4.000000,4.000000,4.000000,4.000000,4.000000,4.000000,4.000000,4.000000,4.000000,4.000000,4.000000,4.000000,4.000000,4.000000,100.000000,,,,,,,,,,,,,,,,,,,,,,,,,,,,
1703407621.296602,1703407621.297366,51.000000,0.000000,4170.512695,4157.179688,4278.461426,4226.666504,4164.358887,4144.358887,4179.230957,4155.641113,4168.205078,4171.410156,4615.128418,4480.128418,4399.358887,4473.974121,0.000000,4.000000,76.000000,,,,0.000000,4.000000,4.000000,4.000000,4.000000,4.000000,4.000000,4.000000,4.000000,4.000000,4.000000,4.000000,4.000000,4.000000,4.000000,100.000000,,,,,,,,,,,,,,,,,,,,,,,,,,,,
1703407621.304410,1703407621.305174,52.000000,0.000000,4169.487305,4161.794922,4284.487305,4232.307617,4163.974121,4140.384766,4179.102539,4161.666504,4157.179688,4165.000000,4621.922852,4485.512695,4403.589844,4475.128418,0.000000,4.000000,76.000000,,,,0.000000,4.000000,4.000000,4.000000,4.000000,4.000000,4.000000,4.000000,4.000000,4.000000,4.000000,4.000000,4.000000,4.000000,4.000000,100.000000,,,,,,,,,,,,,,,,,13.000000,0.000000,0.729385,-0.117004,-0.670105,-0.072571,0.982542,-0.076670,0.079600,-14.705327,-41.212589,65.973373
1703407621.312219,1703407621.312983,53.000000,0.000000,4172.948730,4162.307617,4283.717773,4229.358887,4171.153809,4139.487305,4183.717773,4169.358887,4152.948730,4161.538574,4619.743652,4487.307617,4403.205078,4466.282227,0.000000,4.000000,76.000000,,,,0.000000,4.000000,4.000000,4.000000,4.000000,4.000000,4.000000,4.000000,4.000000,4.000000,4.000000,4.000000,4.000000,4.000000,4.000000,100.000000,,,,,,,,,,,,,,,,,,,,,,,,,,,,
1703407621.320027,1703407621.320691,54.000000,0.000000,4166.282227,4154.230957,4273.205078,4220.512695,4172.948730,4141.794922,4180.897461,4160.128418,4161.410156,4157.820313,4604.358887,4469.615234,4392.179688,4453.205078,0.000000,4.000000,76.000000,,,,0.000000,4.000000,4.000000,4.000000,4.000000,4.000000,4.000000,4.000000,4.000000,4.000000,4.000000,4.000000,4.000000,4.000000,4.000000,100.000000,,,,,,,,,,,,,,,,,,,,,,,,,,,,
1703407621.327834,1703407621.328499,55.000000,0.000000,4165.128418,4157.692383,4269.487305,4222.692383,4185.000000,4139.230957,4181.025879,4152.436035,4164.487305,4167.051270,4596.922852,4459.358887,4390.769043,4449.743652,0.000000,4.000000,76.000000,,,,0.000000,4.000000,4.000000,4.000000,4.000000,4.000000,4.000000,4.000000,4.000000,4.000000,4.000000,4.000000,4.000000,4.000000,4.000000,100.000000,,,,,,,,,,,,,,,,,,,,,,,,,,,,
1703407621.335642,1703407621.336207,56.000000,0.000000,4163.333496,4160.512695,4265.897461,4222.051270,4192.051270,4136.410156,4181.666504,4158.461426,4169.230957,4175.512695,4600.384766,4464.230957,4391.794922,4450.384766,0.000000,4.000000,76.000000,,,,0.000000,4.000000,4.000000,4.000000,4.000000,4.000000,4.000000,4.000000,4.000000,4.000000,4.000000,4.000000,4.000000,4.000000,4.000000,100.000000,,,,,,,,,,,,,,,,,14.000000,0.000000,0.729277,-0.116943,-0.670227,-0.072632,0.991332,-0.071298,0.073739,-14.801461,-41.241333,65.992706
1703407621.343451,1703407621.344015,57.000000,0.000000,4159.102539,4152.179688,4262.820313,4214.230957,4162.948730,4132.692383,4174.102539,4161.922852,4167.948730,4158.846191,4601.282227,4466.410156,4386.666504,4453.461426,0.000000,4.000000,76.000000,,,,0.000000,4.000000,4.000000,4.000000,4.000000,4.000000,4.000000,4.000000,4.000000,4.000000,4.000000,4.000000,4.000000,4.000000,4.000000,100.000000,,,,,,,,,,,,,,,,,,,,,,,,,,,,
1703407621.351259,1703407621.351723,58.000000,0.000000,4174.871582,4157.692383,4272.948730,4222.051270,4136.666504,4125.512695,4173.461426,4164.102539,4155.512695,4149.230957,4607.307617,4477.948730,4396.410156,4467.692383,0.000000,4.000000,76.000000,,,,0.000000,4.000000,4.000000,4.000000,4.000000,4.000000,4.000000,4.000000,4.000000,4.000000,4.000000,4.000000,4.000000,4.000000,4.000000,100.000000,,,,,,,,,,,,,,,,,,,,,,,,,,,,
1703407621.359067,1703407621.359531,59.000000,0.000000,4201.794922,4180.384766,4292.179688,4243.333496,4171.282227,4125.128418,4178.974121,4173.717773,4164.743652,4173.333496,4628.461426,4508.974121,4421.153809,4490.897461,0.000000,4.000000,76.000000,,,,0.000000,4.000000,4.000000,4.000000,4.000000,4.000000,4.000000,4.000000,4.000000,4.000000,4.000000,4.000000,4.000000,4.000000,4.000000,100.000000,,,,,,,,,,,,,,,,,,,,,,,,,,,,
1703407621.366875,1703407621.367239,60.000000,0.000000,4207.820313,4189.487305,4301.794922,4250.000000,4208.461426,4128.589844,4176.410156,4175.769043,4182.051270,4188.846191,4640.769043,4522.563965,4431.282227,4505.641113,0.000000,4.000000,76.000000,,,,0.000000,4.000000,4.000000,4.000000,4.000000,4.000000,4.000000,4.000000,4.000000,4.000000,4.000000,4.000000,4.000000,4.000000,4.000000,100.000000,,,,,,,,,,,,,,,,,15.000000,0.000000,0.729239,-0.116943,-0.670288,-0.072449,0.981565,-0.087413,0.074228,-14.871315,-41.283863,65.910103
1703407621.374683,1703407621.375046,61.000000,0.000000,4190.384766,4179.871582,4293.717773,4239.871582,4184.871582,4128.077148,4172.820313,4165.384766,4173.717773,4178.205078,4634.487305,4504.358887,4424.358887,4498.974121,0.000000,4.000000,76.000000,,,,0.000000,4.000000,4.000000,4.000000,4.000000,4.000000,4.000000,4.000000,4.000000,4.000000,4.000000,4.000000,4.000000,4.000000,4.000000,100.000000,,,,,,,,,,,,,,,,,,,,,,,,,,,,
1703407621.382491,1703407621.382754,62.000000,0.000000,4174.230957,4170.897461,4283.589844,4233.974121,4163.589844,4131.025879,4173.717773,4159.871582,4164.102539,4176.025879,4629.743652,4491.794922,4414.871582,4478.717773,0.000000,4.000000,76.000000,,,,0.000000,4.000000,4.000000,4.000000,4.000000,4.000000,4.000000,4.000000,4.000000,4.000000,4.000000,4.000000,4.000000,4.000000,4.000000,100.000000,,,,,,,,,,,,,,,,,,,,,,,,,,,,
1703407621.390299,1703407621.390662,63.000000,0.000000,4171.282227,4171.410156,4277.563965,4231.410156,4184.102539,4136.922852,4176.794922,4165.128418,4166.538574,4180.512695,4624.230957,4491.282227,4405.897461,4466.153809,0.000000,4.000000,76.000000,,,,0.000000,4.000000,4.000000,4.000000,4.000000,4.000000,4.000000,4.000000,4.000000,4.000000,4.000000,4.000000,4.000000,4.000000,4.000000,100.000000,,,,,,,,,,,,,,,,,,,,,,,,,,,,
1703407621.398107,1703407621.398470,64.000000,0.000000,4173.333496,4170.897461,4268.077148,4224.871582,4186.922852,4138.846191,4180.256348,4171.794922,4171.025879,4174.358887,4619.102539,4482.948730,4402.948730,4463.333496,4670.000000,4.000000,76.000000,,,,0.000000,4.000000,4.000000,4.000000,4.000000,4.000000,4.000000,4.000000,4.000000,4.000000,4.000000,4.000000,4.000000,4.000000,4.000000,100.000000,,,,,,,,,,,,,,,,,16.000000,0.000000,0.729239,-0.116943,-0.670288,-0.072449,0.984495,-0.075204,0.075693,-14.834183,-41.272144,65.835754
1703407621.405915,1703407621.406379,65.000000,0.000000,4170.897461,4167.563965,4259.102539,4225.897461,4165.641113,4135.769043,4176.922852,4172.307617,4178.077148,4174.102539,4625.512695,4479.487305,4406.666504,4461.025879,5440.000000,4.000000,76.000000,,,,0.000000,4.000000,4.000000,4.000000,4.000000,4.000000,4.000000,4.000000,4.000000,4.000000,4.000000,4.000000,4.000000,4.000000,4.000000,100.000000,,,,,,,,,,,,,,,,,,,,,,,,,,,,
1703407621.413723,1703407621.414187,66.000000,0.000000,4167.692383,4168.846191,4259.102539,4233.205078,4161.794922,4131.282227,4169.615234,4165.897461,4175.769043,4183.717773,4628.974121,4485.769043,4408.333496,4459.230957,5250.000000,4.000000,76.000000,,,,0.000000,4.000000,4.000000,4.000000,4.000000,4.000000,4.000000,4.000000,4.000000,4.000000,4.000000,4.000000,4.000000,4.000000,4.000000,100.000000,,,,,,,,,,,,,,,,,,,,,,,,,,,,
1703407621.421531,1703407621.422095,67.000000,0.000000,4174.743652,4175.897461,4266.153809,4237.307617,4177.179688,4133.333496,4173.461426,4160.128418,4162.948730,4183.717773,4624.615234,4483.717773,4409.615234,4465.128418,5310.000000,4.000000,76.000000,,,,0.000000,4.000000,4.000000,4.000000,4.000000,4.000000,4.000000,4.000000,4.000000,4.000000,4.000000,4.000000,4.000000,4.000000,4.000000,100.000000,,,,,,,,,,,,,,,,,,,,,,,,,,,,
1703407621.429339,1703407621.429903,68.000000,0.000000,4182.563965,4179.102539,4265.769043,4237.563965,4192.436035,4140.641113,4177.051270,4152.820313,4151.410156,4167.179688,4618.205078,4474.743652,4406.410156,4472.436035,5078.000000,4.000000,76.000000,,,,0.000000,4.000000,4.000000,4.000000,4.000000,4.000000,4.000000,4.000000,4.000000,4.000000,4.000000,4.000000,4.000000,4.000000,4.000000,100.000000,,,,,,,,,,,,,,,,,17.000000,0.000000,0.729227,-0.116943,-0.670288,-0.072571,0.988890,-0.068856,0.080576,-14.900764,-41.394932,65.852180
1703407621.437147,1703407621.437811,69.000000,0.000000,4183.205078,4171.666504,4259.871582,4234.102539,4183.205078,4140.769043,4171.025879,4142.307617,4140.384766,4153.205078,4607.948730,4472.051270,4394.487305,4472.307617,4530.000000,4.000000,76.000000,,,,0.000000,4.000000,4.000000,4.000000,4.000000,4.000000,4.000000,4.000000,4.000000,4.000000,4.000000,4.000000,4.000000,4.000000,4.000000,100.000000,,,,,,,,,,,,,,,,,,,,,,,,,,,,
1703407621.444955,1703407621.445619,70.000000,0.000000,4190.384766,4168.333496,4261.794922,4231.282227,4168.846191,4138.333496,4172.307617,4140.641113,4134.615234,4152.692383,4601.666504,4476.410156,4389.358887,4477.820313,3199.000000,4.000000,76.000000,,,,0.000000,4.000000,4.000000,4.000000,4.000000,4.000000,4.000000,4.000000,4.000000,4.000000,4.000000,4.000000,4.000000,4.000000,4.000000,100.000000,,,,,,,,,,,,,,,,,,,,,,,,,,,,
1703407621.452763,1703407621.453527,71.000000,0.000000,4202.563965,4171.794922,4269.230957,4232.436035,4172.820313,4142.820313,4179.615234,4153.077148,4143.589844,4156.410156,4607.051270,4487.179688,4396.025879,4496.666504,5021.000000,4.000000,76.000000,,,,0.000000,4.000000,4.000000,4.000000,4.000000,4.000000,4.000000,4.000000,4.000000,4.000000,4.000000,4.000000,4.000000,4.000000,4.000000,100.000000,,,,,,,,,,,,,,,,,,,,,,,,,,,,
1703407621.460571,1703407621.461335,72.000000,0.000000,4205.000000,4170.512695,4270.256348,4231.025879,4158.461426,4137.692383,4177.436035,4161.666504,4154.358887,4156.410156,4611.922852,4492.820313,4399.615234,4509.871582,4801.000000,4.000000,76.000000,,,,0.000000,4.000000,4.000000,4.000000,4.000000,4.000000,4.000000,4.000000,4.000000,4.000000,4.000000,4.000000,4.000000,4.000000,4.000000,100.000000,,,,,,,,,,,,,,,,,18.000000,0.000000,0.729277,-0.116943,-0.670227,-0.072632,0.985960,-0.080088,0.073739,-14.960689,-41.338772,65.866966
1703407621.468379,1703407621.469043,73.000000,0.000000,4211.282227,4177.563965,4271.794922,4238.589844,4142.820313,4123.589844,4169.358887,4165.641113,4163.846191,4162.948730,4615.512695,4498.461426,4404.230957,4510.512695,5076.000000,4.000000,76.000000,,,,0.000000,4.000000,4.000000,4.000000,4.000000,4.000000,4.000000,4.000000,4.000000,4.000000,4.000000,4.000000,4.000000,4.000000,4.000000,100.000000,,,,,,,,,,,,,,,,,,,,,,,,,,,,
1703407621.476187,1703407621.476851,74.000000,0.000000,4222.563965,4187.179688,4277.051270,4251.666504,4176.538574,4123.077148,4169.871582,4173.846191,4173.077148,4172.820313,4626.153809,4512.692383,4408.461426,4512.563965,5905.000000,4.000000,76.000000,,,,0.000000,4.000000,4.000000,4.000000,4.000000,4.000000,4.000000,4.000000,4.000000,4.000000,4.000000,4.000000,4.000000,4.000000,4.000000,100.000000,,,,,,,,,,,,,,,,,,,,,,,,,,,,
1703407621.483995,1703407621.484559,75.000000,0.000000,4212.179688,4177.436035,4270.512695,4240.128418,4190.000000,4135.384766,4174.358887,4168.205078,4170.897461,4175.000000,4620.384766,4508.974121,4400.000000,4517.948730,6043.000000,4.000000,76.000000,,,,0.000000,4.000000,4.000000,4.000000,4.000000,4.000000,4.000000,4.000000,4.000000,4.000000,4.000000,4.000000,4.000000,4.000000,4.000000,100.000000,,,,,,,,,,,,,,,,,,,,,,,,,,,,
1703407621.491804,1703407621.492367,76.000000,0.000000,4192.692383,4165.384766,4260.256348,4221.025879,4148.589844,4141.666504,4172.179688,4153.333496,4163.205078,4168.589844,4602.179688,4483.717773,4394.615234,4506.538574,6588.000000,4.000000,76.000000,,,,0.000000,4.000000,4.000000,4.000000,4.000000,4.000000,4.000000,4.000000,4.000000,4.000000,4.000000,4.000000,4.000000,4.000000,4.000000,100.000000,,,,,,,,,,,,,,,,,19.000000,0.000000,0.729317,-0.117004,-0.670166,-0.072693,0.978635,-0.074228,0.083018,-14.914619,-41.321560,65.880264
1703407621.499612,1703407621.500075,77.000000,0.000000,4195.000000,4171.282227,4261.153809,4231.922852,4161.282227,4143.974121,4173.333496,4153.589844,4158.846191,4161.410156,4609.871582,4477.307617,4407.051270,4492.051270,7169.000000,4.000000,76.000000,,,,0.000000,4.000000,4.000000,4.000000,4.000000,4.000000,4.000000,4.000000,4.000000,4.000000,4.000000,4.000000,4.000000,4.000000,4.000000,100.000000,,,,,,,,,,,,,,,,,,,,,,,,,,,,
1703407621.507419,1703407621.507883,78.000000,0.000000,4203.717773,4176.538574,4264.102539,4248.077148,4213.205078,4146.922852,4180.128418,4161.282227,4154.102539,4162.692383,4625.769043,4489.358887,4411.922852,4503.717773,5905.000000,4.000000,76.000000,,,,0.000000,4.000000,4.000000,4.000000,4.000000,4.000000,4.000000,4.000000,4.000000,4.000000,4.000000,4.000000,4.000000,4.000000,4.000000,100.000000,,,,,,,,,,,,,,,,,,,,,,,,,,,,
1703407621.515228,1703407621.515591,79.000000,0.000000,4198.205078,4173.717773,4263.717773,4243.333496,4199.871582,4142.179688,4178.846191,4153.333496,4143.205078,4163.717773,4613.717773,4484.743652,4398.461426,4505.769043,6043.000000,4.000000,76.000000,,,,0.000000,4.000000,4.000000,4.000000,4.000000,4.000000,4.000000,4.000000,4.000000,4.000000,4.000000,4.000000,4.000000,4.000000,4.000000,100.000000,,,,,,,,,,,,,,,,,,,,,,,,,,,,
1703407621.523036,1703407621.523399,80.000000,0.000000,4189.743652,4174.230957,4259.487305,4239.743652,4173.589844,4137.051270,4169.871582,4137.948730,4141.410156,4153.974121,4593.589844,4469.871582,4387.948730,4473.846191,6588.000000,4.000000,76.000000,,,,0.000000,4.000000,4.000000,4.000000,4.000000,4.000000,4.000000,4.000000,4.000000,4.000000,4.000000,4.000000,4.000000,4.000000,4.000000,100.000000,,,,,,,,,,,,,,,,,20.000000,0.000000,0.729321,-0.116943,-0.670166,-0.072754,0.969357,-0.075204,0.086436,-14.789824,-41.272739,65.892242
1703407621.530844,1703407621.531107,81.000000,0.000000,4190.512695,4175.769043,4257.179688,4246.025879,4180.384766,4137.051270,4166.410156,4141.410156,4150.128418,4150.897461,4598.974121,4472.051270,4387.820313,4466.025879,7169.000000,4.000000,76.000000,,,,0.000000,4.000000,4.000000,4.000000,4.000000,4.000000,4.000000,4.000000,4.000000,4.000000,4.000000,4.000000,4.000000,4.000000,4.000000,100.000000,,,,,,,,,,,,,,,,,,,,,,,,,,,,
1703407621.538652,1703407621.538915,82.000000,0.000000,4202.692383,4182.820313,4270.897461,4252.563965,4178.333496,4130.641113,4171.794922,4155.641113,4151.922852,4162.307617,4618.205078,4492.820313,4396.410156,4501.282227,5905.000000,4.000000,76.000000,,,,0.000000,4.000000,4.000000,4.000000,4.000000,4.000000,4.000000,4.000000,4.000000,4.000000,4.000000,4.000000,4.000000,4.000000,4.000000,100.000000,,,,,,,,,,,,,,,,,,,,,,,,,,,,
1703407621.546460,1703407621.546624,83.000000,0.000000,4214.102539,4185.769043,4286.538574,4252.051270,4177.436035,4120.000000,4173.461426,4159.487305,4129.358887,4156.666504,4620.641113,4505.384766,4403.717773,4519.743652,6043.000000,4.000000,76.000000,,,,0.000000,4.000000,4.000000,4.000000,4.000000,4.000000,4.000000,4.000000,4.000000,4.000000,4.000000,4.000000,4.000000,4.000000,4.000000,100.000000,,,,,,,,,,,,,,,,,,,,,,,,,,,,
1703407621.554268,1703407621.554431,84.000000,0.000000,4208.205078,4169.230957,4279.743652,4236.282227,4177.820313,4125.512695,4167.436035,4150.256348,4124.230957,4140.256348,4605.769043,4493.333496,4393.717773,4499.358887,6588.000000,4.000000,76.000000,,,,0.000000,4.000000,4.000000,4.000000,4.000000,4.000000,4.000000,4.000000,4.000000,4.000000,4.000000,4.000000,4.000000,4.000000,4.000000,100.000000,,,,,,,,,,,,,,,,,21.000000,0.000000,0.729280,-0.116882,-0.670227,-0.072693,0.993285,-0.072763,0.078135,-14.727509,-41.262131,65.936348
1703407621.562076,1703407621.562139,85.000000,0.000000,4198.974121,4158.461426,4268.333496,4225.128418,4156.153809,4140.897461,4167.692383,4150.512695,4156.410156,4151.282227,4602.820313,4486.538574,4387.436035,4488.846191,7169.000000,4.000000,76.000000,,,,0.000000,4.000000,4.000000,4.000000,4.000000,4.000000,4.000000,4.000000,4.000000,4.000000,4.000000,4.000000,4.000000,4.000000,4.000000,100.000000,,,,,,,,,,,,,,,,,,,,,,,,,,,,
1703407621.569884,1703407621.570047,86.000000,0.000000,4208.077148,4176.153809,4276.538574,4239.358887,4160.512695,4144.871582,4181.410156,4166.538574,4164.230957,4177.563965,4625.641113,4512.563965,4413.974121,4524.358887,5905.000000,4.000000,76.000000,,,,0.000000,4.000000,4.000000,4.000000,4.000000,4.000000,4.000000,4.000000,4.000000,4.000000,4.000000,4.000000,4.000000,4.000000,4.000000,100.000000,,,,,,,,,,,,,,,,,,,,,,,,,,,,
1703407621.577692,1703407621.577856,87.000000,0.000000,4225.384766,4193.205078,4285.512695,4254.487305,4193.846191,4142.307617,4187.563965,4173.333496,4147.307617,4184.615234,4642.179688,4532.563965,4440.256348,4558.205078,6043.000000,4.000000,76.000000,,,,0.000000,4.000000,4.000000,4.000000,4.000000,4.000000,4.000000,4.000000,4.000000,4.000000,4.000000,4.000000,4.000000,4.000000,4.000000,100.000000,1.000000,83.333336,4.000000,4.000000,4.000000,4.000000,3.000000,4.000000,4.000000,4.000000,4.000000,4.000000,4.000000,4.000000,4.000000,3.000000,,,,,,,,,,,,
1703407621.585500,1703407621.585764,88.000000,0.000000,4227.692383,4188.205078,4281.666504,4250.128418,4194.743652,4142.051270,4178.589844,4166.282227,4149.871582,4172.307617,4632.948730,4512.563965,4430.256348,4536.538574,6588.000000,4.000000,76.000000,,,,0.000000,4.000000,4.000000,4.000000,4.000000,4.000000,4.000000,4.000000,4.000000,4.000000,4.000000,4.000000,4.000000,4.000000,4.000000,100.000000,,,,,,,,,,,,,,,,,22.000000,0.000000,0.729182,-0.116760,-0.670349,-0.072754,0.982542,-0.066903,0.076670,-14.821424,-41.235916,65.926048
1703407621.593308,1703407621.593572,89.000000,0.000000,4214.743652,4180.128418,4275.000000,4241.922852,4183.077148,4141.922852,4172.820313,4166.538574,4166.282227,4165.769043,4619.487305,4490.897461,4408.589844,4506.794922,7169.000000,4.000000,76.000000,,,,0.000000,4.000000,4.000000,4.000000,4.000000,4.000000,4.000000,4.000000,4.000000,4.000000,4.000000,4.000000,4.000000,4.000000,4.000000,100.000000,,,,,,,,,,,,,,,,,,,,,,,,,,,,
1703407621.601116,1703407621.601480,90.000000,0.000000,4198.333496,4174.102539,4267.948730,4239.230957,4186.538574,4139.487305,4173.333496,4172.436035,4169.871582,4166.922852,4616.410156,4493.589844,4403.077148,4503.717773,5905.000000,4.000000,76.000000,,,,0.000000,4.000000,4.000000,4.000000,4.000000,4.000000,4.000000,4.000000,4.000000,4.000000,4.000000,4.000000,4.000000,4.000000,4.000000,100.000000,,,,,,,,,,,,,,,,,,,,,,,,,,,,
1703407621.608924,1703407621.609288,91.000000,0.000000,4196.538574,4170.000000,4268.461426,4242.179688,4187.436035,4139.230957,4176.794922,4170.769043,4171.410156,4170.384766,4621.922852,4498.717773,4408.589844,4497.948730,6043.000000,4.000000,76.000000,,,,0.000000,4.000000,4.000000,4.000000,4.000000,4.000000,4.000000,4.000000,4.000000,4.000000,4.000000,4.000000,4.000000,4.000000,4.000000,100.000000,,,,,,,,,,,,,,,,,,,,,,,,,,,,
1703407621.616732,1703407621.617196,92.000000,0.000000,4201.153809,4171.922852,4274.615234,4248.205078,4184.487305,4141.282227,4182.948730,4172.436035,4175.384766,4173.461426,4624.487305,4493.974121,4409.230957,4490.000000,6588.000000,4.000000,76.000000,,,,0.000000,4.000000,4.000000,4.000000,4.000000,4.000000,4.000000,4.000000,4.000000,4.000000,4.000000,4.000000,4.000000,4.000000,4.000000,100.000000,,,,,,,,,,,,,,,,,23.000000,0.000000,0.729241,-0.116699,-0.670288,-0.072815,1.003052,-0.077158,0.077158,-14.789282,-41.112328,66.183441
1703407621.624540,1703407621.625005,93.000000,0.000000,4192.179688,4171.282227,4275.641113,4248.974121,4180.000000,4142.948730,4186.922852,4172.051270,4168.717773,4175.512695,4615.641113,4492.820313,4401.666504,4485.128418,7169.000000,4.000000,76.000000,,,,0.000000,4.000000,4.000000,4.000000,4.000000,4.000000,4.000000,4.000000,4.000000,4.000000,4.000000,4.000000,4.000000,4.000000,4.000000,100.000000,,,,,,,,,,,,,,,,,,,,,,,,,,,,
1703407621.632348,1703407621.632912,94.000000,0.000000,4185.641113,4167.436035,4271.410156,4245.897461,4174.230957,4142.948730,4185.000000,4158.974121,4158.333496,4170.128418,4610.000000,4495.000000,4396.410156,4475.512695,5905.000000,4.000000,76.000000,,,,0.000000,4.000000,4.000000,4.000000,4.000000,4.000000,4.000000,4.000000,4.000000,4.000000,4.000000,4.000000,4.000000,4.000000,4.000000,100.000000,,,,,,,,,,,,,,,,,,,,,,,,,,,,
1703407621.640156,1703407621.640720,95.000000,0.000000,4189.358887,4167.307617,4268.717773,4245.769043,4169.487305,4146.025879,4178.077148,4149.743652,4148.333496,4155.897461,4611.666504,4484.743652,4394.743652,4473.846191,6043.000000,4.000000,76.000000,,,,0.000000,4.000000,4.000000,4.000000,4.000000,4.000000,4.000000,4.000000,4.000000,4.000000,4.000000,4.000000,4.000000,4.000000,4.000000,100.000000,,,,,,,,,,,,,,,,,,,,,,,,,,,,
1703407621.647964,1703407621.648628,96.000000,0.000000,4187.307617,4164.358887,4269.871582,4247.820313,4170.128418,4154.871582,4175.128418,4152.948730,4151.794922,4156.922852,4611.410156,4472.692383,4391.282227,4475.512695,6588.000000,4.000000,76.000000,,,,0.000000,4.000000,4.000000,4.000000,4.000000,4.000000,4.000000,4.000000,4.000000,4.000000,4.000000,4.000000,4.000000,4.000000,4.000000,100.000000,,,,,,,,,,,,,,,,,24.000000,0.000000,0.729305,-0.117004,-0.670166,-0.072815,0.989867,-0.083506,0.082041,-14.860353,-41.034428,66.248428
1703407621.655772,1703407621.656436,97.000000,0.000000,4184.102539,4158.333496,4274.230957,4246.666504,4176.666504,4156.153809,4177.179688,4161.282227,4162.948730,4170.384766,4609.743652,4480.256348,4392.179688,4471.794922,7169.000000,4.000000,76.000000,,,,0.000000,4.000000,4.000000,4.000000,4.000000,4.000000,4.000000,4.000000,4.000000,4.000000,4.000000,4.000000,4.000000,4.000000,4.000000,100.000000,,,,,,,,,,,,,,,,,,,,,,,,,,,,
1703407621.663581,1703407621.664144,98.000000,0.000000,4191.025879,4157.307617,4280.769043,4244.743652,4190.000000,4154.230957,4177.179688,4173.205078,4169.102539,4171.282227,4616.282227,4499.230957,4395.641113,4480.128418,5905.000000,4.000000,76.000000,,,,0.000000,4.000000,4.000000,4.000000,4.000000,4.000000,4.000000,4.000000,4.000000,4.000000,4.000000,4.000000,4.000000,4.000000,4.000000,100.000000,,,,,,,,,,,,,,,,,,,,,,,,,,,,
1703407621.671389,1703407621.671952,99.000000,0.000000,4201.153809,4157.692383,4284.743652,4248.717773,4189.487305,4162.436035,4177.051270,4186.794922,4175.384766,4167.436035,4623.589844,4503.589844,4397.051270,4493.333496,6043.000000,4.000000,76.000000,,,,0.000000,4.000000,4.000000,4.000000,4.000000,4.000000,4.000000,4.000000,4.000000,4.000000,4.000000,4.000000,4.000000,4.000000,4.000000,100.000000,,,,,,,,,,,,,,,,,,,,,,,,,,,,
1703407621.679196,1703407621.679660,100.000000,0.000000,4203.717773,4153.205078,4283.077148,4249.487305,4163.846191,4168.205078,4183.846191,4189.743652,4182.948730,4173.717773,4620.769043,4495.000000,4398.589844,4490.256348,6588.000000,4.000000,76.000000,,,,0.000000,4.000000,4.000000,4.000000,4.000000,4.000000,4.000000,4.000000,4.000000,4.000000,4.000000,4.000000,4.000000,4.000000,4.000000,100.000000,,,,,,,,,,,,,,,,,25.000000,0.000000,0.729180,-0.117432,-0.670227,-0.072815,0.973263,-0.059578,0.076181,-14.824318,-41.097652,66.173592
1703407621.687005,1703407621.687468,101.000000,0.000000,4205.897461,4151.666504,4280.512695,4243.974121,4160.897461,4167.948730,4186.025879,4186.282227,4184.230957,4175.128418,4621.025879,4496.282227,4405.384766,4493.461426,7169.000000,4.000000,76.000000,,,,0.000000,4.000000,4.000000,4.000000,4.000000,4.000000,4.000000,4.000000,4.000000,4.000000,4.000000,4.000000,4.000000,4.000000,4.000000,100.000000,,,,,,,,,,,,,,,,,,,,,,,,,,,,
1703407621.694813,1703407621.695176,102.000000,0.000000,4211.282227,4155.897461,4287.436035,4247.692383,4185.641113,4176.794922,4183.717773,4187.563965,4177.179688,4170.128418,4629.615234,4507.051270,4414.487305,4507.692383,5905.000000,4.000000,76.000000,,,,0.000000,4.000000,4.000000,4.000000,4.000000,4.000000,4.000000,4.000000,4.000000,4.000000,4.000000,4.000000,4.000000,4.000000,4.000000,100.000000,,,,,,,,,,,,,,,,,,,,,,,,,,,,
1703407621.702621,1703407621.703085,103.000000,0.000000,4211.922852,4157.563965,4291.538574,4252.436035,4187.563965,4186.794922,4186.794922,4189.487305,4170.384766,4174.871582,4630.512695,4508.974121,4414.358887,4510.256348,6043.000000,4.000000,76.000000,,,,0.000000,4.000000,4.000000,4.000000,4.000000,4.000000,4.000000,4.000000,4.000000,4.000000,4.000000,4.000000,4.000000,4.000000,4.000000,100.000000,,,,,,,,,,,,,,,,,,,,,,,,,,,,
1703407621.710429,1703407621.710893,104.000000,0.000000,4210.641113,4153.333496,4281.922852,4246.794922,4165.128418,4188.333496,4187.948730,4181.153809,4162.692383,4179.871582,4620.512695,4500.256348,4410.769043,4505.641113,6588.000000,4.000000,76.000000,,,,0.000000,4.000000,4.000000,4.000000,4.000000,4.000000,4.000000,4.000000,4.000000,4.000000,4.000000,4.000000,4.000000,4.000000,4.000000,100.000000,,,,,,,,,,,,,,,,,26.000000,0.000000,0.729218,-0.117310,-0.670227,-0.072632,0.980588,-0.071298,0.082041,-14.741886,-41.137886,66.139565
1703407621.718237,1703407621.718702,105.000000,0.000000,4212.436035,4152.820313,4281.410156,4245.897461,4161.282227,4188.717773,4185.256348,4169.102539,4162.436035,4173.974121,4619.358887,4496.025879,4413.846191,4508.461426,7169.000000,4.000000,76.000000,,,,0.000000,4.000000,4.000000,4.000000,4.000000,4.000000,4.000000,4.000000,4.000000,4.000000,4.000000,4.000000,4.000000,4.000000,4.000000,100.000000,,,,,,,,,,,,,,,,,,,,,,,,,,,,
1703407621.726045,1703407621.726410,106.000000,0.000000,4209.102539,4161.922852,4294.743652,4250.384766,4175.512695,4189.487305,4183.333496,4166.666504,4168.205078,4169.102539,4627.692383,4496.922852,4412.692383,4506.025879,5905.000000,4.000000,76.000000,,,,0.000000,4.000000,4.000000,4.000000,4.000000,4.000000,4.000000,4.000000,4.000000,4.000000,4.000000,4.000000,4.000000,4.000000,4.000000,100.000000,,,,,,,,,,,,,,,,,,,,,,,,,,,,
1703407621.733853,1703407621.734318,107.000000,0.000000,4205.256348,4167.436035,4300.897461,4250.256348,4166.794922,4185.256348,4180.897461,4167.307617,4156.538574,4166.666504,4621.666504,4491.922852,4404.102539,4493.205078,6043.000000,4.000000,76.000000,,,,0.000000,4.000000,4.000000,4.000000,4.000000,4.000000,4.000000,4.000000,4.000000,4.000000,4.000000,4.000000,4.000000,4.000000,4.000000,100.000000,,,,,,,,,,,,,,,,,,,,,,,,,,,,
1703407621.741661,1703407621.742126,108.000000,0.000000,4209.487305,4168.974121,4299.102539,4253.589844,4155.384766,4186.666504,4185.384766,4174.230957,4145.769043,4167.563965,4617.563965,4489.358887,4406.153809,4492.692383,6588.000000,4.000000,76.000000,,,,0.000000,4.000000,4.000000,4.000000,4.000000,4.000000,4.000000,4.000000,4.000000,4.000000,4.000000,4.000000,4.000000,4.000000,4.000000,100.000000,,,,,,,,,,,,,,,,,27.000000,0.000000,0.729198,-0.117310,-0.670288,-0.072266,0.997680,-0.085948,0.078623,-14.917698,-41.124096,66.058937
1703407621.749469,1703407621.750034,109.000000,0.000000,4213.846191,4172.051270,4303.461426,4262.307617,4173.717773,4192.692383,4193.461426,4183.974121,4161.410156,4176.410156,4627.307617,4498.589844,4417.563965,4505.128418,7169.000000,4.000000,76.000000,,,,0.000000,4.000000,4.000000,4.000000,4.000000,4.000000,4.000000,4.000000,4.000000,4.000000,4.000000,4.000000,4.000000,4.000000,4.000000,100.000000,,,,,,,,,,,,,,,,,,,,,,,,,,,,
1703407621.757277,1703407621.757842,110.000000,0.000000,4215.512695,4175.256348,4310.128418,4265.256348,4189.871582,4190.897461,4190.769043,4179.487305,4174.230957,4179.487305,4627.436035,4506.282227,4415.641113,4506.794922,5905.000000,4.000000,76.000000,,,,0.000000,4.000000,4.000000,4.000000,4.000000,4.000000,4.000000,4.000000,4.000000,4.000000,4.000000,4.000000,4.000000,4.000000,4.000000,100.000000,,,,,,,,,,,,,,,,,,,,,,,,,,,,
1703407621.765085,1703407621.765750,111.000000,0.000000,4218.589844,4178.333496,4311.153809,4263.974121,4176.410156,4184.871582,4182.307617,4170.512695,4165.512695,4169.615234,4622.436035,4501.922852,4411.410156,4504.358887,6043.000000,4.000000,76.000000,,,,0.000000,4.000000,4.000000,4.000000,4.000000,4.000000,4.000000,4.000000,4.000000,4.000000,4.000000,4.000000,4.000000,4.000000,4.000000,100.000000,,,,,,,,,,,,,,,,,,,,,,,,,,,,
1703407621.772893,1703407621.773559,112.000000,0.000000,4219.230957,4176.666504,4306.538574,4257.948730,4164.615234,4182.820313,4182.179688,4165.256348,4156.666504,4165.769043,4619.871582,4493.974121,4413.077148,4510.769043,6588.000000,4.000000,76.000000,,,,0.000000,4.000000,4.000000,4.000000,4.000000,4.000000,4.000000,4.000000,4.000000,4.000000,4.000000,4.000000,4.000000,4.000000,4.000000,100.000000,,,,,,,,,,,,,,,,,28.000000,0.000000,0.729194,-0.117371,-0.670288,-0.072205,0.990355,-0.076181,0.077158,-14.925928,-41.178352,66.003044
1703407621.780701,1703407621.781467,113.000000,0.000000,4220.000000,4175.512695,4302.692383,4253.717773,4165.897461,4182.307617,4185.000000,4162.307617,4155.000000,4169.743652,4615.512695,4493.846191,4409.102539,4516.794922,7169.000000,4.000000,76.000000,,,,0.000000,4.000000,4.000000,4.000000,4.000000,4.000000,4.000000,4.000000,4.000000,4.000000,4.000000,4.000000,4.000000,4.000000,4.000000,100.000000,,,,,,,,,,,,,,,,,,,,,,,,,,,,
1703407621.788509,1703407621.789275,114.000000,0.000000,4225.641113,4176.922852,4297.948730,4253.717773,4157.948730,4181.153809,4183.461426,4164.615234,4153.205078,4160.641113,4618.589844,4493.846191,4403.974121,4514.743652,5905.000000,4.000000,76.000000,,,,0.000000,4.000000,4.000000,4.000000,4.000000,4.000000,4.000000,4.000000,4.000000,4.000000,4.000000,4.000000,4.000000,4.000000,4.000000,100.000000,,,,,,,,,,,,,,,,,,,,,,,,,,,,
1703407621.796317,1703407621.797183,115.000000,0.000000,4231.153809,4176.538574,4292.307617,4251.922852,4150.512695,4186.410156,4182.436035,4165.897461,4151.922852,4152.307617,4613.846191,4493.974121,4401.922852,4513.974121,6043.000000,4.000000,76.000000,,,,0.000000,4.000000,4.000000,4.000000,4.000000,4.000000,4.000000,4.000000,4.000000,4.000000,4.000000,4.000000,4.000000,4.000000,4.000000,100.000000,,,,,,,,,,,,,,,,,,,,,,,,,,,,
1703407621.804125,1703407621.804991,116.000000,0.000000,4235.769043,4181.794922,4296.538574,4255.769043,4158.846191,4190.897461,4184.102539,4163.846191,4158.717773,4162.436035,4609.743652,4504.487305,4408.717773,4528.461426,6588.000000,4.000000,76.000000,,,,0.000000,4.000000,4.000000,4.000000,4.000000,4.000000,4.000000,4.000000,4.000000,4.000000,4.000000,4.000000,4.000000,4.000000,4.000000,100.000000,,,,,,,,,,,,,,,,,29.000000,0.000000,0.729288,-0.117371,-0.670166,-0.072388,0.994262,-0.065438,0.074716,-14.800002,-41.227184,66.086075
1703407621.811933,1703407621.812899,117.000000,0.000000,4234.230957,4189.487305,4299.487305,4263.205078,4170.256348,4185.384766,4186.153809,4167.179688,4168.974121,4170.769043,4627.948730,4507.179688,4418.461426,4545.512695,7169.000000,4.000000,76.000000,,,,0.000000,4.000000,4.000000,4.000000,4.000000,4.000000,4.000000,4.000000,4.000000,4.000000,4.000000,4.000000,4.000000,4.000000,4.000000,100.000000,,,,,,,,,,,,,,,,,,,,,,,,,,,,
1703407621.819741,1703407621.820708,118.000000,0.000000,4235.897461,4192.692383,4295.000000,4264.615234,4176.666504,4182.563965,4184.871582,4174.743652,4173.077148,4176.922852,4645.000000,4500.128418,4422.692383,4543.589844,5905.000000,4.000000,76.000000,,,,0.000000,4.000000,4.000000,4.000000,4.000000,4.000000,4.000000,4.000000,4.000000,4.000000,4.000000,4.000000,4.000000,4.000000,4.000000,100.000000,,,,,,,,,,,,,,,,,,,,,,,,,,,,
1703407621.827549,1703407621.828615,119.000000,0.000000,4243.589844,4197.307617,4298.717773,4264.743652,4180.128418,4187.051270,4185.128418,4177.179688,4168.333496,4180.128418,4642.692383,4506.025879,4426.282227,4539.102539,6043.000000,4.000000,76.000000,,,,0.000000,4.000000,4.000000,4.000000,4.000000,4.000000,4.000000,4.000000,4.000000,4.000000,4.000000,4.000000,4.000000,4.000000,4.000000,100.000000,,,,,,,,,,,,,,,,,,,,,,,,,,,,
1703407621.835358,1703407621.836423,120.000000,0.000000,4237.948730,4201.025879,4305.897461,4268.974121,4185.897461,4185.641113,4192.051270,4174.102539,4156.666504,4174.743652,4639.871582,4512.563965,4430.641113,4542.307617,6588.000000,4.000000,76.000000,,,,0.000000,4.000000,4.000000,4.000000,4.000000,4.000000,4.000000,4.000000,4.000000,4.000000,4.000000,4.000000,4.000000,4.000000,4.000000,100.000000,,,,,,,,,,,,,,,,,30.000000,0.000000,0.729325,-0.117188,-0.670105,-0.072876,0.976193,-0.065926,0.079111,-14.803335,-41.121132,66.094131
1703407621.843166,1703407621.844132,121.000000,0.000000,4222.436035,4193.589844,4301.410156,4270.256348,4183.717773,4182.948730,4193.077148,4172.436035,4153.846191,4175.256348,4635.384766,4501.153809,4432.051270,4532.563965,7169.000000,4.000000,76.000000,,,,0.000000,4.000000,4.000000,4.000000,4.000000,4.000000,4.000000,4.000000,4.000000,4.000000,4.000000,4.000000,4.000000,4.000000,4.000000,100.000000,,,,,,,,,,,,,,,,,,,,,,,,,,,,
1703407621.850973,1703407621.851939,122.000000,0.000000,4213.461426,4181.922852,4294.358887,4258.589844,4163.974121,4186.410156,4184.871582,4176.282227,4168.846191,4181.538574,4625.128418,4488.974121,4424.871582,4508.846191,5905.000000,4.000000,76.000000,,,,0.000000,4.000000,4.000000,4.000000,4.000000,4.000000,4.000000,4.000000,4.000000,4.000000,4.000000,4.000000,4.000000,4.000000,4.000000,100.000000,,,,,,,,,,,,,,,,,,,,,,,,,,,,
1703407621.858782,1703407621.859648,123.000000,0.000000,4207.179688,4176.410156,4290.128418,4248.333496,4156.282227,4181.538574,4181.794922,4176.538574,4181.025879,4180.512695,4619.487305,4483.717773,4415.000000,4495.512695,6043.000000,4.000000,76.000000,,,,0.000000,4.000000,4.000000,4.000000,4.000000,4.000000,4.000000,4.000000,4.000000,4.000000,4.000000,4.000000,4.000000,4.000000,4.000000,100.000000,,,,,,,,,,,,,,,,,,,,,,,,,,,,
1703407621.866590,1703407621.867556,124.000000,0.000000,4197.563965,4175.384766,4287.307617,4250.897461,4172.820313,4176.025879,4184.358887,4167.051270,4168.461426,4177.179688,4605.000000,4472.692383,4404.743652,4489.487305,6588.000000,4.000000,76.000000,,,,0.000000,4.000000,4.000000,4.000000,4.000000,4.000000,4.000000,4.000000,4.000000,4.000000,4.000000,4.000000,4.000000,4.000000,4.000000,100.000000,,,,,,,,,,,,,,,,,31.000000,0.000000,0.729369,-0.116882,-0.670044,-0.073486,0.992309,-0.075693,0.079111,-14.906335,-41.175686,66.084717
1703407621.874398,1703407621.875364,125.000000,0.000000,4198.974121,4184.615234,4298.205078,4257.563965,4193.717773,4180.641113,4183.846191,4165.256348,4156.410156,4175.641113,4601.153809,4471.410156,4405.769043,4488.846191,7169.000000,4.000000,76.000000,,,,0.000000,4.000000,4.000000,4.000000,4.000000,4.000000,4.000000,4.000000,4.000000,4.000000,4.000000,4.000000,4.000000,4.000000,4.000000,100.000000,,,,,,,,,,,,,,,,,,,,,,,,,,,,
1703407621.882206,1703407621.883273,126.000000,0.000000,4205.000000,4188.333496,4310.897461,4254.358887,4192.179688,4179.871582,4183.333496,4169.230957,4163.205078,4166.922852,4614.615234,4482.179688,4413.974121,4493.077148,5905.000000,4.000000,76.000000,,,,0.000000,4.000000,4.000000,4.000000,4.000000,4.000000,4.000000,4.000000,4.000000,4.000000,4.000000,4.000000,4.000000,4.000000,4.000000,100.000000,,,,,,,,,,,,,,,,,,,,,,,,,,,,
1703407621.890014,1703407621.891081,127.000000,0.000000,4196.666504,4173.846191,4296.538574,4245.384766,4165.384766,4172.051270,4183.846191,4167.179688,4169.230957,4166.025879,4609.230957,4476.922852,4408.333496,4489.102539,76.000000,4.000000,76.000000,,,,0.000000,4.000000,4.000000,4.000000,4.000000,4.000000,4.000000,4.000000,4.000000,4.000000,4.000000,4.000000,4.000000,4.000000,4.000000,100.000000,,,,,,,,,,,,,,,,,,,,,,,,,,,,
1703407621.897822,1703407621.898890,0.000000,0.000000,4184.487305,4166.153809,4274.230957,4237.179688,4157.820313,4171.410156,4185.000000,4170.384766,4167.820313,4172.948730,4598.205078,4458.205078,4398.205078,4478.974121,4672.000000,4.000000,76.000000,,,,0.000000,4.000000,4.000000,4.000000,4.000000,4.000000,4.000000,4.000000,4.000000,4.000000,4.000000,4.000000,4.000000,4.000000,4.000000,100.000000,,,,,,,,,,,,,,,,,0.000000,0.000000,0.729504,-0.116821,-0.669861,-0.073914,1.006959,-0.056648,0.083506,-14.899035,-41.208118,66.059586
1703407621.905630,1703407621.906598,1.000000,0.000000,4181.538574,4167.563965,4277.051270,4230.128418,4168.589844,4173.333496,4186.410156,4172.692383,4175.000000,4169.615234,4594.615234,4455.384766,4395.641113,4470.641113,5440.000000,4.000000,76.000000,,,,0.000000,4.000000,4.000000,4.000000,4.000000,4.000000,4.000000,4.000000,4.000000,4.000000,4.000000,4.000000,4.000000,4.000000,4.000000,100.000000,,,,,,,,,,,,,,,,,,,,,,,,,,,,
1703407621.913438,1703407621.914406,2.000000,0.000000,4190.256348,4170.384766,4296.410156,4235.512695,4170.384766,4171.153809,4183.461426,4172.307617,4182.179688,4165.000000,4598.077148,4476.922852,4402.692383,4480.897461,5248.000000,4.000000,76.000000,,,,0.000000,4.000000,4.000000,4.000000,4.000000,4.000000,4.000000,4.000000,4.000000,4.000000,4.000000,4.000000,4.000000,4.000000,4.000000,100.000000,,,,,,,,,,,,,,,,,,,,,,,,,,,,
1703407621.921246,1703407621.922113,3.000000,0.000000,4200.384766,4179.871582,4306.282227,4250.769043,4176.666504,4170.000000,4182.948730,4178.077148,4172.179688,4169.230957,4615.897461,4497.307617,4420.128418,4508.974121,5310.000000,4.000000,76.000000,,,,0.000000,4.000000,4.000000,4.000000,4.000000,4.000000,4.000000,4.000000,4.000000,4.000000,4.000000,4.000000,4.000000,4.000000,4.000000,100.000000,,,,,,,,,,,,,,,,,,,,,,,,,,,,
1703407621.929054,1703407621.929921,4.000000,0.000000,4198.077148,4185.128418,4300.256348,4255.256348,4187.307617,4166.794922,4183.974121,4179.743652,4165.000000,4175.128418,4628.205078,4495.000000,4426.025879,4508.077148,5088.000000,4.000000,76.000000,,,,0.000000,4.000000,4.000000,4.000000,4.000000,4.000000,4.000000,4.000000,4.000000,4.000000,4.000000,4.000000,4.000000,4.000000,4.000000,100.000000,,,,,,,,,,,,,,,,,1.000000,0.000000,0.729432,-0.116882,-0.669922,-0.073975,0.984007,-0.062996,0.081065,-14.859131,-41.337307,66.003624
1703407621.936862,1703407621.937629,5.000000,0.000000,4189.615234,4171.153809,4289.102539,4243.333496,4178.846191,4164.615234,4177.948730,4171.153809,4169.487305,4168.077148,4610.769043,4478.333496,4407.307617,4478.717773,4529.000000,4.000000,76.000000,,,,0.000000,4.000000,4.000000,4.000000,4.000000,4.000000,4.000000,4.000000,4.000000,4.000000,4.000000,4.000000,4.000000,4.000000,4.000000,100.000000,,,,,,,,,,,,,,,,,,,,,,,,,,,,
1703407621.944670,1703407621.945437,6.000000,0.000000,4179.487305,4151.794922,4279.487305,4227.436035,4163.846191,4166.538574,4173.846191,4166.410156,4171.153809,4161.794922,4592.307617,4463.461426,4390.897461,4470.384766,3199.000000,4.000000,76.000000,,,,0.000000,4.000000,4.000000,4.000000,4.000000,4.000000,4.000000,4.000000,4.000000,4.000000,4.000000,4.000000,4.000000,4.000000,4.000000,100.000000,,,,,,,,,,,,,,,,,,,,,,,,,,,,
1703407621.952478,1703407621.953145,7.000000,0.000000,4168.333496,4150.897461,4274.487305,4226.538574,4163.461426,4169.230957,4180.641113,4169.871582,4172.179688,4163.077148,4600.128418,4457.563965,4394.743652,4474.358887,5020.000000,4.000000,76.000000,,,,0.000000,4.000000,4.000000,4.000000,4.000000,4.000000,4.000000,4.000000,4.000000,4.000000,4.000000,4.000000,4.000000,4.000000,4.000000,100.000000,,,,,,,,,,,,,,,,,,,,,,,,,,,,
1703407621.960286,1703407621.961053,8.000000,0.000000,4172.820313,4163.333496,4278.974121,4242.179688,4174.230957,4172.051270,4186.794922,4172.051270,4171.922852,4164.102539,4602.692383,4465.512695,4397.307617,4466.538574,4787.000000,4.000000,76.000000,,,,0.000000,4.000000,4.000000,4.000000,4.000000,4.000000,4.000000,4.000000,4.000000,4.000000,4.000000,4.000000,4.000000,4.000000,4.000000,100.000000,,,,,,,,,,,,,,,,,2.000000,0.000000,0.729484,-0.116943,-0.669861,-0.073914,0.990355,-0.071786,0.083995,-15.006552,-41.453575,65.919930
1703407621.968094,1703407621.968861,9.000000,0.000000,4183.461426,4168.461426,4290.384766,4249.487305,4187.820313,4171.794922,4185.000000,4173.333496,4168.333496,4167.563965,4594.743652,4476.025879,4393.205078,4463.205078,5066.000000,4.000000,76.000000,,,,0.000000,4.000000,4.000000,4.000000,4.000000,4.000000,4.000000,4.000000,4.000000,4.000000,4.000000,4.000000,4.000000,4.000000,4.000000,100.000000,,,,,,,,,,,,,,,,,,,,,,,,,,,,
1703407621.975902,1703407621.976769,10.000000,0.000000,4173.333496,4157.179688,4293.077148,4239.871582,4171.410156,4167.820313,4181.922852,4171.025879,4168.205078,4161.794922,4597.692383,4467.692383,4389.230957,4455.512695,5903.000000,4.000000,76.000000,,,,0.000000,4.000000,4.000000,4.000000,4.000000,4.000000,4.000000,4.000000,4.000000,4.000000,4.000000,4.000000,4.000000,4.000000,4.000000,100.000000,,,,,,,,,,,,,,,,,,,,,,,,,,,,
1703407621.983710,1703407621.984577,11.000000,0.000000,4167.563965,4155.512695,4289.615234,4235.384766,4143.205078,4166.410156,4183.077148,4171.922852,4167.820313,4151.025879,4605.769043,4456.666504,4387.948730,4450.128418,6035.000000,4.000000,76.000000,,,,0.000000,4.000000,4.000000,4.000000,4.000000,4.000000,4.000000,4.000000,4.000000,4.000000,4.000000,4.000000,4.000000,4.000000,4.000000,100.000000,,,,,,,,,,,,,,,,,,,,,,,,,,,,
1703407621.991518,1703407621.992485,12.000000,0.000000,4181.922852,4165.128418,4289.102539,4240.512695,4161.922852,4168.846191,4186.282227,4183.205078,4163.205078,4155.256348,4606.153809,4462.948730,4396.025879,4469.358887,6576.000000,4.000000,76.000000,,,,0.000000,4.000000,4.000000,4.000000,4.000000,4.000000,4.000000,4.000000,4.000000,4.000000,4.000000,4.000000,4.000000,4.000000,4.000000,100.000000,,,,,,,,,,,,,,,,,3.000000,0.000000,0.729510,-0.116821,-0.669861,-0.073853,0.987425,-0.070809,0.088878,-15.122563,-41.491550,66.027939
1703407621.999326,1703407622.000294,13.000000,0.000000,4186.922852,4159.871582,4284.230957,4236.794922,4178.077148,4164.615234,4182.692383,4182.179688,4163.077148,4162.563965,4600.897461,4471.282227,4400.897461,4481.410156,7169.000000,4.000000,76.000000,,,,0.000000,4.000000,4.000000,4.000000,4.000000,4.000000,4.000000,4.000000,4.000000,4.000000,4.000000,4.000000,4.000000,4.000000,4.000000,100.000000,,,,,,,,,,,,,,,,,,,,,,,,,,,,
1703407622.007135,1703407622.008202,14.000000,0.000000,4187.051270,4157.820313,4278.461426,4229.615234,4157.179688,4162.563965,4179.230957,4171.153809,4167.436035,4156.538574,4600.897461,4471.410156,4395.512695,4481.666504,5903.000000,4.000000,76.000000,,,,0.000000,4.000000,4.000000,4.000000,4.000000,4.000000,4.000000,4.000000,4.000000,4.000000,4.000000,4.000000,4.000000,4.000000,4.000000,100.000000,,,,,,,,,,,,,,,,,,,,,,,,,,,,
1703407622.014943,1703407622.016010,15.000000,0.000000,4198.589844,4167.692383,4284.230957,4233.077148,4162.692383,4166.410156,4180.256348,4169.743652,4168.205078,4155.000000,4601.794922,4473.974121,4395.512695,4496.282227,6035.000000,4.000000,76.000000,,,,0.000000,4.000000,4.000000,4.000000,4.000000,4.000000,4.000000,4.000000,4.000000,4.000000,4.000000,4.000000,4.000000,4.000000,4.000000,100.000000,,,,,,,,,,,,,,,,,,,,,,,,,,,,
1703407622.022751,1703407622.023918,16.000000,0.000000,4210.641113,4170.641113,4296.666504,4244.102539,4187.436035,4161.922852,4176.282227,4163.974121,4161.666504,4157.436035,4601.922852,4478.461426,4400.641113,4514.871582,0.000000,4.000000,76.000000,,,,0.000000,4.000000,4.000000,4.000000,4.000000,4.000000,4.000000,4.000000,4.000000,4.000000,4.000000,4.000000,4.000000,4.000000,4.000000,100.000000,,,,,,,,,,,,,,,,,4.000000,0.000000,0.729588,-0.116760,-0.669800,-0.073730,0.977658,-0.075204,0.079111,-15.060307,-41.342396,66.225143
1703407622.030559,1703407622.031726,17.000000,0.000000,4215.000000,4173.333496,4306.153809,4247.692383,4175.769043,4153.461426,4174.871582,4154.102539,4155.384766,4154.102539,4599.871582,4479.743652,4400.897461,4522.179688,0.000000,4.000000,76.000000,,,,0.000000,4.000000,4.000000,4.000000,4.000000,4.000000,4.000000,4.000000,4.000000,4.000000,4.000000,4.000000,4.000000,4.000000,4.000000,100.000000,,,,,,,,,,,,,,,,,,,,,,,,,,,,
1703407622.038367,1703407622.039434,18.000000,0.000000,4212.436035,4175.384766,4302.307617,4239.102539,4155.769043,4153.717773,4175.897461,4161.282227,4153.974121,4150.897461,4591.153809,4473.205078,4392.948730,4516.538574,0.000000,4.000000,76.000000,,,,0.000000,4.000000,4.000000,4.000000,4.000000,4.000000,4.000000,4.000000,4.000000,4.000000,4.000000,4.000000,4.000000,4.000000,4.000000,100.000000,,,,,,,,,,,,,,,,,,,,,,,,,,,,
1703407622.046175,1703407622.047242,19.000000,0.000000,4198.846191,4167.051270,4287.692383,4234.871582,4165.384766,4157.436035,4176.794922,4171.922852,4157.436035,4150.000000,4590.256348,4462.692383,4388.589844,4504.871582,0.000000,4.000000,76.000000,,,,0.000000,4.000000,4.000000,4.000000,4.000000,4.000000,4.000000,4.000000,4.000000,4.000000,4.000000,4.000000,4.000000,4.000000,4.000000,100.000000,,,,,,,,,,,,,,,,,,,,,,,,,,,,
1703407622.053983,1703407622.054950,20.000000,0.000000,4186.922852,4166.282227,4286.410156,4244.615234,4181.666504,4156.410156,4180.512695,4171.153809,4165.256348,4160.384766,4599.871582,4461.538574,4394.871582,4501.025879,0.000000,4.000000,76.000000,,,,0.000000,4.000000,4.000000,4.000000,4.000000,4.000000,4.000000,4.000000,4.000000,4.000000,4.000000,4.000000,4.000000,4.000000,4.000000,100.000000,,,,,,,,,,,,,,,,,5.000000,0.000000,0.729549,-0.117004,-0.669800,-0.073730,0.996704,-0.072763,0.074228,-15.004276,-41.408157,66.119293
1703407622.061791,1703407622.062758,21.000000,0.000000,4193.846191,4175.384766,4292.307617,4250.512695,4164.615234,4154.871582,4178.461426,4170.128418,4170.384766,4170.769043,4600.384766,4465.512695,4391.922852,4500.000000,0.000000,4.000000,76.000000,,,,0.000000,4.000000,4.000000,4.000000,4.000000,4.000000,4.000000,4.000000,4.000000,4.000000,4.000000,4.000000,4.000000,4.000000,4.000000,100.000000,,,,,,,,,,,,,,,,,,,,,,,,,,,,
1703407622.069599,1703407622.070466,22.000000,0.000000,4202.820313,4176.153809,4291.794922,4248.974121,4141.025879,4156.410156,4175.128418,4171.538574,4166.153809,4164.487305,4593.077148,4466.153809,4382.948730,4487.179688,0.000000,4.000000,76.000000,,,,0.000000,4.000000,4.000000,4.000000,4.000000,4.000000,4.000000,4.000000,4.000000,4.000000,4.000000,4.000000,4.000000,4.000000,4.000000,100.000000,,,,,,,,,,,,,,,,,,,,,,,,,,,,
1703407622.077407,1703407622.078274,23.000000,0.000000,4193.461426,4173.717773,4298.461426,4250.769043,4162.692383,4157.051270,4179.358887,4171.794922,4160.000000,4156.410156,4593.974121,4468.974121,4392.051270,4475.256348,0.000000,4.000000,76.000000,,,,0.000000,4.000000,4.000000,4.000000,4.000000,4.000000,4.000000,4.000000,4.000000,4.000000,4.000000,4.000000,4.000000,4.000000,4.000000,100.000000,1.000000,83.333336,4.000000,4.000000,4.000000,4.000000,3.000000,3.000000,4.000000,4.000000,4.000000,4.000000,4.000000,4.000000,4.000000,4.000000,,,,,,,,,,,,
1703407622.085215,1703407622.085982,24.000000,0.000000,4181.153809,4172.563965,4303.846191,4249.230957,4187.436035,4153.589844,4176.410156,4172.051270,4154.102539,4154.871582,4598.589844,4467.948730,4398.717773,4474.487305,0.000000,4.000000,76.000000,,,,0.000000,4.000000,4.000000,4.000000,4.000000,4.000000,4.000000,4.000000,4.000000,4.000000,4.000000,4.000000,4.000000,4.000000,4.000000,100.000000,,,,,,,,,,,,,,,,,6.000000,0.000000,0.729514,-0.117188,-0.669800,-0.073792,0.988402,-0.069833,0.076181,-14.870515,-41.384007,66.140701
1703407622.093023,1703407622.093790,25.000000,0.000000,4180.897461,4168.461426,4293.077148,4239.358887,4174.230957,4149.102539,4167.307617,4169.871582,4153.077148,4156.922852,4599.743652,4455.641113,4386.282227,4473.589844,0.000000,4.000000,76.000000,,,,0.000000,4.000000,4.000000,4.000000,4.000000,4.000000,4.000000,4.000000,4.000000,4.000000,4.000000,4.000000,4.000000,4.000000,4.000000,100.000000,,,,,,,,,,,,,,,,,,,,,,,,,,,,
1703407622.100831,1703407622.101498,26.000000,0.000000,4175.512695,4168.589844,4282.051270,4232.051270,4161.666504,4150.256348,4171.538574,4171.153809,4167.436035,4167.692383,4600.769043,4446.794922,4385.641113,4463.333496,0.000000,4.000000,76.000000,,,,0.000000,4.000000,4.000000,4.000000,4.000000,4.000000,4.000000,4.000000,4.000000,4.000000,4.000000,4.000000,4.000000,4.000000,4.000000,100.000000,,,,,,,,,,,,,,,,,,,,,,,,,,,,
1703407622.108639,1703407622.109306,27.000000,0.000000,4167.563965,4169.487305,4286.794922,4236.410156,4171.282227,4152.820313,4174.487305,4174.615234,4169.358887,4177.820313,4601.282227,4448.974121,4397.436035,4456.410156,0.000000,4.000000,76.000000,,,,0.000000,4.000000,4.000000,4.000000,4.000000,4.000000,4.000000,4.000000,4.000000,4.000000,4.000000,4.000000,4.000000,4.000000,4.000000,100.000000,,,,,,,,,,,,,,,,,,,,,,,,,,,,
1703407622.116447,1703407622.117014,28.000000,0.000000,4169.487305,4160.897461,4289.358887,4238.461426,4168.974121,4149.743652,4169.102539,4166.538574,4167.436035,4174.102539,4600.641113,4448.717773,4392.692383,4457.692383,0.000000,4.000000,76.000000,,,,0.000000,4.000000,4.000000,4.000000,4.000000,4.000000,4.000000,4.000000,4.000000,4.000000,4.000000,4.000000,4.000000,4.000000,4.000000,100.000000,,,,,,,,,,,,,,,,,7.000000,0.000000,0.729437,-0.117004,-0.669922,-0.073730,0.985960,-0.055671,0.077158,-14.800130,-41.362274,66.043297
1703407622.124255,1703407622.124822,29.000000,0.000000,4167.692383,4156.025879,4284.102539,4226.025879,4147.948730,4142.948730,4169.358887,4158.717773,4185.769043,4166.794922,4598.846191,4444.615234,4382.948730,4454.487305,0.000000,4.000000,76.000000,,,,0.000000,4.000000,4.000000,4.000000,4.000000,4.000000,4.000000,4.000000,4.000000,4.000000,4.000000,4.000000,4.000000,4.000000,4.000000,100.000000,,,,,,,,,,,,,,,,,,,,,,,,,,,,
1703407622.132063,1703407622.132530,30.000000,0.000000,4176.538574,4166.794922,4291.538574,4232.948730,4146.538574,4138.846191,4171.794922,4164.230957,4172.948730,4164.615234,4599.871582,4455.897461,4392.307617,4469.871582,0.000000,4.000000,76.000000,,,,0.000000,4.000000,4.000000,4.000000,4.000000,4.000000,4.000000,4.000000,4.000000,4.000000,4.000000,4.000000,4.000000,4.000000,4.000000,100.000000,,,,,,,,,,,,,,,,,,,,,,,,,,,,
1703407622.139871,1703407622.140338,31.000000,0.000000,4201.666504,4179.230957,4301.025879,4257.948730,4170.641113,4137.948730,4171.538574,4170.128418,4132.563965,4168.205078,4606.282227,4470.000000,4404.487305,4498.717773,0.000000,4.000000,76.000000,,,,0.000000,4.000000,4.000000,4.000000,4.000000,4.000000,4.000000,4.000000,4.000000,4.000000,4.000000,4.000000,4.000000,4.000000,4.000000,100.000000,,,,,,,,,,,,,,,,,,,,,,,,,,,,
1703407622.147679,1703407622.148046,32.000000,0.000000,4203.333496,4175.128418,4288.974121,4254.615234,4179.615234,4136.666504,4171.025879,4169.615234,4137.179688,4172.051270,4608.333496,4466.410156,4402.820313,4496.666504,0.000000,4.000000,76.000000,,,,0.000000,4.000000,4.000000,4.000000,4.000000,4.000000,4.000000,4.000000,4.000000,4.000000,4.000000,4.000000,4.000000,4.000000,4.000000,100.000000,,,,,,,,,,,,,,,,,8.000000,0.000000,0.729288,-0.116882,-0.670105,-0.073730,1.002564,-0.069833,0.080576,-14.886784,-41.326046,65.888962
1703407622.155487,1703407622.155954,33.000000,0.000000,4178.974121,4163.333496,4272.436035,4233.974121,4164.102539,4137.563965,4173.333496,4172.051270,4164.615234,4166.794922,4601.538574,4458.205078,4395.256348,4485.897461,0.000000,4.000000,76.000000,,,,0.000000,4.000000,4.000000,4.000000,4.000000,4.000000,4.000000,4.000000,4.000000,4.000000,4.000000,4.000000,4.000000,4.000000,4.000000,100.000000,,,,,,,,,,,,,,,,,,,,,,,,,,,,
1703407622.163295,1703407622.163763,34.000000,0.000000,4170.000000,4163.333496,4271.538574,4232.436035,4169.230957,4141.282227,4173.205078,4169.487305,4156.282227,4158.077148,4598.717773,4449.871582,4390.769043,4492.692383,0.000000,4.000000,76.000000,,,,0.000000,4.000000,4.000000,4.000000,4.000000,4.000000,4.000000,4.000000,4.000000,4.000000,4.000000,4.000000,4.000000,4.000000,4.000000,100.000000,,,,,,,,,,,,,,,,,,,,,,,,,,,,
1703407622.171103,1703407622.171671,35.000000,0.000000,4172.563965,4163.077148,4271.025879,4232.179688,4171.538574,4138.205078,4168.077148,4157.436035,4146.282227,4152.179688,4594.871582,4437.307617,4384.871582,4480.641113,0.000000,4.000000,76.000000,,,,0.000000,4.000000,4.000000,4.000000,4.000000,4.000000,4.000000,4.000000,4.000000,4.000000,4.000000,4.000000,4.000000,4.000000,4.000000,100.000000,,,,,,,,,,,,,,,,,,,,,,,,,,,,
1703407622.178912,1703407622.179479,36.000000,0.000000,4165.641113,4159.358887,4275.256348,4228.205078,4151.666504,4128.846191,4165.769043,4156.666504,4160.256348,4156.538574,4593.717773,4440.897461,4384.102539,4461.794922,0.000000,4.000000,76.000000,,,,0.000000,4.000000,4.000000,4.000000,4.000000,4.000000,4.000000,4.000000,4.000000,4.000000,4.000000,4.000000,4.000000,4.000000,4.000000,100.000000,,,,,,,,,,,,,,,,,9.000000,0.000000,0.729189,-0.116882,-0.670227,-0.073608,0.987914,-0.074228,0.082041,-14.881439,-41.260109,65.883400
1703407622.186720,1703407622.187387,37.000000,0.000000,4172.692383,4166.666504,4294.102539,4241.922852,4159.743652,4125.897461,4166.410156,4165.769043,4169.615234,4169.615234,4611.282227,4461.410156,4395.128418,4472.436035,0.000000,4.000000,76.000000,,,,0.000000,4.000000,4.000000,4.000000,4.000000,4.000000,4.000000,4.000000,4.000000,4.000000,4.000000,4.000000,4.000000,4.000000,4.000000,100.000000,,,,,,,,,,,,,,,,,,,,,,,,,,,,
1703407622.194528,1703407622.195195,38.000000,0.000000,4186.410156,4178.077148,4298.077148,4253.846191,4176.922852,4125.128418,4166.282227,4171.538574,4165.256348,4171.794922,4621.025879,4465.512695,4396.922852,4478.846191,0.000000,4.000000,76.000000,,,,0.000000,4.000000,4.000000,4.000000,4.000000,4.000000,4.000000,4.000000,4.000000,4.000000,4.000000,4.000000,4.000000,4.000000,4.000000,100.000000,,,,,,,,,,,,,,,,,,,,,,,,,,,,
1703407622.202336,1703407622.203103,39.000000,0.000000,4169.871582,4172.436035,4282.692383,4245.256348,4162.948730,4119.743652,4165.897461,4168.589844,4159.358887,4163.333496,4607.179688,4450.000000,4384.102539,4459.487305,0.000000,4.000000,76.000000,,,,0.000000,4.000000,4.000000,4.000000,4.000000,4.000000,4.000000,4.000000,4.000000,4.000000,4.000000,4.000000,4.000000,4.000000,4.000000,100.000000,,,,,,,,,,,,,,,,,,,,,,,,,,,,
1703407622.210144,1703407622.210912,40.000000,0.000000,4147.563965,4155.000000,4272.436035,4232.436035,4144.230957,4127.179688,4166.282227,4158.461426,4161.538574,4159.615234,4592.692383,4438.846191,4375.128418,4443.077148,0.000000,4.000000,76.000000,,,,0.000000,4.000000,4.000000,4.000000,4.000000,4.000000,4.000000,4.000000,4.000000,4.000000,4.000000,4.000000,4.000000,4.000000,4.000000,100.000000,,,,,,,,,,,,,,,,,10.000000,0.000000,0.729135,-0.116943,-0.670288,-0.073486,0.979612,-0.070321,0.081065,-14.893295,-41.134098,65.728394
1703407622.217952,1703407622.218820,41.000000,0.000000,4156.666504,4151.666504,4273.974121,4229.871582,4141.282227,4138.974121,4168.846191,4157.948730,4158.077148,4156.794922,4592.436035,4438.077148,4374.358887,4448.974121,0.000000,4.000000,76.000000,,,,0.000000,4.000000,4.000000,4.000000,4.000000,4.000000,4.000000,4.000000,4.000000,4.000000,4.000000,4.000000,4.000000,4.000000,4.000000,100.000000,,,,,,,,,,,,,,,,,,,,,,,,,,,,
1703407622.225760,1703407622.226628,42.000000,0.000000,4173.077148,4162.692383,4283.077148,4236.922852,4149.615234,4132.307617,4172.179688,4168.461426,4151.538574,4152.307617,4595.000000,4442.820313,4376.153809,4458.846191,0.000000,4.000000,76.000000,,,,0.000000,4.000000,4.000000,4.000000,4.000000,4.000000,4.000000,4.000000,4.000000,4.000000,4.000000,4.000000,4.000000,4.000000,4.000000,100.000000,,,,,,,,,,,,,,,,,,,,,,,,,,,,
1703407622.233568,1703407622.234336,43.000000,0.000000,4173.205078,4168.846191,4290.897461,4239.358887,4159.871582,4127.179688,4171.153809,4164.487305,4152.692383,4152.307617,4590.256348,4444.358887,4377.820313,4457.692383,0.000000,4.000000,76.000000,,,,0.000000,4.000000,4.000000,4.000000,4.000000,4.000000,4.000000,4.000000,4.000000,4.000000,4.000000,4.000000,4.000000,4.000000,4.000000,100.000000,,,,,,,,,,,,,,,,,,,,,,,,,,,,
1703407622.241376,1703407622.242144,44.000000,0.000000,4175.128418,4162.948730,4286.282227,4231.794922,4158.717773,4135.128418,4168.846191,4150.384766,4152.948730,4152.820313,4583.846191,4438.974121,4376.666504,4463.589844,0.000000,4.000000,76.000000,,,,0.000000,4.000000,4.000000,4.000000,4.000000,4.000000,4.000000,4.000000,4.000000,4.000000,4.000000,4.000000,4.000000,4.000000,4.000000,100.000000,,,,,,,,,,,,,,,,,11.000000,0.000000,0.729089,-0.116882,-0.670349,-0.073486,0.980100,-0.063973,0.075693,-14.820632,-41.020687,65.788887
1703407622.249184,1703407622.249852,45.000000,0.000000,4191.666504,4164.615234,4284.615234,4235.384766,4157.307617,4134.615234,4169.102539,4157.820313,4158.589844,4157.179688,4593.333496,4443.461426,4382.051270,4486.410156,0.000000,4.000000,76.000000,,,,0.000000,4.000000,4.000000,4.000000,4.000000,4.000000,4.000000,4.000000,4.000000,4.000000,4.000000,4.000000,4.000000,4.000000,4.000000,100.000000,,,,,,,,,,,,,,,,,,,,,,,,,,,,
1703407622.256992,1703407622.257660,46.000000,0.000000,4204.230957,4177.820313,4298.333496,4250.384766,4173.333496,4128.974121,4169.871582,4174.487305,4170.897461,4172.051270,4615.769043,4466.153809,4399.487305,4503.974121,0.000000,4.000000,76.000000,,,,0.000000,4.000000,4.000000,4.000000,4.000000,4.000000,4.000000,4.000000,4.000000,4.000000,4.000000,4.000000,4.000000,4.000000,4.000000,100.000000,,,,,,,,,,,,,,,,,,,,,,,,,,,,
1703407622.264800,1703407622.265368,47.000000,0.000000,4201.922852,4177.692383,4302.948730,4250.769043,4172.307617,4133.461426,4170.000000,4174.743652,4170.000000,4175.897461,4615.128418,4477.051270,4401.922852,4504.871582,0.000000,4.000000,76.000000,,,,0.000000,4.000000,4.000000,4.000000,4.000000,4.000000,4.000000,4.000000,4.000000,4.000000,4.000000,4.000000,4.000000,4.000000,4.000000,100.000000,,,,,,,,,,,,,,,,,,,,,,,,,,,,
1703407622.272608,1703407622.273176,48.000000,0.000000,4198.589844,4169.615234,4292.563965,4242.692383,4154.743652,4137.179688,4168.717773,4169.487305,4158.205078,4162.179688,4602.563965,4464.102539,4387.563965,4510.128418,0.000000,4.000000,76.000000,,,,0.000000,4.000000,4.000000,4.000000,4.000000,4.000000,4.000000,4.000000,4.000000,4.000000,4.000000,4.000000,4.000000,4.000000,4.000000,100.000000,,,,,,,,,,,,,,,,,12.000000,0.000000,0.729133,-0.116882,-0.670288,-0.073608,0.999634,-0.071298,0.068856,-14.905235,-41.018620,65.793335
1703407622.280416,1703407622.280884,49.000000,0.000000,4194.358887,4168.333496,4286.794922,4244.743652,4163.717773,4136.282227,4168.974121,4168.205078,4153.846191,4158.333496,4606.025879,4456.025879,4384.743652,4507.948730,0.000000,4.000000,76.000000,,,,0.000000,4.000000,4.000000,4.000000,4.000000,4.000000,4.000000,4.000000,4.000000,4.000000,4.000000,4.000000,4.000000,4.000000,4.000000,100.000000,,,,,,,,,,,,,,,,,,,,,,,,,,,,
1703407622.288224,1703407622.288692,50.000000,0.000000,4185.641113,4165.769043,4288.205078,4245.256348,4167.436035,4137.820313,4170.128418,4171.025879,4155.128418,4168.461426,4611.025879,4467.051270,4388.974121,4495.000000,0.000000,4.000000,76.000000,,,,0.000000,4.000000,4.000000,4.000000,4.000000,4.000000,4.000000,4.000000,4.000000,4.000000,4.000000,4.000000,4.000000,4.000000,4.000000,100.000000,,,,,,,,,,,,,,,,,,,,,,,,,,,,
1703407622.296032,1703407622.296400,51.000000,0.000000,4184.230957,4157.436035,4290.128418,4235.769043,4147.948730,4138.077148,4168.717773,4168.974121,4157.563965,4169.743652,4604.743652,4466.282227,4381.282227,4488.077148,0.000000,4.000000,76.000000,,,,0.000000,4.000000,4.000000,4.000000,4.000000,4.000000,4.000000,4.000000,4.000000,4.000000,4.000000,4.000000,4.000000,4.000000,4.000000,100.000000,,,,,,,,,,,,,,,,,,,,,,,,,,,,
1703407622.303840,1703407622.304308,52.000000,0.000000,4178.717773,4151.153809,4286.538574,4226.922852,4157.948730,4133.205078,4167.563965,4158.846191,4156.666504,4154.743652,4594.487305,4445.128418,4371.282227,4480.256348,0.000000,4.000000,76.000000,,,,0.000000,4.000000,4.000000,4.000000,4.000000,4.000000,4.000000,4.000000,4.000000,4.000000,4.000000,4.000000,4.000000,4.000000,4.000000,100.000000,,,,,,,,,,,,,,,,,13.000000,0.000000,0.729067,-0.116943,-0.670349,-0.073608,0.990355,-0.054206,0.075204,-14.898046,-40.933422,65.797333
1703407622.311648,1703407622.312117,53.000000,0.000000,4171.410156,4152.436035,4279.871582,4232.563965,4187.692383,4126.025879,4169.230957,4159.871582,4151.538574,4150.641113,4597.179688,4441.922852,4376.922852,4473.205078,0.000000,4.000000,76.000000,,,,0.000000,4.000000,4.000000,4.000000,4.000000,4.000000,4.000000,4.000000,4.000000,4.000000,4.000000,4.000000,4.000000,4.000000,4.000000,100.000000,,,,,,,,,,,,,,,,,,,,,,,,,,,,
1703407622.319456,1703407622.320025,54.000000,0.000000,4181.666504,4158.205078,4273.589844,4243.846191,4184.358887,4129.487305,4170.384766,4171.410156,4151.666504,4164.615234,4605.769043,4454.615234,4386.922852,4474.743652,0.000000,4.000000,76.000000,,,,0.000000,4.000000,4.000000,4.000000,4.000000,4.000000,4.000000,4.000000,4.000000,4.000000,4.000000,4.000000,4.000000,4.000000,4.000000,100.000000,,,,,,,,,,,,,,,,,,,,,,,,,,,,
1703407622.327264,1703407622.327833,55.000000,0.000000,4185.769043,4159.743652,4267.563965,4242.051270,4155.512695,4136.025879,4169.487305,4167.307617,4154.615234,4165.512695,4601.922852,4448.846191,4385.000000,4477.307617,0.000000,4.000000,76.000000,,,,0.000000,4.000000,4.000000,4.000000,4.000000,4.000000,4.000000,4.000000,4.000000,4.000000,4.000000,4.000000,4.000000,4.000000,4.000000,100.000000,,,,,,,,,,,,,,,,,,,,,,,,,,,,
1703407622.335072,1703407622.335741,56.000000,0.000000,4174.487305,4156.666504,4269.615234,4231.922852,4148.461426,4132.307617,4168.077148,4158.974121,4156.794922,4160.000000,4602.051270,4440.641113,4386.025879,4482.436035,0.000000,4.000000,76.000000,,,,0.000000,4.000000,4.000000,4.000000,4.000000,4.000000,4.000000,4.000000,4.000000,4.000000,4.000000,4.000000,4.000000,4.000000,4.000000,100.000000,,,,,,,,,,,,,,,,,14.000000,0.000000,0.729117,-0.116943,-0.670288,-0.073669,0.987914,-0.075204,0.069833,-14.774907,-40.840080,65.850937
1703407622.342880,1703407622.343550,57.000000,0.000000,4177.820313,4158.333496,4275.000000,4230.897461,4162.820313,4133.974121,4169.615234,4166.153809,4154.871582,4166.282227,4607.307617,4450.256348,4392.692383,4495.384766,0.000000,4.000000,76.000000,,,,0.000000,4.000000,4.000000,4.000000,4.000000,4.000000,4.000000,4.000000,4.000000,4.000000,4.000000,4.000000,4.000000,4.000000,4.000000,100.000000,,,,,,,,,,,,,,,,,,,,,,,,,,,,
1703407622.350689,1703407622.351458,58.000000,0.000000,4190.000000,4162.307617,4267.948730,4236.922852,4163.717773,4143.077148,4174.358887,4172.692383,4155.769043,4171.666504,4603.077148,4452.948730,4387.179688,4495.897461,0.000000,4.000000,76.000000,,,,0.000000,4.000000,4.000000,4.000000,4.000000,4.000000,4.000000,4.000000,4.000000,4.000000,4.000000,4.000000,4.000000,4.000000,4.000000,100.000000,,,,,,,,,,,,,,,,,,,,,,,,,,,,
1703407622.358497,1703407622.359266,59.000000,0.000000,4185.128418,4157.436035,4259.615234,4229.871582,4153.461426,4141.538574,4174.102539,4170.000000,4167.948730,4168.461426,4601.025879,4443.846191,4380.641113,4486.153809,0.000000,4.000000,76.000000,,,,0.000000,4.000000,4.000000,4.000000,4.000000,4.000000,4.000000,4.000000,4.000000,4.000000,4.000000,4.000000,4.000000,4.000000,4.000000,100.000000,,,,,,,,,,,,,,,,,,,,,,,,,,,,
1703407622.366305,1703407622.367174,60.000000,0.000000,4178.205078,4156.794922,4267.820313,4223.205078,4167.692383,4135.128418,4170.384766,4172.179688,4176.538574,4171.025879,4612.948730,4451.153809,4393.461426,4493.717773,0.000000,4.000000,76.000000,,,,0.000000,4.000000,4.000000,4.000000,4.000000,4.000000,4.000000,4.000000,4.000000,4.000000,4.000000,4.000000,4.000000,4.000000,4.000000,100.000000,,,,,,,,,,,,,,,,,15.000000,0.000000,0.729064,-0.116882,-0.670349,-0.073730,0.996215,-0.070809,0.078623,-14.880750,-40.872742,65.815842
1703407622.374112,1703407622.374982,61.000000,0.000000,4182.307617,4168.589844,4274.743652,4237.436035,4195.128418,4136.282227,4171.410156,4175.256348,4159.743652,4168.461426,4616.410156,4460.512695,4404.102539,4511.410156,0.000000,4.000000,76.000000,,,,0.000000,4.000000,4.000000,4.000000,4.000000,4.000000,4.000000,4.000000,4.000000,4.000000,4.000000,4.000000,4.000000,4.000000,4.000000,100.000000,,,,,,,,,,,,,,,,,,,,,,,,,,,,
1703407622.381921,1703407622.382890,62.000000,0.000000,4189.615234,4168.974121,4270.384766,4248.846191,4186.794922,4137.692383,4170.512695,4164.871582,4138.846191,4154.102539,4603.205078,4451.794922,4392.051270,4513.846191,0.000000,4.000000,76.000000,,,,0.000000,4.000000,4.000000,4.000000,4.000000,4.000000,4.000000,4.000000,4.000000,4.000000,4.000000,4.000000,4.000000,4.000000,4.000000,100.000000,,,,,,,,,,,,,,,,,,,,,,,,,,,,
1703407622.389729,1703407622.390698,63.000000,0.000000,4192.307617,4155.128418,4268.717773,4237.436035,4164.743652,4136.538574,4166.153809,4154.102539,4147.436035,4157.307617,4595.384766,4444.230957,4378.974121,4497.436035,0.000000,4.000000,76.000000,,,,0.000000,4.000000,4.000000,4.000000,4.000000,4.000000,4.000000,4.000000,4.000000,4.000000,4.000000,4.000000,4.000000,4.000000,4.000000,100.000000,,,,,,,,,,,,,,,,,,,,,,,,,,,,
1703407622.397537,1703407622.398607,64.000000,0.000000,4179.230957,4151.282227,4273.205078,4228.077148,4164.102539,4136.922852,4167.820313,4160.769043,4161.794922,4170.128418,4599.743652,4448.461426,4380.512695,4488.333496,4674.000000,4.000000,76.000000,,,,0.000000,4.000000,4.000000,4.000000,4.000000,4.000000,4.000000,4.000000,4.000000,4.000000,4.000000,4.000000,4.000000,4.000000,4.000000,100.000000,,,,,,,,,,,,,,,,,16.000000,0.000000,0.728962,-0.116821,-0.670471,-0.073730,0.984984,-0.062996,0.070809,-14.959342,-40.885468,65.850922
1703407622.405345,1703407622.406415,65.000000,0.000000,4176.282227,4163.205078,4281.794922,4243.461426,4180.641113,4137.436035,4171.922852,4172.563965,4155.769043,4166.410156,4606.922852,4453.205078,4388.205078,4500.641113,5440.000000,4.000000,76.000000,,,,0.000000,4.000000,4.000000,4.000000,4.000000,4.000000,4.000000,4.000000,4.000000,4.000000,4.000000,4.000000,4.000000,4.000000,4.000000,100.000000,,,,,,,,,,,,,,,,,,,,,,,,,,,,
1703407622.413153,1703407622.414223,66.000000,0.000000,4192.563965,4166.922852,4287.563965,4248.333496,4183.461426,4137.820313,4170.384766,4164.102539,4147.436035,4154.615234,4607.051270,4450.897461,4389.102539,4504.871582,5247.000000,4.000000,76.000000,,,,0.000000,4.000000,4.000000,4.000000,4.000000,4.000000,4.000000,4.000000,4.000000,4.000000,4.000000,4.000000,4.000000,4.000000,4.000000,100.000000,,,,,,,,,,,,,,,,,,,,,,,,,,,,
1703407622.420961,1703407622.422031,67.000000,0.000000,4192.179688,4157.051270,4286.538574,4237.563965,4168.333496,4138.205078,4168.333496,4157.436035,4153.333496,4158.974121,4606.666504,4453.077148,4387.179688,4493.589844,5320.000000,4.000000,76.000000,,,,0.000000,4.000000,4.000000,4.000000,4.000000,4.000000,4.000000,4.000000,4.000000,4.000000,4.000000,4.000000,4.000000,4.000000,4.000000,100.000000,,,,,,,,,,,,,,,,,,,,,,,,,,,,
1703407622.428769,1703407622.429739,68.000000,0.000000,4174.102539,4155.000000,4283.717773,4237.436035,4175.128418,4137.692383,4169.615234,4165.512695,4159.487305,4169.615234,4612.692383,4458.205078,4387.563965,4489.871582,5086.000000,4.000000,76.000000,,,,0.000000,4.000000,4.000000,4.000000,4.000000,4.000000,4.000000,4.000000,4.000000,4.000000,4.000000,4.000000,4.000000,4.000000,4.000000,100.000000,,,,,,,,,,,,,,,,,17.000000,0.000000,0.729213,-0.116577,-0.670227,-0.073853,0.993285,-0.068856,0.081553,-14.863407,-40.863586,65.849167
1703407622.436577,1703407622.437547,69.000000,0.000000,4166.025879,4155.000000,4274.487305,4238.717773,4173.077148,4138.205078,4168.974121,4159.358887,4152.563965,4161.666504,4602.948730,4445.512695,4378.205078,4479.487305,4525.000000,4.000000,76.000000,,,,0.000000,4.000000,4.000000,4.000000,4.000000,4.000000,4.000000,4.000000,4.000000,4.000000,4.000000,4.000000,4.000000,4.000000,4.000000,100.000000,,,,,,,,,,,,,,,,,,,,,,,,,,,,
1703407622.444385,1703407622.445255,70.000000,0.000000,4168.974121,4152.179688,4269.487305,4232.436035,4151.922852,4138.077148,4169.358887,4152.820313,4145.897461,4155.128418,4590.256348,4435.384766,4368.846191,4461.794922,3201.000000,4.000000,76.000000,,,,0.000000,4.000000,4.000000,4.000000,4.000000,4.000000,4.000000,4.000000,4.000000,4.000000,4.000000,4.000000,4.000000,4.000000,4.000000,100.000000,,,,,,,,,,,,,,,,,,,,,,,,,,,,
1703407622.452193,1703407622.453163,71.000000,0.000000,4169.358887,4152.436035,4276.410156,4231.666504,4163.846191,4137.179688,4171.666504,4165.512695,4151.410156,4166.153809,4601.666504,4448.589844,4376.922852,4466.025879,5015.000000,4.000000,76.000000,,,,0.000000,4.000000,4.000000,4.000000,4.000000,4.000000,4.000000,4.000000,4.000000,4.000000,4.000000,4.000000,4.000000,4.000000,4.000000,100.000000,,,,,,,,,,,,,,,,,,,,,,,,,,,,
1703407622.460001,1703407622.460972,72.000000,0.000000,4167.820313,4149.743652,4274.358887,4235.000000,4173.205078,4134.743652,4169.230957,4171.538574,4162.820313,4164.615234,4615.128418,4455.384766,4388.717773,4479.487305,4776.000000,4.000000,76.000000,,,,0.000000,4.000000,4.000000,4.000000,4.000000,4.000000,4.000000,4.000000,4.000000,4.000000,4.000000,4.000000,4.000000,4.000000,4.000000,100.000000,,,,,,,,,,,,,,,,,18.000000,0.000000,0.729283,-0.116760,-0.670105,-0.073975,0.991820,-0.066414,0.081553,-14.677067,-40.877228,65.847580
1703407622.467809,1703407622.468780,73.000000,0.000000,4165.128418,4143.077148,4264.615234,4230.512695,4155.641113,4136.025879,4171.922852,4167.948730,4170.769043,4154.230957,4613.205078,4442.307617,4387.948730,4475.128418,5060.000000,4.000000,76.000000,,,,0.000000,4.000000,4.000000,4.000000,4.000000,4.000000,4.000000,4.000000,4.000000,4.000000,4.000000,4.000000,4.000000,4.000000,4.000000,100.000000,,,,,,,,,,,,,,,,,,,,,,,,,,,,
1703407622.475617,1703407622.476488,74.000000,0.000000,4165.384766,4144.102539,4268.205078,4232.948730,4166.282227,4146.282227,4176.153809,4173.846191,4168.589844,4167.948730,4613.077148,4445.384766,4388.205078,4469.487305,5906.000000,4.000000,76.000000,,,,0.000000,4.000000,4.000000,4.000000,4.000000,4.000000,4.000000,4.000000,4.000000,4.000000,4.000000,4.000000,4.000000,4.000000,4.000000,100.000000,,,,,,,,,,,,,,,,,,,,,,,,,,,,
1703407622.483425,1703407622.484296,75.000000,0.000000,4176.410156,4149.487305,4272.051270,4241.410156,4178.205078,4155.256348,4174.102539,4177.436035,4156.922852,4179.102539,4617.692383,4456.922852,4393.717773,4483.974121,6040.000000,4.000000,76.000000,,,,0.000000,4.000000,4.000000,4.000000,4.000000,4.000000,4.000000,4.000000,4.000000,4.000000,4.000000,4.000000,4.000000,4.000000,4.000000,100.000000,,,,,,,,,,,,,,,,,,,,,,,,,,,,
1703407622.491233,1703407622.492004,76.000000,0.000000,4183.717773,4143.846191,4264.871582,4236.538574,4155.384766,4161.153809,4176.410156,4169.102539,4149.743652,4165.641113,4608.589844,4446.922852,4384.358887,4494.871582,6586.000000,4.000000,76.000000,,,,0.000000,4.000000,4.000000,4.000000,4.000000,4.000000,4.000000,4.000000,4.000000,4.000000,4.000000,4.000000,4.000000,4.000000,4.000000,100.000000,,,,,,,,,,,,,,,,,19.000000,0.000000,0.729295,-0.117310,-0.669983,-0.074097,0.980100,-0.047369,0.079600,-14.642694,-40.939503,65.879486
1703407622.499041,1703407622.499812,77.000000,0.000000,4185.897461,4144.871582,4271.666504,4233.333496,4167.820313,4170.256348,4180.256348,4168.974121,4158.461426,4163.589844,4604.230957,4446.666504,4378.717773,4496.922852,7175.000000,4.000000,76.000000,,,,0.000000,4.000000,4.000000,4.000000,4.000000,4.000000,4.000000,4.000000,4.000000,4.000000,4.000000,4.000000,4.000000,4.000000,4.000000,100.000000,,,,,,,,,,,,,,,,,,,,,,,,,,,,
1703407622.506849,1703407622.507520,78.000000,0.000000,4194.615234,4153.974121,4285.384766,4238.717773,4197.692383,4175.256348,4174.358887,4168.461426,4161.410156,4170.128418,4610.384766,4458.846191,4388.846191,4505.769043,5906.000000,4.000000,76.000000,,,,0.000000,4.000000,4.000000,4.000000,4.000000,4.000000,4.000000,4.000000,4.000000,4.000000,4.000000,4.000000,4.000000,4.000000,4.000000,100.000000,,,,,,,,,,,,,,,,,,,,,,,,,,,,
1703407622.514657,1703407622.515328,79.000000,0.000000,4203.205078,4148.077148,4281.410156,4239.102539,4169.615234,4170.128418,4166.794922,4157.563965,4146.282227,4161.282227,4604.358887,4449.102539,4388.077148,4515.641113,6040.000000,4.000000,76.000000,,,,0.000000,4.000000,4.000000,4.000000,4.000000,4.000000,4.000000,4.000000,4.000000,4.000000,4.000000,4.000000,4.000000,4.000000,4.000000,100.000000,,,,,,,,,,,,,,,,,,,,,,,,,,,,
1703407622.522465,1703407622.523036,80.000000,0.000000,4204.358887,4143.461426,4280.897461,4241.153809,4147.692383,4169.615234,4171.666504,4158.333496,4153.974121,4162.307617,4605.512695,4444.743652,4382.948730,4517.948730,6586.000000,4.000000,76.000000,,,,0.000000,4.000000,4.000000,4.000000,4.000000,4.000000,4.000000,4.000000,4.000000,4.000000,4.000000,4.000000,4.000000,4.000000,4.000000,100.000000,,,,,,,,,,,,,,,,,20.000000,0.000000,0.729279,-0.117371,-0.669983,-0.074158,0.989379,-0.065926,0.068856,-14.811757,-40.928886,65.924873
1703407622.530274,1703407622.530844,81.000000,0.000000,4198.974121,4152.692383,4287.948730,4243.974121,4171.282227,4178.717773,4181.666504,4170.769043,4171.538574,4174.102539,4616.282227,4459.743652,4393.717773,4515.641113,7175.000000,4.000000,76.000000,,,,0.000000,4.000000,4.000000,4.000000,4.000000,4.000000,4.000000,4.000000,4.000000,4.000000,4.000000,4.000000,4.000000,4.000000,4.000000,100.000000,,,,,,,,,,,,,,,,,,,,,,,,,,,,
1703407622.538082,1703407622.538552,82.000000,0.000000,4192.307617,4154.102539,4284.102539,4235.256348,4164.102539,4183.461426,4185.000000,4170.000000,4150.128418,4163.974121,4608.589844,4453.846191,4396.025879,4508.205078,5906.000000,4.000000,76.000000,,,,0.000000,4.000000,4.000000,4.000000,4.000000,4.000000,4.000000,4.000000,4.000000,4.000000,4.000000,4.000000,4.000000,4.000000,4.000000,100.000000,,,,,,,,,,,,,,,,,,,,,,,,,,,,
1703407622.545890,1703407622.546460,83.000000,0.000000,4187.179688,4147.948730,4284.871582,4234.487305,4137.948730,4182.692383,4184.615234,4165.512695,4130.256348,4154.358887,4603.717773,4438.589844,4388.717773,4497.307617,6040.000000,4.000000,76.000000,,,,0.000000,4.000000,4.000000,4.000000,4.000000,4.000000,4.000000,4.000000,4.000000,4.000000,4.000000,4.000000,4.000000,4.000000,4.000000,100.000000,,,,,,,,,,,,,,,,,,,,,,,,,,,,
1703407622.553698,1703407622.554268,84.000000,0.000000,4185.769043,4149.102539,4299.230957,4246.282227,4161.025879,4179.871582,4184.230957,4170.769043,4150.128418,4166.794922,4615.256348,4448.717773,4395.000000,4495.128418,6586.000000,4.000000,76.000000,,,,0.000000,4.000000,4.000000,4.000000,4.000000,4.000000,4.000000,4.000000,4.000000,4.000000,4.000000,4.000000,4.000000,4.000000,4.000000,100.000000,,,,,,,,,,,,,,,,,21.000000,0.000000,0.729349,-0.117126,-0.669983,-0.073853,0.997192,-0.079111,0.082041,-14.730581,-41.019333,66.065720
1703407622.561506,1703407622.562176,85.000000,0.000000,4183.717773,4146.282227,4301.794922,4244.487305,4170.512695,4173.974121,4181.538574,4169.230957,4162.820313,4170.128418,4608.717773,4451.666504,4395.641113,4490.512695,7175.000000,4.000000,76.000000,,,,0.000000,4.000000,4.000000,4.000000,4.000000,4.000000,4.000000,4.000000,4.000000,4.000000,4.000000,4.000000,4.000000,4.000000,4.000000,100.000000,,,,,,,,,,,,,,,,,,,,,,,,,,,,
1703407622.569314,1703407622.569984,86.000000,0.000000,4184.102539,4145.769043,4295.769043,4235.128418,4142.948730,4169.743652,4177.948730,4162.436035,4152.692383,4163.589844,4602.692383,4442.820313,4389.358887,4483.846191,5906.000000,4.000000,76.000000,,,,0.000000,4.000000,4.000000,4.000000,4.000000,4.000000,4.000000,4.000000,4.000000,4.000000,4.000000,4.000000,4.000000,4.000000,4.000000,100.000000,,,,,,,,,,,,,,,,,,,,,,,,,,,,
1703407622.577122,1703407622.577892,87.000000,0.000000,4188.846191,4154.871582,4297.051270,4236.025879,4155.384766,4177.820313,4183.461426,4168.974121,4151.282227,4168.077148,4620.641113,4445.000000,4394.615234,4486.922852,6040.000000,4.000000,76.000000,,,,0.000000,4.000000,4.000000,4.000000,4.000000,4.000000,4.000000,4.000000,4.000000,4.000000,4.000000,4.000000,4.000000,4.000000,4.000000,100.000000,1.000000,83.333336,4.000000,4.000000,4.000000,4.000000,3.000000,3.000000,4.000000,4.000000,4.000000,4.000000,4.000000,4.000000,4.000000,4.000000,,,,,,,,,,,,
1703407622.584930,1703407622.585701,88.000000,0.000000,4180.769043,4146.153809,4289.102539,4233.717773,4172.563965,4184.487305,4188.077148,4172.179688,4151.025879,4165.128418,4613.589844,4435.384766,4384.743652,4477.563965,6586.000000,4.000000,76.000000,,,,0.000000,4.000000,4.000000,4.000000,4.000000,4.000000,4.000000,4.000000,4.000000,4.000000,4.000000,4.000000,4.000000,4.000000,4.000000,100.000000,,,,,,,,,,,,,,,,,22.000000,0.000000,0.729320,-0.117188,-0.670044,-0.073486,0.980100,-0.078623,0.084971,-14.807524,-41.167400,66.092484
1703407622.592738,1703407622.593609,89.000000,0.000000,4174.743652,4134.487305,4278.717773,4228.333496,4163.589844,4182.179688,4185.256348,4169.230957,4153.974121,4157.307617,4595.000000,4425.641113,4370.769043,4468.077148,7175.000000,4.000000,76.000000,,,,0.000000,4.000000,4.000000,4.000000,4.000000,4.000000,4.000000,4.000000,4.000000,4.000000,4.000000,4.000000,4.000000,4.000000,4.000000,100.000000,,,,,,,,,,,,,,,,,,,,,,,,,,,,
1703407622.600546,1703407622.601417,90.000000,0.000000,4182.563965,4147.051270,4282.307617,4234.487305,4164.615234,4184.230957,4186.794922,4176.666504,4169.743652,4171.666504,4607.051270,4437.948730,4382.692383,4481.025879,5906.000000,4.000000,76.000000,,,,0.000000,4.000000,4.000000,4.000000,4.000000,4.000000,4.000000,4.000000,4.000000,4.000000,4.000000,4.000000,4.000000,4.000000,4.000000,100.000000,,,,,,,,,,,,,,,,,,,,,,,,,,,,
1703407622.608354,1703407622.609225,91.000000,0.000000,4186.538574,4156.410156,4289.615234,4241.410156,4156.794922,4184.102539,4187.563965,4186.025879,4177.563965,4182.051270,4621.666504,4448.461426,4394.102539,4492.307617,6040.000000,4.000000,76.000000,,,,0.000000,4.000000,4.000000,4.000000,4.000000,4.000000,4.000000,4.000000,4.000000,4.000000,4.000000,4.000000,4.000000,4.000000,4.000000,100.000000,,,,,,,,,,,,,,,,,,,,,,,,,,,,
1703407622.616162,1703407622.617033,92.000000,0.000000,4192.436035,4155.897461,4296.794922,4243.589844,4162.820313,4181.025879,4185.384766,4183.461426,4171.666504,4179.871582,4629.358887,4456.153809,4400.512695,4501.666504,6586.000000,4.000000,76.000000,,,,0.000000,4.000000,4.000000,4.000000,4.000000,4.000000,4.000000,4.000000,4.000000,4.000000,4.000000,4.000000,4.000000,4.000000,4.000000,100.000000,,,,,,,,,,,,,,,,,23.000000,0.000000,0.729317,-0.117249,-0.670044,-0.073425,0.988402,-0.076670,0.085460,-14.726771,-41.200661,66.066566
1703407622.623970,1703407622.624741,93.000000,0.000000,4198.717773,4160.512695,4298.077148,4244.743652,4194.487305,4181.153809,4185.000000,4175.128418,4162.179688,4181.922852,4634.743652,4460.384766,4408.846191,4512.179688,7175.000000,4.000000,76.000000,,,,0.000000,4.000000,4.000000,4.000000,4.000000,4.000000,4.000000,4.000000,4.000000,4.000000,4.000000,4.000000,4.000000,4.000000,4.000000,100.000000,,,,,,,,,,,,,,,,,,,,,,,,,,,,
1703407622.631778,1703407622.632549,94.000000,0.000000,4188.077148,4157.563965,4285.641113,4240.128418,4173.846191,4176.666504,4182.436035,4165.769043,4155.769043,4172.820313,4616.282227,4440.897461,4394.743652,4497.563965,5906.000000,4.000000,76.000000,,,,0.000000,4.000000,4.000000,4.000000,4.000000,4.000000,4.000000,4.000000,4.000000,4.000000,4.000000,4.000000,4.000000,4.000000,4.000000,100.000000,,,,,,,,,,,,,,,,,,,,,,,,,,,,
1703407622.639586,1703407622.640257,95.000000,0.000000,4178.333496,4150.384766,4280.128418,4233.333496,4146.153809,4172.563965,4180.769043,4161.410156,4157.948730,4162.436035,4600.512695,4425.641113,4378.205078,4479.230957,6040.000000,4.000000,76.000000,,,,0.000000,4.000000,4.000000,4.000000,4.000000,4.000000,4.000000,4.000000,4.000000,4.000000,4.000000,4.000000,4.000000,4.000000,4.000000,100.000000,,,,,,,,,,,,,,,,,,,,,,,,,,,,
1703407622.647394,1703407622.648065,96.000000,0.000000,4188.077148,4160.384766,4288.974121,4237.563965,4182.436035,4177.563965,4185.512695,4170.384766,4160.384766,4171.025879,4614.487305,4440.897461,4390.897461,4489.102539,6586.000000,4.000000,76.000000,,,,0.000000,4.000000,4.000000,4.000000,4.000000,4.000000,4.000000,4.000000,4.000000,4.000000,4.000000,4.000000,4.000000,4.000000,4.000000,100.000000,,,,,,,,,,,,,,,,,24.000000,0.000000,0.729312,-0.117126,-0.670044,-0.073669,0.985472,-0.066414,0.080088,-14.654094,-41.047260,66.043243
1703407622.655202,1703407622.655773,97.000000,0.000000,4188.461426,4170.769043,4292.692383,4245.897461,4182.820313,4175.897461,4188.846191,4179.743652,4156.538574,4177.948730,4625.256348,4450.769043,4403.974121,4499.615234,7175.000000,4.000000,76.000000,,,,0.000000,4.000000,4.000000,4.000000,4.000000,4.000000,4.000000,4.000000,4.000000,4.000000,4.000000,4.000000,4.000000,4.000000,4.000000,100.000000,,,,,,,,,,,,,,,,,,,,,,,,,,,,
1703407622.663010,1703407622.663581,98.000000,0.000000,4187.948730,4168.717773,4293.974121,4247.692383,4155.384766,4167.051270,4186.538574,4176.922852,4154.743652,4172.436035,4618.846191,4444.487305,4399.615234,4494.102539,5906.000000,4.000000,76.000000,,,,0.000000,4.000000,4.000000,4.000000,4.000000,4.000000,4.000000,4.000000,4.000000,4.000000,4.000000,4.000000,4.000000,4.000000,4.000000,100.000000,,,,,,,,,,,,,,,,,,,,,,,,,,,,
1703407622.670818,1703407622.671289,99.000000,0.000000,4198.717773,4169.743652,4296.794922,4246.025879,4174.358887,4168.846191,4184.615234,4171.922852,4158.205078,4172.820313,4615.000000,4444.743652,4395.256348,4493.589844,6040.000000,4.000000,76.000000,,,,0.000000,4.000000,4.000000,4.000000,4.000000,4.000000,4.000000,4.000000,4.000000,4.000000,4.000000,4.000000,4.000000,4.000000,4.000000,100.000000,,,,,,,,,,,,,,,,,,,,,,,,,,,,
1703407622.678626,1703407622.679097,100.000000,0.000000,4192.436035,4167.179688,4294.358887,4240.641113,4174.743652,4171.922852,4183.589844,4169.871582,4162.051270,4172.051270,4612.692383,4438.077148,4391.282227,4489.871582,6586.000000,4.000000,76.000000,,,,0.000000,4.000000,4.000000,4.000000,4.000000,4.000000,4.000000,4.000000,4.000000,4.000000,4.000000,4.000000,4.000000,4.000000,4.000000,100.000000,,,,,,,,,,,,,,,,,25.000000,0.000000,0.729266,-0.116943,-0.670105,-0.073853,0.987914,-0.071786,0.077158,-14.905352,-41.025867,66.072250
1703407622.686434,1703407622.686805,101.000000,0.000000,4183.846191,4162.948730,4292.051270,4236.153809,4153.077148,4171.025879,4183.205078,4167.051270,4158.717773,4164.102539,4612.436035,4428.974121,4388.974121,4484.743652,7175.000000,4.000000,76.000000,,,,0.000000,4.000000,4.000000,4.000000,4.000000,4.000000,4.000000,4.000000,4.000000,4.000000,4.000000,4.000000,4.000000,4.000000,4.000000,100.000000,,,,,,,,,,,,,,,,,,,,,,,,,,,,
1703407622.694242,1703407622.694613,102.000000,0.000000,4195.641113,4163.717773,4292.179688,4235.641113,4165.897461,4171.025879,4185.512695,4166.666504,4153.589844,4166.153809,4616.025879,4438.077148,4390.256348,4498.333496,5906.000000,4.000000,76.000000,,,,0.000000,4.000000,4.000000,4.000000,4.000000,4.000000,4.000000,4.000000,4.000000,4.000000,4.000000,4.000000,4.000000,4.000000,4.000000,100.000000,,,,,,,,,,,,,,,,,,,,,,,,,,,,
1703407622.702051,1703407622.702321,103.000000,0.000000,4210.897461,4163.974121,4291.538574,4235.000000,4182.820313,4171.153809,4188.205078,4168.846191,4161.922852,4172.563965,4616.282227,4448.589844,4389.102539,4515.128418,6040.000000,4.000000,76.000000,,,,0.000000,4.000000,4.000000,4.000000,4.000000,4.000000,4.000000,4.000000,4.000000,4.000000,4.000000,4.000000,4.000000,4.000000,4.000000,100.000000,,,,,,,,,,,,,,,,,,,,,,,,,,,,
1703407622.709859,1703407622.710129,104.000000,0.000000,4213.717773,4163.589844,4293.589844,4239.230957,4170.128418,4167.563965,4187.436035,4166.666504,4165.512695,4169.102539,4610.256348,4442.948730,4385.256348,4517.179688,6586.000000,4.000000,76.000000,,,,0.000000,4.000000,4.000000,4.000000,4.000000,4.000000,4.000000,4.000000,4.000000,4.000000,4.000000,4.000000,4.000000,4.000000,4.000000,100.000000,,,,,,,,,,,,,,,,,26.000000,0.000000,0.729334,-0.116638,-0.670044,-0.074219,0.982053,-0.060554,0.078135,-14.898149,-41.073280,66.081696
1703407622.717667,1703407622.717836,105.000000,0.000000,4216.282227,4170.384766,4297.051270,4249.102539,4161.025879,4158.333496,4183.717773,4164.871582,4149.358887,4157.692383,4607.436035,4441.666504,4387.179688,4525.641113,7175.000000,4.000000,76.000000,,,,0.000000,4.000000,4.000000,4.000000,4.000000,4.000000,4.000000,4.000000,4.000000,4.000000,4.000000,4.000000,4.000000,4.000000,4.000000,100.000000,,,,,,,,,,,,,,,,,,,,,,,,,,,,
1703407622.725475,1703407622.725644,106.000000,0.000000,4229.615234,4177.051270,4296.666504,4251.153809,4159.358887,4152.820313,4183.717773,4168.333496,4140.128418,4149.487305,4613.077148,4455.641113,4393.333496,4546.794922,5906.000000,4.000000,76.000000,,,,0.000000,4.000000,4.000000,4.000000,4.000000,4.000000,4.000000,4.000000,4.000000,4.000000,4.000000,4.000000,4.000000,4.000000,4.000000,100.000000,,,,,,,,,,,,,,,,,,,,,,,,,,,,
1703407622.733283,1703407622.733352,107.000000,0.000000,4236.922852,4173.974121,4300.384766,4246.153809,4158.205078,4155.000000,4185.256348,4166.153809,4151.794922,4151.153809,4615.256348,4460.384766,4392.307617,4548.461426,6040.000000,4.000000,76.000000,,,,0.000000,4.000000,4.000000,4.000000,4.000000,4.000000,4.000000,4.000000,4.000000,4.000000,4.000000,4.000000,4.000000,4.000000,4.000000,100.000000,,,,,,,,,,,,,,,,,,,,,,,,,,,,
1703407622.741091,1703407622.741260,108.000000,0.000000,4225.512695,4167.179688,4303.717773,4244.871582,4171.538574,4155.512695,4179.615234,4159.615234,4158.461426,4161.282227,4612.436035,4449.487305,4388.589844,4537.051270,6586.000000,4.000000,76.000000,,,,0.000000,4.000000,4.000000,4.000000,4.000000,4.000000,4.000000,4.000000,4.000000,4.000000,4.000000,4.000000,4.000000,4.000000,4.000000,100.000000,,,,,,,,,,,,,,,,,27.000000,0.000000,0.729371,-0.116760,-0.669983,-0.074219,1.003052,-0.064949,0.089855,-14.891668,-41.115952,66.173523
1703407622.748899,1703407622.749068,109.000000,0.000000,4213.077148,4165.897461,4302.051270,4245.897461,4186.410156,4155.769043,4175.512695,4162.948730,4152.051270,4163.717773,4614.230957,4442.948730,4392.820313,4539.358887,7175.000000,4.000000,76.000000,,,,0.000000,4.000000,4.000000,4.000000,4.000000,4.000000,4.000000,4.000000,4.000000,4.000000,4.000000,4.000000,4.000000,4.000000,4.000000,100.000000,,,,,,,,,,,,,,,,,,,,,,,,,,,,
1703407622.756707,1703407622.756976,110.000000,0.000000,4220.897461,4178.846191,4301.410156,4250.512695,4186.922852,4158.974121,4180.128418,4170.256348,4148.717773,4158.205078,4621.282227,4450.128418,4405.256348,4546.922852,5906.000000,4.000000,76.000000,,,,0.000000,4.000000,4.000000,4.000000,4.000000,4.000000,4.000000,4.000000,4.000000,4.000000,4.000000,4.000000,4.000000,4.000000,4.000000,100.000000,,,,,,,,,,,,,,,,,,,,,,,,,,,,
1703407622.764515,1703407622.764785,111.000000,0.000000,4229.615234,4186.794922,4299.743652,4252.692383,4166.153809,4159.358887,4185.256348,4168.589844,4152.436035,4164.743652,4626.666504,4453.205078,4411.153809,4540.256348,6040.000000,4.000000,76.000000,,,,0.000000,4.000000,4.000000,4.000000,4.000000,4.000000,4.000000,4.000000,4.000000,4.000000,4.000000,4.000000,4.000000,4.000000,4.000000,100.000000,,,,,,,,,,,,,,,,,,,,,,,,,,,,
1703407622.772323,1703407622.772693,112.000000,0.000000,4217.179688,4175.128418,4292.692383,4243.333496,4147.436035,4158.077148,4183.846191,4165.512695,4155.512695,4173.461426,4624.102539,4443.717773,4404.743652,4526.025879,6586.000000,4.000000,76.000000,,,,0.000000,4.000000,4.000000,4.000000,4.000000,4.000000,4.000000,4.000000,4.000000,4.000000,4.000000,4.000000,4.000000,4.000000,4.000000,100.000000,,,,,,,,,,,,,,,,,28.000000,0.000000,0.729298,-0.116943,-0.670044,-0.074097,0.974728,-0.071298,0.082530,-14.919168,-41.154358,66.172836
1703407622.780131,1703407622.780501,113.000000,0.000000,4202.948730,4166.282227,4290.128418,4236.538574,4157.692383,4158.077148,4178.333496,4167.948730,4157.051270,4169.230957,4620.769043,4438.846191,4400.769043,4521.794922,7175.000000,4.000000,76.000000,,,,0.000000,4.000000,4.000000,4.000000,4.000000,4.000000,4.000000,4.000000,4.000000,4.000000,4.000000,4.000000,4.000000,4.000000,4.000000,100.000000,,,,,,,,,,,,,,,,,,,,,,,,,,,,
1703407622.787939,1703407622.788409,114.000000,0.000000,4207.051270,4172.179688,4299.102539,4245.256348,4182.563965,4155.000000,4180.256348,4168.846191,4154.230957,4169.102539,4626.153809,4442.948730,4406.153809,4522.436035,5906.000000,4.000000,76.000000,,,,0.000000,4.000000,4.000000,4.000000,4.000000,4.000000,4.000000,4.000000,4.000000,4.000000,4.000000,4.000000,4.000000,4.000000,4.000000,100.000000,,,,,,,,,,,,,,,,,,,,,,,,,,,,
1703407622.795747,1703407622.796217,115.000000,0.000000,4207.948730,4175.897461,4303.589844,4253.333496,4187.820313,4153.077148,4182.051270,4161.410156,4149.358887,4176.410156,4624.615234,4441.666504,4402.051270,4510.512695,6040.000000,4.000000,76.000000,,,,0.000000,4.000000,4.000000,4.000000,4.000000,4.000000,4.000000,4.000000,4.000000,4.000000,4.000000,4.000000,4.000000,4.000000,4.000000,100.000000,,,,,,,,,,,,,,,,,,,,,,,,,,,,
1703407622.803555,1703407622.804025,116.000000,0.000000,4190.641113,4166.666504,4295.384766,4245.512695,4172.307617,4154.615234,4174.743652,4151.794922,4159.230957,4162.563965,4604.615234,4428.461426,4381.410156,4495.897461,6586.000000,4.000000,76.000000,,,,0.000000,4.000000,4.000000,4.000000,4.000000,4.000000,4.000000,4.000000,4.000000,4.000000,4.000000,4.000000,4.000000,4.000000,4.000000,100.000000,,,,,,,,,,,,,,,,,29.000000,0.000000,0.729342,-0.116821,-0.670044,-0.073853,0.981077,-0.060554,0.084971,-14.927251,-41.072254,65.988892
1703407622.811363,1703407622.811833,117.000000,0.000000,4182.820313,4162.563965,4294.358887,4239.615234,4159.743652,4153.333496,4173.846191,4158.333496,4168.974121,4145.384766,4598.974121,4421.282227,4377.179688,4501.282227,7175.000000,4.000000,76.000000,,,,0.000000,4.000000,4.000000,4.000000,4.000000,4.000000,4.000000,4.000000,4.000000,4.000000,4.000000,4.000000,4.000000,4.000000,4.000000,100.000000,,,,,,,,,,,,,,,,,,,,,,,,,,,,
1703407622.819171,1703407622.819541,118.000000,0.000000,4200.128418,4172.820313,4306.794922,4249.102539,4163.205078,4149.615234,4183.846191,4172.692383,4154.615234,4163.974121,4616.794922,4433.974121,4395.384766,4509.615234,5906.000000,4.000000,76.000000,,,,0.000000,4.000000,4.000000,4.000000,4.000000,4.000000,4.000000,4.000000,4.000000,4.000000,4.000000,4.000000,4.000000,4.000000,4.000000,100.000000,,,,,,,,,,,,,,,,,,,,,,,,,,,,
1703407622.826979,1703407622.827349,119.000000,0.000000,4212.179688,4184.358887,4318.205078,4258.205078,4184.102539,4150.769043,4187.051270,4172.051270,4142.051270,4185.769043,4627.051270,4447.692383,4406.025879,4506.666504,6040.000000,4.000000,76.000000,,,,0.000000,4.000000,4.000000,4.000000,4.000000,4.000000,4.000000,4.000000,4.000000,4.000000,4.000000,4.000000,4.000000,4.000000,4.000000,100.000000,,,,,,,,,,,,,,,,,,,,,,,,,,,,
1703407622.834787,1703407622.835057,120.000000,0.000000,4207.820313,4186.410156,4320.384766,4250.897461,4191.666504,4156.410156,4179.871582,4168.077148,4153.846191,4177.820313,4624.102539,4443.333496,4399.487305,4510.128418,6586.000000,4.000000,76.000000,,,,0.000000,4.000000,4.000000,4.000000,4.000000,4.000000,4.000000,4.000000,4.000000,4.000000,4.000000,4.000000,4.000000,4.000000,4.000000,100.000000,,,,,,,,,,,,,,,,,30.000000,0.000000,0.729482,-0.116760,-0.669922,-0.073669,0.985960,-0.068856,0.090831,-14.934525,-41.131695,66.106667
1703407622.842595,1703407622.842865,121.000000,0.000000,4202.436035,4184.230957,4315.000000,4246.282227,4174.743652,4153.333496,4173.974121,4166.153809,4155.641113,4163.717773,4616.666504,4430.641113,4391.282227,4510.384766,7175.000000,4.000000,76.000000,,,,0.000000,4.000000,4.000000,4.000000,4.000000,4.000000,4.000000,4.000000,4.000000,4.000000,4.000000,4.000000,4.000000,4.000000,4.000000,100.000000,,,,,,,,,,,,,,,,,,,,,,,,,,,,
1703407622.850403,1703407622.850573,122.000000,0.000000,4202.179688,4184.102539,4307.948730,4257.051270,4169.487305,4142.436035,4170.000000,4157.563965,4146.666504,4165.384766,4613.077148,4423.333496,4392.436035,4496.538574,5906.000000,4.000000,76.000000,,,,0.000000,4.000000,4.000000,4.000000,4.000000,4.000000,4.000000,4.000000,4.000000,4.000000,4.000000,4.000000,4.000000,4.000000,4.000000,100.000000,,,,,,,,,,,,,,,,,,,,,,,,,,,,
1703407622.858211,1703407622.858381,123.000000,0.000000,4202.820313,4179.871582,4299.102539,4258.205078,4171.282227,4140.000000,4169.102539,4157.179688,4163.333496,4172.307617,4623.846191,4422.563965,4398.461426,4496.538574,6040.000000,4.000000,76.000000,,,,0.000000,4.000000,4.000000,4.000000,4.000000,4.000000,4.000000,4.000000,4.000000,4.000000,4.000000,4.000000,4.000000,4.000000,4.000000,100.000000,,,,,,,,,,,,,,,,,,,,,,,,,,,,
1703407622.866019,1703407622.866089,124.000000,0.000000,4196.794922,4172.307617,4289.615234,4247.563965,4157.948730,4143.717773,4175.641113,4169.358887,4172.948730,4173.846191,4631.538574,4427.692383,4400.769043,4504.487305,6586.000000,4.000000,76.000000,,,,0.000000,4.000000,4.000000,4.000000,4.000000,4.000000,4.000000,4.000000,4.000000,4.000000,4.000000,4.000000,4.000000,4.000000,4.000000,100.000000,,,,,,,,,,,,,,,,,31.000000,0.000000,0.729437,-0.117004,-0.669922,-0.073730,1.000122,-0.066903,0.075204,-14.991074,-41.135193,66.262665
1703407622.873828,1703407622.873897,125.000000,0.000000,4190.128418,4172.051270,4287.051270,4247.563965,4165.641113,4142.692383,4181.794922,4173.205078,4157.692383,4167.179688,4622.436035,4432.563965,4393.077148,4496.025879,7175.000000,4.000000,76.000000,,,,0.000000,4.000000,4.000000,4.000000,4.000000,4.000000,4.000000,4.000000,4.000000,4.000000,4.000000,4.000000,4.000000,4.000000,4.000000,100.000000,,,,,,,,,,,,,,,,,,,,,,,,,,,,
1703407622.881636,1703407622.881605,126.000000,0.000000,4187.692383,4173.846191,4286.025879,4251.410156,4193.974121,4144.358887,4181.282227,4170.897461,4158.333496,4162.692383,4615.128418,4425.384766,4381.538574,4488.846191,5906.000000,4.000000,76.000000,,,,0.000000,4.000000,4.000000,4.000000,4.000000,4.000000,4.000000,4.000000,4.000000,4.000000,4.000000,4.000000,4.000000,4.000000,4.000000,100.000000,,,,,,,,,,,,,,,,,,,,,,,,,,,,
1703407622.889444,1703407622.889513,127.000000,0.000000,4186.666504,4170.256348,4281.410156,4244.358887,4187.051270,4151.410156,4177.692383,4167.436035,4166.922852,4166.794922,4611.282227,4409.615234,4374.743652,4491.153809,76.000000,4.000000,76.000000,,,,0.000000,4.000000,4.000000,4.000000,4.000000,4.000000,4.000000,4.000000,4.000000,4.000000,4.000000,4.000000,4.000000,4.000000,4.000000,100.000000,,,,,,,,,,,,,,,,,,,,,,,,,,,,
1703407622.897252,1703407622.897321,0.000000,0.000000,4189.871582,4172.051270,4282.307617,4241.410156,4163.717773,4154.615234,4176.282227,4157.307617,4154.487305,4164.358887,4602.692383,4403.846191,4374.487305,4487.692383,4677.000000,4.000000,76.000000,,,,0.000000,4.000000,4.000000,4.000000,4.000000,4.000000,4.000000,4.000000,4.000000,4.000000,4.000000,4.000000,4.000000,4.000000,4.000000,100.000000,,,,,,,,,,,,,,,,,0.000000,0.000000,0.729418,-0.117126,-0.669922,-0.073730,0.985472,-0.063973,0.071298,-15.041966,-41.271675,66.153069
1703407622.905060,1703407622.905229,1.000000,0.000000,4199.358887,4181.538574,4291.410156,4248.077148,4170.000000,4149.871582,4173.461426,4152.692383,4146.410156,4155.641113,4599.358887,4410.641113,4377.436035,4495.641113,5429.000000,4.000000,76.000000,,,,0.000000,4.000000,4.000000,4.000000,4.000000,4.000000,4.000000,4.000000,4.000000,4.000000,4.000000,4.000000,4.000000,4.000000,4.000000,100.000000,,,,,,,,,,,,,,,,,,,,,,,,,,,,
1703407622.912868,1703407622.913038,2.000000,0.000000,4210.769043,4186.666504,4294.358887,4251.922852,4174.743652,4141.794922,4169.615234,4156.153809,4153.974121,4153.589844,4608.205078,4421.025879,4380.897461,4512.820313,5240.000000,4.000000,76.000000,,,,0.000000,4.000000,4.000000,4.000000,4.000000,4.000000,4.000000,4.000000,4.000000,4.000000,4.000000,4.000000,4.000000,4.000000,4.000000,100.000000,,,,,,,,,,,,,,,,,,,,,,,,,,,,
1703407622.920676,1703407622.920946,3.000000,0.000000,4212.307617,4185.384766,4297.307617,4250.000000,4164.230957,4138.077148,4169.871582,4153.846191,4145.384766,4160.000000,4617.563965,4428.846191,4388.077148,4510.384766,5317.000000,4.000000,76.000000,,,,0.000000,4.000000,4.000000,4.000000,4.000000,4.000000,4.000000,4.000000,4.000000,4.000000,4.000000,4.000000,4.000000,4.000000,4.000000,100.000000,,,,,,,,,,,,,,,,,,,,,,,,,,,,
1703407622.928484,1703407622.928754,4.000000,0.000000,4203.205078,4180.897461,4302.307617,4246.922852,4165.384766,4137.563965,4169.615234,4152.307617,4148.717773,4169.743652,4619.743652,4431.794922,4391.666504,4511.025879,5066.000000,4.000000,76.000000,,,,0.000000,4.000000,4.000000,4.000000,4.000000,4.000000,4.000000,4.000000,4.000000,4.000000,4.000000,4.000000,4.000000,4.000000,4.000000,100.000000,,,,,,,,,,,,,,,,,1.000000,0.000000,0.729507,-0.117188,-0.669800,-0.073853,0.985472,-0.071298,0.067879,-15.054436,-41.244507,66.071091
1703407622.936292,1703407622.936662,5.000000,0.000000,4199.230957,4175.384766,4301.410156,4247.692383,4180.384766,4136.794922,4169.615234,4162.307617,4169.358887,4173.205078,4619.487305,4430.641113,4391.666504,4526.410156,4530.000000,4.000000,76.000000,,,,0.000000,4.000000,4.000000,4.000000,4.000000,4.000000,4.000000,4.000000,4.000000,4.000000,4.000000,4.000000,4.000000,4.000000,4.000000,100.000000,,,,,,,,,,,,,,,,,,,,,,,,,,,,
1703407622.944100,1703407622.944470,6.000000,0.000000,4202.948730,4170.384766,4296.153809,4244.487305,4174.615234,4138.077148,4172.436035,4168.333496,4158.333496,4166.538574,4617.820313,4427.563965,4393.205078,4522.307617,3201.000000,4.000000,76.000000,,,,0.000000,4.000000,4.000000,4.000000,4.000000,4.000000,4.000000,4.000000,4.000000,4.000000,4.000000,4.000000,4.000000,4.000000,4.000000,100.000000,,,,,,,,,,,,,,,,,,,,,,,,,,,,
1703407622.951908,1703407622.952378,7.000000,0.000000,4196.410156,4166.794922,4292.179688,4236.153809,4145.000000,4140.000000,4176.922852,4168.974121,4147.692383,4166.922852,4617.307617,4426.153809,4390.512695,4505.384766,5010.000000,4.000000,76.000000,,,,0.000000,4.000000,4.000000,4.000000,4.000000,4.000000,4.000000,4.000000,4.000000,4.000000,4.000000,4.000000,4.000000,4.000000,4.000000,100.000000,,,,,,,,,,,,,,,,,,,,,,,,,,,,
1703407622.959716,1703407622.960187,8.000000,0.000000,4185.512695,4168.974121,4291.282227,4233.589844,4152.563965,4142.179688,4185.384766,4176.410156,4165.256348,4178.717773,4621.025879,4430.128418,4389.743652,4508.589844,4777.000000,4.000000,76.000000,,,,0.000000,4.000000,4.000000,4.000000,4.000000,4.000000,4.000000,4.000000,4.000000,4.000000,4.000000,4.000000,4.000000,4.000000,4.000000,100.000000,,,,,,,,,,,,,,,,,2.000000,0.000000,0.729508,-0.117065,-0.669800,-0.074036,0.990844,-0.076181,0.072763,-15.048992,-41.236721,66.147316
1703407622.967524,1703407622.968095,9.000000,0.000000,4184.871582,4168.717773,4285.897461,4234.487305,4188.974121,4143.974121,4184.102539,4176.922852,4164.487305,4174.358887,4617.179688,4423.717773,4387.948730,4509.615234,5063.000000,4.000000,76.000000,,,,0.000000,4.000000,4.000000,4.000000,4.000000,4.000000,4.000000,4.000000,4.000000,4.000000,4.000000,4.000000,4.000000,4.000000,4.000000,100.000000,,,,,,,,,,,,,,,,,,,,,,,,,,,,
1703407622.975332,1703407622.975903,10.000000,0.000000,4182.436035,4155.897461,4280.000000,4229.615234,4180.384766,4139.230957,4172.179688,4166.538574,4146.538574,4153.461426,4604.102539,4406.666504,4375.641113,4491.282227,5898.000000,4.000000,76.000000,,,,0.000000,4.000000,4.000000,4.000000,4.000000,4.000000,4.000000,4.000000,4.000000,4.000000,4.000000,4.000000,4.000000,4.000000,4.000000,100.000000,,,,,,,,,,,,,,,,,,,,,,,,,,,,
1703407622.983140,1703407622.983811,11.000000,0.000000,4182.436035,4155.384766,4288.461426,4229.358887,4150.384766,4134.358887,4168.717773,4166.538574,4156.794922,4157.436035,4610.000000,4413.974121,4376.922852,4491.666504,6030.000000,4.000000,76.000000,,,,0.000000,4.000000,4.000000,4.000000,4.000000,4.000000,4.000000,4.000000,4.000000,4.000000,4.000000,4.000000,4.000000,4.000000,4.000000,100.000000,,,,,,,,,,,,,,,,,,,,,,,,,,,,
1703407622.990948,1703407622.991619,12.000000,0.000000,4198.846191,4177.692383,4304.230957,4241.922852,4166.025879,4137.179688,4170.897461,4174.102539,4177.307617,4180.384766,4629.358887,4437.820313,4399.102539,4510.897461,6574.000000,4.000000,76.000000,,,,0.000000,4.000000,4.000000,4.000000,4.000000,4.000000,4.000000,4.000000,4.000000,4.000000,4.000000,4.000000,4.000000,4.000000,4.000000,100.000000,,,,,,,,,,,,,,,,,3.000000,0.000000,0.729476,-0.116882,-0.669861,-0.074097,0.993285,-0.068368,0.070321,-15.160760,-41.213051,66.115921
1703407622.998756,1703407622.999327,13.000000,0.000000,4215.256348,4190.256348,4307.563965,4251.794922,4179.871582,4138.974121,4165.512695,4167.179688,4177.692383,4183.205078,4631.794922,4442.563965,4405.256348,4520.897461,7175.000000,4.000000,76.000000,,,,0.000000,4.000000,4.000000,4.000000,4.000000,4.000000,4.000000,4.000000,4.000000,4.000000,4.000000,4.000000,4.000000,4.000000,4.000000,100.000000,,,,,,,,,,,,,,,,,,,,,,,,,,,,
1703407623.006564,1703407623.007135,14.000000,0.000000,4220.384766,4188.077148,4303.333496,4256.025879,4168.717773,4137.307617,4163.974121,4159.230957,4169.743652,4178.974121,4631.025879,4440.512695,4401.025879,4535.512695,5898.000000,4.000000,76.000000,,,,0.000000,4.000000,4.000000,4.000000,4.000000,4.000000,4.000000,4.000000,4.000000,4.000000,4.000000,4.000000,4.000000,4.000000,4.000000,100.000000,,,,,,,,,,,,,,,,,,,,,,,,,,,,
1703407623.014372,1703407623.014843,15.000000,0.000000,4218.717773,4183.205078,4299.102539,4250.769043,4180.000000,4138.205078,4169.102539,4157.051270,4153.717773,4178.589844,4626.922852,4437.179688,4398.333496,4539.358887,6030.000000,4.000000,76.000000,,,,0.000000,4.000000,4.000000,4.000000,4.000000,4.000000,4.000000,4.000000,4.000000,4.000000,4.000000,4.000000,4.000000,4.000000,4.000000,100.000000,,,,,,,,,,,,,,,,,,,,,,,,,,,,
1703407623.022180,1703407623.022751,16.000000,0.000000,4206.410156,4172.051270,4285.641113,4236.666504,4173.333496,4140.384766,4165.000000,4150.897461,4142.563965,4163.461426,4603.974121,4417.436035,4378.589844,4513.717773,0.000000,4.000000,76.000000,,,,0.000000,4.000000,4.000000,4.000000,4.000000,4.000000,4.000000,4.000000,4.000000,4.000000,4.000000,4.000000,4.000000,4.000000,4.000000,100.000000,,,,,,,,,,,,,,,,,4.000000,0.000000,0.729485,-0.116821,-0.669861,-0.074097,0.990844,-0.071298,0.080088,-15.128017,-41.241745,66.120995
1703407623.029988,1703407623.030560,17.000000,0.000000,4196.025879,4165.128418,4279.230957,4235.641113,4146.153809,4140.897461,4161.153809,4155.128418,4149.358887,4147.051270,4593.077148,4408.974121,4370.128418,4506.025879,0.000000,4.000000,76.000000,,,,0.000000,4.000000,4.000000,4.000000,4.000000,4.000000,4.000000,4.000000,4.000000,4.000000,4.000000,4.000000,4.000000,4.000000,4.000000,100.000000,,,,,,,,,,,,,,,,,,,,,,,,,,,,
1703407623.037796,1703407623.038368,18.000000,0.000000,4200.128418,4171.666504,4285.128418,4248.461426,4163.974121,4138.717773,4165.769043,4167.436035,4155.769043,4154.358887,4605.897461,4420.641113,4385.128418,4525.384766,0.000000,4.000000,76.000000,,,,0.000000,4.000000,4.000000,4.000000,4.000000,4.000000,4.000000,4.000000,4.000000,4.000000,4.000000,4.000000,4.000000,4.000000,4.000000,100.000000,,,,,,,,,,,,,,,,,,,,,,,,,,,,
1703407623.045605,1703407623.046076,19.000000,0.000000,4202.820313,4175.512695,4284.358887,4251.282227,4193.589844,4135.256348,4166.794922,4166.666504,4152.692383,4167.948730,4608.974121,4419.871582,4382.948730,4524.358887,0.000000,4.000000,76.000000,,,,0.000000,4.000000,4.000000,4.000000,4.000000,4.000000,4.000000,4.000000,4.000000,4.000000,4.000000,4.000000,4.000000,4.000000,4.000000,100.000000,,,,,,,,,,,,,,,,,,,,,,,,,,,,
1703407623.053413,1703407623.053884,20.000000,0.000000,4192.436035,4170.769043,4281.282227,4240.769043,4177.051270,4135.384766,4161.025879,4156.538574,4150.512695,4163.846191,4600.000000,4411.153809,4369.615234,4503.589844,0.000000,4.000000,76.000000,,,,0.000000,4.000000,4.000000,4.000000,4.000000,4.000000,4.000000,4.000000,4.000000,4.000000,4.000000,4.000000,4.000000,4.000000,4.000000,100.000000,,,,,,,,,,,,,,,,,5.000000,0.000000,0.729479,-0.116821,-0.669861,-0.074158,0.993774,-0.067879,0.081553,-15.165215,-41.117569,66.192230
1703407623.061221,1703407623.061592,21.000000,0.000000,4188.461426,4171.153809,4289.487305,4240.128418,4163.461426,4137.436035,4157.307617,4158.717773,4153.461426,4159.102539,4601.538574,4414.743652,4376.666504,4494.615234,0.000000,4.000000,76.000000,,,,0.000000,4.000000,4.000000,4.000000,4.000000,4.000000,4.000000,4.000000,4.000000,4.000000,4.000000,4.000000,4.000000,4.000000,4.000000,100.000000,,,,,,,,,,,,,,,,,,,,,,,,,,,,
1703407623.069029,1703407623.069400,22.000000,0.000000,4187.820313,4171.794922,4289.487305,4242.820313,4181.666504,4136.538574,4156.153809,4163.717773,4157.179688,4165.769043,4605.641113,4412.948730,4380.128418,4486.025879,0.000000,4.000000,76.000000,,,,0.000000,4.000000,4.000000,4.000000,4.000000,4.000000,4.000000,4.000000,4.000000,4.000000,4.000000,4.000000,4.000000,4.000000,4.000000,100.000000,,,,,,,,,,,,,,,,,,,,,,,,,,,,
1703407623.076837,1703407623.077108,23.000000,0.000000,4174.358887,4161.794922,4275.384766,4234.102539,4164.871582,4137.820313,4151.666504,4148.846191,4156.410156,4157.820313,4592.307617,4391.538574,4361.666504,4470.769043,0.000000,4.000000,76.000000,,,,0.000000,4.000000,4.000000,4.000000,4.000000,4.000000,4.000000,4.000000,4.000000,4.000000,4.000000,4.000000,4.000000,4.000000,4.000000,100.000000,1.000000,66.666664,4.000000,4.000000,4.000000,4.000000,3.000000,1.000000,4.000000,4.000000,4.000000,4.000000,4.000000,4.000000,4.000000,4.000000,,,,,,,,,,,,
1703407623.084645,1703407623.084916,24.000000,0.000000,4171.538574,4157.692383,4277.051270,4233.589844,4136.794922,4137.563965,4150.384766,4137.179688,4147.179688,4139.358887,4585.769043,4386.153809,4357.307617,4475.512695,0.000000,4.000000,76.000000,,,,0.000000,4.000000,4.000000,4.000000,4.000000,4.000000,4.000000,4.000000,4.000000,4.000000,4.000000,4.000000,4.000000,4.000000,4.000000,100.000000,,,,,,,,,,,,,,,,,6.000000,0.000000,0.729517,-0.116821,-0.669800,-0.074341,0.993285,-0.065438,0.083995,-15.348694,-41.155815,66.273003
1703407623.092453,1703407623.092624,25.000000,0.000000,4186.922852,4168.205078,4291.666504,4245.641113,4163.077148,4131.666504,4153.205078,4154.230957,4152.692383,4154.871582,4603.717773,4408.974121,4378.333496,4492.179688,0.000000,4.000000,76.000000,,,,0.000000,4.000000,4.000000,4.000000,4.000000,4.000000,4.000000,4.000000,4.000000,4.000000,4.000000,4.000000,4.000000,4.000000,4.000000,100.000000,,,,,,,,,,,,,,,,,,,,,,,,,,,,
1703407623.100261,1703407623.100431,26.000000,0.000000,4193.589844,4177.436035,4289.871582,4248.461426,4177.307617,4131.666504,4154.487305,4171.794922,4168.461426,4182.179688,4617.179688,4420.641113,4388.461426,4496.282227,0.000000,4.000000,76.000000,,,,0.000000,4.000000,4.000000,4.000000,4.000000,4.000000,4.000000,4.000000,4.000000,4.000000,4.000000,4.000000,4.000000,4.000000,4.000000,100.000000,,,,,,,,,,,,,,,,,,,,,,,,,,,,
1703407623.108069,1703407623.108139,27.000000,0.000000,4189.102539,4175.641113,4281.794922,4242.692383,4153.589844,4142.051270,4158.461426,4167.436035,4161.410156,4170.384766,4608.077148,4411.410156,4378.589844,4492.692383,0.000000,4.000000,76.000000,,,,0.000000,4.000000,4.000000,4.000000,4.000000,4.000000,4.000000,4.000000,4.000000,4.000000,4.000000,4.000000,4.000000,4.000000,4.000000,100.000000,,,,,,,,,,,,,,,,,,,,,,,,,,,,
1703407623.115877,1703407623.116047,28.000000,0.000000,4196.410156,4172.563965,4287.051270,4248.333496,4168.205078,4149.358887,4166.153809,4166.538574,4147.563965,4150.384766,4603.333496,4416.794922,4378.205078,4503.077148,0.000000,4.000000,76.000000,,,,0.000000,4.000000,4.000000,4.000000,4.000000,4.000000,4.000000,4.000000,4.000000,4.000000,4.000000,4.000000,4.000000,4.000000,4.000000,100.000000,,,,,,,,,,,,,,,,,7.000000,0.000000,0.729445,-0.116882,-0.669861,-0.074402,0.979123,-0.073739,0.083995,-15.163824,-41.190231,66.262367
1703407623.123685,1703407623.123855,29.000000,0.000000,4204.487305,4173.333496,4288.589844,4248.205078,4200.897461,4146.794922,4169.743652,4172.948730,4151.922852,4160.384766,4616.538574,4431.666504,4391.538574,4520.384766,0.000000,4.000000,76.000000,,,,0.000000,4.000000,4.000000,4.000000,4.000000,4.000000,4.000000,4.000000,4.000000,4.000000,4.000000,4.000000,4.000000,4.000000,4.000000,100.000000,,,,,,,,,,,,,,,,,,,,,,,,,,,,
1703407623.131493,1703407623.131764,30.000000,0.000000,4203.205078,4172.307617,4282.179688,4235.769043,4174.102539,4140.897461,4167.051270,4169.871582,4158.205078,4170.128418,4624.743652,4428.974121,4394.615234,4521.538574,0.000000,4.000000,76.000000,,,,0.000000,4.000000,4.000000,4.000000,4.000000,4.000000,4.000000,4.000000,4.000000,4.000000,4.000000,4.000000,4.000000,4.000000,4.000000,100.000000,,,,,,,,,,,,,,,,,,,,,,,,,,,,
1703407623.139301,1703407623.139572,31.000000,0.000000,4206.282227,4169.615234,4287.307617,4236.922852,4139.487305,4136.153809,4161.153809,4167.051270,4155.897461,4155.512695,4621.538574,4424.102539,4388.846191,4519.871582,0.000000,4.000000,76.000000,,,,0.000000,4.000000,4.000000,4.000000,4.000000,4.000000,4.000000,4.000000,4.000000,4.000000,4.000000,4.000000,4.000000,4.000000,4.000000,100.000000,,,,,,,,,,,,,,,,,,,,,,,,,,,,
1703407623.147109,1703407623.147480,32.000000,0.000000,4213.974121,4175.128418,4300.128418,4249.615234,4158.974121,4135.000000,4158.205078,4169.358887,4156.794922,4150.769043,4620.384766,4430.641113,4390.256348,4531.794922,0.000000,4.000000,76.000000,,,,0.000000,4.000000,4.000000,4.000000,4.000000,4.000000,4.000000,4.000000,4.000000,4.000000,4.000000,4.000000,4.000000,4.000000,4.000000,100.000000,,,,,,,,,,,,,,,,,8.000000,0.000000,0.729445,-0.116882,-0.669861,-0.074402,0.983518,-0.069344,0.084971,-15.214108,-41.337875,66.252800
1703407623.154917,1703407623.155288,33.000000,0.000000,4221.282227,4186.282227,4305.256348,4253.717773,4179.743652,4136.153809,4159.358887,4169.358887,4154.743652,4169.487305,4627.436035,4435.512695,4400.769043,4541.538574,0.000000,4.000000,76.000000,,,,0.000000,4.000000,4.000000,4.000000,4.000000,4.000000,4.000000,4.000000,4.000000,4.000000,4.000000,4.000000,4.000000,4.000000,4.000000,100.000000,,,,,,,,,,,,,,,,,,,,,,,,,,,,
1703407623.162725,1703407623.163196,34.000000,0.000000,4221.794922,4187.179688,4305.128418,4246.922852,4166.410156,4136.282227,4157.051270,4168.974121,4151.794922,4178.717773,4631.538574,4434.871582,4404.358887,4538.846191,0.000000,4.000000,76.000000,,,,0.000000,4.000000,4.000000,4.000000,4.000000,4.000000,4.000000,4.000000,4.000000,4.000000,4.000000,4.000000,4.000000,4.000000,4.000000,100.000000,,,,,,,,,,,,,,,,,,,,,,,,,,,,
1703407623.170533,1703407623.171004,35.000000,0.000000,4217.179688,4182.436035,4306.410156,4246.025879,4160.641113,4139.102539,4157.692383,4170.641113,4161.666504,4170.641113,4625.128418,4434.487305,4400.000000,4534.743652,0.000000,4.000000,76.000000,,,,0.000000,4.000000,4.000000,4.000000,4.000000,4.000000,4.000000,4.000000,4.000000,4.000000,4.000000,4.000000,4.000000,4.000000,4.000000,100.000000,,,,,,,,,,,,,,,,,,,,,,,,,,,,
1703407623.178341,1703407623.178912,36.000000,0.000000,4213.333496,4179.871582,4301.922852,4252.436035,4178.205078,4140.897461,4168.077148,4170.897461,4173.589844,4168.846191,4620.897461,4428.589844,4400.128418,4527.179688,0.000000,4.000000,76.000000,,,,0.000000,4.000000,4.000000,4.000000,4.000000,4.000000,4.000000,4.000000,4.000000,4.000000,4.000000,4.000000,4.000000,4.000000,4.000000,100.000000,,,,,,,,,,,,,,,,,9.000000,0.000000,0.729382,-0.116882,-0.669922,-0.074463,0.986449,-0.067879,0.076670,-15.326032,-41.404087,66.260857
1703407623.186149,1703407623.186720,37.000000,0.000000,4203.077148,4172.436035,4281.538574,4247.820313,4166.794922,4139.230957,4170.256348,4168.333496,4169.358887,4165.641113,4613.717773,4413.717773,4392.179688,4504.487305,0.000000,4.000000,76.000000,,,,0.000000,4.000000,4.000000,4.000000,4.000000,4.000000,4.000000,4.000000,4.000000,4.000000,4.000000,4.000000,4.000000,4.000000,4.000000,100.000000,,,,,,,,,,,,,,,,,,,,,,,,,,,,
1703407623.193957,1703407623.194428,38.000000,0.000000,4189.743652,4166.666504,4264.871582,4234.102539,4148.205078,4139.230957,4163.846191,4166.794922,4153.461426,4152.563965,4603.717773,4402.436035,4376.666504,4490.769043,0.000000,4.000000,76.000000,,,,0.000000,4.000000,4.000000,4.000000,4.000000,4.000000,4.000000,4.000000,4.000000,4.000000,4.000000,4.000000,4.000000,4.000000,4.000000,100.000000,,,,,,,,,,,,,,,,,,,,,,,,,,,,
1703407623.201765,1703407623.202236,39.000000,0.000000,4181.025879,4167.307617,4273.717773,4231.538574,4172.563965,4140.512695,4166.538574,4168.846191,4151.025879,4151.538574,4603.205078,4401.538574,4371.922852,4490.384766,0.000000,4.000000,76.000000,,,,0.000000,4.000000,4.000000,4.000000,4.000000,4.000000,4.000000,4.000000,4.000000,4.000000,4.000000,4.000000,4.000000,4.000000,4.000000,100.000000,,,,,,,,,,,,,,,,,,,,,,,,,,,,
1703407623.209573,1703407623.209944,40.000000,0.000000,4182.179688,4168.461426,4280.897461,4241.282227,4183.846191,4139.615234,4171.025879,4167.948730,4155.512695,4155.641113,4606.025879,4401.538574,4378.589844,4488.717773,0.000000,4.000000,76.000000,,,,0.000000,4.000000,4.000000,4.000000,4.000000,4.000000,4.000000,4.000000,4.000000,4.000000,4.000000,4.000000,4.000000,4.000000,4.000000,100.000000,,,,,,,,,,,,,,,,,10.000000,0.000000,0.729243,-0.116699,-0.670105,-0.074463,0.984007,-0.058113,0.087413,-15.310095,-41.330345,66.284767
1703407623.217382,1703407623.217752,41.000000,0.000000,4193.333496,4171.282227,4275.897461,4246.410156,4170.897461,4138.846191,4168.333496,4167.436035,4157.051270,4152.307617,4608.077148,4402.948730,4382.692383,4492.051270,0.000000,4.000000,76.000000,,,,0.000000,4.000000,4.000000,4.000000,4.000000,4.000000,4.000000,4.000000,4.000000,4.000000,4.000000,4.000000,4.000000,4.000000,4.000000,100.000000,,,,,,,,,,,,,,,,,,,,,,,,,,,,
1703407623.225190,1703407623.225460,42.000000,0.000000,4197.179688,4172.307617,4278.717773,4243.846191,4172.436035,4140.641113,4167.307617,4171.025879,4162.820313,4157.948730,4611.794922,4409.615234,4380.256348,4494.102539,0.000000,4.000000,76.000000,,,,0.000000,4.000000,4.000000,4.000000,4.000000,4.000000,4.000000,4.000000,4.000000,4.000000,4.000000,4.000000,4.000000,4.000000,4.000000,100.000000,,,,,,,,,,,,,,,,,,,,,,,,,,,,
1703407623.232998,1703407623.233268,43.000000,0.000000,4186.794922,4169.102539,4278.461426,4239.102539,4163.205078,4141.153809,4166.538574,4165.128418,4163.205078,4164.743652,4609.230957,4409.743652,4376.794922,4491.666504,0.000000,4.000000,76.000000,,,,0.000000,4.000000,4.000000,4.000000,4.000000,4.000000,4.000000,4.000000,4.000000,4.000000,4.000000,4.000000,4.000000,4.000000,4.000000,100.000000,,,,,,,,,,,,,,,,,,,,,,,,,,,,
1703407623.240806,1703407623.240976,44.000000,0.000000,4189.871582,4169.358887,4275.128418,4240.512695,4155.769043,4138.205078,4163.461426,4161.794922,4157.436035,4162.051270,4608.717773,4415.641113,4383.846191,4499.230957,0.000000,4.000000,76.000000,,,,0.000000,4.000000,4.000000,4.000000,4.000000,4.000000,4.000000,4.000000,4.000000,4.000000,4.000000,4.000000,4.000000,4.000000,4.000000,100.000000,,,,,,,,,,,,,,,,,11.000000,0.000000,0.729315,-0.116211,-0.670105,-0.074524,0.997192,-0.079600,0.084483,-15.479085,-41.263977,66.356293
1703407623.248614,1703407623.248784,45.000000,0.000000,4203.717773,4170.897461,4285.641113,4242.051270,4184.230957,4142.820313,4163.077148,4164.487305,4154.743652,4157.563965,4613.205078,4424.743652,4391.410156,4510.128418,0.000000,4.000000,76.000000,,,,0.000000,4.000000,4.000000,4.000000,4.000000,4.000000,4.000000,4.000000,4.000000,4.000000,4.000000,4.000000,4.000000,4.000000,4.000000,100.000000,,,,,,,,,,,,,,,,,,,,,,,,,,,,
1703407623.256422,1703407623.256492,46.000000,0.000000,4200.769043,4171.282227,4292.179688,4241.282227,4193.077148,4150.512695,4167.436035,4161.025879,4166.025879,4157.692383,4609.743652,4416.666504,4384.871582,4508.974121,0.000000,4.000000,76.000000,,,,0.000000,4.000000,4.000000,4.000000,4.000000,4.000000,4.000000,4.000000,4.000000,4.000000,4.000000,4.000000,4.000000,4.000000,4.000000,100.000000,,,,,,,,,,,,,,,,,,,,,,,,,,,,
1703407623.264230,1703407623.264400,47.000000,0.000000,4195.897461,4172.948730,4286.153809,4243.461426,4168.846191,4145.769043,4171.282227,4163.077148,4167.692383,4159.102539,4607.948730,4409.102539,4386.666504,4506.794922,0.000000,4.000000,76.000000,,,,0.000000,4.000000,4.000000,4.000000,4.000000,4.000000,4.000000,4.000000,4.000000,4.000000,4.000000,4.000000,4.000000,4.000000,4.000000,100.000000,,,,,,,,,,,,,,,,,,,,,,,,,,,,
1703407623.272038,1703407623.272208,48.000000,0.000000,4199.230957,4172.436035,4285.512695,4246.666504,4166.025879,4135.256348,4167.179688,4166.153809,4145.512695,4160.897461,4617.563965,4417.692383,4398.589844,4510.256348,0.000000,4.000000,76.000000,,,,0.000000,4.000000,4.000000,4.000000,4.000000,4.000000,4.000000,4.000000,4.000000,4.000000,4.000000,4.000000,4.000000,4.000000,4.000000,100.000000,,,,,,,,,,,,,,,,,12.000000,0.000000,0.729460,-0.116394,-0.669922,-0.074463,0.983518,-0.067391,0.083018,-15.281177,-41.287579,66.303993
1703407623.279846,1703407623.280116,49.000000,0.000000,4198.589844,4170.641113,4286.794922,4247.179688,4175.128418,4134.743652,4158.077148,4156.410156,4138.461426,4155.641113,4617.051270,4418.589844,4393.461426,4508.717773,0.000000,4.000000,76.000000,,,,0.000000,4.000000,4.000000,4.000000,4.000000,4.000000,4.000000,4.000000,4.000000,4.000000,4.000000,4.000000,4.000000,4.000000,4.000000,100.000000,,,,,,,,,,,,,,,,,,,,,,,,,,,,
1703407623.287654,1703407623.287925,50.000000,0.000000,4197.692383,4169.102539,4283.333496,4247.692383,4173.461426,4138.077148,4152.179688,4152.692383,4154.487305,4149.615234,4611.153809,4411.025879,4385.128418,4509.743652,0.000000,4.000000,76.000000,,,,0.000000,4.000000,4.000000,4.000000,4.000000,4.000000,4.000000,4.000000,4.000000,4.000000,4.000000,4.000000,4.000000,4.000000,4.000000,100.000000,,,,,,,,,,,,,,,,,,,,,,,,,,,,
1703407623.295462,1703407623.295833,51.000000,0.000000,4201.922852,4162.692383,4278.974121,4249.871582,4171.922852,4140.256348,4150.897461,4167.307617,4167.179688,4162.692383,4617.948730,4414.615234,4392.436035,4511.025879,0.000000,4.000000,76.000000,,,,0.000000,4.000000,4.000000,4.000000,4.000000,4.000000,4.000000,4.000000,4.000000,4.000000,4.000000,4.000000,4.000000,4.000000,4.000000,100.000000,,,,,,,,,,,,,,,,,,,,,,,,,,,,
1703407623.303270,1703407623.303641,52.000000,0.000000,4199.615234,4154.102539,4271.538574,4247.179688,4169.102539,4147.307617,4151.922852,4172.692383,4173.077148,4173.717773,4618.461426,4414.743652,4392.563965,4497.179688,0.000000,4.000000,76.000000,,,,0.000000,4.000000,4.000000,4.000000,4.000000,4.000000,4.000000,4.000000,4.000000,4.000000,4.000000,4.000000,4.000000,4.000000,4.000000,100.000000,,,,,,,,,,,,,,,,,13.000000,0.000000,0.729270,-0.116882,-0.670044,-0.074463,0.980100,-0.064461,0.065926,-15.303059,-41.492157,66.356926
