title:مضر انذار, start timestamp:1703402652.215482, stop timestamp:1703402663.029637, headset type:EPOCX, headset serial:E50206EF, headset firmware:720, channels:67, sampling rate:eeg_128;mot_32, samples:1386      , version:2.2, 
Timestamp,OriginalTimestamp,EEG.Counter,EEG.Interpolated,EEG.AF3,EEG.F7,EEG.F3,EEG.FC5,EEG.T7,EEG.P7,EEG.O1,EEG.O2,EEG.P8,EEG.T8,EEG.FC6,EEG.F4,EEG.F8,EEG.AF4,EEG.RawCq,EEG.Battery,EEG.BatteryPercent,MarkerIndex,MarkerType,MarkerValueInt,EEG.MarkerHardware,CQ.AF3,CQ.F7,CQ.F3,CQ.FC5,CQ.T7,CQ.P7,CQ.O1,CQ.O2,CQ.P8,CQ.T8,CQ.FC6,CQ.F4,CQ.F8,CQ.AF4,CQ.Overall,EQ.SampleRateQuality,EQ.OVERALL,EQ.AF3,EQ.F7,EQ.F3,EQ.FC5,EQ.T7,EQ.P7,EQ.O1,EQ.O2,EQ.P8,EQ.T8,EQ.FC6,EQ.F4,EQ.F8,EQ.AF4,MOT.CounterMems,MOT.InterpolatedMems,MOT.Q0,MOT.Q1,MOT.Q2,MOT.Q3,MOT.AccX,MOT.AccY,MOT.AccZ,MOT.MagX,MOT.MagY,MOT.MagZ
1703402652.215482,1703402652.216530,121.000000,0.000000,4299.358887,4184.487305,4351.282227,4313.077148,4195.641113,4157.820313,4209.230957,4175.000000,4165.000000,4186.025879,4749.358887,4592.563965,4508.717773,4676.666504,6299.000000,4.000000,91.000000,,,,0.000000,4.000000,4.000000,4.000000,4.000000,4.000000,4.000000,4.000000,4.000000,4.000000,4.000000,4.000000,4.000000,4.000000,4.000000,100.000000,,,,,,,,,,,,,,,,,,,,,,,,,,,,
1703402652.223290,1703402652.224238,122.000000,0.000000,4292.692383,4184.487305,4347.436035,4308.461426,4191.922852,4160.512695,4212.692383,4173.974121,4158.589844,4185.384766,4753.846191,4583.589844,4509.871582,4671.922852,5798.000000,4.000000,91.000000,,,,0.000000,4.000000,4.000000,4.000000,4.000000,4.000000,4.000000,4.000000,4.000000,4.000000,4.000000,4.000000,4.000000,4.000000,4.000000,100.000000,,,,,,,,,,,,,,,,,,,,,,,,,,,,
1703402652.231098,1703402652.232046,123.000000,0.000000,4287.820313,4185.256348,4347.948730,4307.051270,4191.410156,4162.692383,4208.974121,4168.846191,4155.769043,4187.563965,4756.666504,4573.717773,4508.333496,4663.205078,6135.000000,4.000000,91.000000,,,,0.000000,4.000000,4.000000,4.000000,4.000000,4.000000,4.000000,4.000000,4.000000,4.000000,4.000000,4.000000,4.000000,4.000000,4.000000,100.000000,,,,,,,,,,,,,,,,,,,,,,,,,,,,
1703402652.238906,1703402652.239754,124.000000,0.000000,4280.512695,4178.461426,4343.717773,4302.820313,4196.922852,4165.128418,4205.512695,4166.153809,4155.897461,4185.769043,4762.307617,4565.256348,4508.589844,4657.307617,6586.000000,4.000000,91.000000,,,,0.000000,4.000000,4.000000,4.000000,4.000000,4.000000,4.000000,4.000000,4.000000,4.000000,4.000000,4.000000,4.000000,4.000000,4.000000,100.000000,,,,,,,,,,,,,,,,,31.000000,0.000000,0.683699,-0.048340,-0.702820,0.190430,0.932731,-0.341350,0.013674,-30.046942,-5.094636,75.414528
1703402652.246714,1703402652.247562,125.000000,0.000000,4277.692383,4176.282227,4340.000000,4296.410156,4194.230957,4166.410156,4208.333496,4167.179688,4155.128418,4182.436035,4764.358887,4561.153809,4507.820313,4656.410156,6299.000000,4.000000,91.000000,,,,0.000000,4.000000,4.000000,4.000000,4.000000,4.000000,4.000000,4.000000,4.000000,4.000000,4.000000,4.000000,4.000000,4.000000,4.000000,100.000000,,,,,,,,,,,,,,,,,,,,,,,,,,,,
1703402652.254522,1703402652.255270,126.000000,0.000000,4282.563965,4182.179688,4345.256348,4296.410156,4186.538574,4163.589844,4206.666504,4165.897461,4154.871582,4185.769043,4771.153809,4562.307617,4505.769043,4658.077148,5798.000000,4.000000,91.000000,,,,0.000000,4.000000,4.000000,4.000000,4.000000,4.000000,4.000000,4.000000,4.000000,4.000000,4.000000,4.000000,4.000000,4.000000,4.000000,100.000000,,,,,,,,,,,,,,,,,,,,,,,,,,,,
1703402652.262330,1703402652.263178,127.000000,0.000000,4278.333496,4178.461426,4347.948730,4296.538574,4184.743652,4157.563965,4201.538574,4159.743652,4156.794922,4191.025879,4777.436035,4561.282227,4506.922852,4658.461426,91.000000,4.000000,91.000000,,,,0.000000,4.000000,4.000000,4.000000,4.000000,4.000000,4.000000,4.000000,4.000000,4.000000,4.000000,4.000000,4.000000,4.000000,4.000000,100.000000,,,,,,,,,,,,,,,,,,,,,,,,,,,,
1703402652.270138,1703402652.270986,0.000000,0.000000,4268.717773,4173.333496,4343.205078,4291.666504,4183.846191,4155.000000,4203.333496,4156.922852,4154.358887,4187.051270,4770.256348,4554.871582,4504.743652,4652.948730,5262.000000,4.000000,91.000000,,,,0.000000,4.000000,4.000000,4.000000,4.000000,4.000000,4.000000,4.000000,4.000000,4.000000,4.000000,4.000000,4.000000,4.000000,4.000000,100.000000,1.000000,75.000000,4.000000,4.000000,4.000000,4.000000,4.000000,4.000000,4.000000,4.000000,4.000000,4.000000,1.000000,4.000000,4.000000,4.000000,0.000000,0.000000,0.683615,-0.048401,-0.702881,0.190491,0.929313,-0.333537,0.000000,-30.075581,-5.051839,75.539742
1703402652.277946,1703402652.278894,1.000000,0.000000,4271.794922,4179.487305,4347.692383,4295.256348,4187.179688,4157.692383,4205.641113,4162.307617,4152.179688,4186.922852,4768.205078,4555.897461,4501.282227,4651.025879,4919.000000,4.000000,91.000000,,,,0.000000,4.000000,4.000000,4.000000,4.000000,4.000000,4.000000,4.000000,4.000000,4.000000,4.000000,4.000000,4.000000,4.000000,4.000000,100.000000,,,,,,,,,,,,,,,,,,,,,,,,,,,,
1703402652.285754,1703402652.286702,2.000000,0.000000,4282.692383,4187.051270,4358.589844,4307.692383,4195.512695,4157.179688,4202.563965,4168.461426,4158.589844,4203.077148,4784.743652,4561.794922,4508.974121,4660.641113,5086.000000,4.000000,91.000000,,,,0.000000,4.000000,4.000000,4.000000,4.000000,4.000000,4.000000,4.000000,4.000000,4.000000,4.000000,4.000000,4.000000,4.000000,4.000000,100.000000,,,,,,,,,,,,,,,,,,,,,,,,,,,,
1703402652.293562,1703402652.294510,3.000000,0.000000,4291.025879,4195.384766,4365.512695,4313.205078,4200.000000,4155.641113,4202.692383,4172.307617,4168.077148,4214.358887,4797.948730,4565.641113,4523.333496,4672.820313,5233.000000,4.000000,91.000000,,,,0.000000,4.000000,4.000000,4.000000,4.000000,4.000000,4.000000,4.000000,4.000000,4.000000,4.000000,4.000000,4.000000,4.000000,4.000000,100.000000,,,,,,,,,,,,,,,,,,,,,,,,,,,,
1703402652.301370,1703402652.302218,4.000000,0.000000,4295.128418,4199.871582,4367.948730,4310.128418,4199.230957,4164.358887,4207.820313,4176.025879,4174.230957,4212.820313,4802.179688,4574.487305,4527.436035,4679.871582,5028.000000,4.000000,91.000000,,,,0.000000,4.000000,4.000000,4.000000,4.000000,4.000000,4.000000,4.000000,4.000000,4.000000,4.000000,4.000000,4.000000,4.000000,4.000000,100.000000,,,,,,,,,,,,,,,,,1.000000,0.000000,0.683522,-0.048340,-0.702942,0.190613,0.932731,-0.330607,0.015139,-29.884689,-5.013322,75.402428
1703402652.309178,1703402652.310026,5.000000,0.000000,4295.256348,4193.461426,4367.307617,4308.077148,4198.589844,4168.589844,4207.563965,4174.487305,4169.102539,4209.102539,4801.282227,4576.153809,4523.846191,4678.205078,5071.000000,4.000000,91.000000,,,,0.000000,4.000000,4.000000,4.000000,4.000000,4.000000,4.000000,4.000000,4.000000,4.000000,4.000000,4.000000,4.000000,4.000000,4.000000,100.000000,,,,,,,,,,,,,,,,,,,,,,,,,,,,
1703402652.316986,1703402652.317734,6.000000,0.000000,4293.589844,4187.051270,4363.077148,4306.153809,4197.948730,4164.615234,4206.282227,4167.563965,4157.307617,4203.846191,4788.461426,4564.230957,4520.512695,4668.974121,3104.000000,4.000000,91.000000,,,,0.000000,4.000000,4.000000,4.000000,4.000000,4.000000,4.000000,4.000000,4.000000,4.000000,4.000000,4.000000,4.000000,4.000000,4.000000,100.000000,,,,,,,,,,,,,,,,,,,,,,,,,,,,
1703402652.324794,1703402652.325642,7.000000,0.000000,4293.589844,4191.666504,4363.333496,4304.615234,4193.333496,4168.461426,4210.128418,4166.538574,4154.487305,4200.384766,4786.025879,4562.307617,4523.077148,4667.692383,5240.000000,4.000000,91.000000,,,,0.000000,4.000000,4.000000,4.000000,4.000000,4.000000,4.000000,4.000000,4.000000,4.000000,4.000000,4.000000,4.000000,4.000000,4.000000,100.000000,,,,,,,,,,,,,,,,,,,,,,,,,,,,
1703402652.332603,1703402652.333450,8.000000,0.000000,4292.948730,4193.846191,4367.563965,4305.256348,4188.333496,4174.230957,4212.179688,4171.282227,4158.717773,4201.794922,4794.615234,4570.769043,4529.743652,4676.922852,5245.000000,4.000000,91.000000,,,,0.000000,4.000000,4.000000,4.000000,4.000000,4.000000,4.000000,4.000000,4.000000,4.000000,4.000000,4.000000,4.000000,4.000000,4.000000,100.000000,,,,,,,,,,,,,,,,,2.000000,0.000000,0.683443,-0.048096,-0.703003,0.190735,0.935173,-0.340374,0.016115,-29.929554,-5.028656,75.528854
1703402652.340411,1703402652.341258,9.000000,0.000000,4286.794922,4187.692383,4365.000000,4299.615234,4185.000000,4165.256348,4209.615234,4168.717773,4157.948730,4199.358887,4789.743652,4569.102539,4528.077148,4675.769043,5136.000000,4.000000,91.000000,,,,0.000000,4.000000,4.000000,4.000000,4.000000,4.000000,4.000000,4.000000,4.000000,4.000000,4.000000,4.000000,4.000000,4.000000,4.000000,100.000000,,,,,,,,,,,,,,,,,,,,,,,,,,,,
1703402652.348219,1703402652.348966,10.000000,0.000000,4279.358887,4183.974121,4360.897461,4295.000000,4184.487305,4159.615234,4207.563965,4164.230957,4155.000000,4204.102539,4785.000000,4563.717773,4521.538574,4667.051270,5798.000000,4.000000,91.000000,,,,0.000000,4.000000,4.000000,4.000000,4.000000,4.000000,4.000000,4.000000,4.000000,4.000000,4.000000,4.000000,4.000000,4.000000,4.000000,100.000000,,,,,,,,,,,,,,,,,,,,,,,,,,,,
1703402652.356027,1703402652.356874,11.000000,0.000000,4281.410156,4187.051270,4362.563965,4301.922852,4185.000000,4167.051270,4210.000000,4168.974121,4156.922852,4213.846191,4795.384766,4567.820313,4524.871582,4673.205078,6135.000000,4.000000,91.000000,,,,0.000000,4.000000,4.000000,4.000000,4.000000,4.000000,4.000000,4.000000,4.000000,4.000000,4.000000,4.000000,4.000000,4.000000,4.000000,100.000000,,,,,,,,,,,,,,,,,,,,,,,,,,,,
1703402652.363835,1703402652.364682,12.000000,0.000000,4288.974121,4188.589844,4366.922852,4304.358887,4182.948730,4165.641113,4210.512695,4174.871582,4161.922852,4210.000000,4801.666504,4573.974121,4533.589844,4686.794922,6591.000000,4.000000,91.000000,,,,0.000000,4.000000,4.000000,4.000000,4.000000,4.000000,4.000000,4.000000,4.000000,4.000000,4.000000,4.000000,4.000000,4.000000,4.000000,100.000000,,,,,,,,,,,,,,,,,3.000000,0.000000,0.683473,-0.047913,-0.703003,0.190674,0.928336,-0.344769,0.004883,-29.903265,-5.109124,75.459305
1703402652.371643,1703402652.372590,13.000000,0.000000,4285.000000,4183.846191,4364.615234,4295.384766,4180.000000,4155.512695,4208.461426,4173.846191,4166.794922,4203.333496,4796.666504,4570.897461,4532.179688,4685.769043,6304.000000,4.000000,91.000000,,,,0.000000,4.000000,4.000000,4.000000,4.000000,4.000000,4.000000,4.000000,4.000000,4.000000,4.000000,4.000000,4.000000,4.000000,4.000000,100.000000,,,,,,,,,,,,,,,,,,,,,,,,,,,,
1703402652.379451,1703402652.380398,14.000000,0.000000,4274.743652,4181.153809,4358.717773,4291.282227,4177.307617,4153.974121,4206.666504,4175.897461,4167.820313,4205.641113,4792.692383,4565.897461,4525.641113,4674.102539,5798.000000,4.000000,91.000000,,,,0.000000,4.000000,4.000000,4.000000,4.000000,4.000000,4.000000,4.000000,4.000000,4.000000,4.000000,4.000000,4.000000,4.000000,4.000000,100.000000,,,,,,,,,,,,,,,,,,,,,,,,,,,,
1703402652.387259,1703402652.388305,15.000000,0.000000,4273.205078,4187.179688,4360.000000,4296.282227,4179.358887,4157.692383,4206.282227,4183.461426,4167.051270,4209.615234,4795.384766,4571.538574,4528.974121,4672.563965,6135.000000,4.000000,91.000000,,,,0.000000,4.000000,4.000000,4.000000,4.000000,4.000000,4.000000,4.000000,4.000000,4.000000,4.000000,4.000000,4.000000,4.000000,4.000000,100.000000,,,,,,,,,,,,,,,,,,,,,,,,,,,,
1703402652.395067,1703402652.396113,16.000000,0.000000,4278.974121,4196.025879,4363.589844,4296.666504,4183.077148,4156.025879,4208.333496,4187.436035,4171.025879,4215.256348,4804.102539,4580.897461,4540.512695,4683.846191,0.000000,4.000000,91.000000,,,,0.000000,4.000000,4.000000,4.000000,4.000000,4.000000,4.000000,4.000000,4.000000,4.000000,4.000000,4.000000,4.000000,4.000000,4.000000,100.000000,,,,,,,,,,,,,,,,,4.000000,0.000000,0.683373,-0.047791,-0.703125,0.190613,0.931266,-0.330118,0.007325,-29.796272,-5.131545,75.530037
1703402652.402875,1703402652.403822,17.000000,0.000000,4280.000000,4199.487305,4362.051270,4294.230957,4187.179688,4154.615234,4211.025879,4188.846191,4175.384766,4222.179688,4806.025879,4582.948730,4549.102539,4687.692383,0.000000,4.000000,91.000000,,,,0.000000,4.000000,4.000000,4.000000,4.000000,4.000000,4.000000,4.000000,4.000000,4.000000,4.000000,4.000000,4.000000,4.000000,4.000000,100.000000,,,,,,,,,,,,,,,,,,,,,,,,,,,,
1703402652.410683,1703402652.411629,18.000000,0.000000,4273.077148,4198.461426,4358.589844,4299.230957,4189.358887,4162.051270,4211.282227,4186.282227,4175.897461,4218.205078,4794.358887,4579.615234,4547.179688,4679.487305,0.000000,4.000000,91.000000,,,,0.000000,4.000000,4.000000,4.000000,4.000000,4.000000,4.000000,4.000000,4.000000,4.000000,4.000000,4.000000,4.000000,4.000000,4.000000,100.000000,,,,,,,,,,,,,,,,,,,,,,,,,,,,
1703402652.418491,1703402652.419338,19.000000,0.000000,4267.948730,4197.692383,4359.487305,4303.077148,4186.282227,4165.384766,4209.871582,4178.333496,4173.717773,4207.820313,4785.897461,4575.769043,4542.692383,4676.538574,0.000000,4.000000,91.000000,,,,0.000000,4.000000,4.000000,4.000000,4.000000,4.000000,4.000000,4.000000,4.000000,4.000000,4.000000,4.000000,4.000000,4.000000,4.000000,100.000000,,,,,,,,,,,,,,,,,,,,,,,,,,,,
1703402652.426299,1703402652.427146,20.000000,0.000000,4265.384766,4192.820313,4356.922852,4299.487305,4183.333496,4156.538574,4211.153809,4172.179688,4166.025879,4203.333496,4780.641113,4571.538574,4539.615234,4677.563965,0.000000,4.000000,91.000000,,,,0.000000,4.000000,4.000000,4.000000,4.000000,4.000000,4.000000,4.000000,4.000000,4.000000,4.000000,4.000000,4.000000,4.000000,4.000000,100.000000,,,,,,,,,,,,,,,,,5.000000,0.000000,0.683390,-0.047791,-0.703125,0.190552,0.923453,-0.341839,0.016115,-29.699978,-5.118391,75.510368
1703402652.434107,1703402652.434854,21.000000,0.000000,4258.846191,4185.000000,4348.461426,4291.794922,4183.974121,4156.538574,4210.769043,4165.897461,4156.410156,4197.436035,4766.666504,4563.717773,4530.897461,4667.692383,0.000000,4.000000,91.000000,,,,0.000000,4.000000,4.000000,4.000000,4.000000,4.000000,4.000000,4.000000,4.000000,4.000000,4.000000,4.000000,4.000000,4.000000,4.000000,100.000000,,,,,,,,,,,,,,,,,,,,,,,,,,,,
1703402652.441915,1703402652.442662,22.000000,0.000000,4256.153809,4183.974121,4345.897461,4286.282227,4186.666504,4168.333496,4213.717773,4157.820313,4149.615234,4193.589844,4759.102539,4559.487305,4522.820313,4657.948730,0.000000,4.000000,91.000000,,,,0.000000,4.000000,4.000000,4.000000,4.000000,4.000000,4.000000,4.000000,4.000000,4.000000,4.000000,4.000000,4.000000,4.000000,4.000000,100.000000,,,,,,,,,,,,,,,,,,,,,,,,,,,,
1703402652.449723,1703402652.450370,23.000000,0.000000,4256.153809,4184.615234,4349.615234,4285.897461,4186.153809,4172.692383,4218.974121,4151.538574,4146.282227,4192.051270,4761.025879,4560.128418,4523.461426,4662.051270,0.000000,4.000000,91.000000,,,,0.000000,4.000000,4.000000,4.000000,4.000000,4.000000,4.000000,4.000000,4.000000,4.000000,4.000000,4.000000,4.000000,4.000000,4.000000,100.000000,,,,,,,,,,,,,,,,,,,,,,,,,,,,
1703402652.457531,1703402652.458178,24.000000,0.000000,4252.051270,4181.410156,4351.794922,4291.153809,4186.538574,4170.000000,4216.153809,4150.641113,4146.282227,4185.897461,4755.769043,4560.769043,4523.333496,4664.230957,0.000000,4.000000,91.000000,,,,0.000000,4.000000,4.000000,4.000000,4.000000,4.000000,4.000000,4.000000,4.000000,4.000000,4.000000,4.000000,4.000000,4.000000,4.000000,100.000000,,,,,,,,,,,,,,,,,6.000000,0.000000,0.683368,-0.047852,-0.703125,0.190613,0.930778,-0.346722,0.013185,-29.679981,-5.289885,75.459335
1703402652.465340,1703402652.465886,25.000000,0.000000,4252.563965,4183.333496,4351.282227,4292.436035,4184.871582,4164.615234,4215.641113,4160.256348,4150.769043,4184.743652,4750.128418,4565.512695,4520.000000,4661.153809,0.000000,4.000000,91.000000,,,,0.000000,4.000000,4.000000,4.000000,4.000000,4.000000,4.000000,4.000000,4.000000,4.000000,4.000000,4.000000,4.000000,4.000000,4.000000,100.000000,,,,,,,,,,,,,,,,,,,,,,,,,,,,
1703402652.473148,1703402652.473694,26.000000,0.000000,4254.358887,4184.102539,4354.358887,4285.384766,4180.128418,4159.487305,4219.102539,4170.128418,4154.615234,4191.922852,4752.051270,4569.743652,4522.436035,4662.820313,0.000000,4.000000,91.000000,,,,0.000000,4.000000,4.000000,4.000000,4.000000,4.000000,4.000000,4.000000,4.000000,4.000000,4.000000,4.000000,4.000000,4.000000,4.000000,100.000000,,,,,,,,,,,,,,,,,,,,,,,,,,,,
1703402652.480955,1703402652.481402,27.000000,0.000000,4246.538574,4176.922852,4357.692383,4280.000000,4183.205078,4162.820313,4216.282227,4167.692383,4152.692383,4188.717773,4754.487305,4566.410156,4524.358887,4664.871582,0.000000,4.000000,91.000000,,,,0.000000,4.000000,4.000000,4.000000,4.000000,4.000000,4.000000,4.000000,4.000000,4.000000,4.000000,4.000000,4.000000,4.000000,4.000000,100.000000,,,,,,,,,,,,,,,,,,,,,,,,,,,,
1703402652.488764,1703402652.489210,28.000000,0.000000,4243.077148,4175.384766,4355.641113,4280.000000,4188.717773,4168.846191,4215.641113,4171.153809,4158.205078,4185.769043,4758.846191,4567.051270,4521.282227,4665.641113,0.000000,4.000000,91.000000,,,,0.000000,4.000000,4.000000,4.000000,4.000000,4.000000,4.000000,4.000000,4.000000,4.000000,4.000000,4.000000,4.000000,4.000000,4.000000,100.000000,,,,,,,,,,,,,,,,,7.000000,0.000000,0.683309,-0.047974,-0.703125,0.190796,0.935173,-0.336467,0.006348,-29.678650,-5.377563,75.313400
1703402652.496572,1703402652.496918,29.000000,0.000000,4255.897461,4184.230957,4355.897461,4286.794922,4188.077148,4167.948730,4223.974121,4186.794922,4171.153809,4199.230957,4766.538574,4576.794922,4524.102539,4669.871582,0.000000,4.000000,91.000000,,,,0.000000,4.000000,4.000000,4.000000,4.000000,4.000000,4.000000,4.000000,4.000000,4.000000,4.000000,4.000000,4.000000,4.000000,4.000000,100.000000,,,,,,,,,,,,,,,,,,,,,,,,,,,,
1703402652.504380,1703402652.504726,30.000000,0.000000,4261.922852,4187.563965,4359.743652,4291.153809,4183.205078,4169.615234,4226.666504,4191.282227,4175.897461,4206.538574,4767.307617,4579.615234,4530.641113,4675.000000,0.000000,4.000000,91.000000,,,,0.000000,4.000000,4.000000,4.000000,4.000000,4.000000,4.000000,4.000000,4.000000,4.000000,4.000000,4.000000,4.000000,4.000000,4.000000,100.000000,,,,,,,,,,,,,,,,,,,,,,,,,,,,
1703402652.512188,1703402652.512434,31.000000,0.000000,4255.512695,4184.230957,4360.897461,4283.846191,4185.256348,4174.615234,4222.307617,4188.205078,4175.256348,4203.461426,4768.846191,4575.128418,4535.512695,4675.512695,0.000000,4.000000,91.000000,,,,0.000000,4.000000,4.000000,4.000000,4.000000,4.000000,4.000000,4.000000,4.000000,4.000000,4.000000,4.000000,4.000000,4.000000,4.000000,100.000000,,,,,,,,,,,,,,,,,,,,,,,,,,,,
1703402652.519996,1703402652.520342,32.000000,0.000000,4254.102539,4185.512695,4356.794922,4279.871582,4190.384766,4173.846191,4223.974121,4187.307617,4170.769043,4199.743652,4766.922852,4573.333496,4534.743652,4670.769043,0.000000,4.000000,91.000000,,,,0.000000,4.000000,4.000000,4.000000,4.000000,4.000000,4.000000,4.000000,4.000000,4.000000,4.000000,4.000000,4.000000,4.000000,4.000000,100.000000,,,,,,,,,,,,,,,,,8.000000,0.000000,0.683229,-0.047974,-0.703186,0.190857,0.927359,-0.338909,0.008790,-29.544117,-5.373140,75.232056
1703402652.527804,1703402652.528150,33.000000,0.000000,4253.974121,4188.077148,4351.538574,4282.692383,4188.077148,4169.743652,4223.846191,4176.153809,4160.256348,4188.333496,4753.974121,4566.794922,4526.282227,4662.948730,0.000000,4.000000,91.000000,,,,0.000000,4.000000,4.000000,4.000000,4.000000,4.000000,4.000000,4.000000,4.000000,4.000000,4.000000,4.000000,4.000000,4.000000,4.000000,100.000000,,,,,,,,,,,,,,,,,,,,,,,,,,,,
1703402652.535612,1703402652.536058,34.000000,0.000000,4247.436035,4185.256348,4351.025879,4281.538574,4185.000000,4167.820313,4218.589844,4167.051270,4154.102539,4181.025879,4746.794922,4557.948730,4519.743652,4658.333496,0.000000,4.000000,91.000000,,,,0.000000,4.000000,4.000000,4.000000,4.000000,4.000000,4.000000,4.000000,4.000000,4.000000,4.000000,4.000000,4.000000,4.000000,4.000000,100.000000,,,,,,,,,,,,,,,,,,,,,,,,,,,,
1703402652.543420,1703402652.543865,35.000000,0.000000,4247.307617,4181.410156,4353.205078,4278.333496,4187.692383,4171.153809,4221.025879,4170.384766,4157.436035,4187.692383,4746.922852,4559.487305,4521.410156,4660.256348,0.000000,4.000000,91.000000,,,,0.000000,4.000000,4.000000,4.000000,4.000000,4.000000,4.000000,4.000000,4.000000,4.000000,4.000000,4.000000,4.000000,4.000000,4.000000,100.000000,,,,,,,,,,,,,,,,,,,,,,,,,,,,
1703402652.551228,1703402652.551773,36.000000,0.000000,4246.538574,4179.743652,4348.461426,4277.692383,4189.743652,4170.769043,4224.230957,4163.333496,4154.487305,4181.922852,4740.384766,4557.307617,4521.794922,4656.153809,0.000000,4.000000,91.000000,,,,0.000000,4.000000,4.000000,4.000000,4.000000,4.000000,4.000000,4.000000,4.000000,4.000000,4.000000,4.000000,4.000000,4.000000,4.000000,100.000000,,,,,,,,,,,,,,,,,9.000000,0.000000,0.683273,-0.048157,-0.703064,0.191101,0.937614,-0.339397,0.011232,-29.623039,-5.435826,75.258850
1703402652.559036,1703402652.559581,37.000000,0.000000,4233.974121,4175.769043,4345.384766,4273.974121,4182.051270,4162.563965,4218.333496,4151.666504,4144.358887,4165.512695,4734.230957,4549.102539,4517.051270,4644.743652,0.000000,4.000000,91.000000,,,,0.000000,4.000000,4.000000,4.000000,4.000000,4.000000,4.000000,4.000000,4.000000,4.000000,4.000000,4.000000,4.000000,4.000000,4.000000,100.000000,,,,,,,,,,,,,,,,,,,,,,,,,,,,
1703402652.566844,1703402652.567489,38.000000,0.000000,4235.384766,4173.589844,4350.256348,4273.589844,4178.974121,4155.769043,4213.846191,4155.897461,4146.025879,4171.538574,4739.871582,4556.025879,4520.641113,4646.922852,0.000000,4.000000,91.000000,,,,0.000000,4.000000,4.000000,4.000000,4.000000,4.000000,4.000000,4.000000,4.000000,4.000000,4.000000,4.000000,4.000000,4.000000,4.000000,100.000000,,,,,,,,,,,,,,,,,,,,,,,,,,,,
1703402652.574652,1703402652.575297,39.000000,0.000000,4249.358887,4172.179688,4351.282227,4276.282227,4184.615234,4153.589844,4217.563965,4162.820313,4152.051270,4181.666504,4741.153809,4564.743652,4523.205078,4658.461426,0.000000,4.000000,91.000000,,,,0.000000,4.000000,4.000000,4.000000,4.000000,4.000000,4.000000,4.000000,4.000000,4.000000,4.000000,4.000000,4.000000,4.000000,4.000000,100.000000,,,,,,,,,,,,,,,,,,,,,,,,,,,,
1703402652.582460,1703402652.583205,40.000000,0.000000,4245.512695,4169.615234,4349.230957,4272.948730,4182.051270,4153.717773,4220.256348,4161.794922,4152.179688,4176.410156,4733.846191,4560.384766,4511.025879,4658.077148,0.000000,4.000000,91.000000,,,,0.000000,4.000000,4.000000,4.000000,4.000000,4.000000,4.000000,4.000000,4.000000,4.000000,4.000000,4.000000,4.000000,4.000000,4.000000,100.000000,,,,,,,,,,,,,,,,,10.000000,0.000000,0.683172,-0.048218,-0.703125,0.191223,0.932243,-0.343304,0.011720,-29.644068,-5.525577,75.232971
1703402652.590268,1703402652.591013,41.000000,0.000000,4239.615234,4176.794922,4355.128418,4275.512695,4180.256348,4161.538574,4222.179688,4167.563965,4161.282227,4180.384766,4739.615234,4560.256348,4511.666504,4655.256348,0.000000,4.000000,91.000000,,,,0.000000,4.000000,4.000000,4.000000,4.000000,4.000000,4.000000,4.000000,4.000000,4.000000,4.000000,4.000000,4.000000,4.000000,4.000000,100.000000,,,,,,,,,,,,,,,,,,,,,,,,,,,,
1703402652.598076,1703402652.598721,42.000000,0.000000,4243.717773,4183.205078,4359.230957,4282.179688,4185.000000,4167.563965,4224.358887,4173.205078,4167.436035,4187.051270,4745.641113,4566.025879,4520.256348,4657.948730,0.000000,4.000000,91.000000,,,,0.000000,4.000000,4.000000,4.000000,4.000000,4.000000,4.000000,4.000000,4.000000,4.000000,4.000000,4.000000,4.000000,4.000000,4.000000,100.000000,,,,,,,,,,,,,,,,,,,,,,,,,,,,
1703402652.605884,1703402652.606529,43.000000,0.000000,4236.922852,4178.461426,4356.538574,4278.205078,4178.846191,4160.384766,4220.769043,4167.307617,4159.615234,4179.102539,4735.769043,4563.205078,4511.410156,4656.153809,0.000000,4.000000,91.000000,,,,0.000000,4.000000,4.000000,4.000000,4.000000,4.000000,4.000000,4.000000,4.000000,4.000000,4.000000,4.000000,4.000000,4.000000,4.000000,100.000000,,,,,,,,,,,,,,,,,,,,,,,,,,,,
1703402652.613692,1703402652.614237,44.000000,0.000000,4228.589844,4177.307617,4359.615234,4277.692383,4173.974121,4158.205078,4220.000000,4165.256348,4161.410156,4178.333496,4733.461426,4561.025879,4508.717773,4654.871582,0.000000,4.000000,91.000000,,,,0.000000,4.000000,4.000000,4.000000,4.000000,4.000000,4.000000,4.000000,4.000000,4.000000,4.000000,4.000000,4.000000,4.000000,4.000000,100.000000,,,,,,,,,,,,,,,,,11.000000,0.000000,0.683146,-0.048340,-0.703125,0.191284,0.932243,-0.343792,0.009278,-29.696329,-5.473019,75.159668
1703402652.621501,1703402652.622045,45.000000,0.000000,4240.769043,4187.692383,4364.230957,4285.641113,4188.461426,4169.615234,4225.641113,4169.615234,4168.846191,4186.922852,4742.948730,4567.692383,4521.666504,4658.846191,0.000000,4.000000,91.000000,,,,0.000000,4.000000,4.000000,4.000000,4.000000,4.000000,4.000000,4.000000,4.000000,4.000000,4.000000,4.000000,4.000000,4.000000,4.000000,100.000000,,,,,,,,,,,,,,,,,,,,,,,,,,,,
1703402652.629309,1703402652.629753,46.000000,0.000000,4250.128418,4189.230957,4360.641113,4286.410156,4193.717773,4171.922852,4224.743652,4167.307617,4160.897461,4183.974121,4740.769043,4571.538574,4522.436035,4657.563965,0.000000,4.000000,91.000000,,,,0.000000,4.000000,4.000000,4.000000,4.000000,4.000000,4.000000,4.000000,4.000000,4.000000,4.000000,4.000000,4.000000,4.000000,4.000000,100.000000,,,,,,,,,,,,,,,,,,,,,,,,,,,,
1703402652.637117,1703402652.637561,47.000000,0.000000,4244.871582,4182.692383,4358.974121,4280.641113,4183.205078,4162.051270,4222.307617,4166.025879,4159.743652,4181.153809,4735.256348,4575.641113,4515.641113,4656.153809,0.000000,4.000000,91.000000,,,,0.000000,4.000000,4.000000,4.000000,4.000000,4.000000,4.000000,4.000000,4.000000,4.000000,4.000000,4.000000,4.000000,4.000000,4.000000,100.000000,,,,,,,,,,,,,,,,,,,,,,,,,,,,
1703402652.644925,1703402652.645269,48.000000,0.000000,4241.153809,4183.077148,4359.230957,4277.820313,4183.717773,4156.025879,4222.436035,4175.128418,4173.333496,4184.871582,4738.461426,4583.974121,4515.512695,4657.563965,0.000000,4.000000,91.000000,,,,0.000000,4.000000,4.000000,4.000000,4.000000,4.000000,4.000000,4.000000,4.000000,4.000000,4.000000,4.000000,4.000000,4.000000,4.000000,100.000000,,,,,,,,,,,,,,,,,12.000000,0.000000,0.683113,-0.048401,-0.703186,0.191162,0.930778,-0.351117,0.008302,-29.843363,-5.392384,75.277039
1703402652.652733,1703402652.653077,49.000000,0.000000,4240.512695,4184.871582,4354.743652,4277.179688,4185.769043,4154.358887,4223.589844,4182.307617,4173.974121,4186.666504,4737.563965,4583.717773,4510.256348,4653.589844,0.000000,4.000000,91.000000,,,,0.000000,4.000000,4.000000,4.000000,4.000000,4.000000,4.000000,4.000000,4.000000,4.000000,4.000000,4.000000,4.000000,4.000000,4.000000,100.000000,,,,,,,,,,,,,,,,,,,,,,,,,,,,
1703402652.660541,1703402652.660785,50.000000,0.000000,4233.077148,4179.743652,4353.205078,4278.205078,4179.358887,4154.615234,4225.384766,4176.410156,4164.102539,4183.333496,4728.461426,4577.436035,4505.512695,4647.820313,0.000000,4.000000,91.000000,,,,0.000000,4.000000,4.000000,4.000000,4.000000,4.000000,4.000000,4.000000,4.000000,4.000000,4.000000,4.000000,4.000000,4.000000,4.000000,100.000000,,,,,,,,,,,,,,,,,,,,,,,,,,,,
1703402652.668349,1703402652.668593,51.000000,0.000000,4224.615234,4172.051270,4357.179688,4279.102539,4174.743652,4154.358887,4224.358887,4171.025879,4161.666504,4172.179688,4718.333496,4577.051270,4504.743652,4646.410156,0.000000,4.000000,91.000000,,,,0.000000,4.000000,4.000000,4.000000,4.000000,4.000000,4.000000,4.000000,4.000000,4.000000,4.000000,4.000000,4.000000,4.000000,4.000000,100.000000,,,,,,,,,,,,,,,,,,,,,,,,,,,,
1703402652.676157,1703402652.676301,52.000000,0.000000,4226.025879,4171.282227,4360.256348,4277.820313,4172.307617,4152.179688,4223.589844,4179.358887,4165.769043,4167.179688,4715.384766,4582.820313,4503.205078,4649.358887,0.000000,4.000000,91.000000,,,,0.000000,4.000000,4.000000,4.000000,4.000000,4.000000,4.000000,4.000000,4.000000,4.000000,4.000000,4.000000,4.000000,4.000000,4.000000,100.000000,,,,,,,,,,,,,,,,,13.000000,0.000000,0.683068,-0.048401,-0.703247,0.191101,0.934196,-0.338420,0.000488,-29.942360,-5.369812,75.216003
1703402652.683965,1703402652.684109,53.000000,0.000000,4228.077148,4173.974121,4359.358887,4279.102539,4169.743652,4154.230957,4227.820313,4183.333496,4167.307617,4173.461426,4717.692383,4586.282227,4504.871582,4651.538574,0.000000,4.000000,91.000000,,,,0.000000,4.000000,4.000000,4.000000,4.000000,4.000000,4.000000,4.000000,4.000000,4.000000,4.000000,4.000000,4.000000,4.000000,4.000000,100.000000,,,,,,,,,,,,,,,,,,,,,,,,,,,,
1703402652.691773,1703402652.691817,54.000000,0.000000,4222.948730,4176.025879,4354.102539,4279.230957,4172.563965,4159.615234,4228.974121,4174.230957,4160.128418,4173.333496,4712.051270,4578.717773,4505.256348,4649.102539,0.000000,4.000000,91.000000,,,,0.000000,4.000000,4.000000,4.000000,4.000000,4.000000,4.000000,4.000000,4.000000,4.000000,4.000000,4.000000,4.000000,4.000000,4.000000,100.000000,,,,,,,,,,,,,,,,,,,,,,,,,,,,
1703402652.699581,1703402652.699725,55.000000,0.000000,4222.179688,4181.282227,4353.461426,4280.128418,4180.000000,4159.615234,4225.897461,4169.230957,4153.846191,4168.205078,4706.538574,4573.333496,4505.000000,4651.153809,0.000000,4.000000,91.000000,,,,0.000000,4.000000,4.000000,4.000000,4.000000,4.000000,4.000000,4.000000,4.000000,4.000000,4.000000,4.000000,4.000000,4.000000,4.000000,100.000000,,,,,,,,,,,,,,,,,,,,,,,,,,,,
1703402652.707389,1703402652.707533,56.000000,0.000000,4233.589844,4187.179688,4359.230957,4287.051270,4184.230957,4156.922852,4224.487305,4173.846191,4158.333496,4170.128418,4715.256348,4580.128418,4511.025879,4655.641113,0.000000,4.000000,91.000000,,,,0.000000,4.000000,4.000000,4.000000,4.000000,4.000000,4.000000,4.000000,4.000000,4.000000,4.000000,4.000000,4.000000,4.000000,4.000000,100.000000,,,,,,,,,,,,,,,,,14.000000,0.000000,0.683009,-0.048340,-0.703308,0.191101,0.930289,-0.335979,0.008302,-29.914789,-5.499497,75.261070
1703402652.715197,1703402652.715441,57.000000,0.000000,4238.589844,4181.794922,4353.974121,4282.307617,4184.871582,4160.512695,4224.358887,4169.615234,4162.563965,4172.307617,4716.153809,4574.743652,4511.410156,4650.512695,0.000000,4.000000,91.000000,,,,0.000000,4.000000,4.000000,4.000000,4.000000,4.000000,4.000000,4.000000,4.000000,4.000000,4.000000,4.000000,4.000000,4.000000,4.000000,100.000000,,,,,,,,,,,,,,,,,,,,,,,,,,,,
1703402652.723005,1703402652.723249,58.000000,0.000000,4224.743652,4171.153809,4340.897461,4268.461426,4186.666504,4167.948730,4223.717773,4157.436035,4157.436035,4168.333496,4700.384766,4561.538574,4498.589844,4640.384766,0.000000,4.000000,91.000000,,,,0.000000,4.000000,4.000000,4.000000,4.000000,4.000000,4.000000,4.000000,4.000000,4.000000,4.000000,4.000000,4.000000,4.000000,4.000000,100.000000,,,,,,,,,,,,,,,,,,,,,,,,,,,,
1703402652.730813,1703402652.731157,59.000000,0.000000,4216.410156,4172.948730,4340.512695,4270.256348,4189.487305,4171.538574,4222.948730,4159.358887,4152.563965,4166.410156,4695.000000,4562.179688,4490.384766,4634.230957,0.000000,4.000000,91.000000,,,,0.000000,4.000000,4.000000,4.000000,4.000000,4.000000,4.000000,4.000000,4.000000,4.000000,4.000000,4.000000,4.000000,4.000000,4.000000,100.000000,,,,,,,,,,,,,,,,,,,,,,,,,,,,
1703402652.738621,1703402652.738965,60.000000,0.000000,4225.897461,4183.974121,4348.461426,4285.641113,4190.000000,4166.794922,4222.436035,4170.512695,4155.897461,4171.153809,4704.230957,4567.948730,4495.000000,4634.743652,0.000000,4.000000,91.000000,,,,0.000000,4.000000,4.000000,4.000000,4.000000,4.000000,4.000000,4.000000,4.000000,4.000000,4.000000,4.000000,4.000000,4.000000,4.000000,100.000000,,,,,,,,,,,,,,,,,15.000000,0.000000,0.682992,-0.048340,-0.703308,0.191162,0.927359,-0.334025,0.013185,-29.873310,-5.466215,75.284958
1703402652.746429,1703402652.746873,61.000000,0.000000,4237.307617,4186.538574,4351.025879,4289.230957,4188.974121,4158.333496,4223.974121,4172.307617,4162.436035,4175.641113,4707.051270,4571.410156,4501.538574,4643.846191,0.000000,4.000000,91.000000,,,,0.000000,4.000000,4.000000,4.000000,4.000000,4.000000,4.000000,4.000000,4.000000,4.000000,4.000000,4.000000,4.000000,4.000000,4.000000,100.000000,,,,,,,,,,,,,,,,,,,,,,,,,,,,
1703402652.754238,1703402652.754681,62.000000,0.000000,4233.589844,4180.897461,4349.102539,4281.025879,4185.641113,4152.307617,4224.871582,4167.948730,4162.820313,4172.051270,4702.051270,4573.205078,4506.794922,4651.025879,0.000000,4.000000,91.000000,,,,0.000000,4.000000,4.000000,4.000000,4.000000,4.000000,4.000000,4.000000,4.000000,4.000000,4.000000,4.000000,4.000000,4.000000,4.000000,100.000000,,,,,,,,,,,,,,,,,,,,,,,,,,,,
1703402652.762046,1703402652.762589,63.000000,0.000000,4226.666504,4182.179688,4349.487305,4279.230957,4180.256348,4153.974121,4222.563965,4169.487305,4159.102539,4171.153809,4698.205078,4571.410156,4506.538574,4648.333496,0.000000,4.000000,91.000000,,,,0.000000,4.000000,4.000000,4.000000,4.000000,4.000000,4.000000,4.000000,4.000000,4.000000,4.000000,4.000000,4.000000,4.000000,4.000000,100.000000,,,,,,,,,,,,,,,,,,,,,,,,,,,,
1703402652.769853,1703402652.770397,64.000000,0.000000,4229.615234,4184.871582,4351.922852,4282.692383,4181.282227,4157.692383,4224.230957,4171.538574,4154.487305,4174.487305,4691.025879,4569.743652,4495.128418,4644.358887,5258.000000,4.000000,91.000000,,,,0.000000,4.000000,4.000000,4.000000,4.000000,4.000000,4.000000,4.000000,4.000000,4.000000,4.000000,4.000000,4.000000,4.000000,4.000000,100.000000,1.000000,75.000000,4.000000,4.000000,4.000000,4.000000,4.000000,4.000000,4.000000,4.000000,4.000000,4.000000,1.000000,4.000000,4.000000,4.000000,16.000000,0.000000,0.682992,-0.048340,-0.703308,0.191162,0.932731,-0.347699,0.002930,-29.969313,-5.436260,75.256462
1703402652.777662,1703402652.778304,65.000000,0.000000,4235.641113,4185.384766,4353.333496,4283.077148,4180.384766,4156.794922,4227.179688,4167.179688,4152.563965,4168.461426,4682.820313,4568.333496,4484.871582,4646.282227,4919.000000,4.000000,91.000000,,,,0.000000,4.000000,4.000000,4.000000,4.000000,4.000000,4.000000,4.000000,4.000000,4.000000,4.000000,4.000000,4.000000,4.000000,4.000000,100.000000,,,,,,,,,,,,,,,,,,,,,,,,,,,,
1703402652.785470,1703402652.786112,66.000000,0.000000,4233.461426,4185.128418,4353.205078,4280.384766,4174.743652,4153.717773,4227.692383,4166.666504,4154.615234,4163.333496,4682.179688,4566.410156,4490.384766,4649.102539,5088.000000,4.000000,91.000000,,,,0.000000,4.000000,4.000000,4.000000,4.000000,4.000000,4.000000,4.000000,4.000000,4.000000,4.000000,4.000000,4.000000,4.000000,4.000000,100.000000,,,,,,,,,,,,,,,,,,,,,,,,,,,,
1703402652.793278,1703402652.794020,67.000000,0.000000,4224.871582,4182.051270,4350.000000,4278.717773,4177.051270,4153.205078,4227.179688,4168.333496,4153.333496,4165.769043,4676.922852,4563.077148,4490.000000,4645.256348,5233.000000,4.000000,91.000000,,,,0.000000,4.000000,4.000000,4.000000,4.000000,4.000000,4.000000,4.000000,4.000000,4.000000,4.000000,4.000000,4.000000,4.000000,4.000000,100.000000,,,,,,,,,,,,,,,,,,,,,,,,,,,,
1703402652.801086,1703402652.801828,68.000000,0.000000,4227.820313,4182.563965,4350.000000,4283.589844,4181.282227,4155.384766,4228.077148,4168.589844,4152.179688,4167.051270,4668.077148,4562.179688,4477.436035,4640.256348,5028.000000,4.000000,91.000000,,,,0.000000,4.000000,4.000000,4.000000,4.000000,4.000000,4.000000,4.000000,4.000000,4.000000,4.000000,4.000000,4.000000,4.000000,4.000000,100.000000,,,,,,,,,,,,,,,,,17.000000,0.000000,0.683046,-0.048462,-0.703247,0.191162,0.931266,-0.342327,0.008790,-29.989048,-5.342634,75.297485
1703402652.808894,1703402652.809536,69.000000,0.000000,4240.128418,4190.000000,4358.461426,4293.333496,4180.641113,4156.410156,4233.333496,4173.974121,4160.128418,4172.307617,4676.922852,4574.358887,4481.794922,4649.358887,5071.000000,4.000000,91.000000,,,,0.000000,4.000000,4.000000,4.000000,4.000000,4.000000,4.000000,4.000000,4.000000,4.000000,4.000000,4.000000,4.000000,4.000000,4.000000,100.000000,,,,,,,,,,,,,,,,,,,,,,,,,,,,
1703402652.816702,1703402652.817344,70.000000,0.000000,4246.538574,4197.179688,4364.358887,4295.641113,4177.692383,4153.205078,4233.205078,4185.512695,4171.282227,4183.077148,4693.205078,4588.974121,4495.769043,4662.948730,3104.000000,4.000000,91.000000,,,,0.000000,4.000000,4.000000,4.000000,4.000000,4.000000,4.000000,4.000000,4.000000,4.000000,4.000000,4.000000,4.000000,4.000000,4.000000,100.000000,,,,,,,,,,,,,,,,,,,,,,,,,,,,
1703402652.824510,1703402652.825052,71.000000,0.000000,4242.436035,4198.846191,4364.487305,4291.025879,4178.205078,4154.487305,4232.179688,4191.410156,4176.410156,4188.589844,4692.692383,4590.512695,4495.512695,4664.358887,5240.000000,4.000000,91.000000,,,,0.000000,4.000000,4.000000,4.000000,4.000000,4.000000,4.000000,4.000000,4.000000,4.000000,4.000000,4.000000,4.000000,4.000000,4.000000,100.000000,,,,,,,,,,,,,,,,,,,,,,,,,,,,
1703402652.832318,1703402652.832860,72.000000,0.000000,4238.974121,4198.974121,4362.692383,4294.871582,4183.205078,4165.128418,4233.974121,4184.871582,4176.410156,4187.051270,4685.897461,4580.641113,4494.615234,4658.974121,5245.000000,4.000000,91.000000,,,,0.000000,4.000000,4.000000,4.000000,4.000000,4.000000,4.000000,4.000000,4.000000,4.000000,4.000000,4.000000,4.000000,4.000000,4.000000,100.000000,,,,,,,,,,,,,,,,,18.000000,0.000000,0.683165,-0.048401,-0.703186,0.190979,0.933708,-0.330118,0.014650,-29.956810,-5.258370,75.334404
1703402652.840126,1703402652.840568,73.000000,0.000000,4239.487305,4199.358887,4360.000000,4300.000000,4186.153809,4167.307617,4232.436035,4175.641113,4173.205078,4183.333496,4680.769043,4567.563965,4493.589844,4651.794922,5136.000000,4.000000,91.000000,,,,0.000000,4.000000,4.000000,4.000000,4.000000,4.000000,4.000000,4.000000,4.000000,4.000000,4.000000,4.000000,4.000000,4.000000,4.000000,100.000000,,,,,,,,,,,,,,,,,,,,,,,,,,,,
1703402652.847934,1703402652.848476,74.000000,0.000000,4237.436035,4201.282227,4357.307617,4294.102539,4184.615234,4161.153809,4232.563965,4171.922852,4168.717773,4178.461426,4670.128418,4561.538574,4480.641113,4647.948730,5794.000000,4.000000,91.000000,,,,0.000000,4.000000,4.000000,4.000000,4.000000,4.000000,4.000000,4.000000,4.000000,4.000000,4.000000,4.000000,4.000000,4.000000,4.000000,100.000000,,,,,,,,,,,,,,,,,,,,,,,,,,,,
1703402652.855742,1703402652.856285,75.000000,0.000000,4234.615234,4198.205078,4353.333496,4293.846191,4185.512695,4159.487305,4233.461426,4170.128418,4164.487305,4173.974121,4661.922852,4558.846191,4471.538574,4645.897461,6133.000000,4.000000,91.000000,,,,0.000000,4.000000,4.000000,4.000000,4.000000,4.000000,4.000000,4.000000,4.000000,4.000000,4.000000,4.000000,4.000000,4.000000,4.000000,100.000000,,,,,,,,,,,,,,,,,,,,,,,,,,,,
1703402652.863550,1703402652.864093,76.000000,0.000000,4230.000000,4188.461426,4342.820313,4296.538574,4189.230957,4162.436035,4234.615234,4167.436035,4157.692383,4171.666504,4659.487305,4552.820313,4473.333496,4636.153809,6591.000000,4.000000,91.000000,,,,0.000000,4.000000,4.000000,4.000000,4.000000,4.000000,4.000000,4.000000,4.000000,4.000000,4.000000,4.000000,4.000000,4.000000,4.000000,100.000000,,,,,,,,,,,,,,,,,19.000000,0.000000,0.683353,-0.048401,-0.703003,0.190979,0.928336,-0.332560,0.013185,-29.977797,-5.232533,75.367630
1703402652.871358,1703402652.871801,77.000000,0.000000,4223.205078,4188.717773,4335.641113,4286.666504,4192.436035,4167.436035,4235.769043,4165.384766,4152.692383,4176.794922,4656.922852,4549.743652,4471.153809,4626.538574,6299.000000,4.000000,91.000000,,,,0.000000,4.000000,4.000000,4.000000,4.000000,4.000000,4.000000,4.000000,4.000000,4.000000,4.000000,4.000000,4.000000,4.000000,4.000000,100.000000,,,,,,,,,,,,,,,,,,,,,,,,,,,,
1703402652.879166,1703402652.879609,78.000000,0.000000,4216.794922,4197.692383,4338.717773,4280.769043,4193.589844,4167.820313,4234.743652,4161.538574,4153.974121,4182.948730,4656.666504,4549.230957,4469.487305,4626.538574,5794.000000,4.000000,91.000000,,,,0.000000,4.000000,4.000000,4.000000,4.000000,4.000000,4.000000,4.000000,4.000000,4.000000,4.000000,4.000000,4.000000,4.000000,4.000000,100.000000,,,,,,,,,,,,,,,,,,,,,,,,,,,,
1703402652.886974,1703402652.887317,79.000000,0.000000,4217.563965,4196.410156,4343.205078,4291.025879,4193.333496,4164.230957,4231.282227,4154.102539,4154.230957,4180.256348,4662.307617,4546.410156,4472.436035,4627.948730,6133.000000,4.000000,91.000000,,,,0.000000,4.000000,4.000000,4.000000,4.000000,4.000000,4.000000,4.000000,4.000000,4.000000,4.000000,4.000000,4.000000,4.000000,4.000000,100.000000,,,,,,,,,,,,,,,,,,,,,,,,,,,,
1703402652.894782,1703402652.895125,80.000000,0.000000,4220.256348,4186.666504,4340.897461,4294.615234,4192.051270,4164.102539,4233.077148,4156.282227,4152.948730,4181.666504,4674.743652,4545.000000,4476.538574,4630.000000,6591.000000,4.000000,91.000000,,,,0.000000,4.000000,4.000000,4.000000,4.000000,4.000000,4.000000,4.000000,4.000000,4.000000,4.000000,4.000000,4.000000,4.000000,4.000000,100.000000,,,,,,,,,,,,,,,,,20.000000,0.000000,0.683516,-0.048523,-0.702820,0.191040,0.935661,-0.342815,0.013185,-30.013350,-5.175947,75.380867
1703402652.902590,1703402652.902833,81.000000,0.000000,4217.179688,4185.897461,4337.820313,4281.794922,4189.615234,4162.692383,4230.897461,4167.179688,4155.256348,4188.846191,4689.358887,4544.487305,4480.256348,4630.512695,6299.000000,4.000000,91.000000,,,,0.000000,4.000000,4.000000,4.000000,4.000000,4.000000,4.000000,4.000000,4.000000,4.000000,4.000000,4.000000,4.000000,4.000000,4.000000,100.000000,,,,,,,,,,,,,,,,,,,,,,,,,,,,
1703402652.910399,1703402652.910641,82.000000,0.000000,4217.307617,4194.743652,4341.538574,4279.102539,4190.384766,4152.948730,4220.641113,4167.820313,4152.820313,4186.538574,4701.922852,4544.487305,4484.102539,4629.487305,5794.000000,4.000000,91.000000,,,,0.000000,4.000000,4.000000,4.000000,4.000000,4.000000,4.000000,4.000000,4.000000,4.000000,4.000000,4.000000,4.000000,4.000000,4.000000,100.000000,,,,,,,,,,,,,,,,,,,,,,,,,,,,
1703402652.918207,1703402652.918349,83.000000,0.000000,4227.179688,4204.230957,4351.410156,4293.205078,4194.615234,4153.717773,4221.666504,4167.820313,4153.461426,4187.948730,4719.358887,4552.051270,4499.230957,4641.666504,6133.000000,4.000000,91.000000,,,,0.000000,4.000000,4.000000,4.000000,4.000000,4.000000,4.000000,4.000000,4.000000,4.000000,4.000000,4.000000,4.000000,4.000000,4.000000,100.000000,,,,,,,,,,,,,,,,,,,,,,,,,,,,
1703402652.926015,1703402652.926257,84.000000,0.000000,4234.358887,4207.820313,4356.538574,4299.615234,4193.589844,4160.384766,4224.871582,4177.692383,4165.384766,4198.846191,4737.179688,4556.666504,4511.282227,4651.922852,6591.000000,4.000000,91.000000,,,,0.000000,4.000000,4.000000,4.000000,4.000000,4.000000,4.000000,4.000000,4.000000,4.000000,4.000000,4.000000,4.000000,4.000000,4.000000,100.000000,,,,,,,,,,,,,,,,,21.000000,0.000000,0.683557,-0.048828,-0.702759,0.191040,0.931754,-0.339885,0.008302,-29.978682,-5.075019,75.376114
1703402652.933823,1703402652.934065,85.000000,0.000000,4223.589844,4203.717773,4349.487305,4293.461426,4183.846191,4154.871582,4219.358887,4178.846191,4168.717773,4199.615234,4737.692383,4544.871582,4501.282227,4640.000000,6299.000000,4.000000,91.000000,,,,0.000000,4.000000,4.000000,4.000000,4.000000,4.000000,4.000000,4.000000,4.000000,4.000000,4.000000,4.000000,4.000000,4.000000,4.000000,100.000000,,,,,,,,,,,,,,,,,,,,,,,,,,,,
1703402652.941631,1703402652.941973,86.000000,0.000000,4214.743652,4198.974121,4340.897461,4289.487305,4178.717773,4152.179688,4218.205078,4169.615234,4157.563965,4191.666504,4729.487305,4527.820313,4487.820313,4626.410156,5794.000000,4.000000,91.000000,,,,0.000000,4.000000,4.000000,4.000000,4.000000,4.000000,4.000000,4.000000,4.000000,4.000000,4.000000,4.000000,4.000000,4.000000,4.000000,100.000000,,,,,,,,,,,,,,,,,,,,,,,,,,,,
1703402652.949439,1703402652.949781,87.000000,0.000000,4216.922852,4198.974121,4336.922852,4288.846191,4178.846191,4157.563965,4221.794922,4167.948730,4150.769043,4185.000000,4726.922852,4521.922852,4488.846191,4624.615234,6133.000000,4.000000,91.000000,,,,0.000000,4.000000,4.000000,4.000000,4.000000,4.000000,4.000000,4.000000,4.000000,4.000000,4.000000,4.000000,4.000000,4.000000,4.000000,100.000000,,,,,,,,,,,,,,,,,,,,,,,,,,,,
1703402652.957247,1703402652.957689,88.000000,0.000000,4209.615234,4200.256348,4332.179688,4282.948730,4174.615234,4160.512695,4225.000000,4170.384766,4155.769043,4183.077148,4729.743652,4521.282227,4493.333496,4622.692383,6591.000000,4.000000,91.000000,,,,0.000000,4.000000,4.000000,4.000000,4.000000,4.000000,4.000000,4.000000,4.000000,4.000000,4.000000,4.000000,4.000000,4.000000,4.000000,100.000000,,,,,,,,,,,,,,,,,22.000000,0.000000,0.683611,-0.048950,-0.702698,0.191040,0.937126,-0.333537,0.011232,-29.997480,-5.234183,75.288498
1703402652.965055,1703402652.965597,89.000000,0.000000,4195.897461,4198.205078,4329.743652,4278.717773,4178.205078,4162.563965,4225.384766,4167.820313,4157.307617,4190.641113,4728.846191,4513.589844,4486.410156,4616.025879,6299.000000,4.000000,91.000000,,,,0.000000,4.000000,4.000000,4.000000,4.000000,4.000000,4.000000,4.000000,4.000000,4.000000,4.000000,4.000000,4.000000,4.000000,4.000000,100.000000,,,,,,,,,,,,,,,,,,,,,,,,,,,,
1703402652.972863,1703402652.973405,90.000000,0.000000,4195.000000,4191.282227,4326.666504,4278.205078,4189.615234,4167.563965,4226.025879,4163.461426,4154.358887,4195.641113,4720.512695,4502.051270,4475.128418,4607.820313,5794.000000,4.000000,91.000000,,,,0.000000,4.000000,4.000000,4.000000,4.000000,4.000000,4.000000,4.000000,4.000000,4.000000,4.000000,4.000000,4.000000,4.000000,4.000000,100.000000,,,,,,,,,,,,,,,,,,,,,,,,,,,,
1703402652.980671,1703402652.981213,91.000000,0.000000,4202.051270,4187.436035,4320.256348,4283.846191,4193.846191,4170.000000,4225.384766,4159.230957,4154.743652,4192.820313,4715.897461,4498.589844,4474.487305,4601.410156,6133.000000,4.000000,91.000000,,,,0.000000,4.000000,4.000000,4.000000,4.000000,4.000000,4.000000,4.000000,4.000000,4.000000,4.000000,4.000000,4.000000,4.000000,4.000000,100.000000,,,,,,,,,,,,,,,,,,,,,,,,,,,,
1703402652.988479,1703402652.989121,92.000000,0.000000,4199.487305,4194.871582,4320.897461,4293.333496,4187.692383,4168.717773,4223.846191,4154.871582,4155.897461,4195.256348,4717.436035,4501.922852,4478.974121,4600.128418,6591.000000,4.000000,91.000000,,,,0.000000,4.000000,4.000000,4.000000,4.000000,4.000000,4.000000,4.000000,4.000000,4.000000,4.000000,4.000000,4.000000,4.000000,4.000000,100.000000,,,,,,,,,,,,,,,,,23.000000,0.000000,0.683581,-0.048889,-0.702698,0.191162,0.942010,-0.333537,0.011232,-30.014399,-5.377432,75.326317
1703402652.996287,1703402652.996929,93.000000,0.000000,4195.512695,4201.794922,4327.051270,4291.666504,4187.820313,4169.743652,4225.000000,4156.922852,4154.230957,4202.692383,4715.384766,4502.563965,4476.282227,4602.948730,6299.000000,4.000000,91.000000,,,,0.000000,4.000000,4.000000,4.000000,4.000000,4.000000,4.000000,4.000000,4.000000,4.000000,4.000000,4.000000,4.000000,4.000000,4.000000,100.000000,,,,,,,,,,,,,,,,,,,,,,,,,,,,
1703402653.004095,1703402653.004637,94.000000,0.000000,4203.461426,4199.871582,4329.230957,4285.769043,4191.538574,4170.897461,4225.897461,4164.102539,4157.563965,4208.205078,4716.025879,4504.615234,4479.487305,4608.846191,5794.000000,4.000000,91.000000,,,,0.000000,4.000000,4.000000,4.000000,4.000000,4.000000,4.000000,4.000000,4.000000,4.000000,4.000000,4.000000,4.000000,4.000000,4.000000,100.000000,,,,,,,,,,,,,,,,,,,,,,,,,,,,
1703402653.011903,1703402653.012445,95.000000,0.000000,4211.025879,4207.563965,4332.051270,4292.692383,4187.820313,4170.769043,4224.615234,4169.615234,4169.743652,4218.717773,4727.563965,4511.282227,4494.615234,4618.077148,6133.000000,4.000000,91.000000,,,,0.000000,4.000000,4.000000,4.000000,4.000000,4.000000,4.000000,4.000000,4.000000,4.000000,4.000000,4.000000,4.000000,4.000000,4.000000,100.000000,,,,,,,,,,,,,,,,,,,,,,,,,,,,
1703402653.019711,1703402653.020153,96.000000,0.000000,4207.563965,4217.307617,4333.205078,4300.384766,4187.436035,4166.410156,4221.410156,4172.179688,4171.153809,4221.666504,4729.743652,4512.692383,4495.769043,4621.922852,6591.000000,4.000000,91.000000,,,,0.000000,4.000000,4.000000,4.000000,4.000000,4.000000,4.000000,4.000000,4.000000,4.000000,4.000000,4.000000,4.000000,4.000000,4.000000,100.000000,,,,,,,,,,,,,,,,,24.000000,0.000000,0.683543,-0.048706,-0.702698,0.191345,0.928336,-0.341350,0.017092,-29.996292,-5.356355,75.293686
1703402653.027519,1703402653.027961,97.000000,0.000000,4204.102539,4208.333496,4327.948730,4296.025879,4188.589844,4157.563965,4218.717773,4168.333496,4157.948730,4205.256348,4717.948730,4506.153809,4481.153809,4613.077148,6299.000000,4.000000,91.000000,,,,0.000000,4.000000,4.000000,4.000000,4.000000,4.000000,4.000000,4.000000,4.000000,4.000000,4.000000,4.000000,4.000000,4.000000,4.000000,100.000000,,,,,,,,,,,,,,,,,,,,,,,,,,,,
1703402653.035327,1703402653.035669,98.000000,0.000000,4203.205078,4201.025879,4326.410156,4292.948730,4184.230957,4153.077148,4218.333496,4161.153809,4152.179688,4196.153809,4717.692383,4501.666504,4476.282227,4605.897461,5794.000000,4.000000,91.000000,,,,0.000000,4.000000,4.000000,4.000000,4.000000,4.000000,4.000000,4.000000,4.000000,4.000000,4.000000,4.000000,4.000000,4.000000,4.000000,100.000000,,,,,,,,,,,,,,,,,,,,,,,,,,,,
1703402653.043136,1703402653.043477,99.000000,0.000000,4198.589844,4207.820313,4330.641113,4296.153809,4181.794922,4155.128418,4220.256348,4156.922852,4150.512695,4202.692383,4719.358887,4500.000000,4477.948730,4606.666504,6133.000000,4.000000,91.000000,,,,0.000000,4.000000,4.000000,4.000000,4.000000,4.000000,4.000000,4.000000,4.000000,4.000000,4.000000,4.000000,4.000000,4.000000,4.000000,100.000000,,,,,,,,,,,,,,,,,,,,,,,,,,,,
1703402653.050943,1703402653.051185,100.000000,0.000000,4197.948730,4205.512695,4330.897461,4295.512695,4184.358887,4158.717773,4222.948730,4154.871582,4143.333496,4198.205078,4707.307617,4494.358887,4471.153809,4603.333496,6591.000000,4.000000,91.000000,,,,0.000000,4.000000,4.000000,4.000000,4.000000,4.000000,4.000000,4.000000,4.000000,4.000000,4.000000,4.000000,4.000000,4.000000,4.000000,100.000000,,,,,,,,,,,,,,,,,25.000000,0.000000,0.683577,-0.048462,-0.702698,0.191284,0.919546,-0.337444,0.011720,-29.963329,-5.354053,75.330986
1703402653.058751,1703402653.058993,101.000000,0.000000,4203.846191,4199.358887,4328.589844,4293.333496,4182.820313,4157.820313,4221.922852,4153.205078,4142.307617,4186.410156,4702.948730,4492.179688,4471.922852,4600.384766,6299.000000,4.000000,91.000000,,,,0.000000,4.000000,4.000000,4.000000,4.000000,4.000000,4.000000,4.000000,4.000000,4.000000,4.000000,4.000000,4.000000,4.000000,4.000000,100.000000,,,,,,,,,,,,,,,,,,,,,,,,,,,,
1703402653.066560,1703402653.066701,102.000000,0.000000,4199.743652,4200.128418,4330.897461,4291.025879,4172.051270,4155.384766,4221.025879,4156.153809,4148.205078,4191.025879,4708.589844,4498.205078,4477.179688,4602.051270,5794.000000,4.000000,91.000000,,,,0.000000,4.000000,4.000000,4.000000,4.000000,4.000000,4.000000,4.000000,4.000000,4.000000,4.000000,4.000000,4.000000,4.000000,4.000000,100.000000,,,,,,,,,,,,,,,,,,,,,,,,,,,,
1703402653.074368,1703402653.074509,103.000000,0.000000,4190.256348,4194.358887,4331.794922,4283.717773,4163.846191,4156.153809,4223.205078,4159.358887,4150.512695,4197.820313,4702.436035,4498.589844,4467.051270,4597.179688,6133.000000,4.000000,91.000000,,,,0.000000,4.000000,4.000000,4.000000,4.000000,4.000000,4.000000,4.000000,4.000000,4.000000,4.000000,4.000000,4.000000,4.000000,4.000000,100.000000,,,,,,,,,,,,,,,,,,,,,,,,,,,,
1703402653.082176,1703402653.082217,104.000000,0.000000,4187.563965,4185.512695,4326.794922,4277.179688,4167.692383,4159.230957,4225.256348,4158.846191,4151.410156,4189.358887,4691.794922,4493.589844,4452.563965,4590.128418,6591.000000,4.000000,91.000000,,,,0.000000,4.000000,4.000000,4.000000,4.000000,4.000000,4.000000,4.000000,4.000000,4.000000,4.000000,4.000000,4.000000,4.000000,4.000000,100.000000,,,,,,,,,,,,,,,,,26.000000,0.000000,0.683586,-0.048340,-0.702698,0.191284,0.926871,-0.344769,0.004395,-29.950331,-5.368648,75.464554
1703402653.089984,1703402653.090125,105.000000,0.000000,4191.153809,4187.948730,4327.307617,4278.589844,4172.436035,4159.487305,4223.461426,4160.384766,4152.563965,4184.487305,4693.589844,4495.769043,4456.922852,4592.179688,6299.000000,4.000000,91.000000,,,,0.000000,4.000000,4.000000,4.000000,4.000000,4.000000,4.000000,4.000000,4.000000,4.000000,4.000000,4.000000,4.000000,4.000000,4.000000,100.000000,,,,,,,,,,,,,,,,,,,,,,,,,,,,
1703402653.097792,1703402653.097933,106.000000,0.000000,4190.769043,4188.077148,4330.384766,4274.230957,4169.102539,4155.641113,4220.769043,4159.102539,4151.922852,4190.128418,4695.769043,4496.794922,4463.077148,4593.333496,5794.000000,4.000000,91.000000,,,,0.000000,4.000000,4.000000,4.000000,4.000000,4.000000,4.000000,4.000000,4.000000,4.000000,4.000000,4.000000,4.000000,4.000000,4.000000,100.000000,,,,,,,,,,,,,,,,,,,,,,,,,,,,
1703402653.105600,1703402653.105841,107.000000,0.000000,4183.205078,4182.820313,4321.666504,4263.333496,4168.589844,4157.051270,4222.692383,4158.205078,4151.922852,4191.410156,4682.563965,4491.025879,4446.282227,4584.102539,6133.000000,4.000000,91.000000,,,,0.000000,4.000000,4.000000,4.000000,4.000000,4.000000,4.000000,4.000000,4.000000,4.000000,4.000000,4.000000,4.000000,4.000000,4.000000,100.000000,,,,,,,,,,,,,,,,,,,,,,,,,,,,
1703402653.113408,1703402653.113649,108.000000,0.000000,4182.563965,4191.666504,4315.641113,4268.077148,4175.384766,4164.871582,4223.077148,4166.794922,4157.820313,4196.794922,4676.410156,4495.512695,4442.692383,4582.563965,6591.000000,4.000000,91.000000,,,,0.000000,4.000000,4.000000,4.000000,4.000000,4.000000,4.000000,4.000000,4.000000,4.000000,4.000000,4.000000,4.000000,4.000000,4.000000,100.000000,,,,,,,,,,,,,,,,,27.000000,0.000000,0.683628,-0.048462,-0.702698,0.191101,0.946405,-0.333537,0.024417,-29.988630,-5.381783,75.501434
1703402653.121216,1703402653.121557,109.000000,0.000000,4192.307617,4200.384766,4323.333496,4281.410156,4178.717773,4164.743652,4220.384766,4172.563965,4167.692383,4212.820313,4692.692383,4506.153809,4470.769043,4595.897461,6299.000000,4.000000,91.000000,,,,0.000000,4.000000,4.000000,4.000000,4.000000,4.000000,4.000000,4.000000,4.000000,4.000000,4.000000,4.000000,4.000000,4.000000,4.000000,100.000000,,,,,,,,,,,,,,,,,,,,,,,,,,,,
1703402653.129024,1703402653.129365,110.000000,0.000000,4190.641113,4196.538574,4326.538574,4279.743652,4173.205078,4156.282227,4221.025879,4170.000000,4173.589844,4216.410156,4701.922852,4505.897461,4483.717773,4597.692383,5794.000000,4.000000,91.000000,,,,0.000000,4.000000,4.000000,4.000000,4.000000,4.000000,4.000000,4.000000,4.000000,4.000000,4.000000,4.000000,4.000000,4.000000,4.000000,100.000000,,,,,,,,,,,,,,,,,,,,,,,,,,,,
1703402653.136832,1703402653.137273,111.000000,0.000000,4174.358887,4193.077148,4315.769043,4266.666504,4167.692383,4153.589844,4219.230957,4168.717773,4167.692383,4199.743652,4681.410156,4494.871582,4460.897461,4577.692383,6133.000000,4.000000,91.000000,,,,0.000000,4.000000,4.000000,4.000000,4.000000,4.000000,4.000000,4.000000,4.000000,4.000000,4.000000,4.000000,4.000000,4.000000,4.000000,100.000000,,,,,,,,,,,,,,,,,,,,,,,,,,,,
1703402653.144640,1703402653.145081,112.000000,0.000000,4160.000000,4190.384766,4307.820313,4260.641113,4171.666504,4157.307617,4216.282227,4166.922852,4159.871582,4188.461426,4660.384766,4487.948730,4442.436035,4563.974121,6591.000000,4.000000,91.000000,,,,0.000000,4.000000,4.000000,4.000000,4.000000,4.000000,4.000000,4.000000,4.000000,4.000000,4.000000,4.000000,4.000000,4.000000,4.000000,100.000000,,,,,,,,,,,,,,,,,28.000000,0.000000,0.683749,-0.048523,-0.702576,0.191101,0.922964,-0.337444,0.000000,-29.973101,-5.360271,75.534622
1703402653.152448,1703402653.152988,113.000000,0.000000,4157.051270,4183.077148,4312.051270,4262.436035,4177.307617,4158.333496,4218.717773,4166.153809,4159.358887,4191.666504,4661.025879,4491.666504,4447.948730,4568.717773,6299.000000,4.000000,91.000000,,,,0.000000,4.000000,4.000000,4.000000,4.000000,4.000000,4.000000,4.000000,4.000000,4.000000,4.000000,4.000000,4.000000,4.000000,4.000000,100.000000,,,,,,,,,,,,,,,,,,,,,,,,,,,,
1703402653.160256,1703402653.160796,114.000000,0.000000,4161.410156,4181.153809,4315.000000,4264.615234,4174.743652,4157.692383,4222.179688,4171.025879,4160.641113,4192.307617,4666.025879,4493.205078,4451.538574,4569.743652,5794.000000,4.000000,91.000000,,,,0.000000,4.000000,4.000000,4.000000,4.000000,4.000000,4.000000,4.000000,4.000000,4.000000,4.000000,4.000000,4.000000,4.000000,4.000000,100.000000,,,,,,,,,,,,,,,,,,,,,,,,,,,,
1703402653.168064,1703402653.168704,115.000000,0.000000,4163.077148,4184.487305,4310.000000,4262.692383,4167.948730,4155.641113,4220.641113,4164.871582,4156.538574,4185.769043,4663.589844,4484.743652,4447.051270,4566.794922,6133.000000,4.000000,91.000000,,,,0.000000,4.000000,4.000000,4.000000,4.000000,4.000000,4.000000,4.000000,4.000000,4.000000,4.000000,4.000000,4.000000,4.000000,4.000000,100.000000,,,,,,,,,,,,,,,,,,,,,,,,,,,,
1703402653.175872,1703402653.176512,116.000000,0.000000,4160.641113,4182.563965,4306.282227,4259.487305,4167.179688,4152.820313,4216.538574,4153.461426,4151.410156,4183.333496,4661.410156,4479.230957,4449.230957,4567.436035,6591.000000,4.000000,91.000000,,,,0.000000,4.000000,4.000000,4.000000,4.000000,4.000000,4.000000,4.000000,4.000000,4.000000,4.000000,4.000000,4.000000,4.000000,4.000000,100.000000,,,,,,,,,,,,,,,,,29.000000,0.000000,0.683732,-0.048523,-0.702576,0.191162,0.923453,-0.334513,0.008790,-29.942457,-5.324244,75.464493
1703402653.183680,1703402653.184220,117.000000,0.000000,4165.512695,4183.846191,4310.769043,4261.666504,4171.922852,4157.563965,4216.922852,4161.538574,4153.846191,4185.641113,4667.179688,4486.025879,4459.615234,4568.205078,6299.000000,4.000000,91.000000,,,,0.000000,4.000000,4.000000,4.000000,4.000000,4.000000,4.000000,4.000000,4.000000,4.000000,4.000000,4.000000,4.000000,4.000000,4.000000,100.000000,,,,,,,,,,,,,,,,,,,,,,,,,,,,
1703402653.191488,1703402653.192028,118.000000,0.000000,4171.282227,4185.512695,4313.717773,4264.230957,4172.692383,4165.128418,4221.153809,4170.000000,4157.820313,4187.179688,4672.179688,4489.871582,4464.743652,4570.769043,5794.000000,4.000000,91.000000,,,,0.000000,4.000000,4.000000,4.000000,4.000000,4.000000,4.000000,4.000000,4.000000,4.000000,4.000000,4.000000,4.000000,4.000000,4.000000,100.000000,,,,,,,,,,,,,,,,,,,,,,,,,,,,
1703402653.199297,1703402653.199736,119.000000,0.000000,4165.769043,4184.871582,4308.589844,4264.102539,4170.000000,4162.179688,4222.436035,4160.641113,4155.897461,4186.410156,4664.743652,4481.025879,4456.153809,4570.512695,6133.000000,4.000000,91.000000,,,,0.000000,4.000000,4.000000,4.000000,4.000000,4.000000,4.000000,4.000000,4.000000,4.000000,4.000000,4.000000,4.000000,4.000000,4.000000,100.000000,,,,,,,,,,,,,,,,,,,,,,,,,,,,
1703402653.207105,1703402653.207544,120.000000,0.000000,4162.820313,4186.025879,4306.538574,4263.333496,4170.000000,4158.077148,4221.153809,4158.205078,4153.461426,4185.256348,4656.794922,4478.077148,4452.820313,4568.589844,6591.000000,4.000000,91.000000,,,,0.000000,4.000000,4.000000,4.000000,4.000000,4.000000,4.000000,4.000000,4.000000,4.000000,4.000000,4.000000,4.000000,4.000000,4.000000,100.000000,,,,,,,,,,,,,,,,,30.000000,0.000000,0.683593,-0.048645,-0.702637,0.191406,0.931266,-0.333537,0.010743,-30.048212,-5.291820,75.451378
1703402653.214913,1703402653.215252,121.000000,0.000000,4166.922852,4185.256348,4306.794922,4262.948730,4172.948730,4163.461426,4222.820313,4167.563965,4155.512695,4185.512695,4658.077148,4481.282227,4458.461426,4568.205078,6299.000000,4.000000,91.000000,,,,0.000000,4.000000,4.000000,4.000000,4.000000,4.000000,4.000000,4.000000,4.000000,4.000000,4.000000,4.000000,4.000000,4.000000,4.000000,100.000000,,,,,,,,,,,,,,,,,,,,,,,,,,,,
1703402653.222721,1703402653.223060,122.000000,0.000000,4166.153809,4182.820313,4302.179688,4260.128418,4172.692383,4169.487305,4228.205078,4167.820313,4158.333496,4188.077148,4655.384766,4478.077148,4457.307617,4568.461426,5794.000000,4.000000,91.000000,,,,0.000000,4.000000,4.000000,4.000000,4.000000,4.000000,4.000000,4.000000,4.000000,4.000000,4.000000,4.000000,4.000000,4.000000,4.000000,100.000000,,,,,,,,,,,,,,,,,,,,,,,,,,,,
1703402653.230529,1703402653.230768,123.000000,0.000000,4165.128418,4182.307617,4298.974121,4262.179688,4171.410156,4168.461426,4231.153809,4167.307617,4157.820313,4186.282227,4649.358887,4475.384766,4449.615234,4566.025879,6133.000000,4.000000,91.000000,,,,0.000000,4.000000,4.000000,4.000000,4.000000,4.000000,4.000000,4.000000,4.000000,4.000000,4.000000,4.000000,4.000000,4.000000,4.000000,100.000000,,,,,,,,,,,,,,,,,,,,,,,,,,,,
1703402653.238337,1703402653.238576,124.000000,0.000000,4168.333496,4184.615234,4302.948730,4264.743652,4173.205078,4164.743652,4230.128418,4168.333496,4154.615234,4175.897461,4647.051270,4477.948730,4447.436035,4561.922852,6591.000000,4.000000,91.000000,,,,0.000000,4.000000,4.000000,4.000000,4.000000,4.000000,4.000000,4.000000,4.000000,4.000000,4.000000,4.000000,4.000000,4.000000,4.000000,100.000000,,,,,,,,,,,,,,,,,31.000000,0.000000,0.683474,-0.048706,-0.702698,0.191589,0.923941,-0.334513,0.011232,-29.943390,-5.312638,75.322906
1703402653.246145,1703402653.246285,125.000000,0.000000,4165.641113,4182.692383,4302.820313,4252.820313,4171.282227,4158.589844,4225.512695,4159.615234,4151.025879,4166.410156,4639.615234,4476.282227,4447.692383,4558.717773,6299.000000,4.000000,91.000000,,,,0.000000,4.000000,4.000000,4.000000,4.000000,4.000000,4.000000,4.000000,4.000000,4.000000,4.000000,4.000000,4.000000,4.000000,4.000000,100.000000,,,,,,,,,,,,,,,,,,,,,,,,,,,,
1703402653.253953,1703402653.254093,126.000000,0.000000,4158.974121,4181.282227,4297.820313,4248.461426,4168.077148,4151.410156,4222.948730,4157.948730,4151.794922,4173.461426,4634.102539,4471.794922,4444.487305,4556.153809,5794.000000,4.000000,91.000000,,,,0.000000,4.000000,4.000000,4.000000,4.000000,4.000000,4.000000,4.000000,4.000000,4.000000,4.000000,4.000000,4.000000,4.000000,4.000000,100.000000,,,,,,,,,,,,,,,,,,,,,,,,,,,,
1703402653.261761,1703402653.261801,127.000000,0.000000,4159.871582,4187.179688,4302.051270,4263.589844,4166.794922,4152.563965,4224.102539,4169.743652,4157.563965,4186.794922,4642.948730,4474.871582,4448.461426,4554.230957,91.000000,4.000000,91.000000,,,,0.000000,4.000000,4.000000,4.000000,4.000000,4.000000,4.000000,4.000000,4.000000,4.000000,4.000000,4.000000,4.000000,4.000000,4.000000,100.000000,,,,,,,,,,,,,,,,,,,,,,,,,,,,
1703402653.269569,1703402653.269708,0.000000,0.000000,4162.307617,4191.025879,4306.153809,4267.692383,4170.384766,4154.615234,4223.589844,4174.102539,4161.538574,4186.153809,4645.769043,4477.051270,4452.179688,4550.641113,5260.000000,4.000000,91.000000,,,,0.000000,4.000000,4.000000,4.000000,4.000000,4.000000,4.000000,4.000000,4.000000,4.000000,4.000000,4.000000,4.000000,4.000000,4.000000,100.000000,1.000000,91.666664,4.000000,4.000000,4.000000,4.000000,4.000000,4.000000,4.000000,4.000000,4.000000,4.000000,3.000000,4.000000,4.000000,4.000000,0.000000,0.000000,0.683297,-0.048706,-0.702820,0.191772,0.927848,-0.349164,0.004395,-30.032385,-5.298041,75.290611
1703402653.277377,1703402653.277516,1.000000,0.000000,4155.769043,4186.922852,4299.102539,4258.974121,4168.205078,4151.410156,4220.512695,4168.846191,4158.717773,4182.563965,4636.282227,4471.538574,4447.051270,4551.410156,4919.000000,4.000000,91.000000,,,,0.000000,4.000000,4.000000,4.000000,4.000000,4.000000,4.000000,4.000000,4.000000,4.000000,4.000000,4.000000,4.000000,4.000000,4.000000,100.000000,,,,,,,,,,,,,,,,,,,,,,,,,,,,
1703402653.285185,1703402653.285424,2.000000,0.000000,4151.025879,4184.743652,4293.333496,4261.282227,4158.333496,4153.461426,4219.743652,4168.205078,4162.051270,4186.025879,4633.589844,4467.436035,4446.282227,4552.820313,5105.000000,4.000000,91.000000,,,,0.000000,4.000000,4.000000,4.000000,4.000000,4.000000,4.000000,4.000000,4.000000,4.000000,4.000000,4.000000,4.000000,4.000000,4.000000,100.000000,,,,,,,,,,,,,,,,,,,,,,,,,,,,
1703402653.292993,1703402653.293232,3.000000,0.000000,4155.897461,4185.769043,4295.641113,4264.743652,4158.077148,4156.538574,4221.410156,4170.641113,4166.410156,4183.974121,4628.205078,4468.077148,4446.666504,4545.512695,5240.000000,4.000000,91.000000,,,,0.000000,4.000000,4.000000,4.000000,4.000000,4.000000,4.000000,4.000000,4.000000,4.000000,4.000000,4.000000,4.000000,4.000000,4.000000,100.000000,,,,,,,,,,,,,,,,,,,,,,,,,,,,
1703402653.300801,1703402653.301140,4.000000,0.000000,4162.692383,4187.436035,4296.410156,4260.897461,4165.000000,4156.025879,4226.153809,4167.436035,4161.153809,4185.000000,4620.000000,4468.974121,4445.641113,4542.436035,5028.000000,4.000000,91.000000,,,,0.000000,4.000000,4.000000,4.000000,4.000000,4.000000,4.000000,4.000000,4.000000,4.000000,4.000000,4.000000,4.000000,4.000000,4.000000,100.000000,,,,,,,,,,,,,,,,,1.000000,0.000000,0.683343,-0.048706,-0.702759,0.191833,0.937614,-0.340374,0.013185,-29.912479,-5.184903,75.294884
1703402653.308609,1703402653.308948,5.000000,0.000000,4163.589844,4196.282227,4295.769043,4263.205078,4165.769043,4161.282227,4232.179688,4165.256348,4161.025879,4192.179688,4622.179688,4469.615234,4446.538574,4551.794922,5071.000000,4.000000,91.000000,,,,0.000000,4.000000,4.000000,4.000000,4.000000,4.000000,4.000000,4.000000,4.000000,4.000000,4.000000,4.000000,4.000000,4.000000,4.000000,100.000000,,,,,,,,,,,,,,,,,,,,,,,,,,,,
1703402653.316417,1703402653.316856,6.000000,0.000000,4163.077148,4199.487305,4295.384766,4265.897461,4167.692383,4164.871582,4232.307617,4169.102539,4167.051270,4189.102539,4623.205078,4469.615234,4447.563965,4557.563965,3104.000000,4.000000,91.000000,,,,0.000000,4.000000,4.000000,4.000000,4.000000,4.000000,4.000000,4.000000,4.000000,4.000000,4.000000,4.000000,4.000000,4.000000,4.000000,100.000000,,,,,,,,,,,,,,,,,,,,,,,,,,,,
1703402653.324225,1703402653.324664,7.000000,0.000000,4164.358887,4191.538574,4291.794922,4264.487305,4173.846191,4159.871582,4229.615234,4171.538574,4163.974121,4183.077148,4613.589844,4465.641113,4445.641113,4548.205078,5240.000000,4.000000,91.000000,,,,0.000000,4.000000,4.000000,4.000000,4.000000,4.000000,4.000000,4.000000,4.000000,4.000000,4.000000,4.000000,4.000000,4.000000,4.000000,100.000000,,,,,,,,,,,,,,,,,,,,,,,,,,,,
1703402653.332034,1703402653.332572,8.000000,0.000000,4161.538574,4187.563965,4287.692383,4263.461426,4173.077148,4157.563965,4232.436035,4167.436035,4157.179688,4179.615234,4604.230957,4460.128418,4439.230957,4537.948730,5248.000000,4.000000,91.000000,,,,0.000000,4.000000,4.000000,4.000000,4.000000,4.000000,4.000000,4.000000,4.000000,4.000000,4.000000,4.000000,4.000000,4.000000,4.000000,100.000000,,,,,,,,,,,,,,,,,2.000000,0.000000,0.683306,-0.048828,-0.702820,0.191711,0.931266,-0.347699,0.011232,-29.887897,-5.249746,75.248734
1703402653.339841,1703402653.340380,9.000000,0.000000,4156.922852,4189.230957,4288.717773,4264.487305,4168.461426,4160.000000,4234.102539,4165.128418,4158.333496,4172.692383,4600.769043,4458.077148,4432.948730,4538.974121,5146.000000,4.000000,91.000000,,,,0.000000,4.000000,4.000000,4.000000,4.000000,4.000000,4.000000,4.000000,4.000000,4.000000,4.000000,4.000000,4.000000,4.000000,4.000000,100.000000,,,,,,,,,,,,,,,,,,,,,,,,,,,,
1703402653.347649,1703402653.348288,10.000000,0.000000,4153.974121,4188.974121,4290.128418,4261.153809,4170.641113,4158.333496,4229.615234,4165.897461,4158.077148,4170.384766,4592.051270,4460.256348,4427.436035,4539.487305,5804.000000,4.000000,91.000000,,,,0.000000,4.000000,4.000000,4.000000,4.000000,4.000000,4.000000,4.000000,4.000000,4.000000,4.000000,4.000000,4.000000,4.000000,4.000000,100.000000,,,,,,,,,,,,,,,,,,,,,,,,,,,,
1703402653.355458,1703402653.356096,11.000000,0.000000,4145.641113,4179.230957,4287.179688,4252.948730,4166.538574,4155.256348,4226.282227,4159.487305,4154.230957,4165.641113,4577.051270,4456.538574,4417.179688,4527.436035,6142.000000,4.000000,91.000000,,,,0.000000,4.000000,4.000000,4.000000,4.000000,4.000000,4.000000,4.000000,4.000000,4.000000,4.000000,4.000000,4.000000,4.000000,4.000000,100.000000,,,,,,,,,,,,,,,,,,,,,,,,,,,,
1703402653.363266,1703402653.364003,12.000000,0.000000,4136.666504,4170.897461,4282.563965,4248.974121,4157.820313,4154.358887,4225.769043,4152.948730,4152.307617,4155.897461,4564.743652,4445.769043,4407.820313,4515.897461,6604.000000,4.000000,91.000000,,,,0.000000,4.000000,4.000000,4.000000,4.000000,4.000000,4.000000,4.000000,4.000000,4.000000,4.000000,4.000000,4.000000,4.000000,4.000000,100.000000,,,,,,,,,,,,,,,,,3.000000,0.000000,0.683310,-0.048767,-0.702820,0.191711,0.923941,-0.336467,0.001465,-29.749109,-5.241438,75.107193
1703402653.371074,1703402653.371811,13.000000,0.000000,4139.743652,4172.948730,4282.563965,4249.102539,4158.846191,4153.333496,4223.589844,4153.589844,4151.410156,4161.410156,4564.615234,4445.769043,4409.230957,4517.948730,6327.000000,4.000000,91.000000,,,,0.000000,4.000000,4.000000,4.000000,4.000000,4.000000,4.000000,4.000000,4.000000,4.000000,4.000000,4.000000,4.000000,4.000000,4.000000,100.000000,,,,,,,,,,,,,,,,,,,,,,,,,,,,
1703402653.378882,1703402653.379520,14.000000,0.000000,4145.384766,4176.025879,4288.205078,4250.384766,4164.615234,4155.256348,4226.538574,4157.563965,4156.282227,4172.563965,4575.128418,4456.025879,4417.692383,4528.333496,5804.000000,4.000000,91.000000,,,,0.000000,4.000000,4.000000,4.000000,4.000000,4.000000,4.000000,4.000000,4.000000,4.000000,4.000000,4.000000,4.000000,4.000000,4.000000,100.000000,,,,,,,,,,,,,,,,,,,,,,,,,,,,
1703402653.386690,1703402653.387327,15.000000,0.000000,4143.205078,4175.000000,4287.692383,4250.000000,4165.256348,4156.538574,4230.128418,4160.000000,4159.102539,4168.717773,4580.000000,4456.666504,4423.333496,4530.769043,6142.000000,4.000000,91.000000,,,,0.000000,4.000000,4.000000,4.000000,4.000000,4.000000,4.000000,4.000000,4.000000,4.000000,4.000000,4.000000,4.000000,4.000000,4.000000,100.000000,,,,,,,,,,,,,,,,,,,,,,,,,,,,
1703402653.394498,1703402653.395036,16.000000,0.000000,4144.230957,4179.358887,4283.333496,4251.282227,4162.307617,4153.589844,4225.769043,4161.025879,4157.179688,4167.820313,4573.846191,4451.794922,4422.436035,4525.000000,0.000000,4.000000,91.000000,,,,0.000000,4.000000,4.000000,4.000000,4.000000,4.000000,4.000000,4.000000,4.000000,4.000000,4.000000,4.000000,4.000000,4.000000,4.000000,100.000000,,,,,,,,,,,,,,,,,4.000000,0.000000,0.683293,-0.048767,-0.702820,0.191772,0.936149,-0.342327,0.017092,-29.857531,-5.267294,75.146469
1703402653.402306,1703402653.402944,17.000000,0.000000,4150.897461,4187.307617,4285.256348,4257.948730,4166.922852,4154.743652,4225.769043,4158.333496,4158.205078,4172.436035,4567.948730,4453.205078,4420.897461,4530.000000,0.000000,4.000000,91.000000,,,,0.000000,4.000000,4.000000,4.000000,4.000000,4.000000,4.000000,4.000000,4.000000,4.000000,4.000000,4.000000,4.000000,4.000000,4.000000,100.000000,,,,,,,,,,,,,,,,,,,,,,,,,,,,
1703402653.410114,1703402653.410752,18.000000,0.000000,4156.153809,4189.102539,4286.410156,4260.641113,4176.153809,4160.000000,4233.077148,4155.128418,4159.487305,4165.512695,4572.563965,4453.717773,4427.948730,4537.051270,0.000000,4.000000,91.000000,,,,0.000000,4.000000,4.000000,4.000000,4.000000,4.000000,4.000000,4.000000,4.000000,4.000000,4.000000,4.000000,4.000000,4.000000,4.000000,100.000000,,,,,,,,,,,,,,,,,,,,,,,,,,,,
1703402653.417922,1703402653.418660,19.000000,0.000000,4157.563965,4188.974121,4284.743652,4259.615234,4175.769043,4157.820313,4231.538574,4160.897461,4156.666504,4159.358887,4572.563965,4453.846191,4434.743652,4530.384766,0.000000,4.000000,91.000000,,,,0.000000,4.000000,4.000000,4.000000,4.000000,4.000000,4.000000,4.000000,4.000000,4.000000,4.000000,4.000000,4.000000,4.000000,4.000000,100.000000,,,,,,,,,,,,,,,,,,,,,,,,,,,,
1703402653.425730,1703402653.426468,20.000000,0.000000,4155.384766,4191.153809,4286.538574,4264.230957,4168.205078,4154.358887,4225.641113,4169.615234,4156.538574,4160.897461,4561.666504,4455.128418,4425.897461,4521.282227,0.000000,4.000000,91.000000,,,,0.000000,4.000000,4.000000,4.000000,4.000000,4.000000,4.000000,4.000000,4.000000,4.000000,4.000000,4.000000,4.000000,4.000000,4.000000,100.000000,,,,,,,,,,,,,,,,,5.000000,0.000000,0.683267,-0.048645,-0.702820,0.191895,0.934196,-0.343304,0.004395,-29.821777,-5.207232,75.098495
1703402653.433538,1703402653.434276,21.000000,0.000000,4148.974121,4189.358887,4283.077148,4262.563965,4167.692383,4162.692383,4230.128418,4166.410156,4157.051270,4155.641113,4550.897461,4446.922852,4407.563965,4516.282227,0.000000,4.000000,91.000000,,,,0.000000,4.000000,4.000000,4.000000,4.000000,4.000000,4.000000,4.000000,4.000000,4.000000,4.000000,4.000000,4.000000,4.000000,4.000000,100.000000,,,,,,,,,,,,,,,,,,,,,,,,,,,,
1703402653.441346,1703402653.441984,22.000000,0.000000,4137.179688,4175.512695,4271.025879,4247.436035,4168.589844,4166.410156,4232.820313,4155.256348,4145.769043,4141.025879,4536.282227,4432.563965,4388.974121,4504.230957,0.000000,4.000000,91.000000,,,,0.000000,4.000000,4.000000,4.000000,4.000000,4.000000,4.000000,4.000000,4.000000,4.000000,4.000000,4.000000,4.000000,4.000000,4.000000,100.000000,,,,,,,,,,,,,,,,,,,,,,,,,,,,
1703402653.449154,1703402653.449792,23.000000,0.000000,4130.897461,4165.384766,4271.153809,4242.436035,4158.846191,4157.179688,4227.307617,4152.179688,4135.128418,4131.410156,4525.000000,4429.615234,4382.179688,4494.615234,0.000000,4.000000,91.000000,,,,0.000000,4.000000,4.000000,4.000000,4.000000,4.000000,4.000000,4.000000,4.000000,4.000000,4.000000,4.000000,4.000000,4.000000,4.000000,100.000000,,,,,,,,,,,,,,,,,,,,,,,,,,,,
1703402653.456962,1703402653.457501,24.000000,0.000000,4133.461426,4171.922852,4282.436035,4248.205078,4148.974121,4149.102539,4225.512695,4154.743652,4141.666504,4131.666504,4528.974121,4436.922852,4389.615234,4498.717773,0.000000,4.000000,91.000000,,,,0.000000,4.000000,4.000000,4.000000,4.000000,4.000000,4.000000,4.000000,4.000000,4.000000,4.000000,4.000000,4.000000,4.000000,4.000000,100.000000,,,,,,,,,,,,,,,,,6.000000,0.000000,0.683263,-0.048462,-0.702820,0.191956,0.908802,-0.339397,0.014650,-30.072933,-5.219842,75.238640
1703402653.464770,1703402653.465308,25.000000,0.000000,4138.717773,4177.051270,4285.256348,4245.897461,4152.179688,4150.128418,4226.153809,4155.897461,4152.692383,4142.051270,4539.102539,4442.179688,4396.922852,4507.051270,0.000000,4.000000,91.000000,,,,0.000000,4.000000,4.000000,4.000000,4.000000,4.000000,4.000000,4.000000,4.000000,4.000000,4.000000,4.000000,4.000000,4.000000,4.000000,100.000000,,,,,,,,,,,,,,,,,,,,,,,,,,,,
1703402653.472578,1703402653.473017,26.000000,0.000000,4142.051270,4177.692383,4282.563965,4245.769043,4162.820313,4152.436035,4225.256348,4158.077148,4155.769043,4154.358887,4541.410156,4445.384766,4401.025879,4510.000000,0.000000,4.000000,91.000000,,,,0.000000,4.000000,4.000000,4.000000,4.000000,4.000000,4.000000,4.000000,4.000000,4.000000,4.000000,4.000000,4.000000,4.000000,4.000000,100.000000,,,,,,,,,,,,,,,,,,,,,,,,,,,,
1703402653.480386,1703402653.480924,27.000000,0.000000,4143.077148,4181.153809,4285.000000,4248.717773,4164.102539,4148.846191,4223.461426,4158.461426,4153.333496,4152.820313,4537.563965,4444.487305,4401.794922,4507.563965,0.000000,4.000000,91.000000,,,,0.000000,4.000000,4.000000,4.000000,4.000000,4.000000,4.000000,4.000000,4.000000,4.000000,4.000000,4.000000,4.000000,4.000000,4.000000,100.000000,,,,,,,,,,,,,,,,,,,,,,,,,,,,
1703402653.488195,1703402653.488732,28.000000,0.000000,4147.563965,4186.794922,4290.512695,4250.000000,4160.128418,4144.743652,4221.538574,4159.743652,4153.461426,4151.922852,4538.077148,4442.820313,4401.922852,4510.256348,0.000000,4.000000,91.000000,,,,0.000000,4.000000,4.000000,4.000000,4.000000,4.000000,4.000000,4.000000,4.000000,4.000000,4.000000,4.000000,4.000000,4.000000,4.000000,100.000000,,,,,,,,,,,,,,,,,7.000000,0.000000,0.683432,-0.048340,-0.702698,0.191833,0.924429,-0.350140,0.008302,-30.098974,-5.247858,75.181442
1703402653.496003,1703402653.496640,29.000000,0.000000,4160.000000,4194.230957,4294.871582,4253.846191,4165.641113,4150.128418,4224.487305,4167.179688,4161.922852,4164.743652,4548.974121,4453.205078,4412.692383,4525.128418,0.000000,4.000000,91.000000,,,,0.000000,4.000000,4.000000,4.000000,4.000000,4.000000,4.000000,4.000000,4.000000,4.000000,4.000000,4.000000,4.000000,4.000000,4.000000,100.000000,,,,,,,,,,,,,,,,,,,,,,,,,,,,
1703402653.503811,1703402653.504448,30.000000,0.000000,4168.846191,4196.410156,4297.820313,4256.666504,4173.589844,4157.436035,4225.384766,4174.743652,4174.358887,4174.358887,4563.333496,4466.538574,4430.128418,4537.307617,0.000000,4.000000,91.000000,,,,0.000000,4.000000,4.000000,4.000000,4.000000,4.000000,4.000000,4.000000,4.000000,4.000000,4.000000,4.000000,4.000000,4.000000,4.000000,100.000000,,,,,,,,,,,,,,,,,,,,,,,,,,,,
1703402653.511619,1703402653.512356,31.000000,0.000000,4162.948730,4190.384766,4295.769043,4257.436035,4173.717773,4153.717773,4222.948730,4168.077148,4171.410156,4167.436035,4557.307617,4460.897461,4428.974121,4530.128418,0.000000,4.000000,91.000000,,,,0.000000,4.000000,4.000000,4.000000,4.000000,4.000000,4.000000,4.000000,4.000000,4.000000,4.000000,4.000000,4.000000,4.000000,4.000000,100.000000,,,,,,,,,,,,,,,,,,,,,,,,,,,,
1703402653.519427,1703402653.520164,32.000000,0.000000,4151.666504,4187.307617,4288.974121,4255.384766,4165.128418,4150.512695,4223.077148,4158.589844,4155.769043,4156.666504,4540.512695,4446.794922,4411.666504,4517.436035,0.000000,4.000000,91.000000,,,,0.000000,4.000000,4.000000,4.000000,4.000000,4.000000,4.000000,4.000000,4.000000,4.000000,4.000000,4.000000,4.000000,4.000000,4.000000,100.000000,,,,,,,,,,,,,,,,,8.000000,0.000000,0.683432,-0.048340,-0.702698,0.191833,0.931266,-0.337932,0.006348,-30.239077,-5.173072,75.146637
1703402653.527235,1703402653.528072,33.000000,0.000000,4145.769043,4187.692383,4281.794922,4248.461426,4161.794922,4154.102539,4222.563965,4161.282227,4153.717773,4153.205078,4536.666504,4441.282227,4403.717773,4514.358887,0.000000,4.000000,91.000000,,,,0.000000,4.000000,4.000000,4.000000,4.000000,4.000000,4.000000,4.000000,4.000000,4.000000,4.000000,4.000000,4.000000,4.000000,4.000000,100.000000,,,,,,,,,,,,,,,,,,,,,,,,,,,,
1703402653.535043,1703402653.535880,34.000000,0.000000,4142.820313,4179.358887,4278.077148,4244.230957,4167.436035,4154.358887,4222.436035,4165.000000,4162.436035,4156.153809,4535.128418,4438.589844,4405.897461,4513.717773,0.000000,4.000000,91.000000,,,,0.000000,4.000000,4.000000,4.000000,4.000000,4.000000,4.000000,4.000000,4.000000,4.000000,4.000000,4.000000,4.000000,4.000000,4.000000,100.000000,,,,,,,,,,,,,,,,,,,,,,,,,,,,
1703402653.542851,1703402653.543788,35.000000,0.000000,4139.871582,4170.769043,4275.384766,4244.871582,4166.538574,4148.589844,4224.102539,4159.871582,4159.743652,4157.692383,4524.871582,4434.230957,4401.025879,4506.410156,0.000000,4.000000,91.000000,,,,0.000000,4.000000,4.000000,4.000000,4.000000,4.000000,4.000000,4.000000,4.000000,4.000000,4.000000,4.000000,4.000000,4.000000,4.000000,100.000000,,,,,,,,,,,,,,,,,,,,,,,,,,,,
1703402653.550659,1703402653.551596,36.000000,0.000000,4136.153809,4175.769043,4270.128418,4245.512695,4153.589844,4144.487305,4222.436035,4155.256348,4150.512695,4148.589844,4516.794922,4427.948730,4388.846191,4496.153809,0.000000,4.000000,91.000000,,,,0.000000,4.000000,4.000000,4.000000,4.000000,4.000000,4.000000,4.000000,4.000000,4.000000,4.000000,4.000000,4.000000,4.000000,4.000000,100.000000,,,,,,,,,,,,,,,,,9.000000,0.000000,0.683542,-0.048157,-0.702637,0.191711,0.928824,-0.335002,0.012209,-30.315168,-5.155765,75.115303
1703402653.558467,1703402653.559304,37.000000,0.000000,4133.589844,4180.000000,4265.512695,4242.436035,4152.948730,4145.769043,4218.205078,4159.102539,4151.794922,4141.666504,4513.974121,4423.846191,4387.051270,4490.769043,0.000000,4.000000,91.000000,,,,0.000000,4.000000,4.000000,4.000000,4.000000,4.000000,4.000000,4.000000,4.000000,4.000000,4.000000,4.000000,4.000000,4.000000,4.000000,100.000000,,,,,,,,,,,,,,,,,,,,,,,,,,,,
1703402653.566275,1703402653.567112,38.000000,0.000000,4135.128418,4173.461426,4265.512695,4237.179688,4158.333496,4147.179688,4219.487305,4162.179688,4158.974121,4147.179688,4509.230957,4426.025879,4394.487305,4488.333496,0.000000,4.000000,91.000000,,,,0.000000,4.000000,4.000000,4.000000,4.000000,4.000000,4.000000,4.000000,4.000000,4.000000,4.000000,4.000000,4.000000,4.000000,4.000000,100.000000,,,,,,,,,,,,,,,,,,,,,,,,,,,,
1703402653.574083,1703402653.574820,39.000000,0.000000,4136.538574,4172.948730,4266.794922,4235.256348,4152.179688,4148.461426,4221.153809,4162.820313,4159.615234,4150.897461,4510.769043,4428.846191,4396.282227,4491.282227,0.000000,4.000000,91.000000,,,,0.000000,4.000000,4.000000,4.000000,4.000000,4.000000,4.000000,4.000000,4.000000,4.000000,4.000000,4.000000,4.000000,4.000000,4.000000,100.000000,,,,,,,,,,,,,,,,,,,,,,,,,,,,
1703402653.581891,1703402653.582628,40.000000,0.000000,4140.128418,4183.461426,4268.717773,4243.974121,4156.538574,4153.333496,4222.307617,4165.256348,4160.769043,4148.077148,4519.615234,4430.256348,4394.487305,4498.589844,0.000000,4.000000,91.000000,,,,0.000000,4.000000,4.000000,4.000000,4.000000,4.000000,4.000000,4.000000,4.000000,4.000000,4.000000,4.000000,4.000000,4.000000,4.000000,100.000000,,,,,,,,,,,,,,,,,10.000000,0.000000,0.683780,-0.048096,-0.702393,0.191772,0.933708,-0.339397,0.014650,-30.133652,-5.106855,75.153770
1703402653.589699,1703402653.590336,41.000000,0.000000,4147.948730,4191.410156,4276.538574,4250.000000,4171.794922,4156.794922,4225.000000,4171.666504,4167.051270,4155.384766,4528.333496,4436.153809,4405.769043,4507.692383,0.000000,4.000000,91.000000,,,,0.000000,4.000000,4.000000,4.000000,4.000000,4.000000,4.000000,4.000000,4.000000,4.000000,4.000000,4.000000,4.000000,4.000000,4.000000,100.000000,,,,,,,,,,,,,,,,,,,,,,,,,,,,
1703402653.597507,1703402653.598144,42.000000,0.000000,4153.846191,4197.307617,4283.461426,4249.615234,4172.179688,4155.769043,4219.871582,4182.307617,4173.077148,4171.153809,4544.615234,4446.025879,4423.717773,4514.487305,0.000000,4.000000,91.000000,,,,0.000000,4.000000,4.000000,4.000000,4.000000,4.000000,4.000000,4.000000,4.000000,4.000000,4.000000,4.000000,4.000000,4.000000,4.000000,100.000000,,,,,,,,,,,,,,,,,,,,,,,,,,,,
1703402653.605315,1703402653.605852,43.000000,0.000000,4154.358887,4202.307617,4285.000000,4255.769043,4169.743652,4153.974121,4215.256348,4188.077148,4173.974121,4175.641113,4562.051270,4447.307617,4429.487305,4514.615234,0.000000,4.000000,91.000000,,,,0.000000,4.000000,4.000000,4.000000,4.000000,4.000000,4.000000,4.000000,4.000000,4.000000,4.000000,4.000000,4.000000,4.000000,4.000000,100.000000,,,,,,,,,,,,,,,,,,,,,,,,,,,,
1703402653.613123,1703402653.613660,44.000000,0.000000,4156.282227,4200.000000,4284.358887,4260.384766,4176.794922,4154.102539,4219.230957,4182.692383,4172.436035,4173.333496,4568.846191,4439.358887,4429.358887,4512.436035,0.000000,4.000000,91.000000,,,,0.000000,4.000000,4.000000,4.000000,4.000000,4.000000,4.000000,4.000000,4.000000,4.000000,4.000000,4.000000,4.000000,4.000000,4.000000,100.000000,,,,,,,,,,,,,,,,,11.000000,0.000000,0.683875,-0.048279,-0.702271,0.191833,0.930289,-0.334513,0.014162,-30.170286,-5.262836,75.171730
1703402653.620932,1703402653.621368,45.000000,0.000000,4156.922852,4200.897461,4281.410156,4254.102539,4176.922852,4154.102539,4216.282227,4174.871582,4173.461426,4174.102539,4573.461426,4434.743652,4431.666504,4511.922852,0.000000,4.000000,91.000000,,,,0.000000,4.000000,4.000000,4.000000,4.000000,4.000000,4.000000,4.000000,4.000000,4.000000,4.000000,4.000000,4.000000,4.000000,4.000000,100.000000,,,,,,,,,,,,,,,,,,,,,,,,,,,,
1703402653.628739,1703402653.629176,46.000000,0.000000,4143.974121,4204.358887,4275.256348,4247.820313,4168.333496,4152.051270,4204.230957,4169.871582,4169.743652,4171.025879,4580.000000,4428.846191,4431.153809,4506.666504,0.000000,4.000000,91.000000,,,,0.000000,4.000000,4.000000,4.000000,4.000000,4.000000,4.000000,4.000000,4.000000,4.000000,4.000000,4.000000,4.000000,4.000000,4.000000,100.000000,,,,,,,,,,,,,,,,,,,,,,,,,,,,
1703402653.636548,1703402653.636884,47.000000,0.000000,4133.461426,4199.230957,4273.205078,4247.179688,4169.487305,4152.179688,4204.358887,4161.922852,4156.922852,4167.563965,4582.948730,4417.307617,4427.179688,4494.358887,0.000000,4.000000,91.000000,,,,0.000000,4.000000,4.000000,4.000000,4.000000,4.000000,4.000000,4.000000,4.000000,4.000000,4.000000,4.000000,4.000000,4.000000,4.000000,100.000000,,,,,,,,,,,,,,,,,,,,,,,,,,,,
1703402653.644356,1703402653.644692,48.000000,0.000000,4137.051270,4192.692383,4273.589844,4246.794922,4173.974121,4156.025879,4212.436035,4157.307617,4150.641113,4170.769043,4589.743652,4412.948730,4428.333496,4490.769043,0.000000,4.000000,91.000000,,,,0.000000,4.000000,4.000000,4.000000,4.000000,4.000000,4.000000,4.000000,4.000000,4.000000,4.000000,4.000000,4.000000,4.000000,4.000000,100.000000,,,,,,,,,,,,,,,,,12.000000,0.000000,0.683933,-0.048340,-0.702209,0.191833,0.926383,-0.346722,0.020022,-30.103258,-5.369886,75.121223
1703402653.652164,1703402653.652400,49.000000,0.000000,4135.000000,4191.282227,4270.256348,4245.897461,4171.538574,4157.820313,4208.974121,4159.230957,4154.358887,4165.000000,4601.410156,4410.769043,4428.077148,4491.282227,0.000000,4.000000,91.000000,,,,0.000000,4.000000,4.000000,4.000000,4.000000,4.000000,4.000000,4.000000,4.000000,4.000000,4.000000,4.000000,4.000000,4.000000,4.000000,100.000000,,,,,,,,,,,,,,,,,,,,,,,,,,,,
1703402653.659972,1703402653.660208,50.000000,0.000000,4126.794922,4191.025879,4268.974121,4244.871582,4170.897461,4156.282227,4203.077148,4156.153809,4150.384766,4152.820313,4605.641113,4403.205078,4421.794922,4482.179688,0.000000,4.000000,91.000000,,,,0.000000,4.000000,4.000000,4.000000,4.000000,4.000000,4.000000,4.000000,4.000000,4.000000,4.000000,4.000000,4.000000,4.000000,4.000000,100.000000,,,,,,,,,,,,,,,,,,,,,,,,,,,,
1703402653.667780,1703402653.667916,51.000000,0.000000,4128.333496,4188.461426,4272.179688,4246.025879,4170.512695,4154.743652,4204.615234,4151.922852,4144.358887,4159.743652,4602.692383,4401.794922,4417.948730,4475.641113,0.000000,4.000000,91.000000,,,,0.000000,4.000000,4.000000,4.000000,4.000000,4.000000,4.000000,4.000000,4.000000,4.000000,4.000000,4.000000,4.000000,4.000000,4.000000,100.000000,,,,,,,,,,,,,,,,,,,,,,,,,,,,
1703402653.675588,1703402653.675724,52.000000,0.000000,4130.384766,4185.256348,4275.641113,4247.179688,4168.077148,4154.230957,4205.000000,4156.410156,4150.769043,4170.256348,4603.974121,4403.205078,4416.410156,4478.846191,0.000000,4.000000,91.000000,,,,0.000000,4.000000,4.000000,4.000000,4.000000,4.000000,4.000000,4.000000,4.000000,4.000000,4.000000,4.000000,4.000000,4.000000,4.000000,100.000000,,,,,,,,,,,,,,,,,13.000000,0.000000,0.683778,-0.048523,-0.702332,0.191895,0.930778,-0.334025,0.020510,-30.126265,-5.349564,75.159103
1703402653.683396,1703402653.683432,53.000000,0.000000,4121.922852,4183.717773,4272.692383,4238.205078,4168.077148,4153.205078,4202.820313,4159.102539,4156.538574,4165.000000,4605.000000,4396.794922,4413.717773,4477.563965,0.000000,4.000000,91.000000,,,,0.000000,4.000000,4.000000,4.000000,4.000000,4.000000,4.000000,4.000000,4.000000,4.000000,4.000000,4.000000,4.000000,4.000000,4.000000,100.000000,,,,,,,,,,,,,,,,,,,,,,,,,,,,
1703402653.691204,1703402653.691340,54.000000,0.000000,4120.641113,4188.974121,4268.333496,4231.922852,4166.922852,4153.205078,4203.333496,4155.769043,4152.436035,4162.051270,4601.282227,4392.692383,4416.538574,4474.615234,0.000000,4.000000,91.000000,,,,0.000000,4.000000,4.000000,4.000000,4.000000,4.000000,4.000000,4.000000,4.000000,4.000000,4.000000,4.000000,4.000000,4.000000,4.000000,100.000000,,,,,,,,,,,,,,,,,,,,,,,,,,,,
1703402653.699012,1703402653.699148,55.000000,0.000000,4130.256348,4195.384766,4272.563965,4238.461426,4166.025879,4154.871582,4204.358887,4159.871582,4150.384766,4168.846191,4602.179688,4397.563965,4424.358887,4482.563965,0.000000,4.000000,91.000000,,,,0.000000,4.000000,4.000000,4.000000,4.000000,4.000000,4.000000,4.000000,4.000000,4.000000,4.000000,4.000000,4.000000,4.000000,4.000000,100.000000,,,,,,,,,,,,,,,,,,,,,,,,,,,,
1703402653.706820,1703402653.707056,56.000000,0.000000,4138.461426,4197.563965,4274.230957,4240.897461,4170.128418,4156.794922,4206.153809,4170.641113,4158.589844,4177.692383,4614.487305,4400.897461,4431.282227,4492.436035,0.000000,4.000000,91.000000,,,,0.000000,4.000000,4.000000,4.000000,4.000000,4.000000,4.000000,4.000000,4.000000,4.000000,4.000000,4.000000,4.000000,4.000000,4.000000,100.000000,,,,,,,,,,,,,,,,,14.000000,0.000000,0.683722,-0.048584,-0.702332,0.192078,0.934684,-0.345745,0.013185,-30.030306,-5.347941,75.126526
1703402653.714628,1703402653.714864,57.000000,0.000000,4140.897461,4195.256348,4271.794922,4234.102539,4173.589844,4156.410156,4204.615234,4176.410156,4165.641113,4182.307617,4619.102539,4401.282227,4430.769043,4489.102539,0.000000,4.000000,91.000000,,,,0.000000,4.000000,4.000000,4.000000,4.000000,4.000000,4.000000,4.000000,4.000000,4.000000,4.000000,4.000000,4.000000,4.000000,4.000000,100.000000,,,,,,,,,,,,,,,,,,,,,,,,,,,,
1703402653.722436,1703402653.722772,58.000000,0.000000,4136.410156,4187.307617,4271.153809,4233.717773,4167.436035,4154.487305,4201.025879,4167.692383,4158.846191,4175.000000,4606.538574,4400.128418,4421.153809,4476.666504,0.000000,4.000000,91.000000,,,,0.000000,4.000000,4.000000,4.000000,4.000000,4.000000,4.000000,4.000000,4.000000,4.000000,4.000000,4.000000,4.000000,4.000000,4.000000,100.000000,,,,,,,,,,,,,,,,,,,,,,,,,,,,
1703402653.730244,1703402653.730580,59.000000,0.000000,4132.948730,4183.846191,4270.128418,4237.179688,4162.563965,4152.692383,4201.153809,4159.487305,4150.384766,4164.230957,4596.410156,4392.563965,4417.307617,4472.563965,0.000000,4.000000,91.000000,,,,0.000000,4.000000,4.000000,4.000000,4.000000,4.000000,4.000000,4.000000,4.000000,4.000000,4.000000,4.000000,4.000000,4.000000,4.000000,100.000000,,,,,,,,,,,,,,,,,,,,,,,,,,,,
1703402653.738052,1703402653.738488,60.000000,0.000000,4135.384766,4192.948730,4268.717773,4235.384766,4167.307617,4152.563965,4200.512695,4166.025879,4154.358887,4172.051270,4603.077148,4389.230957,4425.256348,4478.205078,0.000000,4.000000,91.000000,,,,0.000000,4.000000,4.000000,4.000000,4.000000,4.000000,4.000000,4.000000,4.000000,4.000000,4.000000,4.000000,4.000000,4.000000,4.000000,100.000000,,,,,,,,,,,,,,,,,15.000000,0.000000,0.683655,-0.048401,-0.702393,0.192139,0.929801,-0.342327,0.007325,-30.010609,-5.546480,75.080536
1703402653.745860,1703402653.746296,61.000000,0.000000,4130.000000,4195.256348,4270.256348,4233.974121,4172.563965,4156.794922,4201.282227,4171.538574,4161.282227,4183.717773,4610.128418,4395.384766,4426.922852,4478.974121,0.000000,4.000000,91.000000,,,,0.000000,4.000000,4.000000,4.000000,4.000000,4.000000,4.000000,4.000000,4.000000,4.000000,4.000000,4.000000,4.000000,4.000000,4.000000,100.000000,,,,,,,,,,,,,,,,,,,,,,,,,,,,
1703402653.753668,1703402653.754004,62.000000,0.000000,4122.307617,4182.820313,4267.051270,4233.846191,4168.077148,4157.436035,4201.538574,4161.666504,4158.205078,4178.846191,4603.077148,4394.487305,4415.384766,4472.692383,0.000000,4.000000,91.000000,,,,0.000000,4.000000,4.000000,4.000000,4.000000,4.000000,4.000000,4.000000,4.000000,4.000000,4.000000,4.000000,4.000000,4.000000,4.000000,100.000000,,,,,,,,,,,,,,,,,,,,,,,,,,,,
1703402653.761476,1703402653.761812,63.000000,0.000000,4130.384766,4181.025879,4260.256348,4233.461426,4156.922852,4147.436035,4198.717773,4151.922852,4148.461426,4171.410156,4598.205078,4390.256348,4410.256348,4466.794922,0.000000,4.000000,91.000000,,,,0.000000,4.000000,4.000000,4.000000,4.000000,4.000000,4.000000,4.000000,4.000000,4.000000,4.000000,4.000000,4.000000,4.000000,4.000000,100.000000,,,,,,,,,,,,,,,,,,,,,,,,,,,,
1703402653.769285,1703402653.769520,64.000000,0.000000,4137.820313,4188.077148,4259.102539,4233.846191,4151.282227,4143.461426,4198.461426,4152.948730,4145.384766,4166.538574,4601.153809,4388.205078,4413.077148,4463.717773,5263.000000,4.000000,91.000000,,,,0.000000,4.000000,4.000000,4.000000,4.000000,4.000000,4.000000,4.000000,4.000000,4.000000,4.000000,4.000000,4.000000,4.000000,4.000000,100.000000,1.000000,91.666664,4.000000,4.000000,4.000000,4.000000,4.000000,4.000000,4.000000,4.000000,4.000000,4.000000,3.000000,4.000000,4.000000,4.000000,16.000000,0.000000,0.683627,-0.048157,-0.702454,0.192078,0.932731,-0.339885,0.012209,-30.192881,-5.608499,75.189148
1703402653.777093,1703402653.777328,65.000000,0.000000,4129.743652,4180.641113,4261.538574,4233.717773,4154.487305,4147.307617,4200.000000,4152.948730,4146.922852,4158.974121,4595.641113,4383.717773,4407.307617,4460.897461,4919.000000,4.000000,91.000000,,,,0.000000,4.000000,4.000000,4.000000,4.000000,4.000000,4.000000,4.000000,4.000000,4.000000,4.000000,4.000000,4.000000,4.000000,4.000000,100.000000,,,,,,,,,,,,,,,,,,,,,,,,,,,,
1703402653.784901,1703402653.785036,66.000000,0.000000,4124.615234,4173.077148,4265.384766,4233.333496,4157.948730,4143.974121,4198.333496,4151.666504,4145.897461,4155.384766,4590.000000,4386.794922,4398.846191,4459.743652,5105.000000,4.000000,91.000000,,,,0.000000,4.000000,4.000000,4.000000,4.000000,4.000000,4.000000,4.000000,4.000000,4.000000,4.000000,4.000000,4.000000,4.000000,4.000000,100.000000,,,,,,,,,,,,,,,,,,,,,,,,,,,,
1703402653.792709,1703402653.792844,67.000000,0.000000,4127.563965,4180.000000,4270.384766,4233.846191,4154.358887,4142.179688,4200.641113,4154.358887,4147.948730,4158.077148,4596.538574,4396.666504,4403.717773,4462.948730,5240.000000,4.000000,91.000000,,,,0.000000,4.000000,4.000000,4.000000,4.000000,4.000000,4.000000,4.000000,4.000000,4.000000,4.000000,4.000000,4.000000,4.000000,4.000000,100.000000,,,,,,,,,,,,,,,,,,,,,,,,,,,,
1703402653.800517,1703402653.800552,68.000000,0.000000,4124.102539,4181.538574,4269.487305,4234.743652,4152.948730,4150.897461,4206.538574,4160.256348,4152.307617,4158.333496,4597.307617,4397.948730,4410.769043,4464.743652,5025.000000,4.000000,91.000000,,,,0.000000,4.000000,4.000000,4.000000,4.000000,4.000000,4.000000,4.000000,4.000000,4.000000,4.000000,4.000000,4.000000,4.000000,4.000000,100.000000,,,,,,,,,,,,,,,,,17.000000,0.000000,0.683687,-0.048035,-0.702454,0.191895,0.929313,-0.347210,0.008302,-30.123592,-5.730982,75.253571
1703402653.808325,1703402653.808360,69.000000,0.000000,4119.230957,4176.666504,4265.384766,4232.948730,4156.282227,4156.025879,4205.128418,4165.256348,4154.102539,4157.692383,4586.922852,4395.000000,4402.948730,4461.282227,5071.000000,4.000000,91.000000,,,,0.000000,4.000000,4.000000,4.000000,4.000000,4.000000,4.000000,4.000000,4.000000,4.000000,4.000000,4.000000,4.000000,4.000000,4.000000,100.000000,,,,,,,,,,,,,,,,,,,,,,,,,,,,
1703402653.816133,1703402653.816068,70.000000,0.000000,4120.641113,4180.512695,4267.820313,4233.461426,4155.641113,4153.974121,4207.948730,4169.358887,4157.948730,4163.077148,4586.538574,4401.794922,4396.922852,4462.820313,3104.000000,4.000000,91.000000,,,,0.000000,4.000000,4.000000,4.000000,4.000000,4.000000,4.000000,4.000000,4.000000,4.000000,4.000000,4.000000,4.000000,4.000000,4.000000,100.000000,,,,,,,,,,,,,,,,,,,,,,,,,,,,
1703402653.823941,1703402653.823876,71.000000,0.000000,4122.179688,4183.717773,4272.051270,4235.512695,4153.461426,4152.563965,4212.307617,4171.538574,4160.000000,4160.641113,4588.846191,4407.563965,4400.256348,4464.743652,5240.000000,4.000000,91.000000,,,,0.000000,4.000000,4.000000,4.000000,4.000000,4.000000,4.000000,4.000000,4.000000,4.000000,4.000000,4.000000,4.000000,4.000000,4.000000,100.000000,,,,,,,,,,,,,,,,,,,,,,,,,,,,
1703402653.831749,1703402653.831584,72.000000,0.000000,4117.051270,4178.333496,4269.743652,4232.436035,4152.307617,4151.922852,4208.205078,4169.615234,4157.051270,4149.743652,4582.436035,4404.871582,4398.077148,4460.512695,5248.000000,4.000000,91.000000,,,,0.000000,4.000000,4.000000,4.000000,4.000000,4.000000,4.000000,4.000000,4.000000,4.000000,4.000000,4.000000,4.000000,4.000000,4.000000,100.000000,,,,,,,,,,,,,,,,,18.000000,0.000000,0.683738,-0.048035,-0.702454,0.191711,0.930778,-0.343304,0.003907,-30.194567,-5.674551,75.228210
1703402653.839557,1703402653.839492,73.000000,0.000000,4116.282227,4180.512695,4269.358887,4235.384766,4154.615234,4153.333496,4210.000000,4171.282227,4159.487305,4154.743652,4582.179688,4405.641113,4397.051270,4465.897461,5140.000000,4.000000,91.000000,,,,0.000000,4.000000,4.000000,4.000000,4.000000,4.000000,4.000000,4.000000,4.000000,4.000000,4.000000,4.000000,4.000000,4.000000,4.000000,100.000000,,,,,,,,,,,,,,,,,,,,,,,,,,,,
1703402653.847365,1703402653.847300,74.000000,0.000000,4122.948730,4188.717773,4269.358887,4242.692383,4163.589844,4154.871582,4212.051270,4172.563965,4164.102539,4166.282227,4584.743652,4404.102539,4400.256348,4474.358887,5806.000000,4.000000,91.000000,,,,0.000000,4.000000,4.000000,4.000000,4.000000,4.000000,4.000000,4.000000,4.000000,4.000000,4.000000,4.000000,4.000000,4.000000,4.000000,100.000000,,,,,,,,,,,,,,,,,,,,,,,,,,,,
1703402653.855173,1703402653.855207,75.000000,0.000000,4121.794922,4181.922852,4262.820313,4235.000000,4166.410156,4152.563965,4207.179688,4162.692383,4155.641113,4156.025879,4574.871582,4393.461426,4395.769043,4465.256348,6145.000000,4.000000,91.000000,,,,0.000000,4.000000,4.000000,4.000000,4.000000,4.000000,4.000000,4.000000,4.000000,4.000000,4.000000,4.000000,4.000000,4.000000,4.000000,100.000000,,,,,,,,,,,,,,,,,,,,,,,,,,,,
1703402653.862981,1703402653.863015,76.000000,0.000000,4117.563965,4170.641113,4261.538574,4220.641113,4159.102539,4152.307617,4206.794922,4152.179688,4144.230957,4143.077148,4566.282227,4392.820313,4388.974121,4454.871582,6608.000000,4.000000,91.000000,,,,0.000000,4.000000,4.000000,4.000000,4.000000,4.000000,4.000000,4.000000,4.000000,4.000000,4.000000,4.000000,4.000000,4.000000,4.000000,100.000000,,,,,,,,,,,,,,,,,19.000000,0.000000,0.683773,-0.048035,-0.702454,0.191589,0.930289,-0.337932,0.021487,-30.258444,-5.573762,75.288727
1703402653.870789,1703402653.870923,77.000000,0.000000,4123.846191,4177.436035,4269.358887,4229.487305,4153.974121,4154.358887,4209.230957,4153.717773,4145.384766,4150.384766,4569.230957,4401.666504,4387.307617,4460.128418,6335.000000,4.000000,91.000000,,,,0.000000,4.000000,4.000000,4.000000,4.000000,4.000000,4.000000,4.000000,4.000000,4.000000,4.000000,4.000000,4.000000,4.000000,4.000000,100.000000,,,,,,,,,,,,,,,,,,,,,,,,,,,,
1703402653.878597,1703402653.878731,78.000000,0.000000,4131.538574,4186.410156,4273.205078,4245.256348,4153.974121,4147.692383,4205.641113,4154.615234,4151.794922,4158.333496,4568.205078,4398.846191,4385.000000,4459.871582,5806.000000,4.000000,91.000000,,,,0.000000,4.000000,4.000000,4.000000,4.000000,4.000000,4.000000,4.000000,4.000000,4.000000,4.000000,4.000000,4.000000,4.000000,4.000000,100.000000,,,,,,,,,,,,,,,,,,,,,,,,,,,,
1703402653.886405,1703402653.886639,79.000000,0.000000,4128.717773,4178.205078,4272.307617,4241.025879,4158.077148,4138.333496,4204.102539,4151.666504,4153.461426,4156.410156,4565.512695,4398.589844,4385.384766,4454.743652,6145.000000,4.000000,91.000000,,,,0.000000,4.000000,4.000000,4.000000,4.000000,4.000000,4.000000,4.000000,4.000000,4.000000,4.000000,4.000000,4.000000,4.000000,4.000000,100.000000,,,,,,,,,,,,,,,,,,,,,,,,,,,,
1703402653.894213,1703402653.894447,80.000000,0.000000,4127.307617,4174.615234,4272.179688,4236.538574,4161.025879,4141.794922,4205.256348,4154.230957,4151.922852,4156.410156,4569.487305,4405.897461,4388.461426,4458.461426,6608.000000,4.000000,91.000000,,,,0.000000,4.000000,4.000000,4.000000,4.000000,4.000000,4.000000,4.000000,4.000000,4.000000,4.000000,4.000000,4.000000,4.000000,4.000000,100.000000,,,,,,,,,,,,,,,,,20.000000,0.000000,0.683848,-0.048096,-0.702393,0.191528,0.933708,-0.333048,0.010255,-30.065933,-5.516386,75.543182
1703402653.902022,1703402653.902355,81.000000,0.000000,4135.897461,4183.717773,4270.897461,4243.589844,4161.922852,4152.179688,4203.974121,4156.538574,4150.512695,4153.846191,4569.743652,4404.230957,4387.051270,4459.487305,6335.000000,4.000000,91.000000,,,,0.000000,4.000000,4.000000,4.000000,4.000000,4.000000,4.000000,4.000000,4.000000,4.000000,4.000000,4.000000,4.000000,4.000000,4.000000,100.000000,,,,,,,,,,,,,,,,,,,,,,,,,,,,
1703402653.909830,1703402653.910163,82.000000,0.000000,4141.282227,4187.563965,4267.820313,4249.230957,4168.205078,4155.512695,4206.666504,4157.820313,4154.102539,4153.333496,4568.205078,4401.410156,4386.410156,4455.384766,5806.000000,4.000000,91.000000,,,,0.000000,4.000000,4.000000,4.000000,4.000000,4.000000,4.000000,4.000000,4.000000,4.000000,4.000000,4.000000,4.000000,4.000000,4.000000,100.000000,,,,,,,,,,,,,,,,,,,,,,,,,,,,
1703402653.917637,1703402653.918071,83.000000,0.000000,4134.358887,4187.307617,4262.051270,4246.025879,4171.538574,4153.974121,4211.153809,4160.384766,4160.641113,4158.077148,4572.948730,4403.077148,4386.025879,4455.641113,6145.000000,4.000000,91.000000,,,,0.000000,4.000000,4.000000,4.000000,4.000000,4.000000,4.000000,4.000000,4.000000,4.000000,4.000000,4.000000,4.000000,4.000000,4.000000,100.000000,,,,,,,,,,,,,,,,,,,,,,,,,,,,
1703402653.925446,1703402653.925879,84.000000,0.000000,4124.487305,4183.205078,4256.538574,4241.410156,4164.487305,4154.743652,4207.179688,4157.307617,4158.846191,4154.487305,4569.358887,4396.794922,4379.871582,4454.358887,6608.000000,4.000000,91.000000,,,,0.000000,4.000000,4.000000,4.000000,4.000000,4.000000,4.000000,4.000000,4.000000,4.000000,4.000000,4.000000,4.000000,4.000000,4.000000,100.000000,,,,,,,,,,,,,,,,,21.000000,0.000000,0.683781,-0.048157,-0.702454,0.191528,0.927359,-0.346722,0.010255,-29.976006,-5.581414,75.438866
1703402653.933254,1703402653.933687,85.000000,0.000000,4124.358887,4179.358887,4253.461426,4244.743652,4164.358887,4154.487305,4203.461426,4155.897461,4153.205078,4151.282227,4559.230957,4391.410156,4374.102539,4447.436035,6335.000000,4.000000,91.000000,,,,0.000000,4.000000,4.000000,4.000000,4.000000,4.000000,4.000000,4.000000,4.000000,4.000000,4.000000,4.000000,4.000000,4.000000,4.000000,100.000000,,,,,,,,,,,,,,,,,,,,,,,,,,,,
1703402653.941062,1703402653.941495,86.000000,0.000000,4125.512695,4181.282227,4248.717773,4246.153809,4167.436035,4152.307617,4206.922852,4158.461426,4153.589844,4150.384766,4552.948730,4395.512695,4369.230957,4443.461426,5806.000000,4.000000,91.000000,,,,0.000000,4.000000,4.000000,4.000000,4.000000,4.000000,4.000000,4.000000,4.000000,4.000000,4.000000,4.000000,4.000000,4.000000,4.000000,100.000000,,,,,,,,,,,,,,,,,,,,,,,,,,,,
1703402653.948870,1703402653.949203,87.000000,0.000000,4117.563965,4175.128418,4242.820313,4234.102539,4157.692383,4152.692383,4207.436035,4151.666504,4152.051270,4142.179688,4544.102539,4392.436035,4356.025879,4438.589844,6145.000000,4.000000,91.000000,,,,0.000000,4.000000,4.000000,4.000000,4.000000,4.000000,4.000000,4.000000,4.000000,4.000000,4.000000,4.000000,4.000000,4.000000,4.000000,100.000000,,,,,,,,,,,,,,,,,,,,,,,,,,,,
1703402653.956678,1703402653.957011,88.000000,0.000000,4107.820313,4163.846191,4240.000000,4222.051270,4150.769043,4149.358887,4199.102539,4146.666504,4144.487305,4137.820313,4535.897461,4382.820313,4345.897461,4430.000000,6608.000000,4.000000,91.000000,,,,0.000000,4.000000,4.000000,4.000000,4.000000,4.000000,4.000000,4.000000,4.000000,4.000000,4.000000,4.000000,4.000000,4.000000,4.000000,100.000000,,,,,,,,,,,,,,,,,22.000000,0.000000,0.683818,-0.048279,-0.702393,0.191589,0.943963,-0.336955,0.000488,-30.061739,-5.406606,75.361649
1703402653.964486,1703402653.964719,89.000000,0.000000,4105.256348,4165.897461,4239.487305,4230.897461,4153.974121,4141.153809,4198.846191,4153.461426,4143.589844,4140.641113,4536.794922,4384.358887,4349.743652,4427.436035,6335.000000,4.000000,91.000000,,,,0.000000,4.000000,4.000000,4.000000,4.000000,4.000000,4.000000,4.000000,4.000000,4.000000,4.000000,4.000000,4.000000,4.000000,4.000000,100.000000,,,,,,,,,,,,,,,,,,,,,,,,,,,,
1703402653.972294,1703402653.972627,90.000000,0.000000,4108.205078,4172.179688,4239.615234,4241.794922,4158.461426,4143.974121,4203.846191,4151.922852,4146.410156,4131.282227,4538.589844,4389.230957,4349.230957,4429.358887,5806.000000,4.000000,91.000000,,,,0.000000,4.000000,4.000000,4.000000,4.000000,4.000000,4.000000,4.000000,4.000000,4.000000,4.000000,4.000000,4.000000,4.000000,4.000000,100.000000,,,,,,,,,,,,,,,,,,,,,,,,,,,,
1703402653.980102,1703402653.980435,91.000000,0.000000,4114.230957,4170.769043,4241.410156,4241.410156,4159.871582,4151.666504,4201.922852,4144.102539,4143.461426,4124.358887,4537.051270,4389.743652,4340.256348,4433.974121,6145.000000,4.000000,91.000000,,,,0.000000,4.000000,4.000000,4.000000,4.000000,4.000000,4.000000,4.000000,4.000000,4.000000,4.000000,4.000000,4.000000,4.000000,4.000000,100.000000,,,,,,,,,,,,,,,,,,,,,,,,,,,,
1703402653.987910,1703402653.988343,92.000000,0.000000,4117.948730,4169.230957,4244.358887,4241.666504,4153.846191,4146.025879,4199.743652,4148.461426,4143.974121,4134.102539,4537.948730,4390.641113,4338.461426,4438.333496,6608.000000,4.000000,91.000000,,,,0.000000,4.000000,4.000000,4.000000,4.000000,4.000000,4.000000,4.000000,4.000000,4.000000,4.000000,4.000000,4.000000,4.000000,4.000000,100.000000,,,,,,,,,,,,,,,,,23.000000,0.000000,0.683797,-0.048340,-0.702393,0.191650,0.938103,-0.352094,0.017092,-30.105564,-5.365945,75.442146
1703402653.995718,1703402653.996151,93.000000,0.000000,4116.794922,4169.358887,4243.846191,4239.358887,4149.230957,4138.333496,4202.820313,4156.666504,4149.743652,4133.205078,4538.205078,4390.641113,4341.666504,4435.641113,6335.000000,4.000000,91.000000,,,,0.000000,4.000000,4.000000,4.000000,4.000000,4.000000,4.000000,4.000000,4.000000,4.000000,4.000000,4.000000,4.000000,4.000000,4.000000,100.000000,,,,,,,,,,,,,,,,,,,,,,,,,,,,
1703402654.003526,1703402654.003959,94.000000,0.000000,4115.769043,4171.282227,4240.128418,4234.615234,4153.846191,4140.641113,4207.051270,4155.512695,4153.974121,4125.256348,4535.769043,4392.436035,4339.102539,4431.794922,5806.000000,4.000000,91.000000,,,,0.000000,4.000000,4.000000,4.000000,4.000000,4.000000,4.000000,4.000000,4.000000,4.000000,4.000000,4.000000,4.000000,4.000000,4.000000,100.000000,,,,,,,,,,,,,,,,,,,,,,,,,,,,
1703402654.011334,1703402654.011667,95.000000,0.000000,4117.948730,4172.179688,4236.410156,4238.717773,4155.256348,4142.692383,4207.051270,4155.769043,4157.307617,4133.846191,4535.512695,4394.743652,4334.230957,4433.333496,6145.000000,4.000000,91.000000,,,,0.000000,4.000000,4.000000,4.000000,4.000000,4.000000,4.000000,4.000000,4.000000,4.000000,4.000000,4.000000,4.000000,4.000000,4.000000,100.000000,,,,,,,,,,,,,,,,,,,,,,,,,,,,
1703402654.019142,1703402654.019575,96.000000,0.000000,4119.487305,4169.615234,4236.282227,4247.051270,4151.922852,4139.871582,4205.000000,4163.717773,4160.384766,4143.589844,4536.538574,4395.000000,4336.794922,4435.769043,6608.000000,4.000000,91.000000,,,,0.000000,4.000000,4.000000,4.000000,4.000000,4.000000,4.000000,4.000000,4.000000,4.000000,4.000000,4.000000,4.000000,4.000000,4.000000,100.000000,,,,,,,,,,,,,,,,,24.000000,0.000000,0.683864,-0.048523,-0.702332,0.191589,0.921499,-0.333537,0.008302,-29.945007,-5.262684,75.531265
1703402654.026950,1703402654.027383,97.000000,0.000000,4122.051270,4176.025879,4237.820313,4244.871582,4154.102539,4143.589844,4203.846191,4167.179688,4163.717773,4139.358887,4536.538574,4400.256348,4343.846191,4439.743652,6335.000000,4.000000,91.000000,,,,0.000000,4.000000,4.000000,4.000000,4.000000,4.000000,4.000000,4.000000,4.000000,4.000000,4.000000,4.000000,4.000000,4.000000,4.000000,100.000000,,,,,,,,,,,,,,,,,,,,,,,,,,,,
1703402654.034758,1703402654.035191,98.000000,0.000000,4127.563965,4182.692383,4236.282227,4236.794922,4158.205078,4150.256348,4205.897461,4161.153809,4165.256348,4138.589844,4532.179688,4402.692383,4342.820313,4444.615234,5806.000000,4.000000,91.000000,,,,0.000000,4.000000,4.000000,4.000000,4.000000,4.000000,4.000000,4.000000,4.000000,4.000000,4.000000,4.000000,4.000000,4.000000,4.000000,100.000000,,,,,,,,,,,,,,,,,,,,,,,,,,,,
1703402654.042566,1703402654.042899,99.000000,0.000000,4126.153809,4173.717773,4233.589844,4230.769043,4158.846191,4151.794922,4207.820313,4155.769043,4159.230957,4139.871582,4519.358887,4394.615234,4331.025879,4437.307617,6145.000000,4.000000,91.000000,,,,0.000000,4.000000,4.000000,4.000000,4.000000,4.000000,4.000000,4.000000,4.000000,4.000000,4.000000,4.000000,4.000000,4.000000,4.000000,100.000000,,,,,,,,,,,,,,,,,,,,,,,,,,,,
1703402654.050374,1703402654.050807,100.000000,0.000000,4118.717773,4165.512695,4230.769043,4227.820313,4156.025879,4151.153809,4205.641113,4155.641113,4149.743652,4131.410156,4506.282227,4387.436035,4323.205078,4426.025879,6608.000000,4.000000,91.000000,,,,0.000000,4.000000,4.000000,4.000000,4.000000,4.000000,4.000000,4.000000,4.000000,4.000000,4.000000,4.000000,4.000000,4.000000,4.000000,100.000000,,,,,,,,,,,,,,,,,25.000000,0.000000,0.683923,-0.048645,-0.702332,0.191345,0.933219,-0.338909,0.024417,-29.867174,-5.269749,75.511475
1703402654.058183,1703402654.058615,101.000000,0.000000,4117.948730,4169.358887,4230.769043,4231.794922,4152.436035,4148.589844,4207.307617,4154.358887,4148.846191,4118.589844,4502.436035,4388.846191,4323.077148,4423.717773,6335.000000,4.000000,91.000000,,,,0.000000,4.000000,4.000000,4.000000,4.000000,4.000000,4.000000,4.000000,4.000000,4.000000,4.000000,4.000000,4.000000,4.000000,4.000000,100.000000,,,,,,,,,,,,,,,,,,,,,,,,,,,,
1703402654.065991,1703402654.066523,102.000000,0.000000,4125.000000,4172.820313,4236.025879,4237.436035,4152.820313,4148.077148,4209.358887,4154.871582,4151.410156,4113.589844,4506.794922,4395.512695,4324.487305,4427.692383,5806.000000,4.000000,91.000000,,,,0.000000,4.000000,4.000000,4.000000,4.000000,4.000000,4.000000,4.000000,4.000000,4.000000,4.000000,4.000000,4.000000,4.000000,4.000000,100.000000,,,,,,,,,,,,,,,,,,,,,,,,,,,,
1703402654.073799,1703402654.074331,103.000000,0.000000,4127.307617,4171.666504,4238.333496,4235.641113,4155.256348,4149.487305,4208.461426,4158.846191,4153.205078,4122.307617,4505.641113,4397.436035,4322.692383,4430.897461,6145.000000,4.000000,91.000000,,,,0.000000,4.000000,4.000000,4.000000,4.000000,4.000000,4.000000,4.000000,4.000000,4.000000,4.000000,4.000000,4.000000,4.000000,4.000000,100.000000,,,,,,,,,,,,,,,,,,,,,,,,,,,,
1703402654.081607,1703402654.082238,104.000000,0.000000,4121.666504,4170.897461,4236.410156,4231.666504,4155.384766,4148.974121,4206.410156,4161.666504,4155.769043,4128.205078,4495.128418,4393.589844,4314.743652,4427.563965,6608.000000,4.000000,91.000000,,,,0.000000,4.000000,4.000000,4.000000,4.000000,4.000000,4.000000,4.000000,4.000000,4.000000,4.000000,4.000000,4.000000,4.000000,4.000000,100.000000,,,,,,,,,,,,,,,,,26.000000,0.000000,0.683999,-0.048706,-0.702271,0.191284,0.938103,-0.332560,0.019045,-29.897123,-5.276107,75.443657
1703402654.089415,1703402654.090046,105.000000,0.000000,4116.538574,4167.307617,4236.410156,4230.128418,4158.205078,4147.179688,4207.436035,4165.256348,4156.794922,4123.333496,4488.846191,4393.077148,4308.077148,4419.743652,6335.000000,4.000000,91.000000,,,,0.000000,4.000000,4.000000,4.000000,4.000000,4.000000,4.000000,4.000000,4.000000,4.000000,4.000000,4.000000,4.000000,4.000000,4.000000,100.000000,,,,,,,,,,,,,,,,,,,,,,,,,,,,
1703402654.097223,1703402654.097954,106.000000,0.000000,4118.205078,4165.897461,4240.256348,4228.589844,4156.922852,4149.102539,4209.487305,4167.563965,4154.615234,4120.641113,4491.538574,4397.692383,4308.717773,4420.384766,5806.000000,4.000000,91.000000,,,,0.000000,4.000000,4.000000,4.000000,4.000000,4.000000,4.000000,4.000000,4.000000,4.000000,4.000000,4.000000,4.000000,4.000000,4.000000,100.000000,,,,,,,,,,,,,,,,,,,,,,,,,,,,
1703402654.105031,1703402654.105762,107.000000,0.000000,4124.230957,4170.000000,4243.589844,4231.410156,4154.358887,4154.487305,4208.717773,4168.333496,4155.000000,4126.025879,4494.358887,4402.820313,4313.333496,4429.615234,6145.000000,4.000000,91.000000,,,,0.000000,4.000000,4.000000,4.000000,4.000000,4.000000,4.000000,4.000000,4.000000,4.000000,4.000000,4.000000,4.000000,4.000000,4.000000,100.000000,,,,,,,,,,,,,,,,,,,,,,,,,,,,
1703402654.112839,1703402654.113670,108.000000,0.000000,4121.538574,4172.692383,4241.025879,4235.128418,4163.461426,4155.256348,4208.846191,4166.282227,4156.153809,4127.179688,4487.307617,4403.589844,4309.358887,4429.615234,6608.000000,4.000000,91.000000,,,,0.000000,4.000000,4.000000,4.000000,4.000000,4.000000,4.000000,4.000000,4.000000,4.000000,4.000000,4.000000,4.000000,4.000000,4.000000,100.000000,,,,,,,,,,,,,,,,,27.000000,0.000000,0.684100,-0.048645,-0.702209,0.191162,0.933708,-0.344769,0.024905,-30.007412,-5.281830,75.432625
1703402654.120647,1703402654.121478,109.000000,0.000000,4116.666504,4171.025879,4237.436035,4233.974121,4165.769043,4151.922852,4206.538574,4163.717773,4156.794922,4121.282227,4477.307617,4399.358887,4299.487305,4423.589844,6335.000000,4.000000,91.000000,,,,0.000000,4.000000,4.000000,4.000000,4.000000,4.000000,4.000000,4.000000,4.000000,4.000000,4.000000,4.000000,4.000000,4.000000,4.000000,100.000000,,,,,,,,,,,,,,,,,,,,,,,,,,,,
1703402654.128455,1703402654.129186,110.000000,0.000000,4124.615234,4171.282227,4243.589844,4233.461426,4156.025879,4148.461426,4205.128418,4167.307617,4160.384766,4121.153809,4478.205078,4397.436035,4303.205078,4427.051270,5806.000000,4.000000,91.000000,,,,0.000000,4.000000,4.000000,4.000000,4.000000,4.000000,4.000000,4.000000,4.000000,4.000000,4.000000,4.000000,4.000000,4.000000,4.000000,100.000000,,,,,,,,,,,,,,,,,,,,,,,,,,,,
1703402654.136263,1703402654.136994,111.000000,0.000000,4131.282227,4171.666504,4251.410156,4234.743652,4152.948730,4151.410156,4208.461426,4167.436035,4160.769043,4123.333496,4478.974121,4398.205078,4311.282227,4430.128418,6145.000000,4.000000,91.000000,,,,0.000000,4.000000,4.000000,4.000000,4.000000,4.000000,4.000000,4.000000,4.000000,4.000000,4.000000,4.000000,4.000000,4.000000,4.000000,100.000000,,,,,,,,,,,,,,,,,,,,,,,,,,,,
1703402654.144071,1703402654.144702,112.000000,0.000000,4120.641113,4167.051270,4244.487305,4235.000000,4158.333496,4155.641113,4208.589844,4156.538574,4154.615234,4115.384766,4465.256348,4394.743652,4298.974121,4419.871582,6608.000000,4.000000,91.000000,,,,0.000000,4.000000,4.000000,4.000000,4.000000,4.000000,4.000000,4.000000,4.000000,4.000000,4.000000,4.000000,4.000000,4.000000,4.000000,100.000000,,,,,,,,,,,,,,,,,28.000000,0.000000,0.684154,-0.048523,-0.702148,0.191223,0.922964,-0.342327,0.000977,-29.973337,-5.453647,75.456032
1703402654.151879,1703402654.152510,113.000000,0.000000,4106.794922,4162.051270,4236.153809,4230.256348,4164.487305,4151.666504,4207.179688,4149.615234,4150.897461,4106.410156,4452.307617,4389.615234,4281.538574,4407.948730,6335.000000,4.000000,91.000000,,,,0.000000,4.000000,4.000000,4.000000,4.000000,4.000000,4.000000,4.000000,4.000000,4.000000,4.000000,4.000000,4.000000,4.000000,4.000000,100.000000,,,,,,,,,,,,,,,,,,,,,,,,,,,,
1703402654.159687,1703402654.160218,114.000000,0.000000,4102.563965,4156.922852,4235.641113,4221.153809,4163.589844,4149.871582,4207.051270,4150.897461,4145.512695,4105.128418,4442.307617,4382.820313,4271.282227,4398.333496,5806.000000,4.000000,91.000000,,,,0.000000,4.000000,4.000000,4.000000,4.000000,4.000000,4.000000,4.000000,4.000000,4.000000,4.000000,4.000000,4.000000,4.000000,4.000000,100.000000,,,,,,,,,,,,,,,,,,,,,,,,,,,,
1703402654.167495,1703402654.168026,115.000000,0.000000,4099.871582,4151.922852,4235.128418,4216.025879,4156.282227,4153.974121,4206.538574,4149.230957,4137.179688,4101.666504,4429.230957,4377.436035,4260.512695,4391.282227,6145.000000,4.000000,91.000000,,,,0.000000,4.000000,4.000000,4.000000,4.000000,4.000000,4.000000,4.000000,4.000000,4.000000,4.000000,4.000000,4.000000,4.000000,4.000000,100.000000,,,,,,,,,,,,,,,,,,,,,,,,,,,,
1703402654.175303,1703402654.175734,116.000000,0.000000,4099.615234,4151.666504,4237.563965,4219.487305,4153.974121,4155.897461,4207.563965,4150.384766,4141.282227,4099.615234,4432.948730,4381.025879,4262.563965,4401.282227,6608.000000,4.000000,91.000000,,,,0.000000,4.000000,4.000000,4.000000,4.000000,4.000000,4.000000,4.000000,4.000000,4.000000,4.000000,4.000000,4.000000,4.000000,4.000000,100.000000,,,,,,,,,,,,,,,,,29.000000,0.000000,0.684234,-0.048523,-0.702087,0.191162,0.941521,-0.333537,0.012209,-29.776003,-5.524949,75.610428
1703402654.183111,1703402654.183542,117.000000,0.000000,4103.205078,4152.179688,4243.974121,4217.563965,4155.769043,4152.948730,4209.615234,4160.384766,4154.871582,4111.153809,4445.769043,4388.974121,4275.641113,4414.230957,6335.000000,4.000000,91.000000,,,,0.000000,4.000000,4.000000,4.000000,4.000000,4.000000,4.000000,4.000000,4.000000,4.000000,4.000000,4.000000,4.000000,4.000000,4.000000,100.000000,,,,,,,,,,,,,,,,,,,,,,,,,,,,
1703402654.190920,1703402654.191250,118.000000,0.000000,4106.666504,4155.384766,4246.282227,4217.307617,4155.256348,4151.538574,4205.641113,4167.692383,4161.282227,4122.820313,4448.589844,4396.922852,4282.436035,4412.179688,5806.000000,4.000000,91.000000,,,,0.000000,4.000000,4.000000,4.000000,4.000000,4.000000,4.000000,4.000000,4.000000,4.000000,4.000000,4.000000,4.000000,4.000000,4.000000,100.000000,,,,,,,,,,,,,,,,,,,,,,,,,,,,
1703402654.198727,1703402654.199058,119.000000,0.000000,4116.282227,4167.307617,4248.333496,4233.333496,4159.358887,4155.384766,4205.256348,4171.153809,4167.307617,4126.025879,4457.692383,4406.153809,4291.153809,4417.563965,6145.000000,4.000000,91.000000,,,,0.000000,4.000000,4.000000,4.000000,4.000000,4.000000,4.000000,4.000000,4.000000,4.000000,4.000000,4.000000,4.000000,4.000000,4.000000,100.000000,,,,,,,,,,,,,,,,,,,,,,,,,,,,
1703402654.206535,1703402654.206766,120.000000,0.000000,4124.487305,4176.538574,4250.128418,4238.077148,4167.820313,4157.051270,4212.179688,4172.307617,4172.563965,4128.205078,4467.436035,4407.820313,4300.897461,4429.102539,6608.000000,4.000000,91.000000,,,,0.000000,4.000000,4.000000,4.000000,4.000000,4.000000,4.000000,4.000000,4.000000,4.000000,4.000000,4.000000,4.000000,4.000000,4.000000,100.000000,,,,,,,,,,,,,,,,,30.000000,0.000000,0.684336,-0.048523,-0.702087,0.190796,0.930778,-0.337932,0.009767,-29.815069,-5.555788,75.582718
1703402654.214344,1703402654.214574,121.000000,0.000000,4116.025879,4169.358887,4241.282227,4220.769043,4171.410156,4156.410156,4210.512695,4170.128418,4167.563965,4126.538574,4453.974121,4396.025879,4294.358887,4417.563965,6335.000000,4.000000,91.000000,,,,0.000000,4.000000,4.000000,4.000000,4.000000,4.000000,4.000000,4.000000,4.000000,4.000000,4.000000,4.000000,4.000000,4.000000,4.000000,100.000000,,,,,,,,,,,,,,,,,,,,,,,,,,,,
1703402654.222152,1703402654.222282,122.000000,0.000000,4102.051270,4160.769043,4231.922852,4214.358887,4164.487305,4155.000000,4203.461426,4167.948730,4161.666504,4126.025879,4441.410156,4390.897461,4281.666504,4401.282227,5806.000000,4.000000,91.000000,,,,0.000000,4.000000,4.000000,4.000000,4.000000,4.000000,4.000000,4.000000,4.000000,4.000000,4.000000,4.000000,4.000000,4.000000,4.000000,100.000000,,,,,,,,,,,,,,,,,,,,,,,,,,,,
1703402654.229960,1703402654.230190,123.000000,0.000000,4098.077148,4164.615234,4233.717773,4222.563965,4154.615234,4152.436035,4203.205078,4162.820313,4158.205078,4122.051270,4442.179688,4393.589844,4278.589844,4401.153809,6145.000000,4.000000,91.000000,,,,0.000000,4.000000,4.000000,4.000000,4.000000,4.000000,4.000000,4.000000,4.000000,4.000000,4.000000,4.000000,4.000000,4.000000,4.000000,100.000000,,,,,,,,,,,,,,,,,,,,,,,,,,,,
1703402654.237768,1703402654.237998,124.000000,0.000000,4099.487305,4163.333496,4238.461426,4217.948730,4157.948730,4153.205078,4206.666504,4158.461426,4153.461426,4109.102539,4433.717773,4385.641113,4276.666504,4399.230957,6608.000000,4.000000,91.000000,,,,0.000000,4.000000,4.000000,4.000000,4.000000,4.000000,4.000000,4.000000,4.000000,4.000000,4.000000,4.000000,4.000000,4.000000,4.000000,100.000000,,,,,,,,,,,,,,,,,31.000000,0.000000,0.684333,-0.048645,-0.702148,0.190552,0.937614,-0.335490,0.012209,-29.783562,-5.516875,75.491112
