title:رشيد انذار, start timestamp:1703406482.827301, stop timestamp:1703406493.641451, headset type:EPOCX, headset serial:E50206EF, headset firmware:720, channels:67, sampling rate:eeg_128;mot_32, samples:1386      , version:2.2, 
Timestamp,OriginalTimestamp,EEG.Counter,EEG.Interpolated,EEG.AF3,EEG.F7,EEG.F3,EEG.FC5,EEG.T7,EEG.P7,EEG.O1,EEG.O2,EEG.P8,EEG.T8,EEG.FC6,EEG.F4,EEG.F8,EEG.AF4,EEG.RawCq,EEG.Battery,EEG.BatteryPercent,MarkerIndex,MarkerType,MarkerValueInt,EEG.MarkerHardware,CQ.AF3,CQ.F7,CQ.F3,CQ.FC5,CQ.T7,CQ.P7,CQ.O1,CQ.O2,CQ.P8,CQ.T8,CQ.FC6,CQ.F4,CQ.F8,CQ.AF4,CQ.Overall,EQ.SampleRateQuality,EQ.OVERALL,EQ.AF3,EQ.F7,EQ.F3,EQ.FC5,EQ.T7,EQ.P7,EQ.O1,EQ.O2,EQ.P8,EQ.T8,EQ.FC6,EQ.F4,EQ.F8,EQ.AF4,MOT.CounterMems,MOT.InterpolatedMems,MOT.Q0,MOT.Q1,MOT.Q2,MOT.Q3,MOT.AccX,MOT.AccY,MOT.AccZ,MOT.MagX,MOT.MagY,MOT.MagZ
1703406482.827301,1703406482.827909,80.000000,0.000000,4202.051270,4165.512695,4273.846191,4235.641113,4164.871582,4167.179688,4137.820313,4153.717773,4143.974121,4149.102539,4613.461426,4450.769043,4389.615234,4521.666504,6536.000000,4.000000,79.000000,,,,0.000000,4.000000,4.000000,4.000000,4.000000,4.000000,4.000000,4.000000,4.000000,4.000000,4.000000,4.000000,4.000000,4.000000,4.000000,100.000000,,,,,,,,,,,,,,,,,20.000000,0.000000,0.618168,0.257385,-0.631653,0.390686,0.980100,-0.194848,0.065926,-12.790464,-43.756557,64.448013
1703406482.835109,1703406482.835617,81.000000,0.000000,4197.692383,4163.077148,4269.743652,4233.205078,4159.615234,4167.307617,4137.179688,4152.948730,4137.692383,4137.820313,4602.692383,4442.820313,4376.025879,4515.256348,7022.000000,4.000000,79.000000,,,,0.000000,4.000000,4.000000,4.000000,4.000000,4.000000,4.000000,4.000000,4.000000,4.000000,4.000000,4.000000,4.000000,4.000000,4.000000,100.000000,,,,,,,,,,,,,,,,,,,,,,,,,,,,
1703406482.842917,1703406482.843425,82.000000,0.000000,4191.153809,4164.102539,4270.512695,4235.128418,4156.153809,4168.974121,4137.307617,4145.769043,4137.563965,4138.846191,4600.128418,4443.974121,4377.948730,4511.922852,5851.000000,4.000000,79.000000,,,,0.000000,4.000000,4.000000,4.000000,4.000000,4.000000,4.000000,4.000000,4.000000,4.000000,4.000000,4.000000,4.000000,4.000000,4.000000,100.000000,,,,,,,,,,,,,,,,,,,,,,,,,,,,
1703406482.850725,1703406482.851133,83.000000,0.000000,4187.436035,4160.384766,4271.794922,4235.256348,4158.974121,4167.179688,4138.461426,4138.589844,4135.641113,4132.948730,4600.769043,4443.461426,4375.641113,4507.307617,6138.000000,4.000000,79.000000,,,,0.000000,4.000000,4.000000,4.000000,4.000000,4.000000,4.000000,4.000000,4.000000,4.000000,4.000000,4.000000,4.000000,4.000000,4.000000,100.000000,,,,,,,,,,,,,,,,,,,,,,,,,,,,
1703406482.858534,1703406482.858941,84.000000,0.000000,4179.487305,4148.077148,4266.282227,4228.717773,4157.179688,4160.000000,4140.128418,4137.179688,4132.436035,4121.025879,4586.666504,4432.179688,4355.000000,4494.102539,6536.000000,4.000000,79.000000,,,,0.000000,4.000000,4.000000,4.000000,4.000000,4.000000,4.000000,4.000000,4.000000,4.000000,4.000000,4.000000,4.000000,4.000000,4.000000,100.000000,,,,,,,,,,,,,,,,,21.000000,0.000000,0.618421,0.257263,-0.631531,0.390564,0.984984,-0.189476,0.073739,-13.028085,-43.730900,64.453209
1703406482.866341,1703406482.866649,85.000000,0.000000,4178.461426,4148.333496,4265.000000,4229.487305,4154.230957,4161.025879,4142.563965,4140.128418,4135.128418,4133.717773,4587.948730,4431.153809,4362.820313,4499.358887,7022.000000,4.000000,79.000000,,,,0.000000,4.000000,4.000000,4.000000,4.000000,4.000000,4.000000,4.000000,4.000000,4.000000,4.000000,4.000000,4.000000,4.000000,4.000000,100.000000,,,,,,,,,,,,,,,,,,,,,,,,,,,,
1703406482.874149,1703406482.874457,86.000000,0.000000,4197.820313,4165.000000,4275.641113,4240.256348,4158.846191,4167.948730,4142.179688,4148.717773,4146.538574,4157.179688,4623.717773,4450.512695,4410.384766,4528.333496,5851.000000,4.000000,79.000000,,,,0.000000,4.000000,4.000000,4.000000,4.000000,4.000000,4.000000,4.000000,4.000000,4.000000,4.000000,4.000000,4.000000,4.000000,4.000000,100.000000,,,,,,,,,,,,,,,,,,,,,,,,,,,,
1703406482.881958,1703406482.882165,87.000000,0.000000,4212.563965,4168.205078,4283.717773,4241.153809,4159.102539,4172.692383,4140.897461,4156.538574,4157.179688,4164.102539,4645.256348,4468.461426,4436.922852,4543.077148,6138.000000,4.000000,79.000000,,,,0.000000,4.000000,4.000000,4.000000,4.000000,4.000000,4.000000,4.000000,4.000000,4.000000,4.000000,4.000000,4.000000,4.000000,4.000000,100.000000,,,,,,,,,,,,,,,,,,,,,,,,,,,,
1703406482.889766,1703406482.889973,88.000000,0.000000,4206.410156,4155.769043,4283.077148,4233.974121,4154.615234,4173.846191,4140.128418,4159.871582,4157.307617,4165.641113,4639.102539,4469.615234,4430.256348,4537.179688,6536.000000,4.000000,79.000000,,,,0.000000,4.000000,4.000000,4.000000,4.000000,4.000000,4.000000,4.000000,4.000000,4.000000,4.000000,4.000000,4.000000,4.000000,4.000000,100.000000,,,,,,,,,,,,,,,,,22.000000,0.000000,0.618349,0.257263,-0.631714,0.390381,0.981565,-0.182639,0.071298,-13.025276,-43.791145,64.457893
1703406482.897574,1703406482.897681,89.000000,0.000000,4201.410156,4150.000000,4281.794922,4232.948730,4155.128418,4172.563965,4140.000000,4164.743652,4153.846191,4170.000000,4638.205078,4464.743652,4432.179688,4537.307617,7022.000000,4.000000,79.000000,,,,0.000000,4.000000,4.000000,4.000000,4.000000,4.000000,4.000000,4.000000,4.000000,4.000000,4.000000,4.000000,4.000000,4.000000,4.000000,100.000000,,,,,,,,,,,,,,,,,,,,,,,,,,,,
1703406482.905382,1703406482.905489,90.000000,0.000000,4204.487305,4156.282227,4280.641113,4237.307617,4158.974121,4176.666504,4145.256348,4170.384766,4156.794922,4170.256348,4640.256348,4463.717773,4434.871582,4540.769043,5851.000000,4.000000,79.000000,,,,0.000000,4.000000,4.000000,4.000000,4.000000,4.000000,4.000000,4.000000,4.000000,4.000000,4.000000,4.000000,4.000000,4.000000,4.000000,100.000000,,,,,,,,,,,,,,,,,,,,,,,,,,,,
1703406482.913190,1703406482.913197,91.000000,0.000000,4203.974121,4160.512695,4278.846191,4241.538574,4159.102539,4182.051270,4145.769043,4171.282227,4158.589844,4165.641113,4632.307617,4464.358887,4426.794922,4534.615234,6138.000000,4.000000,79.000000,,,,0.000000,4.000000,4.000000,4.000000,4.000000,4.000000,4.000000,4.000000,4.000000,4.000000,4.000000,4.000000,4.000000,4.000000,4.000000,100.000000,,,,,,,,,,,,,,,,,,,,,,,,,,,,
1703406482.920998,1703406482.921105,92.000000,0.000000,4198.717773,4155.384766,4277.307617,4239.615234,4154.743652,4180.128418,4142.692383,4164.487305,4150.128418,4157.563965,4622.692383,4460.128418,4420.897461,4526.025879,6536.000000,4.000000,79.000000,,,,0.000000,4.000000,4.000000,4.000000,4.000000,4.000000,4.000000,4.000000,4.000000,4.000000,4.000000,4.000000,4.000000,4.000000,4.000000,100.000000,,,,,,,,,,,,,,,,,23.000000,0.000000,0.618322,0.257385,-0.631653,0.390442,0.948846,-0.184105,0.063484,-13.139415,-43.828697,64.445435
1703406482.928806,1703406482.928913,93.000000,0.000000,4191.153809,4147.051270,4274.743652,4232.179688,4150.769043,4177.179688,4146.025879,4154.743652,4142.051270,4149.102539,4616.025879,4452.692383,4415.897461,4521.025879,7022.000000,4.000000,79.000000,,,,0.000000,4.000000,4.000000,4.000000,4.000000,4.000000,4.000000,4.000000,4.000000,4.000000,4.000000,4.000000,4.000000,4.000000,4.000000,100.000000,,,,,,,,,,,,,,,,,,,,,,,,,,,,
1703406482.936614,1703406482.936821,94.000000,0.000000,4184.230957,4142.307617,4270.769043,4231.538574,4152.307617,4183.333496,4146.410156,4150.641113,4139.871582,4142.563965,4611.153809,4447.436035,4409.358887,4519.102539,5851.000000,4.000000,79.000000,,,,0.000000,4.000000,4.000000,4.000000,4.000000,4.000000,4.000000,4.000000,4.000000,4.000000,4.000000,4.000000,4.000000,4.000000,4.000000,100.000000,,,,,,,,,,,,,,,,,,,,,,,,,,,,
1703406482.944422,1703406482.944629,95.000000,0.000000,4184.102539,4141.794922,4269.230957,4233.589844,4154.743652,4186.538574,4137.948730,4151.794922,4138.717773,4139.615234,4609.230957,4443.333496,4409.487305,4518.205078,6138.000000,4.000000,79.000000,,,,0.000000,4.000000,4.000000,4.000000,4.000000,4.000000,4.000000,4.000000,4.000000,4.000000,4.000000,4.000000,4.000000,4.000000,4.000000,100.000000,,,,,,,,,,,,,,,,,,,,,,,,,,,,
1703406482.952230,1703406482.952537,96.000000,0.000000,4189.358887,4142.563965,4270.512695,4232.692383,4153.846191,4178.974121,4134.743652,4151.666504,4138.717773,4145.384766,4611.666504,4445.384766,4412.820313,4519.487305,6536.000000,4.000000,79.000000,,,,0.000000,4.000000,4.000000,4.000000,4.000000,4.000000,4.000000,4.000000,4.000000,4.000000,4.000000,4.000000,4.000000,4.000000,4.000000,100.000000,,,,,,,,,,,,,,,,,24.000000,0.000000,0.618497,0.257507,-0.631470,0.390381,0.962031,-0.188988,0.071786,-13.092140,-43.879158,64.367561
1703406482.960038,1703406482.960345,97.000000,0.000000,4191.922852,4148.461426,4272.692383,4238.717773,4152.948730,4175.897461,4140.256348,4153.974121,4146.538574,4150.512695,4615.256348,4454.487305,4410.512695,4522.051270,7022.000000,4.000000,79.000000,,,,0.000000,4.000000,4.000000,4.000000,4.000000,4.000000,4.000000,4.000000,4.000000,4.000000,4.000000,4.000000,4.000000,4.000000,4.000000,100.000000,,,,,,,,,,,,,,,,,,,,,,,,,,,,
1703406482.967846,1703406482.968252,98.000000,0.000000,4190.384766,4152.692383,4274.487305,4241.666504,4152.948730,4180.512695,4140.128418,4156.794922,4151.153809,4152.307617,4616.538574,4458.077148,4411.282227,4521.922852,5851.000000,4.000000,79.000000,,,,0.000000,4.000000,4.000000,4.000000,4.000000,4.000000,4.000000,4.000000,4.000000,4.000000,4.000000,4.000000,4.000000,4.000000,4.000000,100.000000,,,,,,,,,,,,,,,,,,,,,,,,,,,,
1703406482.975654,1703406482.976060,99.000000,0.000000,4186.538574,4144.743652,4273.205078,4233.717773,4153.205078,4185.897461,4136.794922,4154.487305,4145.384766,4153.205078,4614.102539,4450.641113,4411.025879,4520.384766,6138.000000,4.000000,79.000000,,,,0.000000,4.000000,4.000000,4.000000,4.000000,4.000000,4.000000,4.000000,4.000000,4.000000,4.000000,4.000000,4.000000,4.000000,4.000000,100.000000,,,,,,,,,,,,,,,,,,,,,,,,,,,,
1703406482.983462,1703406482.983968,100.000000,0.000000,4184.230957,4139.102539,4270.769043,4232.307617,4152.179688,4185.641113,4141.794922,4154.102539,4144.615234,4150.384766,4614.358887,4447.179688,4406.922852,4518.461426,6536.000000,4.000000,79.000000,,,,0.000000,4.000000,4.000000,4.000000,4.000000,4.000000,4.000000,4.000000,4.000000,4.000000,4.000000,4.000000,4.000000,4.000000,4.000000,100.000000,,,,,,,,,,,,,,,,,25.000000,0.000000,0.618521,0.257507,-0.631409,0.390442,0.972287,-0.195336,0.074716,-13.016259,-43.907909,64.364136
1703406482.991270,1703406482.991776,101.000000,0.000000,4184.487305,4144.102539,4269.230957,4234.487305,4150.897461,4183.461426,4148.077148,4156.538574,4152.563965,4152.692383,4616.410156,4450.128418,4406.153809,4514.230957,7022.000000,4.000000,79.000000,,,,0.000000,4.000000,4.000000,4.000000,4.000000,4.000000,4.000000,4.000000,4.000000,4.000000,4.000000,4.000000,4.000000,4.000000,4.000000,100.000000,,,,,,,,,,,,,,,,,,,,,,,,,,,,
1703406482.999078,1703406482.999484,102.000000,0.000000,4186.025879,4144.358887,4267.948730,4229.871582,4151.794922,4183.077148,4144.358887,4157.307617,4154.230957,4156.794922,4613.974121,4447.051270,4403.846191,4512.307617,5851.000000,4.000000,79.000000,,,,0.000000,4.000000,4.000000,4.000000,4.000000,4.000000,4.000000,4.000000,4.000000,4.000000,4.000000,4.000000,4.000000,4.000000,4.000000,100.000000,,,,,,,,,,,,,,,,,,,,,,,,,,,,
1703406483.006886,1703406483.007292,103.000000,0.000000,4186.794922,4140.256348,4267.051270,4231.410156,4153.461426,4184.102539,4137.820313,4156.538574,4146.922852,4150.897461,4612.563965,4445.256348,4400.897461,4513.333496,6138.000000,4.000000,79.000000,,,,0.000000,4.000000,4.000000,4.000000,4.000000,4.000000,4.000000,4.000000,4.000000,4.000000,4.000000,4.000000,4.000000,4.000000,4.000000,100.000000,,,,,,,,,,,,,,,,,,,,,,,,,,,,
1703406483.014694,1703406483.015000,104.000000,0.000000,4180.641113,4136.922852,4264.615234,4231.666504,4154.743652,4181.153809,4137.563965,4153.333496,4142.692383,4143.461426,4612.307617,4443.589844,4398.205078,4509.230957,6536.000000,4.000000,79.000000,,,,0.000000,4.000000,4.000000,4.000000,4.000000,4.000000,4.000000,4.000000,4.000000,4.000000,4.000000,4.000000,4.000000,4.000000,4.000000,100.000000,,,,,,,,,,,,,,,,,26.000000,0.000000,0.618485,0.257629,-0.631470,0.390320,0.990355,-0.176779,0.063973,-12.997967,-44.017120,64.394386
1703406483.022503,1703406483.022808,105.000000,0.000000,4169.871582,4129.743652,4259.230957,4221.025879,4152.563965,4174.615234,4135.256348,4149.743652,4139.102539,4140.000000,4603.846191,4434.102539,4390.641113,4502.563965,7022.000000,4.000000,79.000000,,,,0.000000,4.000000,4.000000,4.000000,4.000000,4.000000,4.000000,4.000000,4.000000,4.000000,4.000000,4.000000,4.000000,4.000000,4.000000,100.000000,,,,,,,,,,,,,,,,,,,,,,,,,,,,
1703406483.030311,1703406483.030516,106.000000,0.000000,4167.948730,4126.666504,4258.205078,4219.615234,4146.538574,4171.794922,4130.641113,4151.410156,4136.922852,4140.512695,4598.717773,4431.794922,4386.538574,4503.589844,5851.000000,4.000000,79.000000,,,,0.000000,4.000000,4.000000,4.000000,4.000000,4.000000,4.000000,4.000000,4.000000,4.000000,4.000000,4.000000,4.000000,4.000000,4.000000,100.000000,,,,,,,,,,,,,,,,,,,,,,,,,,,,
1703406483.038118,1703406483.038425,107.000000,0.000000,4177.563965,4133.717773,4266.922852,4229.102539,4141.538574,4172.051270,4128.846191,4156.794922,4146.153809,4149.102539,4611.153809,4444.487305,4393.974121,4507.948730,6138.000000,4.000000,79.000000,,,,0.000000,4.000000,4.000000,4.000000,4.000000,4.000000,4.000000,4.000000,4.000000,4.000000,4.000000,4.000000,4.000000,4.000000,4.000000,100.000000,,,,,,,,,,,,,,,,,,,,,,,,,,,,
1703406483.045927,1703406483.046233,108.000000,0.000000,4184.358887,4138.974121,4276.025879,4231.282227,4141.025879,4178.333496,4124.487305,4158.974121,4153.846191,4156.153809,4622.692383,4457.179688,4399.615234,4511.282227,6536.000000,4.000000,79.000000,,,,0.000000,4.000000,4.000000,4.000000,4.000000,4.000000,4.000000,4.000000,4.000000,4.000000,4.000000,4.000000,4.000000,4.000000,4.000000,100.000000,,,,,,,,,,,,,,,,,27.000000,0.000000,0.618773,0.257813,-0.631226,0.390137,0.980588,-0.179221,0.067879,-12.981503,-43.982075,64.471619
1703406483.053735,1703406483.054141,109.000000,0.000000,4185.897461,4137.436035,4280.256348,4230.512695,4146.153809,4182.563965,4120.384766,4159.358887,4153.974121,4158.205078,4624.487305,4462.051270,4401.666504,4516.794922,7022.000000,4.000000,79.000000,,,,0.000000,4.000000,4.000000,4.000000,4.000000,4.000000,4.000000,4.000000,4.000000,4.000000,4.000000,4.000000,4.000000,4.000000,4.000000,100.000000,,,,,,,,,,,,,,,,,,,,,,,,,,,,
1703406483.061543,1703406483.061949,110.000000,0.000000,4189.743652,4139.230957,4284.102539,4233.846191,4151.153809,4174.615234,4121.922852,4158.717773,4152.179688,4158.333496,4626.538574,4462.436035,4404.230957,4523.461426,5851.000000,4.000000,79.000000,,,,0.000000,4.000000,4.000000,4.000000,4.000000,4.000000,4.000000,4.000000,4.000000,4.000000,4.000000,4.000000,4.000000,4.000000,4.000000,100.000000,,,,,,,,,,,,,,,,,,,,,,,,,,,,
1703406483.069351,1703406483.069857,111.000000,0.000000,4190.769043,4141.794922,4286.153809,4232.563965,4152.307617,4169.102539,4120.897461,4156.538574,4147.307617,4155.000000,4626.922852,4461.538574,4401.282227,4522.692383,6138.000000,4.000000,79.000000,,,,0.000000,4.000000,4.000000,4.000000,4.000000,4.000000,4.000000,4.000000,4.000000,4.000000,4.000000,4.000000,4.000000,4.000000,4.000000,100.000000,,,,,,,,,,,,,,,,,,,,,,,,,,,,
1703406483.077159,1703406483.077665,112.000000,0.000000,4187.692383,4137.436035,4281.410156,4230.897461,4154.230957,4174.871582,4118.077148,4156.410156,4145.256348,4156.282227,4622.563965,4462.051270,4397.307617,4513.717773,6536.000000,4.000000,79.000000,,,,0.000000,4.000000,4.000000,4.000000,4.000000,4.000000,4.000000,4.000000,4.000000,4.000000,4.000000,4.000000,4.000000,4.000000,4.000000,100.000000,,,,,,,,,,,,,,,,,28.000000,0.000000,0.618900,0.257935,-0.631165,0.389954,0.973263,-0.176779,0.062019,-13.033353,-44.017200,64.674454
1703406483.084967,1703406483.085473,113.000000,0.000000,4182.563965,4130.384766,4274.871582,4229.615234,4150.641113,4175.769043,4121.025879,4157.692383,4148.461426,4154.102539,4617.948730,4456.538574,4392.820313,4507.179688,7022.000000,4.000000,79.000000,,,,0.000000,4.000000,4.000000,4.000000,4.000000,4.000000,4.000000,4.000000,4.000000,4.000000,4.000000,4.000000,4.000000,4.000000,4.000000,100.000000,,,,,,,,,,,,,,,,,,,,,,,,,,,,
1703406483.092775,1703406483.093181,114.000000,0.000000,4176.922852,4126.410156,4272.307617,4223.333496,4140.256348,4168.846191,4121.025879,4159.358887,4146.025879,4140.256348,4611.794922,4445.000000,4381.666504,4502.692383,5851.000000,4.000000,79.000000,,,,0.000000,4.000000,4.000000,4.000000,4.000000,4.000000,4.000000,4.000000,4.000000,4.000000,4.000000,4.000000,4.000000,4.000000,4.000000,100.000000,,,,,,,,,,,,,,,,,,,,,,,,,,,,
1703406483.100583,1703406483.101089,115.000000,0.000000,4172.436035,4127.820313,4269.743652,4219.487305,4139.743652,4172.563965,4117.051270,4164.230957,4142.436035,4141.153809,4607.563965,4442.307617,4377.563965,4498.974121,6138.000000,4.000000,79.000000,,,,0.000000,4.000000,4.000000,4.000000,4.000000,4.000000,4.000000,4.000000,4.000000,4.000000,4.000000,4.000000,4.000000,4.000000,4.000000,100.000000,,,,,,,,,,,,,,,,,,,,,,,,,,,,
1703406483.108391,1703406483.108897,116.000000,0.000000,4171.922852,4126.025879,4266.025879,4220.897461,4145.641113,4177.436035,4116.410156,4169.102539,4149.743652,4152.948730,4609.230957,4445.128418,4383.717773,4496.025879,6536.000000,4.000000,79.000000,,,,0.000000,4.000000,4.000000,4.000000,4.000000,4.000000,4.000000,4.000000,4.000000,4.000000,4.000000,4.000000,4.000000,4.000000,4.000000,100.000000,,,,,,,,,,,,,,,,,29.000000,0.000000,0.619003,0.258057,-0.631165,0.389709,0.965450,-0.172384,0.059089,-13.030018,-43.965481,64.707008
1703406483.116199,1703406483.116805,117.000000,0.000000,4176.025879,4122.563965,4266.025879,4220.128418,4139.615234,4176.025879,4114.615234,4170.769043,4157.179688,4155.256348,4612.820313,4446.153809,4386.282227,4493.974121,7022.000000,4.000000,79.000000,,,,0.000000,4.000000,4.000000,4.000000,4.000000,4.000000,4.000000,4.000000,4.000000,4.000000,4.000000,4.000000,4.000000,4.000000,4.000000,100.000000,,,,,,,,,,,,,,,,,,,,,,,,,,,,
1703406483.124007,1703406483.124613,118.000000,0.000000,4182.179688,4129.487305,4267.948730,4217.820313,4137.179688,4179.230957,4108.589844,4168.077148,4155.512695,4159.871582,4616.538574,4446.666504,4390.384766,4498.205078,5851.000000,4.000000,79.000000,,,,0.000000,4.000000,4.000000,4.000000,4.000000,4.000000,4.000000,4.000000,4.000000,4.000000,4.000000,4.000000,4.000000,4.000000,4.000000,100.000000,,,,,,,,,,,,,,,,,,,,,,,,,,,,
1703406483.131815,1703406483.132520,119.000000,0.000000,4184.615234,4138.461426,4268.333496,4222.820313,4147.563965,4179.743652,4102.563965,4164.487305,4151.922852,4162.307617,4616.666504,4446.538574,4395.256348,4505.897461,6138.000000,4.000000,79.000000,,,,0.000000,4.000000,4.000000,4.000000,4.000000,4.000000,4.000000,4.000000,4.000000,4.000000,4.000000,4.000000,4.000000,4.000000,4.000000,100.000000,,,,,,,,,,,,,,,,,,,,,,,,,,,,
1703406483.139623,1703406483.140328,120.000000,0.000000,4186.025879,4138.589844,4269.615234,4230.769043,4151.538574,4175.384766,4100.256348,4161.282227,4150.384766,4153.589844,4615.256348,4447.948730,4395.769043,4507.692383,6536.000000,4.000000,79.000000,,,,0.000000,4.000000,4.000000,4.000000,4.000000,4.000000,4.000000,4.000000,4.000000,4.000000,4.000000,4.000000,4.000000,4.000000,4.000000,100.000000,,,,,,,,,,,,,,,,,30.000000,0.000000,0.618891,0.258118,-0.631287,0.389648,0.953730,-0.171896,0.062508,-13.143682,-44.068932,64.702972
1703406483.147431,1703406483.148236,121.000000,0.000000,4189.230957,4136.282227,4272.948730,4232.563965,4149.743652,4177.051270,4099.358887,4159.102539,4149.743652,4156.794922,4617.051270,4451.410156,4396.410156,4505.769043,7022.000000,4.000000,79.000000,,,,0.000000,4.000000,4.000000,4.000000,4.000000,4.000000,4.000000,4.000000,4.000000,4.000000,4.000000,4.000000,4.000000,4.000000,4.000000,100.000000,,,,,,,,,,,,,,,,,,,,,,,,,,,,
1703406483.155239,1703406483.156044,122.000000,0.000000,4188.333496,4136.922852,4272.692383,4228.205078,4151.282227,4176.282227,4096.538574,4154.358887,4144.871582,4163.717773,4616.922852,4448.205078,4393.717773,4506.794922,5851.000000,4.000000,79.000000,,,,0.000000,4.000000,4.000000,4.000000,4.000000,4.000000,4.000000,4.000000,4.000000,4.000000,4.000000,4.000000,4.000000,4.000000,4.000000,100.000000,,,,,,,,,,,,,,,,,,,,,,,,,,,,
1703406483.163047,1703406483.163952,123.000000,0.000000,4185.384766,4136.922852,4267.692383,4227.051270,4151.410156,4171.538574,4093.589844,4145.384766,4138.333496,4155.512695,4615.641113,4441.153809,4388.589844,4506.922852,6138.000000,4.000000,79.000000,,,,0.000000,4.000000,4.000000,4.000000,4.000000,4.000000,4.000000,4.000000,4.000000,4.000000,4.000000,4.000000,4.000000,4.000000,4.000000,100.000000,,,,,,,,,,,,,,,,,,,,,,,,,,,,
1703406483.170855,1703406483.171760,124.000000,0.000000,4188.974121,4137.179688,4268.205078,4230.256348,4151.282227,4173.077148,4094.487061,4143.205078,4138.589844,4153.205078,4616.282227,4442.820313,4388.846191,4505.897461,6536.000000,4.000000,79.000000,,,,0.000000,4.000000,4.000000,4.000000,4.000000,4.000000,4.000000,4.000000,4.000000,4.000000,4.000000,4.000000,4.000000,4.000000,4.000000,100.000000,,,,,,,,,,,,,,,,,31.000000,0.000000,0.618765,0.257996,-0.631348,0.389832,0.982542,-0.171896,0.070809,-13.179315,-43.978706,64.682678
1703406483.178663,1703406483.179468,125.000000,0.000000,4197.051270,4138.333496,4271.153809,4231.666504,4154.615234,4176.153809,4095.128174,4150.769043,4144.358887,4153.333496,4617.563965,4447.307617,4390.769043,4507.563965,7022.000000,4.000000,79.000000,,,,0.000000,4.000000,4.000000,4.000000,4.000000,4.000000,4.000000,4.000000,4.000000,4.000000,4.000000,4.000000,4.000000,4.000000,4.000000,100.000000,,,,,,,,,,,,,,,,,,,,,,,,,,,,
1703406483.186472,1703406483.187276,126.000000,0.000000,4198.205078,4134.487305,4266.666504,4228.077148,4152.820313,4177.563965,4095.512939,4159.615234,4150.384766,4145.512695,4617.179688,4446.282227,4386.153809,4504.615234,5851.000000,4.000000,79.000000,,,,0.000000,4.000000,4.000000,4.000000,4.000000,4.000000,4.000000,4.000000,4.000000,4.000000,4.000000,4.000000,4.000000,4.000000,4.000000,100.000000,,,,,,,,,,,,,,,,,,,,,,,,,,,,
1703406483.194280,1703406483.194984,127.000000,0.000000,4189.871582,4129.871582,4260.128418,4219.487305,4145.256348,4180.512695,4098.333496,4165.000000,4151.666504,4146.922852,4612.563965,4445.769043,4380.384766,4497.051270,79.000000,4.000000,79.000000,,,,0.000000,4.000000,4.000000,4.000000,4.000000,4.000000,4.000000,4.000000,4.000000,4.000000,4.000000,4.000000,4.000000,4.000000,4.000000,100.000000,,,,,,,,,,,,,,,,,,,,,,,,,,,,
1703406483.202088,1703406483.202792,0.000000,0.000000,4182.563965,4126.538574,4257.051270,4213.589844,4141.153809,4181.153809,4094.487061,4167.179688,4149.358887,4155.897461,4603.974121,4442.179688,4379.102539,4491.025879,4590.000000,4.000000,79.000000,,,,0.000000,4.000000,4.000000,4.000000,4.000000,4.000000,4.000000,4.000000,4.000000,4.000000,4.000000,4.000000,4.000000,4.000000,4.000000,100.000000,,,,,,,,,,,,,,,,,0.000000,0.000000,0.618601,0.257813,-0.631470,0.390015,0.982053,-0.185081,0.066414,-13.161383,-43.980835,64.747742
1703406483.209896,1703406483.210500,1.000000,0.000000,4184.230957,4125.000000,4258.461426,4216.153809,4144.358887,4177.692383,4089.230713,4167.307617,4151.282227,4155.641113,4601.282227,4435.512695,4380.897461,4489.743652,5220.000000,4.000000,79.000000,,,,0.000000,4.000000,4.000000,4.000000,4.000000,4.000000,4.000000,4.000000,4.000000,4.000000,4.000000,4.000000,4.000000,4.000000,4.000000,100.000000,,,,,,,,,,,,,,,,,,,,,,,,,,,,
1703406483.217704,1703406483.218308,2.000000,0.000000,4192.948730,4130.641113,4263.205078,4218.589844,4149.358887,4177.307617,4091.153809,4168.846191,4154.102539,4154.743652,4607.692383,4437.051270,4381.282227,4490.128418,5282.000000,4.000000,79.000000,,,,0.000000,4.000000,4.000000,4.000000,4.000000,4.000000,4.000000,4.000000,4.000000,4.000000,4.000000,4.000000,4.000000,4.000000,4.000000,100.000000,,,,,,,,,,,,,,,,,,,,,,,,,,,,
1703406483.225512,1703406483.226016,3.000000,0.000000,4198.205078,4137.948730,4267.948730,4217.563965,4151.666504,4180.128418,4093.076904,4169.871582,4153.717773,4162.563965,4611.922852,4446.282227,4380.512695,4491.538574,5288.000000,4.000000,79.000000,,,,0.000000,4.000000,4.000000,4.000000,4.000000,4.000000,4.000000,4.000000,4.000000,4.000000,4.000000,4.000000,4.000000,4.000000,4.000000,100.000000,,,,,,,,,,,,,,,,,,,,,,,,,,,,
1703406483.233320,1703406483.233824,4.000000,0.000000,4199.487305,4138.717773,4268.077148,4222.820313,4151.538574,4179.871582,4090.128174,4159.871582,4153.461426,4168.717773,4614.487305,4447.436035,4386.153809,4497.563965,4996.000000,4.000000,79.000000,,,,0.000000,4.000000,4.000000,4.000000,4.000000,4.000000,4.000000,4.000000,4.000000,4.000000,4.000000,4.000000,4.000000,4.000000,4.000000,100.000000,,,,,,,,,,,,,,,,,1.000000,0.000000,0.618450,0.257690,-0.631592,0.390137,0.982542,-0.192895,0.065438,-13.211911,-44.082752,64.956299
1703406483.241128,1703406483.241532,5.000000,0.000000,4207.948730,4142.692383,4269.743652,4231.922852,4152.820313,4178.077148,4085.897461,4151.025879,4150.128418,4170.128418,4620.769043,4448.205078,4397.563965,4507.948730,2823.000000,4.000000,79.000000,,,,0.000000,4.000000,4.000000,4.000000,4.000000,4.000000,4.000000,4.000000,4.000000,4.000000,4.000000,4.000000,4.000000,4.000000,4.000000,100.000000,,,,,,,,,,,,,,,,,,,,,,,,,,,,
1703406483.248936,1703406483.249340,6.000000,0.000000,4218.974121,4155.128418,4278.974121,4236.025879,4157.307617,4179.487305,4086.410156,4148.717773,4143.974121,4167.692383,4623.717773,4453.717773,4401.025879,4513.717773,3106.000000,4.000000,79.000000,,,,0.000000,4.000000,4.000000,4.000000,4.000000,4.000000,4.000000,4.000000,4.000000,4.000000,4.000000,4.000000,4.000000,4.000000,4.000000,100.000000,,,,,,,,,,,,,,,,,,,,,,,,,,,,
1703406483.256744,1703406483.257048,7.000000,0.000000,4220.128418,4158.205078,4279.487305,4235.641113,4157.436035,4179.871582,4088.846191,4142.820313,4140.769043,4161.282227,4617.051270,4450.641113,4390.512695,4510.128418,5377.000000,4.000000,79.000000,,,,0.000000,4.000000,4.000000,4.000000,4.000000,4.000000,4.000000,4.000000,4.000000,4.000000,4.000000,4.000000,4.000000,4.000000,4.000000,100.000000,,,,,,,,,,,,,,,,,,,,,,,,,,,,
1703406483.264552,1703406483.264856,8.000000,0.000000,4215.769043,4148.077148,4268.974121,4232.563965,4155.128418,4177.563965,4088.461426,4140.641113,4140.641113,4155.512695,4611.282227,4442.436035,4382.563965,4505.256348,4746.000000,4.000000,79.000000,,,,0.000000,4.000000,4.000000,4.000000,4.000000,4.000000,4.000000,4.000000,4.000000,4.000000,4.000000,4.000000,4.000000,4.000000,4.000000,100.000000,,,,,,,,,,,,,,,,,2.000000,0.000000,0.618299,0.257568,-0.631714,0.390259,0.966915,-0.177268,0.059089,-13.124054,-44.091145,64.927338
1703406483.272360,1703406483.272564,9.000000,0.000000,4209.358887,4141.794922,4266.794922,4231.794922,4155.641113,4177.436035,4087.820557,4148.589844,4140.769043,4152.948730,4610.384766,4440.769043,4384.230957,4500.256348,5217.000000,4.000000,79.000000,,,,0.000000,4.000000,4.000000,4.000000,4.000000,4.000000,4.000000,4.000000,4.000000,4.000000,4.000000,4.000000,4.000000,4.000000,4.000000,100.000000,,,,,,,,,,,,,,,,,,,,,,,,,,,,
1703406483.280168,1703406483.280372,10.000000,0.000000,4201.922852,4140.000000,4269.487305,4231.153809,4155.897461,4176.794922,4088.205078,4154.230957,4142.179688,4151.538574,4606.153809,4443.974121,4381.410156,4491.410156,5865.000000,4.000000,79.000000,,,,0.000000,4.000000,4.000000,4.000000,4.000000,4.000000,4.000000,4.000000,4.000000,4.000000,4.000000,4.000000,4.000000,4.000000,4.000000,100.000000,,,,,,,,,,,,,,,,,,,,,,,,,,,,
1703406483.287976,1703406483.288081,11.000000,0.000000,4196.025879,4131.410156,4264.102539,4222.436035,4152.563965,4174.487305,4088.333252,4155.897461,4143.974121,4151.025879,4602.820313,4441.922852,4375.384766,4488.461426,6145.000000,4.000000,79.000000,,,,0.000000,4.000000,4.000000,4.000000,4.000000,4.000000,4.000000,4.000000,4.000000,4.000000,4.000000,4.000000,4.000000,4.000000,4.000000,100.000000,,,,,,,,,,,,,,,,,,,,,,,,,,,,
1703406483.295784,1703406483.295888,12.000000,0.000000,4189.358887,4122.563965,4257.948730,4213.589844,4149.615234,4174.358887,4088.846191,4156.538574,4141.410156,4153.846191,4599.615234,4432.179688,4372.051270,4488.205078,6538.000000,4.000000,79.000000,,,,0.000000,4.000000,4.000000,4.000000,4.000000,4.000000,4.000000,4.000000,4.000000,4.000000,4.000000,4.000000,4.000000,4.000000,4.000000,100.000000,,,,,,,,,,,,,,,,,3.000000,0.000000,0.618299,0.257568,-0.631714,0.390259,0.959101,-0.182639,0.062019,-13.211648,-44.198696,64.717941
1703406483.303592,1703406483.303597,13.000000,0.000000,4189.102539,4128.974121,4260.641113,4219.743652,4151.922852,4171.794922,4088.461426,4153.974121,4142.436035,4153.333496,4598.589844,4428.974121,4371.153809,4486.538574,7022.000000,4.000000,79.000000,,,,0.000000,4.000000,4.000000,4.000000,4.000000,4.000000,4.000000,4.000000,4.000000,4.000000,4.000000,4.000000,4.000000,4.000000,4.000000,100.000000,,,,,,,,,,,,,,,,,,,,,,,,,,,,
1703406483.311400,1703406483.311504,14.000000,0.000000,4201.153809,4145.512695,4267.051270,4231.794922,4154.615234,4172.307617,4088.846191,4161.666504,4151.666504,4154.487305,4608.589844,4444.230957,4378.077148,4496.922852,5865.000000,4.000000,79.000000,,,,0.000000,4.000000,4.000000,4.000000,4.000000,4.000000,4.000000,4.000000,4.000000,4.000000,4.000000,4.000000,4.000000,4.000000,4.000000,100.000000,1.000000,91.666664,4.000000,4.000000,4.000000,4.000000,4.000000,4.000000,4.000000,4.000000,4.000000,3.000000,4.000000,4.000000,4.000000,4.000000,,,,,,,,,,,,
1703406483.319208,1703406483.319312,15.000000,0.000000,4210.512695,4153.589844,4271.794922,4236.025879,4155.128418,4173.846191,4093.589844,4175.000000,4156.794922,4160.512695,4619.487305,4459.615234,4388.974121,4512.051270,6145.000000,4.000000,79.000000,,,,0.000000,4.000000,4.000000,4.000000,4.000000,4.000000,4.000000,4.000000,4.000000,4.000000,4.000000,4.000000,4.000000,4.000000,4.000000,100.000000,,,,,,,,,,,,,,,,,,,,,,,,,,,,
1703406483.327016,1703406483.327120,16.000000,0.000000,4209.230957,4151.025879,4271.666504,4232.179688,4154.871582,4168.974121,4093.718018,4170.128418,4155.128418,4162.179688,4619.230957,4455.769043,4387.948730,4509.871582,0.000000,4.000000,79.000000,,,,0.000000,4.000000,4.000000,4.000000,4.000000,4.000000,4.000000,4.000000,4.000000,4.000000,4.000000,4.000000,4.000000,4.000000,4.000000,100.000000,,,,,,,,,,,,,,,,,4.000000,0.000000,0.618362,0.257568,-0.631653,0.390259,0.975217,-0.187035,0.065438,-13.023817,-44.295494,64.696144
1703406483.334824,1703406483.334828,17.000000,0.000000,4213.717773,4149.358887,4273.974121,4230.769043,4154.487305,4168.077148,4085.769287,4155.897461,4153.205078,4158.974121,4616.025879,4451.794922,4384.615234,4505.641113,0.000000,4.000000,79.000000,,,,0.000000,4.000000,4.000000,4.000000,4.000000,4.000000,4.000000,4.000000,4.000000,4.000000,4.000000,4.000000,4.000000,4.000000,4.000000,100.000000,,,,,,,,,,,,,,,,,,,,,,,,,,,,
1703406483.342632,1703406483.342736,18.000000,0.000000,4227.051270,4158.333496,4283.205078,4240.000000,4154.358887,4171.538574,4083.076904,4152.179688,4147.820313,4155.641113,4620.641113,4458.974121,4392.948730,4517.179688,0.000000,4.000000,79.000000,,,,0.000000,4.000000,4.000000,4.000000,4.000000,4.000000,4.000000,4.000000,4.000000,4.000000,4.000000,4.000000,4.000000,4.000000,4.000000,100.000000,,,,,,,,,,,,,,,,,,,,,,,,,,,,
1703406483.350441,1703406483.350544,19.000000,0.000000,4236.538574,4169.743652,4288.333496,4249.871582,4158.205078,4170.000000,4085.256348,4148.589844,4140.256348,4154.871582,4625.641113,4464.743652,4401.666504,4529.743652,0.000000,4.000000,79.000000,,,,0.000000,4.000000,4.000000,4.000000,4.000000,4.000000,4.000000,4.000000,4.000000,4.000000,4.000000,4.000000,4.000000,4.000000,4.000000,100.000000,,,,,,,,,,,,,,,,,,,,,,,,,,,,
1703406483.358249,1703406483.358452,20.000000,0.000000,4233.846191,4170.128418,4282.051270,4246.538574,4162.820313,4165.512695,4085.128174,4143.461426,4138.589844,4161.538574,4622.051270,4457.948730,4399.102539,4523.974121,0.000000,4.000000,79.000000,,,,0.000000,4.000000,4.000000,4.000000,4.000000,4.000000,4.000000,4.000000,4.000000,4.000000,4.000000,4.000000,4.000000,4.000000,4.000000,100.000000,,,,,,,,,,,,,,,,,5.000000,0.000000,0.618212,0.257629,-0.631775,0.390259,0.969845,-0.185570,0.058113,-13.071435,-44.299278,64.643196
1703406483.366057,1703406483.366260,21.000000,0.000000,4225.128418,4162.820313,4276.282227,4237.436035,4160.256348,4162.436035,4087.307617,4147.820313,4140.384766,4168.077148,4616.922852,4448.974121,4393.077148,4510.512695,0.000000,4.000000,79.000000,,,,0.000000,4.000000,4.000000,4.000000,4.000000,4.000000,4.000000,4.000000,4.000000,4.000000,4.000000,4.000000,4.000000,4.000000,4.000000,100.000000,,,,,,,,,,,,,,,,,,,,,,,,,,,,
1703406483.373865,1703406483.373968,22.000000,0.000000,4221.410156,4159.615234,4274.743652,4235.641113,4154.871582,4164.230957,4092.051270,4152.179688,4140.128418,4161.153809,4617.051270,4447.948730,4389.487305,4506.538574,0.000000,4.000000,79.000000,,,,0.000000,4.000000,4.000000,4.000000,4.000000,4.000000,4.000000,4.000000,4.000000,4.000000,4.000000,4.000000,4.000000,4.000000,4.000000,100.000000,,,,,,,,,,,,,,,,,,,,,,,,,,,,
1703406483.381673,1703406483.381776,23.000000,0.000000,4218.974121,4156.538574,4270.641113,4235.897461,4153.461426,4167.307617,4093.589844,4152.563965,4140.384766,4152.051270,4615.128418,4447.436035,4383.846191,4507.436035,0.000000,4.000000,79.000000,,,,0.000000,4.000000,4.000000,4.000000,4.000000,4.000000,4.000000,4.000000,4.000000,4.000000,4.000000,4.000000,4.000000,4.000000,4.000000,100.000000,,,,,,,,,,,,,,,,,,,,,,,,,,,,
1703406483.389481,1703406483.389484,24.000000,0.000000,4216.153809,4155.000000,4268.077148,4233.717773,4155.256348,4169.871582,4094.871826,4153.205078,4142.436035,4156.410156,4613.077148,4444.358887,4385.000000,4505.641113,0.000000,4.000000,79.000000,,,,0.000000,4.000000,4.000000,4.000000,4.000000,4.000000,4.000000,4.000000,4.000000,4.000000,4.000000,4.000000,4.000000,4.000000,4.000000,100.000000,,,,,,,,,,,,,,,,,6.000000,0.000000,0.618314,0.257568,-0.631775,0.390137,0.969357,-0.196801,0.061531,-13.030958,-44.186016,64.712212
1703406483.397289,1703406483.397292,25.000000,0.000000,4218.717773,4160.256348,4272.051270,4235.000000,4156.282227,4171.922852,4098.846191,4157.563965,4144.743652,4161.922852,4618.589844,4448.077148,4393.846191,4508.205078,0.000000,4.000000,79.000000,,,,0.000000,4.000000,4.000000,4.000000,4.000000,4.000000,4.000000,4.000000,4.000000,4.000000,4.000000,4.000000,4.000000,4.000000,4.000000,100.000000,,,,,,,,,,,,,,,,,,,,,,,,,,,,
1703406483.405097,1703406483.405000,26.000000,0.000000,4222.307617,4159.871582,4275.512695,4235.000000,4155.128418,4169.871582,4102.179688,4162.436035,4146.282227,4161.153809,4620.897461,4459.102539,4395.000000,4514.102539,0.000000,4.000000,79.000000,,,,0.000000,4.000000,4.000000,4.000000,4.000000,4.000000,4.000000,4.000000,4.000000,4.000000,4.000000,4.000000,4.000000,4.000000,4.000000,100.000000,,,,,,,,,,,,,,,,,,,,,,,,,,,,
1703406483.412905,1703406483.412808,27.000000,0.000000,4217.820313,4153.717773,4272.307617,4228.589844,4153.974121,4167.051270,4102.436035,4160.384766,4142.948730,4155.897461,4615.128418,4456.410156,4384.230957,4510.000000,0.000000,4.000000,79.000000,,,,0.000000,4.000000,4.000000,4.000000,4.000000,4.000000,4.000000,4.000000,4.000000,4.000000,4.000000,4.000000,4.000000,4.000000,4.000000,100.000000,,,,,,,,,,,,,,,,,,,,,,,,,,,,
1703406483.420713,1703406483.420516,28.000000,0.000000,4213.333496,4154.230957,4269.230957,4227.051270,4154.615234,4169.743652,4105.000000,4157.051270,4140.641113,4152.051270,4614.358887,4448.205078,4378.077148,4502.563965,0.000000,4.000000,79.000000,,,,0.000000,4.000000,4.000000,4.000000,4.000000,4.000000,4.000000,4.000000,4.000000,4.000000,4.000000,4.000000,4.000000,4.000000,4.000000,100.000000,,,,,,,,,,,,,,,,,7.000000,0.000000,0.618353,0.257568,-0.631775,0.390076,0.981565,-0.184593,0.067879,-12.961196,-44.184082,64.707657
1703406483.428521,1703406483.428324,29.000000,0.000000,4216.282227,4155.384766,4271.025879,4228.717773,4156.025879,4171.410156,4105.897461,4153.205078,4140.641113,4152.820313,4612.563965,4449.743652,4382.692383,4506.410156,0.000000,4.000000,79.000000,,,,0.000000,4.000000,4.000000,4.000000,4.000000,4.000000,4.000000,4.000000,4.000000,4.000000,4.000000,4.000000,4.000000,4.000000,4.000000,100.000000,,,,,,,,,,,,,,,,,,,,,,,,,,,,
1703406483.436329,1703406483.436032,30.000000,0.000000,4212.820313,4150.512695,4270.384766,4221.794922,4156.538574,4166.538574,4099.358887,4142.948730,4132.563965,4145.256348,4602.692383,4448.461426,4379.487305,4506.538574,0.000000,4.000000,79.000000,,,,0.000000,4.000000,4.000000,4.000000,4.000000,4.000000,4.000000,4.000000,4.000000,4.000000,4.000000,4.000000,4.000000,4.000000,4.000000,100.000000,,,,,,,,,,,,,,,,,,,,,,,,,,,,
1703406483.444137,1703406483.443840,31.000000,0.000000,4202.436035,4150.769043,4266.666504,4217.436035,4154.358887,4163.846191,4095.384521,4135.769043,4126.538574,4137.307617,4598.846191,4439.743652,4368.846191,4495.384766,0.000000,4.000000,79.000000,,,,0.000000,4.000000,4.000000,4.000000,4.000000,4.000000,4.000000,4.000000,4.000000,4.000000,4.000000,4.000000,4.000000,4.000000,4.000000,100.000000,,,,,,,,,,,,,,,,,,,,,,,,,,,,
1703406483.451945,1703406483.451548,32.000000,0.000000,4200.897461,4154.743652,4268.333496,4224.615234,4153.461426,4167.436035,4099.230957,4137.948730,4132.820313,4144.358887,4600.641113,4438.205078,4366.282227,4489.871582,0.000000,4.000000,79.000000,,,,0.000000,4.000000,4.000000,4.000000,4.000000,4.000000,4.000000,4.000000,4.000000,4.000000,4.000000,4.000000,4.000000,4.000000,4.000000,100.000000,,,,,,,,,,,,,,,,,8.000000,0.000000,0.618466,0.257446,-0.631714,0.390076,0.966915,-0.168966,0.064461,-13.081743,-44.349007,64.703560
1703406483.459753,1703406483.459356,33.000000,0.000000,4206.153809,4153.333496,4273.461426,4229.871582,4157.948730,4170.128418,4102.051270,4141.922852,4138.589844,4153.333496,4602.948730,4445.256348,4372.820313,4494.487305,0.000000,4.000000,79.000000,,,,0.000000,4.000000,4.000000,4.000000,4.000000,4.000000,4.000000,4.000000,4.000000,4.000000,4.000000,4.000000,4.000000,4.000000,4.000000,100.000000,,,,,,,,,,,,,,,,,,,,,,,,,,,,
1703406483.467561,1703406483.467064,34.000000,0.000000,4206.410156,4152.436035,4268.717773,4224.102539,4157.563965,4169.487305,4101.282227,4146.025879,4135.512695,4152.436035,4606.922852,4440.897461,4374.230957,4495.897461,0.000000,4.000000,79.000000,,,,0.000000,4.000000,4.000000,4.000000,4.000000,4.000000,4.000000,4.000000,4.000000,4.000000,4.000000,4.000000,4.000000,4.000000,4.000000,100.000000,,,,,,,,,,,,,,,,,,,,,,,,,,,,
1703406483.475369,1703406483.474972,35.000000,0.000000,4203.589844,4153.717773,4263.205078,4221.794922,4149.615234,4167.563965,4105.128418,4148.717773,4135.512695,4148.589844,4606.794922,4433.717773,4374.871582,4495.000000,0.000000,4.000000,79.000000,,,,0.000000,4.000000,4.000000,4.000000,4.000000,4.000000,4.000000,4.000000,4.000000,4.000000,4.000000,4.000000,4.000000,4.000000,4.000000,100.000000,,,,,,,,,,,,,,,,,,,,,,,,,,,,
1703406483.483178,1703406483.482780,36.000000,0.000000,4202.948730,4153.717773,4265.897461,4227.820313,4147.307617,4170.769043,4108.333496,4141.666504,4137.820313,4146.282227,4602.820313,4439.358887,4379.743652,4495.769043,0.000000,4.000000,79.000000,,,,0.000000,4.000000,4.000000,4.000000,4.000000,4.000000,4.000000,4.000000,4.000000,4.000000,4.000000,4.000000,4.000000,4.000000,4.000000,100.000000,,,,,,,,,,,,,,,,,9.000000,0.000000,0.618316,0.257507,-0.631836,0.390076,0.958125,-0.188011,0.059578,-13.206902,-44.514107,64.599869
1703406483.490986,1703406483.490688,37.000000,0.000000,4202.948730,4151.794922,4269.102539,4231.282227,4150.897461,4175.897461,4105.000000,4141.153809,4135.769043,4143.589844,4602.692383,4441.410156,4378.974121,4492.948730,0.000000,4.000000,79.000000,,,,0.000000,4.000000,4.000000,4.000000,4.000000,4.000000,4.000000,4.000000,4.000000,4.000000,4.000000,4.000000,4.000000,4.000000,4.000000,100.000000,,,,,,,,,,,,,,,,,,,,,,,,,,,,
1703406483.498793,1703406483.498496,38.000000,0.000000,4202.692383,4151.922852,4268.461426,4228.846191,4154.487305,4174.487305,4103.461426,4152.948730,4137.051270,4141.410156,4604.230957,4434.743652,4378.333496,4492.179688,0.000000,4.000000,79.000000,,,,0.000000,4.000000,4.000000,4.000000,4.000000,4.000000,4.000000,4.000000,4.000000,4.000000,4.000000,4.000000,4.000000,4.000000,4.000000,100.000000,,,,,,,,,,,,,,,,,,,,,,,,,,,,
1703406483.506602,1703406483.506404,39.000000,0.000000,4201.410156,4151.666504,4262.563965,4227.948730,4155.256348,4174.230957,4106.794922,4154.102539,4139.230957,4138.589844,4600.769043,4430.384766,4379.102539,4492.051270,0.000000,4.000000,79.000000,,,,0.000000,4.000000,4.000000,4.000000,4.000000,4.000000,4.000000,4.000000,4.000000,4.000000,4.000000,4.000000,4.000000,4.000000,4.000000,100.000000,,,,,,,,,,,,,,,,,,,,,,,,,,,,
1703406483.514410,1703406483.514212,40.000000,0.000000,4199.743652,4150.897461,4260.256348,4230.641113,4153.077148,4182.179688,4110.000000,4143.846191,4136.922852,4139.102539,4598.846191,4430.000000,4378.077148,4489.487305,0.000000,4.000000,79.000000,,,,0.000000,4.000000,4.000000,4.000000,4.000000,4.000000,4.000000,4.000000,4.000000,4.000000,4.000000,4.000000,4.000000,4.000000,4.000000,100.000000,,,,,,,,,,,,,,,,,10.000000,0.000000,0.618265,0.257629,-0.631836,0.390076,0.981077,-0.186546,0.067391,-13.219545,-44.429363,64.606544
1703406483.522218,1703406483.522120,41.000000,0.000000,4200.384766,4153.333496,4267.436035,4231.025879,4153.461426,4187.692383,4109.358887,4138.717773,4134.615234,4141.282227,4602.051270,4432.820313,4378.846191,4489.743652,0.000000,4.000000,79.000000,,,,0.000000,4.000000,4.000000,4.000000,4.000000,4.000000,4.000000,4.000000,4.000000,4.000000,4.000000,4.000000,4.000000,4.000000,4.000000,100.000000,,,,,,,,,,,,,,,,,,,,,,,,,,,,
1703406483.530026,1703406483.529928,42.000000,0.000000,4206.153809,4156.794922,4273.205078,4230.384766,4158.333496,4186.666504,4108.717773,4140.641113,4135.128418,4143.717773,4605.256348,4440.641113,4382.051270,4491.794922,0.000000,4.000000,79.000000,,,,0.000000,4.000000,4.000000,4.000000,4.000000,4.000000,4.000000,4.000000,4.000000,4.000000,4.000000,4.000000,4.000000,4.000000,4.000000,100.000000,,,,,,,,,,,,,,,,,,,,,,,,,,,,
1703406483.537834,1703406483.537836,43.000000,0.000000,4212.563965,4156.153809,4271.794922,4230.897461,4159.358887,4186.794922,4108.461426,4139.358887,4135.256348,4151.794922,4607.692383,4443.077148,4388.077148,4495.512695,0.000000,4.000000,79.000000,,,,0.000000,4.000000,4.000000,4.000000,4.000000,4.000000,4.000000,4.000000,4.000000,4.000000,4.000000,4.000000,4.000000,4.000000,4.000000,100.000000,,,,,,,,,,,,,,,,,,,,,,,,,,,,
1703406483.545642,1703406483.545644,44.000000,0.000000,4216.538574,4155.641113,4269.871582,4232.563965,4153.461426,4186.922852,4107.820313,4137.948730,4136.282227,4155.641113,4613.205078,4443.333496,4395.000000,4504.102539,0.000000,4.000000,79.000000,,,,0.000000,4.000000,4.000000,4.000000,4.000000,4.000000,4.000000,4.000000,4.000000,4.000000,4.000000,4.000000,4.000000,4.000000,4.000000,100.000000,,,,,,,,,,,,,,,,,11.000000,0.000000,0.618340,0.257690,-0.631775,0.390015,0.946405,-0.190453,0.068368,-13.197591,-44.336426,64.645889
1703406483.553450,1703406483.553551,45.000000,0.000000,4216.153809,4157.820313,4268.717773,4232.307617,4151.410156,4185.256348,4107.436035,4144.230957,4139.743652,4151.410156,4617.179688,4448.461426,4395.641113,4509.102539,0.000000,4.000000,79.000000,,,,0.000000,4.000000,4.000000,4.000000,4.000000,4.000000,4.000000,4.000000,4.000000,4.000000,4.000000,4.000000,4.000000,4.000000,4.000000,100.000000,,,,,,,,,,,,,,,,,,,,,,,,,,,,
1703406483.561258,1703406483.561460,46.000000,0.000000,4210.256348,4156.153809,4266.282227,4228.589844,4152.948730,4184.743652,4110.897461,4150.897461,4140.128418,4151.922852,4607.563965,4446.538574,4386.922852,4501.410156,0.000000,4.000000,79.000000,,,,0.000000,4.000000,4.000000,4.000000,4.000000,4.000000,4.000000,4.000000,4.000000,4.000000,4.000000,4.000000,4.000000,4.000000,4.000000,100.000000,,,,,,,,,,,,,,,,,,,,,,,,,,,,
1703406483.569066,1703406483.569268,47.000000,0.000000,4208.333496,4152.692383,4266.025879,4227.179688,4146.922852,4185.641113,4114.358887,4151.794922,4139.102539,4154.615234,4600.769043,4441.794922,4383.461426,4497.820313,0.000000,4.000000,79.000000,,,,0.000000,4.000000,4.000000,4.000000,4.000000,4.000000,4.000000,4.000000,4.000000,4.000000,4.000000,4.000000,4.000000,4.000000,4.000000,100.000000,,,,,,,,,,,,,,,,,,,,,,,,,,,,
1703406483.576874,1703406483.577076,48.000000,0.000000,4208.461426,4154.230957,4265.256348,4229.230957,4138.205078,4187.179688,4112.307617,4150.769043,4142.051270,4152.820313,4608.717773,4444.615234,4386.922852,4503.717773,0.000000,4.000000,79.000000,,,,0.000000,4.000000,4.000000,4.000000,4.000000,4.000000,4.000000,4.000000,4.000000,4.000000,4.000000,4.000000,4.000000,4.000000,4.000000,100.000000,,,,,,,,,,,,,,,,,12.000000,0.000000,0.618476,0.257813,-0.631592,0.390015,0.981565,-0.184593,0.071298,-13.361165,-44.252781,64.631302
1703406483.584682,1703406483.584784,49.000000,0.000000,4206.922852,4156.666504,4265.641113,4231.153809,4137.948730,4187.051270,4114.358887,4152.820313,4144.615234,4153.589844,4614.230957,4446.794922,4387.563965,4506.153809,0.000000,4.000000,79.000000,,,,0.000000,4.000000,4.000000,4.000000,4.000000,4.000000,4.000000,4.000000,4.000000,4.000000,4.000000,4.000000,4.000000,4.000000,4.000000,100.000000,,,,,,,,,,,,,,,,,,,,,,,,,,,,
1703406483.592490,1703406483.592592,50.000000,0.000000,4209.358887,4156.666504,4268.461426,4231.025879,4142.307617,4184.615234,4119.615234,4154.102539,4143.205078,4158.846191,4612.563965,4445.897461,4389.487305,4506.410156,0.000000,4.000000,79.000000,,,,0.000000,4.000000,4.000000,4.000000,4.000000,4.000000,4.000000,4.000000,4.000000,4.000000,4.000000,4.000000,4.000000,4.000000,4.000000,100.000000,,,,,,,,,,,,,,,,,,,,,,,,,,,,
1703406483.600298,1703406483.600300,51.000000,0.000000,4214.358887,4156.410156,4269.230957,4228.846191,4141.538574,4185.128418,4120.000000,4152.820313,4140.512695,4158.077148,4614.230957,4446.410156,4392.563965,4507.051270,0.000000,4.000000,79.000000,,,,0.000000,4.000000,4.000000,4.000000,4.000000,4.000000,4.000000,4.000000,4.000000,4.000000,4.000000,4.000000,4.000000,4.000000,4.000000,100.000000,,,,,,,,,,,,,,,,,,,,,,,,,,,,
1703406483.608106,1703406483.608108,52.000000,0.000000,4217.179688,4159.871582,4269.358887,4227.692383,4140.769043,4189.358887,4119.615234,4151.922852,4138.846191,4152.179688,4616.282227,4446.025879,4392.307617,4508.461426,0.000000,4.000000,79.000000,,,,0.000000,4.000000,4.000000,4.000000,4.000000,4.000000,4.000000,4.000000,4.000000,4.000000,4.000000,4.000000,4.000000,4.000000,4.000000,100.000000,,,,,,,,,,,,,,,,,13.000000,0.000000,0.618550,0.257935,-0.631470,0.390015,0.990355,-0.174338,0.062019,-13.325048,-44.144173,64.618172
1703406483.615914,1703406483.615816,53.000000,0.000000,4218.589844,4160.256348,4270.641113,4231.922852,4143.974121,4189.358887,4120.769043,4152.692383,4140.000000,4152.820313,4613.589844,4445.769043,4391.025879,4512.307617,0.000000,4.000000,79.000000,,,,0.000000,4.000000,4.000000,4.000000,4.000000,4.000000,4.000000,4.000000,4.000000,4.000000,4.000000,4.000000,4.000000,4.000000,4.000000,100.000000,,,,,,,,,,,,,,,,,,,,,,,,,,,,
1703406483.623722,1703406483.623724,54.000000,0.000000,4213.077148,4148.717773,4268.846191,4230.641113,4141.025879,4184.615234,4120.256348,4152.563965,4141.538574,4150.512695,4608.974121,4448.846191,4385.128418,4507.948730,0.000000,4.000000,79.000000,,,,0.000000,4.000000,4.000000,4.000000,4.000000,4.000000,4.000000,4.000000,4.000000,4.000000,4.000000,4.000000,4.000000,4.000000,4.000000,100.000000,,,,,,,,,,,,,,,,,,,,,,,,,,,,
1703406483.631530,1703406483.631532,55.000000,0.000000,4203.589844,4141.794922,4263.461426,4222.948730,4137.051270,4181.794922,4115.897461,4145.128418,4138.333496,4137.820313,4600.641113,4441.025879,4373.846191,4494.230957,0.000000,4.000000,79.000000,,,,0.000000,4.000000,4.000000,4.000000,4.000000,4.000000,4.000000,4.000000,4.000000,4.000000,4.000000,4.000000,4.000000,4.000000,4.000000,100.000000,,,,,,,,,,,,,,,,,,,,,,,,,,,,
1703406483.639338,1703406483.639440,56.000000,0.000000,4212.051270,4161.410156,4265.641113,4227.563965,4144.102539,4182.436035,4113.333496,4137.692383,4134.230957,4140.000000,4598.077148,4433.077148,4374.102539,4497.692383,0.000000,4.000000,79.000000,,,,0.000000,4.000000,4.000000,4.000000,4.000000,4.000000,4.000000,4.000000,4.000000,4.000000,4.000000,4.000000,4.000000,4.000000,4.000000,100.000000,,,,,,,,,,,,,,,,,14.000000,0.000000,0.618739,0.258057,-0.631348,0.389832,0.970333,-0.166524,0.063484,-13.159210,-44.129753,64.606354
1703406483.647147,1703406483.647248,57.000000,0.000000,4227.563965,4187.179688,4274.358887,4245.000000,4154.102539,4182.563965,4115.769043,4137.692383,4133.846191,4154.743652,4604.102539,4441.282227,4382.307617,4513.846191,0.000000,4.000000,79.000000,,,,0.000000,4.000000,4.000000,4.000000,4.000000,4.000000,4.000000,4.000000,4.000000,4.000000,4.000000,4.000000,4.000000,4.000000,4.000000,100.000000,,,,,,,,,,,,,,,,,,,,,,,,,,,,
1703406483.654955,1703406483.655056,58.000000,0.000000,4222.307617,4189.871582,4273.589844,4250.897461,4154.230957,4183.205078,4120.000000,4137.820313,4134.358887,4149.230957,4596.922852,4443.717773,4368.077148,4509.102539,0.000000,4.000000,79.000000,,,,0.000000,4.000000,4.000000,4.000000,4.000000,4.000000,4.000000,4.000000,4.000000,4.000000,4.000000,4.000000,4.000000,4.000000,4.000000,100.000000,,,,,,,,,,,,,,,,,,,,,,,,,,,,
1703406483.662763,1703406483.662764,59.000000,0.000000,4213.333496,4182.179688,4269.230957,4239.230957,4153.589844,4184.615234,4120.897461,4136.794922,4135.641113,4135.897461,4584.871582,4435.000000,4351.666504,4497.692383,0.000000,4.000000,79.000000,,,,0.000000,4.000000,4.000000,4.000000,4.000000,4.000000,4.000000,4.000000,4.000000,4.000000,4.000000,4.000000,4.000000,4.000000,4.000000,100.000000,,,,,,,,,,,,,,,,,,,,,,,,,,,,
1703406483.670571,1703406483.670672,60.000000,0.000000,4217.563965,4183.333496,4271.666504,4233.974121,4159.615234,4184.615234,4120.897461,4139.230957,4136.794922,4141.282227,4590.769043,4439.102539,4360.000000,4503.846191,0.000000,4.000000,79.000000,,,,0.000000,4.000000,4.000000,4.000000,4.000000,4.000000,4.000000,4.000000,4.000000,4.000000,4.000000,4.000000,4.000000,4.000000,4.000000,100.000000,,,,,,,,,,,,,,,,,15.000000,0.000000,0.618967,0.258362,-0.631226,0.389465,0.978635,-0.181663,0.077646,-13.076623,-44.166779,64.412384
1703406483.678379,1703406483.678480,61.000000,0.000000,4220.769043,4186.538574,4272.051270,4241.025879,4160.512695,4186.410156,4127.820313,4145.897461,4137.692383,4148.974121,4602.948730,4450.128418,4367.051270,4511.922852,0.000000,4.000000,79.000000,,,,0.000000,4.000000,4.000000,4.000000,4.000000,4.000000,4.000000,4.000000,4.000000,4.000000,4.000000,4.000000,4.000000,4.000000,4.000000,100.000000,,,,,,,,,,,,,,,,,,,,,,,,,,,,
1703406483.686187,1703406483.686388,62.000000,0.000000,4217.307617,4181.153809,4265.384766,4240.256348,4155.256348,4187.820313,4135.384766,4152.051270,4138.846191,4143.461426,4599.615234,4444.102539,4357.948730,4509.230957,0.000000,4.000000,79.000000,,,,0.000000,4.000000,4.000000,4.000000,4.000000,4.000000,4.000000,4.000000,4.000000,4.000000,4.000000,4.000000,4.000000,4.000000,4.000000,100.000000,,,,,,,,,,,,,,,,,,,,,,,,,,,,
1703406483.693995,1703406483.694196,63.000000,0.000000,4212.820313,4171.794922,4261.666504,4231.410156,4152.307617,4186.794922,4132.051270,4154.230957,4139.487305,4139.615234,4589.743652,4434.102539,4354.358887,4503.717773,0.000000,4.000000,79.000000,,,,0.000000,4.000000,4.000000,4.000000,4.000000,4.000000,4.000000,4.000000,4.000000,4.000000,4.000000,4.000000,4.000000,4.000000,4.000000,100.000000,,,,,,,,,,,,,,,,,,,,,,,,,,,,
1703406483.701803,1703406483.702103,64.000000,0.000000,4206.538574,4168.461426,4260.256348,4228.846191,4153.461426,4185.897461,4128.589844,4148.461426,4138.205078,4139.615234,4586.794922,4432.692383,4356.153809,4497.820313,4597.000000,4.000000,79.000000,,,,0.000000,4.000000,4.000000,4.000000,4.000000,4.000000,4.000000,4.000000,4.000000,4.000000,4.000000,4.000000,4.000000,4.000000,4.000000,100.000000,,,,,,,,,,,,,,,,,16.000000,0.000000,0.619093,0.258484,-0.631165,0.389282,0.983518,-0.176779,0.060066,-13.168961,-44.233433,64.504478
1703406483.709611,1703406483.709911,65.000000,0.000000,4199.230957,4169.230957,4256.410156,4226.794922,4154.230957,4187.563965,4131.410156,4140.512695,4137.051270,4137.692383,4585.769043,4430.128418,4350.512695,4490.384766,5220.000000,4.000000,79.000000,,,,0.000000,4.000000,4.000000,4.000000,4.000000,4.000000,4.000000,4.000000,4.000000,4.000000,4.000000,4.000000,4.000000,4.000000,4.000000,100.000000,,,,,,,,,,,,,,,,,,,,,,,,,,,,
1703406483.717419,1703406483.717819,66.000000,0.000000,4201.153809,4168.974121,4260.769043,4224.487305,4153.077148,4187.948730,4129.871582,4138.333496,4138.077148,4140.897461,4585.512695,4427.051270,4351.153809,4492.307617,5290.000000,4.000000,79.000000,,,,0.000000,4.000000,4.000000,4.000000,4.000000,4.000000,4.000000,4.000000,4.000000,4.000000,4.000000,4.000000,4.000000,4.000000,4.000000,100.000000,,,,,,,,,,,,,,,,,,,,,,,,,,,,
1703406483.725227,1703406483.725627,67.000000,0.000000,4211.922852,4170.769043,4271.153809,4229.615234,4153.846191,4185.641113,4127.307617,4139.615234,4139.615234,4150.384766,4585.897461,4432.436035,4359.102539,4502.307617,5300.000000,4.000000,79.000000,,,,0.000000,4.000000,4.000000,4.000000,4.000000,4.000000,4.000000,4.000000,4.000000,4.000000,4.000000,4.000000,4.000000,4.000000,4.000000,100.000000,,,,,,,,,,,,,,,,,,,,,,,,,,,,
1703406483.733035,1703406483.733535,68.000000,0.000000,4217.179688,4176.666504,4273.717773,4237.051270,4155.128418,4186.410156,4128.589844,4140.256348,4140.000000,4157.051270,4586.794922,4443.589844,4359.230957,4505.128418,5001.000000,4.000000,79.000000,,,,0.000000,4.000000,4.000000,4.000000,4.000000,4.000000,4.000000,4.000000,4.000000,4.000000,4.000000,4.000000,4.000000,4.000000,4.000000,100.000000,,,,,,,,,,,,,,,,,17.000000,0.000000,0.619082,0.258362,-0.631226,0.389282,0.961543,-0.169943,0.063484,-13.052064,-44.226757,64.487366
1703406483.740843,1703406483.741343,69.000000,0.000000,4216.666504,4184.230957,4274.102539,4243.333496,4155.128418,4188.077148,4129.102539,4137.051270,4138.205078,4148.077148,4590.769043,4447.179688,4359.487305,4504.358887,2825.000000,4.000000,79.000000,,,,0.000000,4.000000,4.000000,4.000000,4.000000,4.000000,4.000000,4.000000,4.000000,4.000000,4.000000,4.000000,4.000000,4.000000,4.000000,100.000000,,,,,,,,,,,,,,,,,,,,,,,,,,,,
1703406483.748651,1703406483.749051,70.000000,0.000000,4218.333496,4185.641113,4278.974121,4246.538574,4152.692383,4185.000000,4128.589844,4139.871582,4139.358887,4140.769043,4597.051270,4446.666504,4363.846191,4507.436035,3106.000000,4.000000,79.000000,,,,0.000000,4.000000,4.000000,4.000000,4.000000,4.000000,4.000000,4.000000,4.000000,4.000000,4.000000,4.000000,4.000000,4.000000,4.000000,100.000000,,,,,,,,,,,,,,,,,,,,,,,,,,,,
1703406483.756459,1703406483.756959,71.000000,0.000000,4216.794922,4177.948730,4277.948730,4238.589844,4152.563965,4182.948730,4130.641113,4151.410156,4143.461426,4152.692383,4597.179688,4449.487305,4362.051270,4505.641113,5377.000000,4.000000,79.000000,,,,0.000000,4.000000,4.000000,4.000000,4.000000,4.000000,4.000000,4.000000,4.000000,4.000000,4.000000,4.000000,4.000000,4.000000,4.000000,100.000000,,,,,,,,,,,,,,,,,,,,,,,,,,,,
1703406483.764267,1703406483.764767,72.000000,0.000000,4208.205078,4172.307617,4271.410156,4231.922852,4155.641113,4187.692383,4132.436035,4159.102539,4143.333496,4158.077148,4589.358887,4446.282227,4355.641113,4497.692383,4746.000000,4.000000,79.000000,,,,0.000000,4.000000,4.000000,4.000000,4.000000,4.000000,4.000000,4.000000,4.000000,4.000000,4.000000,4.000000,4.000000,4.000000,4.000000,100.000000,,,,,,,,,,,,,,,,,18.000000,0.000000,0.618956,0.258240,-0.631287,0.389465,0.970333,-0.176291,0.075693,-13.080191,-44.304081,64.555298
1703406483.772075,1703406483.772576,73.000000,0.000000,4202.179688,4172.820313,4268.717773,4231.410156,4156.282227,4188.717773,4136.922852,4154.358887,4138.589844,4142.692383,4583.974121,4437.179688,4353.589844,4493.205078,5220.000000,4.000000,79.000000,,,,0.000000,4.000000,4.000000,4.000000,4.000000,4.000000,4.000000,4.000000,4.000000,4.000000,4.000000,4.000000,4.000000,4.000000,4.000000,100.000000,,,,,,,,,,,,,,,,,,,,,,,,,,,,
1703406483.779883,1703406483.780284,74.000000,0.000000,4201.538574,4170.256348,4262.948730,4227.051270,4153.461426,4186.410156,4141.538574,4143.717773,4135.000000,4131.153809,4578.077148,4429.358887,4347.179688,4490.256348,5865.000000,4.000000,79.000000,,,,0.000000,4.000000,4.000000,4.000000,4.000000,4.000000,4.000000,4.000000,4.000000,4.000000,4.000000,4.000000,4.000000,4.000000,4.000000,100.000000,,,,,,,,,,,,,,,,,,,,,,,,,,,,
1703406483.787691,1703406483.788092,75.000000,0.000000,4200.384766,4168.333496,4256.153809,4225.769043,4152.436035,4192.948730,4139.615234,4138.717773,4135.512695,4136.794922,4569.743652,4425.128418,4340.000000,4486.666504,6147.000000,4.000000,79.000000,,,,0.000000,4.000000,4.000000,4.000000,4.000000,4.000000,4.000000,4.000000,4.000000,4.000000,4.000000,4.000000,4.000000,4.000000,4.000000,100.000000,,,,,,,,,,,,,,,,,,,,,,,,,,,,
1703406483.795499,1703406483.795800,76.000000,0.000000,4200.512695,4170.897461,4258.077148,4227.179688,4154.743652,4196.538574,4140.897461,4139.743652,4136.025879,4142.307617,4570.128418,4426.282227,4344.230957,4489.871582,6539.000000,4.000000,79.000000,,,,0.000000,4.000000,4.000000,4.000000,4.000000,4.000000,4.000000,4.000000,4.000000,4.000000,4.000000,4.000000,4.000000,4.000000,4.000000,100.000000,,,,,,,,,,,,,,,,,19.000000,0.000000,0.618904,0.257996,-0.631287,0.389709,0.974240,-0.180686,0.067879,-13.055506,-44.457008,64.566437
1703406483.803307,1703406483.803608,77.000000,0.000000,4198.974121,4169.230957,4258.333496,4224.358887,4155.128418,4190.897461,4143.846191,4140.128418,4133.974121,4137.051270,4577.563965,4428.077148,4350.128418,4491.922852,7025.000000,4.000000,79.000000,,,,0.000000,4.000000,4.000000,4.000000,4.000000,4.000000,4.000000,4.000000,4.000000,4.000000,4.000000,4.000000,4.000000,4.000000,4.000000,100.000000,,,,,,,,,,,,,,,,,,,,,,,,,,,,
1703406483.811116,1703406483.811316,78.000000,0.000000,4199.871582,4167.820313,4255.897461,4225.000000,4157.436035,4186.538574,4143.077148,4137.179688,4133.846191,4135.000000,4580.256348,4427.051270,4352.307617,4489.487305,5865.000000,4.000000,79.000000,,,,0.000000,4.000000,4.000000,4.000000,4.000000,4.000000,4.000000,4.000000,4.000000,4.000000,4.000000,4.000000,4.000000,4.000000,4.000000,100.000000,1.000000,91.666664,4.000000,4.000000,4.000000,4.000000,4.000000,4.000000,4.000000,4.000000,4.000000,3.000000,4.000000,4.000000,4.000000,4.000000,,,,,,,,,,,,
1703406483.818924,1703406483.819124,79.000000,0.000000,4208.333496,4176.794922,4263.974121,4232.436035,4162.820313,4187.307617,4145.897461,4140.384766,4142.179688,4145.769043,4583.974121,4431.025879,4358.205078,4494.358887,6147.000000,4.000000,79.000000,,,,0.000000,4.000000,4.000000,4.000000,4.000000,4.000000,4.000000,4.000000,4.000000,4.000000,4.000000,4.000000,4.000000,4.000000,4.000000,100.000000,,,,,,,,,,,,,,,,,,,,,,,,,,,,
1703406483.826732,1703406483.826832,80.000000,0.000000,4214.871582,4185.256348,4273.333496,4236.922852,4165.897461,4192.307617,4150.384766,4150.256348,4153.333496,4157.307617,4597.820313,4445.256348,4370.256348,4505.897461,6539.000000,4.000000,79.000000,,,,0.000000,4.000000,4.000000,4.000000,4.000000,4.000000,4.000000,4.000000,4.000000,4.000000,4.000000,4.000000,4.000000,4.000000,4.000000,100.000000,,,,,,,,,,,,,,,,,20.000000,0.000000,0.618651,0.257935,-0.631409,0.389954,0.981077,-0.175803,0.068368,-12.966621,-44.611305,64.726456
1703406483.834540,1703406483.834740,81.000000,0.000000,4221.666504,4191.922852,4276.794922,4244.615234,4168.717773,4199.871582,4151.538574,4153.589844,4154.358887,4162.307617,4610.641113,4459.871582,4385.384766,4518.589844,7025.000000,4.000000,79.000000,,,,0.000000,4.000000,4.000000,4.000000,4.000000,4.000000,4.000000,4.000000,4.000000,4.000000,4.000000,4.000000,4.000000,4.000000,4.000000,100.000000,,,,,,,,,,,,,,,,,,,,,,,,,,,,
1703406483.842348,1703406483.842548,82.000000,0.000000,4233.974121,4202.307617,4286.282227,4263.077148,4172.563965,4201.794922,4150.897461,4151.538574,4149.871582,4168.461426,4618.717773,4466.538574,4395.769043,4528.717773,5865.000000,4.000000,79.000000,,,,0.000000,4.000000,4.000000,4.000000,4.000000,4.000000,4.000000,4.000000,4.000000,4.000000,4.000000,4.000000,4.000000,4.000000,4.000000,100.000000,,,,,,,,,,,,,,,,,,,,,,,,,,,,
1703406483.850156,1703406483.850456,83.000000,0.000000,4237.436035,4202.307617,4291.410156,4266.922852,4170.897461,4198.717773,4153.846191,4151.025879,4149.102539,4169.487305,4618.205078,4465.769043,4394.102539,4529.615234,6147.000000,4.000000,79.000000,,,,0.000000,4.000000,4.000000,4.000000,4.000000,4.000000,4.000000,4.000000,4.000000,4.000000,4.000000,4.000000,4.000000,4.000000,4.000000,100.000000,,,,,,,,,,,,,,,,,,,,,,,,,,,,
1703406483.857964,1703406483.858264,84.000000,0.000000,4226.538574,4190.897461,4281.666504,4252.692383,4168.717773,4200.641113,4156.153809,4152.051270,4150.128418,4162.563965,4610.384766,4460.256348,4386.282227,4520.128418,6539.000000,4.000000,79.000000,,,,0.000000,4.000000,4.000000,4.000000,4.000000,4.000000,4.000000,4.000000,4.000000,4.000000,4.000000,4.000000,4.000000,4.000000,4.000000,100.000000,,,,,,,,,,,,,,,,,21.000000,0.000000,0.618526,0.257935,-0.631531,0.389954,0.976193,-0.189965,0.069833,-12.953293,-44.600174,64.770477
1703406483.865772,1703406483.866171,85.000000,0.000000,4220.384766,4185.897461,4272.179688,4245.641113,4171.538574,4201.666504,4160.512695,4155.000000,4146.538574,4156.410156,4602.948730,4453.717773,4378.205078,4514.358887,7025.000000,4.000000,79.000000,,,,0.000000,4.000000,4.000000,4.000000,4.000000,4.000000,4.000000,4.000000,4.000000,4.000000,4.000000,4.000000,4.000000,4.000000,4.000000,100.000000,,,,,,,,,,,,,,,,,,,,,,,,,,,,
1703406483.873580,1703406483.873979,86.000000,0.000000,4213.461426,4180.897461,4266.666504,4243.589844,4167.820313,4195.256348,4166.153809,4155.641113,4140.256348,4146.538574,4593.717773,4441.025879,4368.461426,4507.436035,5865.000000,4.000000,79.000000,,,,0.000000,4.000000,4.000000,4.000000,4.000000,4.000000,4.000000,4.000000,4.000000,4.000000,4.000000,4.000000,4.000000,4.000000,4.000000,100.000000,,,,,,,,,,,,,,,,,,,,,,,,,,,,
1703406483.881388,1703406483.881887,87.000000,0.000000,4199.102539,4170.128418,4261.282227,4230.641113,4160.641113,4194.615234,4164.615234,4146.666504,4136.538574,4136.666504,4580.897461,4428.461426,4360.384766,4491.922852,6147.000000,4.000000,79.000000,,,,0.000000,4.000000,4.000000,4.000000,4.000000,4.000000,4.000000,4.000000,4.000000,4.000000,4.000000,4.000000,4.000000,4.000000,4.000000,100.000000,,,,,,,,,,,,,,,,,,,,,,,,,,,,
1703406483.889196,1703406483.889695,88.000000,0.000000,4201.538574,4173.333496,4263.077148,4227.051270,4163.974121,4197.563965,4163.589844,4141.153809,4138.077148,4143.846191,4581.794922,4433.974121,4359.230957,4492.307617,6539.000000,4.000000,79.000000,,,,0.000000,4.000000,4.000000,4.000000,4.000000,4.000000,4.000000,4.000000,4.000000,4.000000,4.000000,4.000000,4.000000,4.000000,4.000000,100.000000,,,,,,,,,,,,,,,,,22.000000,0.000000,0.618627,0.257935,-0.631470,0.389893,0.972287,-0.187035,0.062996,-12.874630,-44.656826,64.793427
1703406483.897004,1703406483.897603,89.000000,0.000000,4217.563965,4185.000000,4269.102539,4240.641113,4170.769043,4192.436035,4169.102539,4149.102539,4140.897461,4154.487305,4597.436035,4447.051270,4369.615234,4508.461426,7025.000000,4.000000,79.000000,,,,0.000000,4.000000,4.000000,4.000000,4.000000,4.000000,4.000000,4.000000,4.000000,4.000000,4.000000,4.000000,4.000000,4.000000,4.000000,100.000000,,,,,,,,,,,,,,,,,,,,,,,,,,,,
1703406483.904812,1703406483.905411,90.000000,0.000000,4220.128418,4187.051270,4269.871582,4242.820313,4171.538574,4192.051270,4169.871582,4155.256348,4142.692383,4152.179688,4601.666504,4447.051270,4379.487305,4512.436035,5865.000000,4.000000,79.000000,,,,0.000000,4.000000,4.000000,4.000000,4.000000,4.000000,4.000000,4.000000,4.000000,4.000000,4.000000,4.000000,4.000000,4.000000,4.000000,100.000000,,,,,,,,,,,,,,,,,,,,,,,,,,,,
1703406483.912620,1703406483.913319,91.000000,0.000000,4217.179688,4183.461426,4269.358887,4238.461426,4168.461426,4196.794922,4168.846191,4149.487305,4143.589844,4143.205078,4597.051270,4444.615234,4376.666504,4505.897461,6147.000000,4.000000,79.000000,,,,0.000000,4.000000,4.000000,4.000000,4.000000,4.000000,4.000000,4.000000,4.000000,4.000000,4.000000,4.000000,4.000000,4.000000,4.000000,100.000000,,,,,,,,,,,,,,,,,,,,,,,,,,,,
1703406483.920428,1703406483.921127,92.000000,0.000000,4225.256348,4184.358887,4271.538574,4244.230957,4165.128418,4193.717773,4170.897461,4141.410156,4140.384766,4140.128418,4600.128418,4448.205078,4373.461426,4510.897461,6539.000000,4.000000,79.000000,,,,0.000000,4.000000,4.000000,4.000000,4.000000,4.000000,4.000000,4.000000,4.000000,4.000000,4.000000,4.000000,4.000000,4.000000,4.000000,100.000000,,,,,,,,,,,,,,,,,23.000000,0.000000,0.618602,0.257996,-0.631470,0.389893,0.972287,-0.194360,0.058601,-12.853834,-44.624477,64.764084
1703406483.928236,1703406483.929035,93.000000,0.000000,4232.948730,4191.666504,4273.717773,4249.615234,4166.922852,4190.641113,4170.128418,4140.128418,4137.307617,4148.461426,4603.974121,4448.333496,4383.333496,4521.666504,7025.000000,4.000000,79.000000,,,,0.000000,4.000000,4.000000,4.000000,4.000000,4.000000,4.000000,4.000000,4.000000,4.000000,4.000000,4.000000,4.000000,4.000000,4.000000,100.000000,,,,,,,,,,,,,,,,,,,,,,,,,,,,
1703406483.936044,1703406483.936843,94.000000,0.000000,4235.128418,4195.897461,4278.205078,4247.820313,4170.897461,4193.333496,4168.461426,4138.077148,4136.410156,4151.538574,4605.128418,4448.205078,4389.230957,4525.000000,5865.000000,4.000000,79.000000,,,,0.000000,4.000000,4.000000,4.000000,4.000000,4.000000,4.000000,4.000000,4.000000,4.000000,4.000000,4.000000,4.000000,4.000000,4.000000,100.000000,,,,,,,,,,,,,,,,,,,,,,,,,,,,
1703406483.943853,1703406483.944551,95.000000,0.000000,4231.410156,4189.102539,4278.974121,4240.897461,4168.974121,4190.000000,4169.871582,4129.102539,4129.102539,4140.000000,4601.410156,4447.820313,4380.512695,4518.717773,6147.000000,4.000000,79.000000,,,,0.000000,4.000000,4.000000,4.000000,4.000000,4.000000,4.000000,4.000000,4.000000,4.000000,4.000000,4.000000,4.000000,4.000000,4.000000,100.000000,,,,,,,,,,,,,,,,,,,,,,,,,,,,
1703406483.951661,1703406483.952359,96.000000,0.000000,4220.256348,4183.846191,4273.205078,4234.871582,4167.948730,4185.384766,4170.769043,4126.794922,4122.820313,4132.820313,4595.256348,4444.230957,4375.641113,4507.820313,6539.000000,4.000000,79.000000,,,,0.000000,4.000000,4.000000,4.000000,4.000000,4.000000,4.000000,4.000000,4.000000,4.000000,4.000000,4.000000,4.000000,4.000000,4.000000,100.000000,,,,,,,,,,,,,,,,,24.000000,0.000000,0.618664,0.257996,-0.631409,0.389893,0.970822,-0.185081,0.078135,-12.785117,-44.762028,64.787682
1703406483.959468,1703406483.960067,97.000000,0.000000,4215.128418,4184.615234,4268.846191,4233.717773,4166.794922,4188.589844,4171.666504,4136.794922,4127.051270,4135.897461,4593.846191,4444.230957,4378.333496,4507.307617,7025.000000,4.000000,79.000000,,,,0.000000,4.000000,4.000000,4.000000,4.000000,4.000000,4.000000,4.000000,4.000000,4.000000,4.000000,4.000000,4.000000,4.000000,4.000000,100.000000,,,,,,,,,,,,,,,,,,,,,,,,,,,,
1703406483.967277,1703406483.967875,98.000000,0.000000,4217.179688,4176.794922,4268.974121,4233.077148,4157.820313,4188.333496,4177.436035,4140.769043,4131.282227,4135.512695,4593.333496,4443.846191,4374.358887,4509.230957,5865.000000,4.000000,79.000000,,,,0.000000,4.000000,4.000000,4.000000,4.000000,4.000000,4.000000,4.000000,4.000000,4.000000,4.000000,4.000000,4.000000,4.000000,4.000000,100.000000,,,,,,,,,,,,,,,,,,,,,,,,,,,,
1703406483.975085,1703406483.975583,99.000000,0.000000,4212.179688,4168.077148,4264.743652,4226.282227,4151.794922,4186.794922,4183.333496,4136.922852,4132.563965,4133.717773,4588.205078,4435.256348,4367.563965,4501.538574,6147.000000,4.000000,79.000000,,,,0.000000,4.000000,4.000000,4.000000,4.000000,4.000000,4.000000,4.000000,4.000000,4.000000,4.000000,4.000000,4.000000,4.000000,4.000000,100.000000,,,,,,,,,,,,,,,,,,,,,,,,,,,,
1703406483.982893,1703406483.983391,100.000000,0.000000,4207.179688,4168.077148,4256.666504,4224.358887,4154.871582,4188.205078,4185.897461,4140.897461,4136.025879,4138.846191,4585.128418,4428.333496,4368.717773,4498.077148,6539.000000,4.000000,79.000000,,,,0.000000,4.000000,4.000000,4.000000,4.000000,4.000000,4.000000,4.000000,4.000000,4.000000,4.000000,4.000000,4.000000,4.000000,4.000000,100.000000,,,,,,,,,,,,,,,,,25.000000,0.000000,0.618689,0.257935,-0.631409,0.389893,1.002075,-0.189476,0.067879,-12.839939,-44.619160,64.858910
1703406483.990701,1703406483.991099,101.000000,0.000000,4210.256348,4167.563965,4256.025879,4228.333496,4154.487305,4187.051270,4182.563965,4149.487305,4137.820313,4140.384766,4586.153809,4429.743652,4369.358887,4501.153809,7025.000000,4.000000,79.000000,,,,0.000000,4.000000,4.000000,4.000000,4.000000,4.000000,4.000000,4.000000,4.000000,4.000000,4.000000,4.000000,4.000000,4.000000,4.000000,100.000000,,,,,,,,,,,,,,,,,,,,,,,,,,,,
1703406483.998509,1703406483.998907,102.000000,0.000000,4214.615234,4172.563965,4263.846191,4231.025879,4154.615234,4185.641113,4177.948730,4153.077148,4143.077148,4143.461426,4593.077148,4438.333496,4372.179688,4506.282227,5865.000000,4.000000,79.000000,,,,0.000000,4.000000,4.000000,4.000000,4.000000,4.000000,4.000000,4.000000,4.000000,4.000000,4.000000,4.000000,4.000000,4.000000,4.000000,100.000000,,,,,,,,,,,,,,,,,,,,,,,,,,,,
1703406484.006317,1703406484.006615,103.000000,0.000000,4223.974121,4183.974121,4272.563965,4237.820313,4162.692383,4186.410156,4180.641113,4154.743652,4152.051270,4159.743652,4609.487305,4452.948730,4389.102539,4518.333496,6147.000000,4.000000,79.000000,,,,0.000000,4.000000,4.000000,4.000000,4.000000,4.000000,4.000000,4.000000,4.000000,4.000000,4.000000,4.000000,4.000000,4.000000,4.000000,100.000000,,,,,,,,,,,,,,,,,,,,,,,,,,,,
1703406484.014125,1703406484.014423,104.000000,0.000000,4234.230957,4189.487305,4276.282227,4246.025879,4167.692383,4186.282227,4186.922852,4156.025879,4155.384766,4170.641113,4621.410156,4461.666504,4401.282227,4527.563965,6539.000000,4.000000,79.000000,,,,0.000000,4.000000,4.000000,4.000000,4.000000,4.000000,4.000000,4.000000,4.000000,4.000000,4.000000,4.000000,4.000000,4.000000,4.000000,100.000000,,,,,,,,,,,,,,,,,26.000000,0.000000,0.618615,0.258057,-0.631470,0.389832,0.974240,-0.184105,0.062508,-12.905945,-44.590576,64.789688
1703406484.021933,1703406484.022131,105.000000,0.000000,4236.794922,4195.256348,4279.102539,4250.512695,4168.846191,4184.102539,4187.436035,4156.794922,4153.974121,4162.948730,4620.897461,4462.436035,4400.641113,4529.102539,7025.000000,4.000000,79.000000,,,,0.000000,4.000000,4.000000,4.000000,4.000000,4.000000,4.000000,4.000000,4.000000,4.000000,4.000000,4.000000,4.000000,4.000000,4.000000,100.000000,,,,,,,,,,,,,,,,,,,,,,,,,,,,
1703406484.029741,1703406484.030039,106.000000,0.000000,4236.410156,4202.563965,4282.436035,4252.692383,4172.179688,4183.589844,4183.974121,4150.128418,4147.948730,4155.641113,4618.846191,4460.128418,4399.358887,4535.512695,5865.000000,4.000000,79.000000,,,,0.000000,4.000000,4.000000,4.000000,4.000000,4.000000,4.000000,4.000000,4.000000,4.000000,4.000000,4.000000,4.000000,4.000000,4.000000,100.000000,,,,,,,,,,,,,,,,,,,,,,,,,,,,
1703406484.037549,1703406484.037847,107.000000,0.000000,4237.179688,4202.563965,4281.153809,4251.794922,4174.743652,4182.051270,4184.615234,4133.974121,4136.410156,4155.256348,4617.692383,4453.333496,4401.153809,4536.153809,6147.000000,4.000000,79.000000,,,,0.000000,4.000000,4.000000,4.000000,4.000000,4.000000,4.000000,4.000000,4.000000,4.000000,4.000000,4.000000,4.000000,4.000000,4.000000,100.000000,,,,,,,,,,,,,,,,,,,,,,,,,,,,
1703406484.045357,1703406484.045755,108.000000,0.000000,4237.563965,4202.051270,4279.487305,4249.358887,4172.692383,4178.461426,4185.897461,4126.794922,4132.307617,4146.153809,4615.769043,4447.307617,4399.358887,4525.641113,6539.000000,4.000000,79.000000,,,,0.000000,4.000000,4.000000,4.000000,4.000000,4.000000,4.000000,4.000000,4.000000,4.000000,4.000000,4.000000,4.000000,4.000000,4.000000,100.000000,,,,,,,,,,,,,,,,,27.000000,0.000000,0.618865,0.257996,-0.631287,0.389771,0.988890,-0.179709,0.076670,-12.982017,-44.714851,64.744049
1703406484.053165,1703406484.053563,109.000000,0.000000,4233.717773,4200.256348,4280.000000,4251.025879,4170.000000,4177.307617,4185.897461,4135.641113,4136.794922,4139.230957,4610.000000,4448.461426,4393.333496,4523.205078,7025.000000,4.000000,79.000000,,,,0.000000,4.000000,4.000000,4.000000,4.000000,4.000000,4.000000,4.000000,4.000000,4.000000,4.000000,4.000000,4.000000,4.000000,4.000000,100.000000,,,,,,,,,,,,,,,,,,,,,,,,,,,,
1703406484.060973,1703406484.061471,110.000000,0.000000,4222.179688,4188.333496,4270.512695,4244.871582,4167.948730,4181.282227,4191.153809,4141.794922,4136.282227,4143.846191,4598.846191,4445.000000,4381.922852,4519.743652,5865.000000,4.000000,79.000000,,,,0.000000,4.000000,4.000000,4.000000,4.000000,4.000000,4.000000,4.000000,4.000000,4.000000,4.000000,4.000000,4.000000,4.000000,4.000000,100.000000,,,,,,,,,,,,,,,,,,,,,,,,,,,,
1703406484.068781,1703406484.069279,111.000000,0.000000,4213.333496,4181.794922,4260.512695,4232.436035,4167.436035,4180.128418,4198.589844,4142.948730,4135.512695,4140.512695,4594.743652,4437.436035,4376.794922,4508.333496,6147.000000,4.000000,79.000000,,,,0.000000,4.000000,4.000000,4.000000,4.000000,4.000000,4.000000,4.000000,4.000000,4.000000,4.000000,4.000000,4.000000,4.000000,4.000000,100.000000,,,,,,,,,,,,,,,,,,,,,,,,,,,,
1703406484.076589,1703406484.077186,112.000000,0.000000,4218.205078,4186.922852,4264.102539,4235.512695,4168.205078,4172.948730,4197.436035,4151.282227,4140.641113,4137.692383,4601.410156,4441.794922,4385.641113,4506.794922,6539.000000,4.000000,79.000000,,,,0.000000,4.000000,4.000000,4.000000,4.000000,4.000000,4.000000,4.000000,4.000000,4.000000,4.000000,4.000000,4.000000,4.000000,4.000000,100.000000,,,,,,,,,,,,,,,,,28.000000,0.000000,0.618817,0.257813,-0.631409,0.389771,0.964962,-0.173849,0.072763,-13.083816,-44.593365,64.769646
1703406484.084397,1703406484.084994,113.000000,0.000000,4218.717773,4186.153809,4267.179688,4240.000000,4164.487305,4175.128418,4193.974121,4158.717773,4143.077148,4147.820313,4603.205078,4446.025879,4386.410156,4510.384766,7025.000000,4.000000,79.000000,,,,0.000000,4.000000,4.000000,4.000000,4.000000,4.000000,4.000000,4.000000,4.000000,4.000000,4.000000,4.000000,4.000000,4.000000,4.000000,100.000000,,,,,,,,,,,,,,,,,,,,,,,,,,,,
1703406484.092205,1703406484.092902,114.000000,0.000000,4210.897461,4182.179688,4265.641113,4234.615234,4162.692383,4185.769043,4199.871582,4157.436035,4146.153809,4155.512695,4600.512695,4443.205078,4383.461426,4507.948730,5865.000000,4.000000,79.000000,,,,0.000000,4.000000,4.000000,4.000000,4.000000,4.000000,4.000000,4.000000,4.000000,4.000000,4.000000,4.000000,4.000000,4.000000,4.000000,100.000000,,,,,,,,,,,,,,,,,,,,,,,,,,,,
1703406484.100013,1703406484.100710,115.000000,0.000000,4213.205078,4186.666504,4269.230957,4236.922852,4165.769043,4189.743652,4202.948730,4155.897461,4152.307617,4153.846191,4601.282227,4445.256348,4393.077148,4509.102539,6147.000000,4.000000,79.000000,,,,0.000000,4.000000,4.000000,4.000000,4.000000,4.000000,4.000000,4.000000,4.000000,4.000000,4.000000,4.000000,4.000000,4.000000,4.000000,100.000000,,,,,,,,,,,,,,,,,,,,,,,,,,,,
1703406484.107822,1703406484.108618,116.000000,0.000000,4218.717773,4189.358887,4273.717773,4245.769043,4168.589844,4187.563965,4200.384766,4155.384766,4151.666504,4151.410156,4605.000000,4447.820313,4400.000000,4514.487305,6539.000000,4.000000,79.000000,,,,0.000000,4.000000,4.000000,4.000000,4.000000,4.000000,4.000000,4.000000,4.000000,4.000000,4.000000,4.000000,4.000000,4.000000,4.000000,100.000000,,,,,,,,,,,,,,,,,29.000000,0.000000,0.618669,0.257813,-0.631592,0.389709,0.958613,-0.182151,0.069344,-13.058767,-44.584030,64.726013
1703406484.115630,1703406484.116426,117.000000,0.000000,4216.153809,4187.948730,4274.871582,4246.538574,4170.128418,4189.871582,4201.538574,4151.666504,4145.769043,4154.230957,4609.487305,4447.436035,4398.205078,4513.333496,7025.000000,4.000000,79.000000,,,,0.000000,4.000000,4.000000,4.000000,4.000000,4.000000,4.000000,4.000000,4.000000,4.000000,4.000000,4.000000,4.000000,4.000000,4.000000,100.000000,,,,,,,,,,,,,,,,,,,,,,,,,,,,
1703406484.123438,1703406484.124334,118.000000,0.000000,4212.948730,4188.589844,4274.743652,4246.922852,4171.153809,4190.256348,4201.794922,4145.641113,4141.666504,4157.563965,4608.717773,4447.436035,4398.589844,4507.436035,5865.000000,4.000000,79.000000,,,,0.000000,4.000000,4.000000,4.000000,4.000000,4.000000,4.000000,4.000000,4.000000,4.000000,4.000000,4.000000,4.000000,4.000000,4.000000,100.000000,,,,,,,,,,,,,,,,,,,,,,,,,,,,
1703406484.131246,1703406484.132142,119.000000,0.000000,4213.077148,4189.358887,4275.897461,4246.922852,4169.871582,4187.307617,4198.205078,4137.820313,4135.769043,4149.230957,4602.692383,4444.743652,4399.102539,4505.769043,6147.000000,4.000000,79.000000,,,,0.000000,4.000000,4.000000,4.000000,4.000000,4.000000,4.000000,4.000000,4.000000,4.000000,4.000000,4.000000,4.000000,4.000000,4.000000,100.000000,,,,,,,,,,,,,,,,,,,,,,,,,,,,
1703406484.139054,1703406484.139850,120.000000,0.000000,4216.538574,4190.000000,4280.000000,4241.794922,4166.922852,4186.922852,4198.461426,4138.077148,4133.077148,4143.077148,4602.179688,4447.820313,4398.974121,4516.153809,6539.000000,4.000000,79.000000,,,,0.000000,4.000000,4.000000,4.000000,4.000000,4.000000,4.000000,4.000000,4.000000,4.000000,4.000000,4.000000,4.000000,4.000000,4.000000,100.000000,,,,,,,,,,,,,,,,,30.000000,0.000000,0.618656,0.257751,-0.631592,0.389771,0.974240,-0.188500,0.070809,-12.952890,-44.542294,64.636749
1703406484.146862,1703406484.147658,121.000000,0.000000,4217.563965,4190.769043,4281.922852,4245.256348,4168.846191,4187.179688,4200.769043,4148.717773,4138.205078,4153.461426,4604.487305,4457.436035,4402.436035,4522.307617,7025.000000,4.000000,79.000000,,,,0.000000,4.000000,4.000000,4.000000,4.000000,4.000000,4.000000,4.000000,4.000000,4.000000,4.000000,4.000000,4.000000,4.000000,4.000000,100.000000,,,,,,,,,,,,,,,,,,,,,,,,,,,,
1703406484.154670,1703406484.155366,122.000000,0.000000,4208.461426,4186.410156,4275.641113,4248.333496,4170.000000,4185.128418,4199.358887,4153.589844,4141.538574,4152.563965,4600.384766,4454.743652,4399.487305,4511.922852,5865.000000,4.000000,79.000000,,,,0.000000,4.000000,4.000000,4.000000,4.000000,4.000000,4.000000,4.000000,4.000000,4.000000,4.000000,4.000000,4.000000,4.000000,4.000000,100.000000,,,,,,,,,,,,,,,,,,,,,,,,,,,,
1703406484.162478,1703406484.163274,123.000000,0.000000,4198.717773,4179.871582,4270.000000,4239.230957,4165.769043,4183.333496,4203.077148,4152.692383,4140.384766,4141.025879,4595.384766,4446.282227,4391.666504,4505.000000,6147.000000,4.000000,79.000000,,,,0.000000,4.000000,4.000000,4.000000,4.000000,4.000000,4.000000,4.000000,4.000000,4.000000,4.000000,4.000000,4.000000,4.000000,4.000000,100.000000,,,,,,,,,,,,,,,,,,,,,,,,,,,,
1703406484.170286,1703406484.171082,124.000000,0.000000,4198.974121,4179.743652,4267.051270,4232.820313,4160.384766,4184.871582,4207.307617,4155.512695,4139.743652,4144.871582,4591.282227,4445.769043,4387.948730,4506.410156,6539.000000,4.000000,79.000000,,,,0.000000,4.000000,4.000000,4.000000,4.000000,4.000000,4.000000,4.000000,4.000000,4.000000,4.000000,4.000000,4.000000,4.000000,4.000000,100.000000,,,,,,,,,,,,,,,,,31.000000,0.000000,0.618617,0.257751,-0.631592,0.389832,0.982542,-0.189965,0.061043,-12.857601,-44.421398,64.723068
1703406484.178094,1703406484.178891,125.000000,0.000000,4199.871582,4182.563965,4264.871582,4240.256348,4155.897461,4186.153809,4203.974121,4153.589844,4137.948730,4146.538574,4583.333496,4443.589844,4383.974121,4503.205078,7025.000000,4.000000,79.000000,,,,0.000000,4.000000,4.000000,4.000000,4.000000,4.000000,4.000000,4.000000,4.000000,4.000000,4.000000,4.000000,4.000000,4.000000,4.000000,100.000000,,,,,,,,,,,,,,,,,,,,,,,,,,,,
1703406484.185902,1703406484.186599,126.000000,0.000000,4197.563965,4183.205078,4268.589844,4248.846191,4157.307617,4187.051270,4209.102539,4149.615234,4135.641113,4135.641113,4583.205078,4441.025879,4381.794922,4500.897461,5865.000000,4.000000,79.000000,,,,0.000000,4.000000,4.000000,4.000000,4.000000,4.000000,4.000000,4.000000,4.000000,4.000000,4.000000,4.000000,4.000000,4.000000,4.000000,100.000000,,,,,,,,,,,,,,,,,,,,,,,,,,,,
1703406484.193710,1703406484.194507,127.000000,0.000000,4202.051270,4183.974121,4272.948730,4248.589844,4158.974121,4187.820313,4213.974121,4153.589844,4136.410156,4139.230957,4592.692383,4446.538574,4388.461426,4505.256348,79.000000,4.000000,79.000000,,,,0.000000,4.000000,4.000000,4.000000,4.000000,4.000000,4.000000,4.000000,4.000000,4.000000,4.000000,4.000000,4.000000,4.000000,4.000000,100.000000,,,,,,,,,,,,,,,,,,,,,,,,,,,,
1703406484.201518,1703406484.202315,0.000000,0.000000,4205.256348,4186.025879,4270.769043,4249.358887,4160.256348,4184.102539,4207.948730,4151.025879,4138.461426,4147.948730,4597.820313,4450.384766,4395.897461,4507.692383,4592.000000,4.000000,79.000000,,,,0.000000,4.000000,4.000000,4.000000,4.000000,4.000000,4.000000,4.000000,4.000000,4.000000,4.000000,4.000000,4.000000,4.000000,4.000000,100.000000,,,,,,,,,,,,,,,,,0.000000,0.000000,0.618617,0.257751,-0.631592,0.389832,0.975705,-0.189965,0.063973,-12.671842,-44.345924,64.684097
1703406484.209326,1703406484.210223,1.000000,0.000000,4201.410156,4186.153809,4269.743652,4248.461426,4165.384766,4182.692383,4205.000000,4137.563965,4136.794922,4140.897461,4593.461426,4446.922852,4393.846191,4505.256348,5220.000000,4.000000,79.000000,,,,0.000000,4.000000,4.000000,4.000000,4.000000,4.000000,4.000000,4.000000,4.000000,4.000000,4.000000,4.000000,4.000000,4.000000,4.000000,100.000000,,,,,,,,,,,,,,,,,,,,,,,,,,,,
1703406484.217134,1703406484.218031,2.000000,0.000000,4205.384766,4183.974121,4273.333496,4240.769043,4170.128418,4186.922852,4209.487305,4132.179688,4133.333496,4138.974121,4596.410156,4444.615234,4393.589844,4507.820313,5290.000000,4.000000,79.000000,,,,0.000000,4.000000,4.000000,4.000000,4.000000,4.000000,4.000000,4.000000,4.000000,4.000000,4.000000,4.000000,4.000000,4.000000,4.000000,100.000000,,,,,,,,,,,,,,,,,,,,,,,,,,,,
1703406484.224942,1703406484.225839,3.000000,0.000000,4217.820313,4187.307617,4280.384766,4238.205078,4170.384766,4189.871582,4212.179688,4134.743652,4134.230957,4152.307617,4610.384766,4451.538574,4403.846191,4518.974121,5297.000000,4.000000,79.000000,,,,0.000000,4.000000,4.000000,4.000000,4.000000,4.000000,4.000000,4.000000,4.000000,4.000000,4.000000,4.000000,4.000000,4.000000,4.000000,100.000000,,,,,,,,,,,,,,,,,,,,,,,,,,,,
1703406484.232750,1703406484.233547,4.000000,0.000000,4220.256348,4191.922852,4283.846191,4243.846191,4169.358887,4186.025879,4208.846191,4135.000000,4137.692383,4160.128418,4613.589844,4456.410156,4406.538574,4521.666504,5001.000000,4.000000,79.000000,,,,0.000000,4.000000,4.000000,4.000000,4.000000,4.000000,4.000000,4.000000,4.000000,4.000000,4.000000,4.000000,4.000000,4.000000,4.000000,100.000000,,,,,,,,,,,,,,,,,1.000000,0.000000,0.618540,0.257751,-0.631592,0.389954,0.974240,-0.186058,0.066414,-12.504657,-44.244667,64.599022
1703406484.240558,1703406484.241455,5.000000,0.000000,4213.077148,4188.589844,4281.282227,4245.769043,4166.153809,4178.333496,4207.563965,4140.384766,4137.948730,4155.512695,4606.025879,4453.589844,4401.153809,4515.769043,2825.000000,4.000000,79.000000,,,,0.000000,4.000000,4.000000,4.000000,4.000000,4.000000,4.000000,4.000000,4.000000,4.000000,4.000000,4.000000,4.000000,4.000000,4.000000,100.000000,,,,,,,,,,,,,,,,,,,,,,,,,,,,
1703406484.248366,1703406484.249263,6.000000,0.000000,4213.717773,4184.230957,4279.358887,4240.384766,4158.205078,4172.179688,4212.051270,4151.153809,4137.948730,4152.820313,4605.000000,4452.563965,4402.563965,4519.487305,3106.000000,4.000000,79.000000,,,,0.000000,4.000000,4.000000,4.000000,4.000000,4.000000,4.000000,4.000000,4.000000,4.000000,4.000000,4.000000,4.000000,4.000000,4.000000,100.000000,,,,,,,,,,,,,,,,,,,,,,,,,,,,
1703406484.256174,1703406484.257170,7.000000,0.000000,4214.743652,4183.717773,4279.102539,4235.256348,4154.358887,4170.512695,4215.897461,4157.179688,4139.871582,4155.128418,4605.128418,4453.461426,4400.384766,4522.307617,5377.000000,4.000000,79.000000,,,,0.000000,4.000000,4.000000,4.000000,4.000000,4.000000,4.000000,4.000000,4.000000,4.000000,4.000000,4.000000,4.000000,4.000000,4.000000,100.000000,,,,,,,,,,,,,,,,,,,,,,,,,,,,
1703406484.263982,1703406484.264978,8.000000,0.000000,4204.230957,4178.077148,4276.282227,4232.948730,4154.743652,4171.538574,4212.051270,4157.179688,4140.000000,4155.128418,4598.589844,4450.384766,4390.000000,4510.000000,4746.000000,4.000000,79.000000,,,,0.000000,4.000000,4.000000,4.000000,4.000000,4.000000,4.000000,4.000000,4.000000,4.000000,4.000000,4.000000,4.000000,4.000000,4.000000,100.000000,,,,,,,,,,,,,,,,,2.000000,0.000000,0.618779,0.257813,-0.631409,0.389832,0.965938,-0.190453,0.067391,-12.587524,-44.270199,64.605789
1703406484.271791,1703406484.272886,9.000000,0.000000,4197.948730,4172.179688,4274.743652,4234.871582,4153.974121,4169.743652,4211.922852,4154.871582,4136.794922,4150.897461,4596.794922,4446.922852,4387.436035,4503.077148,5223.000000,4.000000,79.000000,,,,0.000000,4.000000,4.000000,4.000000,4.000000,4.000000,4.000000,4.000000,4.000000,4.000000,4.000000,4.000000,4.000000,4.000000,4.000000,100.000000,,,,,,,,,,,,,,,,,,,,,,,,,,,,
1703406484.279599,1703406484.280694,10.000000,0.000000,4208.205078,4178.205078,4278.205078,4241.538574,4154.230957,4167.563965,4219.487305,4154.358887,4135.384766,4143.846191,4601.794922,4452.563965,4394.102539,4514.102539,5861.000000,4.000000,79.000000,,,,0.000000,4.000000,4.000000,4.000000,4.000000,4.000000,4.000000,4.000000,4.000000,4.000000,4.000000,4.000000,4.000000,4.000000,4.000000,100.000000,,,,,,,,,,,,,,,,,,,,,,,,,,,,
1703406484.287407,1703406484.288602,11.000000,0.000000,4215.000000,4186.282227,4282.179688,4247.307617,4156.025879,4169.358887,4217.948730,4156.282227,4138.846191,4138.589844,4603.333496,4458.974121,4397.051270,4521.282227,6147.000000,4.000000,79.000000,,,,0.000000,4.000000,4.000000,4.000000,4.000000,4.000000,4.000000,4.000000,4.000000,4.000000,4.000000,4.000000,4.000000,4.000000,4.000000,100.000000,,,,,,,,,,,,,,,,,,,,,,,,,,,,
1703406484.295215,1703406484.296410,12.000000,0.000000,4205.128418,4182.563965,4277.692383,4245.000000,4158.077148,4169.871582,4212.307617,4155.897461,4138.974121,4139.102539,4599.230957,4452.692383,4390.384766,4513.461426,6539.000000,4.000000,79.000000,,,,0.000000,4.000000,4.000000,4.000000,4.000000,4.000000,4.000000,4.000000,4.000000,4.000000,4.000000,4.000000,4.000000,4.000000,4.000000,100.000000,,,,,,,,,,,,,,,,,3.000000,0.000000,0.619019,0.257996,-0.631287,0.389526,0.986937,-0.178244,0.047369,-12.595439,-44.326511,64.795204
1703406484.303023,1703406484.304318,13.000000,0.000000,4195.000000,4174.102539,4267.563965,4236.794922,4159.615234,4168.846191,4213.589844,4147.179688,4129.871582,4140.000000,4590.384766,4440.384766,4379.102539,4499.743652,7025.000000,4.000000,79.000000,,,,0.000000,4.000000,4.000000,4.000000,4.000000,4.000000,4.000000,4.000000,4.000000,4.000000,4.000000,4.000000,4.000000,4.000000,4.000000,100.000000,,,,,,,,,,,,,,,,,,,,,,,,,,,,
1703406484.310831,1703406484.312126,14.000000,0.000000,4198.205078,4170.769043,4267.563965,4233.717773,4159.615234,4167.692383,4213.974121,4139.871582,4126.666504,4137.051270,4588.205078,4441.794922,4376.538574,4497.436035,5861.000000,4.000000,79.000000,,,,0.000000,4.000000,4.000000,4.000000,4.000000,4.000000,4.000000,4.000000,4.000000,4.000000,4.000000,4.000000,4.000000,4.000000,4.000000,100.000000,1.000000,91.666664,4.000000,4.000000,4.000000,4.000000,4.000000,4.000000,3.000000,4.000000,4.000000,4.000000,4.000000,4.000000,4.000000,4.000000,,,,,,,,,,,,
1703406484.318639,1703406484.319834,15.000000,0.000000,4199.487305,4173.717773,4274.871582,4236.282227,4156.282227,4167.692383,4208.205078,4139.487305,4133.717773,4140.641113,4593.333496,4448.077148,4386.538574,4504.358887,6147.000000,4.000000,79.000000,,,,0.000000,4.000000,4.000000,4.000000,4.000000,4.000000,4.000000,4.000000,4.000000,4.000000,4.000000,4.000000,4.000000,4.000000,4.000000,100.000000,,,,,,,,,,,,,,,,,,,,,,,,,,,,
1703406484.326447,1703406484.327642,16.000000,0.000000,4199.358887,4180.384766,4275.641113,4240.641113,4155.128418,4170.000000,4208.589844,4138.333496,4136.153809,4153.589844,4598.589844,4446.282227,4395.384766,4511.922852,0.000000,4.000000,79.000000,,,,0.000000,4.000000,4.000000,4.000000,4.000000,4.000000,4.000000,4.000000,4.000000,4.000000,4.000000,4.000000,4.000000,4.000000,4.000000,100.000000,,,,,,,,,,,,,,,,,4.000000,0.000000,0.619085,0.258057,-0.631348,0.389282,0.959590,-0.183616,0.077158,-12.735895,-44.410526,64.815689
1703406484.334255,1703406484.335350,17.000000,0.000000,4210.641113,4188.846191,4278.333496,4248.589844,4160.512695,4167.692383,4210.384766,4138.974121,4135.128418,4156.794922,4604.358887,4452.820313,4398.974121,4522.051270,0.000000,4.000000,79.000000,,,,0.000000,4.000000,4.000000,4.000000,4.000000,4.000000,4.000000,4.000000,4.000000,4.000000,4.000000,4.000000,4.000000,4.000000,4.000000,100.000000,,,,,,,,,,,,,,,,,,,,,,,,,,,,
1703406484.342063,1703406484.343158,18.000000,0.000000,4214.487305,4188.077148,4285.256348,4254.358887,4161.794922,4161.410156,4206.282227,4146.538574,4137.948730,4149.743652,4604.358887,4461.922852,4398.846191,4523.717773,0.000000,4.000000,79.000000,,,,0.000000,4.000000,4.000000,4.000000,4.000000,4.000000,4.000000,4.000000,4.000000,4.000000,4.000000,4.000000,4.000000,4.000000,4.000000,100.000000,,,,,,,,,,,,,,,,,,,,,,,,,,,,
1703406484.349871,1703406484.350866,19.000000,0.000000,4203.717773,4175.128418,4282.563965,4246.153809,4153.846191,4157.436035,4206.282227,4153.589844,4140.769043,4151.666504,4598.589844,4456.282227,4392.436035,4515.000000,0.000000,4.000000,79.000000,,,,0.000000,4.000000,4.000000,4.000000,4.000000,4.000000,4.000000,4.000000,4.000000,4.000000,4.000000,4.000000,4.000000,4.000000,4.000000,100.000000,,,,,,,,,,,,,,,,,,,,,,,,,,,,
1703406484.357679,1703406484.358674,20.000000,0.000000,4197.563965,4167.820313,4272.307617,4232.436035,4150.769043,4157.179688,4211.538574,4155.384766,4139.358887,4151.538574,4593.589844,4445.512695,4384.871582,4509.615234,0.000000,4.000000,79.000000,,,,0.000000,4.000000,4.000000,4.000000,4.000000,4.000000,4.000000,4.000000,4.000000,4.000000,4.000000,4.000000,4.000000,4.000000,4.000000,100.000000,,,,,,,,,,,,,,,,,5.000000,0.000000,0.619108,0.257874,-0.631287,0.389465,0.975705,-0.187035,0.086436,-12.662306,-44.502808,64.684120
1703406484.365487,1703406484.366382,21.000000,0.000000,4198.589844,4169.487305,4268.974121,4230.000000,4153.461426,4161.922852,4212.179688,4156.282227,4136.282227,4139.743652,4588.717773,4442.307617,4384.871582,4510.000000,0.000000,4.000000,79.000000,,,,0.000000,4.000000,4.000000,4.000000,4.000000,4.000000,4.000000,4.000000,4.000000,4.000000,4.000000,4.000000,4.000000,4.000000,4.000000,100.000000,,,,,,,,,,,,,,,,,,,,,,,,,,,,
1703406484.373295,1703406484.374190,22.000000,0.000000,4200.000000,4169.615234,4271.794922,4233.589844,4152.436035,4168.846191,4214.230957,4154.358887,4134.358887,4135.769043,4588.205078,4442.820313,4389.358887,4508.077148,0.000000,4.000000,79.000000,,,,0.000000,4.000000,4.000000,4.000000,4.000000,4.000000,4.000000,4.000000,4.000000,4.000000,4.000000,4.000000,4.000000,4.000000,4.000000,100.000000,,,,,,,,,,,,,,,,,,,,,,,,,,,,
1703406484.381103,1703406484.381898,23.000000,0.000000,4197.436035,4167.051270,4269.358887,4230.384766,4151.282227,4168.461426,4217.179688,4150.512695,4136.282227,4139.358887,4591.282227,4440.769043,4387.051270,4506.025879,0.000000,4.000000,79.000000,,,,0.000000,4.000000,4.000000,4.000000,4.000000,4.000000,4.000000,4.000000,4.000000,4.000000,4.000000,4.000000,4.000000,4.000000,4.000000,100.000000,,,,,,,,,,,,,,,,,,,,,,,,,,,,
1703406484.388911,1703406484.389706,24.000000,0.000000,4192.436035,4166.025879,4265.256348,4226.922852,4153.461426,4165.769043,4215.000000,4150.769043,4139.487305,4142.436035,4589.487305,4437.948730,4384.615234,4508.589844,0.000000,4.000000,79.000000,,,,0.000000,4.000000,4.000000,4.000000,4.000000,4.000000,4.000000,4.000000,4.000000,4.000000,4.000000,4.000000,4.000000,4.000000,4.000000,100.000000,,,,,,,,,,,,,,,,,6.000000,0.000000,0.619006,0.257751,-0.631287,0.389709,0.964962,-0.177756,0.070809,-12.679408,-44.419193,64.682373
1703406484.396719,1703406484.397414,25.000000,0.000000,4188.846191,4167.436035,4264.743652,4231.153809,4156.282227,4169.871582,4215.641113,4153.846191,4139.743652,4146.410156,4590.128418,4438.717773,4390.897461,4509.487305,0.000000,4.000000,79.000000,,,,0.000000,4.000000,4.000000,4.000000,4.000000,4.000000,4.000000,4.000000,4.000000,4.000000,4.000000,4.000000,4.000000,4.000000,4.000000,100.000000,,,,,,,,,,,,,,,,,,,,,,,,,,,,
1703406484.404527,1703406484.405222,26.000000,0.000000,4189.743652,4167.563965,4265.384766,4231.025879,4157.563965,4170.512695,4217.436035,4154.615234,4138.974121,4147.436035,4595.641113,4440.384766,4398.333496,4506.538574,0.000000,4.000000,79.000000,,,,0.000000,4.000000,4.000000,4.000000,4.000000,4.000000,4.000000,4.000000,4.000000,4.000000,4.000000,4.000000,4.000000,4.000000,4.000000,100.000000,,,,,,,,,,,,,,,,,,,,,,,,,,,,
1703406484.412336,1703406484.412930,27.000000,0.000000,4191.410156,4168.717773,4268.461426,4227.820313,4155.384766,4166.410156,4216.153809,4153.077148,4140.641113,4146.666504,4598.974121,4443.205078,4398.205078,4509.230957,0.000000,4.000000,79.000000,,,,0.000000,4.000000,4.000000,4.000000,4.000000,4.000000,4.000000,4.000000,4.000000,4.000000,4.000000,4.000000,4.000000,4.000000,4.000000,100.000000,,,,,,,,,,,,,,,,,,,,,,,,,,,,
1703406484.420143,1703406484.420738,28.000000,0.000000,4198.717773,4176.153809,4278.974121,4230.897461,4154.230957,4167.948730,4216.282227,4155.256348,4146.666504,4152.948730,4607.692383,4452.436035,4398.974121,4521.025879,0.000000,4.000000,79.000000,,,,0.000000,4.000000,4.000000,4.000000,4.000000,4.000000,4.000000,4.000000,4.000000,4.000000,4.000000,4.000000,4.000000,4.000000,4.000000,100.000000,,,,,,,,,,,,,,,,,7.000000,0.000000,0.618954,0.257690,-0.631287,0.389832,0.972775,-0.190941,0.067879,-12.744801,-44.427273,64.680801
1703406484.427951,1703406484.428446,29.000000,0.000000,4211.538574,4185.384766,4290.256348,4235.769043,4157.820313,4169.871582,4217.051270,4159.743652,4152.436035,4164.102539,4619.743652,4463.461426,4409.615234,4528.846191,0.000000,4.000000,79.000000,,,,0.000000,4.000000,4.000000,4.000000,4.000000,4.000000,4.000000,4.000000,4.000000,4.000000,4.000000,4.000000,4.000000,4.000000,4.000000,100.000000,,,,,,,,,,,,,,,,,,,,,,,,,,,,
1703406484.435760,1703406484.436354,30.000000,0.000000,4215.897461,4188.077148,4292.563965,4236.410156,4159.358887,4169.358887,4214.743652,4159.615234,4154.487305,4170.769043,4622.563965,4467.179688,4416.922852,4528.974121,0.000000,4.000000,79.000000,,,,0.000000,4.000000,4.000000,4.000000,4.000000,4.000000,4.000000,4.000000,4.000000,4.000000,4.000000,4.000000,4.000000,4.000000,4.000000,100.000000,,,,,,,,,,,,,,,,,,,,,,,,,,,,
1703406484.443568,1703406484.444162,31.000000,0.000000,4209.230957,4181.666504,4286.666504,4235.769043,4156.666504,4167.307617,4211.794922,4154.615234,4149.487305,4159.615234,4614.743652,4458.974121,4407.948730,4523.846191,0.000000,4.000000,79.000000,,,,0.000000,4.000000,4.000000,4.000000,4.000000,4.000000,4.000000,4.000000,4.000000,4.000000,4.000000,4.000000,4.000000,4.000000,4.000000,100.000000,,,,,,,,,,,,,,,,,,,,,,,,,,,,
1703406484.451376,1703406484.452070,32.000000,0.000000,4197.436035,4171.538574,4277.820313,4232.051270,4154.230957,4163.846191,4214.615234,4152.307617,4141.153809,4137.307617,4601.410156,4446.025879,4390.000000,4513.077148,0.000000,4.000000,79.000000,,,,0.000000,4.000000,4.000000,4.000000,4.000000,4.000000,4.000000,4.000000,4.000000,4.000000,4.000000,4.000000,4.000000,4.000000,4.000000,100.000000,,,,,,,,,,,,,,,,,8.000000,0.000000,0.618802,0.257629,-0.631348,0.390015,0.981077,-0.184105,0.064461,-12.736987,-44.501213,64.746056
1703406484.459184,1703406484.459878,33.000000,0.000000,4189.358887,4166.410156,4273.717773,4227.051270,4154.487305,4164.743652,4216.794922,4157.948730,4137.948730,4132.692383,4592.563965,4442.820313,4380.128418,4506.282227,0.000000,4.000000,79.000000,,,,0.000000,4.000000,4.000000,4.000000,4.000000,4.000000,4.000000,4.000000,4.000000,4.000000,4.000000,4.000000,4.000000,4.000000,4.000000,100.000000,,,,,,,,,,,,,,,,,,,,,,,,,,,,
1703406484.466992,1703406484.467786,34.000000,0.000000,4187.820313,4168.589844,4274.230957,4228.974121,4155.256348,4169.743652,4216.025879,4160.000000,4139.230957,4143.846191,4591.410156,4441.922852,4381.410156,4507.436035,0.000000,4.000000,79.000000,,,,0.000000,4.000000,4.000000,4.000000,4.000000,4.000000,4.000000,4.000000,4.000000,4.000000,4.000000,4.000000,4.000000,4.000000,4.000000,100.000000,,,,,,,,,,,,,,,,,,,,,,,,,,,,
1703406484.474800,1703406484.475594,35.000000,0.000000,4187.179688,4169.743652,4272.948730,4231.025879,4152.692383,4170.256348,4217.051270,4154.871582,4137.179688,4141.410156,4587.692383,4430.769043,4381.025879,4505.641113,0.000000,4.000000,79.000000,,,,0.000000,4.000000,4.000000,4.000000,4.000000,4.000000,4.000000,4.000000,4.000000,4.000000,4.000000,4.000000,4.000000,4.000000,4.000000,100.000000,,,,,,,,,,,,,,,,,,,,,,,,,,,,
1703406484.482608,1703406484.483502,36.000000,0.000000,4187.563965,4168.846191,4270.897461,4227.692383,4150.769043,4169.102539,4217.692383,4157.179688,4136.153809,4132.692383,4590.256348,4428.974121,4378.717773,4505.128418,0.000000,4.000000,79.000000,,,,0.000000,4.000000,4.000000,4.000000,4.000000,4.000000,4.000000,4.000000,4.000000,4.000000,4.000000,4.000000,4.000000,4.000000,4.000000,100.000000,,,,,,,,,,,,,,,,,9.000000,0.000000,0.618752,0.257507,-0.631409,0.390076,0.983518,-0.193871,0.075204,-12.829955,-44.551094,64.621452
1703406484.490416,1703406484.491310,37.000000,0.000000,4190.000000,4170.256348,4274.102539,4227.307617,4155.256348,4170.384766,4216.538574,4168.589844,4143.589844,4143.461426,4602.820313,4443.589844,4384.615234,4508.205078,0.000000,4.000000,79.000000,,,,0.000000,4.000000,4.000000,4.000000,4.000000,4.000000,4.000000,4.000000,4.000000,4.000000,4.000000,4.000000,4.000000,4.000000,4.000000,100.000000,,,,,,,,,,,,,,,,,,,,,,,,,,,,
1703406484.498224,1703406484.499218,38.000000,0.000000,4192.692383,4170.256348,4277.179688,4231.153809,4157.820313,4167.436035,4216.666504,4170.512695,4151.025879,4153.077148,4604.102539,4446.794922,4394.487305,4506.794922,0.000000,4.000000,79.000000,,,,0.000000,4.000000,4.000000,4.000000,4.000000,4.000000,4.000000,4.000000,4.000000,4.000000,4.000000,4.000000,4.000000,4.000000,4.000000,100.000000,,,,,,,,,,,,,,,,,,,,,,,,,,,,
1703406484.506032,1703406484.507026,39.000000,0.000000,4195.512695,4175.128418,4276.794922,4232.692383,4154.871582,4164.358887,4218.846191,4162.820313,4153.717773,4144.102539,4602.307617,4442.051270,4397.563965,4511.410156,0.000000,4.000000,79.000000,,,,0.000000,4.000000,4.000000,4.000000,4.000000,4.000000,4.000000,4.000000,4.000000,4.000000,4.000000,4.000000,4.000000,4.000000,4.000000,100.000000,,,,,,,,,,,,,,,,,,,,,,,,,,,,
1703406484.513840,1703406484.514734,40.000000,0.000000,4202.051270,4183.974121,4281.666504,4235.512695,4160.897461,4165.128418,4214.615234,4157.563965,4152.692383,4147.436035,4612.820313,4447.563965,4398.461426,4522.563965,0.000000,4.000000,79.000000,,,,0.000000,4.000000,4.000000,4.000000,4.000000,4.000000,4.000000,4.000000,4.000000,4.000000,4.000000,4.000000,4.000000,4.000000,4.000000,100.000000,,,,,,,,,,,,,,,,,10.000000,0.000000,0.618789,0.257568,-0.631348,0.390076,0.964962,-0.185570,0.063484,-12.813626,-44.529316,64.609306
1703406484.521648,1703406484.522542,41.000000,0.000000,4206.410156,4185.512695,4289.487305,4235.512695,4170.128418,4162.179688,4208.461426,4146.410156,4141.538574,4159.487305,4613.205078,4449.230957,4400.512695,4520.256348,0.000000,4.000000,79.000000,,,,0.000000,4.000000,4.000000,4.000000,4.000000,4.000000,4.000000,4.000000,4.000000,4.000000,4.000000,4.000000,4.000000,4.000000,4.000000,100.000000,,,,,,,,,,,,,,,,,,,,,,,,,,,,
1703406484.529456,1703406484.530250,42.000000,0.000000,4200.769043,4183.205078,4287.692383,4233.974121,4168.461426,4156.666504,4206.025879,4131.794922,4129.871582,4147.179688,4601.153809,4440.897461,4398.846191,4512.436035,0.000000,4.000000,79.000000,,,,0.000000,4.000000,4.000000,4.000000,4.000000,4.000000,4.000000,4.000000,4.000000,4.000000,4.000000,4.000000,4.000000,4.000000,4.000000,100.000000,,,,,,,,,,,,,,,,,,,,,,,,,,,,
1703406484.537264,1703406484.538058,43.000000,0.000000,4201.153809,4186.282227,4284.358887,4240.641113,4167.307617,4156.922852,4205.256348,4131.666504,4131.922852,4137.436035,4604.230957,4439.102539,4398.717773,4516.538574,0.000000,4.000000,79.000000,,,,0.000000,4.000000,4.000000,4.000000,4.000000,4.000000,4.000000,4.000000,4.000000,4.000000,4.000000,4.000000,4.000000,4.000000,4.000000,100.000000,,,,,,,,,,,,,,,,,,,,,,,,,,,,
1703406484.545072,1703406484.545766,44.000000,0.000000,4210.384766,4185.897461,4289.743652,4244.487305,4168.846191,4158.461426,4208.205078,4144.743652,4140.769043,4151.666504,4617.307617,4447.820313,4402.436035,4524.871582,0.000000,4.000000,79.000000,,,,0.000000,4.000000,4.000000,4.000000,4.000000,4.000000,4.000000,4.000000,4.000000,4.000000,4.000000,4.000000,4.000000,4.000000,4.000000,100.000000,,,,,,,,,,,,,,,,,11.000000,0.000000,0.618800,0.257690,-0.631287,0.390076,0.973263,-0.178244,0.068368,-12.732264,-44.659718,64.615044
1703406484.552880,1703406484.553574,45.000000,0.000000,4207.179688,4174.487305,4290.641113,4236.282227,4163.077148,4156.538574,4214.487305,4155.384766,4142.307617,4152.051270,4612.948730,4449.871582,4398.205078,4520.512695,0.000000,4.000000,79.000000,,,,0.000000,4.000000,4.000000,4.000000,4.000000,4.000000,4.000000,4.000000,4.000000,4.000000,4.000000,4.000000,4.000000,4.000000,4.000000,100.000000,,,,,,,,,,,,,,,,,,,,,,,,,,,,
1703406484.560688,1703406484.561282,46.000000,0.000000,4190.256348,4165.256348,4281.794922,4227.307617,4156.025879,4156.538574,4216.153809,4160.897461,4141.410156,4135.128418,4598.077148,4437.051270,4384.615234,4504.358887,0.000000,4.000000,79.000000,,,,0.000000,4.000000,4.000000,4.000000,4.000000,4.000000,4.000000,4.000000,4.000000,4.000000,4.000000,4.000000,4.000000,4.000000,4.000000,100.000000,,,,,,,,,,,,,,,,,,,,,,,,,,,,
1703406484.568497,1703406484.569090,47.000000,0.000000,4184.102539,4167.051270,4278.717773,4227.692383,4156.794922,4158.846191,4214.615234,4168.077148,4145.128418,4134.487305,4597.051270,4429.871582,4377.948730,4496.410156,0.000000,4.000000,79.000000,,,,0.000000,4.000000,4.000000,4.000000,4.000000,4.000000,4.000000,4.000000,4.000000,4.000000,4.000000,4.000000,4.000000,4.000000,4.000000,100.000000,,,,,,,,,,,,,,,,,,,,,,,,,,,,
1703406484.576305,1703406484.576798,48.000000,0.000000,4192.948730,4168.461426,4284.743652,4231.410156,4157.820313,4157.307617,4220.256348,4171.153809,4146.922852,4147.307617,4607.820313,4439.358887,4387.820313,4504.102539,0.000000,4.000000,79.000000,,,,0.000000,4.000000,4.000000,4.000000,4.000000,4.000000,4.000000,4.000000,4.000000,4.000000,4.000000,4.000000,4.000000,4.000000,4.000000,100.000000,,,,,,,,,,,,,,,,,12.000000,0.000000,0.618713,0.257751,-0.631348,0.390076,0.961055,-0.191918,0.078623,-12.809037,-44.593746,64.653534
1703406484.584113,1703406484.584606,49.000000,0.000000,4200.512695,4168.077148,4288.461426,4234.487305,4157.179688,4154.871582,4222.307617,4165.128418,4143.974121,4152.051270,4612.692383,4447.179688,4398.717773,4508.589844,0.000000,4.000000,79.000000,,,,0.000000,4.000000,4.000000,4.000000,4.000000,4.000000,4.000000,4.000000,4.000000,4.000000,4.000000,4.000000,4.000000,4.000000,4.000000,100.000000,,,,,,,,,,,,,,,,,,,,,,,,,,,,
1703406484.591921,1703406484.592314,50.000000,0.000000,4202.563965,4178.846191,4287.051270,4237.051270,4162.820313,4158.333496,4215.256348,4158.846191,4144.102539,4153.589844,4612.563965,4443.461426,4400.897461,4506.538574,0.000000,4.000000,79.000000,,,,0.000000,4.000000,4.000000,4.000000,4.000000,4.000000,4.000000,4.000000,4.000000,4.000000,4.000000,4.000000,4.000000,4.000000,4.000000,100.000000,,,,,,,,,,,,,,,,,,,,,,,,,,,,
1703406484.599729,1703406484.600222,51.000000,0.000000,4202.820313,4186.025879,4287.563965,4236.025879,4169.230957,4158.461426,4216.153809,4151.538574,4145.641113,4154.615234,4611.538574,4439.487305,4400.512695,4507.692383,0.000000,4.000000,79.000000,,,,0.000000,4.000000,4.000000,4.000000,4.000000,4.000000,4.000000,4.000000,4.000000,4.000000,4.000000,4.000000,4.000000,4.000000,4.000000,100.000000,,,,,,,,,,,,,,,,,,,,,,,,,,,,
1703406484.607537,1703406484.608030,52.000000,0.000000,4201.282227,4175.641113,4290.256348,4232.563965,4166.410156,4153.589844,4218.205078,4142.692383,4141.794922,4146.153809,4606.282227,4439.743652,4398.717773,4507.179688,0.000000,4.000000,79.000000,,,,0.000000,4.000000,4.000000,4.000000,4.000000,4.000000,4.000000,4.000000,4.000000,4.000000,4.000000,4.000000,4.000000,4.000000,4.000000,100.000000,,,,,,,,,,,,,,,,,13.000000,0.000000,0.618790,0.257751,-0.631348,0.389954,0.979612,-0.171896,0.071786,-12.761467,-44.584373,64.454849
1703406484.615345,1703406484.615838,53.000000,0.000000,4201.410156,4168.205078,4292.307617,4230.512695,4162.692383,4155.384766,4211.153809,4138.205078,4136.538574,4145.128418,4606.410156,4441.538574,4397.307617,4505.512695,0.000000,4.000000,79.000000,,,,0.000000,4.000000,4.000000,4.000000,4.000000,4.000000,4.000000,4.000000,4.000000,4.000000,4.000000,4.000000,4.000000,4.000000,4.000000,100.000000,,,,,,,,,,,,,,,,,,,,,,,,,,,,
1703406484.623153,1703406484.623546,54.000000,0.000000,4206.282227,4176.410156,4292.307617,4233.333496,4165.769043,4157.692383,4207.563965,4131.025879,4136.538574,4157.436035,4609.615234,4441.794922,4397.948730,4508.461426,0.000000,4.000000,79.000000,,,,0.000000,4.000000,4.000000,4.000000,4.000000,4.000000,4.000000,4.000000,4.000000,4.000000,4.000000,4.000000,4.000000,4.000000,4.000000,100.000000,,,,,,,,,,,,,,,,,,,,,,,,,,,,
1703406484.630961,1703406484.631454,55.000000,0.000000,4214.230957,4185.000000,4295.897461,4236.025879,4166.410156,4153.846191,4207.948730,4123.333496,4134.358887,4152.692383,4605.256348,4440.000000,4396.922852,4508.589844,0.000000,4.000000,79.000000,,,,0.000000,4.000000,4.000000,4.000000,4.000000,4.000000,4.000000,4.000000,4.000000,4.000000,4.000000,4.000000,4.000000,4.000000,4.000000,100.000000,,,,,,,,,,,,,,,,,,,,,,,,,,,,
1703406484.638769,1703406484.639262,56.000000,0.000000,4215.256348,4185.256348,4300.128418,4235.256348,4166.538574,4153.333496,4205.769043,4129.743652,4133.333496,4137.948730,4605.897461,4441.794922,4395.769043,4508.589844,0.000000,4.000000,79.000000,,,,0.000000,4.000000,4.000000,4.000000,4.000000,4.000000,4.000000,4.000000,4.000000,4.000000,4.000000,4.000000,4.000000,4.000000,4.000000,100.000000,,,,,,,,,,,,,,,,,14.000000,0.000000,0.618865,0.257813,-0.631287,0.389893,0.962031,-0.178733,0.074228,-12.651987,-44.475933,64.259361
1703406484.646577,1703406484.647169,57.000000,0.000000,4206.538574,4180.000000,4296.410156,4233.461426,4169.358887,4156.153809,4208.205078,4146.282227,4140.769043,4143.461426,4613.846191,4445.256348,4397.563965,4509.615234,0.000000,4.000000,79.000000,,,,0.000000,4.000000,4.000000,4.000000,4.000000,4.000000,4.000000,4.000000,4.000000,4.000000,4.000000,4.000000,4.000000,4.000000,4.000000,100.000000,,,,,,,,,,,,,,,,,,,,,,,,,,,,
1703406484.654385,1703406484.654977,58.000000,0.000000,4198.077148,4172.820313,4291.025879,4230.769043,4167.307617,4153.461426,4212.948730,4155.000000,4146.410156,4149.358887,4608.589844,4444.487305,4393.077148,4502.051270,0.000000,4.000000,79.000000,,,,0.000000,4.000000,4.000000,4.000000,4.000000,4.000000,4.000000,4.000000,4.000000,4.000000,4.000000,4.000000,4.000000,4.000000,4.000000,100.000000,,,,,,,,,,,,,,,,,,,,,,,,,,,,
1703406484.662193,1703406484.662885,59.000000,0.000000,4197.563965,4171.025879,4290.769043,4228.461426,4166.922852,4155.256348,4214.358887,4158.077148,4144.615234,4141.794922,4597.948730,4445.000000,4382.948730,4492.692383,0.000000,4.000000,79.000000,,,,0.000000,4.000000,4.000000,4.000000,4.000000,4.000000,4.000000,4.000000,4.000000,4.000000,4.000000,4.000000,4.000000,4.000000,4.000000,100.000000,,,,,,,,,,,,,,,,,,,,,,,,,,,,
1703406484.670001,1703406484.670693,60.000000,0.000000,4197.563965,4170.384766,4291.025879,4229.230957,4166.282227,4160.128418,4216.794922,4159.358887,4141.153809,4140.128418,4598.205078,4445.000000,4380.641113,4493.461426,0.000000,4.000000,79.000000,,,,0.000000,4.000000,4.000000,4.000000,4.000000,4.000000,4.000000,4.000000,4.000000,4.000000,4.000000,4.000000,4.000000,4.000000,4.000000,100.000000,,,,,,,,,,,,,,,,,15.000000,0.000000,0.619015,0.257751,-0.631165,0.389893,0.986937,-0.187523,0.066903,-12.753455,-44.311676,64.216759
1703406484.677809,1703406484.678601,61.000000,0.000000,4195.384766,4170.641113,4290.641113,4230.256348,4161.410156,4156.666504,4219.743652,4157.563965,4143.205078,4145.512695,4600.256348,4441.538574,4387.179688,4499.743652,0.000000,4.000000,79.000000,,,,0.000000,4.000000,4.000000,4.000000,4.000000,4.000000,4.000000,4.000000,4.000000,4.000000,4.000000,4.000000,4.000000,4.000000,4.000000,100.000000,,,,,,,,,,,,,,,,,,,,,,,,,,,,
1703406484.685617,1703406484.686409,62.000000,0.000000,4200.256348,4181.282227,4292.692383,4230.769043,4165.384766,4157.307617,4218.589844,4158.589844,4151.538574,4152.179688,4603.974121,4445.128418,4396.666504,4506.666504,0.000000,4.000000,79.000000,,,,0.000000,4.000000,4.000000,4.000000,4.000000,4.000000,4.000000,4.000000,4.000000,4.000000,4.000000,4.000000,4.000000,4.000000,4.000000,100.000000,,,,,,,,,,,,,,,,,,,,,,,,,,,,
1703406484.693425,1703406484.694217,63.000000,0.000000,4203.846191,4184.615234,4290.897461,4232.820313,4171.153809,4164.487305,4215.641113,4158.461426,4152.948730,4155.897461,4607.948730,4446.153809,4400.000000,4506.410156,0.000000,4.000000,79.000000,,,,0.000000,4.000000,4.000000,4.000000,4.000000,4.000000,4.000000,4.000000,4.000000,4.000000,4.000000,4.000000,4.000000,4.000000,4.000000,100.000000,,,,,,,,,,,,,,,,,,,,,,,,,,,,
1703406484.701233,1703406484.702025,64.000000,0.000000,4198.461426,4172.820313,4283.974121,4228.717773,4159.871582,4164.871582,4214.743652,4150.128418,4144.743652,4147.179688,4599.871582,4432.820313,4393.205078,4493.717773,4589.000000,4.000000,79.000000,,,,0.000000,4.000000,4.000000,4.000000,4.000000,4.000000,4.000000,4.000000,4.000000,4.000000,4.000000,4.000000,4.000000,4.000000,4.000000,100.000000,,,,,,,,,,,,,,,,,16.000000,0.000000,0.619003,0.257629,-0.631226,0.389893,0.964473,-0.181174,0.074716,-12.778110,-44.313839,64.045082
1703406484.709041,1703406484.709733,65.000000,0.000000,4196.153809,4171.538574,4282.051270,4222.948730,4151.282227,4163.461426,4212.436035,4134.358887,4135.384766,4135.000000,4589.102539,4424.871582,4391.025879,4486.538574,5220.000000,4.000000,79.000000,,,,0.000000,4.000000,4.000000,4.000000,4.000000,4.000000,4.000000,4.000000,4.000000,4.000000,4.000000,4.000000,4.000000,4.000000,4.000000,100.000000,,,,,,,,,,,,,,,,,,,,,,,,,,,,
1703406484.716849,1703406484.717541,66.000000,0.000000,4200.769043,4183.333496,4285.000000,4229.358887,4162.820313,4167.436035,4207.051270,4121.922852,4126.153809,4134.230957,4586.538574,4429.230957,4396.538574,4497.307617,5290.000000,4.000000,79.000000,,,,0.000000,4.000000,4.000000,4.000000,4.000000,4.000000,4.000000,4.000000,4.000000,4.000000,4.000000,4.000000,4.000000,4.000000,4.000000,100.000000,,,,,,,,,,,,,,,,,,,,,,,,,,,,
1703406484.724657,1703406484.725249,67.000000,0.000000,4203.205078,4186.794922,4287.179688,4238.846191,4166.922852,4170.000000,4201.025879,4116.794922,4118.974121,4136.922852,4586.666504,4428.205078,4396.794922,4506.410156,5297.000000,4.000000,79.000000,,,,0.000000,4.000000,4.000000,4.000000,4.000000,4.000000,4.000000,4.000000,4.000000,4.000000,4.000000,4.000000,4.000000,4.000000,4.000000,100.000000,,,,,,,,,,,,,,,,,,,,,,,,,,,,
1703406484.732466,1703406484.733057,68.000000,0.000000,4201.666504,4184.871582,4292.051270,4238.589844,4158.205078,4168.974121,4198.846191,4122.563965,4124.743652,4138.077148,4590.384766,4427.436035,4398.205078,4504.871582,5001.000000,4.000000,79.000000,,,,0.000000,4.000000,4.000000,4.000000,4.000000,4.000000,4.000000,4.000000,4.000000,4.000000,4.000000,4.000000,4.000000,4.000000,4.000000,100.000000,,,,,,,,,,,,,,,,,17.000000,0.000000,0.618903,0.257629,-0.631287,0.389954,0.968380,-0.179709,0.058113,-12.600299,-44.332455,64.023911
1703406484.740274,1703406484.740765,69.000000,0.000000,4200.256348,4186.410156,4294.615234,4233.846191,4159.743652,4170.256348,4201.666504,4137.692383,4136.538574,4139.743652,4602.051270,4437.820313,4408.717773,4504.487305,2825.000000,4.000000,79.000000,,,,0.000000,4.000000,4.000000,4.000000,4.000000,4.000000,4.000000,4.000000,4.000000,4.000000,4.000000,4.000000,4.000000,4.000000,4.000000,100.000000,,,,,,,,,,,,,,,,,,,,,,,,,,,,
1703406484.748082,1703406484.748673,70.000000,0.000000,4201.666504,4185.256348,4291.922852,4233.717773,4168.589844,4175.384766,4204.487305,4153.205078,4140.897461,4140.384766,4610.512695,4447.051270,4415.641113,4511.025879,3102.000000,4.000000,79.000000,,,,0.000000,4.000000,4.000000,4.000000,4.000000,4.000000,4.000000,4.000000,4.000000,4.000000,4.000000,4.000000,4.000000,4.000000,4.000000,100.000000,,,,,,,,,,,,,,,,,,,,,,,,,,,,
1703406484.755890,1703406484.756481,71.000000,0.000000,4206.025879,4185.641113,4293.846191,4239.487305,4166.282227,4184.230957,4206.410156,4165.128418,4143.205078,4141.153809,4611.410156,4449.102539,4414.487305,4515.128418,5377.000000,4.000000,79.000000,,,,0.000000,4.000000,4.000000,4.000000,4.000000,4.000000,4.000000,4.000000,4.000000,4.000000,4.000000,4.000000,4.000000,4.000000,4.000000,100.000000,,,,,,,,,,,,,,,,,,,,,,,,,,,,
1703406484.763698,1703406484.764390,72.000000,0.000000,4207.563965,4188.333496,4299.102539,4244.102539,4159.102539,4186.153809,4210.897461,4169.358887,4144.487305,4144.230957,4612.436035,4449.743652,4413.717773,4511.410156,4746.000000,4.000000,79.000000,,,,0.000000,4.000000,4.000000,4.000000,4.000000,4.000000,4.000000,4.000000,4.000000,4.000000,4.000000,4.000000,4.000000,4.000000,4.000000,100.000000,,,,,,,,,,,,,,,,,18.000000,0.000000,0.618813,0.257568,-0.631287,0.390137,0.970333,-0.182639,0.063973,-12.556935,-44.249210,63.988186
1703406484.771506,1703406484.772198,73.000000,0.000000,4202.307617,4185.769043,4296.410156,4239.358887,4157.436035,4182.051270,4211.282227,4166.153809,4142.692383,4145.128418,4610.641113,4450.384766,4413.717773,4507.948730,5223.000000,4.000000,79.000000,,,,0.000000,4.000000,4.000000,4.000000,4.000000,4.000000,4.000000,4.000000,4.000000,4.000000,4.000000,4.000000,4.000000,4.000000,4.000000,100.000000,,,,,,,,,,,,,,,,,,,,,,,,,,,,
1703406484.779314,1703406484.780106,74.000000,0.000000,4201.794922,4186.794922,4291.794922,4234.102539,4155.769043,4182.692383,4210.000000,4161.025879,4140.256348,4140.641113,4605.641113,4447.820313,4410.769043,4507.307617,5861.000000,4.000000,79.000000,,,,0.000000,4.000000,4.000000,4.000000,4.000000,4.000000,4.000000,4.000000,4.000000,4.000000,4.000000,4.000000,4.000000,4.000000,4.000000,100.000000,,,,,,,,,,,,,,,,,,,,,,,,,,,,
1703406484.787122,1703406484.787914,75.000000,0.000000,4201.282227,4185.512695,4289.871582,4233.846191,4155.384766,4183.846191,4212.692383,4156.410156,4137.692383,4135.641113,4595.512695,4442.179688,4400.384766,4500.384766,6147.000000,4.000000,79.000000,,,,0.000000,4.000000,4.000000,4.000000,4.000000,4.000000,4.000000,4.000000,4.000000,4.000000,4.000000,4.000000,4.000000,4.000000,4.000000,100.000000,,,,,,,,,,,,,,,,,,,,,,,,,,,,
1703406484.794930,1703406484.795722,76.000000,0.000000,4191.538574,4174.743652,4285.769043,4230.769043,4154.230957,4183.333496,4212.307617,4152.436035,4135.897461,4134.743652,4587.820313,4438.717773,4391.794922,4488.717773,6539.000000,4.000000,79.000000,,,,0.000000,4.000000,4.000000,4.000000,4.000000,4.000000,4.000000,4.000000,4.000000,4.000000,4.000000,4.000000,4.000000,4.000000,4.000000,100.000000,,,,,,,,,,,,,,,,,19.000000,0.000000,0.618823,0.257507,-0.631226,0.390259,0.990355,-0.181174,0.062996,-12.734575,-44.307625,64.006035
1703406484.802738,1703406484.803430,77.000000,0.000000,4189.871582,4173.333496,4285.512695,4228.461426,4155.128418,4183.974121,4211.794922,4153.717773,4138.846191,4138.077148,4593.846191,4442.948730,4396.538574,4491.282227,7030.000000,4.000000,79.000000,,,,0.000000,4.000000,4.000000,4.000000,4.000000,4.000000,4.000000,4.000000,4.000000,4.000000,4.000000,4.000000,4.000000,4.000000,4.000000,100.000000,,,,,,,,,,,,,,,,,,,,,,,,,,,,
1703406484.810546,1703406484.811338,78.000000,0.000000,4200.128418,4184.487305,4291.538574,4232.948730,4160.384766,4184.743652,4213.461426,4151.922852,4138.717773,4139.615234,4600.512695,4447.692383,4402.563965,4503.205078,5861.000000,4.000000,79.000000,,,,0.000000,4.000000,4.000000,4.000000,4.000000,4.000000,4.000000,4.000000,4.000000,4.000000,4.000000,4.000000,4.000000,4.000000,4.000000,100.000000,1.000000,83.333336,4.000000,4.000000,3.000000,4.000000,4.000000,4.000000,3.000000,4.000000,4.000000,4.000000,4.000000,4.000000,4.000000,4.000000,,,,,,,,,,,,
1703406484.818354,1703406484.819145,79.000000,0.000000,4204.871582,4190.128418,4296.538574,4238.205078,4161.410156,4184.743652,4210.256348,4136.922852,4129.743652,4135.384766,4597.436035,4445.128418,4403.589844,4506.282227,6147.000000,4.000000,79.000000,,,,0.000000,4.000000,4.000000,4.000000,4.000000,4.000000,4.000000,4.000000,4.000000,4.000000,4.000000,4.000000,4.000000,4.000000,4.000000,100.000000,,,,,,,,,,,,,,,,,,,,,,,,,,,,
1703406484.826162,1703406484.827053,80.000000,0.000000,4208.846191,4190.128418,4298.717773,4245.000000,4161.794922,4184.487305,4205.256348,4125.000000,4128.205078,4140.000000,4597.692383,4446.153809,4408.717773,4506.922852,6539.000000,4.000000,79.000000,,,,0.000000,4.000000,4.000000,4.000000,4.000000,4.000000,4.000000,4.000000,4.000000,4.000000,4.000000,4.000000,4.000000,4.000000,4.000000,100.000000,,,,,,,,,,,,,,,,,20.000000,0.000000,0.618798,0.257568,-0.631226,0.390259,0.964473,-0.193871,0.063973,-12.811117,-44.193527,64.222099
1703406484.833970,1703406484.834861,81.000000,0.000000,4214.871582,4190.384766,4297.051270,4246.666504,4163.589844,4184.871582,4204.102539,4130.769043,4136.025879,4150.256348,4602.948730,4451.025879,4414.871582,4510.128418,7030.000000,4.000000,79.000000,,,,0.000000,4.000000,4.000000,4.000000,4.000000,4.000000,4.000000,4.000000,4.000000,4.000000,4.000000,4.000000,4.000000,4.000000,4.000000,100.000000,,,,,,,,,,,,,,,,,,,,,,,,,,,,
1703406484.841778,1703406484.842769,82.000000,0.000000,4207.948730,4187.948730,4295.128418,4238.205078,4157.820313,4185.000000,4204.487305,4148.974121,4138.333496,4145.128418,4603.333496,4449.871582,4410.000000,4507.948730,5861.000000,4.000000,79.000000,,,,0.000000,4.000000,4.000000,4.000000,4.000000,4.000000,4.000000,4.000000,4.000000,4.000000,4.000000,4.000000,4.000000,4.000000,4.000000,100.000000,,,,,,,,,,,,,,,,,,,,,,,,,,,,
1703406484.849586,1703406484.850577,83.000000,0.000000,4199.615234,4187.179688,4297.179688,4234.487305,4151.794922,4185.000000,4206.282227,4165.897461,4142.563965,4138.077148,4603.717773,4454.358887,4405.000000,4506.538574,6147.000000,4.000000,79.000000,,,,0.000000,4.000000,4.000000,4.000000,4.000000,4.000000,4.000000,4.000000,4.000000,4.000000,4.000000,4.000000,4.000000,4.000000,4.000000,100.000000,,,,,,,,,,,,,,,,,,,,,,,,,,,,
