title:ليال انذار, start timestamp:1703407810.235891, stop timestamp:1703407821.018812, headset type:EPOCX, headset serial:E50206EF, headset firmware:720, channels:67, sampling rate:eeg_128;mot_32, samples:1382      , version:2.2, 
Timestamp,OriginalTimestamp,EEG.Counter,EEG.Interpolated,EEG.AF3,EEG.F7,EEG.F3,EEG.FC5,EEG.T7,EEG.P7,EEG.O1,EEG.O2,EEG.P8,EEG.T8,EEG.FC6,EEG.F4,EEG.F8,EEG.AF4,EEG.RawCq,EEG.Battery,EEG.BatteryPercent,MarkerIndex,MarkerType,MarkerValueInt,EEG.MarkerHardware,CQ.AF3,CQ.F7,CQ.F3,CQ.FC5,CQ.T7,CQ.P7,CQ.O1,CQ.O2,CQ.P8,CQ.T8,CQ.FC6,CQ.F4,CQ.F8,CQ.AF4,CQ.Overall,EQ.SampleRateQuality,EQ.OVERALL,EQ.AF3,EQ.F7,EQ.F3,EQ.FC5,EQ.T7,EQ.P7,EQ.O1,EQ.O2,EQ.P8,EQ.T8,EQ.FC6,EQ.F4,EQ.F8,EQ.AF4,MOT.CounterMems,MOT.InterpolatedMems,MOT.Q0,MOT.Q1,MOT.Q2,MOT.Q3,MOT.AccX,MOT.AccY,MOT.AccZ,MOT.MagX,MOT.MagY,MOT.MagZ
1703407810.235891,1703407810.235882,57.000000,0.000000,4156.538574,4170.128418,4289.102539,4246.666504,4171.666504,4154.871582,4208.333496,4165.769043,4174.743652,4182.563965,4627.436035,4456.922852,4406.538574,4490.000000,0.000000,4.000000,75.000000,,,,0.000000,4.000000,4.000000,4.000000,4.000000,4.000000,4.000000,4.000000,4.000000,4.000000,4.000000,4.000000,4.000000,4.000000,4.000000,100.000000,,,,,,,,,,,,,,,,,,,,,,,,,,,,
1703407810.243699,1703407810.243790,58.000000,0.000000,4168.717773,4167.307617,4282.692383,4240.769043,4167.051270,4159.358887,4204.871582,4168.974121,4178.205078,4183.846191,4625.128418,4454.615234,4403.205078,4485.769043,0.000000,4.000000,75.000000,,,,0.000000,4.000000,4.000000,4.000000,4.000000,4.000000,4.000000,4.000000,4.000000,4.000000,4.000000,4.000000,4.000000,4.000000,4.000000,100.000000,,,,,,,,,,,,,,,,,,,,,,,,,,,,
1703407810.251508,1703407810.251598,59.000000,0.000000,4175.256348,4163.589844,4278.205078,4235.128418,4168.974121,4163.589844,4213.205078,4157.307617,4169.743652,4175.384766,4613.846191,4442.436035,4399.358887,4489.743652,0.000000,4.000000,75.000000,,,,0.000000,4.000000,4.000000,4.000000,4.000000,4.000000,4.000000,4.000000,4.000000,4.000000,4.000000,4.000000,4.000000,4.000000,4.000000,100.000000,,,,,,,,,,,,,,,,,,,,,,,,,,,,
1703407810.259316,1703407810.259306,60.000000,0.000000,4165.384766,4156.794922,4275.512695,4238.077148,4168.717773,4159.615234,4218.077148,4150.256348,4156.025879,4159.358887,4602.051270,4433.333496,4389.615234,4490.000000,0.000000,4.000000,75.000000,,,,0.000000,4.000000,4.000000,4.000000,4.000000,4.000000,4.000000,4.000000,4.000000,4.000000,4.000000,4.000000,4.000000,4.000000,4.000000,100.000000,,,,,,,,,,,,,,,,,15.000000,0.000000,0.727823,-0.152588,-0.660645,-0.102661,0.992797,-0.086436,0.087901,-14.745081,-41.413418,65.476372
1703407810.267124,1703407810.267114,61.000000,0.000000,4159.615234,4156.794922,4274.358887,4235.512695,4169.102539,4161.666504,4212.179688,4151.922852,4149.743652,4146.025879,4597.692383,4434.871582,4378.974121,4493.589844,0.000000,4.000000,75.000000,,,,0.000000,4.000000,4.000000,4.000000,4.000000,4.000000,4.000000,4.000000,4.000000,4.000000,4.000000,4.000000,4.000000,4.000000,4.000000,100.000000,,,,,,,,,,,,,,,,,,,,,,,,,,,,
1703407810.274932,1703407810.274822,62.000000,0.000000,4175.128418,4166.922852,4278.461426,4231.025879,4172.179688,4168.974121,4215.512695,4154.743652,4148.717773,4137.436035,4599.487305,4441.410156,4377.820313,4501.922852,0.000000,4.000000,75.000000,,,,0.000000,4.000000,4.000000,4.000000,4.000000,4.000000,4.000000,4.000000,4.000000,4.000000,4.000000,4.000000,4.000000,4.000000,4.000000,100.000000,,,,,,,,,,,,,,,,,,,,,,,,,,,,
1703407810.282740,1703407810.282630,63.000000,0.000000,4186.794922,4173.717773,4283.589844,4234.743652,4171.153809,4164.615234,4218.974121,4154.743652,4144.743652,4136.025879,4601.410156,4442.179688,4380.256348,4500.897461,0.000000,4.000000,75.000000,,,,0.000000,4.000000,4.000000,4.000000,4.000000,4.000000,4.000000,4.000000,4.000000,4.000000,4.000000,4.000000,4.000000,4.000000,4.000000,100.000000,,,,,,,,,,,,,,,,,,,,,,,,,,,,
1703407810.290548,1703407810.290338,64.000000,0.000000,4176.794922,4170.384766,4279.102539,4239.102539,4168.589844,4156.922852,4209.230957,4143.846191,4139.358887,4137.307617,4592.948730,4432.820313,4373.974121,4492.563965,4918.000000,4.000000,75.000000,,,,0.000000,4.000000,4.000000,4.000000,4.000000,4.000000,4.000000,4.000000,4.000000,4.000000,4.000000,4.000000,4.000000,4.000000,4.000000,100.000000,,,,,,,,,,,,,,,,,16.000000,0.000000,0.727827,-0.152649,-0.660645,-0.102539,0.978147,-0.079111,0.077646,-14.753906,-41.455410,65.462067
1703407810.298356,1703407810.298146,65.000000,0.000000,4170.128418,4168.846191,4275.512695,4239.871582,4169.487305,4156.538574,4200.769043,4134.102539,4142.563965,4139.358887,4583.974121,4429.743652,4369.358887,4484.102539,5422.000000,4.000000,75.000000,,,,0.000000,4.000000,4.000000,4.000000,4.000000,4.000000,4.000000,4.000000,4.000000,4.000000,4.000000,4.000000,4.000000,4.000000,4.000000,100.000000,,,,,,,,,,,,,,,,,,,,,,,,,,,,
1703407810.306164,1703407810.305854,66.000000,0.000000,4178.717773,4175.641113,4285.000000,4245.641113,4172.563965,4150.512695,4197.820313,4144.358887,4156.282227,4155.384766,4593.846191,4442.563965,4377.436035,4487.179688,5212.000000,4.000000,75.000000,,,,0.000000,4.000000,4.000000,4.000000,4.000000,4.000000,4.000000,4.000000,4.000000,4.000000,4.000000,4.000000,4.000000,4.000000,4.000000,100.000000,,,,,,,,,,,,,,,,,,,,,,,,,,,,
1703407810.313972,1703407810.313762,67.000000,0.000000,4178.974121,4179.230957,4290.512695,4250.769043,4172.692383,4139.743652,4196.794922,4155.641113,4162.307617,4170.128418,4604.743652,4449.743652,4384.358887,4492.563965,5282.000000,4.000000,75.000000,,,,0.000000,4.000000,4.000000,4.000000,4.000000,4.000000,4.000000,4.000000,4.000000,4.000000,4.000000,4.000000,4.000000,4.000000,4.000000,100.000000,,,,,,,,,,,,,,,,,,,,,,,,,,,,
1703407810.321780,1703407810.321571,68.000000,0.000000,4169.487305,4175.512695,4283.589844,4246.282227,4168.846191,4139.487305,4198.589844,4153.974121,4160.128418,4167.436035,4601.922852,4441.666504,4379.871582,4479.230957,5096.000000,4.000000,75.000000,,,,0.000000,4.000000,4.000000,4.000000,4.000000,4.000000,4.000000,4.000000,4.000000,4.000000,4.000000,4.000000,4.000000,4.000000,4.000000,100.000000,,,,,,,,,,,,,,,,,17.000000,0.000000,0.727764,-0.152771,-0.660706,-0.102417,0.982053,-0.083018,0.079111,-14.761849,-41.409870,65.449196
1703407810.329588,1703407810.329479,69.000000,0.000000,4165.000000,4172.051270,4277.307617,4243.974121,4168.717773,4147.692383,4200.384766,4153.846191,4164.615234,4166.666504,4602.307617,4432.307617,4375.641113,4460.128418,4539.000000,4.000000,75.000000,,,,0.000000,4.000000,4.000000,4.000000,4.000000,4.000000,4.000000,4.000000,4.000000,4.000000,4.000000,4.000000,4.000000,4.000000,4.000000,100.000000,,,,,,,,,,,,,,,,,,,,,,,,,,,,
1703407810.337396,1703407810.337287,70.000000,0.000000,4156.025879,4170.000000,4273.974121,4241.410156,4173.717773,4154.230957,4202.179688,4157.563965,4172.051270,4172.307617,4604.615234,4430.128418,4377.436035,4455.256348,3092.000000,4.000000,75.000000,,,,0.000000,4.000000,4.000000,4.000000,4.000000,4.000000,4.000000,4.000000,4.000000,4.000000,4.000000,4.000000,4.000000,4.000000,4.000000,100.000000,,,,,,,,,,,,,,,,,,,,,,,,,,,,
1703407810.345204,1703407810.345195,71.000000,0.000000,4151.025879,4167.436035,4270.256348,4235.769043,4171.922852,4154.230957,4209.487305,4155.641113,4170.384766,4169.487305,4597.179688,4426.794922,4378.589844,4458.333496,5045.000000,4.000000,75.000000,,,,0.000000,4.000000,4.000000,4.000000,4.000000,4.000000,4.000000,4.000000,4.000000,4.000000,4.000000,4.000000,4.000000,4.000000,4.000000,100.000000,,,,,,,,,,,,,,,,,,,,,,,,,,,,
1703407810.353012,1703407810.353003,72.000000,0.000000,4160.000000,4168.333496,4270.641113,4238.333496,4174.230957,4157.051270,4214.358887,4151.666504,4167.051270,4167.051270,4598.461426,4426.538574,4380.384766,4456.922852,4839.000000,4.000000,75.000000,,,,0.000000,4.000000,4.000000,4.000000,4.000000,4.000000,4.000000,4.000000,4.000000,4.000000,4.000000,4.000000,4.000000,4.000000,4.000000,100.000000,,,,,,,,,,,,,,,,,18.000000,0.000000,0.727738,-0.152710,-0.660767,-0.102295,0.995239,-0.083995,0.088390,-14.918998,-41.552216,65.537605
1703407810.360820,1703407810.360911,73.000000,0.000000,4166.153809,4178.205078,4279.487305,4241.538574,4187.436035,4166.666504,4213.717773,4152.820313,4169.230957,4172.179688,4611.666504,4439.743652,4388.717773,4456.538574,5111.000000,4.000000,75.000000,,,,0.000000,4.000000,4.000000,4.000000,4.000000,4.000000,4.000000,4.000000,4.000000,4.000000,4.000000,4.000000,4.000000,4.000000,4.000000,100.000000,,,,,,,,,,,,,,,,,,,,,,,,,,,,
1703407810.368628,1703407810.368720,74.000000,0.000000,4170.512695,4181.794922,4290.128418,4237.692383,4185.512695,4170.128418,4215.384766,4156.025879,4168.461426,4172.179688,4612.307617,4448.974121,4393.077148,4466.282227,5901.000000,4.000000,75.000000,,,,0.000000,4.000000,4.000000,4.000000,4.000000,4.000000,4.000000,4.000000,4.000000,4.000000,4.000000,4.000000,4.000000,4.000000,4.000000,100.000000,,,,,,,,,,,,,,,,,,,,,,,,,,,,
1703407810.376436,1703407810.376628,75.000000,0.000000,4171.666504,4174.743652,4287.179688,4236.922852,4172.563965,4160.641113,4217.307617,4156.922852,4157.820313,4167.307617,4603.846191,4442.051270,4387.692383,4472.436035,6068.000000,4.000000,75.000000,,,,0.000000,4.000000,4.000000,4.000000,4.000000,4.000000,4.000000,4.000000,4.000000,4.000000,4.000000,4.000000,4.000000,4.000000,4.000000,100.000000,,,,,,,,,,,,,,,,,,,,,,,,,,,,
1703407810.384245,1703407810.384436,76.000000,0.000000,4156.794922,4174.615234,4280.512695,4243.974121,4169.487305,4153.333496,4216.410156,4156.794922,4150.384766,4162.307617,4603.846191,4436.538574,4383.333496,4471.410156,6598.000000,4.000000,75.000000,,,,0.000000,4.000000,4.000000,4.000000,4.000000,4.000000,4.000000,4.000000,4.000000,4.000000,4.000000,4.000000,4.000000,4.000000,4.000000,100.000000,,,,,,,,,,,,,,,,,19.000000,0.000000,0.727649,-0.152649,-0.660889,-0.102234,0.990844,-0.085460,0.079111,-14.877098,-41.513660,65.533844
1703407810.392053,1703407810.392344,77.000000,0.000000,4157.820313,4184.358887,4285.897461,4246.025879,4171.794922,4155.512695,4213.589844,4160.128418,4160.769043,4162.307617,4610.128418,4449.102539,4391.922852,4496.282227,7170.000000,4.000000,75.000000,,,,0.000000,4.000000,4.000000,4.000000,4.000000,4.000000,4.000000,4.000000,4.000000,4.000000,4.000000,4.000000,4.000000,4.000000,4.000000,100.000000,,,,,,,,,,,,,,,,,,,,,,,,,,,,
1703407810.399861,1703407810.400152,78.000000,0.000000,4191.794922,4187.051270,4290.769043,4244.615234,4177.051270,4155.897461,4206.666504,4160.641113,4172.179688,4170.000000,4615.769043,4463.589844,4404.871582,4518.461426,5901.000000,4.000000,75.000000,,,,0.000000,4.000000,4.000000,4.000000,4.000000,4.000000,4.000000,4.000000,4.000000,4.000000,4.000000,4.000000,4.000000,4.000000,4.000000,100.000000,,,,,,,,,,,,,,,,,,,,,,,,,,,,
1703407810.407669,1703407810.408060,79.000000,0.000000,4206.538574,4183.974121,4287.307617,4247.436035,4181.666504,4148.461426,4201.410156,4156.282227,4171.922852,4174.615234,4619.102539,4462.307617,4406.666504,4492.948730,6068.000000,4.000000,75.000000,,,,0.000000,4.000000,4.000000,4.000000,4.000000,4.000000,4.000000,4.000000,4.000000,4.000000,4.000000,4.000000,4.000000,4.000000,4.000000,100.000000,,,,,,,,,,,,,,,,,,,,,,,,,,,,
1703407810.415477,1703407810.415868,80.000000,0.000000,4187.179688,4187.051270,4292.179688,4251.666504,4173.589844,4138.333496,4201.922852,4155.128418,4170.897461,4170.769043,4620.897461,4461.025879,4399.230957,4488.461426,6598.000000,4.000000,75.000000,,,,0.000000,4.000000,4.000000,4.000000,4.000000,4.000000,4.000000,4.000000,4.000000,4.000000,4.000000,4.000000,4.000000,4.000000,4.000000,100.000000,,,,,,,,,,,,,,,,,20.000000,0.000000,0.727687,-0.152466,-0.660889,-0.102234,0.987425,-0.074228,0.082530,-14.822721,-41.512295,65.430466
1703407810.423285,1703407810.423676,81.000000,0.000000,4181.410156,4186.153809,4297.307617,4250.512695,4164.743652,4133.846191,4200.512695,4153.717773,4167.307617,4168.077148,4618.461426,4462.692383,4397.179688,4531.282227,7170.000000,4.000000,75.000000,,,,0.000000,4.000000,4.000000,4.000000,4.000000,4.000000,4.000000,4.000000,4.000000,4.000000,4.000000,4.000000,4.000000,4.000000,4.000000,100.000000,,,,,,,,,,,,,,,,,,,,,,,,,,,,
1703407810.431093,1703407810.431484,82.000000,0.000000,4192.820313,4176.410156,4286.153809,4238.333496,4170.384766,4142.563965,4205.128418,4151.538574,4157.692383,4167.692383,4609.743652,4451.538574,4394.871582,4527.563965,5901.000000,4.000000,75.000000,,,,0.000000,4.000000,4.000000,4.000000,4.000000,4.000000,4.000000,4.000000,4.000000,4.000000,4.000000,4.000000,4.000000,4.000000,4.000000,100.000000,,,,,,,,,,,,,,,,,,,,,,,,,,,,
1703407810.438901,1703407810.439192,83.000000,0.000000,4180.128418,4165.769043,4276.025879,4226.025879,4171.666504,4158.461426,4216.794922,4152.948730,4151.410156,4160.128418,4598.974121,4437.692383,4381.794922,4471.538574,6068.000000,4.000000,75.000000,,,,0.000000,4.000000,4.000000,4.000000,4.000000,4.000000,4.000000,4.000000,4.000000,4.000000,4.000000,4.000000,4.000000,4.000000,4.000000,100.000000,,,,,,,,,,,,,,,,,,,,,,,,,,,,
1703407810.446709,1703407810.447000,84.000000,0.000000,4156.153809,4163.974121,4276.538574,4225.641113,4167.563965,4167.179688,4220.641113,4155.256348,4156.666504,4156.666504,4598.846191,4437.820313,4375.769043,4454.743652,6598.000000,4.000000,75.000000,,,,0.000000,4.000000,4.000000,4.000000,4.000000,4.000000,4.000000,4.000000,4.000000,4.000000,4.000000,4.000000,4.000000,4.000000,4.000000,100.000000,,,,,,,,,,,,,,,,,21.000000,0.000000,0.727662,-0.152405,-0.660950,-0.102112,0.979123,-0.086925,0.085948,-14.857116,-41.627731,65.387413
1703407810.454517,1703407810.454708,85.000000,0.000000,4153.846191,4169.615234,4272.692383,4230.897461,4178.717773,4168.846191,4218.205078,4158.846191,4168.205078,4168.589844,4603.333496,4436.282227,4385.897461,4474.615234,7170.000000,4.000000,75.000000,,,,0.000000,4.000000,4.000000,4.000000,4.000000,4.000000,4.000000,4.000000,4.000000,4.000000,4.000000,4.000000,4.000000,4.000000,4.000000,100.000000,,,,,,,,,,,,,,,,,,,,,,,,,,,,
1703407810.462325,1703407810.462616,86.000000,0.000000,4151.282227,4168.589844,4266.794922,4231.794922,4188.333496,4171.025879,4218.974121,4166.282227,4180.128418,4178.717773,4600.641113,4427.179688,4390.897461,4473.846191,5901.000000,4.000000,75.000000,,,,0.000000,4.000000,4.000000,4.000000,4.000000,4.000000,4.000000,4.000000,4.000000,4.000000,4.000000,4.000000,4.000000,4.000000,4.000000,100.000000,,,,,,,,,,,,,,,,,,,,,,,,,,,,
1703407810.470133,1703407810.470424,87.000000,0.000000,4141.666504,4166.153809,4268.846191,4231.282227,4181.922852,4166.794922,4218.077148,4170.128418,4183.846191,4177.563965,4598.461426,4426.025879,4383.717773,4456.922852,6068.000000,4.000000,75.000000,,,,0.000000,4.000000,4.000000,4.000000,4.000000,4.000000,4.000000,4.000000,4.000000,4.000000,4.000000,4.000000,4.000000,4.000000,4.000000,100.000000,1.000000,75.000000,4.000000,4.000000,4.000000,4.000000,4.000000,4.000000,4.000000,4.000000,4.000000,4.000000,4.000000,4.000000,4.000000,1.000000,,,,,,,,,,,,
1703407810.477941,1703407810.478332,88.000000,0.000000,4149.615234,4172.948730,4274.615234,4236.794922,4178.333496,4156.538574,4214.871582,4166.410156,4175.256348,4173.333496,4600.384766,4428.077148,4378.846191,4450.897461,6598.000000,4.000000,75.000000,,,,0.000000,4.000000,4.000000,4.000000,4.000000,4.000000,4.000000,4.000000,4.000000,4.000000,4.000000,4.000000,4.000000,4.000000,4.000000,100.000000,,,,,,,,,,,,,,,,,22.000000,0.000000,0.727692,-0.152649,-0.660889,-0.101929,0.984495,-0.093273,0.078135,-14.921404,-41.664959,65.448677
1703407810.485749,1703407810.486140,89.000000,0.000000,4164.743652,4180.128418,4279.230957,4242.820313,4181.922852,4153.333496,4213.974121,4157.692383,4163.589844,4163.974121,4599.871582,4427.692383,4380.769043,4447.051270,7170.000000,4.000000,75.000000,,,,0.000000,4.000000,4.000000,4.000000,4.000000,4.000000,4.000000,4.000000,4.000000,4.000000,4.000000,4.000000,4.000000,4.000000,4.000000,100.000000,,,,,,,,,,,,,,,,,,,,,,,,,,,,
1703407810.493557,1703407810.494048,90.000000,0.000000,4168.846191,4180.897461,4286.025879,4246.282227,4180.641113,4154.487305,4211.153809,4143.974121,4153.589844,4154.871582,4600.897461,4431.538574,4382.948730,4449.102539,5901.000000,4.000000,75.000000,,,,0.000000,4.000000,4.000000,4.000000,4.000000,4.000000,4.000000,4.000000,4.000000,4.000000,4.000000,4.000000,4.000000,4.000000,4.000000,100.000000,,,,,,,,,,,,,,,,,,,,,,,,,,,,
1703407810.501365,1703407810.501857,91.000000,0.000000,4177.692383,4183.846191,4289.871582,4247.692383,4181.666504,4155.641113,4211.666504,4142.436035,4151.153809,4159.615234,4606.538574,4440.641113,4388.589844,4477.436035,6068.000000,4.000000,75.000000,,,,0.000000,4.000000,4.000000,4.000000,4.000000,4.000000,4.000000,4.000000,4.000000,4.000000,4.000000,4.000000,4.000000,4.000000,4.000000,100.000000,,,,,,,,,,,,,,,,,,,,,,,,,,,,
1703407810.509173,1703407810.509665,92.000000,0.000000,4194.871582,4194.743652,4290.897461,4248.974121,4186.025879,4158.333496,4217.563965,4154.230957,4159.871582,4171.794922,4616.282227,4456.410156,4403.333496,4495.897461,6598.000000,4.000000,75.000000,,,,0.000000,4.000000,4.000000,4.000000,4.000000,4.000000,4.000000,4.000000,4.000000,4.000000,4.000000,4.000000,4.000000,4.000000,4.000000,100.000000,,,,,,,,,,,,,,,,,23.000000,0.000000,0.727704,-0.152893,-0.660828,-0.101868,0.977170,-0.092785,0.081553,-15.012597,-41.698463,65.287140
1703407810.516981,1703407810.517373,93.000000,0.000000,4202.692383,4202.692383,4298.205078,4252.436035,4183.589844,4158.974121,4218.717773,4156.794922,4168.589844,4176.410156,4629.743652,4475.641113,4414.743652,4495.769043,7170.000000,4.000000,75.000000,,,,0.000000,4.000000,4.000000,4.000000,4.000000,4.000000,4.000000,4.000000,4.000000,4.000000,4.000000,4.000000,4.000000,4.000000,4.000000,100.000000,,,,,,,,,,,,,,,,,,,,,,,,,,,,
1703407810.524789,1703407810.525181,94.000000,0.000000,4204.615234,4198.846191,4303.077148,4251.794922,4183.077148,4154.102539,4214.487305,4157.820313,4169.102539,4175.384766,4633.974121,4480.512695,4415.641113,4512.051270,5901.000000,4.000000,75.000000,,,,0.000000,4.000000,4.000000,4.000000,4.000000,4.000000,4.000000,4.000000,4.000000,4.000000,4.000000,4.000000,4.000000,4.000000,4.000000,100.000000,,,,,,,,,,,,,,,,,,,,,,,,,,,,
1703407810.532597,1703407810.532889,95.000000,0.000000,4202.307617,4195.256348,4299.743652,4247.563965,4185.256348,4151.025879,4209.358887,4168.333496,4169.230957,4174.230957,4624.358887,4468.461426,4414.615234,4525.384766,6068.000000,4.000000,75.000000,,,,0.000000,4.000000,4.000000,4.000000,4.000000,4.000000,4.000000,4.000000,4.000000,4.000000,4.000000,4.000000,4.000000,4.000000,4.000000,100.000000,,,,,,,,,,,,,,,,,,,,,,,,,,,,
1703407810.540406,1703407810.540797,96.000000,0.000000,4199.102539,4197.051270,4294.871582,4251.025879,4183.077148,4152.179688,4211.025879,4168.846191,4170.641113,4171.538574,4617.307617,4458.461426,4410.000000,4504.358887,6598.000000,4.000000,75.000000,,,,0.000000,4.000000,4.000000,4.000000,4.000000,4.000000,4.000000,4.000000,4.000000,4.000000,4.000000,4.000000,4.000000,4.000000,4.000000,100.000000,,,,,,,,,,,,,,,,,24.000000,0.000000,0.727542,-0.152954,-0.661011,-0.101746,0.984984,-0.083018,0.078135,-15.194671,-41.645283,65.225090
1703407810.548214,1703407810.548605,97.000000,0.000000,4192.179688,4192.179688,4288.205078,4248.333496,4181.153809,4152.307617,4212.563965,4156.922852,4165.769043,4170.256348,4614.230957,4452.436035,4398.974121,4469.230957,7170.000000,4.000000,75.000000,,,,0.000000,4.000000,4.000000,4.000000,4.000000,4.000000,4.000000,4.000000,4.000000,4.000000,4.000000,4.000000,4.000000,4.000000,4.000000,100.000000,,,,,,,,,,,,,,,,,,,,,,,,,,,,
1703407810.556022,1703407810.556513,98.000000,0.000000,4172.051270,4181.922852,4277.948730,4235.641113,4182.051270,4150.769043,4207.051270,4151.922852,4163.205078,4167.948730,4603.461426,4438.077148,4392.436035,4458.205078,5901.000000,4.000000,75.000000,,,,0.000000,4.000000,4.000000,4.000000,4.000000,4.000000,4.000000,4.000000,4.000000,4.000000,4.000000,4.000000,4.000000,4.000000,4.000000,100.000000,,,,,,,,,,,,,,,,,,,,,,,,,,,,
1703407810.563830,1703407810.564322,99.000000,0.000000,4154.230957,4178.205078,4271.025879,4236.410156,4182.436035,4152.563965,4206.922852,4149.743652,4165.000000,4167.692383,4595.256348,4426.153809,4391.538574,4458.717773,6068.000000,4.000000,75.000000,,,,0.000000,4.000000,4.000000,4.000000,4.000000,4.000000,4.000000,4.000000,4.000000,4.000000,4.000000,4.000000,4.000000,4.000000,4.000000,100.000000,,,,,,,,,,,,,,,,,,,,,,,,,,,,
1703407810.571638,1703407810.572229,100.000000,0.000000,4150.000000,4176.025879,4268.589844,4242.820313,4183.461426,4158.205078,4214.871582,4145.897461,4159.615234,4171.025879,4599.743652,4427.692383,4385.384766,4443.717773,6598.000000,4.000000,75.000000,,,,0.000000,4.000000,4.000000,4.000000,4.000000,4.000000,4.000000,4.000000,4.000000,4.000000,4.000000,4.000000,4.000000,4.000000,4.000000,100.000000,,,,,,,,,,,,,,,,,25.000000,0.000000,0.727508,-0.152893,-0.661072,-0.101685,0.977658,-0.086436,0.083018,-15.075204,-41.580753,65.285919
1703407810.579446,1703407810.580037,101.000000,0.000000,4152.563965,4169.615234,4267.307617,4231.282227,4185.641113,4159.358887,4216.025879,4142.820313,4154.102539,4167.179688,4600.769043,4428.333496,4378.333496,4427.179688,7170.000000,4.000000,75.000000,,,,0.000000,4.000000,4.000000,4.000000,4.000000,4.000000,4.000000,4.000000,4.000000,4.000000,4.000000,4.000000,4.000000,4.000000,4.000000,100.000000,,,,,,,,,,,,,,,,,,,,,,,,,,,,
1703407810.587254,1703407810.587945,102.000000,0.000000,4157.179688,4168.205078,4270.641113,4227.179688,4180.512695,4157.179688,4211.922852,4140.641113,4152.307617,4156.538574,4593.333496,4424.230957,4375.512695,4433.717773,5901.000000,4.000000,75.000000,,,,0.000000,4.000000,4.000000,4.000000,4.000000,4.000000,4.000000,4.000000,4.000000,4.000000,4.000000,4.000000,4.000000,4.000000,4.000000,100.000000,,,,,,,,,,,,,,,,,,,,,,,,,,,,
1703407810.595062,1703407810.595753,103.000000,0.000000,4170.641113,4174.743652,4276.538574,4244.102539,4174.230957,4156.410156,4215.256348,4145.641113,4153.333496,4155.512695,4594.871582,4430.897461,4377.948730,4449.871582,6068.000000,4.000000,75.000000,,,,0.000000,4.000000,4.000000,4.000000,4.000000,4.000000,4.000000,4.000000,4.000000,4.000000,4.000000,4.000000,4.000000,4.000000,4.000000,100.000000,,,,,,,,,,,,,,,,,,,,,,,,,,,,
1703407810.602870,1703407810.603661,104.000000,0.000000,4188.589844,4184.358887,4284.743652,4248.846191,4180.512695,4155.512695,4220.256348,4155.384766,4162.051270,4166.538574,4608.077148,4450.256348,4389.743652,4455.641113,6598.000000,4.000000,75.000000,,,,0.000000,4.000000,4.000000,4.000000,4.000000,4.000000,4.000000,4.000000,4.000000,4.000000,4.000000,4.000000,4.000000,4.000000,4.000000,100.000000,,,,,,,,,,,,,,,,,26.000000,0.000000,0.727615,-0.152954,-0.660950,-0.101624,0.989379,-0.096203,0.084483,-15.117683,-41.622681,65.273994
1703407810.610678,1703407810.611469,105.000000,0.000000,4191.282227,4188.077148,4291.794922,4241.025879,4185.384766,4153.846191,4214.487305,4158.205078,4168.974121,4170.641113,4615.641113,4463.333496,4399.743652,4466.410156,7170.000000,4.000000,75.000000,,,,0.000000,4.000000,4.000000,4.000000,4.000000,4.000000,4.000000,4.000000,4.000000,4.000000,4.000000,4.000000,4.000000,4.000000,4.000000,100.000000,,,,,,,,,,,,,,,,,,,,,,,,,,,,
1703407810.618486,1703407810.619177,106.000000,0.000000,4189.230957,4185.128418,4288.333496,4246.666504,4176.794922,4151.922852,4205.897461,4160.256348,4165.897461,4167.436035,4614.743652,4464.358887,4397.820313,4483.205078,5901.000000,4.000000,75.000000,,,,0.000000,4.000000,4.000000,4.000000,4.000000,4.000000,4.000000,4.000000,4.000000,4.000000,4.000000,4.000000,4.000000,4.000000,4.000000,100.000000,,,,,,,,,,,,,,,,,,,,,,,,,,,,
1703407810.626294,1703407810.626985,107.000000,0.000000,4203.717773,4185.000000,4288.461426,4250.384766,4171.410156,4148.846191,4205.000000,4164.743652,4166.922852,4168.717773,4616.410156,4461.153809,4397.179688,4492.948730,6068.000000,4.000000,75.000000,,,,0.000000,4.000000,4.000000,4.000000,4.000000,4.000000,4.000000,4.000000,4.000000,4.000000,4.000000,4.000000,4.000000,4.000000,4.000000,100.000000,,,,,,,,,,,,,,,,,,,,,,,,,,,,
1703407810.634102,1703407810.634693,108.000000,0.000000,4203.333496,4184.230957,4295.384766,4239.615234,4180.256348,4149.743652,4207.436035,4163.077148,4172.436035,4170.897461,4620.000000,4454.230957,4402.692383,4482.820313,6598.000000,4.000000,75.000000,,,,0.000000,4.000000,4.000000,4.000000,4.000000,4.000000,4.000000,4.000000,4.000000,4.000000,4.000000,4.000000,4.000000,4.000000,4.000000,100.000000,,,,,,,,,,,,,,,,,27.000000,0.000000,0.727781,-0.153259,-0.660706,-0.101563,0.982053,-0.107435,0.084483,-15.189248,-41.660412,65.379929
1703407810.641910,1703407810.642501,109.000000,0.000000,4178.333496,4174.871582,4288.333496,4240.128418,4182.820313,4159.743652,4208.205078,4159.615234,4168.333496,4168.717773,4617.051270,4448.333496,4396.538574,4458.077148,7170.000000,4.000000,75.000000,,,,0.000000,4.000000,4.000000,4.000000,4.000000,4.000000,4.000000,4.000000,4.000000,4.000000,4.000000,4.000000,4.000000,4.000000,4.000000,100.000000,,,,,,,,,,,,,,,,,,,,,,,,,,,,
1703407810.649718,1703407810.650209,110.000000,0.000000,4175.000000,4161.922852,4272.436035,4250.512695,4174.487305,4168.717773,4214.230957,4158.205078,4160.512695,4166.794922,4610.512695,4442.436035,4383.205078,4453.461426,5901.000000,4.000000,75.000000,,,,0.000000,4.000000,4.000000,4.000000,4.000000,4.000000,4.000000,4.000000,4.000000,4.000000,4.000000,4.000000,4.000000,4.000000,4.000000,100.000000,,,,,,,,,,,,,,,,,,,,,,,,,,,,
1703407810.657526,1703407810.658017,111.000000,0.000000,4187.179688,4160.769043,4270.128418,4247.436035,4169.358887,4172.436035,4220.384766,4155.512695,4155.000000,4166.538574,4609.230957,4438.077148,4380.256348,4457.051270,6068.000000,4.000000,75.000000,,,,0.000000,4.000000,4.000000,4.000000,4.000000,4.000000,4.000000,4.000000,4.000000,4.000000,4.000000,4.000000,4.000000,4.000000,4.000000,100.000000,,,,,,,,,,,,,,,,,,,,,,,,,,,,
1703407810.665334,1703407810.665725,112.000000,0.000000,4174.743652,4163.461426,4279.871582,4243.974121,4173.589844,4176.538574,4219.102539,4153.333496,4151.410156,4164.102539,4606.794922,4437.307617,4384.871582,4445.641113,6598.000000,4.000000,75.000000,,,,0.000000,4.000000,4.000000,4.000000,4.000000,4.000000,4.000000,4.000000,4.000000,4.000000,4.000000,4.000000,4.000000,4.000000,4.000000,100.000000,,,,,,,,,,,,,,,,,28.000000,0.000000,0.727746,-0.153503,-0.660706,-0.101440,0.975217,-0.078623,0.093761,-15.220324,-41.494370,65.391937
1703407810.673142,1703407810.673533,113.000000,0.000000,4164.230957,4159.358887,4283.846191,4249.102539,4175.128418,4176.666504,4216.025879,4152.692383,4153.333496,4162.820313,4602.820313,4435.769043,4385.641113,4442.820313,7170.000000,4.000000,75.000000,,,,0.000000,4.000000,4.000000,4.000000,4.000000,4.000000,4.000000,4.000000,4.000000,4.000000,4.000000,4.000000,4.000000,4.000000,4.000000,100.000000,,,,,,,,,,,,,,,,,,,,,,,,,,,,
1703407810.680951,1703407810.681241,114.000000,0.000000,4179.871582,4157.051270,4280.897461,4248.717773,4168.717773,4170.128418,4215.000000,4151.666504,4153.205078,4166.538574,4605.512695,4434.102539,4383.205078,4447.948730,5901.000000,4.000000,75.000000,,,,0.000000,4.000000,4.000000,4.000000,4.000000,4.000000,4.000000,4.000000,4.000000,4.000000,4.000000,4.000000,4.000000,4.000000,4.000000,100.000000,,,,,,,,,,,,,,,,,,,,,,,,,,,,
1703407810.688758,1703407810.689049,115.000000,0.000000,4184.102539,4159.487305,4288.846191,4244.871582,4170.769043,4170.897461,4215.000000,4152.307617,4151.410156,4167.179688,4609.871582,4442.179688,4383.974121,4447.692383,6068.000000,4.000000,75.000000,,,,0.000000,4.000000,4.000000,4.000000,4.000000,4.000000,4.000000,4.000000,4.000000,4.000000,4.000000,4.000000,4.000000,4.000000,4.000000,100.000000,,,,,,,,,,,,,,,,,,,,,,,,,,,,
1703407810.696567,1703407810.696757,116.000000,0.000000,4183.974121,4166.666504,4302.436035,4251.282227,4183.461426,4178.333496,4217.179688,4159.487305,4157.820313,4167.436035,4615.384766,4455.641113,4393.589844,4464.358887,6598.000000,4.000000,75.000000,,,,0.000000,4.000000,4.000000,4.000000,4.000000,4.000000,4.000000,4.000000,4.000000,4.000000,4.000000,4.000000,4.000000,4.000000,4.000000,100.000000,,,,,,,,,,,,,,,,,29.000000,0.000000,0.727682,-0.153442,-0.660828,-0.101196,0.981565,-0.090343,0.088878,-15.331625,-41.544933,65.319405
1703407810.704375,1703407810.704565,117.000000,0.000000,4199.615234,4174.487305,4303.974121,4257.179688,4186.410156,4181.922852,4217.948730,4168.461426,4169.230957,4175.128418,4624.871582,4459.487305,4403.717773,4480.128418,7170.000000,4.000000,75.000000,,,,0.000000,4.000000,4.000000,4.000000,4.000000,4.000000,4.000000,4.000000,4.000000,4.000000,4.000000,4.000000,4.000000,4.000000,4.000000,100.000000,,,,,,,,,,,,,,,,,,,,,,,,,,,,
1703407810.712183,1703407810.712273,118.000000,0.000000,4202.820313,4174.102539,4302.436035,4254.358887,4175.897461,4183.461426,4217.179688,4173.846191,4181.282227,4183.077148,4628.333496,4461.922852,4402.948730,4458.974121,5901.000000,4.000000,75.000000,,,,0.000000,4.000000,4.000000,4.000000,4.000000,4.000000,4.000000,4.000000,4.000000,4.000000,4.000000,4.000000,4.000000,4.000000,4.000000,100.000000,,,,,,,,,,,,,,,,,,,,,,,,,,,,
1703407810.719991,1703407810.720182,119.000000,0.000000,4193.974121,4168.461426,4303.077148,4250.000000,4168.589844,4179.743652,4215.641113,4172.820313,4185.128418,4179.230957,4618.077148,4461.410156,4396.282227,4450.128418,6068.000000,4.000000,75.000000,,,,0.000000,4.000000,4.000000,4.000000,4.000000,4.000000,4.000000,4.000000,4.000000,4.000000,4.000000,4.000000,4.000000,4.000000,4.000000,100.000000,,,,,,,,,,,,,,,,,,,,,,,,,,,,
1703407810.727799,1703407810.727990,120.000000,0.000000,4193.077148,4165.512695,4294.358887,4245.128418,4168.333496,4171.538574,4215.769043,4172.179688,4178.461426,4166.538574,4607.563965,4447.563965,4388.205078,4467.692383,6598.000000,4.000000,75.000000,,,,0.000000,4.000000,4.000000,4.000000,4.000000,4.000000,4.000000,4.000000,4.000000,4.000000,4.000000,4.000000,4.000000,4.000000,4.000000,100.000000,,,,,,,,,,,,,,,,,30.000000,0.000000,0.727618,-0.153381,-0.660950,-0.100952,0.999145,-0.092785,0.086436,-15.215129,-41.507107,65.304131
1703407810.735607,1703407810.735898,121.000000,0.000000,4185.512695,4161.282227,4284.871582,4238.461426,4162.307617,4171.025879,4217.436035,4171.666504,4167.692383,4157.051270,4601.282227,4433.333496,4377.820313,4452.436035,7170.000000,4.000000,75.000000,,,,0.000000,4.000000,4.000000,4.000000,4.000000,4.000000,4.000000,4.000000,4.000000,4.000000,4.000000,4.000000,4.000000,4.000000,4.000000,100.000000,,,,,,,,,,,,,,,,,,,,,,,,,,,,
1703407810.743415,1703407810.743706,122.000000,0.000000,4164.358887,4152.948730,4283.205078,4231.922852,4152.820313,4174.230957,4217.051270,4163.717773,4154.743652,4148.461426,4591.922852,4427.307617,4366.025879,4424.102539,5901.000000,4.000000,75.000000,,,,0.000000,4.000000,4.000000,4.000000,4.000000,4.000000,4.000000,4.000000,4.000000,4.000000,4.000000,4.000000,4.000000,4.000000,4.000000,100.000000,,,,,,,,,,,,,,,,,,,,,,,,,,,,
1703407810.751223,1703407810.751614,123.000000,0.000000,4162.820313,4150.384766,4280.000000,4230.256348,4157.051270,4171.025879,4215.128418,4155.384766,4147.436035,4141.538574,4587.179688,4422.307617,4359.230957,4427.307617,6068.000000,4.000000,75.000000,,,,0.000000,4.000000,4.000000,4.000000,4.000000,4.000000,4.000000,4.000000,4.000000,4.000000,4.000000,4.000000,4.000000,4.000000,4.000000,100.000000,,,,,,,,,,,,,,,,,,,,,,,,,,,,
1703407810.759031,1703407810.759422,124.000000,0.000000,4173.205078,4157.563965,4283.333496,4237.563965,4169.871582,4172.948730,4218.846191,4153.974121,4149.487305,4146.410156,4590.512695,4421.153809,4363.333496,4426.153809,6598.000000,4.000000,75.000000,,,,0.000000,4.000000,4.000000,4.000000,4.000000,4.000000,4.000000,4.000000,4.000000,4.000000,4.000000,4.000000,4.000000,4.000000,4.000000,100.000000,,,,,,,,,,,,,,,,,31.000000,0.000000,0.727644,-0.153381,-0.660950,-0.100769,0.981077,-0.089366,0.070809,-15.243616,-41.556396,65.240387
1703407810.766839,1703407810.767330,125.000000,0.000000,4173.974121,4162.436035,4289.615234,4244.871582,4174.358887,4185.128418,4225.641113,4151.538574,4147.692383,4151.153809,4590.769043,4427.179688,4367.820313,4414.743652,7170.000000,4.000000,75.000000,,,,0.000000,4.000000,4.000000,4.000000,4.000000,4.000000,4.000000,4.000000,4.000000,4.000000,4.000000,4.000000,4.000000,4.000000,4.000000,100.000000,,,,,,,,,,,,,,,,,,,,,,,,,,,,
1703407810.774647,1703407810.775138,126.000000,0.000000,4169.615234,4155.512695,4284.102539,4237.563965,4171.922852,4183.974121,4224.487305,4139.487305,4139.487305,4147.820313,4585.769043,4422.692383,4360.256348,4422.307617,5901.000000,4.000000,75.000000,,,,0.000000,4.000000,4.000000,4.000000,4.000000,4.000000,4.000000,4.000000,4.000000,4.000000,4.000000,4.000000,4.000000,4.000000,4.000000,100.000000,,,,,,,,,,,,,,,,,,,,,,,,,,,,
1703407810.782455,1703407810.783046,127.000000,0.000000,4159.615234,4149.358887,4277.563965,4227.948730,4170.128418,4170.769043,4218.717773,4132.179688,4137.051270,4148.333496,4583.846191,4412.051270,4355.897461,4427.692383,75.000000,4.000000,75.000000,,,,0.000000,4.000000,4.000000,4.000000,4.000000,4.000000,4.000000,4.000000,4.000000,4.000000,4.000000,4.000000,4.000000,4.000000,4.000000,100.000000,,,,,,,,,,,,,,,,,,,,,,,,,,,,
1703407810.790263,1703407810.790854,0.000000,0.000000,4158.333496,4153.846191,4274.230957,4231.410156,4169.487305,4167.692383,4219.743652,4141.794922,4142.692383,4151.666504,4586.538574,4415.000000,4365.384766,4419.358887,4926.000000,4.000000,75.000000,,,,0.000000,4.000000,4.000000,4.000000,4.000000,4.000000,4.000000,4.000000,4.000000,4.000000,4.000000,4.000000,4.000000,4.000000,4.000000,100.000000,,,,,,,,,,,,,,,,,0.000000,0.000000,0.727512,-0.153320,-0.661072,-0.101013,0.988402,-0.080576,0.082041,-15.069254,-41.584091,65.299683
1703407810.798071,1703407810.798762,1.000000,0.000000,4166.794922,4155.256348,4266.282227,4235.384766,4168.461426,4171.538574,4226.794922,4158.589844,4155.000000,4153.589844,4594.358887,4422.692383,4369.871582,4424.102539,5422.000000,4.000000,75.000000,,,,0.000000,4.000000,4.000000,4.000000,4.000000,4.000000,4.000000,4.000000,4.000000,4.000000,4.000000,4.000000,4.000000,4.000000,4.000000,100.000000,,,,,,,,,,,,,,,,,,,,,,,,,,,,
1703407810.805879,1703407810.806570,2.000000,0.000000,4172.948730,4154.102539,4262.692383,4235.384766,4170.384766,4171.410156,4231.922852,4174.358887,4171.153809,4164.487305,4602.307617,4428.589844,4367.179688,4440.256348,5222.000000,4.000000,75.000000,,,,0.000000,4.000000,4.000000,4.000000,4.000000,4.000000,4.000000,4.000000,4.000000,4.000000,4.000000,4.000000,4.000000,4.000000,4.000000,100.000000,,,,,,,,,,,,,,,,,,,,,,,,,,,,
1703407810.813687,1703407810.814478,3.000000,0.000000,4183.589844,4159.102539,4274.615234,4232.563965,4171.794922,4172.820313,4232.563965,4186.666504,4181.538574,4175.384766,4604.615234,4438.717773,4373.333496,4443.717773,5283.000000,4.000000,75.000000,,,,0.000000,4.000000,4.000000,4.000000,4.000000,4.000000,4.000000,4.000000,4.000000,4.000000,4.000000,4.000000,4.000000,4.000000,4.000000,100.000000,,,,,,,,,,,,,,,,,,,,,,,,,,,,
1703407810.821495,1703407810.822286,4.000000,0.000000,4194.102539,4159.615234,4285.897461,4230.769043,4171.410156,4176.025879,4234.487305,4187.948730,4188.333496,4172.563965,4612.051270,4446.538574,4382.307617,4443.717773,5098.000000,4.000000,75.000000,,,,0.000000,4.000000,4.000000,4.000000,4.000000,4.000000,4.000000,4.000000,4.000000,4.000000,4.000000,4.000000,4.000000,4.000000,4.000000,100.000000,,,,,,,,,,,,,,,,,1.000000,0.000000,0.727533,-0.153137,-0.661072,-0.101135,0.981077,-0.091808,0.083018,-14.962329,-41.525681,65.353043
1703407810.829303,1703407810.829994,5.000000,0.000000,4192.307617,4157.307617,4284.615234,4236.666504,4171.666504,4174.102539,4238.974121,4177.179688,4186.410156,4169.358887,4620.512695,4446.153809,4382.692383,4457.436035,4539.000000,4.000000,75.000000,,,,0.000000,4.000000,4.000000,4.000000,4.000000,4.000000,4.000000,4.000000,4.000000,4.000000,4.000000,4.000000,4.000000,4.000000,4.000000,100.000000,,,,,,,,,,,,,,,,,,,,,,,,,,,,
1703407810.837112,1703407810.837802,6.000000,0.000000,4188.205078,4155.769043,4281.666504,4236.666504,4169.615234,4170.641113,4238.589844,4168.589844,4175.256348,4170.897461,4616.666504,4446.282227,4380.128418,4461.153809,3094.000000,4.000000,75.000000,,,,0.000000,4.000000,4.000000,4.000000,4.000000,4.000000,4.000000,4.000000,4.000000,4.000000,4.000000,4.000000,4.000000,4.000000,4.000000,100.000000,,,,,,,,,,,,,,,,,,,,,,,,,,,,
1703407810.844920,1703407810.845510,7.000000,0.000000,4183.589844,4155.897461,4281.410156,4230.512695,4168.333496,4170.384766,4233.333496,4168.974121,4165.384766,4165.000000,4609.743652,4448.717773,4380.384766,4447.179688,5045.000000,4.000000,75.000000,,,,0.000000,4.000000,4.000000,4.000000,4.000000,4.000000,4.000000,4.000000,4.000000,4.000000,4.000000,4.000000,4.000000,4.000000,4.000000,100.000000,,,,,,,,,,,,,,,,,,,,,,,,,,,,
1703407810.852728,1703407810.853318,8.000000,0.000000,4174.871582,4162.820313,4276.153809,4231.538574,4170.000000,4171.153809,4234.358887,4167.692383,4158.077148,4156.538574,4607.179688,4443.077148,4380.641113,4443.846191,4839.000000,4.000000,75.000000,,,,0.000000,4.000000,4.000000,4.000000,4.000000,4.000000,4.000000,4.000000,4.000000,4.000000,4.000000,4.000000,4.000000,4.000000,4.000000,100.000000,,,,,,,,,,,,,,,,,2.000000,0.000000,0.727623,-0.152649,-0.661011,-0.101624,0.998169,-0.086436,0.073251,-14.966096,-41.406445,65.451073
1703407810.860536,1703407810.861026,9.000000,0.000000,4170.128418,4168.333496,4267.307617,4233.077148,4168.974121,4168.974121,4236.410156,4160.512695,4153.717773,4156.025879,4602.692383,4431.794922,4375.128418,4437.820313,5111.000000,4.000000,75.000000,,,,0.000000,4.000000,4.000000,4.000000,4.000000,4.000000,4.000000,4.000000,4.000000,4.000000,4.000000,4.000000,4.000000,4.000000,4.000000,100.000000,,,,,,,,,,,,,,,,,,,,,,,,,,,,
1703407810.868344,1703407810.868834,10.000000,0.000000,4172.820313,4166.666504,4270.384766,4232.436035,4168.205078,4163.717773,4232.179688,4155.641113,4156.153809,4155.128418,4599.487305,4428.974121,4366.538574,4410.897461,5901.000000,4.000000,75.000000,,,,0.000000,4.000000,4.000000,4.000000,4.000000,4.000000,4.000000,4.000000,4.000000,4.000000,4.000000,4.000000,4.000000,4.000000,4.000000,100.000000,,,,,,,,,,,,,,,,,,,,,,,,,,,,
1703407810.876152,1703407810.876542,11.000000,0.000000,4178.717773,4168.205078,4278.333496,4240.256348,4178.846191,4163.974121,4230.256348,4150.128418,4156.410156,4151.922852,4598.077148,4431.922852,4366.922852,4415.128418,6080.000000,4.000000,75.000000,,,,0.000000,4.000000,4.000000,4.000000,4.000000,4.000000,4.000000,4.000000,4.000000,4.000000,4.000000,4.000000,4.000000,4.000000,4.000000,100.000000,,,,,,,,,,,,,,,,,,,,,,,,,,,,
1703407810.883960,1703407810.884350,12.000000,0.000000,4182.692383,4172.436035,4278.461426,4249.487305,4185.897461,4170.769043,4233.846191,4140.512695,4154.102539,4157.436035,4599.230957,4432.179688,4376.153809,4444.230957,6598.000000,4.000000,75.000000,,,,0.000000,4.000000,4.000000,4.000000,4.000000,4.000000,4.000000,4.000000,4.000000,4.000000,4.000000,4.000000,4.000000,4.000000,4.000000,100.000000,,,,,,,,,,,,,,,,,3.000000,0.000000,0.727687,-0.152405,-0.660950,-0.101929,0.983518,-0.075693,0.081553,-14.902820,-41.415802,65.355965
1703407810.891768,1703407810.892058,13.000000,0.000000,4185.384766,4171.794922,4276.410156,4250.256348,4176.538574,4168.333496,4234.615234,4134.871582,4155.384766,4162.948730,4603.333496,4432.692383,4378.974121,4435.256348,7174.000000,4.000000,75.000000,,,,0.000000,4.000000,4.000000,4.000000,4.000000,4.000000,4.000000,4.000000,4.000000,4.000000,4.000000,4.000000,4.000000,4.000000,4.000000,100.000000,,,,,,,,,,,,,,,,,,,,,,,,,,,,
1703407810.899576,1703407810.899866,14.000000,0.000000,4182.692383,4166.538574,4274.487305,4244.487305,4169.102539,4156.794922,4232.051270,4135.384766,4153.461426,4156.410156,4596.794922,4428.077148,4368.205078,4411.794922,5901.000000,4.000000,75.000000,,,,0.000000,4.000000,4.000000,4.000000,4.000000,4.000000,4.000000,4.000000,4.000000,4.000000,4.000000,4.000000,4.000000,4.000000,4.000000,100.000000,,,,,,,,,,,,,,,,,,,,,,,,,,,,
1703407810.907384,1703407810.907574,15.000000,0.000000,4167.307617,4157.051270,4270.384766,4236.282227,4168.717773,4152.948730,4232.179688,4139.615234,4151.666504,4149.487305,4583.333496,4415.512695,4356.922852,4413.846191,6080.000000,4.000000,75.000000,,,,0.000000,4.000000,4.000000,4.000000,4.000000,4.000000,4.000000,4.000000,4.000000,4.000000,4.000000,4.000000,4.000000,4.000000,4.000000,100.000000,,,,,,,,,,,,,,,,,,,,,,,,,,,,
1703407810.915192,1703407810.915482,16.000000,0.000000,4155.000000,4155.512695,4268.333496,4230.512695,4167.820313,4160.000000,4235.641113,4153.846191,4163.077148,4153.461426,4585.256348,4415.384766,4358.974121,4423.846191,0.000000,4.000000,75.000000,,,,0.000000,4.000000,4.000000,4.000000,4.000000,4.000000,4.000000,4.000000,4.000000,4.000000,4.000000,4.000000,4.000000,4.000000,4.000000,100.000000,,,,,,,,,,,,,,,,,4.000000,0.000000,0.727593,-0.152466,-0.661011,-0.102112,0.967403,-0.087901,0.088878,-14.929204,-41.424221,65.353706
1703407810.923000,1703407810.923290,17.000000,0.000000,4172.179688,4163.974121,4271.025879,4230.128418,4167.820313,4166.538574,4236.666504,4170.128418,4172.948730,4160.000000,4595.256348,4429.102539,4364.743652,4427.436035,0.000000,4.000000,75.000000,,,,0.000000,4.000000,4.000000,4.000000,4.000000,4.000000,4.000000,4.000000,4.000000,4.000000,4.000000,4.000000,4.000000,4.000000,4.000000,100.000000,,,,,,,,,,,,,,,,,,,,,,,,,,,,
1703407810.930808,1703407810.931198,18.000000,0.000000,4201.153809,4168.589844,4275.128418,4234.230957,4168.205078,4163.974121,4235.256348,4167.307617,4171.025879,4159.358887,4594.871582,4431.666504,4361.538574,4424.871582,0.000000,4.000000,75.000000,,,,0.000000,4.000000,4.000000,4.000000,4.000000,4.000000,4.000000,4.000000,4.000000,4.000000,4.000000,4.000000,4.000000,4.000000,4.000000,100.000000,,,,,,,,,,,,,,,,,,,,,,,,,,,,
1703407810.938616,1703407810.939007,19.000000,0.000000,4201.922852,4170.384766,4279.487305,4242.563965,4170.512695,4161.538574,4234.358887,4155.128418,4167.307617,4154.615234,4589.871582,4424.743652,4358.974121,4425.128418,0.000000,4.000000,75.000000,,,,0.000000,4.000000,4.000000,4.000000,4.000000,4.000000,4.000000,4.000000,4.000000,4.000000,4.000000,4.000000,4.000000,4.000000,4.000000,100.000000,,,,,,,,,,,,,,,,,,,,,,,,,,,,
1703407810.946424,1703407810.946915,20.000000,0.000000,4186.666504,4174.102539,4282.948730,4247.692383,4174.871582,4166.025879,4234.102539,4151.538574,4161.794922,4152.692383,4588.205078,4428.205078,4363.846191,4437.948730,0.000000,4.000000,75.000000,,,,0.000000,4.000000,4.000000,4.000000,4.000000,4.000000,4.000000,4.000000,4.000000,4.000000,4.000000,4.000000,4.000000,4.000000,4.000000,100.000000,,,,,,,,,,,,,,,,,5.000000,0.000000,0.727615,-0.152405,-0.661011,-0.102051,0.982053,-0.083506,0.090343,-14.886284,-41.531799,65.285004
1703407810.954232,1703407810.954723,21.000000,0.000000,4189.743652,4179.102539,4283.717773,4247.692383,4171.922852,4166.153809,4235.512695,4155.512695,4159.743652,4156.410156,4594.487305,4436.282227,4371.153809,4449.487305,0.000000,4.000000,75.000000,,,,0.000000,4.000000,4.000000,4.000000,4.000000,4.000000,4.000000,4.000000,4.000000,4.000000,4.000000,4.000000,4.000000,4.000000,4.000000,100.000000,,,,,,,,,,,,,,,,,,,,,,,,,,,,
1703407810.962040,1703407810.962631,22.000000,0.000000,4200.256348,4180.384766,4285.384766,4248.846191,4166.025879,4158.974121,4235.384766,4157.307617,4164.230957,4157.436035,4601.025879,4434.230957,4377.692383,4442.820313,0.000000,4.000000,75.000000,,,,0.000000,4.000000,4.000000,4.000000,4.000000,4.000000,4.000000,4.000000,4.000000,4.000000,4.000000,4.000000,4.000000,4.000000,4.000000,100.000000,,,,,,,,,,,,,,,,,,,,,,,,,,,,
1703407810.969849,1703407810.970439,23.000000,0.000000,4190.128418,4176.153809,4285.769043,4247.307617,4169.487305,4157.820313,4232.692383,4148.333496,4161.153809,4154.871582,4594.358887,4424.487305,4377.436035,4433.589844,0.000000,4.000000,75.000000,,,,0.000000,4.000000,4.000000,4.000000,4.000000,4.000000,4.000000,4.000000,4.000000,4.000000,4.000000,4.000000,4.000000,4.000000,4.000000,100.000000,1.000000,91.666664,4.000000,4.000000,4.000000,4.000000,4.000000,4.000000,4.000000,4.000000,4.000000,4.000000,4.000000,4.000000,4.000000,3.000000,,,,,,,,,,,,
1703407810.977656,1703407810.978347,24.000000,0.000000,4180.897461,4169.358887,4288.205078,4244.615234,4172.563965,4161.025879,4231.922852,4142.563965,4152.948730,4157.948730,4591.282227,4421.922852,4374.102539,4438.974121,0.000000,4.000000,75.000000,,,,0.000000,4.000000,4.000000,4.000000,4.000000,4.000000,4.000000,4.000000,4.000000,4.000000,4.000000,4.000000,4.000000,4.000000,4.000000,100.000000,,,,,,,,,,,,,,,,,6.000000,0.000000,0.727683,-0.152161,-0.661011,-0.101929,0.980588,-0.090831,0.084971,-14.730989,-41.411953,65.223167
1703407810.985464,1703407810.986155,25.000000,0.000000,4190.384766,4170.256348,4291.153809,4248.589844,4170.128418,4157.948730,4232.307617,4150.128418,4154.871582,4161.025879,4603.077148,4430.512695,4376.153809,4441.282227,0.000000,4.000000,75.000000,,,,0.000000,4.000000,4.000000,4.000000,4.000000,4.000000,4.000000,4.000000,4.000000,4.000000,4.000000,4.000000,4.000000,4.000000,4.000000,100.000000,,,,,,,,,,,,,,,,,,,,,,,,,,,,
1703407810.993273,1703407810.994063,26.000000,0.000000,4191.153809,4172.820313,4287.692383,4248.333496,4168.846191,4159.487305,4229.743652,4155.256348,4156.922852,4157.436035,4605.897461,4433.846191,4375.897461,4431.282227,0.000000,4.000000,75.000000,,,,0.000000,4.000000,4.000000,4.000000,4.000000,4.000000,4.000000,4.000000,4.000000,4.000000,4.000000,4.000000,4.000000,4.000000,4.000000,100.000000,,,,,,,,,,,,,,,,,,,,,,,,,,,,
1703407811.001081,1703407811.001871,27.000000,0.000000,4183.717773,4165.384766,4279.743652,4237.820313,4163.717773,4168.461426,4232.563965,4151.282227,4151.922852,4153.461426,4598.077148,4428.974121,4369.871582,4425.769043,0.000000,4.000000,75.000000,,,,0.000000,4.000000,4.000000,4.000000,4.000000,4.000000,4.000000,4.000000,4.000000,4.000000,4.000000,4.000000,4.000000,4.000000,4.000000,100.000000,,,,,,,,,,,,,,,,,,,,,,,,,,,,
1703407811.008889,1703407811.009579,28.000000,0.000000,4185.000000,4156.922852,4276.025879,4230.128418,4160.256348,4171.538574,4239.487305,4156.538574,4158.461426,4155.897461,4598.974121,4425.641113,4368.717773,4425.897461,0.000000,4.000000,75.000000,,,,0.000000,4.000000,4.000000,4.000000,4.000000,4.000000,4.000000,4.000000,4.000000,4.000000,4.000000,4.000000,4.000000,4.000000,4.000000,100.000000,,,,,,,,,,,,,,,,,7.000000,0.000000,0.727611,-0.152283,-0.661072,-0.101868,0.978635,-0.084971,0.083018,-14.691223,-41.370758,65.284187
1703407811.016697,1703407811.017387,29.000000,0.000000,4186.666504,4157.563965,4275.897461,4231.410156,4165.256348,4169.230957,4237.948730,4168.461426,4170.512695,4163.461426,4603.077148,4431.282227,4374.743652,4429.871582,0.000000,4.000000,75.000000,,,,0.000000,4.000000,4.000000,4.000000,4.000000,4.000000,4.000000,4.000000,4.000000,4.000000,4.000000,4.000000,4.000000,4.000000,4.000000,100.000000,,,,,,,,,,,,,,,,,,,,,,,,,,,,
1703407811.024505,1703407811.025095,30.000000,0.000000,4181.025879,4160.256348,4278.333496,4228.846191,4170.769043,4170.256348,4234.743652,4169.743652,4171.538574,4165.256348,4606.410156,4443.717773,4378.974121,4448.717773,0.000000,4.000000,75.000000,,,,0.000000,4.000000,4.000000,4.000000,4.000000,4.000000,4.000000,4.000000,4.000000,4.000000,4.000000,4.000000,4.000000,4.000000,4.000000,100.000000,,,,,,,,,,,,,,,,,,,,,,,,,,,,
1703407811.032313,1703407811.032903,31.000000,0.000000,4183.461426,4160.897461,4283.589844,4227.820313,4168.846191,4168.589844,4236.282227,4168.461426,4169.871582,4161.153809,4611.666504,4450.641113,4378.461426,4467.051270,0.000000,4.000000,75.000000,,,,0.000000,4.000000,4.000000,4.000000,4.000000,4.000000,4.000000,4.000000,4.000000,4.000000,4.000000,4.000000,4.000000,4.000000,4.000000,100.000000,,,,,,,,,,,,,,,,,,,,,,,,,,,,
1703407811.040121,1703407811.040611,32.000000,0.000000,4199.358887,4166.282227,4282.948730,4238.974121,4165.897461,4159.487305,4236.666504,4168.589844,4172.692383,4160.641113,4611.794922,4446.666504,4376.538574,4469.615234,0.000000,4.000000,75.000000,,,,0.000000,4.000000,4.000000,4.000000,4.000000,4.000000,4.000000,4.000000,4.000000,4.000000,4.000000,4.000000,4.000000,4.000000,4.000000,100.000000,,,,,,,,,,,,,,,,,8.000000,0.000000,0.727559,-0.152344,-0.661133,-0.101746,0.992309,-0.091808,0.085948,-14.672101,-41.350349,65.272430
1703407811.047929,1703407811.048519,33.000000,0.000000,4206.282227,4167.436035,4276.282227,4240.769043,4169.230957,4155.256348,4236.282227,4164.230957,4169.615234,4162.436035,4606.922852,4442.179688,4375.000000,4458.205078,0.000000,4.000000,75.000000,,,,0.000000,4.000000,4.000000,4.000000,4.000000,4.000000,4.000000,4.000000,4.000000,4.000000,4.000000,4.000000,4.000000,4.000000,4.000000,100.000000,,,,,,,,,,,,,,,,,,,,,,,,,,,,
1703407811.055737,1703407811.056327,34.000000,0.000000,4200.384766,4164.487305,4278.717773,4235.769043,4171.153809,4155.384766,4231.153809,4155.256348,4159.871582,4157.307617,4600.641113,4445.128418,4371.538574,4444.615234,0.000000,4.000000,75.000000,,,,0.000000,4.000000,4.000000,4.000000,4.000000,4.000000,4.000000,4.000000,4.000000,4.000000,4.000000,4.000000,4.000000,4.000000,4.000000,100.000000,,,,,,,,,,,,,,,,,,,,,,,,,,,,
1703407811.063545,1703407811.064235,35.000000,0.000000,4201.922852,4170.000000,4285.512695,4243.461426,4166.922852,4146.666504,4220.384766,4145.000000,4149.743652,4152.179688,4596.025879,4445.384766,4368.077148,4451.410156,0.000000,4.000000,75.000000,,,,0.000000,4.000000,4.000000,4.000000,4.000000,4.000000,4.000000,4.000000,4.000000,4.000000,4.000000,4.000000,4.000000,4.000000,4.000000,100.000000,,,,,,,,,,,,,,,,,,,,,,,,,,,,
1703407811.071353,1703407811.072144,36.000000,0.000000,4206.922852,4176.538574,4289.871582,4255.769043,4171.538574,4137.820313,4213.974121,4137.820313,4143.333496,4153.589844,4596.538574,4441.153809,4367.563965,4462.563965,0.000000,4.000000,75.000000,,,,0.000000,4.000000,4.000000,4.000000,4.000000,4.000000,4.000000,4.000000,4.000000,4.000000,4.000000,4.000000,4.000000,4.000000,4.000000,100.000000,,,,,,,,,,,,,,,,,9.000000,0.000000,0.727512,-0.152344,-0.661194,-0.101685,0.992309,-0.092785,0.078135,-14.704891,-41.331982,65.428520
1703407811.079161,1703407811.079952,37.000000,0.000000,4201.666504,4175.769043,4291.922852,4253.717773,4185.897461,4144.102539,4216.794922,4136.410156,4148.205078,4155.512695,4597.563965,4440.641113,4367.563965,4450.897461,0.000000,4.000000,75.000000,,,,0.000000,4.000000,4.000000,4.000000,4.000000,4.000000,4.000000,4.000000,4.000000,4.000000,4.000000,4.000000,4.000000,4.000000,4.000000,100.000000,,,,,,,,,,,,,,,,,,,,,,,,,,,,
1703407811.086969,1703407811.087761,38.000000,0.000000,4195.000000,4172.820313,4293.205078,4241.282227,4184.358887,4152.307617,4223.461426,4139.230957,4156.153809,4156.538574,4593.461426,4444.871582,4364.487305,4437.051270,0.000000,4.000000,75.000000,,,,0.000000,4.000000,4.000000,4.000000,4.000000,4.000000,4.000000,4.000000,4.000000,4.000000,4.000000,4.000000,4.000000,4.000000,4.000000,100.000000,,,,,,,,,,,,,,,,,,,,,,,,,,,,
1703407811.094777,1703407811.095569,39.000000,0.000000,4199.615234,4171.025879,4293.461426,4241.538574,4170.128418,4153.333496,4228.589844,4146.153809,4160.000000,4154.102539,4593.846191,4446.410156,4361.410156,4443.846191,0.000000,4.000000,75.000000,,,,0.000000,4.000000,4.000000,4.000000,4.000000,4.000000,4.000000,4.000000,4.000000,4.000000,4.000000,4.000000,4.000000,4.000000,4.000000,100.000000,,,,,,,,,,,,,,,,,,,,,,,,,,,,
1703407811.102585,1703407811.103277,40.000000,0.000000,4201.153809,4169.358887,4287.436035,4243.717773,4166.282227,4157.307617,4234.487305,4154.615234,4165.512695,4151.922852,4595.897461,4441.794922,4360.384766,4446.794922,0.000000,4.000000,75.000000,,,,0.000000,4.000000,4.000000,4.000000,4.000000,4.000000,4.000000,4.000000,4.000000,4.000000,4.000000,4.000000,4.000000,4.000000,4.000000,100.000000,,,,,,,,,,,,,,,,,10.000000,0.000000,0.727414,-0.152283,-0.661316,-0.101685,0.985472,-0.080088,0.073739,-14.684402,-41.232117,65.402336
1703407811.110393,1703407811.111185,41.000000,0.000000,4192.051270,4165.256348,4276.922852,4234.487305,4167.436035,4162.948730,4242.563965,4157.692383,4169.358887,4154.487305,4591.922852,4440.769043,4358.846191,4432.948730,0.000000,4.000000,75.000000,,,,0.000000,4.000000,4.000000,4.000000,4.000000,4.000000,4.000000,4.000000,4.000000,4.000000,4.000000,4.000000,4.000000,4.000000,4.000000,100.000000,,,,,,,,,,,,,,,,,,,,,,,,,,,,
1703407811.118201,1703407811.118994,42.000000,0.000000,4182.179688,4162.051270,4276.025879,4233.846191,4168.205078,4161.282227,4242.563965,4155.128418,4163.589844,4155.769043,4593.461426,4444.102539,4360.512695,4430.641113,0.000000,4.000000,75.000000,,,,0.000000,4.000000,4.000000,4.000000,4.000000,4.000000,4.000000,4.000000,4.000000,4.000000,4.000000,4.000000,4.000000,4.000000,4.000000,100.000000,,,,,,,,,,,,,,,,,,,,,,,,,,,,
1703407811.126010,1703407811.126902,43.000000,0.000000,4183.589844,4167.307617,4286.538574,4241.153809,4168.846191,4156.794922,4233.974121,4153.717773,4156.025879,4156.025879,4598.974121,4444.230957,4365.000000,4443.717773,0.000000,4.000000,75.000000,,,,0.000000,4.000000,4.000000,4.000000,4.000000,4.000000,4.000000,4.000000,4.000000,4.000000,4.000000,4.000000,4.000000,4.000000,4.000000,100.000000,,,,,,,,,,,,,,,,,,,,,,,,,,,,
1703407811.133818,1703407811.134710,44.000000,0.000000,4194.615234,4170.128418,4285.641113,4236.282227,4168.589844,4153.461426,4230.128418,4150.897461,4154.358887,4153.846191,4593.333496,4441.025879,4363.589844,4455.000000,0.000000,4.000000,75.000000,,,,0.000000,4.000000,4.000000,4.000000,4.000000,4.000000,4.000000,4.000000,4.000000,4.000000,4.000000,4.000000,4.000000,4.000000,4.000000,100.000000,,,,,,,,,,,,,,,,,11.000000,0.000000,0.727333,-0.152222,-0.661438,-0.101563,0.983518,-0.099133,0.080088,-14.732628,-41.342236,65.395439
1703407811.141626,1703407811.142618,45.000000,0.000000,4202.948730,4167.563965,4277.948730,4235.641113,4173.461426,4151.922852,4232.692383,4151.794922,4156.025879,4152.948730,4593.333496,4442.948730,4364.102539,4457.307617,0.000000,4.000000,75.000000,,,,0.000000,4.000000,4.000000,4.000000,4.000000,4.000000,4.000000,4.000000,4.000000,4.000000,4.000000,4.000000,4.000000,4.000000,4.000000,100.000000,,,,,,,,,,,,,,,,,,,,,,,,,,,,
1703407811.149434,1703407811.150426,46.000000,0.000000,4200.512695,4171.153809,4282.820313,4248.846191,4176.794922,4148.974121,4229.358887,4156.410156,4158.077148,4156.025879,4603.077148,4447.436035,4370.769043,4445.769043,0.000000,4.000000,75.000000,,,,0.000000,4.000000,4.000000,4.000000,4.000000,4.000000,4.000000,4.000000,4.000000,4.000000,4.000000,4.000000,4.000000,4.000000,4.000000,100.000000,,,,,,,,,,,,,,,,,,,,,,,,,,,,
1703407811.157242,1703407811.158334,47.000000,0.000000,4194.102539,4173.974121,4289.871582,4250.000000,4171.025879,4142.436035,4223.205078,4151.538574,4155.512695,4155.641113,4600.384766,4447.692383,4369.743652,4435.897461,0.000000,4.000000,75.000000,,,,0.000000,4.000000,4.000000,4.000000,4.000000,4.000000,4.000000,4.000000,4.000000,4.000000,4.000000,4.000000,4.000000,4.000000,4.000000,100.000000,,,,,,,,,,,,,,,,,,,,,,,,,,,,
1703407811.165050,1703407811.166142,48.000000,0.000000,4186.025879,4170.000000,4290.128418,4242.820313,4169.102539,4139.102539,4219.230957,4140.512695,4146.922852,4152.179688,4594.871582,4444.230957,4363.205078,4441.794922,0.000000,4.000000,75.000000,,,,0.000000,4.000000,4.000000,4.000000,4.000000,4.000000,4.000000,4.000000,4.000000,4.000000,4.000000,4.000000,4.000000,4.000000,4.000000,100.000000,,,,,,,,,,,,,,,,,12.000000,0.000000,0.727397,-0.152039,-0.661438,-0.101379,0.993285,-0.084971,0.080576,-14.626032,-41.458012,65.322556
1703407811.172858,1703407811.174050,49.000000,0.000000,4182.820313,4172.563965,4292.820313,4248.589844,4175.769043,4141.025879,4216.282227,4137.820313,4140.897461,4152.307617,4601.538574,4443.589844,4364.487305,4441.922852,0.000000,4.000000,75.000000,,,,0.000000,4.000000,4.000000,4.000000,4.000000,4.000000,4.000000,4.000000,4.000000,4.000000,4.000000,4.000000,4.000000,4.000000,4.000000,100.000000,,,,,,,,,,,,,,,,,,,,,,,,,,,,
1703407811.180666,1703407811.181858,50.000000,0.000000,4193.974121,4179.871582,4297.436035,4258.077148,4175.897461,4140.384766,4217.436035,4142.179688,4145.000000,4154.487305,4605.641113,4454.358887,4368.846191,4431.666504,0.000000,4.000000,75.000000,,,,0.000000,4.000000,4.000000,4.000000,4.000000,4.000000,4.000000,4.000000,4.000000,4.000000,4.000000,4.000000,4.000000,4.000000,4.000000,100.000000,,,,,,,,,,,,,,,,,,,,,,,,,,,,
1703407811.188474,1703407811.189566,51.000000,0.000000,4199.102539,4176.538574,4295.512695,4257.948730,4173.333496,4140.256348,4217.820313,4140.128418,4153.589844,4153.333496,4599.871582,4456.666504,4366.153809,4436.025879,0.000000,4.000000,75.000000,,,,0.000000,4.000000,4.000000,4.000000,4.000000,4.000000,4.000000,4.000000,4.000000,4.000000,4.000000,4.000000,4.000000,4.000000,4.000000,100.000000,,,,,,,,,,,,,,,,,,,,,,,,,,,,
1703407811.196282,1703407811.197374,52.000000,0.000000,4185.897461,4167.436035,4288.589844,4245.769043,4178.974121,4146.025879,4216.794922,4137.179688,4152.179688,4152.051270,4593.077148,4440.641113,4360.384766,4442.436035,0.000000,4.000000,75.000000,,,,0.000000,4.000000,4.000000,4.000000,4.000000,4.000000,4.000000,4.000000,4.000000,4.000000,4.000000,4.000000,4.000000,4.000000,4.000000,100.000000,,,,,,,,,,,,,,,,,13.000000,0.000000,0.727380,-0.152283,-0.661438,-0.101135,0.982053,-0.098157,0.077646,-14.713428,-41.345547,65.340302
1703407811.204090,1703407811.205082,53.000000,0.000000,4180.384766,4162.820313,4278.717773,4231.025879,4178.846191,4152.692383,4222.307617,4142.820313,4149.230957,4151.922852,4588.333496,4432.563965,4357.436035,4432.436035,0.000000,4.000000,75.000000,,,,0.000000,4.000000,4.000000,4.000000,4.000000,4.000000,4.000000,4.000000,4.000000,4.000000,4.000000,4.000000,4.000000,4.000000,4.000000,100.000000,,,,,,,,,,,,,,,,,,,,,,,,,,,,
1703407811.211898,1703407811.212890,54.000000,0.000000,4183.333496,4161.538574,4274.743652,4230.000000,4173.077148,4158.205078,4232.563965,4152.563965,4161.282227,4153.717773,4591.025879,4440.641113,4356.282227,4430.256348,0.000000,4.000000,75.000000,,,,0.000000,4.000000,4.000000,4.000000,4.000000,4.000000,4.000000,4.000000,4.000000,4.000000,4.000000,4.000000,4.000000,4.000000,4.000000,100.000000,,,,,,,,,,,,,,,,,,,,,,,,,,,,
1703407811.219706,1703407811.220598,55.000000,0.000000,4186.666504,4163.974121,4282.563965,4241.282227,4171.666504,4160.000000,4236.410156,4163.589844,4174.743652,4161.025879,4604.230957,4450.128418,4362.820313,4437.948730,0.000000,4.000000,75.000000,,,,0.000000,4.000000,4.000000,4.000000,4.000000,4.000000,4.000000,4.000000,4.000000,4.000000,4.000000,4.000000,4.000000,4.000000,4.000000,100.000000,,,,,,,,,,,,,,,,,,,,,,,,,,,,
1703407811.227514,1703407811.228406,56.000000,0.000000,4205.641113,4175.641113,4292.948730,4251.410156,4171.666504,4155.512695,4232.820313,4170.256348,4173.333496,4168.717773,4617.948730,4460.384766,4376.538574,4449.230957,0.000000,4.000000,75.000000,,,,0.000000,4.000000,4.000000,4.000000,4.000000,4.000000,4.000000,4.000000,4.000000,4.000000,4.000000,4.000000,4.000000,4.000000,4.000000,100.000000,,,,,,,,,,,,,,,,,14.000000,0.000000,0.727290,-0.152527,-0.661499,-0.101013,0.981565,-0.091320,0.077646,-14.758753,-41.310989,65.456276
1703407811.235322,1703407811.236114,57.000000,0.000000,4216.922852,4185.384766,4297.179688,4251.025879,4173.974121,4151.025879,4227.692383,4168.974121,4169.358887,4170.384766,4620.641113,4469.871582,4382.436035,4470.128418,0.000000,4.000000,75.000000,,,,0.000000,4.000000,4.000000,4.000000,4.000000,4.000000,4.000000,4.000000,4.000000,4.000000,4.000000,4.000000,4.000000,4.000000,4.000000,100.000000,,,,,,,,,,,,,,,,,,,,,,,,,,,,
1703407811.243130,1703407811.243922,58.000000,0.000000,4201.538574,4183.717773,4289.358887,4249.615234,4177.307617,4152.820313,4226.794922,4164.743652,4171.025879,4167.692383,4617.563965,4465.897461,4379.230957,4478.717773,0.000000,4.000000,75.000000,,,,0.000000,4.000000,4.000000,4.000000,4.000000,4.000000,4.000000,4.000000,4.000000,4.000000,4.000000,4.000000,4.000000,4.000000,4.000000,100.000000,,,,,,,,,,,,,,,,,,,,,,,,,,,,
1703407811.250938,1703407811.251630,59.000000,0.000000,4198.333496,4183.077148,4278.589844,4252.179688,4174.358887,4152.436035,4226.794922,4161.153809,4163.589844,4167.820313,4616.025879,4457.563965,4377.563965,4468.846191,0.000000,4.000000,75.000000,,,,0.000000,4.000000,4.000000,4.000000,4.000000,4.000000,4.000000,4.000000,4.000000,4.000000,4.000000,4.000000,4.000000,4.000000,4.000000,100.000000,,,,,,,,,,,,,,,,,,,,,,,,,,,,
1703407811.258746,1703407811.259438,60.000000,0.000000,4210.128418,4185.512695,4278.077148,4245.641113,4173.333496,4146.153809,4220.128418,4154.615234,4149.871582,4169.102539,4614.743652,4456.666504,4375.769043,4459.615234,0.000000,4.000000,75.000000,,,,0.000000,4.000000,4.000000,4.000000,4.000000,4.000000,4.000000,4.000000,4.000000,4.000000,4.000000,4.000000,4.000000,4.000000,4.000000,100.000000,,,,,,,,,,,,,,,,,15.000000,0.000000,0.727388,-0.152588,-0.661377,-0.101013,0.970333,-0.087413,0.087901,-14.716210,-41.329891,65.527313
1703407811.266554,1703407811.267146,61.000000,0.000000,4206.538574,4181.025879,4281.538574,4243.974121,4181.282227,4147.563965,4215.512695,4149.743652,4148.974121,4164.743652,4612.563965,4456.025879,4371.410156,4461.282227,0.000000,4.000000,75.000000,,,,0.000000,4.000000,4.000000,4.000000,4.000000,4.000000,4.000000,4.000000,4.000000,4.000000,4.000000,4.000000,4.000000,4.000000,4.000000,100.000000,,,,,,,,,,,,,,,,,,,,,,,,,,,,
1703407811.274362,1703407811.274954,62.000000,0.000000,4200.641113,4173.077148,4281.153809,4252.307617,4184.487305,4152.948730,4217.692383,4152.179688,4156.025879,4164.487305,4614.358887,4454.615234,4369.615234,4460.769043,0.000000,4.000000,75.000000,,,,0.000000,4.000000,4.000000,4.000000,4.000000,4.000000,4.000000,4.000000,4.000000,4.000000,4.000000,4.000000,4.000000,4.000000,4.000000,100.000000,,,,,,,,,,,,,,,,,,,,,,,,,,,,
1703407811.282170,1703407811.282662,63.000000,0.000000,4202.307617,4171.025879,4279.230957,4251.922852,4179.743652,4152.436035,4218.717773,4152.563965,4154.487305,4165.000000,4615.641113,4453.717773,4368.333496,4449.487305,0.000000,4.000000,75.000000,,,,0.000000,4.000000,4.000000,4.000000,4.000000,4.000000,4.000000,4.000000,4.000000,4.000000,4.000000,4.000000,4.000000,4.000000,4.000000,100.000000,,,,,,,,,,,,,,,,,,,,,,,,,,,,
1703407811.289979,1703407811.290470,64.000000,0.000000,4188.589844,4171.922852,4277.436035,4245.641113,4175.641113,4151.025879,4222.948730,4152.692383,4152.563965,4157.563965,4610.769043,4451.025879,4363.974121,4435.641113,4926.000000,4.000000,75.000000,,,,0.000000,4.000000,4.000000,4.000000,4.000000,4.000000,4.000000,4.000000,4.000000,4.000000,4.000000,4.000000,4.000000,4.000000,4.000000,100.000000,,,,,,,,,,,,,,,,,16.000000,0.000000,0.727384,-0.152649,-0.661377,-0.100952,0.987914,-0.089855,0.078623,-14.727923,-41.380238,65.591248
1703407811.297787,1703407811.298178,65.000000,0.000000,4169.615234,4169.743652,4278.717773,4247.563965,4171.538574,4156.666504,4231.282227,4161.538574,4165.256348,4158.077148,4606.538574,4446.410156,4360.128418,4426.410156,5422.000000,4.000000,75.000000,,,,0.000000,4.000000,4.000000,4.000000,4.000000,4.000000,4.000000,4.000000,4.000000,4.000000,4.000000,4.000000,4.000000,4.000000,4.000000,100.000000,,,,,,,,,,,,,,,,,,,,,,,,,,,,
1703407811.305595,1703407811.305986,66.000000,0.000000,4166.794922,4163.461426,4282.436035,4246.538574,4172.436035,4161.666504,4233.077148,4167.307617,4171.282227,4166.282227,4606.282227,4443.205078,4358.333496,4424.358887,5217.000000,4.000000,75.000000,,,,0.000000,4.000000,4.000000,4.000000,4.000000,4.000000,4.000000,4.000000,4.000000,4.000000,4.000000,4.000000,4.000000,4.000000,4.000000,100.000000,,,,,,,,,,,,,,,,,,,,,,,,,,,,
1703407811.313403,1703407811.313694,67.000000,0.000000,4172.436035,4161.538574,4273.846191,4237.820313,4179.487305,4160.000000,4230.769043,4161.025879,4163.205078,4161.794922,4605.000000,4438.461426,4360.256348,4427.179688,5285.000000,4.000000,75.000000,,,,0.000000,4.000000,4.000000,4.000000,4.000000,4.000000,4.000000,4.000000,4.000000,4.000000,4.000000,4.000000,4.000000,4.000000,4.000000,100.000000,,,,,,,,,,,,,,,,,,,,,,,,,,,,
1703407811.321211,1703407811.321502,68.000000,0.000000,4175.128418,4166.153809,4264.487305,4234.743652,4181.922852,4158.974121,4232.948730,4156.410156,4164.230957,4154.230957,4599.230957,4434.358887,4360.641113,4428.846191,5098.000000,4.000000,75.000000,,,,0.000000,4.000000,4.000000,4.000000,4.000000,4.000000,4.000000,4.000000,4.000000,4.000000,4.000000,4.000000,4.000000,4.000000,4.000000,100.000000,,,,,,,,,,,,,,,,,17.000000,0.000000,0.727311,-0.152588,-0.661499,-0.100769,0.985472,-0.080576,0.086436,-14.738464,-41.508881,65.615456
1703407811.329019,1703407811.329210,69.000000,0.000000,4177.948730,4170.128418,4277.820313,4240.512695,4182.179688,4160.384766,4231.538574,4157.820313,4168.589844,4160.128418,4599.358887,4444.871582,4362.307617,4430.512695,4539.000000,4.000000,75.000000,,,,0.000000,4.000000,4.000000,4.000000,4.000000,4.000000,4.000000,4.000000,4.000000,4.000000,4.000000,4.000000,4.000000,4.000000,4.000000,100.000000,,,,,,,,,,,,,,,,,,,,,,,,,,,,
1703407811.336827,1703407811.337118,70.000000,0.000000,4195.128418,4177.692383,4292.820313,4252.820313,4185.256348,4157.436035,4222.179688,4156.153809,4160.128418,4168.717773,4610.384766,4461.410156,4372.563965,4448.974121,3094.000000,4.000000,75.000000,,,,0.000000,4.000000,4.000000,4.000000,4.000000,4.000000,4.000000,4.000000,4.000000,4.000000,4.000000,4.000000,4.000000,4.000000,4.000000,100.000000,,,,,,,,,,,,,,,,,,,,,,,,,,,,
1703407811.344635,1703407811.344927,71.000000,0.000000,4214.743652,4184.871582,4286.922852,4259.230957,4181.282227,4150.641113,4217.563965,4152.563965,4153.461426,4166.282227,4614.102539,4462.307617,4377.307617,4471.666504,5045.000000,4.000000,75.000000,,,,0.000000,4.000000,4.000000,4.000000,4.000000,4.000000,4.000000,4.000000,4.000000,4.000000,4.000000,4.000000,4.000000,4.000000,4.000000,100.000000,,,,,,,,,,,,,,,,,,,,,,,,,,,,
1703407811.352443,1703407811.352835,72.000000,0.000000,4213.205078,4178.846191,4280.128418,4252.563965,4171.410156,4151.538574,4217.692383,4147.051270,4149.102539,4156.922852,4606.410156,4451.153809,4367.692383,4469.871582,4839.000000,4.000000,75.000000,,,,0.000000,4.000000,4.000000,4.000000,4.000000,4.000000,4.000000,4.000000,4.000000,4.000000,4.000000,4.000000,4.000000,4.000000,4.000000,100.000000,,,,,,,,,,,,,,,,,18.000000,0.000000,0.727508,-0.152405,-0.661316,-0.100830,0.999145,-0.113783,0.081065,-14.781284,-41.541325,65.670578
1703407811.360251,1703407811.360642,73.000000,0.000000,4202.820313,4168.717773,4282.307617,4245.384766,4174.871582,4155.641113,4220.384766,4140.128418,4140.000000,4148.077148,4599.487305,4445.128418,4360.384766,4463.205078,5111.000000,4.000000,75.000000,,,,0.000000,4.000000,4.000000,4.000000,4.000000,4.000000,4.000000,4.000000,4.000000,4.000000,4.000000,4.000000,4.000000,4.000000,4.000000,100.000000,,,,,,,,,,,,,,,,,,,,,,,,,,,,
1703407811.368059,1703407811.368550,74.000000,0.000000,4203.077148,4169.871582,4279.487305,4246.153809,4185.897461,4154.615234,4224.615234,4141.922852,4141.282227,4151.922852,4602.051270,4449.871582,4365.512695,4465.512695,5901.000000,4.000000,75.000000,,,,0.000000,4.000000,4.000000,4.000000,4.000000,4.000000,4.000000,4.000000,4.000000,4.000000,4.000000,4.000000,4.000000,4.000000,4.000000,100.000000,,,,,,,,,,,,,,,,,,,,,,,,,,,,
1703407811.375867,1703407811.376358,75.000000,0.000000,4206.282227,4173.333496,4275.641113,4250.512695,4186.153809,4159.358887,4223.846191,4145.128418,4155.641113,4163.205078,4607.307617,4456.410156,4372.563965,4463.333496,6083.000000,4.000000,75.000000,,,,0.000000,4.000000,4.000000,4.000000,4.000000,4.000000,4.000000,4.000000,4.000000,4.000000,4.000000,4.000000,4.000000,4.000000,4.000000,100.000000,,,,,,,,,,,,,,,,,,,,,,,,,,,,
1703407811.383675,1703407811.384166,76.000000,0.000000,4204.487305,4170.769043,4280.256348,4250.897461,4185.641113,4168.077148,4221.922852,4149.615234,4174.615234,4170.128418,4614.871582,4460.641113,4376.025879,4469.615234,6598.000000,4.000000,75.000000,,,,0.000000,4.000000,4.000000,4.000000,4.000000,4.000000,4.000000,4.000000,4.000000,4.000000,4.000000,4.000000,4.000000,4.000000,4.000000,100.000000,,,,,,,,,,,,,,,,,19.000000,0.000000,0.727550,-0.152771,-0.661194,-0.100769,0.984495,-0.087413,0.090831,-14.853156,-41.503860,65.620186
1703407811.391483,1703407811.391974,77.000000,0.000000,4200.384766,4165.384766,4280.128418,4248.077148,4190.384766,4171.025879,4222.820313,4165.384766,4188.461426,4175.641113,4620.384766,4465.384766,4378.717773,4481.282227,7174.000000,4.000000,75.000000,,,,0.000000,4.000000,4.000000,4.000000,4.000000,4.000000,4.000000,4.000000,4.000000,4.000000,4.000000,4.000000,4.000000,4.000000,4.000000,100.000000,,,,,,,,,,,,,,,,,,,,,,,,,,,,
1703407811.399291,1703407811.399682,78.000000,0.000000,4187.563965,4156.794922,4270.128418,4249.102539,4185.897461,4167.436035,4221.282227,4170.641113,4179.230957,4171.538574,4610.769043,4459.871582,4372.820313,4465.000000,5901.000000,4.000000,75.000000,,,,0.000000,4.000000,4.000000,4.000000,4.000000,4.000000,4.000000,4.000000,4.000000,4.000000,4.000000,4.000000,4.000000,4.000000,4.000000,100.000000,,,,,,,,,,,,,,,,,,,,,,,,,,,,
1703407811.407099,1703407811.407490,79.000000,0.000000,4174.487305,4144.230957,4262.307617,4248.205078,4173.333496,4168.461426,4218.846191,4152.820313,4157.692383,4153.461426,4595.384766,4438.077148,4353.461426,4438.205078,6083.000000,4.000000,75.000000,,,,0.000000,4.000000,4.000000,4.000000,4.000000,4.000000,4.000000,4.000000,4.000000,4.000000,4.000000,4.000000,4.000000,4.000000,4.000000,100.000000,,,,,,,,,,,,,,,,,,,,,,,,,,,,
1703407811.414907,1703407811.415198,80.000000,0.000000,4165.641113,4131.922852,4257.179688,4233.205078,4164.102539,4176.666504,4224.102539,4142.179688,4154.615234,4137.692383,4581.153809,4418.846191,4332.820313,4423.589844,6598.000000,4.000000,75.000000,,,,0.000000,4.000000,4.000000,4.000000,4.000000,4.000000,4.000000,4.000000,4.000000,4.000000,4.000000,4.000000,4.000000,4.000000,4.000000,100.000000,,,,,,,,,,,,,,,,,20.000000,0.000000,0.727525,-0.153076,-0.661133,-0.100891,0.977170,-0.081065,0.080088,-15.134507,-41.436806,65.524834
1703407811.422716,1703407811.423006,81.000000,0.000000,4152.692383,4123.589844,4249.615234,4220.897461,4164.487305,4184.230957,4231.410156,4149.615234,4151.922852,4131.410156,4568.717773,4413.077148,4326.153809,4408.717773,7174.000000,4.000000,75.000000,,,,0.000000,4.000000,4.000000,4.000000,4.000000,4.000000,4.000000,4.000000,4.000000,4.000000,4.000000,4.000000,4.000000,4.000000,4.000000,100.000000,,,,,,,,,,,,,,,,,,,,,,,,,,,,
1703407811.430524,1703407811.430714,82.000000,0.000000,4152.948730,4126.538574,4244.615234,4226.410156,4171.282227,4187.948730,4233.717773,4154.615234,4139.871582,4133.974121,4570.256348,4411.666504,4333.589844,4415.000000,5901.000000,4.000000,75.000000,,,,0.000000,4.000000,4.000000,4.000000,4.000000,4.000000,4.000000,4.000000,4.000000,4.000000,4.000000,4.000000,4.000000,4.000000,4.000000,100.000000,,,,,,,,,,,,,,,,,,,,,,,,,,,,
1703407811.438331,1703407811.438522,83.000000,0.000000,4172.051270,4141.153809,4249.102539,4237.820313,4172.692383,4188.717773,4234.358887,4152.436035,4143.077148,4144.871582,4590.384766,4417.563965,4346.922852,4449.487305,6083.000000,4.000000,75.000000,,,,0.000000,4.000000,4.000000,4.000000,4.000000,4.000000,4.000000,4.000000,4.000000,4.000000,4.000000,4.000000,4.000000,4.000000,4.000000,100.000000,,,,,,,,,,,,,,,,,,,,,,,,,,,,
1703407811.446140,1703407811.446230,84.000000,0.000000,4187.820313,4152.948730,4260.384766,4243.077148,4169.743652,4185.256348,4231.410156,4151.153809,4155.000000,4156.410156,4605.512695,4436.538574,4358.974121,4464.871582,6598.000000,4.000000,75.000000,,,,0.000000,4.000000,4.000000,4.000000,4.000000,4.000000,4.000000,4.000000,4.000000,4.000000,4.000000,4.000000,4.000000,4.000000,4.000000,100.000000,,,,,,,,,,,,,,,,,21.000000,0.000000,0.727584,-0.152954,-0.661133,-0.100647,0.986449,-0.093273,0.078623,-15.104389,-41.476460,65.589020
1703407811.453948,1703407811.454038,85.000000,0.000000,4190.641113,4158.589844,4271.666504,4247.563965,4173.974121,4182.948730,4227.948730,4155.128418,4164.102539,4165.897461,4609.230957,4452.179688,4373.077148,4458.974121,7174.000000,4.000000,75.000000,,,,0.000000,4.000000,4.000000,4.000000,4.000000,4.000000,4.000000,4.000000,4.000000,4.000000,4.000000,4.000000,4.000000,4.000000,4.000000,100.000000,,,,,,,,,,,,,,,,,,,,,,,,,,,,
1703407811.461756,1703407811.461747,86.000000,0.000000,4185.512695,4161.794922,4277.563965,4251.153809,4176.794922,4182.179688,4228.461426,4155.384766,4167.051270,4170.384766,4612.179688,4450.897461,4378.974121,4458.589844,5901.000000,4.000000,75.000000,,,,0.000000,4.000000,4.000000,4.000000,4.000000,4.000000,4.000000,4.000000,4.000000,4.000000,4.000000,4.000000,4.000000,4.000000,4.000000,100.000000,,,,,,,,,,,,,,,,,,,,,,,,,,,,
1703407811.469564,1703407811.469554,87.000000,0.000000,4180.897461,4158.589844,4276.922852,4247.307617,4170.512695,4176.794922,4225.641113,4142.307617,4155.512695,4162.307617,4607.051270,4441.538574,4368.589844,4455.769043,6083.000000,4.000000,75.000000,,,,0.000000,4.000000,4.000000,4.000000,4.000000,4.000000,4.000000,4.000000,4.000000,4.000000,4.000000,4.000000,4.000000,4.000000,4.000000,100.000000,1.000000,91.666664,4.000000,4.000000,4.000000,4.000000,4.000000,4.000000,4.000000,4.000000,4.000000,4.000000,4.000000,4.000000,4.000000,3.000000,,,,,,,,,,,,
1703407811.477372,1703407811.477263,88.000000,0.000000,4186.025879,4153.589844,4274.102539,4243.589844,4170.641113,4175.128418,4221.922852,4133.974121,4138.974121,4151.025879,4598.974121,4436.282227,4356.410156,4454.615234,6598.000000,4.000000,75.000000,,,,0.000000,4.000000,4.000000,4.000000,4.000000,4.000000,4.000000,4.000000,4.000000,4.000000,4.000000,4.000000,4.000000,4.000000,4.000000,100.000000,,,,,,,,,,,,,,,,,22.000000,0.000000,0.727575,-0.152893,-0.661194,-0.100403,0.988402,-0.106458,0.083506,-15.177284,-41.445480,65.580116
1703407811.485180,1703407811.485171,89.000000,0.000000,4184.871582,4147.692383,4268.077148,4237.820313,4170.641113,4181.538574,4225.128418,4142.179688,4140.512695,4146.153809,4595.384766,4432.948730,4351.922852,4455.897461,7174.000000,4.000000,75.000000,,,,0.000000,4.000000,4.000000,4.000000,4.000000,4.000000,4.000000,4.000000,4.000000,4.000000,4.000000,4.000000,4.000000,4.000000,4.000000,100.000000,,,,,,,,,,,,,,,,,,,,,,,,,,,,
1703407811.492988,1703407811.492979,90.000000,0.000000,4165.256348,4139.743652,4262.436035,4224.102539,4160.897461,4182.051270,4227.692383,4154.615234,4154.615234,4145.512695,4595.512695,4431.153809,4349.871582,4443.717773,5901.000000,4.000000,75.000000,,,,0.000000,4.000000,4.000000,4.000000,4.000000,4.000000,4.000000,4.000000,4.000000,4.000000,4.000000,4.000000,4.000000,4.000000,4.000000,100.000000,,,,,,,,,,,,,,,,,,,,,,,,,,,,
1703407811.500796,1703407811.500887,91.000000,0.000000,4160.897461,4143.589844,4261.538574,4223.846191,4159.487305,4179.487305,4227.179688,4160.000000,4166.025879,4153.077148,4602.307617,4438.717773,4352.051270,4434.358887,6083.000000,4.000000,75.000000,,,,0.000000,4.000000,4.000000,4.000000,4.000000,4.000000,4.000000,4.000000,4.000000,4.000000,4.000000,4.000000,4.000000,4.000000,4.000000,100.000000,,,,,,,,,,,,,,,,,,,,,,,,,,,,
1703407811.508604,1703407811.508695,92.000000,0.000000,4169.615234,4152.179688,4262.948730,4239.871582,4165.000000,4182.563965,4227.692383,4158.974121,4174.871582,4165.384766,4607.051270,4445.641113,4360.384766,4441.153809,6598.000000,4.000000,75.000000,,,,0.000000,4.000000,4.000000,4.000000,4.000000,4.000000,4.000000,4.000000,4.000000,4.000000,4.000000,4.000000,4.000000,4.000000,4.000000,100.000000,,,,,,,,,,,,,,,,,23.000000,0.000000,0.727631,-0.152893,-0.661133,-0.100403,0.992797,-0.096203,0.079600,-15.142889,-41.450932,65.638771
1703407811.516412,1703407811.516603,93.000000,0.000000,4157.051270,4147.051270,4263.077148,4239.102539,4163.205078,4184.358887,4225.256348,4155.641113,4173.589844,4162.692383,4601.538574,4435.769043,4357.436035,4438.333496,7174.000000,4.000000,75.000000,,,,0.000000,4.000000,4.000000,4.000000,4.000000,4.000000,4.000000,4.000000,4.000000,4.000000,4.000000,4.000000,4.000000,4.000000,4.000000,100.000000,,,,,,,,,,,,,,,,,,,,,,,,,,,,
1703407811.524220,1703407811.524411,94.000000,0.000000,4145.128418,4147.051270,4263.974121,4227.692383,4163.205078,4185.000000,4223.333496,4150.128418,4165.000000,4154.615234,4597.563965,4427.051270,4350.128418,4424.230957,5901.000000,4.000000,75.000000,,,,0.000000,4.000000,4.000000,4.000000,4.000000,4.000000,4.000000,4.000000,4.000000,4.000000,4.000000,4.000000,4.000000,4.000000,4.000000,100.000000,,,,,,,,,,,,,,,,,,,,,,,,,,,,
1703407811.532028,1703407811.532319,95.000000,0.000000,4155.641113,4154.871582,4268.077148,4233.333496,4172.563965,4189.358887,4230.256348,4143.846191,4158.717773,4155.641113,4597.051270,4427.179688,4351.666504,4424.743652,6083.000000,4.000000,75.000000,,,,0.000000,4.000000,4.000000,4.000000,4.000000,4.000000,4.000000,4.000000,4.000000,4.000000,4.000000,4.000000,4.000000,4.000000,4.000000,100.000000,,,,,,,,,,,,,,,,,,,,,,,,,,,,
1703407811.539836,1703407811.540127,96.000000,0.000000,4158.846191,4146.025879,4267.948730,4232.948730,4167.820313,4189.102539,4235.769043,4140.384766,4155.769043,4152.820313,4587.692383,4417.307617,4346.538574,4430.512695,6598.000000,4.000000,75.000000,,,,0.000000,4.000000,4.000000,4.000000,4.000000,4.000000,4.000000,4.000000,4.000000,4.000000,4.000000,4.000000,4.000000,4.000000,4.000000,100.000000,,,,,,,,,,,,,,,,,24.000000,0.000000,0.727537,-0.152954,-0.661194,-0.100586,0.989379,-0.083506,0.077646,-15.045267,-41.339172,65.591560
1703407811.547644,1703407811.548035,97.000000,0.000000,4147.179688,4133.461426,4260.128418,4213.205078,4152.051270,4185.769043,4233.205078,4140.641113,4148.846191,4141.922852,4576.922852,4405.512695,4333.589844,4422.436035,7174.000000,4.000000,75.000000,,,,0.000000,4.000000,4.000000,4.000000,4.000000,4.000000,4.000000,4.000000,4.000000,4.000000,4.000000,4.000000,4.000000,4.000000,4.000000,100.000000,,,,,,,,,,,,,,,,,,,,,,,,,,,,
1703407811.555452,1703407811.555843,98.000000,0.000000,4149.487305,4138.974121,4256.410156,4210.641113,4155.000000,4182.436035,4233.717773,4143.461426,4137.051270,4134.487305,4575.641113,4414.487305,4330.128418,4423.077148,5901.000000,4.000000,75.000000,,,,0.000000,4.000000,4.000000,4.000000,4.000000,4.000000,4.000000,4.000000,4.000000,4.000000,4.000000,4.000000,4.000000,4.000000,4.000000,100.000000,,,,,,,,,,,,,,,,,,,,,,,,,,,,
1703407811.563260,1703407811.563751,99.000000,0.000000,4174.230957,4152.692383,4269.871582,4238.846191,4165.897461,4177.307617,4233.846191,4151.025879,4141.666504,4142.436035,4586.282227,4436.410156,4342.563965,4451.922852,6083.000000,4.000000,75.000000,,,,0.000000,4.000000,4.000000,4.000000,4.000000,4.000000,4.000000,4.000000,4.000000,4.000000,4.000000,4.000000,4.000000,4.000000,4.000000,100.000000,,,,,,,,,,,,,,,,,,,,,,,,,,,,
1703407811.571068,1703407811.571559,100.000000,0.000000,4196.410156,4160.641113,4279.487305,4253.846191,4161.282227,4169.871582,4226.282227,4158.974121,4161.153809,4153.589844,4601.410156,4448.717773,4353.333496,4468.717773,6598.000000,4.000000,75.000000,,,,0.000000,4.000000,4.000000,4.000000,4.000000,4.000000,4.000000,4.000000,4.000000,4.000000,4.000000,4.000000,4.000000,4.000000,4.000000,100.000000,,,,,,,,,,,,,,,,,25.000000,0.000000,0.727482,-0.152710,-0.661255,-0.100952,0.979123,-0.095715,0.083018,-15.190740,-41.171921,65.615738
1703407811.578877,1703407811.579367,101.000000,0.000000,4192.563965,4160.256348,4271.922852,4237.692383,4152.820313,4165.256348,4217.179688,4159.487305,4168.589844,4155.641113,4603.589844,4447.692383,4350.000000,4452.948730,7174.000000,4.000000,75.000000,,,,0.000000,4.000000,4.000000,4.000000,4.000000,4.000000,4.000000,4.000000,4.000000,4.000000,4.000000,4.000000,4.000000,4.000000,4.000000,100.000000,,,,,,,,,,,,,,,,,,,,,,,,,,,,
1703407811.586685,1703407811.587175,102.000000,0.000000,4182.051270,4157.436035,4267.179688,4230.897461,4156.538574,4166.410156,4215.769043,4160.128418,4167.692383,4156.410156,4599.358887,4446.666504,4347.307617,4447.692383,5901.000000,4.000000,75.000000,,,,0.000000,4.000000,4.000000,4.000000,4.000000,4.000000,4.000000,4.000000,4.000000,4.000000,4.000000,4.000000,4.000000,4.000000,4.000000,100.000000,,,,,,,,,,,,,,,,,,,,,,,,,,,,
1703407811.594493,1703407811.594883,103.000000,0.000000,4184.743652,4159.230957,4270.128418,4239.487305,4162.820313,4169.487305,4218.974121,4160.769043,4166.922852,4156.153809,4601.538574,4449.871582,4353.717773,4459.615234,6083.000000,4.000000,75.000000,,,,0.000000,4.000000,4.000000,4.000000,4.000000,4.000000,4.000000,4.000000,4.000000,4.000000,4.000000,4.000000,4.000000,4.000000,4.000000,100.000000,,,,,,,,,,,,,,,,,,,,,,,,,,,,
1703407811.602301,1703407811.602691,104.000000,0.000000,4179.743652,4159.615234,4264.358887,4235.000000,4160.256348,4171.922852,4220.256348,4156.666504,4161.666504,4152.948730,4597.820313,4442.307617,4352.051270,4454.102539,6598.000000,4.000000,75.000000,,,,0.000000,4.000000,4.000000,4.000000,4.000000,4.000000,4.000000,4.000000,4.000000,4.000000,4.000000,4.000000,4.000000,4.000000,4.000000,100.000000,,,,,,,,,,,,,,,,,26.000000,0.000000,0.727423,-0.152222,-0.661377,-0.101318,0.989379,-0.096691,0.073739,-15.238333,-41.071396,65.670830
1703407811.610109,1703407811.610399,105.000000,0.000000,4159.615234,4152.820313,4257.179688,4226.153809,4153.974121,4171.025879,4222.051270,4152.820313,4153.974121,4151.025879,4585.384766,4427.436035,4340.512695,4434.743652,7174.000000,4.000000,75.000000,,,,0.000000,4.000000,4.000000,4.000000,4.000000,4.000000,4.000000,4.000000,4.000000,4.000000,4.000000,4.000000,4.000000,4.000000,4.000000,100.000000,,,,,,,,,,,,,,,,,,,,,,,,,,,,
1703407811.617917,1703407811.618307,106.000000,0.000000,4156.025879,4149.358887,4262.179688,4230.641113,4157.820313,4171.410156,4225.769043,4150.128418,4152.436035,4154.743652,4585.256348,4425.384766,4342.563965,4428.974121,5901.000000,4.000000,75.000000,,,,0.000000,4.000000,4.000000,4.000000,4.000000,4.000000,4.000000,4.000000,4.000000,4.000000,4.000000,4.000000,4.000000,4.000000,4.000000,100.000000,,,,,,,,,,,,,,,,,,,,,,,,,,,,
1703407811.625725,1703407811.626115,107.000000,0.000000,4169.871582,4152.948730,4266.025879,4235.128418,4166.922852,4178.205078,4228.846191,4149.358887,4153.333496,4153.461426,4591.282227,4430.769043,4350.512695,4427.948730,6083.000000,4.000000,75.000000,,,,0.000000,4.000000,4.000000,4.000000,4.000000,4.000000,4.000000,4.000000,4.000000,4.000000,4.000000,4.000000,4.000000,4.000000,4.000000,100.000000,,,,,,,,,,,,,,,,,,,,,,,,,,,,
1703407811.633533,1703407811.634023,108.000000,0.000000,4170.384766,4152.820313,4262.820313,4232.820313,4166.410156,4181.538574,4230.128418,4150.000000,4151.666504,4147.563965,4589.487305,4435.512695,4347.692383,4427.307617,6598.000000,4.000000,75.000000,,,,0.000000,4.000000,4.000000,4.000000,4.000000,4.000000,4.000000,4.000000,4.000000,4.000000,4.000000,4.000000,4.000000,4.000000,4.000000,100.000000,,,,,,,,,,,,,,,,,27.000000,0.000000,0.727495,-0.151978,-0.661316,-0.101563,0.984495,-0.079111,0.082041,-15.214499,-41.380924,65.737083
1703407811.641341,1703407811.641832,109.000000,0.000000,4163.461426,4150.512695,4265.512695,4229.615234,4164.358887,4176.025879,4230.641113,4153.461426,4152.436035,4148.077148,4589.743652,4441.410156,4348.205078,4436.794922,7174.000000,4.000000,75.000000,,,,0.000000,4.000000,4.000000,4.000000,4.000000,4.000000,4.000000,4.000000,4.000000,4.000000,4.000000,4.000000,4.000000,4.000000,4.000000,100.000000,,,,,,,,,,,,,,,,,,,,,,,,,,,,
1703407811.649149,1703407811.649640,110.000000,0.000000,4170.897461,4153.974121,4272.436035,4233.974121,4168.846191,4173.333496,4229.487305,4154.871582,4155.641113,4154.871582,4594.358887,4444.102539,4356.410156,4447.307617,5901.000000,4.000000,75.000000,,,,0.000000,4.000000,4.000000,4.000000,4.000000,4.000000,4.000000,4.000000,4.000000,4.000000,4.000000,4.000000,4.000000,4.000000,4.000000,100.000000,,,,,,,,,,,,,,,,,,,,,,,,,,,,
1703407811.656957,1703407811.657348,111.000000,0.000000,4182.307617,4159.358887,4276.282227,4243.717773,4171.025879,4173.974121,4225.512695,4152.948730,4157.436035,4163.974121,4597.948730,4446.025879,4360.384766,4452.179688,6083.000000,4.000000,75.000000,,,,0.000000,4.000000,4.000000,4.000000,4.000000,4.000000,4.000000,4.000000,4.000000,4.000000,4.000000,4.000000,4.000000,4.000000,4.000000,100.000000,,,,,,,,,,,,,,,,,,,,,,,,,,,,
1703407811.664765,1703407811.665156,112.000000,0.000000,4181.410156,4159.743652,4278.974121,4240.512695,4162.179688,4164.743652,4219.102539,4158.205078,4157.948730,4165.512695,4602.179688,4451.410156,4361.153809,4460.256348,6598.000000,4.000000,75.000000,,,,0.000000,4.000000,4.000000,4.000000,4.000000,4.000000,4.000000,4.000000,4.000000,4.000000,4.000000,4.000000,4.000000,4.000000,4.000000,100.000000,,,,,,,,,,,,,,,,,28.000000,0.000000,0.727367,-0.152161,-0.661377,-0.101807,0.987425,-0.071786,0.087901,-15.176383,-41.509499,65.663376
1703407811.672573,1703407811.672864,113.000000,0.000000,4178.717773,4155.256348,4284.487305,4233.589844,4153.333496,4158.717773,4216.153809,4167.692383,4162.307617,4163.589844,4604.358887,4457.820313,4362.051270,4465.000000,7174.000000,4.000000,75.000000,,,,0.000000,4.000000,4.000000,4.000000,4.000000,4.000000,4.000000,4.000000,4.000000,4.000000,4.000000,4.000000,4.000000,4.000000,4.000000,100.000000,,,,,,,,,,,,,,,,,,,,,,,,,,,,
1703407811.680381,1703407811.680672,114.000000,0.000000,4178.846191,4151.794922,4284.743652,4237.436035,4160.128418,4166.025879,4215.769043,4168.846191,4168.077148,4166.538574,4601.410156,4460.384766,4358.717773,4448.974121,5901.000000,4.000000,75.000000,,,,0.000000,4.000000,4.000000,4.000000,4.000000,4.000000,4.000000,4.000000,4.000000,4.000000,4.000000,4.000000,4.000000,4.000000,4.000000,100.000000,,,,,,,,,,,,,,,,,,,,,,,,,,,,
1703407811.688189,1703407811.688380,115.000000,0.000000,4179.487305,4153.846191,4281.922852,4236.922852,4172.820313,4171.153809,4216.153809,4167.307617,4168.846191,4166.666504,4598.333496,4456.025879,4356.538574,4439.102539,6083.000000,4.000000,75.000000,,,,0.000000,4.000000,4.000000,4.000000,4.000000,4.000000,4.000000,4.000000,4.000000,4.000000,4.000000,4.000000,4.000000,4.000000,4.000000,100.000000,,,,,,,,,,,,,,,,,,,,,,,,,,,,
1703407811.695997,1703407811.696288,116.000000,0.000000,4180.897461,4154.102539,4282.051270,4231.410156,4172.692383,4171.666504,4218.333496,4167.179688,4169.102539,4163.717773,4598.717773,4448.461426,4357.563965,4454.230957,6598.000000,4.000000,75.000000,,,,0.000000,4.000000,4.000000,4.000000,4.000000,4.000000,4.000000,4.000000,4.000000,4.000000,4.000000,4.000000,4.000000,4.000000,4.000000,100.000000,,,,,,,,,,,,,,,,,29.000000,0.000000,0.727384,-0.152039,-0.661377,-0.101868,1.000122,-0.083995,0.090831,-15.175411,-41.375214,65.680367
1703407811.703805,1703407811.704096,117.000000,0.000000,4179.871582,4152.563965,4283.589844,4234.358887,4169.743652,4173.589844,4217.051270,4158.974121,4169.230957,4166.410156,4600.128418,4444.871582,4358.333496,4461.666504,7174.000000,4.000000,75.000000,,,,0.000000,4.000000,4.000000,4.000000,4.000000,4.000000,4.000000,4.000000,4.000000,4.000000,4.000000,4.000000,4.000000,4.000000,4.000000,100.000000,,,,,,,,,,,,,,,,,,,,,,,,,,,,
1703407811.711613,1703407811.712004,118.000000,0.000000,4172.436035,4153.589844,4281.153809,4235.000000,4171.666504,4172.820313,4214.358887,4150.769043,4167.820313,4170.128418,4601.153809,4444.871582,4358.333496,4449.102539,5901.000000,4.000000,75.000000,,,,0.000000,4.000000,4.000000,4.000000,4.000000,4.000000,4.000000,4.000000,4.000000,4.000000,4.000000,4.000000,4.000000,4.000000,4.000000,100.000000,,,,,,,,,,,,,,,,,,,,,,,,,,,,
1703407811.719422,1703407811.719813,119.000000,0.000000,4169.487305,4153.077148,4277.563965,4231.025879,4169.102539,4168.717773,4213.077148,4152.563965,4168.846191,4168.461426,4600.256348,4443.846191,4358.205078,4441.025879,6083.000000,4.000000,75.000000,,,,0.000000,4.000000,4.000000,4.000000,4.000000,4.000000,4.000000,4.000000,4.000000,4.000000,4.000000,4.000000,4.000000,4.000000,4.000000,100.000000,,,,,,,,,,,,,,,,,,,,,,,,,,,,
1703407811.727229,1703407811.727721,120.000000,0.000000,4172.563965,4152.563965,4274.871582,4235.256348,4166.538574,4168.589844,4212.692383,4153.461426,4168.974121,4166.794922,4596.282227,4439.358887,4356.025879,4439.871582,6598.000000,4.000000,75.000000,,,,0.000000,4.000000,4.000000,4.000000,4.000000,4.000000,4.000000,4.000000,4.000000,4.000000,4.000000,4.000000,4.000000,4.000000,4.000000,100.000000,,,,,,,,,,,,,,,,,30.000000,0.000000,0.727359,-0.151978,-0.661438,-0.101746,0.989379,-0.088390,0.083995,-15.074536,-41.487694,65.662331
1703407811.735037,1703407811.735529,121.000000,0.000000,4162.692383,4151.538574,4267.948730,4237.692383,4167.307617,4170.512695,4215.769043,4155.000000,4163.589844,4161.922852,4590.000000,4432.820313,4349.230957,4428.461426,7174.000000,4.000000,75.000000,,,,0.000000,4.000000,4.000000,4.000000,4.000000,4.000000,4.000000,4.000000,4.000000,4.000000,4.000000,4.000000,4.000000,4.000000,4.000000,100.000000,,,,,,,,,,,,,,,,,,,,,,,,,,,,
1703407811.742846,1703407811.743436,122.000000,0.000000,4156.922852,4148.589844,4261.025879,4231.025879,4167.051270,4171.025879,4219.487305,4152.948730,4153.589844,4153.077148,4580.256348,4427.820313,4340.897461,4422.948730,5901.000000,4.000000,75.000000,,,,0.000000,4.000000,4.000000,4.000000,4.000000,4.000000,4.000000,4.000000,4.000000,4.000000,4.000000,4.000000,4.000000,4.000000,4.000000,100.000000,,,,,,,,,,,,,,,,,,,,,,,,,,,,
1703407811.750654,1703407811.751244,123.000000,0.000000,4164.743652,4150.000000,4269.102539,4231.025879,4167.948730,4171.153809,4220.384766,4141.538574,4145.000000,4147.563965,4573.974121,4428.461426,4338.974121,4430.769043,6083.000000,4.000000,75.000000,,,,0.000000,4.000000,4.000000,4.000000,4.000000,4.000000,4.000000,4.000000,4.000000,4.000000,4.000000,4.000000,4.000000,4.000000,4.000000,100.000000,,,,,,,,,,,,,,,,,,,,,,,,,,,,
1703407811.758462,1703407811.758952,124.000000,0.000000,4170.000000,4154.358887,4283.717773,4239.615234,4167.179688,4169.871582,4220.128418,4139.871582,4144.743652,4146.666504,4578.717773,4435.769043,4345.769043,4435.256348,6598.000000,4.000000,75.000000,,,,0.000000,4.000000,4.000000,4.000000,4.000000,4.000000,4.000000,4.000000,4.000000,4.000000,4.000000,4.000000,4.000000,4.000000,4.000000,100.000000,,,,,,,,,,,,,,,,,31.000000,0.000000,0.727423,-0.151978,-0.661377,-0.101685,0.988402,-0.095226,0.076670,-15.067083,-41.338924,65.562767
1703407811.766270,1703407811.766760,125.000000,0.000000,4175.384766,4155.000000,4283.846191,4239.615234,4166.794922,4167.563965,4219.102539,4151.025879,4151.282227,4151.666504,4585.897461,4443.846191,4351.282227,4443.974121,7174.000000,4.000000,75.000000,,,,0.000000,4.000000,4.000000,4.000000,4.000000,4.000000,4.000000,4.000000,4.000000,4.000000,4.000000,4.000000,4.000000,4.000000,4.000000,100.000000,,,,,,,,,,,,,,,,,,,,,,,,,,,,
1703407811.774078,1703407811.774468,126.000000,0.000000,4187.179688,4157.307617,4276.282227,4233.205078,4166.025879,4165.384766,4214.230957,4155.769043,4158.846191,4155.897461,4586.282227,4445.128418,4350.384766,4459.743652,5901.000000,4.000000,75.000000,,,,0.000000,4.000000,4.000000,4.000000,4.000000,4.000000,4.000000,4.000000,4.000000,4.000000,4.000000,4.000000,4.000000,4.000000,4.000000,100.000000,,,,,,,,,,,,,,,,,,,,,,,,,,,,
1703407811.781886,1703407811.782276,127.000000,0.000000,4192.436035,4163.717773,4279.743652,4236.794922,4166.025879,4164.487305,4210.000000,4152.820313,4158.077148,4152.307617,4584.487305,4445.000000,4348.461426,4462.563965,75.000000,4.000000,75.000000,,,,0.000000,4.000000,4.000000,4.000000,4.000000,4.000000,4.000000,4.000000,4.000000,4.000000,4.000000,4.000000,4.000000,4.000000,4.000000,100.000000,,,,,,,,,,,,,,,,,,,,,,,,,,,,
1703407811.789694,1703407811.789985,0.000000,0.000000,4189.487305,4167.820313,4288.077148,4246.666504,4170.512695,4165.897461,4209.871582,4152.948730,4154.102539,4150.897461,4587.051270,4444.487305,4348.205078,4460.641113,4928.000000,4.000000,75.000000,,,,0.000000,4.000000,4.000000,4.000000,4.000000,4.000000,4.000000,4.000000,4.000000,4.000000,4.000000,4.000000,4.000000,4.000000,4.000000,100.000000,,,,,,,,,,,,,,,,,0.000000,0.000000,0.727350,-0.152100,-0.661438,-0.101624,0.983518,-0.090343,0.088390,-15.060375,-41.371696,65.473152
1703407811.797502,1703407811.797792,1.000000,0.000000,4186.025879,4167.948730,4286.794922,4249.743652,4172.948730,4168.205078,4214.230957,4155.128418,4161.025879,4160.128418,4593.077148,4445.897461,4353.461426,4463.846191,5422.000000,4.000000,75.000000,,,,0.000000,4.000000,4.000000,4.000000,4.000000,4.000000,4.000000,4.000000,4.000000,4.000000,4.000000,4.000000,4.000000,4.000000,4.000000,100.000000,,,,,,,,,,,,,,,,,,,,,,,,,,,,
1703407811.805310,1703407811.805501,2.000000,0.000000,4181.282227,4167.948730,4282.179688,4249.871582,4170.512695,4165.512695,4215.000000,4155.769043,4167.820313,4169.871582,4602.051270,4456.666504,4361.538574,4456.025879,5218.000000,4.000000,75.000000,,,,0.000000,4.000000,4.000000,4.000000,4.000000,4.000000,4.000000,4.000000,4.000000,4.000000,4.000000,4.000000,4.000000,4.000000,4.000000,100.000000,,,,,,,,,,,,,,,,,,,,,,,,,,,,
1703407811.813118,1703407811.813309,3.000000,0.000000,4185.256348,4170.256348,4283.077148,4251.922852,4169.487305,4159.615234,4204.230957,4154.102539,4166.538574,4174.230957,4605.512695,4462.051270,4363.077148,4447.820313,5293.000000,4.000000,75.000000,,,,0.000000,4.000000,4.000000,4.000000,4.000000,4.000000,4.000000,4.000000,4.000000,4.000000,4.000000,4.000000,4.000000,4.000000,4.000000,100.000000,,,,,,,,,,,,,,,,,,,,,,,,,,,,
1703407811.820926,1703407811.821017,4.000000,0.000000,4183.717773,4166.025879,4284.102539,4245.512695,4169.743652,4158.461426,4200.384766,4151.922852,4164.230957,4174.102539,4601.153809,4449.487305,4358.589844,4451.794922,5101.000000,4.000000,75.000000,,,,0.000000,4.000000,4.000000,4.000000,4.000000,4.000000,4.000000,4.000000,4.000000,4.000000,4.000000,4.000000,4.000000,4.000000,4.000000,100.000000,,,,,,,,,,,,,,,,,1.000000,0.000000,0.727329,-0.152161,-0.661438,-0.101685,0.990355,-0.077158,0.084483,-15.187671,-41.351196,65.642509
1703407811.828734,1703407811.828825,5.000000,0.000000,4169.615234,4156.025879,4279.102539,4236.282227,4167.692383,4159.743652,4211.282227,4153.846191,4162.051270,4167.948730,4601.025879,4440.897461,4356.922852,4445.769043,4539.000000,4.000000,75.000000,,,,0.000000,4.000000,4.000000,4.000000,4.000000,4.000000,4.000000,4.000000,4.000000,4.000000,4.000000,4.000000,4.000000,4.000000,4.000000,100.000000,,,,,,,,,,,,,,,,,,,,,,,,,,,,
1703407811.836542,1703407811.836533,6.000000,0.000000,4166.538574,4153.589844,4272.436035,4234.743652,4169.615234,4158.205078,4214.358887,4154.615234,4154.871582,4161.922852,4602.563965,4445.256348,4357.307617,4431.794922,3092.000000,4.000000,75.000000,,,,0.000000,4.000000,4.000000,4.000000,4.000000,4.000000,4.000000,4.000000,4.000000,4.000000,4.000000,4.000000,4.000000,4.000000,4.000000,100.000000,,,,,,,,,,,,,,,,,,,,,,,,,,,,
1703407811.844350,1703407811.844341,7.000000,0.000000,4166.410156,4155.769043,4274.230957,4236.410156,4165.512695,4156.025879,4209.102539,4153.077148,4151.025879,4160.256348,4598.846191,4444.743652,4352.820313,4428.333496,5045.000000,4.000000,75.000000,,,,0.000000,4.000000,4.000000,4.000000,4.000000,4.000000,4.000000,4.000000,4.000000,4.000000,4.000000,4.000000,4.000000,4.000000,4.000000,100.000000,,,,,,,,,,,,,,,,,,,,,,,,,,,,
1703407811.852158,1703407811.852049,8.000000,0.000000,4156.666504,4153.589844,4275.897461,4233.461426,4155.769043,4155.769043,4208.333496,4153.333496,4152.436035,4159.615234,4591.538574,4436.410156,4345.512695,4431.794922,4841.000000,4.000000,75.000000,,,,0.000000,4.000000,4.000000,4.000000,4.000000,4.000000,4.000000,4.000000,4.000000,4.000000,4.000000,4.000000,4.000000,4.000000,4.000000,100.000000,,,,,,,,,,,,,,,,,2.000000,0.000000,0.727354,-0.152039,-0.661438,-0.101685,0.986449,-0.076670,0.076670,-15.085570,-41.416077,65.678253
1703407811.859966,1703407811.859957,9.000000,0.000000,4150.769043,4151.153809,4268.461426,4232.436035,4160.128418,4157.563965,4211.153809,4153.589844,4155.128418,4157.692383,4585.512695,4430.384766,4342.179688,4426.282227,5108.000000,4.000000,75.000000,,,,0.000000,4.000000,4.000000,4.000000,4.000000,4.000000,4.000000,4.000000,4.000000,4.000000,4.000000,4.000000,4.000000,4.000000,4.000000,100.000000,,,,,,,,,,,,,,,,,,,,,,,,,,,,
1703407811.867774,1703407811.867765,10.000000,0.000000,4155.256348,4152.692383,4258.461426,4235.256348,4171.538574,4159.743652,4211.282227,4152.307617,4156.282227,4155.256348,4583.077148,4426.666504,4339.615234,4416.794922,5908.000000,4.000000,75.000000,,,,0.000000,4.000000,4.000000,4.000000,4.000000,4.000000,4.000000,4.000000,4.000000,4.000000,4.000000,4.000000,4.000000,4.000000,4.000000,100.000000,,,,,,,,,,,,,,,,,,,,,,,,,,,,
1703407811.875583,1703407811.875673,11.000000,0.000000,4160.512695,4153.077148,4258.205078,4231.025879,4170.769043,4157.051270,4208.717773,4153.077148,4154.230957,4156.794922,4584.358887,4428.846191,4341.666504,4423.589844,6087.000000,4.000000,75.000000,,,,0.000000,4.000000,4.000000,4.000000,4.000000,4.000000,4.000000,4.000000,4.000000,4.000000,4.000000,4.000000,4.000000,4.000000,4.000000,100.000000,,,,,,,,,,,,,,,,,,,,,,,,,,,,
1703407811.883391,1703407811.883481,12.000000,0.000000,4167.436035,4153.974121,4271.153809,4228.333496,4165.000000,4153.846191,4202.692383,4156.410156,4162.307617,4165.512695,4591.794922,4443.461426,4356.025879,4439.102539,6601.000000,4.000000,75.000000,,,,0.000000,4.000000,4.000000,4.000000,4.000000,4.000000,4.000000,4.000000,4.000000,4.000000,4.000000,4.000000,4.000000,4.000000,4.000000,100.000000,,,,,,,,,,,,,,,,,3.000000,0.000000,0.727333,-0.151917,-0.661499,-0.101624,0.988890,-0.083018,0.082530,-15.210346,-41.357800,65.577095
1703407811.891199,1703407811.891389,13.000000,0.000000,4176.282227,4163.205078,4278.974121,4235.384766,4166.666504,4153.461426,4200.897461,4156.153809,4169.615234,4171.666504,4605.897461,4461.282227,4367.179688,4446.794922,7174.000000,4.000000,75.000000,,,,0.000000,4.000000,4.000000,4.000000,4.000000,4.000000,4.000000,4.000000,4.000000,4.000000,4.000000,4.000000,4.000000,4.000000,4.000000,100.000000,,,,,,,,,,,,,,,,,,,,,,,,,,,,
1703407811.899007,1703407811.899198,14.000000,0.000000,4183.974121,4167.307617,4273.717773,4239.358887,4167.436035,4149.743652,4203.333496,4154.102539,4158.077148,4168.974121,4614.358887,4464.358887,4365.256348,4456.282227,5908.000000,4.000000,75.000000,,,,0.000000,4.000000,4.000000,4.000000,4.000000,4.000000,4.000000,4.000000,4.000000,4.000000,4.000000,4.000000,4.000000,4.000000,4.000000,100.000000,,,,,,,,,,,,,,,,,,,,,,,,,,,,
1703407811.906815,1703407811.907105,15.000000,0.000000,4189.487305,4159.487305,4270.256348,4236.410156,4166.410156,4148.205078,4200.000000,4150.641113,4149.615234,4168.461426,4608.846191,4451.153809,4364.230957,4467.436035,6087.000000,4.000000,75.000000,,,,0.000000,4.000000,4.000000,4.000000,4.000000,4.000000,4.000000,4.000000,4.000000,4.000000,4.000000,4.000000,4.000000,4.000000,4.000000,100.000000,,,,,,,,,,,,,,,,,,,,,,,,,,,,
1703407811.914623,1703407811.914913,16.000000,0.000000,4176.410156,4155.000000,4265.384766,4233.333496,4169.871582,4151.922852,4199.230957,4143.974121,4158.717773,4170.641113,4600.512695,4433.717773,4362.307617,4452.692383,0.000000,4.000000,75.000000,,,,0.000000,4.000000,4.000000,4.000000,4.000000,4.000000,4.000000,4.000000,4.000000,4.000000,4.000000,4.000000,4.000000,4.000000,4.000000,100.000000,,,,,,,,,,,,,,,,,4.000000,0.000000,0.727243,-0.151855,-0.661621,-0.101563,0.987425,-0.089855,0.078135,-15.239312,-41.255356,65.486053
1703407811.922431,1703407811.922821,17.000000,0.000000,4154.743652,4155.128418,4256.282227,4232.051270,4172.307617,4152.563965,4200.128418,4144.102539,4164.487305,4168.717773,4596.794922,4428.974121,4355.000000,4424.743652,0.000000,4.000000,75.000000,,,,0.000000,4.000000,4.000000,4.000000,4.000000,4.000000,4.000000,4.000000,4.000000,4.000000,4.000000,4.000000,4.000000,4.000000,4.000000,100.000000,,,,,,,,,,,,,,,,,,,,,,,,,,,,
1703407811.930239,1703407811.930629,18.000000,0.000000,4156.153809,4154.487305,4259.358887,4233.205078,4170.641113,4151.025879,4198.205078,4152.692383,4160.641113,4168.846191,4601.666504,4442.179688,4355.897461,4424.871582,0.000000,4.000000,75.000000,,,,0.000000,4.000000,4.000000,4.000000,4.000000,4.000000,4.000000,4.000000,4.000000,4.000000,4.000000,4.000000,4.000000,4.000000,4.000000,100.000000,,,,,,,,,,,,,,,,,,,,,,,,,,,,
1703407811.938047,1703407811.938537,19.000000,0.000000,4174.358887,4157.948730,4270.000000,4235.384766,4169.871582,4154.487305,4199.615234,4157.563965,4160.512695,4171.410156,4608.974121,4451.794922,4363.461426,4445.897461,0.000000,4.000000,75.000000,,,,0.000000,4.000000,4.000000,4.000000,4.000000,4.000000,4.000000,4.000000,4.000000,4.000000,4.000000,4.000000,4.000000,4.000000,4.000000,100.000000,,,,,,,,,,,,,,,,,,,,,,,,,,,,
1703407811.945855,1703407811.946345,20.000000,0.000000,4176.922852,4160.641113,4273.461426,4233.717773,4171.025879,4154.230957,4203.077148,4153.333496,4155.769043,4165.512695,4604.358887,4444.615234,4356.922852,4453.205078,0.000000,4.000000,75.000000,,,,0.000000,4.000000,4.000000,4.000000,4.000000,4.000000,4.000000,4.000000,4.000000,4.000000,4.000000,4.000000,4.000000,4.000000,4.000000,100.000000,,,,,,,,,,,,,,,,,5.000000,0.000000,0.727311,-0.151917,-0.661560,-0.101379,0.987914,-0.108900,0.078135,-15.398714,-41.329819,65.654114
1703407811.953663,1703407811.954053,21.000000,0.000000,4158.974121,4154.487305,4272.436035,4231.538574,4168.205078,4148.205078,4202.307617,4144.615234,4147.051270,4156.794922,4597.820313,4439.871582,4346.794922,4439.743652,0.000000,4.000000,75.000000,,,,0.000000,4.000000,4.000000,4.000000,4.000000,4.000000,4.000000,4.000000,4.000000,4.000000,4.000000,4.000000,4.000000,4.000000,4.000000,100.000000,,,,,,,,,,,,,,,,,,,,,,,,,,,,
1703407811.961471,1703407811.961861,22.000000,0.000000,4154.358887,4151.025879,4271.025879,4233.077148,4165.128418,4147.563965,4199.487305,4138.205078,4146.794922,4155.641113,4597.948730,4445.000000,4346.153809,4429.102539,0.000000,4.000000,75.000000,,,,0.000000,4.000000,4.000000,4.000000,4.000000,4.000000,4.000000,4.000000,4.000000,4.000000,4.000000,4.000000,4.000000,4.000000,4.000000,100.000000,,,,,,,,,,,,,,,,,,,,,,,,,,,,
1703407811.969279,1703407811.969569,23.000000,0.000000,4170.769043,4153.974121,4271.922852,4233.205078,4167.948730,4150.641113,4201.025879,4141.282227,4151.538574,4155.256348,4595.512695,4447.436035,4346.410156,4427.820313,0.000000,4.000000,75.000000,,,,0.000000,4.000000,4.000000,4.000000,4.000000,4.000000,4.000000,4.000000,4.000000,4.000000,4.000000,4.000000,4.000000,4.000000,4.000000,100.000000,1.000000,100.000000,4.000000,4.000000,4.000000,4.000000,4.000000,4.000000,4.000000,4.000000,4.000000,4.000000,4.000000,4.000000,4.000000,4.000000,,,,,,,,,,,,
1703407811.977087,1703407811.977377,24.000000,0.000000,4186.794922,4155.128418,4277.307617,4235.512695,4169.358887,4154.615234,4202.692383,4150.512695,4155.897461,4156.025879,4595.256348,4448.589844,4347.948730,4431.666504,0.000000,4.000000,75.000000,,,,0.000000,4.000000,4.000000,4.000000,4.000000,4.000000,4.000000,4.000000,4.000000,4.000000,4.000000,4.000000,4.000000,4.000000,4.000000,100.000000,,,,,,,,,,,,,,,,,6.000000,0.000000,0.727363,-0.151978,-0.661499,-0.101318,0.988402,-0.086436,0.084971,-15.408843,-41.280170,65.805374
1703407811.984895,1703407811.985085,25.000000,0.000000,4184.358887,4154.615234,4281.282227,4237.820313,4162.563965,4155.384766,4203.974121,4162.948730,4166.410156,4164.871582,4605.000000,4460.897461,4355.000000,4445.128418,0.000000,4.000000,75.000000,,,,0.000000,4.000000,4.000000,4.000000,4.000000,4.000000,4.000000,4.000000,4.000000,4.000000,4.000000,4.000000,4.000000,4.000000,4.000000,100.000000,,,,,,,,,,,,,,,,,,,,,,,,,,,,
1703407811.992703,1703407811.992893,26.000000,0.000000,4181.538574,4157.436035,4288.461426,4237.820313,4160.641113,4148.205078,4200.000000,4172.948730,4176.282227,4172.948730,4614.487305,4477.307617,4363.717773,4465.897461,0.000000,4.000000,75.000000,,,,0.000000,4.000000,4.000000,4.000000,4.000000,4.000000,4.000000,4.000000,4.000000,4.000000,4.000000,4.000000,4.000000,4.000000,4.000000,100.000000,,,,,,,,,,,,,,,,,,,,,,,,,,,,
1703407812.000511,1703407812.000601,27.000000,0.000000,4195.128418,4165.512695,4290.769043,4238.333496,4169.102539,4140.256348,4195.000000,4165.512695,4168.974121,4169.743652,4615.384766,4474.871582,4366.666504,4480.384766,0.000000,4.000000,75.000000,,,,0.000000,4.000000,4.000000,4.000000,4.000000,4.000000,4.000000,4.000000,4.000000,4.000000,4.000000,4.000000,4.000000,4.000000,4.000000,100.000000,,,,,,,,,,,,,,,,,,,,,,,,,,,,
1703407812.008320,1703407812.008409,28.000000,0.000000,4207.179688,4172.563965,4279.615234,4238.077148,4174.871582,4142.179688,4196.282227,4148.333496,4156.410156,4167.179688,4609.230957,4460.000000,4362.436035,4481.025879,0.000000,4.000000,75.000000,,,,0.000000,4.000000,4.000000,4.000000,4.000000,4.000000,4.000000,4.000000,4.000000,4.000000,4.000000,4.000000,4.000000,4.000000,4.000000,100.000000,,,,,,,,,,,,,,,,,7.000000,0.000000,0.727376,-0.152222,-0.661438,-0.101257,0.987914,-0.082530,0.081065,-15.167958,-41.218819,65.724831
1703407812.016127,1703407812.016117,29.000000,0.000000,4206.922852,4171.794922,4278.589844,4242.692383,4171.794922,4145.897461,4196.410156,4140.897461,4153.717773,4169.871582,4604.487305,4458.333496,4358.974121,4476.538574,0.000000,4.000000,75.000000,,,,0.000000,4.000000,4.000000,4.000000,4.000000,4.000000,4.000000,4.000000,4.000000,4.000000,4.000000,4.000000,4.000000,4.000000,4.000000,100.000000,,,,,,,,,,,,,,,,,,,,,,,,,,,,
1703407812.023935,1703407812.023925,30.000000,0.000000,4207.563965,4168.974121,4289.358887,4252.436035,4168.589844,4140.897461,4193.974121,4140.128418,4154.230957,4165.641113,4606.410156,4465.000000,4360.256348,4480.641113,0.000000,4.000000,75.000000,,,,0.000000,4.000000,4.000000,4.000000,4.000000,4.000000,4.000000,4.000000,4.000000,4.000000,4.000000,4.000000,4.000000,4.000000,4.000000,100.000000,,,,,,,,,,,,,,,,,,,,,,,,,,,,
1703407812.031744,1703407812.031633,31.000000,0.000000,4208.333496,4167.179688,4289.102539,4250.512695,4168.717773,4139.230957,4190.769043,4143.461426,4152.179688,4157.948730,4606.153809,4460.000000,4362.563965,4482.307617,0.000000,4.000000,75.000000,,,,0.000000,4.000000,4.000000,4.000000,4.000000,4.000000,4.000000,4.000000,4.000000,4.000000,4.000000,4.000000,4.000000,4.000000,4.000000,100.000000,,,,,,,,,,,,,,,,,,,,,,,,,,,,
1703407812.039552,1703407812.039441,32.000000,0.000000,4191.025879,4162.563965,4280.769043,4238.333496,4170.256348,4144.871582,4193.077148,4152.436035,4151.666504,4154.230957,4602.820313,4453.077148,4363.205078,4466.794922,0.000000,4.000000,75.000000,,,,0.000000,4.000000,4.000000,4.000000,4.000000,4.000000,4.000000,4.000000,4.000000,4.000000,4.000000,4.000000,4.000000,4.000000,4.000000,100.000000,,,,,,,,,,,,,,,,,8.000000,0.000000,0.727371,-0.152283,-0.661438,-0.101196,0.995239,-0.090831,0.082530,-15.267829,-41.280270,65.685684
1703407812.047360,1703407812.047149,33.000000,0.000000,4178.589844,4156.410156,4281.282227,4233.974121,4167.051270,4144.102539,4198.205078,4156.666504,4153.846191,4156.922852,4606.410156,4459.358887,4359.743652,4455.128418,0.000000,4.000000,75.000000,,,,0.000000,4.000000,4.000000,4.000000,4.000000,4.000000,4.000000,4.000000,4.000000,4.000000,4.000000,4.000000,4.000000,4.000000,4.000000,100.000000,,,,,,,,,,,,,,,,,,,,,,,,,,,,
1703407812.055168,1703407812.055058,34.000000,0.000000,4184.743652,4155.128418,4281.153809,4237.436035,4160.256348,4137.179688,4197.820313,4152.179688,4152.820313,4156.794922,4603.846191,4458.974121,4349.487305,4460.256348,0.000000,4.000000,75.000000,,,,0.000000,4.000000,4.000000,4.000000,4.000000,4.000000,4.000000,4.000000,4.000000,4.000000,4.000000,4.000000,4.000000,4.000000,4.000000,100.000000,,,,,,,,,,,,,,,,,,,,,,,,,,,,
1703407812.062976,1703407812.062866,35.000000,0.000000,4177.051270,4152.179688,4270.897461,4230.128418,4162.692383,4140.769043,4194.102539,4150.000000,4149.358887,4152.692383,4595.128418,4445.000000,4341.666504,4457.179688,0.000000,4.000000,75.000000,,,,0.000000,4.000000,4.000000,4.000000,4.000000,4.000000,4.000000,4.000000,4.000000,4.000000,4.000000,4.000000,4.000000,4.000000,4.000000,100.000000,,,,,,,,,,,,,,,,,,,,,,,,,,,,
1703407812.070784,1703407812.070774,36.000000,0.000000,4163.974121,4146.538574,4264.230957,4220.384766,4172.948730,4153.461426,4197.563965,4154.102539,4153.333496,4159.102539,4599.487305,4441.410156,4346.153809,4438.077148,0.000000,4.000000,75.000000,,,,0.000000,4.000000,4.000000,4.000000,4.000000,4.000000,4.000000,4.000000,4.000000,4.000000,4.000000,4.000000,4.000000,4.000000,4.000000,100.000000,,,,,,,,,,,,,,,,,9.000000,0.000000,0.727316,-0.152100,-0.661560,-0.101074,0.986449,-0.079600,0.076670,-15.241046,-41.235577,65.633781
1703407812.078592,1703407812.078582,37.000000,0.000000,4168.077148,4149.615234,4265.384766,4223.205078,4174.230957,4153.589844,4204.487305,4158.333496,4160.512695,4165.769043,4605.000000,4449.230957,4349.615234,4431.025879,0.000000,4.000000,75.000000,,,,0.000000,4.000000,4.000000,4.000000,4.000000,4.000000,4.000000,4.000000,4.000000,4.000000,4.000000,4.000000,4.000000,4.000000,4.000000,100.000000,,,,,,,,,,,,,,,,,,,,,,,,,,,,
1703407812.086400,1703407812.086490,38.000000,0.000000,4168.589844,4151.922852,4264.743652,4229.743652,4163.974121,4143.974121,4195.897461,4155.512695,4157.563965,4156.410156,4596.025879,4444.102539,4344.230957,4442.436035,0.000000,4.000000,75.000000,,,,0.000000,4.000000,4.000000,4.000000,4.000000,4.000000,4.000000,4.000000,4.000000,4.000000,4.000000,4.000000,4.000000,4.000000,4.000000,100.000000,,,,,,,,,,,,,,,,,,,,,,,,,,,,
1703407812.094208,1703407812.094298,39.000000,0.000000,4167.820313,4149.487305,4268.974121,4235.641113,4160.256348,4141.025879,4186.410156,4155.384766,4157.179688,4153.461426,4594.871582,4440.128418,4346.538574,4449.102539,0.000000,4.000000,75.000000,,,,0.000000,4.000000,4.000000,4.000000,4.000000,4.000000,4.000000,4.000000,4.000000,4.000000,4.000000,4.000000,4.000000,4.000000,4.000000,100.000000,,,,,,,,,,,,,,,,,,,,,,,,,,,,
1703407812.102016,1703407812.102206,40.000000,0.000000,4184.230957,4159.230957,4281.922852,4241.282227,4167.692383,4142.051270,4192.948730,4161.282227,4164.102539,4168.589844,4608.974121,4454.615234,4357.563965,4446.538574,0.000000,4.000000,75.000000,,,,0.000000,4.000000,4.000000,4.000000,4.000000,4.000000,4.000000,4.000000,4.000000,4.000000,4.000000,4.000000,4.000000,4.000000,4.000000,100.000000,,,,,,,,,,,,,,,,,10.000000,0.000000,0.727414,-0.151978,-0.661499,-0.100952,0.984007,-0.087901,0.081065,-15.216942,-41.278687,65.620407
1703407812.109824,1703407812.110014,41.000000,0.000000,4188.589844,4170.256348,4285.000000,4237.179688,4171.922852,4141.794922,4200.641113,4159.230957,4161.025879,4170.897461,4609.871582,4457.948730,4362.948730,4445.000000,0.000000,4.000000,75.000000,,,,0.000000,4.000000,4.000000,4.000000,4.000000,4.000000,4.000000,4.000000,4.000000,4.000000,4.000000,4.000000,4.000000,4.000000,4.000000,100.000000,,,,,,,,,,,,,,,,,,,,,,,,,,,,
1703407812.117632,1703407812.117922,42.000000,0.000000,4177.051270,4164.102539,4278.461426,4233.717773,4168.846191,4143.205078,4196.410156,4152.051270,4151.794922,4161.025879,4599.615234,4449.230957,4357.948730,4447.820313,0.000000,4.000000,75.000000,,,,0.000000,4.000000,4.000000,4.000000,4.000000,4.000000,4.000000,4.000000,4.000000,4.000000,4.000000,4.000000,4.000000,4.000000,4.000000,100.000000,,,,,,,,,,,,,,,,,,,,,,,,,,,,
1703407812.125440,1703407812.125730,43.000000,0.000000,4184.102539,4155.256348,4280.384766,4242.948730,4170.641113,4144.487305,4193.974121,4151.538574,4152.436035,4163.717773,4602.307617,4452.692383,4355.897461,4452.436035,0.000000,4.000000,75.000000,,,,0.000000,4.000000,4.000000,4.000000,4.000000,4.000000,4.000000,4.000000,4.000000,4.000000,4.000000,4.000000,4.000000,4.000000,4.000000,100.000000,,,,,,,,,,,,,,,,,,,,,,,,,,,,
1703407812.133248,1703407812.133638,44.000000,0.000000,4193.974121,4156.410156,4278.717773,4250.384766,4172.948730,4140.769043,4195.128418,4154.615234,4156.410156,4165.128418,4608.077148,4454.871582,4358.077148,4453.205078,0.000000,4.000000,75.000000,,,,0.000000,4.000000,4.000000,4.000000,4.000000,4.000000,4.000000,4.000000,4.000000,4.000000,4.000000,4.000000,4.000000,4.000000,4.000000,100.000000,,,,,,,,,,,,,,,,,11.000000,0.000000,0.727589,-0.152161,-0.661255,-0.101013,0.990355,-0.090831,0.096203,-15.311914,-41.334152,65.641693
1703407812.141056,1703407812.141446,45.000000,0.000000,4182.179688,4154.871582,4267.820313,4243.333496,4167.948730,4137.948730,4187.179688,4152.563965,4153.333496,4155.512695,4601.922852,4440.384766,4351.282227,4445.769043,0.000000,4.000000,75.000000,,,,0.000000,4.000000,4.000000,4.000000,4.000000,4.000000,4.000000,4.000000,4.000000,4.000000,4.000000,4.000000,4.000000,4.000000,4.000000,100.000000,,,,,,,,,,,,,,,,,,,,,,,,,,,,
1703407812.148864,1703407812.149154,46.000000,0.000000,4174.871582,4145.897461,4263.077148,4235.897461,4167.051270,4144.743652,4183.077148,4148.717773,4150.256348,4152.563965,4595.256348,4432.948730,4343.461426,4438.205078,0.000000,4.000000,75.000000,,,,0.000000,4.000000,4.000000,4.000000,4.000000,4.000000,4.000000,4.000000,4.000000,4.000000,4.000000,4.000000,4.000000,4.000000,4.000000,100.000000,,,,,,,,,,,,,,,,,,,,,,,,,,,,
1703407812.156672,1703407812.157062,47.000000,0.000000,4183.589844,4142.307617,4269.230957,4235.641113,4170.256348,4154.487305,4186.794922,4152.307617,4157.563965,4155.128418,4598.077148,4443.077148,4344.743652,4440.897461,0.000000,4.000000,75.000000,,,,0.000000,4.000000,4.000000,4.000000,4.000000,4.000000,4.000000,4.000000,4.000000,4.000000,4.000000,4.000000,4.000000,4.000000,4.000000,100.000000,,,,,,,,,,,,,,,,,,,,,,,,,,,,
1703407812.164481,1703407812.164870,48.000000,0.000000,4185.897461,4146.025879,4277.436035,4237.436035,4169.358887,4156.025879,4188.846191,4159.358887,4165.512695,4154.487305,4603.205078,4450.128418,4348.077148,4448.077148,0.000000,4.000000,75.000000,,,,0.000000,4.000000,4.000000,4.000000,4.000000,4.000000,4.000000,4.000000,4.000000,4.000000,4.000000,4.000000,4.000000,4.000000,4.000000,100.000000,,,,,,,,,,,,,,,,,12.000000,0.000000,0.727538,-0.152588,-0.661194,-0.101135,0.996704,-0.074228,0.089855,-15.364056,-41.367401,65.544197
1703407812.172289,1703407812.172778,49.000000,0.000000,4182.307617,4144.487305,4275.128418,4237.179688,4166.922852,4157.820313,4190.897461,4158.461426,4160.512695,4157.436035,4602.179688,4447.563965,4344.102539,4441.538574,0.000000,4.000000,75.000000,,,,0.000000,4.000000,4.000000,4.000000,4.000000,4.000000,4.000000,4.000000,4.000000,4.000000,4.000000,4.000000,4.000000,4.000000,4.000000,100.000000,,,,,,,,,,,,,,,,,,,,,,,,,,,,
1703407812.180097,1703407812.180587,50.000000,0.000000,4185.641113,4137.436035,4267.820313,4231.538574,4168.461426,4169.102539,4196.153809,4154.615234,4157.948730,4163.205078,4599.358887,4445.000000,4343.974121,4441.025879,0.000000,4.000000,75.000000,,,,0.000000,4.000000,4.000000,4.000000,4.000000,4.000000,4.000000,4.000000,4.000000,4.000000,4.000000,4.000000,4.000000,4.000000,4.000000,100.000000,,,,,,,,,,,,,,,,,,,,,,,,,,,,
1703407812.187905,1703407812.188495,51.000000,0.000000,4186.538574,4135.897461,4269.102539,4228.589844,4167.563965,4175.128418,4198.717773,4157.563965,4165.897461,4163.077148,4601.282227,4446.410156,4349.615234,4456.153809,0.000000,4.000000,75.000000,,,,0.000000,4.000000,4.000000,4.000000,4.000000,4.000000,4.000000,4.000000,4.000000,4.000000,4.000000,4.000000,4.000000,4.000000,4.000000,100.000000,,,,,,,,,,,,,,,,,,,,,,,,,,,,
1703407812.195713,1703407812.196303,52.000000,0.000000,4181.538574,4138.974121,4274.743652,4234.615234,4167.820313,4170.897461,4193.846191,4156.666504,4161.410156,4158.846191,4602.307617,4444.230957,4351.153809,4461.153809,0.000000,4.000000,75.000000,,,,0.000000,4.000000,4.000000,4.000000,4.000000,4.000000,4.000000,4.000000,4.000000,4.000000,4.000000,4.000000,4.000000,4.000000,4.000000,100.000000,,,,,,,,,,,,,,,,,13.000000,0.000000,0.727529,-0.152710,-0.661194,-0.101013,0.966915,-0.094250,0.076670,-15.260983,-41.380661,65.606438
1703407812.203521,1703407812.204111,53.000000,0.000000,4188.461426,4140.384766,4273.077148,4244.102539,4173.205078,4169.871582,4193.717773,4149.615234,4148.205078,4156.282227,4598.205078,4442.436035,4351.794922,4462.820313,0.000000,4.000000,75.000000,,,,0.000000,4.000000,4.000000,4.000000,4.000000,4.000000,4.000000,4.000000,4.000000,4.000000,4.000000,4.000000,4.000000,4.000000,4.000000,100.000000,,,,,,,,,,,,,,,,,,,,,,,,,,,,
1703407812.211329,1703407812.211819,54.000000,0.000000,4194.230957,4140.128418,4272.051270,4247.820313,4173.717773,4171.666504,4196.410156,4150.769043,4150.000000,4156.410156,4596.794922,4444.230957,4353.846191,4473.333496,0.000000,4.000000,75.000000,,,,0.000000,4.000000,4.000000,4.000000,4.000000,4.000000,4.000000,4.000000,4.000000,4.000000,4.000000,4.000000,4.000000,4.000000,4.000000,100.000000,,,,,,,,,,,,,,,,,,,,,,,,,,,,
1703407812.219137,1703407812.219727,55.000000,0.000000,4188.333496,4142.307617,4279.102539,4246.153809,4169.230957,4171.538574,4195.641113,4156.025879,4156.282227,4155.769043,4599.871582,4444.743652,4353.333496,4460.769043,0.000000,4.000000,75.000000,,,,0.000000,4.000000,4.000000,4.000000,4.000000,4.000000,4.000000,4.000000,4.000000,4.000000,4.000000,4.000000,4.000000,4.000000,4.000000,100.000000,,,,,,,,,,,,,,,,,,,,,,,,,,,,
1703407812.226945,1703407812.227536,56.000000,0.000000,4184.615234,4148.589844,4280.384766,4245.897461,4168.077148,4168.333496,4193.589844,4154.871582,4149.871582,4151.922852,4598.077148,4441.794922,4349.871582,4437.307617,0.000000,4.000000,75.000000,,,,0.000000,4.000000,4.000000,4.000000,4.000000,4.000000,4.000000,4.000000,4.000000,4.000000,4.000000,4.000000,4.000000,4.000000,4.000000,100.000000,,,,,,,,,,,,,,,,,14.000000,0.000000,0.727529,-0.152649,-0.661255,-0.100708,0.996704,-0.107923,0.085948,-15.218219,-41.425930,65.495796
1703407812.234753,1703407812.235444,57.000000,0.000000,4184.871582,4154.743652,4278.589844,4249.871582,4170.512695,4163.846191,4191.922852,4152.692383,4145.641113,4155.384766,4599.487305,4441.538574,4353.205078,4448.717773,0.000000,4.000000,75.000000,,,,0.000000,4.000000,4.000000,4.000000,4.000000,4.000000,4.000000,4.000000,4.000000,4.000000,4.000000,4.000000,4.000000,4.000000,4.000000,100.000000,,,,,,,,,,,,,,,,,,,,,,,,,,,,
1703407812.242561,1703407812.243252,58.000000,0.000000,4188.974121,4155.897461,4284.487305,4255.512695,4171.538574,4163.846191,4191.410156,4155.641113,4151.153809,4164.230957,4609.102539,4446.666504,4361.025879,4465.641113,0.000000,4.000000,75.000000,,,,0.000000,4.000000,4.000000,4.000000,4.000000,4.000000,4.000000,4.000000,4.000000,4.000000,4.000000,4.000000,4.000000,4.000000,4.000000,100.000000,,,,,,,,,,,,,,,,,,,,,,,,,,,,
1703407812.250369,1703407812.251160,59.000000,0.000000,4196.410156,4157.307617,4289.102539,4255.512695,4173.461426,4168.205078,4193.589844,4157.820313,4155.641113,4162.948730,4610.897461,4445.512695,4362.820313,4455.897461,0.000000,4.000000,75.000000,,,,0.000000,4.000000,4.000000,4.000000,4.000000,4.000000,4.000000,4.000000,4.000000,4.000000,4.000000,4.000000,4.000000,4.000000,4.000000,100.000000,,,,,,,,,,,,,,,,,,,,,,,,,,,,
