title:نوار انذار, start timestamp:1703161437.674613, stop timestamp:1703161448.519996, headset type:EPOCX, headset serial:E50206EF, headset firmware:720, channels:67, sampling rate:eeg_128;mot_32, samples:1390      , version:2.2, 
Timestamp,OriginalTimestamp,EEG.Counter,EEG.Interpolated,EEG.AF3,EEG.F7,EEG.F3,EEG.FC5,EEG.T7,EEG.P7,EEG.O1,EEG.O2,EEG.P8,EEG.T8,EEG.FC6,EEG.F4,EEG.F8,EEG.AF4,EEG.RawCq,EEG.Battery,EEG.BatteryPercent,MarkerIndex,MarkerType,MarkerValueInt,EEG.MarkerHardware,CQ.AF3,CQ.F7,CQ.F3,CQ.FC5,CQ.T7,CQ.P7,CQ.O1,CQ.O2,CQ.P8,CQ.T8,CQ.FC6,CQ.F4,CQ.F8,CQ.AF4,CQ.Overall,EQ.SampleRateQuality,EQ.OVERALL,EQ.AF3,EQ.F7,EQ.F3,EQ.FC5,EQ.T7,EQ.P7,EQ.O1,EQ.O2,EQ.P8,EQ.T8,EQ.FC6,EQ.F4,EQ.F8,EQ.AF4,MOT.CounterMems,MOT.InterpolatedMems,MOT.Q0,MOT.Q1,MOT.Q2,MOT.Q3,MOT.AccX,MOT.AccY,MOT.AccZ,MOT.MagX,MOT.MagY,MOT.MagZ
1703161437.674613,1703161437.675592,37.000000,0.000000,4173.205078,4110.000000,4252.051270,4199.743652,4123.333496,4120.256348,4101.025879,4126.922852,4130.897461,4119.615234,4622.820313,4426.922852,4357.692383,4477.820313,0.000000,4.000000,80.000000,,,,0.000000,4.000000,4.000000,4.000000,4.000000,4.000000,4.000000,4.000000,4.000000,4.000000,4.000000,4.000000,4.000000,4.000000,4.000000,100.000000,,,,,,,,,,,,,,,,,,,,,,,,,,,,
1703161437.682421,1703161437.683500,38.000000,0.000000,4177.307617,4113.717773,4258.589844,4206.794922,4123.077148,4116.666504,4094.743652,4121.410156,4121.538574,4117.307617,4624.358887,4425.000000,4357.436035,4477.948730,0.000000,4.000000,80.000000,,,,0.000000,4.000000,4.000000,4.000000,4.000000,4.000000,4.000000,4.000000,4.000000,4.000000,4.000000,4.000000,4.000000,4.000000,4.000000,100.000000,,,,,,,,,,,,,,,,,,,,,,,,,,,,
1703161437.690229,1703161437.691308,39.000000,0.000000,4189.230957,4119.871582,4263.717773,4216.153809,4123.974121,4108.205078,4091.281982,4123.461426,4125.641113,4124.358887,4630.641113,4431.666504,4370.000000,4490.384766,0.000000,4.000000,80.000000,,,,0.000000,4.000000,4.000000,4.000000,4.000000,4.000000,4.000000,4.000000,4.000000,4.000000,4.000000,4.000000,4.000000,4.000000,4.000000,100.000000,,,,,,,,,,,,,,,,,,,,,,,,,,,,
1703161437.698037,1703161437.699216,40.000000,0.000000,4197.820313,4125.897461,4270.000000,4216.282227,4121.410156,4105.384766,4093.461426,4123.717773,4124.487305,4128.589844,4636.922852,4443.077148,4382.436035,4502.307617,0.000000,4.000000,80.000000,,,,0.000000,4.000000,4.000000,4.000000,4.000000,4.000000,4.000000,4.000000,4.000000,4.000000,4.000000,4.000000,4.000000,4.000000,4.000000,100.000000,,,,,,,,,,,,,,,,,10.000000,0.000000,0.664631,0.291077,-0.585571,0.361450,0.982542,0.019534,0.141619,-16.529173,-34.582176,64.939476
1703161437.705845,1703161437.707024,41.000000,0.000000,4203.846191,4132.051270,4277.179688,4218.461426,4125.769043,4110.384766,4096.410156,4119.743652,4111.922852,4125.641113,4642.692383,4443.589844,4383.589844,4507.307617,0.000000,4.000000,80.000000,,,,0.000000,4.000000,4.000000,4.000000,4.000000,4.000000,4.000000,4.000000,4.000000,4.000000,4.000000,4.000000,4.000000,4.000000,4.000000,100.000000,,,,,,,,,,,,,,,,,,,,,,,,,,,,
1703161437.713653,1703161437.714732,42.000000,0.000000,4211.153809,4141.025879,4279.871582,4228.846191,4133.589844,4110.897461,4096.922852,4119.358887,4110.897461,4127.436035,4643.205078,4440.641113,4379.102539,4506.153809,0.000000,4.000000,80.000000,,,,0.000000,4.000000,4.000000,4.000000,4.000000,4.000000,4.000000,4.000000,4.000000,4.000000,4.000000,4.000000,4.000000,4.000000,4.000000,100.000000,,,,,,,,,,,,,,,,,,,,,,,,,,,,
1703161437.721461,1703161437.722540,43.000000,0.000000,4216.922852,4142.051270,4279.743652,4230.128418,4135.384766,4112.051270,4100.769043,4124.743652,4119.102539,4134.871582,4646.538574,4444.615234,4387.820313,4508.589844,0.000000,4.000000,80.000000,,,,0.000000,4.000000,4.000000,4.000000,4.000000,4.000000,4.000000,4.000000,4.000000,4.000000,4.000000,4.000000,4.000000,4.000000,4.000000,100.000000,,,,,,,,,,,,,,,,,,,,,,,,,,,,
1703161437.729269,1703161437.730248,44.000000,0.000000,4215.512695,4135.000000,4278.333496,4221.666504,4133.974121,4118.205078,4107.563965,4132.307617,4122.051270,4139.102539,4654.102539,4449.230957,4397.820313,4516.153809,0.000000,4.000000,80.000000,,,,0.000000,4.000000,4.000000,4.000000,4.000000,4.000000,4.000000,4.000000,4.000000,4.000000,4.000000,4.000000,4.000000,4.000000,4.000000,100.000000,,,,,,,,,,,,,,,,,11.000000,0.000000,0.664636,0.291321,-0.585632,0.361145,0.982053,0.009278,0.125992,-16.426256,-34.623959,64.962196
1703161437.737077,1703161437.738056,45.000000,0.000000,4207.051270,4131.025879,4278.461426,4219.102539,4130.000000,4123.846191,4110.512695,4138.589844,4118.077148,4137.051270,4651.538574,4452.179688,4389.358887,4516.538574,0.000000,4.000000,80.000000,,,,0.000000,4.000000,4.000000,4.000000,4.000000,4.000000,4.000000,4.000000,4.000000,4.000000,4.000000,4.000000,4.000000,4.000000,4.000000,100.000000,,,,,,,,,,,,,,,,,,,,,,,,,,,,
1703161437.744886,1703161437.745764,46.000000,0.000000,4203.205078,4132.563965,4281.153809,4224.358887,4131.153809,4123.333496,4109.102539,4135.000000,4108.974121,4128.717773,4643.589844,4452.820313,4380.384766,4511.410156,0.000000,4.000000,80.000000,,,,0.000000,4.000000,4.000000,4.000000,4.000000,4.000000,4.000000,4.000000,4.000000,4.000000,4.000000,4.000000,4.000000,4.000000,4.000000,100.000000,,,,,,,,,,,,,,,,,,,,,,,,,,,,
1703161437.752694,1703161437.753572,47.000000,0.000000,4203.077148,4132.179688,4272.307617,4222.948730,4133.974121,4114.871582,4106.410156,4125.769043,4110.769043,4121.410156,4636.922852,4440.000000,4376.153809,4503.589844,0.000000,4.000000,80.000000,,,,0.000000,4.000000,4.000000,4.000000,4.000000,4.000000,4.000000,4.000000,4.000000,4.000000,4.000000,4.000000,4.000000,4.000000,4.000000,100.000000,,,,,,,,,,,,,,,,,,,,,,,,,,,,
1703161437.760502,1703161437.761280,48.000000,0.000000,4200.384766,4131.538574,4260.769043,4219.102539,4126.282227,4111.410156,4104.102539,4129.102539,4130.256348,4125.384766,4633.974121,4429.871582,4367.307617,4496.410156,0.000000,4.000000,80.000000,,,,0.000000,4.000000,4.000000,4.000000,4.000000,4.000000,4.000000,4.000000,4.000000,4.000000,4.000000,4.000000,4.000000,4.000000,4.000000,100.000000,,,,,,,,,,,,,,,,,12.000000,0.000000,0.664748,0.291443,-0.585632,0.360840,0.979123,0.016115,0.132829,-16.400297,-34.711559,64.915977
1703161437.768310,1703161437.769088,49.000000,0.000000,4199.102539,4131.282227,4265.256348,4219.871582,4125.256348,4119.102539,4107.051270,4142.563965,4143.589844,4135.128418,4638.846191,4440.512695,4369.615234,4503.205078,0.000000,4.000000,80.000000,,,,0.000000,4.000000,4.000000,4.000000,4.000000,4.000000,4.000000,4.000000,4.000000,4.000000,4.000000,4.000000,4.000000,4.000000,4.000000,100.000000,,,,,,,,,,,,,,,,,,,,,,,,,,,,
1703161437.776118,1703161437.776796,50.000000,0.000000,4200.128418,4130.769043,4269.743652,4221.922852,4139.871582,4121.538574,4108.717773,4143.974121,4140.000000,4135.384766,4640.384766,4445.897461,4375.897461,4507.051270,0.000000,4.000000,80.000000,,,,0.000000,4.000000,4.000000,4.000000,4.000000,4.000000,4.000000,4.000000,4.000000,4.000000,4.000000,4.000000,4.000000,4.000000,4.000000,100.000000,,,,,,,,,,,,,,,,,,,,,,,,,,,,
1703161437.783926,1703161437.784604,51.000000,0.000000,4202.436035,4136.666504,4265.000000,4223.717773,4143.717773,4118.077148,4102.563965,4137.820313,4137.948730,4126.794922,4632.820313,4432.307617,4365.897461,4495.000000,0.000000,4.000000,80.000000,,,,0.000000,4.000000,4.000000,4.000000,4.000000,4.000000,4.000000,4.000000,4.000000,4.000000,4.000000,4.000000,4.000000,4.000000,4.000000,100.000000,,,,,,,,,,,,,,,,,,,,,,,,,,,,
1703161437.791734,1703161437.792312,52.000000,0.000000,4201.922852,4140.641113,4265.769043,4220.769043,4131.025879,4117.179688,4096.538574,4136.666504,4136.410156,4122.563965,4630.128418,4426.153809,4363.205078,4491.666504,0.000000,4.000000,80.000000,,,,0.000000,4.000000,4.000000,4.000000,4.000000,4.000000,4.000000,4.000000,4.000000,4.000000,4.000000,4.000000,4.000000,4.000000,4.000000,100.000000,,,,,,,,,,,,,,,,,13.000000,0.000000,0.664813,0.291504,-0.585754,0.360474,0.990355,0.014650,0.128922,-16.276934,-34.840405,64.841049
1703161437.799542,1703161437.800120,53.000000,0.000000,4202.179688,4133.205078,4271.282227,4216.794922,4130.384766,4112.051270,4093.076904,4129.871582,4126.922852,4121.794922,4632.820313,4436.025879,4376.153809,4504.871582,0.000000,4.000000,80.000000,,,,0.000000,4.000000,4.000000,4.000000,4.000000,4.000000,4.000000,4.000000,4.000000,4.000000,4.000000,4.000000,4.000000,4.000000,4.000000,100.000000,,,,,,,,,,,,,,,,,,,,,,,,,,,,
1703161437.807350,1703161437.807828,54.000000,0.000000,4211.538574,4130.384766,4277.692383,4224.743652,4136.025879,4109.615234,4095.000000,4121.282227,4121.025879,4123.589844,4637.436035,4446.922852,4382.948730,4514.871582,0.000000,4.000000,80.000000,,,,0.000000,4.000000,4.000000,4.000000,4.000000,4.000000,4.000000,4.000000,4.000000,4.000000,4.000000,4.000000,4.000000,4.000000,4.000000,100.000000,,,,,,,,,,,,,,,,,,,,,,,,,,,,
1703161437.815158,1703161437.815736,55.000000,0.000000,4220.641113,4141.153809,4278.974121,4233.461426,4131.410156,4119.487305,4102.179688,4121.538574,4116.025879,4123.846191,4637.948730,4444.487305,4377.436035,4516.153809,0.000000,4.000000,80.000000,,,,0.000000,4.000000,4.000000,4.000000,4.000000,4.000000,4.000000,4.000000,4.000000,4.000000,4.000000,4.000000,4.000000,4.000000,4.000000,100.000000,,,,,,,,,,,,,,,,,,,,,,,,,,,,
1703161437.822966,1703161437.823545,56.000000,0.000000,4215.384766,4140.128418,4269.102539,4223.077148,4126.922852,4124.615234,4106.025879,4121.410156,4106.538574,4119.230957,4631.922852,4433.974121,4370.128418,4509.743652,0.000000,4.000000,80.000000,,,,0.000000,4.000000,4.000000,4.000000,4.000000,4.000000,4.000000,4.000000,4.000000,4.000000,4.000000,4.000000,4.000000,4.000000,4.000000,100.000000,,,,,,,,,,,,,,,,,14.000000,0.000000,0.664897,0.291321,-0.585938,0.360168,0.978147,0.008302,0.133805,-16.499241,-34.806366,64.956940
1703161437.830774,1703161437.831453,57.000000,0.000000,4210.256348,4132.436035,4262.692383,4213.077148,4134.102539,4122.692383,4108.205078,4125.384766,4109.487305,4119.615234,4636.922852,4434.230957,4375.384766,4507.179688,0.000000,4.000000,80.000000,,,,0.000000,4.000000,4.000000,4.000000,4.000000,4.000000,4.000000,4.000000,4.000000,4.000000,4.000000,4.000000,4.000000,4.000000,4.000000,100.000000,1.000000,100.000000,4.000000,4.000000,4.000000,4.000000,4.000000,4.000000,4.000000,4.000000,4.000000,4.000000,4.000000,4.000000,4.000000,4.000000,,,,,,,,,,,,
1703161437.838582,1703161437.839261,58.000000,0.000000,4215.000000,4137.051270,4266.025879,4220.384766,4135.256348,4123.589844,4112.179688,4137.436035,4124.743652,4126.025879,4647.051270,4444.743652,4383.461426,4514.102539,0.000000,4.000000,80.000000,,,,0.000000,4.000000,4.000000,4.000000,4.000000,4.000000,4.000000,4.000000,4.000000,4.000000,4.000000,4.000000,4.000000,4.000000,4.000000,100.000000,,,,,,,,,,,,,,,,,,,,,,,,,,,,
1703161437.846390,1703161437.847169,59.000000,0.000000,4217.692383,4140.897461,4267.820313,4224.615234,4129.615234,4125.128418,4112.436035,4142.948730,4133.846191,4127.563965,4642.051270,4446.666504,4379.743652,4514.615234,0.000000,4.000000,80.000000,,,,0.000000,4.000000,4.000000,4.000000,4.000000,4.000000,4.000000,4.000000,4.000000,4.000000,4.000000,4.000000,4.000000,4.000000,4.000000,100.000000,,,,,,,,,,,,,,,,,,,,,,,,,,,,
1703161437.854198,1703161437.854977,60.000000,0.000000,4208.974121,4136.410156,4264.358887,4219.615234,4134.230957,4127.820313,4107.051270,4141.153809,4142.436035,4126.922852,4633.589844,4436.538574,4370.128418,4507.692383,0.000000,4.000000,80.000000,,,,0.000000,4.000000,4.000000,4.000000,4.000000,4.000000,4.000000,4.000000,4.000000,4.000000,4.000000,4.000000,4.000000,4.000000,4.000000,100.000000,,,,,,,,,,,,,,,,,15.000000,0.000000,0.664855,0.291199,-0.586121,0.360046,0.985960,0.017092,0.139177,-16.549316,-34.759060,64.877914
1703161437.862006,1703161437.862885,61.000000,0.000000,4201.153809,4133.974121,4261.922852,4217.179688,4132.563965,4127.307617,4103.846191,4142.692383,4148.077148,4125.128418,4630.512695,4430.256348,4363.717773,4506.666504,0.000000,4.000000,80.000000,,,,0.000000,4.000000,4.000000,4.000000,4.000000,4.000000,4.000000,4.000000,4.000000,4.000000,4.000000,4.000000,4.000000,4.000000,4.000000,100.000000,,,,,,,,,,,,,,,,,,,,,,,,,,,,
1703161437.869814,1703161437.870693,62.000000,0.000000,4206.153809,4137.563965,4262.692383,4219.615234,4124.102539,4121.538574,4105.641113,4141.410156,4139.487305,4121.538574,4628.333496,4431.666504,4362.051270,4508.333496,0.000000,4.000000,80.000000,,,,0.000000,4.000000,4.000000,4.000000,4.000000,4.000000,4.000000,4.000000,4.000000,4.000000,4.000000,4.000000,4.000000,4.000000,4.000000,100.000000,,,,,,,,,,,,,,,,,,,,,,,,,,,,
1703161437.877622,1703161437.878601,63.000000,0.000000,4210.641113,4134.615234,4263.333496,4219.102539,4130.384766,4120.000000,4103.974121,4137.820313,4132.436035,4120.769043,4628.589844,4430.897461,4364.487305,4506.282227,0.000000,4.000000,80.000000,,,,0.000000,4.000000,4.000000,4.000000,4.000000,4.000000,4.000000,4.000000,4.000000,4.000000,4.000000,4.000000,4.000000,4.000000,4.000000,100.000000,,,,,,,,,,,,,,,,,,,,,,,,,,,,
1703161437.885430,1703161437.886409,64.000000,0.000000,4210.256348,4130.641113,4262.563965,4217.820313,4138.974121,4122.051270,4095.256348,4135.256348,4134.615234,4119.743652,4626.794922,4427.051270,4362.948730,4502.563965,5243.000000,4.000000,80.000000,,,,0.000000,4.000000,4.000000,4.000000,4.000000,4.000000,4.000000,4.000000,4.000000,4.000000,4.000000,4.000000,4.000000,4.000000,4.000000,100.000000,,,,,,,,,,,,,,,,,16.000000,0.000000,0.664766,0.291260,-0.586304,0.359863,0.983518,0.011232,0.134782,-16.511051,-34.749821,64.923454
1703161437.893238,1703161437.894317,65.000000,0.000000,4209.615234,4131.153809,4262.820313,4216.666504,4134.871582,4117.563965,4088.076904,4128.974121,4137.436035,4121.538574,4624.615234,4427.179688,4362.307617,4504.871582,5337.000000,4.000000,80.000000,,,,0.000000,4.000000,4.000000,4.000000,4.000000,4.000000,4.000000,4.000000,4.000000,4.000000,4.000000,4.000000,4.000000,4.000000,4.000000,100.000000,,,,,,,,,,,,,,,,,,,,,,,,,,,,
1703161437.901047,1703161437.902125,66.000000,0.000000,4212.436035,4133.846191,4265.000000,4218.846191,4132.307617,4110.512695,4089.102539,4120.384766,4133.333496,4125.897461,4629.743652,4430.128418,4369.615234,4509.358887,5268.000000,4.000000,80.000000,,,,0.000000,4.000000,4.000000,4.000000,4.000000,4.000000,4.000000,4.000000,4.000000,4.000000,4.000000,4.000000,4.000000,4.000000,4.000000,100.000000,,,,,,,,,,,,,,,,,,,,,,,,,,,,
1703161437.908855,1703161437.909833,67.000000,0.000000,4217.820313,4142.820313,4268.974121,4227.051270,4136.282227,4108.333496,4090.769287,4110.512695,4114.358887,4121.025879,4629.102539,4429.102539,4365.000000,4507.179688,5248.000000,4.000000,80.000000,,,,0.000000,4.000000,4.000000,4.000000,4.000000,4.000000,4.000000,4.000000,4.000000,4.000000,4.000000,4.000000,4.000000,4.000000,4.000000,100.000000,,,,,,,,,,,,,,,,,,,,,,,,,,,,
1703161437.916663,1703161437.917641,68.000000,0.000000,4220.384766,4145.384766,4272.563965,4228.333496,4133.461426,4109.743652,4089.230713,4102.179688,4095.384521,4112.948730,4626.282227,4430.128418,4360.897461,4507.179688,5101.000000,4.000000,80.000000,,,,0.000000,4.000000,4.000000,4.000000,4.000000,4.000000,4.000000,4.000000,4.000000,4.000000,4.000000,4.000000,4.000000,4.000000,4.000000,100.000000,,,,,,,,,,,,,,,,,17.000000,0.000000,0.664752,0.291321,-0.586365,0.359741,0.990355,0.019534,0.126969,-16.609947,-34.824841,64.881111
1703161437.924471,1703161437.925349,69.000000,0.000000,4223.717773,4136.410156,4275.384766,4225.641113,4126.538574,4115.256348,4091.410156,4110.512695,4105.128418,4123.717773,4641.153809,4440.897461,4384.487305,4522.692383,5148.000000,4.000000,80.000000,,,,0.000000,4.000000,4.000000,4.000000,4.000000,4.000000,4.000000,4.000000,4.000000,4.000000,4.000000,4.000000,4.000000,4.000000,4.000000,100.000000,,,,,,,,,,,,,,,,,,,,,,,,,,,,
1703161437.932279,1703161437.933157,70.000000,0.000000,4228.974121,4138.077148,4277.820313,4229.230957,4124.615234,4122.436035,4100.897461,4129.743652,4127.948730,4139.230957,4654.487305,4453.974121,4401.794922,4535.128418,5046.000000,4.000000,80.000000,,,,0.000000,4.000000,4.000000,4.000000,4.000000,4.000000,4.000000,4.000000,4.000000,4.000000,4.000000,4.000000,4.000000,4.000000,4.000000,100.000000,,,,,,,,,,,,,,,,,,,,,,,,,,,,
1703161437.940087,1703161437.940865,71.000000,0.000000,4226.922852,4144.743652,4274.615234,4226.794922,4129.358887,4124.487305,4108.333496,4138.846191,4136.794922,4136.794922,4644.358887,4455.512695,4384.358887,4526.153809,5248.000000,4.000000,80.000000,,,,0.000000,4.000000,4.000000,4.000000,4.000000,4.000000,4.000000,4.000000,4.000000,4.000000,4.000000,4.000000,4.000000,4.000000,4.000000,100.000000,,,,,,,,,,,,,,,,,,,,,,,,,,,,
1703161437.947895,1703161437.948673,72.000000,0.000000,4211.153809,4131.538574,4265.128418,4214.102539,4125.000000,4122.051270,4105.256348,4142.307617,4140.512695,4131.666504,4637.179688,4446.153809,4369.743652,4516.025879,5010.000000,4.000000,80.000000,,,,0.000000,4.000000,4.000000,4.000000,4.000000,4.000000,4.000000,4.000000,4.000000,4.000000,4.000000,4.000000,4.000000,4.000000,4.000000,100.000000,,,,,,,,,,,,,,,,,18.000000,0.000000,0.664797,0.291443,-0.586365,0.359558,0.982053,0.020510,0.131364,-16.465618,-34.859024,65.009666
1703161437.955703,1703161437.956381,73.000000,0.000000,4201.794922,4118.589844,4261.153809,4211.666504,4116.282227,4119.358887,4102.307617,4146.025879,4141.410156,4135.384766,4648.589844,4443.461426,4379.102539,4515.769043,5243.000000,4.000000,80.000000,,,,0.000000,4.000000,4.000000,4.000000,4.000000,4.000000,4.000000,4.000000,4.000000,4.000000,4.000000,4.000000,4.000000,4.000000,4.000000,100.000000,,,,,,,,,,,,,,,,,,,,,,,,,,,,
1703161437.963511,1703161437.964189,74.000000,0.000000,4204.102539,4124.487305,4264.230957,4216.153809,4118.077148,4115.897461,4107.307617,4145.897461,4138.846191,4139.358887,4650.128418,4446.666504,4382.307617,4513.205078,5818.000000,4.000000,80.000000,,,,0.000000,4.000000,4.000000,4.000000,4.000000,4.000000,4.000000,4.000000,4.000000,4.000000,4.000000,4.000000,4.000000,4.000000,4.000000,100.000000,,,,,,,,,,,,,,,,,,,,,,,,,,,,
1703161437.971319,1703161437.971897,75.000000,0.000000,4203.589844,4135.000000,4267.051270,4216.282227,4121.538574,4114.871582,4109.615234,4144.230957,4143.974121,4137.436035,4635.641113,4445.512695,4369.230957,4506.025879,6145.000000,4.000000,80.000000,,,,0.000000,4.000000,4.000000,4.000000,4.000000,4.000000,4.000000,4.000000,4.000000,4.000000,4.000000,4.000000,4.000000,4.000000,4.000000,100.000000,,,,,,,,,,,,,,,,,,,,,,,,,,,,
1703161437.979127,1703161437.979705,76.000000,0.000000,4202.948730,4137.307617,4271.153809,4221.666504,4125.256348,4120.000000,4108.205078,4143.974121,4146.282227,4131.282227,4629.102539,4442.692383,4362.051270,4504.615234,6571.000000,4.000000,80.000000,,,,0.000000,4.000000,4.000000,4.000000,4.000000,4.000000,4.000000,4.000000,4.000000,4.000000,4.000000,4.000000,4.000000,4.000000,4.000000,100.000000,,,,,,,,,,,,,,,,,19.000000,0.000000,0.664783,0.291626,-0.586365,0.359436,0.997192,0.018557,0.126969,-16.385723,-34.839787,65.008698
1703161437.986935,1703161437.987413,77.000000,0.000000,4208.461426,4135.128418,4276.538574,4228.461426,4133.333496,4122.820313,4107.820313,4139.871582,4132.820313,4125.384766,4630.769043,4443.717773,4371.025879,4512.563965,6760.000000,4.000000,80.000000,,,,0.000000,4.000000,4.000000,4.000000,4.000000,4.000000,4.000000,4.000000,4.000000,4.000000,4.000000,4.000000,4.000000,4.000000,4.000000,100.000000,,,,,,,,,,,,,,,,,,,,,,,,,,,,
1703161437.994743,1703161437.995321,78.000000,0.000000,4218.333496,4143.077148,4277.948730,4232.307617,4134.615234,4116.025879,4104.615234,4130.769043,4123.589844,4123.846191,4630.256348,4445.512695,4377.948730,4521.410156,5818.000000,4.000000,80.000000,,,,0.000000,4.000000,4.000000,4.000000,4.000000,4.000000,4.000000,4.000000,4.000000,4.000000,4.000000,4.000000,4.000000,4.000000,4.000000,100.000000,,,,,,,,,,,,,,,,,,,,,,,,,,,,
1703161438.002551,1703161438.003129,79.000000,0.000000,4219.102539,4149.615234,4277.051270,4233.461426,4128.461426,4108.589844,4095.512939,4121.153809,4126.922852,4126.410156,4632.692383,4445.128418,4375.769043,4522.436035,6145.000000,4.000000,80.000000,,,,0.000000,4.000000,4.000000,4.000000,4.000000,4.000000,4.000000,4.000000,4.000000,4.000000,4.000000,4.000000,4.000000,4.000000,4.000000,100.000000,,,,,,,,,,,,,,,,,,,,,,,,,,,,
1703161438.010359,1703161438.011037,80.000000,0.000000,4216.410156,4142.051270,4277.179688,4231.922852,4131.410156,4112.820313,4092.564209,4114.615234,4118.461426,4125.384766,4640.256348,4443.461426,4380.897461,4520.000000,6571.000000,4.000000,80.000000,,,,0.000000,4.000000,4.000000,4.000000,4.000000,4.000000,4.000000,4.000000,4.000000,4.000000,4.000000,4.000000,4.000000,4.000000,4.000000,100.000000,,,,,,,,,,,,,,,,,20.000000,0.000000,0.664936,0.291626,-0.586304,0.359253,0.983030,0.030277,0.143572,-16.397152,-34.622475,64.924500
1703161438.018167,1703161438.018846,81.000000,0.000000,4221.410156,4146.282227,4279.487305,4234.358887,4142.948730,4121.410156,4098.205078,4112.436035,4105.000000,4121.025879,4641.922852,4443.077148,4385.256348,4523.846191,6760.000000,4.000000,80.000000,,,,0.000000,4.000000,4.000000,4.000000,4.000000,4.000000,4.000000,4.000000,4.000000,4.000000,4.000000,4.000000,4.000000,4.000000,4.000000,100.000000,,,,,,,,,,,,,,,,,,,,,,,,,,,,
1703161438.025975,1703161438.026753,82.000000,0.000000,4222.820313,4159.230957,4280.000000,4238.205078,4143.974121,4123.974121,4100.897461,4112.436035,4108.461426,4124.615234,4635.897461,4443.077148,4378.589844,4523.589844,5818.000000,4.000000,80.000000,,,,0.000000,4.000000,4.000000,4.000000,4.000000,4.000000,4.000000,4.000000,4.000000,4.000000,4.000000,4.000000,4.000000,4.000000,4.000000,100.000000,,,,,,,,,,,,,,,,,,,,,,,,,,,,
1703161438.033783,1703161438.034561,83.000000,0.000000,4219.615234,4148.974121,4280.384766,4230.897461,4134.871582,4122.692383,4103.205078,4119.871582,4121.025879,4136.794922,4640.641113,4445.512695,4386.410156,4521.538574,6145.000000,4.000000,80.000000,,,,0.000000,4.000000,4.000000,4.000000,4.000000,4.000000,4.000000,4.000000,4.000000,4.000000,4.000000,4.000000,4.000000,4.000000,4.000000,100.000000,,,,,,,,,,,,,,,,,,,,,,,,,,,,
1703161438.041592,1703161438.042469,84.000000,0.000000,4214.102539,4132.948730,4278.589844,4218.333496,4127.820313,4120.897461,4108.205078,4132.051270,4127.948730,4137.436035,4653.846191,4447.820313,4397.051270,4525.128418,6571.000000,4.000000,80.000000,,,,0.000000,4.000000,4.000000,4.000000,4.000000,4.000000,4.000000,4.000000,4.000000,4.000000,4.000000,4.000000,4.000000,4.000000,4.000000,100.000000,,,,,,,,,,,,,,,,,21.000000,0.000000,0.665041,0.291565,-0.586365,0.359009,0.983518,0.019045,0.138689,-16.457436,-34.510227,64.848717
1703161438.049400,1703161438.050277,85.000000,0.000000,4203.333496,4133.589844,4269.871582,4215.897461,4127.179688,4115.897461,4109.230957,4138.846191,4133.846191,4124.743652,4650.769043,4446.025879,4382.179688,4520.128418,6760.000000,4.000000,80.000000,,,,0.000000,4.000000,4.000000,4.000000,4.000000,4.000000,4.000000,4.000000,4.000000,4.000000,4.000000,4.000000,4.000000,4.000000,4.000000,100.000000,,,,,,,,,,,,,,,,,,,,,,,,,,,,
1703161438.057207,1703161438.058185,86.000000,0.000000,4198.205078,4132.179688,4262.820313,4215.384766,4126.153809,4110.641113,4106.410156,4145.641113,4141.666504,4120.000000,4635.128418,4444.102539,4368.717773,4507.820313,5818.000000,4.000000,80.000000,,,,0.000000,4.000000,4.000000,4.000000,4.000000,4.000000,4.000000,4.000000,4.000000,4.000000,4.000000,4.000000,4.000000,4.000000,4.000000,100.000000,,,,,,,,,,,,,,,,,,,,,,,,,,,,
1703161438.065016,1703161438.065993,87.000000,0.000000,4198.205078,4125.384766,4263.461426,4214.102539,4121.538574,4114.230957,4107.692383,4152.179688,4145.384766,4124.358887,4628.974121,4444.358887,4365.512695,4503.589844,6145.000000,4.000000,80.000000,,,,0.000000,4.000000,4.000000,4.000000,4.000000,4.000000,4.000000,4.000000,4.000000,4.000000,4.000000,4.000000,4.000000,4.000000,4.000000,100.000000,,,,,,,,,,,,,,,,,,,,,,,,,,,,
1703161438.072824,1703161438.073701,88.000000,0.000000,4193.205078,4122.307617,4264.230957,4212.051270,4121.282227,4116.410156,4110.256348,4148.717773,4142.179688,4121.282227,4631.922852,4444.615234,4360.128418,4505.512695,6571.000000,4.000000,80.000000,,,,0.000000,4.000000,4.000000,4.000000,4.000000,4.000000,4.000000,4.000000,4.000000,4.000000,4.000000,4.000000,4.000000,4.000000,4.000000,100.000000,,,,,,,,,,,,,,,,,22.000000,0.000000,0.665040,0.291321,-0.586487,0.359009,0.983030,0.024417,0.142596,-16.495026,-34.475872,64.830505
1703161438.080632,1703161438.081509,89.000000,0.000000,4190.769043,4119.102539,4261.794922,4206.666504,4122.948730,4109.615234,4105.000000,4137.563965,4134.871582,4114.871582,4632.563965,4440.769043,4365.641113,4507.051270,6760.000000,4.000000,80.000000,,,,0.000000,4.000000,4.000000,4.000000,4.000000,4.000000,4.000000,4.000000,4.000000,4.000000,4.000000,4.000000,4.000000,4.000000,4.000000,100.000000,,,,,,,,,,,,,,,,,,,,,,,,,,,,
1703161438.088440,1703161438.089217,90.000000,0.000000,4199.743652,4127.307617,4264.487305,4209.230957,4120.384766,4108.205078,4100.641113,4136.410156,4139.102539,4122.692383,4637.563965,4441.794922,4379.230957,4513.461426,5818.000000,4.000000,80.000000,,,,0.000000,4.000000,4.000000,4.000000,4.000000,4.000000,4.000000,4.000000,4.000000,4.000000,4.000000,4.000000,4.000000,4.000000,4.000000,100.000000,,,,,,,,,,,,,,,,,,,,,,,,,,,,
1703161438.096248,1703161438.097025,91.000000,0.000000,4211.282227,4142.692383,4275.769043,4220.769043,4120.641113,4118.717773,4102.307617,4144.743652,4153.461426,4137.692383,4651.282227,4454.230957,4387.692383,4528.333496,6145.000000,4.000000,80.000000,,,,0.000000,4.000000,4.000000,4.000000,4.000000,4.000000,4.000000,4.000000,4.000000,4.000000,4.000000,4.000000,4.000000,4.000000,4.000000,100.000000,,,,,,,,,,,,,,,,,,,,,,,,,,,,
1703161438.104056,1703161438.104733,92.000000,0.000000,4217.948730,4140.512695,4281.922852,4221.282227,4129.743652,4123.717773,4100.641113,4146.025879,4153.333496,4141.410156,4659.615234,4459.358887,4398.974121,4538.974121,6571.000000,4.000000,80.000000,,,,0.000000,4.000000,4.000000,4.000000,4.000000,4.000000,4.000000,4.000000,4.000000,4.000000,4.000000,4.000000,4.000000,4.000000,4.000000,100.000000,,,,,,,,,,,,,,,,,23.000000,0.000000,0.665092,0.290833,-0.586670,0.359009,0.996215,0.025394,0.125504,-16.562189,-34.394951,64.947456
1703161438.111864,1703161438.112541,93.000000,0.000000,4215.128418,4134.230957,4273.717773,4216.922852,4135.641113,4117.820313,4095.769287,4138.846191,4139.230957,4135.641113,4651.410156,4448.846191,4402.948730,4532.692383,6760.000000,4.000000,80.000000,,,,0.000000,4.000000,4.000000,4.000000,4.000000,4.000000,4.000000,4.000000,4.000000,4.000000,4.000000,4.000000,4.000000,4.000000,4.000000,100.000000,,,,,,,,,,,,,,,,,,,,,,,,,,,,
1703161438.119672,1703161438.120249,94.000000,0.000000,4206.025879,4139.358887,4265.641113,4219.615234,4131.025879,4118.077148,4099.743652,4135.512695,4134.487305,4135.897461,4641.410156,4439.743652,4388.846191,4520.128418,5818.000000,4.000000,80.000000,,,,0.000000,4.000000,4.000000,4.000000,4.000000,4.000000,4.000000,4.000000,4.000000,4.000000,4.000000,4.000000,4.000000,4.000000,4.000000,100.000000,,,,,,,,,,,,,,,,,,,,,,,,,,,,
1703161438.127480,1703161438.128157,95.000000,0.000000,4199.358887,4134.230957,4263.846191,4211.153809,4124.358887,4122.307617,4105.641113,4140.128418,4141.282227,4138.333496,4645.769043,4438.461426,4383.333496,4519.102539,6145.000000,4.000000,80.000000,,,,0.000000,4.000000,4.000000,4.000000,4.000000,4.000000,4.000000,4.000000,4.000000,4.000000,4.000000,4.000000,4.000000,4.000000,4.000000,100.000000,,,,,,,,,,,,,,,,,,,,,,,,,,,,
1703161438.135288,1703161438.135966,96.000000,0.000000,4192.692383,4119.487305,4260.897461,4197.948730,4123.333496,4121.922852,4105.897461,4140.897461,4142.179688,4132.820313,4649.102539,4436.538574,4388.589844,4519.871582,6571.000000,4.000000,80.000000,,,,0.000000,4.000000,4.000000,4.000000,4.000000,4.000000,4.000000,4.000000,4.000000,4.000000,4.000000,4.000000,4.000000,4.000000,4.000000,100.000000,,,,,,,,,,,,,,,,,24.000000,0.000000,0.665232,0.290588,-0.586670,0.358948,0.979612,0.025882,0.130387,-16.555971,-34.338791,65.102715
1703161438.143096,1703161438.143774,97.000000,0.000000,4186.282227,4121.794922,4256.410156,4201.410156,4123.461426,4115.897461,4106.282227,4140.000000,4139.871582,4126.794922,4639.102539,4433.846191,4378.461426,4510.256348,6760.000000,4.000000,80.000000,,,,0.000000,4.000000,4.000000,4.000000,4.000000,4.000000,4.000000,4.000000,4.000000,4.000000,4.000000,4.000000,4.000000,4.000000,4.000000,100.000000,,,,,,,,,,,,,,,,,,,,,,,,,,,,
1703161438.150904,1703161438.151482,98.000000,0.000000,4182.563965,4126.410156,4253.717773,4205.384766,4119.358887,4108.717773,4105.897461,4146.153809,4140.641113,4123.333496,4624.871582,4429.487305,4359.358887,4497.051270,5818.000000,4.000000,80.000000,,,,0.000000,4.000000,4.000000,4.000000,4.000000,4.000000,4.000000,4.000000,4.000000,4.000000,4.000000,4.000000,4.000000,4.000000,4.000000,100.000000,,,,,,,,,,,,,,,,,,,,,,,,,,,,
1703161438.158712,1703161438.159290,99.000000,0.000000,4182.563965,4114.358887,4256.922852,4198.974121,4115.897461,4106.410156,4105.641113,4149.615234,4141.025879,4120.512695,4626.410156,4433.205078,4364.743652,4501.282227,6145.000000,4.000000,80.000000,,,,0.000000,4.000000,4.000000,4.000000,4.000000,4.000000,4.000000,4.000000,4.000000,4.000000,4.000000,4.000000,4.000000,4.000000,4.000000,100.000000,,,,,,,,,,,,,,,,,,,,,,,,,,,,
1703161438.166520,1703161438.166998,100.000000,0.000000,4191.666504,4110.897461,4264.230957,4202.948730,4120.128418,4110.512695,4110.000000,4146.538574,4142.436035,4119.358887,4640.769043,4443.846191,4384.871582,4515.769043,6571.000000,4.000000,80.000000,,,,0.000000,4.000000,4.000000,4.000000,4.000000,4.000000,4.000000,4.000000,4.000000,4.000000,4.000000,4.000000,4.000000,4.000000,4.000000,100.000000,,,,,,,,,,,,,,,,,25.000000,0.000000,0.665135,0.290344,-0.586975,0.358826,0.992309,0.018557,0.122574,-16.600374,-34.371578,65.125771
1703161438.174328,1703161438.174806,101.000000,0.000000,4197.307617,4124.102539,4263.974121,4213.974121,4127.307617,4117.307617,4108.846191,4136.794922,4133.461426,4116.282227,4637.692383,4435.769043,4379.487305,4513.589844,6760.000000,4.000000,80.000000,,,,0.000000,4.000000,4.000000,4.000000,4.000000,4.000000,4.000000,4.000000,4.000000,4.000000,4.000000,4.000000,4.000000,4.000000,4.000000,100.000000,,,,,,,,,,,,,,,,,,,,,,,,,,,,
1703161438.182136,1703161438.182514,102.000000,0.000000,4201.922852,4135.384766,4263.974121,4217.051270,4128.717773,4116.025879,4098.077148,4128.717773,4120.897461,4114.743652,4628.461426,4424.487305,4368.589844,4508.974121,5818.000000,4.000000,80.000000,,,,0.000000,4.000000,4.000000,4.000000,4.000000,4.000000,4.000000,4.000000,4.000000,4.000000,4.000000,4.000000,4.000000,4.000000,4.000000,100.000000,,,,,,,,,,,,,,,,,,,,,,,,,,,,
1703161438.189944,1703161438.190422,103.000000,0.000000,4212.179688,4140.897461,4276.025879,4219.743652,4130.384766,4110.384766,4092.051270,4131.153809,4132.692383,4123.333496,4635.256348,4435.384766,4379.615234,4522.051270,6145.000000,4.000000,80.000000,,,,0.000000,4.000000,4.000000,4.000000,4.000000,4.000000,4.000000,4.000000,4.000000,4.000000,4.000000,4.000000,4.000000,4.000000,4.000000,100.000000,,,,,,,,,,,,,,,,,,,,,,,,,,,,
1703161438.197752,1703161438.198230,104.000000,0.000000,4211.282227,4141.410156,4282.179688,4222.436035,4138.461426,4115.256348,4095.769287,4138.461426,4144.230957,4128.846191,4640.897461,4446.538574,4386.282227,4529.615234,6571.000000,4.000000,80.000000,,,,0.000000,4.000000,4.000000,4.000000,4.000000,4.000000,4.000000,4.000000,4.000000,4.000000,4.000000,4.000000,4.000000,4.000000,4.000000,100.000000,,,,,,,,,,,,,,,,,26.000000,0.000000,0.665356,0.290161,-0.586853,0.358765,0.973263,0.020999,0.139665,-16.507004,-34.284420,65.146530
1703161438.205561,1703161438.206039,105.000000,0.000000,4201.282227,4136.794922,4275.897461,4218.717773,4140.641113,4122.692383,4099.871582,4137.948730,4125.769043,4121.666504,4634.743652,4443.846191,4378.717773,4523.717773,6760.000000,4.000000,80.000000,,,,0.000000,4.000000,4.000000,4.000000,4.000000,4.000000,4.000000,4.000000,4.000000,4.000000,4.000000,4.000000,4.000000,4.000000,4.000000,100.000000,,,,,,,,,,,,,,,,,,,,,,,,,,,,
1703161438.213369,1703161438.213747,106.000000,0.000000,4202.179688,4134.871582,4274.871582,4215.641113,4131.666504,4122.820313,4101.794922,4138.205078,4120.769043,4124.615234,4636.538574,4442.436035,4379.871582,4521.025879,5818.000000,4.000000,80.000000,,,,0.000000,4.000000,4.000000,4.000000,4.000000,4.000000,4.000000,4.000000,4.000000,4.000000,4.000000,4.000000,4.000000,4.000000,4.000000,100.000000,,,,,,,,,,,,,,,,,,,,,,,,,,,,
1703161438.221177,1703161438.221654,107.000000,0.000000,4206.410156,4138.077148,4278.717773,4218.461426,4128.846191,4122.820313,4106.794922,4149.743652,4145.769043,4138.589844,4649.230957,4448.846191,4392.307617,4524.102539,6145.000000,4.000000,80.000000,,,,0.000000,4.000000,4.000000,4.000000,4.000000,4.000000,4.000000,4.000000,4.000000,4.000000,4.000000,4.000000,4.000000,4.000000,4.000000,100.000000,,,,,,,,,,,,,,,,,,,,,,,,,,,,
1703161438.228985,1703161438.229462,108.000000,0.000000,4206.153809,4142.179688,4278.846191,4221.922852,4135.256348,4123.717773,4112.820313,4158.974121,4152.179688,4140.641113,4654.615234,4454.615234,4397.051270,4528.205078,6571.000000,4.000000,80.000000,,,,0.000000,4.000000,4.000000,4.000000,4.000000,4.000000,4.000000,4.000000,4.000000,4.000000,4.000000,4.000000,4.000000,4.000000,4.000000,100.000000,,,,,,,,,,,,,,,,,27.000000,0.000000,0.665493,0.289673,-0.586975,0.358704,0.995239,0.015139,0.144061,-16.622969,-34.272644,64.898544
1703161438.236793,1703161438.237370,109.000000,0.000000,4202.436035,4142.948730,4273.974121,4221.538574,4140.641113,4123.846191,4114.102539,4154.615234,4139.615234,4129.358887,4640.128418,4446.666504,4380.256348,4518.333496,6760.000000,4.000000,80.000000,,,,0.000000,4.000000,4.000000,4.000000,4.000000,4.000000,4.000000,4.000000,4.000000,4.000000,4.000000,4.000000,4.000000,4.000000,4.000000,100.000000,,,,,,,,,,,,,,,,,,,,,,,,,,,,
1703161438.244601,1703161438.245178,110.000000,0.000000,4184.487305,4125.769043,4260.769043,4209.871582,4136.282227,4123.205078,4111.410156,4142.948730,4138.974121,4115.384766,4615.641113,4428.589844,4352.563965,4492.692383,5818.000000,4.000000,80.000000,,,,0.000000,4.000000,4.000000,4.000000,4.000000,4.000000,4.000000,4.000000,4.000000,4.000000,4.000000,4.000000,4.000000,4.000000,4.000000,100.000000,,,,,,,,,,,,,,,,,,,,,,,,,,,,
1703161438.252409,1703161438.253086,111.000000,0.000000,4166.922852,4106.025879,4252.692383,4197.820313,4121.922852,4116.538574,4108.974121,4136.025879,4135.384766,4106.025879,4610.384766,4423.461426,4351.282227,4485.000000,6145.000000,4.000000,80.000000,,,,0.000000,4.000000,4.000000,4.000000,4.000000,4.000000,4.000000,4.000000,4.000000,4.000000,4.000000,4.000000,4.000000,4.000000,4.000000,100.000000,,,,,,,,,,,,,,,,,,,,,,,,,,,,
1703161438.260217,1703161438.260894,112.000000,0.000000,4174.743652,4113.333496,4258.717773,4201.666504,4116.666504,4110.000000,4109.358887,4132.179688,4123.974121,4099.871582,4620.128418,4430.384766,4365.769043,4496.025879,6571.000000,4.000000,80.000000,,,,0.000000,4.000000,4.000000,4.000000,4.000000,4.000000,4.000000,4.000000,4.000000,4.000000,4.000000,4.000000,4.000000,4.000000,4.000000,100.000000,,,,,,,,,,,,,,,,,28.000000,0.000000,0.665500,0.289246,-0.587402,0.358337,0.994750,0.020999,0.145526,-16.644007,-34.212048,64.792023
1703161438.268025,1703161438.268802,113.000000,0.000000,4183.974121,4123.717773,4261.666504,4204.487305,4122.307617,4110.128418,4106.922852,4123.077148,4118.717773,4092.435791,4621.025879,4426.410156,4358.205078,4496.282227,6760.000000,4.000000,80.000000,,,,0.000000,4.000000,4.000000,4.000000,4.000000,4.000000,4.000000,4.000000,4.000000,4.000000,4.000000,4.000000,4.000000,4.000000,4.000000,100.000000,,,,,,,,,,,,,,,,,,,,,,,,,,,,
1703161438.275833,1703161438.276610,114.000000,0.000000,4184.230957,4121.666504,4258.974121,4202.307617,4123.333496,4106.922852,4099.102539,4116.922852,4114.358887,4091.025635,4623.077148,4423.589844,4355.512695,4497.692383,5818.000000,4.000000,80.000000,,,,0.000000,4.000000,4.000000,4.000000,4.000000,4.000000,4.000000,4.000000,4.000000,4.000000,4.000000,4.000000,4.000000,4.000000,4.000000,100.000000,,,,,,,,,,,,,,,,,,,,,,,,,,,,
1703161438.283641,1703161438.284318,115.000000,0.000000,4192.307617,4129.102539,4263.974121,4210.384766,4125.897461,4110.384766,4092.692383,4118.461426,4107.948730,4099.230957,4631.282227,4432.563965,4375.384766,4513.205078,6145.000000,4.000000,80.000000,,,,0.000000,4.000000,4.000000,4.000000,4.000000,4.000000,4.000000,4.000000,4.000000,4.000000,4.000000,4.000000,4.000000,4.000000,4.000000,100.000000,,,,,,,,,,,,,,,,,,,,,,,,,,,,
1703161438.291449,1703161438.292126,116.000000,0.000000,4201.153809,4137.179688,4268.461426,4220.128418,4141.153809,4122.051270,4091.666748,4120.384766,4107.051270,4103.333496,4631.410156,4434.102539,4384.743652,4517.948730,6571.000000,4.000000,80.000000,,,,0.000000,4.000000,4.000000,4.000000,4.000000,4.000000,4.000000,4.000000,4.000000,4.000000,4.000000,4.000000,4.000000,4.000000,4.000000,100.000000,,,,,,,,,,,,,,,,,29.000000,0.000000,0.665363,0.288940,-0.587708,0.358337,0.989867,0.018557,0.134294,-16.596272,-34.174175,64.846153
1703161438.299257,1703161438.299834,117.000000,0.000000,4199.871582,4132.692383,4264.871582,4218.077148,4140.897461,4120.384766,4092.820557,4120.128418,4110.000000,4102.948730,4628.333496,4430.384766,4381.153809,4513.333496,6760.000000,4.000000,80.000000,,,,0.000000,4.000000,4.000000,4.000000,4.000000,4.000000,4.000000,4.000000,4.000000,4.000000,4.000000,4.000000,4.000000,4.000000,4.000000,100.000000,,,,,,,,,,,,,,,,,,,,,,,,,,,,
1703161438.307065,1703161438.307642,118.000000,0.000000,4198.333496,4135.000000,4263.333496,4216.153809,4125.769043,4114.358887,4091.410156,4122.179688,4114.358887,4110.384766,4630.641113,4433.077148,4381.025879,4515.000000,5818.000000,4.000000,80.000000,,,,0.000000,4.000000,4.000000,4.000000,4.000000,4.000000,4.000000,4.000000,4.000000,4.000000,4.000000,4.000000,4.000000,4.000000,4.000000,100.000000,,,,,,,,,,,,,,,,,,,,,,,,,,,,
1703161438.314873,1703161438.315350,119.000000,0.000000,4198.333496,4140.897461,4263.333496,4218.077148,4132.563965,4120.128418,4090.512939,4127.820313,4126.794922,4121.025879,4632.179688,4434.102539,4380.256348,4517.948730,6145.000000,4.000000,80.000000,,,,0.000000,4.000000,4.000000,4.000000,4.000000,4.000000,4.000000,4.000000,4.000000,4.000000,4.000000,4.000000,4.000000,4.000000,4.000000,100.000000,,,,,,,,,,,,,,,,,,,,,,,,,,,,
1703161438.322681,1703161438.323158,120.000000,0.000000,4199.487305,4141.153809,4262.948730,4218.077148,4144.230957,4123.077148,4097.307617,4139.102539,4138.974121,4126.025879,4635.897461,4435.769043,4383.333496,4521.153809,6571.000000,4.000000,80.000000,,,,0.000000,4.000000,4.000000,4.000000,4.000000,4.000000,4.000000,4.000000,4.000000,4.000000,4.000000,4.000000,4.000000,4.000000,4.000000,100.000000,,,,,,,,,,,,,,,,,30.000000,0.000000,0.665061,0.288635,-0.588013,0.358643,0.990355,0.026370,0.139665,-16.519978,-34.073425,64.794868
1703161438.330489,1703161438.330866,121.000000,0.000000,4199.358887,4138.974121,4265.641113,4215.897461,4135.641113,4121.794922,4108.461426,4148.205078,4141.153809,4125.512695,4641.666504,4445.384766,4386.025879,4525.128418,6760.000000,4.000000,80.000000,,,,0.000000,4.000000,4.000000,4.000000,4.000000,4.000000,4.000000,4.000000,4.000000,4.000000,4.000000,4.000000,4.000000,4.000000,4.000000,100.000000,1.000000,100.000000,4.000000,4.000000,4.000000,4.000000,4.000000,4.000000,4.000000,4.000000,4.000000,4.000000,4.000000,4.000000,4.000000,4.000000,,,,,,,,,,,,
1703161438.338297,1703161438.338674,122.000000,0.000000,4189.615234,4125.897461,4264.615234,4204.230957,4123.846191,4123.974121,4110.512695,4145.000000,4140.256348,4125.128418,4635.512695,4447.179688,4379.230957,4521.025879,5818.000000,4.000000,80.000000,,,,0.000000,4.000000,4.000000,4.000000,4.000000,4.000000,4.000000,4.000000,4.000000,4.000000,4.000000,4.000000,4.000000,4.000000,4.000000,100.000000,,,,,,,,,,,,,,,,,,,,,,,,,,,,
1703161438.346105,1703161438.346382,123.000000,0.000000,4188.589844,4122.179688,4261.410156,4198.205078,4122.051270,4117.051270,4103.461426,4133.333496,4132.692383,4120.769043,4621.282227,4435.256348,4371.410156,4513.717773,6145.000000,4.000000,80.000000,,,,0.000000,4.000000,4.000000,4.000000,4.000000,4.000000,4.000000,4.000000,4.000000,4.000000,4.000000,4.000000,4.000000,4.000000,4.000000,100.000000,,,,,,,,,,,,,,,,,,,,,,,,,,,,
1703161438.353913,1703161438.354190,124.000000,0.000000,4195.897461,4133.333496,4260.128418,4207.563965,4122.436035,4106.666504,4098.846191,4123.077148,4115.256348,4110.512695,4616.538574,4427.436035,4362.948730,4509.615234,6571.000000,4.000000,80.000000,,,,0.000000,4.000000,4.000000,4.000000,4.000000,4.000000,4.000000,4.000000,4.000000,4.000000,4.000000,4.000000,4.000000,4.000000,4.000000,100.000000,,,,,,,,,,,,,,,,,31.000000,0.000000,0.665000,0.288452,-0.588135,0.358704,0.980100,0.002930,0.141619,-16.634647,-34.166080,64.782051
1703161438.361722,1703161438.361898,125.000000,0.000000,4189.487305,4129.871582,4257.307617,4210.128418,4129.102539,4108.589844,4098.846191,4116.153809,4105.384766,4108.333496,4618.974121,4428.461426,4358.333496,4505.256348,6760.000000,4.000000,80.000000,,,,0.000000,4.000000,4.000000,4.000000,4.000000,4.000000,4.000000,4.000000,4.000000,4.000000,4.000000,4.000000,4.000000,4.000000,4.000000,100.000000,,,,,,,,,,,,,,,,,,,,,,,,,,,,
1703161438.369530,1703161438.369706,126.000000,0.000000,4188.077148,4125.128418,4256.922852,4207.307617,4135.512695,4113.846191,4097.692383,4109.487305,4104.230957,4113.077148,4615.256348,4428.077148,4361.538574,4507.692383,5818.000000,4.000000,80.000000,,,,0.000000,4.000000,4.000000,4.000000,4.000000,4.000000,4.000000,4.000000,4.000000,4.000000,4.000000,4.000000,4.000000,4.000000,4.000000,100.000000,,,,,,,,,,,,,,,,,,,,,,,,,,,,
1703161438.377338,1703161438.377414,127.000000,0.000000,4200.769043,4140.512695,4261.538574,4216.025879,4131.025879,4113.205078,4093.461426,4102.820313,4096.410156,4109.358887,4610.641113,4426.922852,4360.000000,4510.897461,80.000000,4.000000,80.000000,,,,0.000000,4.000000,4.000000,4.000000,4.000000,4.000000,4.000000,4.000000,4.000000,4.000000,4.000000,4.000000,4.000000,4.000000,4.000000,100.000000,,,,,,,,,,,,,,,,,,,,,,,,,,,,
1703161438.385146,1703161438.385322,0.000000,0.000000,4202.307617,4141.666504,4266.666504,4220.641113,4130.769043,4111.410156,4091.153809,4105.769043,4093.333252,4109.358887,4620.512695,4435.769043,4363.846191,4513.717773,5243.000000,4.000000,80.000000,,,,0.000000,4.000000,4.000000,4.000000,4.000000,4.000000,4.000000,4.000000,4.000000,4.000000,4.000000,4.000000,4.000000,4.000000,4.000000,100.000000,,,,,,,,,,,,,,,,,0.000000,0.000000,0.665036,0.288147,-0.588318,0.358582,0.987425,0.016115,0.127457,-16.721182,-34.182808,64.803848
1703161438.392954,1703161438.393131,1.000000,0.000000,4204.102539,4133.461426,4272.051270,4214.230957,4132.179688,4110.000000,4092.307617,4116.922852,4102.307617,4123.717773,4637.051270,4446.538574,4385.128418,4530.000000,5337.000000,4.000000,80.000000,,,,0.000000,4.000000,4.000000,4.000000,4.000000,4.000000,4.000000,4.000000,4.000000,4.000000,4.000000,4.000000,4.000000,4.000000,4.000000,100.000000,,,,,,,,,,,,,,,,,,,,,,,,,,,,
1703161438.400762,1703161438.401039,2.000000,0.000000,4220.384766,4150.128418,4278.077148,4223.333496,4130.512695,4108.077148,4092.051270,4122.692383,4111.922852,4131.410156,4644.102539,4447.051270,4392.948730,4543.461426,5268.000000,4.000000,80.000000,,,,0.000000,4.000000,4.000000,4.000000,4.000000,4.000000,4.000000,4.000000,4.000000,4.000000,4.000000,4.000000,4.000000,4.000000,4.000000,100.000000,,,,,,,,,,,,,,,,,,,,,,,,,,,,
1703161438.408570,1703161438.408847,3.000000,0.000000,4217.820313,4153.717773,4278.589844,4230.769043,4133.461426,4109.358887,4090.769287,4121.153809,4117.948730,4127.820313,4643.077148,4444.358887,4383.974121,4534.871582,5248.000000,4.000000,80.000000,,,,0.000000,4.000000,4.000000,4.000000,4.000000,4.000000,4.000000,4.000000,4.000000,4.000000,4.000000,4.000000,4.000000,4.000000,4.000000,100.000000,,,,,,,,,,,,,,,,,,,,,,,,,,,,
1703161438.416378,1703161438.416755,4.000000,0.000000,4207.692383,4141.922852,4275.512695,4222.307617,4131.666504,4108.717773,4088.974365,4120.769043,4122.436035,4125.256348,4638.974121,4445.128418,4382.307617,4525.769043,5106.000000,4.000000,80.000000,,,,0.000000,4.000000,4.000000,4.000000,4.000000,4.000000,4.000000,4.000000,4.000000,4.000000,4.000000,4.000000,4.000000,4.000000,4.000000,100.000000,,,,,,,,,,,,,,,,,1.000000,0.000000,0.665155,0.288025,-0.588318,0.358459,0.984984,0.019045,0.121109,-16.665731,-34.231194,64.773460
1703161438.424186,1703161438.424563,5.000000,0.000000,4214.487305,4146.410156,4275.128418,4220.128418,4122.307617,4107.948730,4093.974365,4125.384766,4123.205078,4122.179688,4632.820313,4446.538574,4379.487305,4525.897461,5148.000000,4.000000,80.000000,,,,0.000000,4.000000,4.000000,4.000000,4.000000,4.000000,4.000000,4.000000,4.000000,4.000000,4.000000,4.000000,4.000000,4.000000,4.000000,100.000000,,,,,,,,,,,,,,,,,,,,,,,,,,,,
1703161438.431994,1703161438.432471,6.000000,0.000000,4215.384766,4148.077148,4277.436035,4222.307617,4121.666504,4111.410156,4101.666504,4131.794922,4123.333496,4119.743652,4630.128418,4448.589844,4372.820313,4523.077148,5046.000000,4.000000,80.000000,,,,0.000000,4.000000,4.000000,4.000000,4.000000,4.000000,4.000000,4.000000,4.000000,4.000000,4.000000,4.000000,4.000000,4.000000,4.000000,100.000000,,,,,,,,,,,,,,,,,,,,,,,,,,,,
1703161438.439802,1703161438.440279,7.000000,0.000000,4203.717773,4134.487305,4275.384766,4216.922852,4125.512695,4111.410156,4101.666504,4136.282227,4128.077148,4120.897461,4628.333496,4449.358887,4371.922852,4520.897461,5250.000000,4.000000,80.000000,,,,0.000000,4.000000,4.000000,4.000000,4.000000,4.000000,4.000000,4.000000,4.000000,4.000000,4.000000,4.000000,4.000000,4.000000,4.000000,100.000000,,,,,,,,,,,,,,,,,,,,,,,,,,,,
1703161438.447610,1703161438.448186,8.000000,0.000000,4206.153809,4130.384766,4272.948730,4214.743652,4121.410156,4107.948730,4102.948730,4137.436035,4129.743652,4122.692383,4630.769043,4450.769043,4377.948730,4525.512695,5025.000000,4.000000,80.000000,,,,0.000000,4.000000,4.000000,4.000000,4.000000,4.000000,4.000000,4.000000,4.000000,4.000000,4.000000,4.000000,4.000000,4.000000,4.000000,100.000000,,,,,,,,,,,,,,,,,2.000000,0.000000,0.665078,0.288208,-0.588501,0.358154,0.973263,0.021975,0.135270,-16.582491,-34.224739,64.729446
1703161438.455418,1703161438.455994,9.000000,0.000000,4214.487305,4138.589844,4271.025879,4219.358887,4121.794922,4107.179688,4107.179688,4132.179688,4127.179688,4121.922852,4632.563965,4447.820313,4376.538574,4523.589844,5262.000000,4.000000,80.000000,,,,0.000000,4.000000,4.000000,4.000000,4.000000,4.000000,4.000000,4.000000,4.000000,4.000000,4.000000,4.000000,4.000000,4.000000,4.000000,100.000000,,,,,,,,,,,,,,,,,,,,,,,,,,,,
1703161438.463226,1703161438.463902,10.000000,0.000000,4206.794922,4137.179688,4263.333496,4217.563965,4128.333496,4109.230957,4102.051270,4122.948730,4118.589844,4114.871582,4623.974121,4435.128418,4365.384766,4512.179688,5821.000000,4.000000,80.000000,,,,0.000000,4.000000,4.000000,4.000000,4.000000,4.000000,4.000000,4.000000,4.000000,4.000000,4.000000,4.000000,4.000000,4.000000,4.000000,100.000000,,,,,,,,,,,,,,,,,,,,,,,,,,,,
1703161438.471034,1703161438.471710,11.000000,0.000000,4203.333496,4134.743652,4267.051270,4216.794922,4129.743652,4109.487305,4095.384521,4120.256348,4108.846191,4108.333496,4620.769043,4436.025879,4368.589844,4517.179688,6145.000000,4.000000,80.000000,,,,0.000000,4.000000,4.000000,4.000000,4.000000,4.000000,4.000000,4.000000,4.000000,4.000000,4.000000,4.000000,4.000000,4.000000,4.000000,100.000000,,,,,,,,,,,,,,,,,,,,,,,,,,,,
1703161438.478842,1703161438.479418,12.000000,0.000000,4207.948730,4135.641113,4276.282227,4218.717773,4126.025879,4108.333496,4095.384521,4119.743652,4106.153809,4108.077148,4624.487305,4444.871582,4378.333496,4527.307617,6584.000000,4.000000,80.000000,,,,0.000000,4.000000,4.000000,4.000000,4.000000,4.000000,4.000000,4.000000,4.000000,4.000000,4.000000,4.000000,4.000000,4.000000,4.000000,100.000000,,,,,,,,,,,,,,,,,3.000000,0.000000,0.665372,0.288330,-0.588257,0.357910,0.987914,0.019534,0.133805,-16.574242,-34.152267,64.623169
1703161438.486650,1703161438.487226,13.000000,0.000000,4205.641113,4137.436035,4271.025879,4218.077148,4128.077148,4113.589844,4093.333252,4113.077148,4102.563965,4106.153809,4617.307617,4438.974121,4367.563965,4514.615234,6761.000000,4.000000,80.000000,,,,0.000000,4.000000,4.000000,4.000000,4.000000,4.000000,4.000000,4.000000,4.000000,4.000000,4.000000,4.000000,4.000000,4.000000,4.000000,100.000000,,,,,,,,,,,,,,,,,,,,,,,,,,,,
1703161438.494458,1703161438.494934,14.000000,0.000000,4202.179688,4138.717773,4267.692383,4220.000000,4138.333496,4118.589844,4091.794922,4113.846191,4097.051270,4102.948730,4615.128418,4434.230957,4358.846191,4507.820313,5821.000000,4.000000,80.000000,,,,0.000000,4.000000,4.000000,4.000000,4.000000,4.000000,4.000000,4.000000,4.000000,4.000000,4.000000,4.000000,4.000000,4.000000,4.000000,100.000000,,,,,,,,,,,,,,,,,,,,,,,,,,,,
1703161438.502267,1703161438.502742,15.000000,0.000000,4204.358887,4138.717773,4274.487305,4221.282227,4135.000000,4116.922852,4097.820313,4127.436035,4106.025879,4111.153809,4630.897461,4445.512695,4378.077148,4523.205078,6145.000000,4.000000,80.000000,,,,0.000000,4.000000,4.000000,4.000000,4.000000,4.000000,4.000000,4.000000,4.000000,4.000000,4.000000,4.000000,4.000000,4.000000,4.000000,100.000000,,,,,,,,,,,,,,,,,,,,,,,,,,,,
1703161438.510075,1703161438.510450,16.000000,0.000000,4205.641113,4139.102539,4276.153809,4219.358887,4123.974121,4118.205078,4102.820313,4141.794922,4127.820313,4124.615234,4640.897461,4456.025879,4387.820313,4527.436035,0.000000,4.000000,80.000000,,,,0.000000,4.000000,4.000000,4.000000,4.000000,4.000000,4.000000,4.000000,4.000000,4.000000,4.000000,4.000000,4.000000,4.000000,4.000000,100.000000,,,,,,,,,,,,,,,,,4.000000,0.000000,0.665617,0.288269,-0.588196,0.357605,0.989379,0.011720,0.141131,-16.566818,-34.170372,64.694183
1703161438.517882,1703161438.518258,17.000000,0.000000,4203.461426,4133.333496,4274.230957,4218.589844,4126.666504,4122.820313,4107.692383,4150.769043,4139.615234,4126.153809,4638.846191,4455.128418,4376.410156,4521.025879,0.000000,4.000000,80.000000,,,,0.000000,4.000000,4.000000,4.000000,4.000000,4.000000,4.000000,4.000000,4.000000,4.000000,4.000000,4.000000,4.000000,4.000000,4.000000,100.000000,,,,,,,,,,,,,,,,,,,,,,,,,,,,
1703161438.525691,1703161438.525966,18.000000,0.000000,4202.563965,4128.205078,4272.948730,4218.461426,4129.871582,4116.794922,4111.410156,4149.358887,4136.794922,4115.000000,4633.974121,4451.282227,4371.794922,4521.922852,0.000000,4.000000,80.000000,,,,0.000000,4.000000,4.000000,4.000000,4.000000,4.000000,4.000000,4.000000,4.000000,4.000000,4.000000,4.000000,4.000000,4.000000,4.000000,100.000000,,,,,,,,,,,,,,,,,,,,,,,,,,,,
1703161438.533499,1703161438.533774,19.000000,0.000000,4197.692383,4125.897461,4264.230957,4213.717773,4123.974121,4107.948730,4109.871582,4140.897461,4133.077148,4106.153809,4625.769043,4441.025879,4366.025879,4514.102539,0.000000,4.000000,80.000000,,,,0.000000,4.000000,4.000000,4.000000,4.000000,4.000000,4.000000,4.000000,4.000000,4.000000,4.000000,4.000000,4.000000,4.000000,4.000000,100.000000,,,,,,,,,,,,,,,,,,,,,,,,,,,,
1703161438.541307,1703161438.541482,20.000000,0.000000,4188.846191,4124.358887,4256.410156,4211.538574,4121.410156,4106.410156,4105.384766,4133.974121,4129.743652,4103.974121,4614.871582,4430.000000,4349.615234,4500.769043,0.000000,4.000000,80.000000,,,,0.000000,4.000000,4.000000,4.000000,4.000000,4.000000,4.000000,4.000000,4.000000,4.000000,4.000000,4.000000,4.000000,4.000000,4.000000,100.000000,,,,,,,,,,,,,,,,,5.000000,0.000000,0.665693,0.288147,-0.588318,0.357361,0.986449,0.027347,0.135270,-16.626802,-34.170002,64.608101
1703161438.549115,1703161438.549290,21.000000,0.000000,4186.666504,4126.025879,4255.256348,4215.000000,4122.820313,4107.051270,4103.974121,4128.205078,4125.897461,4104.743652,4607.820313,4426.538574,4346.153809,4500.256348,0.000000,4.000000,80.000000,,,,0.000000,4.000000,4.000000,4.000000,4.000000,4.000000,4.000000,4.000000,4.000000,4.000000,4.000000,4.000000,4.000000,4.000000,4.000000,100.000000,,,,,,,,,,,,,,,,,,,,,,,,,,,,
1703161438.556923,1703161438.556999,22.000000,0.000000,4196.282227,4128.717773,4257.307617,4217.307617,4123.461426,4115.512695,4106.025879,4125.128418,4124.487305,4111.153809,4614.102539,4428.589844,4362.307617,4508.077148,0.000000,4.000000,80.000000,,,,0.000000,4.000000,4.000000,4.000000,4.000000,4.000000,4.000000,4.000000,4.000000,4.000000,4.000000,4.000000,4.000000,4.000000,4.000000,100.000000,,,,,,,,,,,,,,,,,,,,,,,,,,,,
1703161438.564731,1703161438.564907,23.000000,0.000000,4198.077148,4128.333496,4258.589844,4216.666504,4127.820313,4120.641113,4102.820313,4123.589844,4119.871582,4107.820313,4611.794922,4427.179688,4360.897461,4508.205078,0.000000,4.000000,80.000000,,,,0.000000,4.000000,4.000000,4.000000,4.000000,4.000000,4.000000,4.000000,4.000000,4.000000,4.000000,4.000000,4.000000,4.000000,4.000000,100.000000,,,,,,,,,,,,,,,,,,,,,,,,,,,,
1703161438.572539,1703161438.572715,24.000000,0.000000,4186.282227,4123.846191,4255.897461,4216.025879,4129.487305,4113.461426,4099.102539,4121.153809,4107.820313,4092.307617,4596.666504,4424.743652,4343.333496,4500.128418,0.000000,4.000000,80.000000,,,,0.000000,4.000000,4.000000,4.000000,4.000000,4.000000,4.000000,4.000000,4.000000,4.000000,4.000000,4.000000,4.000000,4.000000,4.000000,100.000000,,,,,,,,,,,,,,,,,6.000000,0.000000,0.665778,0.288025,-0.588318,0.357300,0.985960,0.019045,0.135270,-16.614122,-34.053001,64.730621
1703161438.580347,1703161438.580623,25.000000,0.000000,4190.000000,4123.717773,4259.743652,4217.692383,4127.051270,4113.077148,4103.461426,4126.666504,4110.128418,4100.000000,4612.307617,4436.025879,4357.179688,4506.282227,0.000000,4.000000,80.000000,,,,0.000000,4.000000,4.000000,4.000000,4.000000,4.000000,4.000000,4.000000,4.000000,4.000000,4.000000,4.000000,4.000000,4.000000,4.000000,100.000000,,,,,,,,,,,,,,,,,,,,,,,,,,,,
1703161438.588155,1703161438.588431,26.000000,0.000000,4205.384766,4133.717773,4267.307617,4223.589844,4131.025879,4119.871582,4106.666504,4138.333496,4128.205078,4123.846191,4641.153809,4447.820313,4385.384766,4525.384766,0.000000,4.000000,80.000000,,,,0.000000,4.000000,4.000000,4.000000,4.000000,4.000000,4.000000,4.000000,4.000000,4.000000,4.000000,4.000000,4.000000,4.000000,4.000000,100.000000,,,,,,,,,,,,,,,,,,,,,,,,,,,,
1703161438.595963,1703161438.596339,27.000000,0.000000,4206.282227,4143.846191,4267.307617,4230.769043,4136.538574,4120.769043,4104.615234,4145.769043,4138.205078,4127.051270,4639.743652,4448.333496,4383.461426,4527.307617,0.000000,4.000000,80.000000,,,,0.000000,4.000000,4.000000,4.000000,4.000000,4.000000,4.000000,4.000000,4.000000,4.000000,4.000000,4.000000,4.000000,4.000000,4.000000,100.000000,,,,,,,,,,,,,,,,,,,,,,,,,,,,
1703161438.603771,1703161438.604147,28.000000,0.000000,4203.846191,4142.051270,4267.051270,4230.128418,4139.487305,4120.256348,4106.794922,4156.153809,4146.794922,4127.948730,4635.897461,4451.153809,4375.000000,4522.307617,0.000000,4.000000,80.000000,,,,0.000000,4.000000,4.000000,4.000000,4.000000,4.000000,4.000000,4.000000,4.000000,4.000000,4.000000,4.000000,4.000000,4.000000,4.000000,100.000000,,,,,,,,,,,,,,,,,7.000000,0.000000,0.665763,0.287659,-0.588440,0.357422,0.993774,0.011720,0.120620,-16.786043,-34.114368,64.757561
1703161438.611579,1703161438.612055,29.000000,0.000000,4208.077148,4136.153809,4269.871582,4223.077148,4139.358887,4123.077148,4111.282227,4167.436035,4155.000000,4139.871582,4647.948730,4460.897461,4381.922852,4530.641113,0.000000,4.000000,80.000000,,,,0.000000,4.000000,4.000000,4.000000,4.000000,4.000000,4.000000,4.000000,4.000000,4.000000,4.000000,4.000000,4.000000,4.000000,4.000000,100.000000,,,,,,,,,,,,,,,,,,,,,,,,,,,,
1703161438.619387,1703161438.619863,30.000000,0.000000,4207.436035,4138.205078,4269.743652,4223.846191,4131.538574,4121.410156,4108.846191,4162.692383,4147.820313,4137.051270,4647.948730,4462.307617,4381.538574,4533.205078,0.000000,4.000000,80.000000,,,,0.000000,4.000000,4.000000,4.000000,4.000000,4.000000,4.000000,4.000000,4.000000,4.000000,4.000000,4.000000,4.000000,4.000000,4.000000,100.000000,,,,,,,,,,,,,,,,,,,,,,,,,,,,
1703161438.627195,1703161438.627771,31.000000,0.000000,4202.179688,4137.692383,4271.410156,4229.615234,4127.948730,4118.717773,4106.410156,4149.487305,4140.384766,4127.563965,4642.563965,4453.974121,4377.820313,4527.179688,0.000000,4.000000,80.000000,,,,0.000000,4.000000,4.000000,4.000000,4.000000,4.000000,4.000000,4.000000,4.000000,4.000000,4.000000,4.000000,4.000000,4.000000,4.000000,100.000000,,,,,,,,,,,,,,,,,,,,,,,,,,,,
1703161438.635003,1703161438.635579,32.000000,0.000000,4202.436035,4135.128418,4271.922852,4230.384766,4135.512695,4118.333496,4106.410156,4140.897461,4136.922852,4125.384766,4642.820313,4450.641113,4383.846191,4527.948730,0.000000,4.000000,80.000000,,,,0.000000,4.000000,4.000000,4.000000,4.000000,4.000000,4.000000,4.000000,4.000000,4.000000,4.000000,4.000000,4.000000,4.000000,4.000000,100.000000,,,,,,,,,,,,,,,,,8.000000,0.000000,0.665815,0.287415,-0.588501,0.357422,0.985472,0.005372,0.138689,-16.690773,-34.202930,64.965141
1703161438.642811,1703161438.643487,33.000000,0.000000,4203.205078,4137.179688,4267.179688,4226.282227,4139.230957,4117.436035,4107.563965,4131.666504,4125.384766,4119.230957,4632.051270,4446.538574,4377.820313,4524.615234,0.000000,4.000000,80.000000,,,,0.000000,4.000000,4.000000,4.000000,4.000000,4.000000,4.000000,4.000000,4.000000,4.000000,4.000000,4.000000,4.000000,4.000000,4.000000,100.000000,,,,,,,,,,,,,,,,,,,,,,,,,,,,
1703161438.650619,1703161438.651295,34.000000,0.000000,4195.897461,4133.717773,4259.743652,4220.256348,4134.487305,4115.641113,4107.307617,4123.077148,4118.589844,4111.538574,4617.436035,4433.974121,4362.436035,4511.025879,0.000000,4.000000,80.000000,,,,0.000000,4.000000,4.000000,4.000000,4.000000,4.000000,4.000000,4.000000,4.000000,4.000000,4.000000,4.000000,4.000000,4.000000,4.000000,100.000000,,,,,,,,,,,,,,,,,,,,,,,,,,,,
1703161438.658428,1703161438.659003,35.000000,0.000000,4185.256348,4125.000000,4251.794922,4216.153809,4134.871582,4117.948730,4103.974121,4120.384766,4120.897461,4111.410156,4611.922852,4423.974121,4356.794922,4499.358887,0.000000,4.000000,80.000000,,,,0.000000,4.000000,4.000000,4.000000,4.000000,4.000000,4.000000,4.000000,4.000000,4.000000,4.000000,4.000000,4.000000,4.000000,4.000000,100.000000,,,,,,,,,,,,,,,,,,,,,,,,,,,,
1703161438.666236,1703161438.666811,36.000000,0.000000,4183.589844,4122.692383,4247.563965,4216.153809,4141.282227,4123.077148,4103.717773,4123.461426,4119.358887,4115.641113,4613.333496,4425.512695,4354.871582,4497.436035,0.000000,4.000000,80.000000,,,,0.000000,4.000000,4.000000,4.000000,4.000000,4.000000,4.000000,4.000000,4.000000,4.000000,4.000000,4.000000,4.000000,4.000000,4.000000,100.000000,,,,,,,,,,,,,,,,,9.000000,0.000000,0.665817,0.287109,-0.588684,0.357361,0.981565,0.016604,0.129410,-16.655029,-34.199306,64.935295
1703161438.674044,1703161438.674519,37.000000,0.000000,4186.538574,4122.563965,4253.589844,4216.794922,4139.102539,4122.948730,4106.153809,4125.128418,4117.948730,4119.102539,4619.615234,4430.128418,4358.974121,4502.820313,0.000000,4.000000,80.000000,,,,0.000000,4.000000,4.000000,4.000000,4.000000,4.000000,4.000000,4.000000,4.000000,4.000000,4.000000,4.000000,4.000000,4.000000,4.000000,100.000000,,,,,,,,,,,,,,,,,,,,,,,,,,,,
1703161438.681852,1703161438.682327,38.000000,0.000000,4187.692383,4122.692383,4261.794922,4217.051270,4132.692383,4121.153809,4106.794922,4126.666504,4118.077148,4118.589844,4623.333496,4430.384766,4366.538574,4506.282227,0.000000,4.000000,80.000000,,,,0.000000,4.000000,4.000000,4.000000,4.000000,4.000000,4.000000,4.000000,4.000000,4.000000,4.000000,4.000000,4.000000,4.000000,4.000000,100.000000,,,,,,,,,,,,,,,,,,,,,,,,,,,,
1703161438.689660,1703161438.690035,39.000000,0.000000,4188.205078,4125.512695,4263.077148,4220.256348,4136.794922,4123.077148,4109.871582,4134.358887,4124.102539,4121.025879,4624.743652,4437.436035,4367.948730,4503.717773,0.000000,4.000000,80.000000,,,,0.000000,4.000000,4.000000,4.000000,4.000000,4.000000,4.000000,4.000000,4.000000,4.000000,4.000000,4.000000,4.000000,4.000000,4.000000,100.000000,,,,,,,,,,,,,,,,,,,,,,,,,,,,
1703161438.697468,1703161438.697943,40.000000,0.000000,4188.077148,4124.358887,4264.230957,4218.974121,4142.563965,4125.000000,4114.358887,4143.974121,4136.025879,4129.230957,4630.641113,4446.922852,4371.538574,4506.794922,0.000000,4.000000,80.000000,,,,0.000000,4.000000,4.000000,4.000000,4.000000,4.000000,4.000000,4.000000,4.000000,4.000000,4.000000,4.000000,4.000000,4.000000,4.000000,100.000000,,,,,,,,,,,,,,,,,10.000000,0.000000,0.665900,0.286743,-0.588806,0.357300,0.995727,0.024417,0.124039,-16.622858,-34.229374,64.958427
1703161438.705276,1703161438.705751,41.000000,0.000000,4188.333496,4122.179688,4259.102539,4216.153809,4134.871582,4120.641113,4110.256348,4146.666504,4138.077148,4128.589844,4635.384766,4441.153809,4376.025879,4510.512695,0.000000,4.000000,80.000000,,,,0.000000,4.000000,4.000000,4.000000,4.000000,4.000000,4.000000,4.000000,4.000000,4.000000,4.000000,4.000000,4.000000,4.000000,4.000000,100.000000,,,,,,,,,,,,,,,,,,,,,,,,,,,,
1703161438.713084,1703161438.713560,42.000000,0.000000,4186.153809,4119.743652,4251.794922,4217.820313,4126.282227,4115.128418,4104.230957,4145.641113,4135.000000,4123.077148,4630.641113,4434.487305,4371.410156,4503.333496,0.000000,4.000000,80.000000,,,,0.000000,4.000000,4.000000,4.000000,4.000000,4.000000,4.000000,4.000000,4.000000,4.000000,4.000000,4.000000,4.000000,4.000000,4.000000,100.000000,,,,,,,,,,,,,,,,,,,,,,,,,,,,
1703161438.720892,1703161438.721268,43.000000,0.000000,4185.512695,4114.871582,4258.077148,4215.256348,4132.179688,4114.743652,4106.282227,4145.384766,4138.077148,4130.897461,4633.589844,4442.948730,4375.897461,4503.461426,0.000000,4.000000,80.000000,,,,0.000000,4.000000,4.000000,4.000000,4.000000,4.000000,4.000000,4.000000,4.000000,4.000000,4.000000,4.000000,4.000000,4.000000,4.000000,100.000000,,,,,,,,,,,,,,,,,,,,,,,,,,,,
1703161438.728700,1703161438.729076,44.000000,0.000000,4191.794922,4116.922852,4267.179688,4213.333496,4137.692383,4120.000000,4107.692383,4141.410156,4140.897461,4141.410156,4646.666504,4451.025879,4391.410156,4518.205078,0.000000,4.000000,80.000000,,,,0.000000,4.000000,4.000000,4.000000,4.000000,4.000000,4.000000,4.000000,4.000000,4.000000,4.000000,4.000000,4.000000,4.000000,4.000000,100.000000,,,,,,,,,,,,,,,,,11.000000,0.000000,0.665836,0.286438,-0.588989,0.357361,0.988402,0.009767,0.146014,-16.577240,-34.323105,65.045921
1703161438.736508,1703161438.736784,45.000000,0.000000,4194.358887,4122.948730,4265.128418,4217.948730,4132.692383,4123.717773,4107.179688,4136.025879,4140.641113,4137.436035,4644.871582,4445.000000,4389.615234,4521.794922,0.000000,4.000000,80.000000,,,,0.000000,4.000000,4.000000,4.000000,4.000000,4.000000,4.000000,4.000000,4.000000,4.000000,4.000000,4.000000,4.000000,4.000000,4.000000,100.000000,,,,,,,,,,,,,,,,,,,,,,,,,,,,
1703161438.744316,1703161438.744592,46.000000,0.000000,4186.538574,4116.282227,4254.871582,4216.538574,4127.307617,4121.025879,4105.641113,4131.666504,4133.974121,4128.846191,4630.641113,4433.205078,4377.692383,4509.487305,0.000000,4.000000,80.000000,,,,0.000000,4.000000,4.000000,4.000000,4.000000,4.000000,4.000000,4.000000,4.000000,4.000000,4.000000,4.000000,4.000000,4.000000,4.000000,100.000000,,,,,,,,,,,,,,,,,,,,,,,,,,,,
1703161438.752124,1703161438.752300,47.000000,0.000000,4180.256348,4108.846191,4247.948730,4207.563965,4125.897461,4121.410156,4101.282227,4122.563965,4120.128418,4124.102539,4619.230957,4424.743652,4373.461426,4503.077148,0.000000,4.000000,80.000000,,,,0.000000,4.000000,4.000000,4.000000,4.000000,4.000000,4.000000,4.000000,4.000000,4.000000,4.000000,4.000000,4.000000,4.000000,4.000000,100.000000,,,,,,,,,,,,,,,,,,,,,,,,,,,,
1703161438.759932,1703161438.760108,48.000000,0.000000,4185.384766,4117.179688,4253.333496,4211.922852,4128.589844,4125.641113,4100.769043,4116.922852,4116.666504,4122.563965,4616.153809,4429.102539,4372.436035,4504.230957,0.000000,4.000000,80.000000,,,,0.000000,4.000000,4.000000,4.000000,4.000000,4.000000,4.000000,4.000000,4.000000,4.000000,4.000000,4.000000,4.000000,4.000000,4.000000,100.000000,,,,,,,,,,,,,,,,,12.000000,0.000000,0.665953,0.286194,-0.589050,0.357239,0.987425,0.007813,0.136247,-16.536182,-34.407459,64.991325
1703161438.767740,1703161438.767816,49.000000,0.000000,4190.641113,4126.025879,4263.974121,4223.589844,4136.025879,4125.512695,4104.743652,4123.974121,4129.102539,4128.461426,4625.128418,4441.538574,4373.846191,4506.282227,0.000000,4.000000,80.000000,,,,0.000000,4.000000,4.000000,4.000000,4.000000,4.000000,4.000000,4.000000,4.000000,4.000000,4.000000,4.000000,4.000000,4.000000,4.000000,100.000000,,,,,,,,,,,,,,,,,,,,,,,,,,,,
1703161438.775548,1703161438.775724,50.000000,0.000000,4191.410156,4126.282227,4266.153809,4222.820313,4137.692383,4122.436035,4106.410156,4137.179688,4136.538574,4138.333496,4641.153809,4447.436035,4383.846191,4513.077148,0.000000,4.000000,80.000000,,,,0.000000,4.000000,4.000000,4.000000,4.000000,4.000000,4.000000,4.000000,4.000000,4.000000,4.000000,4.000000,4.000000,4.000000,4.000000,100.000000,,,,,,,,,,,,,,,,,,,,,,,,,,,,
1703161438.783356,1703161438.783532,51.000000,0.000000,4189.230957,4122.948730,4263.077148,4215.897461,4127.051270,4120.769043,4105.128418,4145.641113,4137.820313,4141.666504,4645.128418,4445.897461,4390.000000,4515.256348,0.000000,4.000000,80.000000,,,,0.000000,4.000000,4.000000,4.000000,4.000000,4.000000,4.000000,4.000000,4.000000,4.000000,4.000000,4.000000,4.000000,4.000000,4.000000,100.000000,,,,,,,,,,,,,,,,,,,,,,,,,,,,
1703161438.791164,1703161438.791340,52.000000,0.000000,4186.922852,4121.282227,4262.820313,4214.615234,4125.512695,4123.333496,4109.102539,4151.282227,4147.051270,4141.282227,4639.487305,4445.769043,4382.563965,4506.153809,0.000000,4.000000,80.000000,,,,0.000000,4.000000,4.000000,4.000000,4.000000,4.000000,4.000000,4.000000,4.000000,4.000000,4.000000,4.000000,4.000000,4.000000,4.000000,100.000000,,,,,,,,,,,,,,,,,13.000000,0.000000,0.666071,0.286072,-0.589050,0.357117,0.984007,0.009278,0.132340,-16.599232,-34.283382,64.958862
1703161438.798972,1703161438.799048,53.000000,0.000000,4187.692383,4124.102539,4263.846191,4218.077148,4138.974121,4126.410156,4119.230957,4163.589844,4160.897461,4145.128418,4643.974121,4453.589844,4381.282227,4505.000000,0.000000,4.000000,80.000000,,,,0.000000,4.000000,4.000000,4.000000,4.000000,4.000000,4.000000,4.000000,4.000000,4.000000,4.000000,4.000000,4.000000,4.000000,4.000000,100.000000,,,,,,,,,,,,,,,,,,,,,,,,,,,,
1703161438.806780,1703161438.806956,54.000000,0.000000,4185.512695,4123.461426,4264.487305,4218.333496,4142.179688,4125.512695,4121.794922,4171.025879,4157.307617,4144.230957,4647.563965,4460.769043,4388.205078,4509.871582,0.000000,4.000000,80.000000,,,,0.000000,4.000000,4.000000,4.000000,4.000000,4.000000,4.000000,4.000000,4.000000,4.000000,4.000000,4.000000,4.000000,4.000000,4.000000,100.000000,,,,,,,,,,,,,,,,,,,,,,,,,,,,
1703161438.814588,1703161438.814764,55.000000,0.000000,4188.205078,4125.384766,4267.563965,4220.000000,4134.871582,4118.461426,4111.025879,4161.282227,4141.410156,4138.205078,4640.384766,4458.717773,4388.333496,4508.461426,0.000000,4.000000,80.000000,,,,0.000000,4.000000,4.000000,4.000000,4.000000,4.000000,4.000000,4.000000,4.000000,4.000000,4.000000,4.000000,4.000000,4.000000,4.000000,100.000000,,,,,,,,,,,,,,,,,,,,,,,,,,,,
1703161438.822397,1703161438.822672,56.000000,0.000000,4196.538574,4134.615234,4274.358887,4228.333496,4134.487305,4116.025879,4106.410156,4152.820313,4145.000000,4143.461426,4642.179688,4459.230957,4388.974121,4512.051270,0.000000,4.000000,80.000000,,,,0.000000,4.000000,4.000000,4.000000,4.000000,4.000000,4.000000,4.000000,4.000000,4.000000,4.000000,4.000000,4.000000,4.000000,4.000000,100.000000,,,,,,,,,,,,,,,,,14.000000,0.000000,0.666189,0.285950,-0.589050,0.356995,0.977658,0.008302,0.130387,-16.689308,-34.238377,64.962975
1703161438.830205,1703161438.830480,57.000000,0.000000,4200.897461,4139.615234,4282.563965,4233.077148,4138.333496,4119.871582,4113.077148,4155.000000,4152.820313,4151.153809,4656.410156,4467.051270,4399.102539,4523.974121,0.000000,4.000000,80.000000,,,,0.000000,4.000000,4.000000,4.000000,4.000000,4.000000,4.000000,4.000000,4.000000,4.000000,4.000000,4.000000,4.000000,4.000000,4.000000,100.000000,1.000000,100.000000,4.000000,4.000000,4.000000,4.000000,4.000000,4.000000,4.000000,4.000000,4.000000,4.000000,4.000000,4.000000,4.000000,4.000000,,,,,,,,,,,,
1703161438.838013,1703161438.838388,58.000000,0.000000,4197.692383,4136.922852,4279.230957,4229.871582,4138.205078,4121.922852,4112.051270,4148.974121,4139.230957,4147.179688,4657.307617,4464.102539,4402.820313,4522.051270,0.000000,4.000000,80.000000,,,,0.000000,4.000000,4.000000,4.000000,4.000000,4.000000,4.000000,4.000000,4.000000,4.000000,4.000000,4.000000,4.000000,4.000000,4.000000,100.000000,,,,,,,,,,,,,,,,,,,,,,,,,,,,
1703161438.845821,1703161438.846196,59.000000,0.000000,4192.948730,4137.051270,4268.205078,4228.846191,4139.102539,4122.179688,4105.256348,4130.641113,4121.410156,4135.384766,4642.179688,4448.974121,4395.897461,4510.000000,0.000000,4.000000,80.000000,,,,0.000000,4.000000,4.000000,4.000000,4.000000,4.000000,4.000000,4.000000,4.000000,4.000000,4.000000,4.000000,4.000000,4.000000,4.000000,100.000000,,,,,,,,,,,,,,,,,,,,,,,,,,,,
1703161438.853629,1703161438.854104,60.000000,0.000000,4190.000000,4132.692383,4266.922852,4227.307617,4140.384766,4122.179688,4104.102539,4117.948730,4112.307617,4125.256348,4631.025879,4442.179688,4386.666504,4504.358887,0.000000,4.000000,80.000000,,,,0.000000,4.000000,4.000000,4.000000,4.000000,4.000000,4.000000,4.000000,4.000000,4.000000,4.000000,4.000000,4.000000,4.000000,4.000000,100.000000,,,,,,,,,,,,,,,,,15.000000,0.000000,0.666284,0.285706,-0.589172,0.356812,0.986937,0.012209,0.137712,-16.737043,-34.264538,64.933342
1703161438.861437,1703161438.861912,61.000000,0.000000,4187.179688,4129.102539,4270.769043,4225.128418,4138.461426,4127.948730,4107.307617,4117.692383,4110.641113,4125.512695,4633.589844,4446.538574,4385.000000,4505.512695,0.000000,4.000000,80.000000,,,,0.000000,4.000000,4.000000,4.000000,4.000000,4.000000,4.000000,4.000000,4.000000,4.000000,4.000000,4.000000,4.000000,4.000000,4.000000,100.000000,,,,,,,,,,,,,,,,,,,,,,,,,,,,
1703161438.869245,1703161438.869720,62.000000,0.000000,4189.230957,4137.436035,4271.282227,4232.051270,4140.128418,4136.025879,4111.538574,4130.641113,4124.102539,4135.769043,4644.615234,4452.051270,4394.358887,4510.384766,0.000000,4.000000,80.000000,,,,0.000000,4.000000,4.000000,4.000000,4.000000,4.000000,4.000000,4.000000,4.000000,4.000000,4.000000,4.000000,4.000000,4.000000,4.000000,100.000000,,,,,,,,,,,,,,,,,,,,,,,,,,,,
1703161438.877053,1703161438.877528,63.000000,0.000000,4182.563965,4128.717773,4263.205078,4224.743652,4144.102539,4134.743652,4112.307617,4146.794922,4146.922852,4142.436035,4647.307617,4449.230957,4394.487305,4506.922852,0.000000,4.000000,80.000000,,,,0.000000,4.000000,4.000000,4.000000,4.000000,4.000000,4.000000,4.000000,4.000000,4.000000,4.000000,4.000000,4.000000,4.000000,4.000000,100.000000,,,,,,,,,,,,,,,,,,,,,,,,,,,,
1703161438.884861,1703161438.885236,64.000000,0.000000,4166.025879,4104.358887,4252.436035,4204.487305,4137.820313,4124.230957,4108.077148,4153.846191,4152.179688,4139.743652,4636.153809,4442.307617,4379.871582,4491.538574,5247.000000,4.000000,80.000000,,,,0.000000,4.000000,4.000000,4.000000,4.000000,4.000000,4.000000,4.000000,4.000000,4.000000,4.000000,4.000000,4.000000,4.000000,4.000000,100.000000,,,,,,,,,,,,,,,,,16.000000,0.000000,0.666427,0.285522,-0.589172,0.356689,0.986937,0.019534,0.138200,-16.630007,-34.138084,64.806679
1703161438.892669,1703161438.893044,65.000000,0.000000,4162.179688,4105.000000,4252.692383,4204.487305,4124.487305,4119.615234,4107.051270,4156.025879,4146.153809,4137.820313,4629.871582,4447.179688,4374.487305,4484.871582,5337.000000,4.000000,80.000000,,,,0.000000,4.000000,4.000000,4.000000,4.000000,4.000000,4.000000,4.000000,4.000000,4.000000,4.000000,4.000000,4.000000,4.000000,4.000000,100.000000,,,,,,,,,,,,,,,,,,,,,,,,,,,,
1703161438.900477,1703161438.900752,66.000000,0.000000,4167.563965,4117.563965,4261.666504,4214.230957,4120.128418,4121.410156,4110.000000,4158.717773,4144.743652,4139.358887,4637.051270,4459.871582,4384.615234,4491.282227,5268.000000,4.000000,80.000000,,,,0.000000,4.000000,4.000000,4.000000,4.000000,4.000000,4.000000,4.000000,4.000000,4.000000,4.000000,4.000000,4.000000,4.000000,4.000000,100.000000,,,,,,,,,,,,,,,,,,,,,,,,,,,,
1703161438.908285,1703161438.908560,67.000000,0.000000,4168.333496,4114.487305,4268.333496,4214.358887,4127.051270,4121.666504,4113.589844,4160.384766,4145.769043,4141.025879,4641.794922,4462.563965,4389.102539,4492.692383,5248.000000,4.000000,80.000000,,,,0.000000,4.000000,4.000000,4.000000,4.000000,4.000000,4.000000,4.000000,4.000000,4.000000,4.000000,4.000000,4.000000,4.000000,4.000000,100.000000,,,,,,,,,,,,,,,,,,,,,,,,,,,,
1703161438.916093,1703161438.916268,68.000000,0.000000,4167.051270,4114.871582,4272.692383,4217.051270,4131.282227,4121.025879,4114.615234,4159.871582,4143.589844,4141.153809,4641.153809,4460.897461,4385.512695,4490.512695,5098.000000,4.000000,80.000000,,,,0.000000,4.000000,4.000000,4.000000,4.000000,4.000000,4.000000,4.000000,4.000000,4.000000,4.000000,4.000000,4.000000,4.000000,4.000000,100.000000,,,,,,,,,,,,,,,,,17.000000,0.000000,0.666597,0.285278,-0.589172,0.356567,0.992309,0.006837,0.128434,-16.650339,-34.224277,64.959343
1703161438.923901,1703161438.924076,69.000000,0.000000,4170.000000,4121.666504,4276.922852,4219.102539,4132.051270,4115.512695,4110.128418,4151.282227,4134.743652,4138.461426,4642.051270,4462.436035,4387.051270,4492.692383,5148.000000,4.000000,80.000000,,,,0.000000,4.000000,4.000000,4.000000,4.000000,4.000000,4.000000,4.000000,4.000000,4.000000,4.000000,4.000000,4.000000,4.000000,4.000000,100.000000,,,,,,,,,,,,,,,,,,,,,,,,,,,,
1703161438.931709,1703161438.931784,70.000000,0.000000,4176.282227,4122.820313,4275.512695,4215.641113,4135.384766,4109.743652,4105.384766,4138.717773,4123.205078,4134.487305,4640.512695,4460.000000,4390.000000,4492.563965,5043.000000,4.000000,80.000000,,,,0.000000,4.000000,4.000000,4.000000,4.000000,4.000000,4.000000,4.000000,4.000000,4.000000,4.000000,4.000000,4.000000,4.000000,4.000000,100.000000,,,,,,,,,,,,,,,,,,,,,,,,,,,,
1703161438.939517,1703161438.939692,71.000000,0.000000,4181.282227,4127.692383,4278.846191,4224.615234,4138.461426,4112.436035,4107.179688,4134.102539,4116.282227,4126.794922,4634.743652,4458.589844,4387.436035,4493.077148,5247.000000,4.000000,80.000000,,,,0.000000,4.000000,4.000000,4.000000,4.000000,4.000000,4.000000,4.000000,4.000000,4.000000,4.000000,4.000000,4.000000,4.000000,4.000000,100.000000,,,,,,,,,,,,,,,,,,,,,,,,,,,,
1703161438.947325,1703161438.947500,72.000000,0.000000,4176.666504,4131.666504,4282.820313,4232.179688,4137.820313,4120.769043,4114.487305,4134.230957,4119.102539,4120.769043,4630.897461,4459.743652,4384.230957,4495.512695,5013.000000,4.000000,80.000000,,,,0.000000,4.000000,4.000000,4.000000,4.000000,4.000000,4.000000,4.000000,4.000000,4.000000,4.000000,4.000000,4.000000,4.000000,4.000000,100.000000,,,,,,,,,,,,,,,,,18.000000,0.000000,0.666600,0.285095,-0.589294,0.356506,0.985960,0.000977,0.137224,-16.768639,-34.235184,64.880074
1703161438.955133,1703161438.955408,73.000000,0.000000,4168.461426,4126.538574,4272.051270,4222.820313,4133.589844,4124.102539,4116.025879,4129.230957,4119.358887,4123.077148,4631.282227,4450.256348,4382.307617,4489.871582,5248.000000,4.000000,80.000000,,,,0.000000,4.000000,4.000000,4.000000,4.000000,4.000000,4.000000,4.000000,4.000000,4.000000,4.000000,4.000000,4.000000,4.000000,4.000000,100.000000,,,,,,,,,,,,,,,,,,,,,,,,,,,,
1703161438.962942,1703161438.963217,74.000000,0.000000,4167.563965,4120.769043,4258.205078,4213.205078,4128.205078,4119.487305,4108.717773,4119.871582,4110.769043,4125.256348,4627.563965,4433.974121,4377.563965,4480.897461,5824.000000,4.000000,80.000000,,,,0.000000,4.000000,4.000000,4.000000,4.000000,4.000000,4.000000,4.000000,4.000000,4.000000,4.000000,4.000000,4.000000,4.000000,4.000000,100.000000,,,,,,,,,,,,,,,,,,,,,,,,,,,,
1703161438.970750,1703161438.971124,75.000000,0.000000,4164.487305,4120.641113,4258.846191,4211.282227,4125.641113,4119.102539,4105.769043,4116.794922,4106.282227,4124.102539,4623.717773,4430.769043,4376.922852,4477.948730,6147.000000,4.000000,80.000000,,,,0.000000,4.000000,4.000000,4.000000,4.000000,4.000000,4.000000,4.000000,4.000000,4.000000,4.000000,4.000000,4.000000,4.000000,4.000000,100.000000,,,,,,,,,,,,,,,,,,,,,,,,,,,,
1703161438.978557,1703161438.978932,76.000000,0.000000,4157.563965,4122.563965,4262.179688,4213.846191,4127.948730,4126.538574,4113.974121,4125.256348,4114.743652,4125.512695,4627.051270,4439.743652,4382.692383,4480.000000,6579.000000,4.000000,80.000000,,,,0.000000,4.000000,4.000000,4.000000,4.000000,4.000000,4.000000,4.000000,4.000000,4.000000,4.000000,4.000000,4.000000,4.000000,4.000000,100.000000,,,,,,,,,,,,,,,,,19.000000,0.000000,0.666527,0.285217,-0.589355,0.356445,0.991332,0.016604,0.130875,-16.725107,-34.228329,65.075401
1703161438.986366,1703161438.986841,77.000000,0.000000,4155.641113,4120.897461,4254.615234,4214.358887,4128.589844,4129.102539,4116.666504,4141.666504,4131.282227,4131.410156,4631.282227,4443.846191,4385.128418,4477.820313,6761.000000,4.000000,80.000000,,,,0.000000,4.000000,4.000000,4.000000,4.000000,4.000000,4.000000,4.000000,4.000000,4.000000,4.000000,4.000000,4.000000,4.000000,4.000000,100.000000,,,,,,,,,,,,,,,,,,,,,,,,,,,,
1703161438.994174,1703161438.994649,78.000000,0.000000,4152.436035,4112.563965,4251.410156,4208.974121,4127.563965,4123.717773,4112.820313,4151.794922,4142.948730,4139.615234,4631.794922,4443.333496,4382.692383,4476.025879,5824.000000,4.000000,80.000000,,,,0.000000,4.000000,4.000000,4.000000,4.000000,4.000000,4.000000,4.000000,4.000000,4.000000,4.000000,4.000000,4.000000,4.000000,4.000000,100.000000,,,,,,,,,,,,,,,,,,,,,,,,,,,,
1703161439.001982,1703161439.002557,79.000000,0.000000,4153.846191,4110.256348,4261.282227,4207.307617,4128.333496,4122.948730,4112.948730,4154.102539,4145.000000,4143.846191,4635.256348,4450.256348,4383.846191,4483.974121,6147.000000,4.000000,80.000000,,,,0.000000,4.000000,4.000000,4.000000,4.000000,4.000000,4.000000,4.000000,4.000000,4.000000,4.000000,4.000000,4.000000,4.000000,4.000000,100.000000,,,,,,,,,,,,,,,,,,,,,,,,,,,,
1703161439.009790,1703161439.010365,80.000000,0.000000,4167.436035,4122.051270,4267.948730,4216.794922,4127.948730,4123.461426,4112.051270,4156.410156,4142.051270,4142.436035,4645.256348,4462.051270,4393.846191,4494.487305,6579.000000,4.000000,80.000000,,,,0.000000,4.000000,4.000000,4.000000,4.000000,4.000000,4.000000,4.000000,4.000000,4.000000,4.000000,4.000000,4.000000,4.000000,4.000000,100.000000,,,,,,,,,,,,,,,,,20.000000,0.000000,0.666855,0.285156,-0.589050,0.356384,0.989379,0.007325,0.132829,-16.669264,-34.238831,65.151192
1703161439.017598,1703161439.018272,81.000000,0.000000,4169.615234,4125.512695,4264.102539,4218.333496,4128.846191,4115.384766,4107.051270,4150.641113,4135.641113,4138.846191,4643.717773,4461.025879,4399.743652,4495.384766,6761.000000,4.000000,80.000000,,,,0.000000,4.000000,4.000000,4.000000,4.000000,4.000000,4.000000,4.000000,4.000000,4.000000,4.000000,4.000000,4.000000,4.000000,4.000000,100.000000,,,,,,,,,,,,,,,,,,,,,,,,,,,,
1703161439.025406,1703161439.026080,82.000000,0.000000,4159.230957,4120.769043,4262.820313,4210.769043,4128.717773,4107.820313,4104.358887,4140.384766,4124.358887,4134.871582,4630.384766,4451.794922,4390.384766,4491.538574,5824.000000,4.000000,80.000000,,,,0.000000,4.000000,4.000000,4.000000,4.000000,4.000000,4.000000,4.000000,4.000000,4.000000,4.000000,4.000000,4.000000,4.000000,4.000000,100.000000,,,,,,,,,,,,,,,,,,,,,,,,,,,,
1703161439.033214,1703161439.033988,83.000000,0.000000,4161.794922,4123.974121,4265.384766,4212.563965,4124.358887,4106.666504,4106.922852,4140.897461,4121.794922,4132.692383,4635.000000,4454.102539,4386.794922,4494.358887,6147.000000,4.000000,80.000000,,,,0.000000,4.000000,4.000000,4.000000,4.000000,4.000000,4.000000,4.000000,4.000000,4.000000,4.000000,4.000000,4.000000,4.000000,4.000000,100.000000,,,,,,,,,,,,,,,,,,,,,,,,,,,,
1703161439.041022,1703161439.041796,84.000000,0.000000,4166.410156,4126.153809,4266.410156,4218.077148,4123.205078,4107.563965,4108.077148,4144.743652,4125.384766,4129.615234,4646.666504,4463.717773,4393.077148,4499.487305,6579.000000,4.000000,80.000000,,,,0.000000,4.000000,4.000000,4.000000,4.000000,4.000000,4.000000,4.000000,4.000000,4.000000,4.000000,4.000000,4.000000,4.000000,4.000000,100.000000,,,,,,,,,,,,,,,,,21.000000,0.000000,0.666909,0.285156,-0.588989,0.356384,0.997192,0.027835,0.134294,-16.652338,-34.281612,65.169411
1703161439.048830,1703161439.049504,85.000000,0.000000,4155.256348,4121.410156,4267.820313,4217.179688,4127.563965,4107.307617,4107.307617,4134.230957,4110.641113,4109.230957,4631.025879,4457.436035,4377.436035,4488.974121,6761.000000,4.000000,80.000000,,,,0.000000,4.000000,4.000000,4.000000,4.000000,4.000000,4.000000,4.000000,4.000000,4.000000,4.000000,4.000000,4.000000,4.000000,4.000000,100.000000,,,,,,,,,,,,,,,,,,,,,,,,,,,,
1703161439.056638,1703161439.057312,86.000000,0.000000,4151.666504,4118.974121,4267.820313,4215.769043,4123.846191,4105.769043,4106.666504,4120.512695,4087.820557,4084.230713,4611.282227,4445.384766,4358.077148,4480.769043,5824.000000,4.000000,80.000000,,,,0.000000,4.000000,4.000000,4.000000,4.000000,4.000000,4.000000,4.000000,4.000000,4.000000,4.000000,4.000000,4.000000,4.000000,4.000000,100.000000,,,,,,,,,,,,,,,,,,,,,,,,,,,,
1703161439.064446,1703161439.065020,87.000000,0.000000,4158.717773,4123.205078,4265.128418,4217.307617,4121.282227,4110.512695,4107.563965,4118.846191,4084.871826,4084.102539,4616.282227,4444.743652,4364.871582,4485.000000,6147.000000,4.000000,80.000000,,,,0.000000,4.000000,4.000000,4.000000,4.000000,4.000000,4.000000,4.000000,4.000000,4.000000,4.000000,4.000000,4.000000,4.000000,4.000000,100.000000,,,,,,,,,,,,,,,,,,,,,,,,,,,,
1703161439.072254,1703161439.072828,88.000000,0.000000,4151.025879,4125.384766,4260.512695,4217.436035,4127.436035,4121.025879,4110.641113,4121.410156,4096.538574,4096.153809,4617.436035,4441.666504,4367.051270,4480.897461,6579.000000,4.000000,80.000000,,,,0.000000,4.000000,4.000000,4.000000,4.000000,4.000000,4.000000,4.000000,4.000000,4.000000,4.000000,4.000000,4.000000,4.000000,4.000000,100.000000,,,,,,,,,,,,,,,,,22.000000,0.000000,0.666738,0.285706,-0.588806,0.356567,1.002564,0.022464,0.128922,-16.487104,-34.303452,65.002464
1703161439.080062,1703161439.080536,89.000000,0.000000,4142.179688,4118.205078,4259.615234,4213.717773,4128.846191,4126.282227,4115.512695,4129.743652,4111.025879,4102.179688,4611.538574,4439.743652,4360.128418,4475.256348,6761.000000,4.000000,80.000000,,,,0.000000,4.000000,4.000000,4.000000,4.000000,4.000000,4.000000,4.000000,4.000000,4.000000,4.000000,4.000000,4.000000,4.000000,4.000000,100.000000,,,,,,,,,,,,,,,,,,,,,,,,,,,,
1703161439.087870,1703161439.088344,90.000000,0.000000,4150.512695,4118.077148,4263.589844,4214.487305,4128.333496,4125.512695,4121.794922,4145.769043,4131.794922,4114.487305,4627.179688,4453.589844,4374.743652,4487.307617,5824.000000,4.000000,80.000000,,,,0.000000,4.000000,4.000000,4.000000,4.000000,4.000000,4.000000,4.000000,4.000000,4.000000,4.000000,4.000000,4.000000,4.000000,4.000000,100.000000,,,,,,,,,,,,,,,,,,,,,,,,,,,,
1703161439.095678,1703161439.096052,91.000000,0.000000,4157.179688,4132.692383,4265.897461,4218.589844,4131.153809,4125.384766,4121.538574,4156.794922,4148.205078,4125.897461,4642.179688,4462.436035,4388.077148,4495.769043,6147.000000,4.000000,80.000000,,,,0.000000,4.000000,4.000000,4.000000,4.000000,4.000000,4.000000,4.000000,4.000000,4.000000,4.000000,4.000000,4.000000,4.000000,4.000000,100.000000,,,,,,,,,,,,,,,,,,,,,,,,,,,,
1703161439.103486,1703161439.103860,92.000000,0.000000,4152.692383,4139.615234,4265.256348,4219.102539,4131.153809,4122.436035,4113.333496,4157.820313,4146.410156,4128.333496,4633.333496,4457.436035,4379.487305,4488.461426,6579.000000,4.000000,80.000000,,,,0.000000,4.000000,4.000000,4.000000,4.000000,4.000000,4.000000,4.000000,4.000000,4.000000,4.000000,4.000000,4.000000,4.000000,4.000000,100.000000,,,,,,,,,,,,,,,,,23.000000,0.000000,0.666268,0.286316,-0.588745,0.357056,0.979123,0.005372,0.132829,-16.538393,-34.089775,64.868889
1703161439.111294,1703161439.111568,93.000000,0.000000,4151.410156,4135.128418,4266.538574,4216.666504,4131.282227,4116.153809,4105.128418,4154.358887,4141.025879,4132.563965,4626.538574,4459.358887,4375.512695,4488.974121,6761.000000,4.000000,80.000000,,,,0.000000,4.000000,4.000000,4.000000,4.000000,4.000000,4.000000,4.000000,4.000000,4.000000,4.000000,4.000000,4.000000,4.000000,4.000000,100.000000,,,,,,,,,,,,,,,,,,,,,,,,,,,,
1703161439.119103,1703161439.119376,94.000000,0.000000,4158.717773,4142.692383,4266.153809,4221.153809,4137.436035,4117.948730,4106.538574,4152.820313,4148.974121,4139.743652,4634.615234,4462.179688,4384.487305,4497.948730,5824.000000,4.000000,80.000000,,,,0.000000,4.000000,4.000000,4.000000,4.000000,4.000000,4.000000,4.000000,4.000000,4.000000,4.000000,4.000000,4.000000,4.000000,4.000000,100.000000,,,,,,,,,,,,,,,,,,,,,,,,,,,,
1703161439.126911,1703161439.127085,95.000000,0.000000,4164.871582,4154.102539,4267.051270,4224.871582,4139.615234,4123.717773,4116.025879,4160.641113,4157.820313,4148.974121,4643.717773,4461.410156,4394.871582,4505.641113,6147.000000,4.000000,80.000000,,,,0.000000,4.000000,4.000000,4.000000,4.000000,4.000000,4.000000,4.000000,4.000000,4.000000,4.000000,4.000000,4.000000,4.000000,4.000000,100.000000,,,,,,,,,,,,,,,,,,,,,,,,,,,,
1703161439.134719,1703161439.134993,96.000000,0.000000,4171.922852,4156.153809,4275.641113,4223.589844,4137.948730,4117.563965,4122.179688,4168.589844,4153.205078,4155.897461,4647.692383,4469.871582,4401.922852,4513.846191,6579.000000,4.000000,80.000000,,,,0.000000,4.000000,4.000000,4.000000,4.000000,4.000000,4.000000,4.000000,4.000000,4.000000,4.000000,4.000000,4.000000,4.000000,4.000000,100.000000,,,,,,,,,,,,,,,,,24.000000,0.000000,0.665995,0.286621,-0.588684,0.357422,0.976682,0.010255,0.121109,-16.434553,-34.180798,65.098663
1703161439.142527,1703161439.142801,97.000000,0.000000,4170.641113,4152.436035,4276.538574,4222.307617,4138.589844,4113.333496,4123.333496,4161.538574,4140.769043,4147.948730,4645.384766,4472.948730,4396.538574,4512.820313,6761.000000,4.000000,80.000000,,,,0.000000,4.000000,4.000000,4.000000,4.000000,4.000000,4.000000,4.000000,4.000000,4.000000,4.000000,4.000000,4.000000,4.000000,4.000000,100.000000,,,,,,,,,,,,,,,,,,,,,,,,,,,,
1703161439.150335,1703161439.150709,98.000000,0.000000,4157.051270,4139.102539,4265.641113,4213.846191,4132.563965,4120.769043,4124.743652,4146.538574,4121.282227,4130.512695,4635.384766,4456.282227,4385.769043,4503.589844,5824.000000,4.000000,80.000000,,,,0.000000,4.000000,4.000000,4.000000,4.000000,4.000000,4.000000,4.000000,4.000000,4.000000,4.000000,4.000000,4.000000,4.000000,4.000000,100.000000,,,,,,,,,,,,,,,,,,,,,,,,,,,,
1703161439.158143,1703161439.158517,99.000000,0.000000,4150.000000,4128.846191,4259.102539,4201.410156,4125.512695,4122.563965,4123.717773,4133.461426,4102.563965,4122.307617,4623.846191,4440.897461,4381.153809,4494.615234,6147.000000,4.000000,80.000000,,,,0.000000,4.000000,4.000000,4.000000,4.000000,4.000000,4.000000,4.000000,4.000000,4.000000,4.000000,4.000000,4.000000,4.000000,4.000000,100.000000,,,,,,,,,,,,,,,,,,,,,,,,,,,,
1703161439.165951,1703161439.166325,100.000000,0.000000,4154.230957,4136.282227,4261.025879,4200.769043,4122.820313,4117.051270,4121.282227,4126.538574,4106.922852,4122.820313,4616.922852,4443.077148,4375.641113,4492.051270,6579.000000,4.000000,80.000000,,,,0.000000,4.000000,4.000000,4.000000,4.000000,4.000000,4.000000,4.000000,4.000000,4.000000,4.000000,4.000000,4.000000,4.000000,4.000000,100.000000,,,,,,,,,,,,,,,,,25.000000,0.000000,0.665850,0.286804,-0.588684,0.357544,0.991820,0.015139,0.125992,-16.441099,-34.229385,65.088799
1703161439.173759,1703161439.174033,101.000000,0.000000,4149.871582,4136.922852,4256.410156,4203.717773,4120.256348,4117.051270,4118.846191,4128.589844,4121.538574,4121.794922,4615.897461,4442.820313,4364.743652,4488.333496,6761.000000,4.000000,80.000000,,,,0.000000,4.000000,4.000000,4.000000,4.000000,4.000000,4.000000,4.000000,4.000000,4.000000,4.000000,4.000000,4.000000,4.000000,4.000000,100.000000,,,,,,,,,,,,,,,,,,,,,,,,,,,,
1703161439.181567,1703161439.181941,102.000000,0.000000,4136.922852,4121.922852,4247.692383,4197.436035,4119.615234,4118.077148,4112.820313,4129.102539,4121.153809,4119.743652,4616.410156,4431.794922,4359.871582,4478.333496,5824.000000,4.000000,80.000000,,,,0.000000,4.000000,4.000000,4.000000,4.000000,4.000000,4.000000,4.000000,4.000000,4.000000,4.000000,4.000000,4.000000,4.000000,4.000000,100.000000,,,,,,,,,,,,,,,,,,,,,,,,,,,,
1703161439.189375,1703161439.189749,103.000000,0.000000,4133.077148,4118.846191,4247.436035,4194.230957,4121.153809,4113.205078,4105.769043,4124.743652,4118.974121,4120.000000,4610.128418,4426.410156,4360.897461,4472.948730,6147.000000,4.000000,80.000000,,,,0.000000,4.000000,4.000000,4.000000,4.000000,4.000000,4.000000,4.000000,4.000000,4.000000,4.000000,4.000000,4.000000,4.000000,4.000000,100.000000,,,,,,,,,,,,,,,,,,,,,,,,,,,,
1703161439.197183,1703161439.197657,104.000000,0.000000,4136.922852,4125.000000,4248.974121,4199.871582,4119.743652,4109.230957,4105.128418,4128.589844,4123.974121,4121.794922,4602.820313,4430.384766,4356.538574,4474.615234,6579.000000,4.000000,80.000000,,,,0.000000,4.000000,4.000000,4.000000,4.000000,4.000000,4.000000,4.000000,4.000000,4.000000,4.000000,4.000000,4.000000,4.000000,4.000000,100.000000,,,,,,,,,,,,,,,,,26.000000,0.000000,0.665931,0.286743,-0.588623,0.357544,0.981077,-0.002442,0.137224,-16.513655,-34.339779,65.096588
1703161439.204991,1703161439.205465,105.000000,0.000000,4137.051270,4123.205078,4250.769043,4202.179688,4118.717773,4108.974121,4106.666504,4135.769043,4125.384766,4120.897461,4607.436035,4435.000000,4352.948730,4474.230957,6761.000000,4.000000,80.000000,,,,0.000000,4.000000,4.000000,4.000000,4.000000,4.000000,4.000000,4.000000,4.000000,4.000000,4.000000,4.000000,4.000000,4.000000,4.000000,100.000000,,,,,,,,,,,,,,,,,,,,,,,,,,,,
1703161439.212799,1703161439.213373,106.000000,0.000000,4137.179688,4122.948730,4257.307617,4200.769043,4122.179688,4109.358887,4106.922852,4138.077148,4125.512695,4121.666504,4613.461426,4434.615234,4355.769043,4474.487305,5824.000000,4.000000,80.000000,,,,0.000000,4.000000,4.000000,4.000000,4.000000,4.000000,4.000000,4.000000,4.000000,4.000000,4.000000,4.000000,4.000000,4.000000,4.000000,100.000000,,,,,,,,,,,,,,,,,,,,,,,,,,,,
1703161439.220607,1703161439.221181,107.000000,0.000000,4143.077148,4126.410156,4259.102539,4201.922852,4122.948730,4108.589844,4106.410156,4136.666504,4128.974121,4125.512695,4606.794922,4431.794922,4355.256348,4478.205078,6147.000000,4.000000,80.000000,,,,0.000000,4.000000,4.000000,4.000000,4.000000,4.000000,4.000000,4.000000,4.000000,4.000000,4.000000,4.000000,4.000000,4.000000,4.000000,100.000000,,,,,,,,,,,,,,,,,,,,,,,,,,,,
1703161439.228415,1703161439.228889,108.000000,0.000000,4143.333496,4122.692383,4249.102539,4206.153809,4123.077148,4107.179688,4105.128418,4129.358887,4125.769043,4125.897461,4596.282227,4428.846191,4348.717773,4477.563965,6579.000000,4.000000,80.000000,,,,0.000000,4.000000,4.000000,4.000000,4.000000,4.000000,4.000000,4.000000,4.000000,4.000000,4.000000,4.000000,4.000000,4.000000,4.000000,100.000000,,,,,,,,,,,,,,,,,27.000000,0.000000,0.665926,0.286377,-0.588806,0.357544,0.975705,0.014650,0.131852,-16.495623,-34.272469,65.053596
1703161439.236223,1703161439.236697,109.000000,0.000000,4136.922852,4122.179688,4245.641113,4207.179688,4121.282227,4105.512695,4105.897461,4123.333496,4113.717773,4118.205078,4595.512695,4424.615234,4345.512695,4472.563965,6761.000000,4.000000,80.000000,,,,0.000000,4.000000,4.000000,4.000000,4.000000,4.000000,4.000000,4.000000,4.000000,4.000000,4.000000,4.000000,4.000000,4.000000,4.000000,100.000000,,,,,,,,,,,,,,,,,,,,,,,,,,,,
1703161439.244031,1703161439.244405,110.000000,0.000000,4140.641113,4123.717773,4249.230957,4203.589844,4116.025879,4102.051270,4102.051270,4122.051270,4102.692383,4107.563965,4601.153809,4418.461426,4350.641113,4471.410156,5824.000000,4.000000,80.000000,,,,0.000000,4.000000,4.000000,4.000000,4.000000,4.000000,4.000000,4.000000,4.000000,4.000000,4.000000,4.000000,4.000000,4.000000,4.000000,100.000000,,,,,,,,,,,,,,,,,,,,,,,,,,,,
1703161439.251839,1703161439.252313,111.000000,0.000000,4150.769043,4121.410156,4247.051270,4205.512695,4116.794922,4103.205078,4096.282227,4117.179688,4096.410156,4107.051270,4605.384766,4418.461426,4356.538574,4479.230957,6147.000000,4.000000,80.000000,,,,0.000000,4.000000,4.000000,4.000000,4.000000,4.000000,4.000000,4.000000,4.000000,4.000000,4.000000,4.000000,4.000000,4.000000,4.000000,100.000000,,,,,,,,,,,,,,,,,,,,,,,,,,,,
1703161439.259647,1703161439.260121,112.000000,0.000000,4155.128418,4129.871582,4250.128418,4214.871582,4122.563965,4108.846191,4101.410156,4114.102539,4093.333252,4116.153809,4607.563965,4426.922852,4354.230957,4485.000000,6579.000000,4.000000,80.000000,,,,0.000000,4.000000,4.000000,4.000000,4.000000,4.000000,4.000000,4.000000,4.000000,4.000000,4.000000,4.000000,4.000000,4.000000,4.000000,100.000000,,,,,,,,,,,,,,,,,28.000000,0.000000,0.665979,0.286255,-0.588806,0.357544,0.990844,0.022464,0.130875,-16.396061,-34.295219,65.148232
1703161439.267455,1703161439.268030,113.000000,0.000000,4154.102539,4134.358887,4261.794922,4217.692383,4121.666504,4109.871582,4110.000000,4120.128418,4095.897461,4121.922852,4612.179688,4433.589844,4361.538574,4489.871582,6761.000000,4.000000,80.000000,,,,0.000000,4.000000,4.000000,4.000000,4.000000,4.000000,4.000000,4.000000,4.000000,4.000000,4.000000,4.000000,4.000000,4.000000,4.000000,100.000000,,,,,,,,,,,,,,,,,,,,,,,,,,,,
1703161439.275263,1703161439.275838,114.000000,0.000000,4157.179688,4129.743652,4262.948730,4213.846191,4120.897461,4108.461426,4109.743652,4123.333496,4104.230957,4120.256348,4618.589844,4435.000000,4376.922852,4497.563965,5824.000000,4.000000,80.000000,,,,0.000000,4.000000,4.000000,4.000000,4.000000,4.000000,4.000000,4.000000,4.000000,4.000000,4.000000,4.000000,4.000000,4.000000,4.000000,100.000000,,,,,,,,,,,,,,,,,,,,,,,,,,,,
1703161439.283072,1703161439.283646,115.000000,0.000000,4165.128418,4137.436035,4252.948730,4214.871582,4123.717773,4107.307617,4103.077148,4123.333496,4111.922852,4118.077148,4617.051270,4433.077148,4371.025879,4497.179688,6147.000000,4.000000,80.000000,,,,0.000000,4.000000,4.000000,4.000000,4.000000,4.000000,4.000000,4.000000,4.000000,4.000000,4.000000,4.000000,4.000000,4.000000,4.000000,100.000000,,,,,,,,,,,,,,,,,,,,,,,,,,,,
1703161439.290880,1703161439.291354,116.000000,0.000000,4168.846191,4143.461426,4252.051270,4216.922852,4123.717773,4106.410156,4096.666504,4131.666504,4120.000000,4121.538574,4615.256348,4434.743652,4360.769043,4496.922852,6579.000000,4.000000,80.000000,,,,0.000000,4.000000,4.000000,4.000000,4.000000,4.000000,4.000000,4.000000,4.000000,4.000000,4.000000,4.000000,4.000000,4.000000,4.000000,100.000000,,,,,,,,,,,,,,,,,29.000000,0.000000,0.666251,0.285950,-0.588684,0.357483,0.992309,0.003418,0.118667,-16.273121,-34.415699,65.000076
1703161439.298688,1703161439.299162,117.000000,0.000000,4168.974121,4135.769043,4261.025879,4215.256348,4123.205078,4106.282227,4092.307617,4139.487305,4132.948730,4130.256348,4623.205078,4439.871582,4371.282227,4504.743652,6761.000000,4.000000,80.000000,,,,0.000000,4.000000,4.000000,4.000000,4.000000,4.000000,4.000000,4.000000,4.000000,4.000000,4.000000,4.000000,4.000000,4.000000,4.000000,100.000000,,,,,,,,,,,,,,,,,,,,,,,,,,,,
1703161439.306496,1703161439.306870,118.000000,0.000000,4173.974121,4136.538574,4263.974121,4216.922852,4120.384766,4106.025879,4095.769287,4142.179688,4140.512695,4137.436035,4631.666504,4445.128418,4379.871582,4512.820313,5824.000000,4.000000,80.000000,,,,0.000000,4.000000,4.000000,4.000000,4.000000,4.000000,4.000000,4.000000,4.000000,4.000000,4.000000,4.000000,4.000000,4.000000,4.000000,100.000000,,,,,,,,,,,,,,,,,,,,,,,,,,,,
1703161439.314304,1703161439.314678,119.000000,0.000000,4181.282227,4142.436035,4263.974121,4221.025879,4118.974121,4107.051270,4104.230957,4148.974121,4136.794922,4139.230957,4635.384766,4452.051270,4382.436035,4521.410156,6147.000000,4.000000,80.000000,,,,0.000000,4.000000,4.000000,4.000000,4.000000,4.000000,4.000000,4.000000,4.000000,4.000000,4.000000,4.000000,4.000000,4.000000,4.000000,100.000000,,,,,,,,,,,,,,,,,,,,,,,,,,,,
1703161439.322112,1703161439.322386,120.000000,0.000000,4185.000000,4141.282227,4266.794922,4219.743652,4122.307617,4107.948730,4107.436035,4145.000000,4129.871582,4134.358887,4633.974121,4451.153809,4386.282227,4524.615234,6579.000000,4.000000,80.000000,,,,0.000000,4.000000,4.000000,4.000000,4.000000,4.000000,4.000000,4.000000,4.000000,4.000000,4.000000,4.000000,4.000000,4.000000,4.000000,100.000000,,,,,,,,,,,,,,,,,30.000000,0.000000,0.666414,0.285645,-0.588684,0.357422,0.984495,0.012697,0.124527,-16.162476,-34.407463,65.033401
1703161439.329920,1703161439.330294,121.000000,0.000000,4182.820313,4141.538574,4266.410156,4218.333496,4123.333496,4105.897461,4105.000000,4127.179688,4121.794922,4123.077148,4624.230957,4438.589844,4373.589844,4511.025879,6761.000000,4.000000,80.000000,,,,0.000000,4.000000,4.000000,4.000000,4.000000,4.000000,4.000000,4.000000,4.000000,4.000000,4.000000,4.000000,4.000000,4.000000,4.000000,100.000000,1.000000,100.000000,4.000000,4.000000,4.000000,4.000000,4.000000,4.000000,4.000000,4.000000,4.000000,4.000000,4.000000,4.000000,4.000000,4.000000,,,,,,,,,,,,
1703161439.337728,1703161439.338102,122.000000,0.000000,4175.000000,4135.256348,4260.897461,4219.230957,4122.307617,4107.307617,4105.000000,4120.128418,4110.769043,4113.589844,4615.256348,4430.641113,4361.025879,4504.102539,5824.000000,4.000000,80.000000,,,,0.000000,4.000000,4.000000,4.000000,4.000000,4.000000,4.000000,4.000000,4.000000,4.000000,4.000000,4.000000,4.000000,4.000000,4.000000,100.000000,,,,,,,,,,,,,,,,,,,,,,,,,,,,
1703161439.345536,1703161439.346010,123.000000,0.000000,4167.692383,4127.051270,4254.871582,4216.666504,4121.410156,4110.128418,4109.358887,4118.589844,4097.179688,4108.846191,4611.153809,4427.563965,4366.538574,4509.487305,6147.000000,4.000000,80.000000,,,,0.000000,4.000000,4.000000,4.000000,4.000000,4.000000,4.000000,4.000000,4.000000,4.000000,4.000000,4.000000,4.000000,4.000000,4.000000,100.000000,,,,,,,,,,,,,,,,,,,,,,,,,,,,
1703161439.353344,1703161439.353819,124.000000,0.000000,4167.179688,4135.384766,4248.974121,4214.487305,4122.179688,4108.974121,4108.077148,4104.230957,4086.025635,4099.743652,4594.615234,4414.487305,4355.384766,4494.743652,6579.000000,4.000000,80.000000,,,,0.000000,4.000000,4.000000,4.000000,4.000000,4.000000,4.000000,4.000000,4.000000,4.000000,4.000000,4.000000,4.000000,4.000000,4.000000,100.000000,,,,,,,,,,,,,,,,,31.000000,0.000000,0.666498,0.285400,-0.588745,0.357361,0.984495,0.011720,0.136247,-16.329561,-34.433384,64.980064
1703161439.361152,1703161439.361727,125.000000,0.000000,4167.820313,4141.538574,4246.538574,4215.641113,4126.410156,4115.128418,4106.666504,4103.077148,4088.333252,4096.794922,4583.717773,4407.563965,4340.641113,4485.000000,6761.000000,4.000000,80.000000,,,,0.000000,4.000000,4.000000,4.000000,4.000000,4.000000,4.000000,4.000000,4.000000,4.000000,4.000000,4.000000,4.000000,4.000000,4.000000,100.000000,,,,,,,,,,,,,,,,,,,,,,,,,,,,
1703161439.368960,1703161439.369535,126.000000,0.000000,4166.922852,4134.615234,4250.641113,4216.922852,4129.871582,4122.307617,4110.000000,4119.102539,4101.922852,4105.384766,4599.615234,4419.102539,4356.538574,4499.743652,5824.000000,4.000000,80.000000,,,,0.000000,4.000000,4.000000,4.000000,4.000000,4.000000,4.000000,4.000000,4.000000,4.000000,4.000000,4.000000,4.000000,4.000000,4.000000,100.000000,,,,,,,,,,,,,,,,,,,,,,,,,,,,
1703161439.376768,1703161439.377442,127.000000,0.000000,4169.871582,4134.102539,4257.179688,4217.820313,4126.025879,4114.871582,4108.589844,4123.717773,4110.512695,4112.307617,4616.794922,4427.692383,4375.000000,4510.897461,80.000000,4.000000,80.000000,,,,0.000000,4.000000,4.000000,4.000000,4.000000,4.000000,4.000000,4.000000,4.000000,4.000000,4.000000,4.000000,4.000000,4.000000,4.000000,100.000000,,,,,,,,,,,,,,,,,,,,,,,,,,,,
1703161439.384576,1703161439.385250,0.000000,0.000000,4177.820313,4139.358887,4261.410156,4215.897461,4122.563965,4110.512695,4106.025879,4126.282227,4115.897461,4121.282227,4623.333496,4432.436035,4380.384766,4513.974121,5247.000000,4.000000,80.000000,,,,0.000000,4.000000,4.000000,4.000000,4.000000,4.000000,4.000000,4.000000,4.000000,4.000000,4.000000,4.000000,4.000000,4.000000,4.000000,100.000000,,,,,,,,,,,,,,,,,0.000000,0.000000,0.666381,0.285217,-0.588928,0.357422,0.981077,0.010255,0.139177,-16.413273,-34.356712,65.115387
1703161439.392384,1703161439.393158,1.000000,0.000000,4184.102539,4140.384766,4260.512695,4217.179688,4129.102539,4120.641113,4106.153809,4136.922852,4130.256348,4135.769043,4629.871582,4440.769043,4391.538574,4522.563965,5337.000000,4.000000,80.000000,,,,0.000000,4.000000,4.000000,4.000000,4.000000,4.000000,4.000000,4.000000,4.000000,4.000000,4.000000,4.000000,4.000000,4.000000,4.000000,100.000000,,,,,,,,,,,,,,,,,,,,,,,,,,,,
1703161439.400192,1703161439.400966,2.000000,0.000000,4187.692383,4146.794922,4262.563965,4227.179688,4134.102539,4123.974121,4108.077148,4142.436035,4141.025879,4141.922852,4638.461426,4447.436035,4400.897461,4534.102539,5268.000000,4.000000,80.000000,,,,0.000000,4.000000,4.000000,4.000000,4.000000,4.000000,4.000000,4.000000,4.000000,4.000000,4.000000,4.000000,4.000000,4.000000,4.000000,100.000000,,,,,,,,,,,,,,,,,,,,,,,,,,,,
1703161439.408000,1703161439.408674,3.000000,0.000000,4194.615234,4155.897461,4273.974121,4235.000000,4131.025879,4113.333496,4107.692383,4141.410156,4141.025879,4139.487305,4638.846191,4449.871582,4396.282227,4538.333496,5240.000000,4.000000,80.000000,,,,0.000000,4.000000,4.000000,4.000000,4.000000,4.000000,4.000000,4.000000,4.000000,4.000000,4.000000,4.000000,4.000000,4.000000,4.000000,100.000000,,,,,,,,,,,,,,,,,,,,,,,,,,,,
1703161439.415808,1703161439.416482,4.000000,0.000000,4202.563965,4157.307617,4279.102539,4234.358887,4126.025879,4107.051270,4100.512695,4141.538574,4141.025879,4141.922852,4636.410156,4449.871582,4394.743652,4538.846191,5085.000000,4.000000,80.000000,,,,0.000000,4.000000,4.000000,4.000000,4.000000,4.000000,4.000000,4.000000,4.000000,4.000000,4.000000,4.000000,4.000000,4.000000,4.000000,100.000000,,,,,,,,,,,,,,,,,1.000000,0.000000,0.666275,0.285034,-0.588989,0.357666,0.977658,0.001953,0.131852,-16.288612,-34.354374,65.103851
1703161439.423617,1703161439.424190,5.000000,0.000000,4202.948730,4155.128418,4270.769043,4233.974121,4122.563965,4106.282227,4093.718018,4140.512695,4139.487305,4145.384766,4641.153809,4447.948730,4402.051270,4540.641113,5148.000000,4.000000,80.000000,,,,0.000000,4.000000,4.000000,4.000000,4.000000,4.000000,4.000000,4.000000,4.000000,4.000000,4.000000,4.000000,4.000000,4.000000,4.000000,100.000000,,,,,,,,,,,,,,,,,,,,,,,,,,,,
1703161439.431425,1703161439.431998,6.000000,0.000000,4195.000000,4150.128418,4264.743652,4229.487305,4120.769043,4104.871582,4098.077148,4136.153809,4134.871582,4142.563965,4642.563965,4444.743652,4399.871582,4540.000000,5041.000000,4.000000,80.000000,,,,0.000000,4.000000,4.000000,4.000000,4.000000,4.000000,4.000000,4.000000,4.000000,4.000000,4.000000,4.000000,4.000000,4.000000,4.000000,100.000000,,,,,,,,,,,,,,,,,,,,,,,,,,,,
1703161439.439232,1703161439.439706,7.000000,0.000000,4185.384766,4138.717773,4265.384766,4218.461426,4120.769043,4103.205078,4105.641113,4127.563965,4119.615234,4125.769043,4626.666504,4437.820313,4382.307617,4529.743652,5247.000000,4.000000,80.000000,,,,0.000000,4.000000,4.000000,4.000000,4.000000,4.000000,4.000000,4.000000,4.000000,4.000000,4.000000,4.000000,4.000000,4.000000,4.000000,100.000000,,,,,,,,,,,,,,,,,,,,,,,,,,,,
1703161439.447041,1703161439.447514,8.000000,0.000000,4178.205078,4134.743652,4262.179688,4215.384766,4121.282227,4104.230957,4103.846191,4114.871582,4096.025879,4103.333496,4600.769043,4424.358887,4361.538574,4514.871582,5025.000000,4.000000,80.000000,,,,0.000000,4.000000,4.000000,4.000000,4.000000,4.000000,4.000000,4.000000,4.000000,4.000000,4.000000,4.000000,4.000000,4.000000,4.000000,100.000000,,,,,,,,,,,,,,,,,2.000000,0.000000,0.666188,0.285034,-0.589050,0.357727,0.987425,0.004395,0.128434,-16.243084,-34.418938,65.110130
1703161439.454849,1703161439.455222,9.000000,0.000000,4174.615234,4136.153809,4257.307617,4217.179688,4121.666504,4111.922852,4107.563965,4117.179688,4101.410156,4108.333496,4597.307617,4422.307617,4360.641113,4512.307617,5248.000000,4.000000,80.000000,,,,0.000000,4.000000,4.000000,4.000000,4.000000,4.000000,4.000000,4.000000,4.000000,4.000000,4.000000,4.000000,4.000000,4.000000,4.000000,100.000000,,,,,,,,,,,,,,,,,,,,,,,,,,,,
1703161439.462657,1703161439.463030,10.000000,0.000000,4171.282227,4131.153809,4255.769043,4215.641113,4126.666504,4123.974121,4121.922852,4134.102539,4127.051270,4127.179688,4616.410156,4431.666504,4374.487305,4518.205078,5819.000000,4.000000,80.000000,,,,0.000000,4.000000,4.000000,4.000000,4.000000,4.000000,4.000000,4.000000,4.000000,4.000000,4.000000,4.000000,4.000000,4.000000,4.000000,100.000000,,,,,,,,,,,,,,,,,,,,,,,,,,,,
1703161439.470465,1703161439.470738,11.000000,0.000000,4170.128418,4128.461426,4256.282227,4213.717773,4127.307617,4125.897461,4122.692383,4141.282227,4127.948730,4128.077148,4628.461426,4431.282227,4382.436035,4521.153809,6147.000000,4.000000,80.000000,,,,0.000000,4.000000,4.000000,4.000000,4.000000,4.000000,4.000000,4.000000,4.000000,4.000000,4.000000,4.000000,4.000000,4.000000,4.000000,100.000000,,,,,,,,,,,,,,,,,,,,,,,,,,,,
1703161439.478273,1703161439.478546,12.000000,0.000000,4178.846191,4137.820313,4258.717773,4217.820313,4122.307617,4115.128418,4110.000000,4136.922852,4121.153809,4125.128418,4625.256348,4431.794922,4380.641113,4520.000000,6574.000000,4.000000,80.000000,,,,0.000000,4.000000,4.000000,4.000000,4.000000,4.000000,4.000000,4.000000,4.000000,4.000000,4.000000,4.000000,4.000000,4.000000,4.000000,100.000000,,,,,,,,,,,,,,,,,3.000000,0.000000,0.666186,0.284912,-0.589111,0.357727,0.988402,0.010255,0.140642,-16.168776,-34.343708,65.065788
1703161439.486081,1703161439.486255,13.000000,0.000000,4187.820313,4146.410156,4266.025879,4226.922852,4125.641113,4113.077148,4109.487305,4138.461426,4137.820313,4138.974121,4629.871582,4443.461426,4383.974121,4526.282227,6761.000000,4.000000,80.000000,,,,0.000000,4.000000,4.000000,4.000000,4.000000,4.000000,4.000000,4.000000,4.000000,4.000000,4.000000,4.000000,4.000000,4.000000,4.000000,100.000000,,,,,,,,,,,,,,,,,,,,,,,,,,,,
1703161439.493889,1703161439.494062,14.000000,0.000000,4189.230957,4149.102539,4273.589844,4231.538574,4127.051270,4118.846191,4115.384766,4142.820313,4148.333496,4148.974121,4641.922852,4449.871582,4398.717773,4539.358887,5819.000000,4.000000,80.000000,,,,0.000000,4.000000,4.000000,4.000000,4.000000,4.000000,4.000000,4.000000,4.000000,4.000000,4.000000,4.000000,4.000000,4.000000,4.000000,100.000000,,,,,,,,,,,,,,,,,,,,,,,,,,,,
1703161439.501697,1703161439.501771,15.000000,0.000000,4192.563965,4153.846191,4273.846191,4232.563965,4125.128418,4114.743652,4108.589844,4139.230957,4138.205078,4141.153809,4636.153809,4444.230957,4400.897461,4540.512695,6147.000000,4.000000,80.000000,,,,0.000000,4.000000,4.000000,4.000000,4.000000,4.000000,4.000000,4.000000,4.000000,4.000000,4.000000,4.000000,4.000000,4.000000,4.000000,100.000000,,,,,,,,,,,,,,,,,,,,,,,,,,,,
1703161439.509505,1703161439.509679,16.000000,0.000000,4199.487305,4158.205078,4274.743652,4233.205078,4128.974121,4107.436035,4102.948730,4137.692383,4136.922852,4137.948730,4633.461426,4443.974121,4392.820313,4536.153809,0.000000,4.000000,80.000000,,,,0.000000,4.000000,4.000000,4.000000,4.000000,4.000000,4.000000,4.000000,4.000000,4.000000,4.000000,4.000000,4.000000,4.000000,4.000000,100.000000,,,,,,,,,,,,,,,,,4.000000,0.000000,0.666104,0.284851,-0.589233,0.357727,0.979612,0.000488,0.129410,-16.118565,-34.426006,65.059204
1703161439.517313,1703161439.517487,17.000000,0.000000,4200.128418,4156.282227,4281.153809,4234.615234,4130.897461,4107.948730,4107.051270,4140.769043,4143.717773,4143.333496,4643.846191,4449.743652,4394.358887,4540.641113,0.000000,4.000000,80.000000,,,,0.000000,4.000000,4.000000,4.000000,4.000000,4.000000,4.000000,4.000000,4.000000,4.000000,4.000000,4.000000,4.000000,4.000000,4.000000,100.000000,,,,,,,,,,,,,,,,,,,,,,,,,,,,
1703161439.525121,1703161439.525295,18.000000,0.000000,4197.948730,4155.641113,4282.820313,4239.743652,4130.512695,4111.922852,4108.461426,4139.871582,4137.179688,4139.743652,4639.615234,4446.410156,4392.820313,4539.487305,0.000000,4.000000,80.000000,,,,0.000000,4.000000,4.000000,4.000000,4.000000,4.000000,4.000000,4.000000,4.000000,4.000000,4.000000,4.000000,4.000000,4.000000,4.000000,100.000000,,,,,,,,,,,,,,,,,,,,,,,,,,,,
1703161439.532929,1703161439.533003,19.000000,0.000000,4200.000000,4156.794922,4282.436035,4243.589844,4132.948730,4110.000000,4107.179688,4138.333496,4125.769043,4133.589844,4632.820313,4446.410156,4393.205078,4535.512695,0.000000,4.000000,80.000000,,,,0.000000,4.000000,4.000000,4.000000,4.000000,4.000000,4.000000,4.000000,4.000000,4.000000,4.000000,4.000000,4.000000,4.000000,4.000000,100.000000,,,,,,,,,,,,,,,,,,,,,,,,,,,,
1703161439.540737,1703161439.540911,20.000000,0.000000,4199.487305,4153.589844,4285.512695,4238.589844,4134.743652,4108.333496,4108.333496,4140.641113,4125.897461,4138.846191,4643.974121,4456.666504,4408.974121,4546.153809,0.000000,4.000000,80.000000,,,,0.000000,4.000000,4.000000,4.000000,4.000000,4.000000,4.000000,4.000000,4.000000,4.000000,4.000000,4.000000,4.000000,4.000000,4.000000,100.000000,,,,,,,,,,,,,,,,,5.000000,0.000000,0.666131,0.284790,-0.589233,0.357727,0.982542,0.014162,0.141619,-16.206709,-34.333405,64.919952
1703161439.548545,1703161439.548719,21.000000,0.000000,4195.000000,4148.461426,4284.230957,4233.333496,4130.897461,4111.153809,4113.333496,4142.051270,4128.589844,4139.102539,4642.948730,4455.256348,4407.948730,4546.153809,0.000000,4.000000,80.000000,,,,0.000000,4.000000,4.000000,4.000000,4.000000,4.000000,4.000000,4.000000,4.000000,4.000000,4.000000,4.000000,4.000000,4.000000,4.000000,100.000000,,,,,,,,,,,,,,,,,,,,,,,,,,,,
1703161439.556353,1703161439.556627,22.000000,0.000000,4186.153809,4143.717773,4275.384766,4231.538574,4127.563965,4112.692383,4119.102539,4134.871582,4121.410156,4124.615234,4619.743652,4435.384766,4383.205078,4524.487305,0.000000,4.000000,80.000000,,,,0.000000,4.000000,4.000000,4.000000,4.000000,4.000000,4.000000,4.000000,4.000000,4.000000,4.000000,4.000000,4.000000,4.000000,4.000000,100.000000,,,,,,,,,,,,,,,,,,,,,,,,,,,,
1703161439.564161,1703161439.564435,23.000000,0.000000,4172.563965,4136.410156,4265.256348,4225.512695,4122.820313,4113.846191,4120.769043,4127.820313,4116.025879,4116.153809,4609.871582,4425.128418,4373.333496,4512.179688,0.000000,4.000000,80.000000,,,,0.000000,4.000000,4.000000,4.000000,4.000000,4.000000,4.000000,4.000000,4.000000,4.000000,4.000000,4.000000,4.000000,4.000000,4.000000,100.000000,,,,,,,,,,,,,,,,,,,,,,,,,,,,
1703161439.571969,1703161439.572343,24.000000,0.000000,4171.025879,4135.384766,4261.025879,4224.358887,4121.794922,4120.641113,4120.512695,4132.179688,4121.666504,4123.717773,4619.358887,4434.487305,4384.871582,4518.589844,0.000000,4.000000,80.000000,,,,0.000000,4.000000,4.000000,4.000000,4.000000,4.000000,4.000000,4.000000,4.000000,4.000000,4.000000,4.000000,4.000000,4.000000,4.000000,100.000000,,,,,,,,,,,,,,,,,6.000000,0.000000,0.666150,0.284668,-0.589233,0.357788,0.985472,0.018069,0.130387,-16.169371,-34.266731,64.811295
1703161439.579778,1703161439.580151,25.000000,0.000000,4184.102539,4144.743652,4269.743652,4231.410156,4129.230957,4126.794922,4123.846191,4140.384766,4133.205078,4138.333496,4633.846191,4444.358887,4398.461426,4530.769043,0.000000,4.000000,80.000000,,,,0.000000,4.000000,4.000000,4.000000,4.000000,4.000000,4.000000,4.000000,4.000000,4.000000,4.000000,4.000000,4.000000,4.000000,4.000000,100.000000,,,,,,,,,,,,,,,,,,,,,,,,,,,,
1703161439.587586,1703161439.588059,26.000000,0.000000,4191.025879,4152.563965,4279.230957,4233.461426,4135.641113,4126.538574,4124.230957,4141.794922,4139.230957,4145.256348,4638.974121,4447.692383,4404.743652,4540.000000,0.000000,4.000000,80.000000,,,,0.000000,4.000000,4.000000,4.000000,4.000000,4.000000,4.000000,4.000000,4.000000,4.000000,4.000000,4.000000,4.000000,4.000000,4.000000,100.000000,,,,,,,,,,,,,,,,,,,,,,,,,,,,
1703161439.595394,1703161439.595866,27.000000,0.000000,4185.000000,4153.717773,4277.948730,4235.000000,4141.410156,4126.025879,4122.179688,4138.846191,4137.563965,4141.794922,4633.846191,4447.820313,4398.974121,4537.307617,0.000000,4.000000,80.000000,,,,0.000000,4.000000,4.000000,4.000000,4.000000,4.000000,4.000000,4.000000,4.000000,4.000000,4.000000,4.000000,4.000000,4.000000,4.000000,100.000000,,,,,,,,,,,,,,,,,,,,,,,,,,,,
1703161439.603202,1703161439.603774,28.000000,0.000000,4188.717773,4156.794922,4280.000000,4242.820313,4142.436035,4124.615234,4121.282227,4140.769043,4138.589844,4145.512695,4640.256348,4448.846191,4401.410156,4534.615234,0.000000,4.000000,80.000000,,,,0.000000,4.000000,4.000000,4.000000,4.000000,4.000000,4.000000,4.000000,4.000000,4.000000,4.000000,4.000000,4.000000,4.000000,4.000000,100.000000,,,,,,,,,,,,,,,,,7.000000,0.000000,0.666195,0.284485,-0.589233,0.357849,0.985960,0.004395,0.137712,-16.169100,-34.223392,64.863495
1703161439.611010,1703161439.611582,29.000000,0.000000,4199.743652,4160.641113,4285.384766,4246.538574,4138.333496,4118.077148,4115.641113,4140.256348,4134.743652,4150.256348,4651.153809,4448.846191,4415.641113,4542.563965,0.000000,4.000000,80.000000,,,,0.000000,4.000000,4.000000,4.000000,4.000000,4.000000,4.000000,4.000000,4.000000,4.000000,4.000000,4.000000,4.000000,4.000000,4.000000,100.000000,,,,,,,,,,,,,,,,,,,,,,,,,,,,
1703161439.618818,1703161439.619490,30.000000,0.000000,4193.461426,4159.871582,4279.358887,4245.128418,4134.743652,4110.897461,4107.051270,4129.102539,4123.077148,4142.948730,4641.794922,4444.871582,4412.436035,4542.307617,0.000000,4.000000,80.000000,,,,0.000000,4.000000,4.000000,4.000000,4.000000,4.000000,4.000000,4.000000,4.000000,4.000000,4.000000,4.000000,4.000000,4.000000,4.000000,100.000000,,,,,,,,,,,,,,,,,,,,,,,,,,,,
1703161439.626626,1703161439.627298,31.000000,0.000000,4186.410156,4160.000000,4272.820313,4243.077148,4137.307617,4108.205078,4106.410156,4119.615234,4116.538574,4135.256348,4628.846191,4441.153809,4400.384766,4537.179688,0.000000,4.000000,80.000000,,,,0.000000,4.000000,4.000000,4.000000,4.000000,4.000000,4.000000,4.000000,4.000000,4.000000,4.000000,4.000000,4.000000,4.000000,4.000000,100.000000,,,,,,,,,,,,,,,,,,,,,,,,,,,,
1703161439.634434,1703161439.635006,32.000000,0.000000,4187.692383,4155.897461,4274.615234,4239.102539,4141.666504,4108.205078,4114.615234,4125.256348,4111.794922,4127.436035,4632.051270,4441.538574,4398.461426,4535.384766,0.000000,4.000000,80.000000,,,,0.000000,4.000000,4.000000,4.000000,4.000000,4.000000,4.000000,4.000000,4.000000,4.000000,4.000000,4.000000,4.000000,4.000000,4.000000,100.000000,,,,,,,,,,,,,,,,,8.000000,0.000000,0.666259,0.284363,-0.589294,0.357727,0.977658,0.010743,0.141619,-16.185524,-34.251053,64.760483
1703161439.642242,1703161439.642814,33.000000,0.000000,4180.256348,4146.153809,4271.410156,4234.102539,4134.487305,4109.615234,4121.538574,4135.512695,4110.897461,4123.461426,4634.487305,4445.000000,4397.692383,4530.512695,0.000000,4.000000,80.000000,,,,0.000000,4.000000,4.000000,4.000000,4.000000,4.000000,4.000000,4.000000,4.000000,4.000000,4.000000,4.000000,4.000000,4.000000,4.000000,100.000000,,,,,,,,,,,,,,,,,,,,,,,,,,,,
1703161439.650050,1703161439.650522,34.000000,0.000000,4174.358887,4143.846191,4268.077148,4232.179688,4122.563965,4115.897461,4122.307617,4136.538574,4119.102539,4131.922852,4628.717773,4443.974121,4394.358887,4526.410156,0.000000,4.000000,80.000000,,,,0.000000,4.000000,4.000000,4.000000,4.000000,4.000000,4.000000,4.000000,4.000000,4.000000,4.000000,4.000000,4.000000,4.000000,4.000000,100.000000,,,,,,,,,,,,,,,,,,,,,,,,,,,,
1703161439.657858,1703161439.658430,35.000000,0.000000,4176.538574,4145.128418,4273.077148,4232.436035,4126.538574,4122.692383,4121.922852,4137.563965,4129.615234,4135.769043,4632.692383,4441.153809,4398.205078,4526.538574,0.000000,4.000000,80.000000,,,,0.000000,4.000000,4.000000,4.000000,4.000000,4.000000,4.000000,4.000000,4.000000,4.000000,4.000000,4.000000,4.000000,4.000000,4.000000,100.000000,,,,,,,,,,,,,,,,,,,,,,,,,,,,
1703161439.665666,1703161439.666239,36.000000,0.000000,4171.794922,4141.153809,4272.692383,4231.666504,4137.563965,4122.051270,4123.846191,4142.436035,4134.487305,4128.974121,4637.051270,4442.051270,4398.589844,4524.743652,0.000000,4.000000,80.000000,,,,0.000000,4.000000,4.000000,4.000000,4.000000,4.000000,4.000000,4.000000,4.000000,4.000000,4.000000,4.000000,4.000000,4.000000,4.000000,100.000000,,,,,,,,,,,,,,,,,9.000000,0.000000,0.666440,0.284119,-0.589355,0.357483,0.992309,0.003418,0.132340,-16.183638,-34.175945,64.784431
1703161439.673474,1703161439.674047,37.000000,0.000000,4163.717773,4134.615234,4264.358887,4227.179688,4131.538574,4121.666504,4123.717773,4140.769043,4137.820313,4130.000000,4624.615234,4442.692383,4387.948730,4518.333496,0.000000,4.000000,80.000000,,,,0.000000,4.000000,4.000000,4.000000,4.000000,4.000000,4.000000,4.000000,4.000000,4.000000,4.000000,4.000000,4.000000,4.000000,4.000000,100.000000,,,,,,,,,,,,,,,,,,,,,,,,,,,,
1703161439.681282,1703161439.681755,38.000000,0.000000,4164.487305,4134.743652,4262.692383,4222.692383,4127.051270,4125.256348,4121.410156,4140.128418,4139.230957,4138.205078,4620.641113,4440.000000,4387.436035,4516.282227,0.000000,4.000000,80.000000,,,,0.000000,4.000000,4.000000,4.000000,4.000000,4.000000,4.000000,4.000000,4.000000,4.000000,4.000000,4.000000,4.000000,4.000000,4.000000,100.000000,,,,,,,,,,,,,,,,,,,,,,,,,,,,
1703161439.689090,1703161439.689663,39.000000,0.000000,4172.051270,4144.102539,4271.666504,4229.487305,4136.410156,4125.384766,4122.948730,4148.333496,4141.922852,4142.179688,4641.922852,4444.743652,4405.128418,4525.000000,0.000000,4.000000,80.000000,,,,0.000000,4.000000,4.000000,4.000000,4.000000,4.000000,4.000000,4.000000,4.000000,4.000000,4.000000,4.000000,4.000000,4.000000,4.000000,100.000000,,,,,,,,,,,,,,,,,,,,,,,,,,,,
1703161439.696898,1703161439.697471,40.000000,0.000000,4182.436035,4155.512695,4280.641113,4243.205078,4140.384766,4122.692383,4124.743652,4150.384766,4142.307617,4142.051270,4652.179688,4454.487305,4416.410156,4536.153809,0.000000,4.000000,80.000000,,,,0.000000,4.000000,4.000000,4.000000,4.000000,4.000000,4.000000,4.000000,4.000000,4.000000,4.000000,4.000000,4.000000,4.000000,4.000000,100.000000,,,,,,,,,,,,,,,,,10.000000,0.000000,0.666537,0.283997,-0.589417,0.357300,0.989379,0.030765,0.125992,-16.081942,-34.275017,64.755989
