title:يمان انذار, start timestamp:1703416979.828398, stop timestamp:1703416990.626932, headset type:EPOCX, headset serial:E50206EF, headset firmware:720, channels:67, sampling rate:eeg_128;mot_32, samples:1384      , version:2.2, 
Timestamp,OriginalTimestamp,EEG.Counter,EEG.Interpolated,EEG.AF3,EEG.F7,EEG.F3,EEG.FC5,EEG.T7,EEG.P7,EEG.O1,EEG.O2,EEG.P8,EEG.T8,EEG.FC6,EEG.F4,EEG.F8,EEG.AF4,EEG.RawCq,EEG.Battery,EEG.BatteryPercent,MarkerIndex,MarkerType,MarkerValueInt,EEG.MarkerHardware,CQ.AF3,CQ.F7,CQ.F3,CQ.FC5,CQ.T7,CQ.P7,CQ.O1,CQ.O2,CQ.P8,CQ.T8,CQ.FC6,CQ.F4,CQ.F8,CQ.AF4,CQ.Overall,EQ.SampleRateQuality,EQ.OVERALL,EQ.AF3,EQ.F7,EQ.F3,EQ.FC5,EQ.T7,EQ.P7,EQ.O1,EQ.O2,EQ.P8,EQ.T8,EQ.FC6,EQ.F4,EQ.F8,EQ.AF4,MOT.CounterMems,MOT.InterpolatedMems,MOT.Q0,MOT.Q1,MOT.Q2,MOT.Q3,MOT.AccX,MOT.AccY,MOT.AccZ,MOT.MagX,MOT.MagY,MOT.MagZ
1703416979.828398,1703416979.828967,1.000000,0.000000,4357.307617,4372.307617,4436.794922,4423.333496,4351.153809,4341.666504,4342.307617,4373.205078,4355.128418,4341.410156,4758.846191,4662.692383,4566.153809,4659.487305,5372.000000,2.000000,50.000000,,,,0.000000,4.000000,4.000000,4.000000,4.000000,4.000000,4.000000,4.000000,4.000000,4.000000,4.000000,4.000000,4.000000,4.000000,4.000000,100.000000,,,,,,,,,,,,,,,,,,,,,,,,,,,,
1703416979.836207,1703416979.836675,2.000000,0.000000,4355.128418,4371.794922,4433.077148,4417.179688,4351.410156,4338.974121,4338.077148,4370.512695,4355.256348,4339.487305,4755.256348,4657.563965,4561.794922,4652.948730,5380.000000,2.000000,50.000000,,,,0.000000,4.000000,4.000000,4.000000,4.000000,4.000000,4.000000,4.000000,4.000000,4.000000,4.000000,4.000000,4.000000,4.000000,4.000000,100.000000,,,,,,,,,,,,,,,,,,,,,,,,,,,,
1703416979.844015,1703416979.844583,3.000000,0.000000,4355.384766,4372.307617,4424.871582,4414.102539,4341.794922,4331.410156,4330.641113,4362.051270,4346.410156,4327.563965,4742.692383,4647.692383,4555.256348,4647.563965,5400.000000,2.000000,50.000000,,,,0.000000,4.000000,4.000000,4.000000,4.000000,4.000000,4.000000,4.000000,4.000000,4.000000,4.000000,4.000000,4.000000,4.000000,4.000000,100.000000,,,,,,,,,,,,,,,,,,,,,,,,,,,,
1703416979.851823,1703416979.852391,4.000000,0.000000,4357.563965,4372.179688,4426.282227,4416.666504,4336.922852,4326.666504,4329.102539,4363.205078,4345.000000,4327.179688,4744.230957,4653.077148,4558.974121,4650.384766,5375.000000,2.000000,50.000000,,,,0.000000,4.000000,4.000000,4.000000,4.000000,4.000000,4.000000,4.000000,4.000000,4.000000,4.000000,4.000000,4.000000,4.000000,4.000000,100.000000,,,,,,,,,,,,,,,,,1.000000,0.000000,0.700616,0.097900,-0.665588,0.237793,0.969845,-0.169454,0.099622,-13.099065,-48.418163,66.453156
1703416979.859631,1703416979.860299,5.000000,0.000000,4349.230957,4365.769043,4426.153809,4413.589844,4330.000000,4325.128418,4328.077148,4367.307617,4347.436035,4328.205078,4745.769043,4652.692383,4557.436035,4646.282227,5202.000000,2.000000,50.000000,,,,0.000000,4.000000,4.000000,4.000000,4.000000,4.000000,4.000000,4.000000,4.000000,4.000000,4.000000,4.000000,4.000000,4.000000,4.000000,100.000000,,,,,,,,,,,,,,,,,,,,,,,,,,,,
1703416979.867439,1703416979.868108,6.000000,0.000000,4358.461426,4368.717773,4435.256348,4414.230957,4332.563965,4329.743652,4331.410156,4368.846191,4358.333496,4331.666504,4751.538574,4663.461426,4562.051270,4663.461426,4497.000000,2.000000,50.000000,,,,0.000000,4.000000,4.000000,4.000000,4.000000,4.000000,4.000000,4.000000,4.000000,4.000000,4.000000,4.000000,4.000000,4.000000,4.000000,100.000000,,,,,,,,,,,,,,,,,,,,,,,,,,,,
1703416979.875247,1703416979.876016,7.000000,0.000000,4370.384766,4372.692383,4444.743652,4420.256348,4338.077148,4328.974121,4333.461426,4367.307617,4362.051270,4324.487305,4752.692383,4672.563965,4565.256348,4678.077148,5198.000000,2.000000,50.000000,,,,0.000000,4.000000,4.000000,4.000000,4.000000,4.000000,4.000000,4.000000,4.000000,4.000000,4.000000,4.000000,4.000000,4.000000,4.000000,100.000000,,,,,,,,,,,,,,,,,,,,,,,,,,,,
1703416979.883055,1703416979.883824,8.000000,0.000000,4357.436035,4370.641113,4440.897461,4423.205078,4333.846191,4324.358887,4329.230957,4364.871582,4351.922852,4326.922852,4743.205078,4662.179688,4558.974121,4658.589844,5559.000000,2.000000,50.000000,,,,0.000000,4.000000,4.000000,4.000000,4.000000,4.000000,4.000000,4.000000,4.000000,4.000000,4.000000,4.000000,4.000000,4.000000,4.000000,100.000000,,,,,,,,,,,,,,,,,2.000000,0.000000,0.700661,0.098022,-0.665588,0.237610,0.967892,-0.178733,0.091320,-13.155826,-48.409679,66.324509
1703416979.890863,1703416979.891732,9.000000,0.000000,4348.077148,4371.153809,4436.025879,4423.589844,4331.794922,4323.589844,4328.077148,4363.589844,4349.487305,4355.000000,4744.230957,4660.897461,4562.051270,4649.358887,5536.000000,2.000000,50.000000,,,,0.000000,4.000000,4.000000,4.000000,4.000000,4.000000,4.000000,4.000000,4.000000,4.000000,4.000000,4.000000,4.000000,4.000000,4.000000,100.000000,,,,,,,,,,,,,,,,,,,,,,,,,,,,
1703416979.898671,1703416979.899540,10.000000,0.000000,4350.641113,4366.153809,4434.743652,4423.077148,4331.025879,4318.205078,4328.846191,4359.743652,4349.487305,4346.282227,4741.666504,4663.974121,4558.589844,4656.794922,6137.000000,2.000000,50.000000,,,,0.000000,4.000000,4.000000,4.000000,4.000000,4.000000,4.000000,4.000000,4.000000,4.000000,4.000000,4.000000,4.000000,4.000000,4.000000,100.000000,,,,,,,,,,,,,,,,,,,,,,,,,,,,
1703416979.906479,1703416979.907448,11.000000,0.000000,4342.948730,4359.358887,4433.717773,4423.333496,4325.256348,4314.487305,4326.538574,4359.358887,4344.358887,4314.102539,4732.307617,4657.820313,4547.051270,4650.769043,6397.000000,2.000000,50.000000,,,,0.000000,4.000000,4.000000,4.000000,4.000000,4.000000,4.000000,4.000000,4.000000,4.000000,4.000000,4.000000,4.000000,4.000000,4.000000,100.000000,,,,,,,,,,,,,,,,,,,,,,,,,,,,
1703416979.914287,1703416979.915257,12.000000,0.000000,4331.282227,4355.512695,4426.794922,4418.333496,4317.948730,4311.282227,4321.666504,4357.051270,4334.871582,4307.692383,4722.179688,4645.641113,4539.487305,4636.282227,6923.000000,2.000000,50.000000,,,,0.000000,4.000000,4.000000,4.000000,4.000000,4.000000,4.000000,4.000000,4.000000,4.000000,4.000000,4.000000,4.000000,4.000000,4.000000,100.000000,,,,,,,,,,,,,,,,,3.000000,0.000000,0.700839,0.097900,-0.665527,0.237305,0.973263,-0.175314,0.096203,-13.356910,-48.335377,66.308723
1703416979.922095,1703416979.923165,13.000000,0.000000,4329.487305,4353.846191,4418.589844,4413.846191,4315.641113,4307.436035,4319.487305,4348.974121,4328.589844,4308.589844,4714.615234,4635.256348,4533.077148,4627.179688,7418.000000,2.000000,50.000000,,,,0.000000,4.000000,4.000000,4.000000,4.000000,4.000000,4.000000,4.000000,4.000000,4.000000,4.000000,4.000000,4.000000,4.000000,4.000000,100.000000,,,,,,,,,,,,,,,,,,,,,,,,,,,,
1703416979.929903,1703416979.930973,14.000000,0.000000,4332.948730,4354.102539,4418.333496,4420.897461,4321.025879,4310.384766,4322.820313,4349.871582,4332.948730,4302.307617,4719.102539,4636.410156,4532.179688,4627.692383,6137.000000,2.000000,50.000000,,,,0.000000,4.000000,4.000000,4.000000,4.000000,4.000000,4.000000,4.000000,4.000000,4.000000,4.000000,4.000000,4.000000,4.000000,4.000000,100.000000,,,,,,,,,,,,,,,,,,,,,,,,,,,,
1703416979.937711,1703416979.938881,15.000000,0.000000,4327.307617,4349.615234,4417.820313,4422.692383,4319.615234,4307.820313,4320.000000,4349.102539,4331.282227,4301.794922,4718.589844,4635.256348,4530.000000,4626.025879,6397.000000,2.000000,50.000000,,,,0.000000,4.000000,4.000000,4.000000,4.000000,4.000000,4.000000,4.000000,4.000000,4.000000,4.000000,4.000000,4.000000,4.000000,4.000000,100.000000,,,,,,,,,,,,,,,,,,,,,,,,,,,,
1703416979.945519,1703416979.946689,16.000000,0.000000,4323.717773,4352.051270,4417.051270,4416.538574,4318.717773,4306.538574,4317.563965,4346.922852,4324.358887,4305.384766,4715.384766,4630.769043,4527.820313,4623.717773,0.000000,2.000000,50.000000,,,,0.000000,4.000000,4.000000,4.000000,4.000000,4.000000,4.000000,4.000000,4.000000,4.000000,4.000000,4.000000,4.000000,4.000000,4.000000,100.000000,,,,,,,,,,,,,,,,,4.000000,0.000000,0.700910,0.097656,-0.665466,0.237366,0.978635,-0.177756,0.087413,-13.437885,-48.501839,66.394516
1703416979.953327,1703416979.954397,17.000000,0.000000,4325.769043,4358.974121,4415.897461,4413.333496,4321.922852,4311.666504,4319.871582,4347.948730,4323.589844,4301.410156,4713.846191,4632.051270,4525.897461,4624.230957,0.000000,2.000000,50.000000,,,,0.000000,4.000000,4.000000,4.000000,4.000000,4.000000,4.000000,4.000000,4.000000,4.000000,4.000000,4.000000,4.000000,4.000000,4.000000,100.000000,,,,,,,,,,,,,,,,,,,,,,,,,,,,
1703416979.961135,1703416979.962206,18.000000,0.000000,4322.179688,4350.128418,4409.358887,4410.000000,4315.256348,4309.358887,4316.794922,4341.153809,4323.589844,4293.077148,4704.358887,4629.487305,4518.205078,4620.000000,0.000000,2.000000,50.000000,,,,0.000000,4.000000,4.000000,4.000000,4.000000,4.000000,4.000000,4.000000,4.000000,4.000000,4.000000,4.000000,4.000000,4.000000,4.000000,100.000000,,,,,,,,,,,,,,,,,,,,,,,,,,,,
1703416979.968943,1703416979.969914,19.000000,0.000000,4318.333496,4345.897461,4407.692383,4408.461426,4309.743652,4308.846191,4317.820313,4343.461426,4328.846191,4300.897461,4708.589844,4629.487305,4520.256348,4622.179688,0.000000,2.000000,50.000000,,,,0.000000,4.000000,4.000000,4.000000,4.000000,4.000000,4.000000,4.000000,4.000000,4.000000,4.000000,4.000000,4.000000,4.000000,4.000000,100.000000,,,,,,,,,,,,,,,,,,,,,,,,,,,,
1703416979.976751,1703416979.977722,20.000000,0.000000,4317.563965,4351.153809,4408.589844,4401.666504,4308.333496,4308.717773,4319.871582,4347.179688,4329.230957,4313.077148,4714.871582,4630.128418,4526.666504,4623.846191,0.000000,2.000000,50.000000,,,,0.000000,4.000000,4.000000,4.000000,4.000000,4.000000,4.000000,4.000000,4.000000,4.000000,4.000000,4.000000,4.000000,4.000000,4.000000,100.000000,,,,,,,,,,,,,,,,,5.000000,0.000000,0.700853,0.097473,-0.665466,0.237610,0.978147,-0.175314,0.095226,-13.460763,-48.484989,66.271736
1703416979.984559,1703416979.985430,21.000000,0.000000,4321.538574,4347.563965,4405.897461,4397.820313,4309.487305,4306.282227,4314.102539,4339.743652,4320.769043,4301.025879,4703.205078,4626.538574,4524.615234,4622.307617,0.000000,2.000000,50.000000,,,,0.000000,4.000000,4.000000,4.000000,4.000000,4.000000,4.000000,4.000000,4.000000,4.000000,4.000000,4.000000,4.000000,4.000000,4.000000,100.000000,,,,,,,,,,,,,,,,,,,,,,,,,,,,
1703416979.992367,1703416979.993338,22.000000,0.000000,4317.436035,4343.717773,4406.410156,4401.410156,4312.051270,4308.333496,4312.692383,4336.922852,4321.538574,4288.461426,4699.615234,4626.282227,4519.102539,4622.307617,0.000000,2.000000,50.000000,,,,0.000000,4.000000,4.000000,4.000000,4.000000,4.000000,4.000000,4.000000,4.000000,4.000000,4.000000,4.000000,4.000000,4.000000,4.000000,100.000000,,,,,,,,,,,,,,,,,,,,,,,,,,,,
1703416980.000176,1703416980.001147,23.000000,0.000000,4301.666504,4342.436035,4402.692383,4394.358887,4305.641113,4304.487305,4314.743652,4336.282227,4322.692383,4299.615234,4706.410156,4622.563965,4516.282227,4612.436035,0.000000,2.000000,50.000000,,,,0.000000,4.000000,4.000000,4.000000,4.000000,4.000000,4.000000,4.000000,4.000000,4.000000,4.000000,4.000000,4.000000,4.000000,4.000000,100.000000,,,,,,,,,,,,,,,,,,,,,,,,,,,,
1703416980.007984,1703416980.008955,24.000000,0.000000,4304.615234,4342.436035,4404.102539,4386.922852,4301.282227,4301.025879,4313.846191,4336.153809,4318.461426,4305.769043,4708.461426,4624.102539,4524.487305,4615.128418,0.000000,2.000000,50.000000,,,,0.000000,4.000000,4.000000,4.000000,4.000000,4.000000,4.000000,4.000000,4.000000,4.000000,4.000000,4.000000,4.000000,4.000000,4.000000,100.000000,,,,,,,,,,,,,,,,,6.000000,0.000000,0.700845,0.097351,-0.665405,0.237854,0.976682,-0.190453,0.105970,-13.598021,-48.369823,66.177895
1703416980.015792,1703416980.016663,25.000000,0.000000,4312.692383,4339.615234,4409.358887,4386.410156,4299.871582,4302.692383,4311.922852,4336.794922,4313.846191,4287.692383,4698.974121,4624.102539,4519.230957,4621.025879,0.000000,2.000000,50.000000,,,,0.000000,4.000000,4.000000,4.000000,4.000000,4.000000,4.000000,4.000000,4.000000,4.000000,4.000000,4.000000,4.000000,4.000000,4.000000,100.000000,,,,,,,,,,,,,,,,,,,,,,,,,,,,
1703416980.023600,1703416980.024471,26.000000,0.000000,4298.205078,4331.922852,4398.589844,4380.512695,4296.282227,4297.948730,4309.102539,4330.512695,4309.487305,4285.000000,4682.820313,4605.128418,4497.948730,4602.179688,0.000000,2.000000,50.000000,,,,0.000000,4.000000,4.000000,4.000000,4.000000,4.000000,4.000000,4.000000,4.000000,4.000000,4.000000,4.000000,4.000000,4.000000,4.000000,100.000000,,,,,,,,,,,,,,,,,,,,,,,,,,,,
1703416980.031408,1703416980.032179,27.000000,0.000000,4290.000000,4327.563965,4387.820313,4374.230957,4297.307617,4292.948730,4306.666504,4329.871582,4314.743652,4300.384766,4681.794922,4597.307617,4500.641113,4594.102539,0.000000,2.000000,50.000000,,,,0.000000,4.000000,4.000000,4.000000,4.000000,4.000000,4.000000,4.000000,4.000000,4.000000,4.000000,4.000000,4.000000,4.000000,4.000000,100.000000,,,,,,,,,,,,,,,,,,,,,,,,,,,,
1703416980.039216,1703416980.039987,28.000000,0.000000,4298.846191,4324.743652,4387.563965,4371.794922,4292.820313,4289.487305,4302.820313,4332.563965,4313.974121,4285.384766,4683.077148,4598.077148,4512.436035,4601.922852,0.000000,2.000000,50.000000,,,,0.000000,4.000000,4.000000,4.000000,4.000000,4.000000,4.000000,4.000000,4.000000,4.000000,4.000000,4.000000,4.000000,4.000000,4.000000,100.000000,,,,,,,,,,,,,,,,,7.000000,0.000000,0.700780,0.097107,-0.665466,0.237976,0.978147,-0.191430,0.089366,-13.638218,-48.299507,66.176773
1703416980.047024,1703416980.047695,29.000000,0.000000,4301.922852,4328.333496,4389.230957,4374.102539,4291.794922,4289.743652,4303.589844,4329.230957,4306.794922,4269.102539,4680.128418,4594.358887,4510.000000,4601.282227,0.000000,2.000000,50.000000,,,,0.000000,4.000000,4.000000,4.000000,4.000000,4.000000,4.000000,4.000000,4.000000,4.000000,4.000000,4.000000,4.000000,4.000000,4.000000,100.000000,,,,,,,,,,,,,,,,,,,,,,,,,,,,
1703416980.054832,1703416980.055503,30.000000,0.000000,4298.461426,4331.282227,4387.179688,4376.282227,4301.794922,4292.820313,4304.102539,4325.512695,4307.179688,4278.461426,4681.794922,4597.051270,4505.512695,4596.794922,0.000000,2.000000,50.000000,,,,0.000000,4.000000,4.000000,4.000000,4.000000,4.000000,4.000000,4.000000,4.000000,4.000000,4.000000,4.000000,4.000000,4.000000,4.000000,100.000000,1.000000,100.000000,4.000000,4.000000,4.000000,4.000000,4.000000,4.000000,4.000000,4.000000,4.000000,4.000000,4.000000,4.000000,4.000000,4.000000,,,,,,,,,,,,
1703416980.062640,1703416980.063211,31.000000,0.000000,4298.846191,4324.230957,4386.666504,4371.666504,4297.820313,4287.948730,4300.384766,4325.128418,4306.538574,4289.102539,4682.948730,4600.384766,4504.743652,4597.692383,0.000000,2.000000,50.000000,,,,0.000000,4.000000,4.000000,4.000000,4.000000,4.000000,4.000000,4.000000,4.000000,4.000000,4.000000,4.000000,4.000000,4.000000,4.000000,100.000000,,,,,,,,,,,,,,,,,,,,,,,,,,,,
1703416980.070448,1703416980.071119,32.000000,0.000000,4306.922852,4327.307617,4398.461426,4374.358887,4291.794922,4287.307617,4303.333496,4326.153809,4308.333496,4297.051270,4690.512695,4609.358887,4510.769043,4611.025879,0.000000,2.000000,50.000000,,,,0.000000,4.000000,4.000000,4.000000,4.000000,4.000000,4.000000,4.000000,4.000000,4.000000,4.000000,4.000000,4.000000,4.000000,4.000000,100.000000,,,,,,,,,,,,,,,,,8.000000,0.000000,0.700698,0.096863,-0.665588,0.237976,0.980588,-0.178733,0.088878,-13.507730,-48.469559,66.159096
1703416980.078256,1703416980.078927,33.000000,0.000000,4303.461426,4332.820313,4401.025879,4377.307617,4297.179688,4288.077148,4303.205078,4319.615234,4306.794922,4284.102539,4689.487305,4609.743652,4510.897461,4611.666504,0.000000,2.000000,50.000000,,,,0.000000,4.000000,4.000000,4.000000,4.000000,4.000000,4.000000,4.000000,4.000000,4.000000,4.000000,4.000000,4.000000,4.000000,4.000000,100.000000,,,,,,,,,,,,,,,,,,,,,,,,,,,,
1703416980.086064,1703416980.086835,34.000000,0.000000,4298.333496,4330.769043,4395.384766,4374.230957,4300.769043,4285.512695,4297.820313,4315.000000,4302.820313,4271.922852,4682.692383,4601.153809,4504.743652,4600.000000,0.000000,2.000000,50.000000,,,,0.000000,4.000000,4.000000,4.000000,4.000000,4.000000,4.000000,4.000000,4.000000,4.000000,4.000000,4.000000,4.000000,4.000000,4.000000,100.000000,,,,,,,,,,,,,,,,,,,,,,,,,,,,
1703416980.093872,1703416980.094644,35.000000,0.000000,4311.025879,4332.307617,4402.051270,4374.871582,4297.563965,4289.487305,4299.871582,4321.153809,4307.692383,4293.333496,4688.461426,4605.384766,4510.000000,4611.922852,0.000000,2.000000,50.000000,,,,0.000000,4.000000,4.000000,4.000000,4.000000,4.000000,4.000000,4.000000,4.000000,4.000000,4.000000,4.000000,4.000000,4.000000,4.000000,100.000000,,,,,,,,,,,,,,,,,,,,,,,,,,,,
1703416980.101680,1703416980.102552,36.000000,0.000000,4309.102539,4327.051270,4403.077148,4369.871582,4286.153809,4288.717773,4300.128418,4319.487305,4305.128418,4288.589844,4686.410156,4605.512695,4509.487305,4617.820313,0.000000,2.000000,50.000000,,,,0.000000,4.000000,4.000000,4.000000,4.000000,4.000000,4.000000,4.000000,4.000000,4.000000,4.000000,4.000000,4.000000,4.000000,4.000000,100.000000,,,,,,,,,,,,,,,,,9.000000,0.000000,0.700694,0.096741,-0.665588,0.238037,0.969357,-0.193871,0.087901,-13.523623,-48.455936,66.093185
1703416980.109488,1703416980.110360,37.000000,0.000000,4291.538574,4319.615234,4394.358887,4362.692383,4281.410156,4284.230957,4298.589844,4320.641113,4303.974121,4268.461426,4682.692383,4600.641113,4509.102539,4602.051270,0.000000,2.000000,50.000000,,,,0.000000,4.000000,4.000000,4.000000,4.000000,4.000000,4.000000,4.000000,4.000000,4.000000,4.000000,4.000000,4.000000,4.000000,4.000000,100.000000,,,,,,,,,,,,,,,,,,,,,,,,,,,,
1703416980.117296,1703416980.118268,38.000000,0.000000,4288.333496,4318.717773,4389.487305,4361.922852,4284.615234,4285.000000,4300.641113,4327.436035,4313.846191,4287.051270,4685.128418,4600.000000,4515.769043,4596.794922,0.000000,2.000000,50.000000,,,,0.000000,4.000000,4.000000,4.000000,4.000000,4.000000,4.000000,4.000000,4.000000,4.000000,4.000000,4.000000,4.000000,4.000000,4.000000,100.000000,,,,,,,,,,,,,,,,,,,,,,,,,,,,
1703416980.125104,1703416980.126076,39.000000,0.000000,4294.230957,4315.384766,4383.205078,4361.282227,4283.717773,4287.307617,4299.487305,4323.461426,4309.871582,4290.641113,4679.102539,4595.128418,4508.974121,4598.205078,0.000000,2.000000,50.000000,,,,0.000000,4.000000,4.000000,4.000000,4.000000,4.000000,4.000000,4.000000,4.000000,4.000000,4.000000,4.000000,4.000000,4.000000,4.000000,100.000000,,,,,,,,,,,,,,,,,,,,,,,,,,,,
1703416980.132912,1703416980.133984,40.000000,0.000000,4289.615234,4314.743652,4377.436035,4358.717773,4284.358887,4288.077148,4297.948730,4320.256348,4301.538574,4269.743652,4678.205078,4590.512695,4502.051270,4591.025879,0.000000,2.000000,50.000000,,,,0.000000,4.000000,4.000000,4.000000,4.000000,4.000000,4.000000,4.000000,4.000000,4.000000,4.000000,4.000000,4.000000,4.000000,4.000000,100.000000,,,,,,,,,,,,,,,,,10.000000,0.000000,0.700545,0.096680,-0.665710,0.238159,0.974240,-0.184593,0.104993,-13.437928,-48.343674,66.067200
1703416980.140720,1703416980.141793,41.000000,0.000000,4280.256348,4316.794922,4375.128418,4356.282227,4285.384766,4285.769043,4300.256348,4321.282227,4301.794922,4262.820313,4676.410156,4583.333496,4496.794922,4579.487305,0.000000,2.000000,50.000000,,,,0.000000,4.000000,4.000000,4.000000,4.000000,4.000000,4.000000,4.000000,4.000000,4.000000,4.000000,4.000000,4.000000,4.000000,4.000000,100.000000,,,,,,,,,,,,,,,,,,,,,,,,,,,,
1703416980.148528,1703416980.149501,42.000000,0.000000,4288.846191,4323.077148,4381.538574,4365.512695,4292.436035,4289.487305,4303.077148,4322.820313,4304.615234,4264.102539,4672.436035,4582.820313,4495.128418,4584.871582,0.000000,2.000000,50.000000,,,,0.000000,4.000000,4.000000,4.000000,4.000000,4.000000,4.000000,4.000000,4.000000,4.000000,4.000000,4.000000,4.000000,4.000000,4.000000,100.000000,,,,,,,,,,,,,,,,,,,,,,,,,,,,
1703416980.156336,1703416980.157309,43.000000,0.000000,4298.846191,4326.794922,4389.615234,4373.205078,4297.051270,4292.820313,4302.307617,4321.410156,4300.256348,4267.436035,4673.205078,4589.230957,4498.846191,4593.333496,0.000000,2.000000,50.000000,,,,0.000000,4.000000,4.000000,4.000000,4.000000,4.000000,4.000000,4.000000,4.000000,4.000000,4.000000,4.000000,4.000000,4.000000,4.000000,100.000000,,,,,,,,,,,,,,,,,,,,,,,,,,,,
1703416980.164145,1703416980.165017,44.000000,0.000000,4290.769043,4319.358887,4388.205078,4364.102539,4285.641113,4285.512695,4297.563965,4310.897461,4287.948730,4269.615234,4665.897461,4582.051270,4495.000000,4581.666504,0.000000,2.000000,50.000000,,,,0.000000,4.000000,4.000000,4.000000,4.000000,4.000000,4.000000,4.000000,4.000000,4.000000,4.000000,4.000000,4.000000,4.000000,4.000000,100.000000,,,,,,,,,,,,,,,,,11.000000,0.000000,0.700507,0.096680,-0.665771,0.238098,0.976193,-0.180198,0.102063,-13.460802,-48.342640,66.060478
1703416980.171953,1703416980.172826,45.000000,0.000000,4289.358887,4315.897461,4387.948730,4361.025879,4281.153809,4283.589844,4298.461426,4307.179688,4287.307617,4274.358887,4663.205078,4578.077148,4494.358887,4577.820313,0.000000,2.000000,50.000000,,,,0.000000,4.000000,4.000000,4.000000,4.000000,4.000000,4.000000,4.000000,4.000000,4.000000,4.000000,4.000000,4.000000,4.000000,4.000000,100.000000,,,,,,,,,,,,,,,,,,,,,,,,,,,,
1703416980.179761,1703416980.180534,46.000000,0.000000,4297.692383,4317.820313,4387.692383,4364.487305,4286.282227,4286.025879,4298.717773,4309.102539,4288.974121,4274.358887,4664.358887,4582.436035,4493.077148,4586.282227,0.000000,2.000000,50.000000,,,,0.000000,4.000000,4.000000,4.000000,4.000000,4.000000,4.000000,4.000000,4.000000,4.000000,4.000000,4.000000,4.000000,4.000000,4.000000,100.000000,,,,,,,,,,,,,,,,,,,,,,,,,,,,
1703416980.187569,1703416980.188342,47.000000,0.000000,4301.410156,4319.871582,4392.820313,4366.794922,4286.922852,4287.436035,4297.436035,4310.128418,4288.077148,4269.743652,4665.897461,4587.051270,4496.153809,4592.692383,0.000000,2.000000,50.000000,,,,0.000000,4.000000,4.000000,4.000000,4.000000,4.000000,4.000000,4.000000,4.000000,4.000000,4.000000,4.000000,4.000000,4.000000,4.000000,100.000000,,,,,,,,,,,,,,,,,,,,,,,,,,,,
1703416980.195377,1703416980.196050,48.000000,0.000000,4305.641113,4321.794922,4407.307617,4371.410156,4289.102539,4291.410156,4301.410156,4317.948730,4293.717773,4266.538574,4678.589844,4599.743652,4510.128418,4604.358887,0.000000,2.000000,50.000000,,,,0.000000,4.000000,4.000000,4.000000,4.000000,4.000000,4.000000,4.000000,4.000000,4.000000,4.000000,4.000000,4.000000,4.000000,4.000000,100.000000,,,,,,,,,,,,,,,,,12.000000,0.000000,0.700487,0.096680,-0.665771,0.238159,0.971798,-0.197290,0.093761,-13.531388,-48.258377,66.087769
1703416980.203185,1703416980.203858,49.000000,0.000000,4305.384766,4318.974121,4408.717773,4368.589844,4286.025879,4286.153809,4300.512695,4319.102539,4291.666504,4260.128418,4679.871582,4601.153809,4507.692383,4603.589844,0.000000,2.000000,50.000000,,,,0.000000,4.000000,4.000000,4.000000,4.000000,4.000000,4.000000,4.000000,4.000000,4.000000,4.000000,4.000000,4.000000,4.000000,4.000000,100.000000,,,,,,,,,,,,,,,,,,,,,,,,,,,,
1703416980.210993,1703416980.211566,50.000000,0.000000,4297.563965,4318.717773,4396.666504,4363.717773,4283.077148,4285.512695,4299.230957,4315.384766,4292.307617,4261.922852,4672.179688,4591.922852,4496.282227,4590.256348,0.000000,2.000000,50.000000,,,,0.000000,4.000000,4.000000,4.000000,4.000000,4.000000,4.000000,4.000000,4.000000,4.000000,4.000000,4.000000,4.000000,4.000000,4.000000,100.000000,,,,,,,,,,,,,,,,,,,,,,,,,,,,
1703416980.218801,1703416980.219374,51.000000,0.000000,4289.615234,4314.615234,4386.153809,4360.384766,4285.512695,4292.692383,4300.897461,4316.922852,4300.641113,4265.641113,4669.871582,4585.384766,4495.512695,4584.358887,0.000000,2.000000,50.000000,,,,0.000000,4.000000,4.000000,4.000000,4.000000,4.000000,4.000000,4.000000,4.000000,4.000000,4.000000,4.000000,4.000000,4.000000,4.000000,100.000000,,,,,,,,,,,,,,,,,,,,,,,,,,,,
1703416980.226609,1703416980.227082,52.000000,0.000000,4287.307617,4308.333496,4384.743652,4358.077148,4283.974121,4293.333496,4300.000000,4320.128418,4303.077148,4273.974121,4671.922852,4583.077148,4500.000000,4586.538574,0.000000,2.000000,50.000000,,,,0.000000,4.000000,4.000000,4.000000,4.000000,4.000000,4.000000,4.000000,4.000000,4.000000,4.000000,4.000000,4.000000,4.000000,4.000000,100.000000,,,,,,,,,,,,,,,,,13.000000,0.000000,0.700458,0.096619,-0.665833,0.238098,0.963008,-0.179221,0.088878,-13.611583,-48.332539,66.178986
1703416980.234417,1703416980.234890,53.000000,0.000000,4292.307617,4312.436035,4390.769043,4361.282227,4285.000000,4293.589844,4301.794922,4327.051270,4310.384766,4291.538574,4683.589844,4593.077148,4510.641113,4595.512695,0.000000,2.000000,50.000000,,,,0.000000,4.000000,4.000000,4.000000,4.000000,4.000000,4.000000,4.000000,4.000000,4.000000,4.000000,4.000000,4.000000,4.000000,4.000000,100.000000,,,,,,,,,,,,,,,,,,,,,,,,,,,,
1703416980.242225,1703416980.242598,54.000000,0.000000,4294.487305,4311.794922,4389.230957,4359.615234,4285.384766,4291.153809,4301.410156,4324.615234,4310.769043,4287.307617,4682.563965,4593.589844,4509.743652,4594.230957,0.000000,2.000000,50.000000,,,,0.000000,4.000000,4.000000,4.000000,4.000000,4.000000,4.000000,4.000000,4.000000,4.000000,4.000000,4.000000,4.000000,4.000000,4.000000,100.000000,,,,,,,,,,,,,,,,,,,,,,,,,,,,
1703416980.250033,1703416980.250506,55.000000,0.000000,4297.307617,4309.102539,4390.128418,4361.410156,4285.128418,4286.666504,4301.666504,4321.153809,4302.179688,4269.358887,4676.794922,4588.717773,4502.948730,4592.051270,0.000000,2.000000,50.000000,,,,0.000000,4.000000,4.000000,4.000000,4.000000,4.000000,4.000000,4.000000,4.000000,4.000000,4.000000,4.000000,4.000000,4.000000,4.000000,100.000000,,,,,,,,,,,,,,,,,,,,,,,,,,,,
1703416980.257841,1703416980.258314,56.000000,0.000000,4302.436035,4316.922852,4403.974121,4373.717773,4287.436035,4287.820313,4303.974121,4330.128418,4306.410156,4274.230957,4691.025879,4602.692383,4513.846191,4602.563965,0.000000,2.000000,50.000000,,,,0.000000,4.000000,4.000000,4.000000,4.000000,4.000000,4.000000,4.000000,4.000000,4.000000,4.000000,4.000000,4.000000,4.000000,4.000000,100.000000,,,,,,,,,,,,,,,,,14.000000,0.000000,0.700541,0.096619,-0.665833,0.237854,0.968868,-0.190453,0.092296,-13.617091,-48.299286,66.244423
1703416980.265649,1703416980.266222,57.000000,0.000000,4303.461426,4318.717773,4405.897461,4375.256348,4292.436035,4286.794922,4302.820313,4328.717773,4307.307617,4292.307617,4694.358887,4607.563965,4515.641113,4603.717773,0.000000,2.000000,50.000000,,,,0.000000,4.000000,4.000000,4.000000,4.000000,4.000000,4.000000,4.000000,4.000000,4.000000,4.000000,4.000000,4.000000,4.000000,4.000000,100.000000,,,,,,,,,,,,,,,,,,,,,,,,,,,,
1703416980.273457,1703416980.274030,58.000000,0.000000,4304.615234,4318.461426,4401.794922,4374.615234,4302.307617,4288.077148,4303.589844,4322.179688,4304.487305,4299.358887,4688.589844,4601.025879,4510.256348,4603.077148,0.000000,2.000000,50.000000,,,,0.000000,4.000000,4.000000,4.000000,4.000000,4.000000,4.000000,4.000000,4.000000,4.000000,4.000000,4.000000,4.000000,4.000000,4.000000,100.000000,,,,,,,,,,,,,,,,,,,,,,,,,,,,
1703416980.281265,1703416980.281939,59.000000,0.000000,4303.846191,4321.410156,4400.769043,4377.307617,4297.948730,4291.666504,4303.589844,4322.436035,4306.666504,4291.153809,4687.051270,4593.589844,4509.487305,4601.538574,0.000000,2.000000,50.000000,,,,0.000000,4.000000,4.000000,4.000000,4.000000,4.000000,4.000000,4.000000,4.000000,4.000000,4.000000,4.000000,4.000000,4.000000,4.000000,100.000000,,,,,,,,,,,,,,,,,,,,,,,,,,,,
1703416980.289073,1703416980.289747,60.000000,0.000000,4304.102539,4320.128418,4397.820313,4374.487305,4286.282227,4290.384766,4301.666504,4321.794922,4305.512695,4285.512695,4684.743652,4587.563965,4510.384766,4597.436035,0.000000,2.000000,50.000000,,,,0.000000,4.000000,4.000000,4.000000,4.000000,4.000000,4.000000,4.000000,4.000000,4.000000,4.000000,4.000000,4.000000,4.000000,4.000000,100.000000,,,,,,,,,,,,,,,,,15.000000,0.000000,0.700582,0.096619,-0.665833,0.237732,0.981077,-0.178733,0.093761,-13.555382,-48.369358,66.353317
1703416980.296881,1703416980.297655,61.000000,0.000000,4314.230957,4320.384766,4404.487305,4377.436035,4289.230957,4292.820313,4304.230957,4328.717773,4309.102539,4298.077148,4693.205078,4598.589844,4522.179688,4611.410156,0.000000,2.000000,50.000000,,,,0.000000,4.000000,4.000000,4.000000,4.000000,4.000000,4.000000,4.000000,4.000000,4.000000,4.000000,4.000000,4.000000,4.000000,4.000000,100.000000,,,,,,,,,,,,,,,,,,,,,,,,,,,,
1703416980.304690,1703416980.305463,62.000000,0.000000,4314.743652,4324.358887,4408.205078,4380.897461,4290.641113,4295.256348,4304.871582,4334.358887,4311.282227,4297.051270,4696.410156,4604.102539,4524.615234,4617.436035,0.000000,2.000000,50.000000,,,,0.000000,4.000000,4.000000,4.000000,4.000000,4.000000,4.000000,4.000000,4.000000,4.000000,4.000000,4.000000,4.000000,4.000000,4.000000,100.000000,,,,,,,,,,,,,,,,,,,,,,,,,,,,
1703416980.312498,1703416980.313371,63.000000,0.000000,4309.487305,4329.230957,4403.717773,4379.615234,4289.743652,4295.256348,4303.461426,4329.743652,4311.538574,4285.256348,4692.563965,4596.153809,4519.487305,4605.256348,0.000000,2.000000,50.000000,,,,0.000000,4.000000,4.000000,4.000000,4.000000,4.000000,4.000000,4.000000,4.000000,4.000000,4.000000,4.000000,4.000000,4.000000,4.000000,100.000000,,,,,,,,,,,,,,,,,,,,,,,,,,,,
1703416980.320305,1703416980.321179,64.000000,0.000000,4311.666504,4327.051270,4401.153809,4377.820313,4292.307617,4291.538574,4303.461426,4327.948730,4311.666504,4280.384766,4689.358887,4592.948730,4520.769043,4601.282227,5698.000000,2.000000,50.000000,,,,0.000000,4.000000,4.000000,4.000000,4.000000,4.000000,4.000000,4.000000,4.000000,4.000000,4.000000,4.000000,4.000000,4.000000,4.000000,100.000000,,,,,,,,,,,,,,,,,16.000000,0.000000,0.700640,0.096619,-0.665771,0.237732,0.978635,-0.170431,0.084483,-13.549844,-48.465755,66.301315
1703416980.328114,1703416980.328988,65.000000,0.000000,4312.563965,4320.000000,4396.410156,4376.025879,4289.102539,4287.307617,4303.333496,4329.102539,4307.051270,4271.282227,4682.820313,4591.153809,4516.922852,4603.205078,5385.000000,2.000000,50.000000,,,,0.000000,4.000000,4.000000,4.000000,4.000000,4.000000,4.000000,4.000000,4.000000,4.000000,4.000000,4.000000,4.000000,4.000000,4.000000,100.000000,,,,,,,,,,,,,,,,,,,,,,,,,,,,
1703416980.335922,1703416980.336796,66.000000,0.000000,4311.282227,4326.410156,4396.538574,4376.538574,4294.358887,4297.307617,4309.487305,4334.487305,4312.563965,4280.641113,4687.436035,4594.615234,4517.051270,4604.230957,5399.000000,2.000000,50.000000,,,,0.000000,4.000000,4.000000,4.000000,4.000000,4.000000,4.000000,4.000000,4.000000,4.000000,4.000000,4.000000,4.000000,4.000000,4.000000,100.000000,,,,,,,,,,,,,,,,,,,,,,,,,,,,
1703416980.343730,1703416980.344504,67.000000,0.000000,4304.358887,4326.410156,4397.051270,4374.487305,4303.077148,4301.922852,4315.512695,4335.641113,4318.077148,4283.846191,4686.282227,4591.025879,4516.794922,4598.333496,5419.000000,2.000000,50.000000,,,,0.000000,4.000000,4.000000,4.000000,4.000000,4.000000,4.000000,4.000000,4.000000,4.000000,4.000000,4.000000,4.000000,4.000000,4.000000,100.000000,,,,,,,,,,,,,,,,,,,,,,,,,,,,
1703416980.351538,1703416980.352312,68.000000,0.000000,4303.205078,4317.692383,4392.692383,4373.846191,4301.666504,4298.333496,4313.974121,4334.615234,4314.358887,4266.538574,4676.922852,4585.384766,4512.051270,4594.102539,5387.000000,2.000000,50.000000,,,,0.000000,4.000000,4.000000,4.000000,4.000000,4.000000,4.000000,4.000000,4.000000,4.000000,4.000000,4.000000,4.000000,4.000000,4.000000,100.000000,,,,,,,,,,,,,,,,,17.000000,0.000000,0.700603,0.096619,-0.665833,0.237671,0.969845,-0.175803,0.083995,-13.494860,-48.302513,66.287849
1703416980.359346,1703416980.360020,69.000000,0.000000,4308.846191,4320.128418,4391.666504,4373.461426,4300.256348,4302.948730,4314.487305,4339.358887,4316.282227,4286.666504,4679.487305,4595.128418,4512.820313,4599.358887,5217.000000,2.000000,50.000000,,,,0.000000,4.000000,4.000000,4.000000,4.000000,4.000000,4.000000,4.000000,4.000000,4.000000,4.000000,4.000000,4.000000,4.000000,4.000000,100.000000,,,,,,,,,,,,,,,,,,,,,,,,,,,,
1703416980.367154,1703416980.367828,70.000000,0.000000,4307.820313,4321.153809,4393.205078,4368.846191,4299.487305,4302.179688,4312.563965,4336.922852,4318.205078,4311.153809,4682.051270,4596.282227,4508.333496,4598.589844,4505.000000,2.000000,50.000000,,,,0.000000,4.000000,4.000000,4.000000,4.000000,4.000000,4.000000,4.000000,4.000000,4.000000,4.000000,4.000000,4.000000,4.000000,4.000000,100.000000,,,,,,,,,,,,,,,,,,,,,,,,,,,,
1703416980.374962,1703416980.375536,71.000000,0.000000,4302.307617,4317.563965,4394.487305,4368.717773,4302.820313,4296.922852,4307.948730,4332.307617,4317.692383,4296.922852,4684.487305,4592.051270,4506.922852,4598.077148,5208.000000,2.000000,50.000000,,,,0.000000,4.000000,4.000000,4.000000,4.000000,4.000000,4.000000,4.000000,4.000000,4.000000,4.000000,4.000000,4.000000,4.000000,4.000000,100.000000,,,,,,,,,,,,,,,,,,,,,,,,,,,,
1703416980.382770,1703416980.383344,72.000000,0.000000,4299.358887,4316.538574,4392.436035,4370.384766,4302.179688,4295.512695,4305.512695,4327.051270,4312.436035,4276.410156,4685.641113,4593.589844,4512.179688,4600.512695,5569.000000,2.000000,50.000000,,,,0.000000,4.000000,4.000000,4.000000,4.000000,4.000000,4.000000,4.000000,4.000000,4.000000,4.000000,4.000000,4.000000,4.000000,4.000000,100.000000,,,,,,,,,,,,,,,,,18.000000,0.000000,0.700649,0.096558,-0.665771,0.237732,0.971310,-0.187035,0.101087,-13.378707,-48.272263,66.425735
1703416980.390578,1703416980.391053,73.000000,0.000000,4311.282227,4321.922852,4399.358887,4374.487305,4297.563965,4295.128418,4305.512695,4321.025879,4304.871582,4280.256348,4683.461426,4596.410156,4513.846191,4604.871582,5529.000000,2.000000,50.000000,,,,0.000000,4.000000,4.000000,4.000000,4.000000,4.000000,4.000000,4.000000,4.000000,4.000000,4.000000,4.000000,4.000000,4.000000,4.000000,100.000000,,,,,,,,,,,,,,,,,,,,,,,,,,,,
1703416980.398386,1703416980.398861,74.000000,0.000000,4327.307617,4332.179688,4418.846191,4382.563965,4302.820313,4296.025879,4310.641113,4325.641113,4311.922852,4295.384766,4689.230957,4606.410156,4520.512695,4614.102539,6138.000000,2.000000,50.000000,,,,0.000000,4.000000,4.000000,4.000000,4.000000,4.000000,4.000000,4.000000,4.000000,4.000000,4.000000,4.000000,4.000000,4.000000,4.000000,100.000000,,,,,,,,,,,,,,,,,,,,,,,,,,,,
1703416980.406194,1703416980.406569,75.000000,0.000000,4327.692383,4334.102539,4424.102539,4383.974121,4305.641113,4298.846191,4311.538574,4331.666504,4320.000000,4289.743652,4693.077148,4612.436035,4525.256348,4615.128418,6409.000000,2.000000,50.000000,,,,0.000000,4.000000,4.000000,4.000000,4.000000,4.000000,4.000000,4.000000,4.000000,4.000000,4.000000,4.000000,4.000000,4.000000,4.000000,100.000000,,,,,,,,,,,,,,,,,,,,,,,,,,,,
1703416980.414002,1703416980.414477,76.000000,0.000000,4335.641113,4338.461426,4421.025879,4385.769043,4305.512695,4303.846191,4311.282227,4335.769043,4322.436035,4289.871582,4698.589844,4615.641113,4531.025879,4621.666504,6925.000000,2.000000,50.000000,,,,0.000000,4.000000,4.000000,4.000000,4.000000,4.000000,4.000000,4.000000,4.000000,4.000000,4.000000,4.000000,4.000000,4.000000,4.000000,100.000000,,,,,,,,,,,,,,,,,19.000000,0.000000,0.700682,0.096436,-0.665710,0.237854,0.972287,-0.172384,0.094250,-13.240836,-48.278370,66.299828
1703416980.421810,1703416980.422285,77.000000,0.000000,4346.153809,4342.179688,4420.128418,4385.769043,4300.384766,4298.589844,4308.846191,4337.692383,4325.384766,4308.846191,4706.794922,4617.820313,4538.333496,4631.153809,7438.000000,2.000000,50.000000,,,,0.000000,4.000000,4.000000,4.000000,4.000000,4.000000,4.000000,4.000000,4.000000,4.000000,4.000000,4.000000,4.000000,4.000000,4.000000,100.000000,,,,,,,,,,,,,,,,,,,,,,,,,,,,
1703416980.429618,1703416980.430193,78.000000,0.000000,4333.846191,4334.487305,4413.717773,4374.743652,4289.615234,4286.025879,4301.922852,4332.436035,4321.538574,4310.769043,4701.025879,4609.102539,4536.666504,4621.922852,6138.000000,2.000000,50.000000,,,,0.000000,4.000000,4.000000,4.000000,4.000000,4.000000,4.000000,4.000000,4.000000,4.000000,4.000000,4.000000,4.000000,4.000000,4.000000,100.000000,,,,,,,,,,,,,,,,,,,,,,,,,,,,
1703416980.437426,1703416980.438001,79.000000,0.000000,4325.641113,4330.000000,4407.436035,4370.769043,4290.128418,4286.282227,4302.307617,4331.794922,4318.846191,4293.846191,4695.384766,4602.436035,4533.717773,4616.025879,6409.000000,2.000000,50.000000,,,,0.000000,4.000000,4.000000,4.000000,4.000000,4.000000,4.000000,4.000000,4.000000,4.000000,4.000000,4.000000,4.000000,4.000000,4.000000,100.000000,,,,,,,,,,,,,,,,,,,,,,,,,,,,
1703416980.445234,1703416980.445909,80.000000,0.000000,4326.794922,4324.102539,4400.512695,4369.743652,4292.307617,4287.563965,4302.692383,4334.743652,4317.820313,4286.153809,4690.769043,4595.641113,4525.769043,4614.358887,6925.000000,2.000000,50.000000,,,,0.000000,4.000000,4.000000,4.000000,4.000000,4.000000,4.000000,4.000000,4.000000,4.000000,4.000000,4.000000,4.000000,4.000000,4.000000,100.000000,,,,,,,,,,,,,,,,,20.000000,0.000000,0.700711,0.096375,-0.665710,0.237793,0.977658,-0.172873,0.097180,-13.116753,-48.167198,66.269844
1703416980.453042,1703416980.453718,81.000000,0.000000,4324.615234,4317.436035,4397.948730,4362.436035,4289.743652,4287.307617,4302.820313,4335.000000,4317.563965,4291.538574,4688.846191,4592.051270,4524.615234,4608.974121,7438.000000,2.000000,50.000000,,,,0.000000,4.000000,4.000000,4.000000,4.000000,4.000000,4.000000,4.000000,4.000000,4.000000,4.000000,4.000000,4.000000,4.000000,4.000000,100.000000,,,,,,,,,,,,,,,,,,,,,,,,,,,,
1703416980.460850,1703416980.461626,82.000000,0.000000,4322.948730,4318.974121,4400.769043,4359.615234,4291.538574,4293.077148,4307.563965,4334.230957,4318.077148,4286.410156,4691.922852,4595.256348,4528.333496,4607.692383,6138.000000,2.000000,50.000000,,,,0.000000,4.000000,4.000000,4.000000,4.000000,4.000000,4.000000,4.000000,4.000000,4.000000,4.000000,4.000000,4.000000,4.000000,4.000000,100.000000,,,,,,,,,,,,,,,,,,,,,,,,,,,,
1703416980.468659,1703416980.469434,83.000000,0.000000,4319.358887,4317.820313,4396.666504,4360.384766,4293.717773,4293.589844,4303.333496,4326.538574,4307.948730,4282.692383,4678.974121,4585.897461,4515.384766,4597.051270,6409.000000,2.000000,50.000000,,,,0.000000,4.000000,4.000000,4.000000,4.000000,4.000000,4.000000,4.000000,4.000000,4.000000,4.000000,4.000000,4.000000,4.000000,4.000000,100.000000,,,,,,,,,,,,,,,,,,,,,,,,,,,,
1703416980.476467,1703416980.477342,84.000000,0.000000,4323.205078,4320.897461,4397.307617,4366.666504,4300.128418,4294.358887,4301.410156,4322.692383,4304.743652,4286.282227,4674.743652,4583.974121,4512.820313,4598.333496,6925.000000,2.000000,50.000000,,,,0.000000,4.000000,4.000000,4.000000,4.000000,4.000000,4.000000,4.000000,4.000000,4.000000,4.000000,4.000000,4.000000,4.000000,4.000000,100.000000,,,,,,,,,,,,,,,,,21.000000,0.000000,0.700827,0.096375,-0.665588,0.237793,0.968868,-0.179709,0.095715,-13.038410,-48.150478,66.192856
1703416980.484275,1703416980.485150,85.000000,0.000000,4335.897461,4328.974121,4405.641113,4369.743652,4306.922852,4297.307617,4309.358887,4325.512695,4313.461426,4289.230957,4690.256348,4598.717773,4530.641113,4618.717773,7438.000000,2.000000,50.000000,,,,0.000000,4.000000,4.000000,4.000000,4.000000,4.000000,4.000000,4.000000,4.000000,4.000000,4.000000,4.000000,4.000000,4.000000,4.000000,100.000000,,,,,,,,,,,,,,,,,,,,,,,,,,,,
1703416980.492083,1703416980.493058,86.000000,0.000000,4341.922852,4333.205078,4409.743652,4366.153809,4306.922852,4297.563965,4311.538574,4329.871582,4317.051270,4297.692383,4696.538574,4605.384766,4541.538574,4623.461426,6138.000000,2.000000,50.000000,,,,0.000000,4.000000,4.000000,4.000000,4.000000,4.000000,4.000000,4.000000,4.000000,4.000000,4.000000,4.000000,4.000000,4.000000,4.000000,100.000000,,,,,,,,,,,,,,,,,,,,,,,,,,,,
1703416980.499891,1703416980.500866,87.000000,0.000000,4340.000000,4338.077148,4414.230957,4369.230957,4307.436035,4302.563965,4311.025879,4338.717773,4322.436035,4303.461426,4704.358887,4609.871582,4547.436035,4622.563965,6409.000000,2.000000,50.000000,,,,0.000000,4.000000,4.000000,4.000000,4.000000,4.000000,4.000000,4.000000,4.000000,4.000000,4.000000,4.000000,4.000000,4.000000,4.000000,100.000000,,,,,,,,,,,,,,,,,,,,,,,,,,,,
1703416980.507699,1703416980.508775,88.000000,0.000000,4338.461426,4337.692383,4415.769043,4370.641113,4304.358887,4302.563965,4313.974121,4341.153809,4329.743652,4295.384766,4708.717773,4611.922852,4548.589844,4627.051270,6925.000000,2.000000,50.000000,,,,0.000000,4.000000,4.000000,4.000000,4.000000,4.000000,4.000000,4.000000,4.000000,4.000000,4.000000,4.000000,4.000000,4.000000,4.000000,100.000000,,,,,,,,,,,,,,,,,22.000000,0.000000,0.700931,0.096313,-0.665466,0.237854,0.963497,-0.187523,0.100598,-13.101236,-48.218765,66.290237
1703416980.515507,1703416980.516583,89.000000,0.000000,4346.153809,4335.512695,4417.179688,4371.666504,4303.461426,4297.820313,4313.205078,4341.282227,4333.974121,4292.179688,4703.205078,4610.256348,4542.179688,4630.256348,7438.000000,2.000000,50.000000,,,,0.000000,4.000000,4.000000,4.000000,4.000000,4.000000,4.000000,4.000000,4.000000,4.000000,4.000000,4.000000,4.000000,4.000000,4.000000,100.000000,,,,,,,,,,,,,,,,,,,,,,,,,,,,
1703416980.523315,1703416980.524291,90.000000,0.000000,4350.000000,4338.461426,4419.487305,4373.333496,4305.769043,4295.128418,4306.025879,4344.230957,4331.410156,4299.615234,4701.666504,4610.384766,4538.461426,4626.922852,6138.000000,2.000000,50.000000,,,,0.000000,4.000000,4.000000,4.000000,4.000000,4.000000,4.000000,4.000000,4.000000,4.000000,4.000000,4.000000,4.000000,4.000000,4.000000,100.000000,,,,,,,,,,,,,,,,,,,,,,,,,,,,
1703416980.531123,1703416980.532099,91.000000,0.000000,4335.769043,4332.563965,4411.538574,4366.153809,4303.974121,4290.256348,4302.179688,4338.205078,4323.205078,4291.153809,4695.384766,4603.846191,4533.846191,4615.512695,6409.000000,2.000000,50.000000,,,,0.000000,4.000000,4.000000,4.000000,4.000000,4.000000,4.000000,4.000000,4.000000,4.000000,4.000000,4.000000,4.000000,4.000000,4.000000,100.000000,,,,,,,,,,,,,,,,,,,,,,,,,,,,
1703416980.538931,1703416980.539808,92.000000,0.000000,4326.794922,4323.077148,4402.820313,4358.077148,4303.717773,4289.487305,4304.358887,4332.948730,4322.307617,4282.563965,4685.769043,4596.282227,4527.563965,4609.358887,6925.000000,2.000000,50.000000,,,,0.000000,4.000000,4.000000,4.000000,4.000000,4.000000,4.000000,4.000000,4.000000,4.000000,4.000000,4.000000,4.000000,4.000000,4.000000,100.000000,,,,,,,,,,,,,,,,,23.000000,0.000000,0.701163,0.096191,-0.665283,0.237732,0.976193,-0.179709,0.101575,-12.991113,-48.280220,66.177879
1703416980.546739,1703416980.547616,93.000000,0.000000,4326.282227,4319.871582,4398.589844,4354.102539,4296.666504,4291.666504,4301.666504,4328.205078,4316.794922,4285.641113,4678.205078,4587.692383,4518.589844,4605.256348,7438.000000,2.000000,50.000000,,,,0.000000,4.000000,4.000000,4.000000,4.000000,4.000000,4.000000,4.000000,4.000000,4.000000,4.000000,4.000000,4.000000,4.000000,4.000000,100.000000,,,,,,,,,,,,,,,,,,,,,,,,,,,,
1703416980.554547,1703416980.555324,94.000000,0.000000,4323.205078,4319.615234,4392.307617,4353.974121,4289.615234,4293.205078,4301.666504,4322.820313,4306.666504,4291.153809,4674.358887,4579.487305,4512.436035,4602.436035,6138.000000,2.000000,50.000000,,,,0.000000,4.000000,4.000000,4.000000,4.000000,4.000000,4.000000,4.000000,4.000000,4.000000,4.000000,4.000000,4.000000,4.000000,4.000000,100.000000,1.000000,100.000000,4.000000,4.000000,4.000000,4.000000,4.000000,4.000000,4.000000,4.000000,4.000000,4.000000,4.000000,4.000000,4.000000,4.000000,,,,,,,,,,,,
1703416980.562355,1703416980.563232,95.000000,0.000000,4322.692383,4315.128418,4388.974121,4356.538574,4297.692383,4298.077148,4307.051270,4324.102539,4307.948730,4292.436035,4677.692383,4581.410156,4517.051270,4603.846191,6409.000000,2.000000,50.000000,,,,0.000000,4.000000,4.000000,4.000000,4.000000,4.000000,4.000000,4.000000,4.000000,4.000000,4.000000,4.000000,4.000000,4.000000,4.000000,100.000000,,,,,,,,,,,,,,,,,,,,,,,,,,,,
1703416980.570163,1703416980.571040,96.000000,0.000000,4321.410156,4310.512695,4390.897461,4352.948730,4300.897461,4296.922852,4303.461426,4318.974121,4305.512695,4271.410156,4670.000000,4577.692383,4511.538574,4595.641113,6925.000000,2.000000,50.000000,,,,0.000000,4.000000,4.000000,4.000000,4.000000,4.000000,4.000000,4.000000,4.000000,4.000000,4.000000,4.000000,4.000000,4.000000,4.000000,100.000000,,,,,,,,,,,,,,,,,24.000000,0.000000,0.701316,0.096069,-0.665161,0.237671,0.972287,-0.186546,0.094250,-13.042002,-48.268864,66.176758
1703416980.577971,1703416980.578848,97.000000,0.000000,4326.025879,4321.538574,4400.512695,4356.794922,4297.563965,4297.179688,4301.282227,4316.153809,4305.512695,4265.897461,4669.102539,4580.641113,4510.512695,4598.333496,7438.000000,2.000000,50.000000,,,,0.000000,4.000000,4.000000,4.000000,4.000000,4.000000,4.000000,4.000000,4.000000,4.000000,4.000000,4.000000,4.000000,4.000000,4.000000,100.000000,,,,,,,,,,,,,,,,,,,,,,,,,,,,
1703416980.585779,1703416980.586556,98.000000,0.000000,4332.820313,4330.256348,4405.897461,4364.871582,4299.615234,4300.641113,4304.358887,4321.794922,4310.897461,4279.230957,4681.538574,4592.820313,4522.051270,4614.358887,6138.000000,2.000000,50.000000,,,,0.000000,4.000000,4.000000,4.000000,4.000000,4.000000,4.000000,4.000000,4.000000,4.000000,4.000000,4.000000,4.000000,4.000000,4.000000,100.000000,,,,,,,,,,,,,,,,,,,,,,,,,,,,
1703416980.593587,1703416980.594364,99.000000,0.000000,4335.512695,4324.230957,4400.897461,4359.358887,4300.384766,4297.307617,4302.436035,4321.666504,4306.153809,4270.512695,4680.897461,4590.769043,4518.846191,4615.384766,6409.000000,2.000000,50.000000,,,,0.000000,4.000000,4.000000,4.000000,4.000000,4.000000,4.000000,4.000000,4.000000,4.000000,4.000000,4.000000,4.000000,4.000000,4.000000,100.000000,,,,,,,,,,,,,,,,,,,,,,,,,,,,
1703416980.601395,1703416980.602073,100.000000,0.000000,4336.538574,4322.692383,4401.153809,4355.641113,4298.333496,4292.948730,4300.384766,4322.436035,4309.358887,4266.410156,4678.717773,4587.307617,4517.179688,4611.282227,6925.000000,2.000000,50.000000,,,,0.000000,4.000000,4.000000,4.000000,4.000000,4.000000,4.000000,4.000000,4.000000,4.000000,4.000000,4.000000,4.000000,4.000000,4.000000,100.000000,,,,,,,,,,,,,,,,,25.000000,0.000000,0.701391,0.095703,-0.665222,0.237427,0.981077,-0.175803,0.097668,-12.871135,-48.291977,66.259087
1703416980.609203,1703416980.609880,101.000000,0.000000,4334.230957,4325.256348,4401.025879,4358.846191,4291.922852,4289.487305,4300.384766,4323.461426,4316.153809,4285.000000,4682.820313,4585.512695,4522.692383,4609.743652,7438.000000,2.000000,50.000000,,,,0.000000,4.000000,4.000000,4.000000,4.000000,4.000000,4.000000,4.000000,4.000000,4.000000,4.000000,4.000000,4.000000,4.000000,4.000000,100.000000,,,,,,,,,,,,,,,,,,,,,,,,,,,,
1703416980.617011,1703416980.617589,102.000000,0.000000,4339.358887,4329.102539,4400.128418,4360.512695,4292.692383,4292.692383,4301.025879,4324.487305,4316.025879,4298.205078,4690.384766,4589.102539,4528.333496,4614.102539,6138.000000,2.000000,50.000000,,,,0.000000,4.000000,4.000000,4.000000,4.000000,4.000000,4.000000,4.000000,4.000000,4.000000,4.000000,4.000000,4.000000,4.000000,4.000000,100.000000,,,,,,,,,,,,,,,,,,,,,,,,,,,,
1703416980.624819,1703416980.625397,103.000000,0.000000,4343.333496,4327.563965,4404.743652,4357.307617,4297.692383,4297.179688,4301.922852,4330.128418,4318.974121,4288.846191,4694.743652,4596.025879,4531.410156,4621.282227,6409.000000,2.000000,50.000000,,,,0.000000,4.000000,4.000000,4.000000,4.000000,4.000000,4.000000,4.000000,4.000000,4.000000,4.000000,4.000000,4.000000,4.000000,4.000000,100.000000,,,,,,,,,,,,,,,,,,,,,,,,,,,,
1703416980.632628,1703416980.633105,104.000000,0.000000,4334.743652,4318.333496,4404.487305,4349.230957,4292.563965,4292.051270,4298.589844,4328.717773,4317.179688,4268.974121,4687.563965,4588.589844,4523.846191,4613.077148,6925.000000,2.000000,50.000000,,,,0.000000,4.000000,4.000000,4.000000,4.000000,4.000000,4.000000,4.000000,4.000000,4.000000,4.000000,4.000000,4.000000,4.000000,4.000000,100.000000,,,,,,,,,,,,,,,,,26.000000,0.000000,0.701366,0.095581,-0.665222,0.237549,0.966427,-0.189965,0.097668,-13.067354,-48.362782,66.216507
1703416980.640436,1703416980.641013,105.000000,0.000000,4337.436035,4320.641113,4403.589844,4347.692383,4292.948730,4292.820313,4297.948730,4327.692383,4316.794922,4276.538574,4689.743652,4587.051270,4524.102539,4614.871582,7438.000000,2.000000,50.000000,,,,0.000000,4.000000,4.000000,4.000000,4.000000,4.000000,4.000000,4.000000,4.000000,4.000000,4.000000,4.000000,4.000000,4.000000,4.000000,100.000000,,,,,,,,,,,,,,,,,,,,,,,,,,,,
1703416980.648244,1703416980.648821,106.000000,0.000000,4341.538574,4323.974121,4403.974121,4349.230957,4295.384766,4298.717773,4298.846191,4332.307617,4322.820313,4306.922852,4692.563965,4592.179688,4527.436035,4624.358887,6138.000000,2.000000,50.000000,,,,0.000000,4.000000,4.000000,4.000000,4.000000,4.000000,4.000000,4.000000,4.000000,4.000000,4.000000,4.000000,4.000000,4.000000,4.000000,100.000000,,,,,,,,,,,,,,,,,,,,,,,,,,,,
1703416980.656052,1703416980.656729,107.000000,0.000000,4328.589844,4321.922852,4402.179688,4349.743652,4296.794922,4301.794922,4299.871582,4331.922852,4322.179688,4308.205078,4683.205078,4586.025879,4519.230957,4612.307617,6409.000000,2.000000,50.000000,,,,0.000000,4.000000,4.000000,4.000000,4.000000,4.000000,4.000000,4.000000,4.000000,4.000000,4.000000,4.000000,4.000000,4.000000,4.000000,100.000000,,,,,,,,,,,,,,,,,,,,,,,,,,,,
1703416980.663860,1703416980.664537,108.000000,0.000000,4325.641113,4325.641113,4398.846191,4349.871582,4303.589844,4306.666504,4307.051270,4329.487305,4319.102539,4292.563965,4680.769043,4578.974121,4513.846191,4601.282227,6925.000000,2.000000,50.000000,,,,0.000000,4.000000,4.000000,4.000000,4.000000,4.000000,4.000000,4.000000,4.000000,4.000000,4.000000,4.000000,4.000000,4.000000,4.000000,100.000000,,,,,,,,,,,,,,,,,27.000000,0.000000,0.701279,0.095764,-0.665222,0.237732,0.969845,-0.183616,0.104017,-12.960619,-48.443169,66.361526
1703416980.671668,1703416980.672445,109.000000,0.000000,4336.153809,4322.563965,4394.615234,4348.846191,4303.461426,4312.307617,4310.897461,4329.358887,4317.692383,4297.179688,4680.384766,4579.487305,4513.974121,4608.974121,7438.000000,2.000000,50.000000,,,,0.000000,4.000000,4.000000,4.000000,4.000000,4.000000,4.000000,4.000000,4.000000,4.000000,4.000000,4.000000,4.000000,4.000000,4.000000,100.000000,,,,,,,,,,,,,,,,,,,,,,,,,,,,
1703416980.679476,1703416980.680254,110.000000,0.000000,4337.436035,4319.615234,4395.641113,4349.871582,4302.307617,4316.794922,4308.461426,4330.384766,4317.948730,4301.538574,4676.794922,4584.615234,4517.307617,4615.641113,6138.000000,2.000000,50.000000,,,,0.000000,4.000000,4.000000,4.000000,4.000000,4.000000,4.000000,4.000000,4.000000,4.000000,4.000000,4.000000,4.000000,4.000000,4.000000,100.000000,,,,,,,,,,,,,,,,,,,,,,,,,,,,
1703416980.687284,1703416980.688162,111.000000,0.000000,4329.358887,4326.666504,4397.051270,4349.487305,4303.589844,4312.307617,4304.871582,4324.871582,4313.974121,4285.897461,4672.948730,4582.307617,4515.769043,4606.794922,6409.000000,2.000000,50.000000,,,,0.000000,4.000000,4.000000,4.000000,4.000000,4.000000,4.000000,4.000000,4.000000,4.000000,4.000000,4.000000,4.000000,4.000000,4.000000,100.000000,,,,,,,,,,,,,,,,,,,,,,,,,,,,
1703416980.695092,1703416980.695970,112.000000,0.000000,4329.487305,4330.384766,4397.692383,4353.333496,4299.871582,4305.384766,4303.717773,4320.128418,4312.820313,4280.641113,4678.846191,4581.922852,4516.666504,4604.743652,6925.000000,2.000000,50.000000,,,,0.000000,4.000000,4.000000,4.000000,4.000000,4.000000,4.000000,4.000000,4.000000,4.000000,4.000000,4.000000,4.000000,4.000000,4.000000,100.000000,,,,,,,,,,,,,,,,,28.000000,0.000000,0.701122,0.095764,-0.665344,0.237854,0.969845,-0.184593,0.098157,-13.014557,-48.615520,66.308708
1703416980.702900,1703416980.703678,113.000000,0.000000,4336.922852,4327.307617,4404.230957,4365.000000,4295.769043,4307.307617,4306.538574,4326.025879,4323.717773,4294.871582,4691.666504,4598.333496,4527.820313,4619.102539,7438.000000,2.000000,50.000000,,,,0.000000,4.000000,4.000000,4.000000,4.000000,4.000000,4.000000,4.000000,4.000000,4.000000,4.000000,4.000000,4.000000,4.000000,4.000000,100.000000,,,,,,,,,,,,,,,,,,,,,,,,,,,,
1703416980.710708,1703416980.711486,114.000000,0.000000,4331.025879,4321.410156,4403.077148,4363.461426,4289.743652,4298.333496,4301.666504,4326.153809,4321.922852,4285.641113,4681.794922,4599.230957,4521.410156,4614.487305,6138.000000,2.000000,50.000000,,,,0.000000,4.000000,4.000000,4.000000,4.000000,4.000000,4.000000,4.000000,4.000000,4.000000,4.000000,4.000000,4.000000,4.000000,4.000000,100.000000,,,,,,,,,,,,,,,,,,,,,,,,,,,,
1703416980.718516,1703416980.719195,115.000000,0.000000,4328.846191,4321.538574,4400.512695,4362.436035,4287.307617,4287.307617,4296.410156,4327.179688,4315.641113,4284.230957,4680.128418,4594.230957,4516.282227,4610.769043,6409.000000,2.000000,50.000000,,,,0.000000,4.000000,4.000000,4.000000,4.000000,4.000000,4.000000,4.000000,4.000000,4.000000,4.000000,4.000000,4.000000,4.000000,4.000000,100.000000,,,,,,,,,,,,,,,,,,,,,,,,,,,,
1703416980.726324,1703416980.727003,116.000000,0.000000,4341.538574,4329.102539,4411.922852,4374.102539,4290.000000,4291.794922,4302.948730,4339.487305,4328.846191,4318.846191,4709.102539,4615.897461,4537.563965,4633.333496,6925.000000,2.000000,50.000000,,,,0.000000,4.000000,4.000000,4.000000,4.000000,4.000000,4.000000,4.000000,4.000000,4.000000,4.000000,4.000000,4.000000,4.000000,4.000000,100.000000,,,,,,,,,,,,,,,,,29.000000,0.000000,0.701110,0.095581,-0.665405,0.237793,0.970333,-0.198755,0.091808,-12.913101,-48.637302,66.277832
1703416980.734132,1703416980.734711,117.000000,0.000000,4346.282227,4333.333496,4421.410156,4378.589844,4289.487305,4298.077148,4307.820313,4346.282227,4342.179688,4330.128418,4721.538574,4634.230957,4551.410156,4647.436035,7438.000000,2.000000,50.000000,,,,0.000000,4.000000,4.000000,4.000000,4.000000,4.000000,4.000000,4.000000,4.000000,4.000000,4.000000,4.000000,4.000000,4.000000,4.000000,100.000000,,,,,,,,,,,,,,,,,,,,,,,,,,,,
1703416980.741940,1703416980.742519,118.000000,0.000000,4347.563965,4337.563965,4426.794922,4380.000000,4296.538574,4302.179688,4308.589844,4352.692383,4346.538574,4318.077148,4721.922852,4641.410156,4555.256348,4651.025879,6138.000000,2.000000,50.000000,,,,0.000000,4.000000,4.000000,4.000000,4.000000,4.000000,4.000000,4.000000,4.000000,4.000000,4.000000,4.000000,4.000000,4.000000,4.000000,100.000000,,,,,,,,,,,,,,,,,,,,,,,,,,,,
1703416980.749748,1703416980.750227,119.000000,0.000000,4350.128418,4334.358887,4428.846191,4381.282227,4302.948730,4300.769043,4308.205078,4357.307617,4342.436035,4315.128418,4723.717773,4645.384766,4552.563965,4649.358887,6409.000000,2.000000,50.000000,,,,0.000000,4.000000,4.000000,4.000000,4.000000,4.000000,4.000000,4.000000,4.000000,4.000000,4.000000,4.000000,4.000000,4.000000,4.000000,100.000000,,,,,,,,,,,,,,,,,,,,,,,,,,,,
1703416980.757556,1703416980.758035,120.000000,0.000000,4348.846191,4326.025879,4426.666504,4381.282227,4299.743652,4297.436035,4306.922852,4353.077148,4340.384766,4318.333496,4716.666504,4641.153809,4535.512695,4639.102539,6925.000000,2.000000,50.000000,,,,0.000000,4.000000,4.000000,4.000000,4.000000,4.000000,4.000000,4.000000,4.000000,4.000000,4.000000,4.000000,4.000000,4.000000,4.000000,100.000000,,,,,,,,,,,,,,,,,30.000000,0.000000,0.701105,0.095642,-0.665466,0.237610,0.964473,-0.196801,0.092296,-12.955125,-48.656902,66.283386
1703416980.765364,1703416980.765743,121.000000,0.000000,4345.256348,4326.282227,4424.102539,4383.077148,4297.051270,4303.077148,4308.589844,4349.358887,4344.358887,4314.615234,4708.974121,4640.000000,4530.128418,4641.794922,7438.000000,2.000000,50.000000,,,,0.000000,4.000000,4.000000,4.000000,4.000000,4.000000,4.000000,4.000000,4.000000,4.000000,4.000000,4.000000,4.000000,4.000000,4.000000,100.000000,,,,,,,,,,,,,,,,,,,,,,,,,,,,
1703416980.773173,1703416980.773551,122.000000,0.000000,4341.153809,4323.205078,4417.563965,4379.743652,4291.410156,4305.512695,4309.487305,4339.102539,4333.717773,4306.025879,4700.769043,4631.922852,4533.077148,4641.282227,6138.000000,2.000000,50.000000,,,,0.000000,4.000000,4.000000,4.000000,4.000000,4.000000,4.000000,4.000000,4.000000,4.000000,4.000000,4.000000,4.000000,4.000000,4.000000,100.000000,,,,,,,,,,,,,,,,,,,,,,,,,,,,
1703416980.780980,1703416980.781259,123.000000,0.000000,4334.358887,4317.563965,4412.179688,4372.051270,4287.820313,4302.179688,4306.282227,4325.769043,4316.922852,4301.153809,4691.025879,4614.230957,4518.846191,4624.230957,6409.000000,2.000000,50.000000,,,,0.000000,4.000000,4.000000,4.000000,4.000000,4.000000,4.000000,4.000000,4.000000,4.000000,4.000000,4.000000,4.000000,4.000000,4.000000,100.000000,,,,,,,,,,,,,,,,,,,,,,,,,,,,
1703416980.788788,1703416980.789067,124.000000,0.000000,4320.128418,4314.487305,4403.205078,4362.820313,4287.948730,4298.077148,4299.102539,4318.333496,4308.974121,4286.282227,4677.948730,4599.615234,4498.974121,4610.128418,6925.000000,2.000000,50.000000,,,,0.000000,4.000000,4.000000,4.000000,4.000000,4.000000,4.000000,4.000000,4.000000,4.000000,4.000000,4.000000,4.000000,4.000000,4.000000,100.000000,,,,,,,,,,,,,,,,,31.000000,0.000000,0.701267,0.095764,-0.665344,0.237427,0.965938,-0.173361,0.092785,-13.209612,-48.707882,66.338379
1703416980.796597,1703416980.796775,125.000000,0.000000,4317.563965,4311.025879,4397.179688,4358.461426,4285.256348,4295.897461,4296.025879,4315.512695,4305.641113,4274.102539,4669.871582,4598.974121,4498.589844,4611.410156,7438.000000,2.000000,50.000000,,,,0.000000,4.000000,4.000000,4.000000,4.000000,4.000000,4.000000,4.000000,4.000000,4.000000,4.000000,4.000000,4.000000,4.000000,4.000000,100.000000,,,,,,,,,,,,,,,,,,,,,,,,,,,,
1703416980.804405,1703416980.804583,126.000000,0.000000,4325.897461,4314.358887,4403.333496,4363.205078,4287.179688,4296.794922,4301.410156,4320.256348,4313.205078,4280.897461,4677.948730,4610.000000,4507.820313,4617.307617,6138.000000,2.000000,50.000000,,,,0.000000,4.000000,4.000000,4.000000,4.000000,4.000000,4.000000,4.000000,4.000000,4.000000,4.000000,4.000000,4.000000,4.000000,4.000000,100.000000,,,,,,,,,,,,,,,,,,,,,,,,,,,,
1703416980.812213,1703416980.812291,127.000000,0.000000,4319.102539,4316.282227,4401.282227,4363.333496,4286.410156,4290.512695,4299.358887,4321.666504,4319.487305,4287.948730,4678.846191,4605.641113,4501.410156,4609.743652,50.000000,2.000000,50.000000,,,,0.000000,4.000000,4.000000,4.000000,4.000000,4.000000,4.000000,4.000000,4.000000,4.000000,4.000000,4.000000,4.000000,4.000000,4.000000,100.000000,,,,,,,,,,,,,,,,,,,,,,,,,,,,
1703416980.820021,1703416980.820099,0.000000,0.000000,4317.307617,4316.282227,4398.846191,4361.922852,4285.384766,4284.743652,4291.538574,4321.666504,4317.948730,4296.666504,4674.743652,4603.974121,4500.000000,4611.538574,5698.000000,2.000000,50.000000,,,,0.000000,4.000000,4.000000,4.000000,4.000000,4.000000,4.000000,4.000000,4.000000,4.000000,4.000000,4.000000,4.000000,4.000000,4.000000,100.000000,,,,,,,,,,,,,,,,,0.000000,0.000000,0.701357,0.096130,-0.665283,0.237183,0.979612,-0.182151,0.090343,-13.221984,-48.637093,66.304543
1703416980.827829,1703416980.827807,1.000000,0.000000,4330.128418,4317.692383,4405.641113,4362.820313,4286.153809,4287.051270,4293.461426,4325.384766,4317.692383,4301.666504,4681.025879,4616.410156,4510.897461,4623.077148,5385.000000,2.000000,50.000000,,,,0.000000,4.000000,4.000000,4.000000,4.000000,4.000000,4.000000,4.000000,4.000000,4.000000,4.000000,4.000000,4.000000,4.000000,4.000000,100.000000,,,,,,,,,,,,,,,,,,,,,,,,,,,,
1703416980.835637,1703416980.835615,2.000000,0.000000,4328.333496,4315.769043,4403.333496,4359.487305,4280.897461,4283.461426,4294.743652,4323.461426,4313.077148,4295.769043,4680.256348,4611.410156,4510.384766,4614.615234,5395.000000,2.000000,50.000000,,,,0.000000,4.000000,4.000000,4.000000,4.000000,4.000000,4.000000,4.000000,4.000000,4.000000,4.000000,4.000000,4.000000,4.000000,4.000000,100.000000,,,,,,,,,,,,,,,,,,,,,,,,,,,,
1703416980.843445,1703416980.843323,3.000000,0.000000,4324.102539,4317.179688,4402.436035,4365.897461,4282.179688,4280.641113,4292.820313,4323.974121,4311.025879,4299.743652,4678.974121,4608.589844,4511.410156,4612.692383,5419.000000,2.000000,50.000000,,,,0.000000,4.000000,4.000000,4.000000,4.000000,4.000000,4.000000,4.000000,4.000000,4.000000,4.000000,4.000000,4.000000,4.000000,4.000000,100.000000,,,,,,,,,,,,,,,,,,,,,,,,,,,,
1703416980.851253,1703416980.851231,4.000000,0.000000,4335.641113,4319.358887,4408.846191,4376.153809,4288.077148,4281.666504,4293.589844,4324.487305,4311.025879,4295.128418,4679.102539,4616.666504,4513.333496,4623.589844,5389.000000,2.000000,50.000000,,,,0.000000,4.000000,4.000000,4.000000,4.000000,4.000000,4.000000,4.000000,4.000000,4.000000,4.000000,4.000000,4.000000,4.000000,4.000000,100.000000,,,,,,,,,,,,,,,,,1.000000,0.000000,0.701547,0.096191,-0.665161,0.236938,0.977170,-0.181174,0.095715,-13.249785,-48.673382,66.290756
1703416980.859061,1703416980.859040,5.000000,0.000000,4338.333496,4319.743652,4408.461426,4377.563965,4288.717773,4281.153809,4295.256348,4317.051270,4302.307617,4275.000000,4669.871582,4612.820313,4503.077148,4616.922852,5217.000000,2.000000,50.000000,,,,0.000000,4.000000,4.000000,4.000000,4.000000,4.000000,4.000000,4.000000,4.000000,4.000000,4.000000,4.000000,4.000000,4.000000,4.000000,100.000000,,,,,,,,,,,,,,,,,,,,,,,,,,,,
1703416980.866869,1703416980.866948,6.000000,0.000000,4330.256348,4321.410156,4406.538574,4376.794922,4286.025879,4280.384766,4293.846191,4309.615234,4293.461426,4265.897461,4667.436035,4603.205078,4497.948730,4608.974121,4505.000000,2.000000,50.000000,,,,0.000000,4.000000,4.000000,4.000000,4.000000,4.000000,4.000000,4.000000,4.000000,4.000000,4.000000,4.000000,4.000000,4.000000,4.000000,100.000000,,,,,,,,,,,,,,,,,,,,,,,,,,,,
1703416980.874677,1703416980.874756,7.000000,0.000000,4329.358887,4315.512695,4403.205078,4373.974121,4275.512695,4273.077148,4287.692383,4301.153809,4288.077148,4263.846191,4665.512695,4599.487305,4497.563965,4613.205078,5208.000000,2.000000,50.000000,,,,0.000000,4.000000,4.000000,4.000000,4.000000,4.000000,4.000000,4.000000,4.000000,4.000000,4.000000,4.000000,4.000000,4.000000,4.000000,100.000000,,,,,,,,,,,,,,,,,,,,,,,,,,,,
1703416980.882485,1703416980.882664,8.000000,0.000000,4330.000000,4312.820313,4396.922852,4371.794922,4271.794922,4269.358887,4286.410156,4300.897461,4289.358887,4264.487305,4662.179688,4600.897461,4494.358887,4614.230957,5567.000000,2.000000,50.000000,,,,0.000000,4.000000,4.000000,4.000000,4.000000,4.000000,4.000000,4.000000,4.000000,4.000000,4.000000,4.000000,4.000000,4.000000,4.000000,100.000000,,,,,,,,,,,,,,,,,2.000000,0.000000,0.701630,0.095886,-0.665161,0.236816,0.984984,-0.169943,0.084971,-13.224807,-48.622711,66.445015
1703416980.890293,1703416980.890472,9.000000,0.000000,4321.410156,4317.820313,4391.538574,4368.717773,4278.589844,4272.948730,4286.410156,4307.179688,4292.563965,4265.897461,4659.487305,4595.897461,4488.717773,4603.589844,5547.000000,2.000000,50.000000,,,,0.000000,4.000000,4.000000,4.000000,4.000000,4.000000,4.000000,4.000000,4.000000,4.000000,4.000000,4.000000,4.000000,4.000000,4.000000,100.000000,,,,,,,,,,,,,,,,,,,,,,,,,,,,
1703416980.898101,1703416980.898380,10.000000,0.000000,4314.743652,4315.897461,4388.461426,4366.282227,4280.641113,4275.256348,4286.410156,4306.153809,4291.794922,4257.307617,4655.256348,4587.436035,4486.153809,4595.641113,6140.000000,2.000000,50.000000,,,,0.000000,4.000000,4.000000,4.000000,4.000000,4.000000,4.000000,4.000000,4.000000,4.000000,4.000000,4.000000,4.000000,4.000000,4.000000,100.000000,,,,,,,,,,,,,,,,,,,,,,,,,,,,
1703416980.905909,1703416980.906189,11.000000,0.000000,4320.897461,4313.589844,4390.256348,4370.256348,4284.230957,4282.692383,4289.487305,4308.974121,4298.077148,4267.820313,4661.666504,4594.358887,4494.230957,4603.846191,6407.000000,2.000000,50.000000,,,,0.000000,4.000000,4.000000,4.000000,4.000000,4.000000,4.000000,4.000000,4.000000,4.000000,4.000000,4.000000,4.000000,4.000000,4.000000,100.000000,,,,,,,,,,,,,,,,,,,,,,,,,,,,
1703416980.913717,1703416980.913897,12.000000,0.000000,4320.000000,4314.615234,4390.128418,4368.974121,4288.333496,4286.025879,4287.692383,4316.410156,4303.589844,4290.641113,4665.641113,4599.230957,4496.538574,4605.897461,6928.000000,2.000000,50.000000,,,,0.000000,4.000000,4.000000,4.000000,4.000000,4.000000,4.000000,4.000000,4.000000,4.000000,4.000000,4.000000,4.000000,4.000000,4.000000,100.000000,,,,,,,,,,,,,,,,,3.000000,0.000000,0.701601,0.095642,-0.665161,0.237000,0.975217,-0.182151,0.096203,-13.202327,-48.610439,66.583847
1703416980.921525,1703416980.921705,13.000000,0.000000,4311.794922,4315.769043,4386.666504,4363.461426,4289.743652,4285.128418,4288.461426,4320.256348,4302.948730,4284.743652,4664.615234,4593.461426,4494.487305,4598.205078,7444.000000,2.000000,50.000000,,,,0.000000,4.000000,4.000000,4.000000,4.000000,4.000000,4.000000,4.000000,4.000000,4.000000,4.000000,4.000000,4.000000,4.000000,4.000000,100.000000,,,,,,,,,,,,,,,,,,,,,,,,,,,,
1703416980.929333,1703416980.929413,14.000000,0.000000,4313.333496,4313.077148,4383.846191,4361.410156,4288.589844,4287.563965,4289.615234,4316.282227,4303.846191,4271.025879,4665.128418,4591.794922,4496.794922,4599.487305,6140.000000,2.000000,50.000000,,,,0.000000,4.000000,4.000000,4.000000,4.000000,4.000000,4.000000,4.000000,4.000000,4.000000,4.000000,4.000000,4.000000,4.000000,4.000000,100.000000,,,,,,,,,,,,,,,,,,,,,,,,,,,,
1703416980.937142,1703416980.937221,15.000000,0.000000,4320.769043,4310.512695,4386.666504,4359.230957,4284.615234,4285.512695,4285.000000,4307.179688,4299.102539,4269.102539,4658.717773,4590.000000,4493.205078,4604.615234,6407.000000,2.000000,50.000000,,,,0.000000,4.000000,4.000000,4.000000,4.000000,4.000000,4.000000,4.000000,4.000000,4.000000,4.000000,4.000000,4.000000,4.000000,4.000000,100.000000,,,,,,,,,,,,,,,,,,,,,,,,,,,,
1703416980.944950,1703416980.944929,16.000000,0.000000,4326.153809,4318.333496,4393.077148,4359.615234,4284.102539,4279.358887,4285.512695,4307.948730,4297.692383,4276.666504,4662.563965,4593.333496,4496.922852,4608.461426,0.000000,2.000000,50.000000,,,,0.000000,4.000000,4.000000,4.000000,4.000000,4.000000,4.000000,4.000000,4.000000,4.000000,4.000000,4.000000,4.000000,4.000000,4.000000,100.000000,,,,,,,,,,,,,,,,,4.000000,0.000000,0.701531,0.095520,-0.665100,0.237427,0.964473,-0.186546,0.101575,-13.215427,-48.799397,66.525459
1703416980.952757,1703416980.952737,17.000000,0.000000,4319.743652,4317.051270,4386.282227,4356.538574,4278.974121,4269.743652,4285.769043,4304.358887,4293.461426,4271.666504,4664.615234,4590.512695,4498.974121,4603.077148,0.000000,2.000000,50.000000,,,,0.000000,4.000000,4.000000,4.000000,4.000000,4.000000,4.000000,4.000000,4.000000,4.000000,4.000000,4.000000,4.000000,4.000000,4.000000,100.000000,,,,,,,,,,,,,,,,,,,,,,,,,,,,
1703416980.960566,1703416980.960445,18.000000,0.000000,4315.384766,4306.794922,4381.153809,4352.692383,4275.512695,4262.563965,4277.436035,4288.333496,4279.102539,4261.025879,4652.948730,4576.922852,4488.205078,4597.948730,0.000000,2.000000,50.000000,,,,0.000000,4.000000,4.000000,4.000000,4.000000,4.000000,4.000000,4.000000,4.000000,4.000000,4.000000,4.000000,4.000000,4.000000,4.000000,100.000000,,,,,,,,,,,,,,,,,,,,,,,,,,,,
1703416980.968374,1703416980.968253,19.000000,0.000000,4317.307617,4305.256348,4384.102539,4352.179688,4277.692383,4263.333496,4273.077148,4284.487305,4273.461426,4273.205078,4650.128418,4574.615234,4484.871582,4600.000000,0.000000,2.000000,50.000000,,,,0.000000,4.000000,4.000000,4.000000,4.000000,4.000000,4.000000,4.000000,4.000000,4.000000,4.000000,4.000000,4.000000,4.000000,4.000000,100.000000,,,,,,,,,,,,,,,,,,,,,,,,,,,,
1703416980.976182,1703416980.975961,20.000000,0.000000,4305.384766,4302.692383,4372.820313,4340.256348,4270.256348,4264.615234,4272.692383,4284.102539,4270.000000,4271.666504,4646.538574,4566.794922,4480.897461,4585.000000,0.000000,2.000000,50.000000,,,,0.000000,4.000000,4.000000,4.000000,4.000000,4.000000,4.000000,4.000000,4.000000,4.000000,4.000000,4.000000,4.000000,4.000000,4.000000,100.000000,,,,,,,,,,,,,,,,,5.000000,0.000000,0.701321,0.095337,-0.665283,0.237610,0.973752,-0.180198,0.100110,-13.160551,-48.736122,66.656250
1703416980.983990,1703416980.983869,21.000000,0.000000,4300.384766,4300.128418,4364.102539,4331.153809,4267.307617,4267.179688,4273.717773,4282.051270,4269.102539,4256.153809,4641.153809,4558.205078,4477.563965,4573.717773,0.000000,2.000000,50.000000,,,,0.000000,4.000000,4.000000,4.000000,4.000000,4.000000,4.000000,4.000000,4.000000,4.000000,4.000000,4.000000,4.000000,4.000000,4.000000,100.000000,,,,,,,,,,,,,,,,,,,,,,,,,,,,
1703416980.991798,1703416980.991678,22.000000,0.000000,4304.487305,4296.282227,4362.692383,4332.692383,4265.256348,4263.461426,4272.948730,4284.487305,4272.436035,4249.615234,4635.128418,4556.282227,4474.358887,4578.333496,0.000000,2.000000,50.000000,,,,0.000000,4.000000,4.000000,4.000000,4.000000,4.000000,4.000000,4.000000,4.000000,4.000000,4.000000,4.000000,4.000000,4.000000,4.000000,100.000000,,,,,,,,,,,,,,,,,,,,,,,,,,,,
1703416980.999606,1703416980.999586,23.000000,0.000000,4298.205078,4287.436035,4355.769043,4328.846191,4256.410156,4255.769043,4270.769043,4285.512695,4275.000000,4250.000000,4628.589844,4548.589844,4463.846191,4570.256348,0.000000,2.000000,50.000000,,,,0.000000,4.000000,4.000000,4.000000,4.000000,4.000000,4.000000,4.000000,4.000000,4.000000,4.000000,4.000000,4.000000,4.000000,4.000000,100.000000,,,,,,,,,,,,,,,,,,,,,,,,,,,,
1703416981.007414,1703416981.007394,24.000000,0.000000,4293.077148,4286.153809,4360.256348,4329.743652,4260.512695,4261.922852,4274.615234,4294.358887,4283.589844,4266.410156,4637.820313,4552.692383,4466.410156,4566.153809,0.000000,2.000000,50.000000,,,,0.000000,4.000000,4.000000,4.000000,4.000000,4.000000,4.000000,4.000000,4.000000,4.000000,4.000000,4.000000,4.000000,4.000000,4.000000,100.000000,,,,,,,,,,,,,,,,,6.000000,0.000000,0.701317,0.095215,-0.665283,0.237671,0.972287,-0.187035,0.093273,-13.144496,-48.712509,66.573959
1703416981.015222,1703416981.015302,25.000000,0.000000,4291.025879,4285.128418,4362.436035,4331.922852,4264.487305,4267.563965,4275.897461,4302.307617,4284.230957,4271.794922,4637.179688,4554.743652,4467.307617,4566.410156,0.000000,2.000000,50.000000,,,,0.000000,4.000000,4.000000,4.000000,4.000000,4.000000,4.000000,4.000000,4.000000,4.000000,4.000000,4.000000,4.000000,4.000000,4.000000,100.000000,,,,,,,,,,,,,,,,,,,,,,,,,,,,
1703416981.023030,1703416981.023110,26.000000,0.000000,4291.410156,4278.461426,4353.717773,4327.436035,4258.974121,4265.128418,4273.205078,4299.102539,4276.794922,4245.128418,4622.307617,4542.307617,4454.358887,4558.589844,0.000000,2.000000,50.000000,,,,0.000000,4.000000,4.000000,4.000000,4.000000,4.000000,4.000000,4.000000,4.000000,4.000000,4.000000,4.000000,4.000000,4.000000,4.000000,100.000000,,,,,,,,,,,,,,,,,,,,,,,,,,,,
1703416981.030838,1703416981.031018,27.000000,0.000000,4294.871582,4281.153809,4358.846191,4326.922852,4262.820313,4268.077148,4276.025879,4298.333496,4279.230957,4235.512695,4624.871582,4542.307617,4455.128418,4558.717773,0.000000,2.000000,50.000000,,,,0.000000,4.000000,4.000000,4.000000,4.000000,4.000000,4.000000,4.000000,4.000000,4.000000,4.000000,4.000000,4.000000,4.000000,4.000000,100.000000,,,,,,,,,,,,,,,,,,,,,,,,,,,,
1703416981.038646,1703416981.038827,28.000000,0.000000,4295.641113,4286.025879,4366.538574,4329.487305,4266.410156,4269.743652,4278.717773,4300.641113,4283.974121,4258.974121,4630.897461,4552.051270,4465.128418,4561.794922,0.000000,2.000000,50.000000,,,,0.000000,4.000000,4.000000,4.000000,4.000000,4.000000,4.000000,4.000000,4.000000,4.000000,4.000000,4.000000,4.000000,4.000000,4.000000,100.000000,,,,,,,,,,,,,,,,,7.000000,0.000000,0.701250,0.094971,-0.665344,0.237793,0.974728,-0.181174,0.097668,-13.330047,-48.557926,66.549896
1703416981.046454,1703416981.046735,29.000000,0.000000,4306.153809,4290.128418,4371.922852,4333.717773,4267.307617,4267.563965,4275.512695,4302.051270,4286.666504,4263.846191,4634.615234,4561.410156,4473.333496,4571.153809,0.000000,2.000000,50.000000,,,,0.000000,4.000000,4.000000,4.000000,4.000000,4.000000,4.000000,4.000000,4.000000,4.000000,4.000000,4.000000,4.000000,4.000000,4.000000,100.000000,,,,,,,,,,,,,,,,,,,,,,,,,,,,
1703416981.054262,1703416981.054543,30.000000,0.000000,4316.153809,4295.512695,4380.384766,4333.846191,4269.743652,4263.333496,4270.512695,4293.461426,4281.666504,4242.948730,4638.846191,4561.538574,4472.307617,4577.179688,0.000000,2.000000,50.000000,,,,0.000000,4.000000,4.000000,4.000000,4.000000,4.000000,4.000000,4.000000,4.000000,4.000000,4.000000,4.000000,4.000000,4.000000,4.000000,100.000000,1.000000,75.000000,4.000000,3.000000,4.000000,4.000000,4.000000,3.000000,4.000000,3.000000,3.000000,4.000000,4.000000,4.000000,4.000000,4.000000,,,,,,,,,,,,
1703416981.062070,1703416981.062451,31.000000,0.000000,4316.666504,4301.410156,4385.512695,4335.512695,4269.615234,4261.025879,4268.974121,4281.794922,4273.333496,4241.153809,4637.436035,4555.512695,4468.205078,4572.563965,0.000000,2.000000,50.000000,,,,0.000000,4.000000,4.000000,4.000000,4.000000,4.000000,4.000000,4.000000,4.000000,4.000000,4.000000,4.000000,4.000000,4.000000,4.000000,100.000000,,,,,,,,,,,,,,,,,,,,,,,,,,,,
1703416981.069878,1703416981.070259,32.000000,0.000000,4323.077148,4305.897461,4387.307617,4339.358887,4272.179688,4263.717773,4272.692383,4283.077148,4275.256348,4261.922852,4643.846191,4561.282227,4473.717773,4580.641113,0.000000,2.000000,50.000000,,,,0.000000,4.000000,4.000000,4.000000,4.000000,4.000000,4.000000,4.000000,4.000000,4.000000,4.000000,4.000000,4.000000,4.000000,4.000000,100.000000,,,,,,,,,,,,,,,,,8.000000,0.000000,0.701101,0.094910,-0.665466,0.237915,0.973263,-0.191918,0.094738,-13.413709,-48.535469,66.494904
1703416981.077686,1703416981.078167,33.000000,0.000000,4326.025879,4301.410156,4385.512695,4335.384766,4274.487305,4262.692383,4276.025879,4283.461426,4273.846191,4262.307617,4647.307617,4565.641113,4473.589844,4586.666504,0.000000,2.000000,50.000000,,,,0.000000,4.000000,4.000000,4.000000,4.000000,4.000000,4.000000,4.000000,4.000000,4.000000,4.000000,4.000000,4.000000,4.000000,4.000000,100.000000,,,,,,,,,,,,,,,,,,,,,,,,,,,,
1703416981.085494,1703416981.085975,34.000000,0.000000,4320.000000,4302.563965,4386.794922,4338.205078,4278.205078,4270.769043,4282.307617,4282.820313,4273.333496,4248.333496,4643.589844,4564.358887,4472.820313,4580.384766,0.000000,2.000000,50.000000,,,,0.000000,4.000000,4.000000,4.000000,4.000000,4.000000,4.000000,4.000000,4.000000,4.000000,4.000000,4.000000,4.000000,4.000000,4.000000,100.000000,,,,,,,,,,,,,,,,,,,,,,,,,,,,
1703416981.093303,1703416981.093684,35.000000,0.000000,4315.384766,4307.307617,4383.974121,4342.563965,4278.205078,4280.128418,4287.436035,4286.794922,4278.461426,4257.051270,4641.153809,4559.358887,4474.487305,4573.333496,0.000000,2.000000,50.000000,,,,0.000000,4.000000,4.000000,4.000000,4.000000,4.000000,4.000000,4.000000,4.000000,4.000000,4.000000,4.000000,4.000000,4.000000,4.000000,100.000000,,,,,,,,,,,,,,,,,,,,,,,,,,,,
1703416981.101111,1703416981.101492,36.000000,0.000000,4309.871582,4299.230957,4372.692383,4334.615234,4270.384766,4276.153809,4281.538574,4289.102539,4272.692383,4271.538574,4636.025879,4548.846191,4466.666504,4568.846191,0.000000,2.000000,50.000000,,,,0.000000,4.000000,4.000000,4.000000,4.000000,4.000000,4.000000,4.000000,4.000000,4.000000,4.000000,4.000000,4.000000,4.000000,4.000000,100.000000,,,,,,,,,,,,,,,,,9.000000,0.000000,0.701023,0.094910,-0.665527,0.237976,0.974240,-0.193383,0.098157,-13.272338,-48.565254,66.612083
1703416981.108919,1703416981.109200,37.000000,0.000000,4302.948730,4289.358887,4370.256348,4329.615234,4270.897461,4276.538574,4280.256348,4296.666504,4275.769043,4268.717773,4642.692383,4549.487305,4465.897461,4571.666504,0.000000,2.000000,50.000000,,,,0.000000,4.000000,4.000000,4.000000,4.000000,4.000000,4.000000,4.000000,4.000000,4.000000,4.000000,4.000000,4.000000,4.000000,4.000000,100.000000,,,,,,,,,,,,,,,,,,,,,,,,,,,,
1703416981.116727,1703416981.117108,38.000000,0.000000,4298.077148,4286.538574,4368.333496,4327.307617,4272.179688,4275.897461,4282.563965,4304.230957,4288.846191,4253.846191,4646.153809,4551.794922,4468.333496,4568.846191,0.000000,2.000000,50.000000,,,,0.000000,4.000000,4.000000,4.000000,4.000000,4.000000,4.000000,4.000000,4.000000,4.000000,4.000000,4.000000,4.000000,4.000000,4.000000,100.000000,,,,,,,,,,,,,,,,,,,,,,,,,,,,
1703416981.124535,1703416981.124916,39.000000,0.000000,4299.743652,4290.641113,4363.717773,4324.615234,4268.974121,4269.871582,4280.384766,4305.128418,4291.282227,4253.717773,4636.794922,4551.410156,4464.871582,4561.282227,0.000000,2.000000,50.000000,,,,0.000000,4.000000,4.000000,4.000000,4.000000,4.000000,4.000000,4.000000,4.000000,4.000000,4.000000,4.000000,4.000000,4.000000,4.000000,100.000000,,,,,,,,,,,,,,,,,,,,,,,,,,,,
1703416981.132343,1703416981.132824,40.000000,0.000000,4301.538574,4290.128418,4365.897461,4327.307617,4265.897461,4270.897461,4278.974121,4308.205078,4287.820313,4266.025879,4635.769043,4554.102539,4464.358887,4565.000000,0.000000,2.000000,50.000000,,,,0.000000,4.000000,4.000000,4.000000,4.000000,4.000000,4.000000,4.000000,4.000000,4.000000,4.000000,4.000000,4.000000,4.000000,4.000000,100.000000,,,,,,,,,,,,,,,,,10.000000,0.000000,0.700952,0.094849,-0.665588,0.238037,0.965938,-0.181663,0.093273,-13.161771,-48.442062,66.484207
1703416981.140151,1703416981.140633,41.000000,0.000000,4294.102539,4284.743652,4366.794922,4326.666504,4263.333496,4271.153809,4273.717773,4304.743652,4282.948730,4255.641113,4632.948730,4545.641113,4462.179688,4562.307617,0.000000,2.000000,50.000000,,,,0.000000,4.000000,4.000000,4.000000,4.000000,4.000000,4.000000,4.000000,4.000000,4.000000,4.000000,4.000000,4.000000,4.000000,4.000000,100.000000,,,,,,,,,,,,,,,,,,,,,,,,,,,,
1703416981.147959,1703416981.148441,42.000000,0.000000,4292.051270,4293.461426,4368.974121,4328.333496,4267.179688,4267.948730,4270.512695,4291.794922,4280.128418,4245.384766,4629.871582,4540.897461,4461.282227,4556.025879,0.000000,2.000000,50.000000,,,,0.000000,4.000000,4.000000,4.000000,4.000000,4.000000,4.000000,4.000000,4.000000,4.000000,4.000000,4.000000,4.000000,4.000000,4.000000,100.000000,,,,,,,,,,,,,,,,,,,,,,,,,,,,
1703416981.155767,1703416981.156149,43.000000,0.000000,4298.974121,4299.615234,4376.538574,4332.563965,4262.692383,4261.025879,4268.846191,4282.563965,4277.051270,4257.948730,4632.820313,4546.666504,4460.512695,4563.077148,0.000000,2.000000,50.000000,,,,0.000000,4.000000,4.000000,4.000000,4.000000,4.000000,4.000000,4.000000,4.000000,4.000000,4.000000,4.000000,4.000000,4.000000,4.000000,100.000000,,,,,,,,,,,,,,,,,,,,,,,,,,,,
1703416981.163575,1703416981.163957,44.000000,0.000000,4299.615234,4292.307617,4377.948730,4331.153809,4254.615234,4256.282227,4263.461426,4278.205078,4268.589844,4259.615234,4630.769043,4546.025879,4457.436035,4571.666504,0.000000,2.000000,50.000000,,,,0.000000,4.000000,4.000000,4.000000,4.000000,4.000000,4.000000,4.000000,4.000000,4.000000,4.000000,4.000000,4.000000,4.000000,4.000000,100.000000,,,,,,,,,,,,,,,,,11.000000,0.000000,0.700965,0.094910,-0.665588,0.237976,0.975217,-0.187035,0.103040,-13.128927,-48.347855,66.469116
1703416981.171383,1703416981.171665,45.000000,0.000000,4297.692383,4294.230957,4374.615234,4331.538574,4263.077148,4260.512695,4264.102539,4272.820313,4261.538574,4242.563965,4630.512695,4544.102539,4462.563965,4573.589844,0.000000,2.000000,50.000000,,,,0.000000,4.000000,4.000000,4.000000,4.000000,4.000000,4.000000,4.000000,4.000000,4.000000,4.000000,4.000000,4.000000,4.000000,4.000000,100.000000,,,,,,,,,,,,,,,,,,,,,,,,,,,,
1703416981.179191,1703416981.179473,46.000000,0.000000,4300.897461,4299.615234,4374.487305,4334.230957,4263.717773,4258.205078,4263.974121,4264.871582,4257.179688,4235.256348,4629.743652,4543.333496,4462.179688,4567.563965,0.000000,2.000000,50.000000,,,,0.000000,4.000000,4.000000,4.000000,4.000000,4.000000,4.000000,4.000000,4.000000,4.000000,4.000000,4.000000,4.000000,4.000000,4.000000,100.000000,,,,,,,,,,,,,,,,,,,,,,,,,,,,
1703416981.186999,1703416981.187181,47.000000,0.000000,4303.974121,4299.230957,4377.307617,4338.461426,4256.282227,4252.948730,4262.051270,4267.692383,4255.384766,4246.666504,4624.358887,4541.282227,4454.743652,4564.102539,0.000000,2.000000,50.000000,,,,0.000000,4.000000,4.000000,4.000000,4.000000,4.000000,4.000000,4.000000,4.000000,4.000000,4.000000,4.000000,4.000000,4.000000,4.000000,100.000000,,,,,,,,,,,,,,,,,,,,,,,,,,,,
1703416981.194807,1703416981.195089,48.000000,0.000000,4292.307617,4295.128418,4373.205078,4338.974121,4256.153809,4254.871582,4263.974121,4268.717773,4248.205078,4242.692383,4616.025879,4536.282227,4449.743652,4560.897461,0.000000,2.000000,50.000000,,,,0.000000,4.000000,4.000000,4.000000,4.000000,4.000000,4.000000,4.000000,4.000000,4.000000,4.000000,4.000000,4.000000,4.000000,4.000000,100.000000,,,,,,,,,,,,,,,,,12.000000,0.000000,0.700853,0.095032,-0.665710,0.237915,0.969357,-0.170919,0.085948,-13.182701,-48.396404,66.538872
1703416981.202615,1703416981.202897,49.000000,0.000000,4281.153809,4290.641113,4366.282227,4333.717773,4252.563965,4251.922852,4264.743652,4258.077148,4239.743652,4224.743652,4612.436035,4529.487305,4447.563965,4554.615234,0.000000,2.000000,50.000000,,,,0.000000,4.000000,4.000000,4.000000,4.000000,4.000000,4.000000,4.000000,4.000000,4.000000,4.000000,4.000000,4.000000,4.000000,4.000000,100.000000,,,,,,,,,,,,,,,,,,,,,,,,,,,,
1703416981.210423,1703416981.210805,50.000000,0.000000,4282.563965,4288.077148,4367.436035,4333.205078,4251.538574,4251.410156,4267.051270,4268.077148,4250.384766,4234.871582,4621.538574,4538.846191,4450.128418,4559.358887,0.000000,2.000000,50.000000,,,,0.000000,4.000000,4.000000,4.000000,4.000000,4.000000,4.000000,4.000000,4.000000,4.000000,4.000000,4.000000,4.000000,4.000000,4.000000,100.000000,,,,,,,,,,,,,,,,,,,,,,,,,,,,
1703416981.218231,1703416981.218614,51.000000,0.000000,4262.051270,4274.615234,4354.743652,4327.948730,4248.717773,4251.538574,4268.077148,4282.307617,4258.717773,4242.051270,4614.487305,4536.410156,4440.000000,4550.512695,0.000000,2.000000,50.000000,,,,0.000000,4.000000,4.000000,4.000000,4.000000,4.000000,4.000000,4.000000,4.000000,4.000000,4.000000,4.000000,4.000000,4.000000,4.000000,100.000000,,,,,,,,,,,,,,,,,,,,,,,,,,,,
1703416981.226039,1703416981.226522,52.000000,0.000000,4230.000000,4265.128418,4337.307617,4326.153809,4240.256348,4246.025879,4268.974121,4279.615234,4253.205078,4225.897461,4603.333496,4517.692383,4429.358887,4533.846191,0.000000,2.000000,50.000000,,,,0.000000,4.000000,4.000000,4.000000,4.000000,4.000000,4.000000,4.000000,4.000000,4.000000,4.000000,4.000000,4.000000,4.000000,4.000000,100.000000,,,,,,,,,,,,,,,,,13.000000,0.000000,0.700853,0.095032,-0.665710,0.237915,0.960078,-0.196801,0.103528,-13.347764,-48.490097,66.618317
1703416981.233848,1703416981.234330,53.000000,0.000000,4220.384766,4273.589844,4340.512695,4334.230957,4235.000000,4242.692383,4266.025879,4274.615234,4251.153809,4219.871582,4609.102539,4517.948730,4435.128418,4540.512695,0.000000,2.000000,50.000000,,,,0.000000,4.000000,4.000000,4.000000,4.000000,4.000000,4.000000,4.000000,4.000000,4.000000,4.000000,4.000000,4.000000,4.000000,4.000000,100.000000,,,,,,,,,,,,,,,,,,,,,,,,,,,,
1703416981.241655,1703416981.242238,54.000000,0.000000,4210.769043,4268.717773,4335.897461,4330.897461,4229.871582,4239.615234,4256.410156,4263.205078,4238.846191,4219.358887,4592.563965,4510.641113,4425.256348,4538.077148,0.000000,2.000000,50.000000,,,,0.000000,4.000000,4.000000,4.000000,4.000000,4.000000,4.000000,4.000000,4.000000,4.000000,4.000000,4.000000,4.000000,4.000000,4.000000,100.000000,,,,,,,,,,,,,,,,,,,,,,,,,,,,
1703416981.249463,1703416981.250046,55.000000,0.000000,4188.333496,4257.820313,4318.205078,4324.743652,4227.179688,4239.102539,4255.000000,4254.102539,4225.256348,4208.589844,4569.743652,4487.179688,4410.000000,4515.769043,0.000000,2.000000,50.000000,,,,0.000000,4.000000,4.000000,4.000000,4.000000,4.000000,4.000000,4.000000,4.000000,4.000000,4.000000,4.000000,4.000000,4.000000,4.000000,100.000000,,,,,,,,,,,,,,,,,,,,,,,,,,,,
1703416981.257272,1703416981.257954,56.000000,0.000000,4170.769043,4259.871582,4308.717773,4328.589844,4225.512695,4240.000000,4256.153809,4249.615234,4218.974121,4188.077148,4566.922852,4471.025879,4407.948730,4503.846191,0.000000,2.000000,50.000000,,,,0.000000,4.000000,4.000000,4.000000,4.000000,4.000000,4.000000,4.000000,4.000000,4.000000,4.000000,4.000000,4.000000,4.000000,4.000000,100.000000,,,,,,,,,,,,,,,,,14.000000,0.000000,0.700923,0.095093,-0.665649,0.237854,0.969845,-0.179709,0.093273,-13.446321,-48.407753,66.573151
1703416981.265080,1703416981.265763,57.000000,0.000000,4167.051270,4262.820313,4310.512695,4332.307617,4224.230957,4237.563965,4252.436035,4240.128418,4209.230957,4182.179688,4564.358887,4468.974121,4404.743652,4508.717773,0.000000,2.000000,50.000000,,,,0.000000,4.000000,4.000000,4.000000,4.000000,4.000000,4.000000,4.000000,4.000000,4.000000,4.000000,4.000000,4.000000,4.000000,4.000000,100.000000,,,,,,,,,,,,,,,,,,,,,,,,,,,,
1703416981.272888,1703416981.273671,58.000000,0.000000,4168.461426,4267.563965,4318.974121,4337.563965,4226.538574,4240.512695,4253.205078,4238.589844,4208.717773,4198.205078,4565.512695,4477.692383,4406.153809,4514.871582,0.000000,2.000000,50.000000,,,,0.000000,4.000000,4.000000,4.000000,4.000000,4.000000,4.000000,4.000000,4.000000,4.000000,4.000000,4.000000,4.000000,4.000000,4.000000,100.000000,,,,,,,,,,,,,,,,,,,,,,,,,,,,
1703416981.280696,1703416981.281479,59.000000,0.000000,4162.692383,4269.615234,4319.615234,4343.461426,4223.077148,4238.333496,4253.974121,4234.615234,4207.179688,4188.717773,4563.846191,4473.205078,4401.666504,4506.153809,0.000000,2.000000,50.000000,,,,0.000000,4.000000,4.000000,4.000000,4.000000,4.000000,4.000000,4.000000,4.000000,4.000000,4.000000,4.000000,4.000000,4.000000,4.000000,100.000000,,,,,,,,,,,,,,,,,,,,,,,,,,,,
1703416981.288504,1703416981.289387,60.000000,0.000000,4162.436035,4268.717773,4318.333496,4347.563965,4220.128418,4230.128418,4248.461426,4225.256348,4203.077148,4172.051270,4557.820313,4465.641113,4394.615234,4504.871582,0.000000,2.000000,50.000000,,,,0.000000,4.000000,4.000000,4.000000,4.000000,4.000000,4.000000,4.000000,4.000000,4.000000,4.000000,4.000000,4.000000,4.000000,4.000000,100.000000,,,,,,,,,,,,,,,,,15.000000,0.000000,0.700911,0.095032,-0.665649,0.237915,0.964962,-0.183128,0.092785,-13.335022,-48.316978,66.432503
1703416981.296312,1703416981.297195,61.000000,0.000000,4163.974121,4266.922852,4316.282227,4343.333496,4223.461426,4225.641113,4243.589844,4225.512695,4206.282227,4187.820313,4558.589844,4468.589844,4397.051270,4511.153809,0.000000,2.000000,50.000000,,,,0.000000,4.000000,4.000000,4.000000,4.000000,4.000000,4.000000,4.000000,4.000000,4.000000,4.000000,4.000000,4.000000,4.000000,4.000000,100.000000,,,,,,,,,,,,,,,,,,,,,,,,,,,,
1703416981.304120,1703416981.304904,62.000000,0.000000,4156.922852,4260.641113,4308.077148,4335.641113,4224.743652,4222.051270,4241.922852,4227.051270,4207.436035,4202.948730,4560.384766,4465.256348,4398.461426,4503.333496,0.000000,2.000000,50.000000,,,,0.000000,4.000000,4.000000,4.000000,4.000000,4.000000,4.000000,4.000000,4.000000,4.000000,4.000000,4.000000,4.000000,4.000000,4.000000,100.000000,,,,,,,,,,,,,,,,,,,,,,,,,,,,
1703416981.311928,1703416981.312712,63.000000,0.000000,4163.846191,4262.563965,4311.153809,4341.025879,4226.922852,4222.820313,4246.153809,4230.384766,4213.846191,4206.153809,4571.153809,4472.436035,4409.102539,4513.077148,0.000000,2.000000,50.000000,,,,0.000000,4.000000,4.000000,4.000000,4.000000,4.000000,4.000000,4.000000,4.000000,4.000000,4.000000,4.000000,4.000000,4.000000,4.000000,100.000000,,,,,,,,,,,,,,,,,,,,,,,,,,,,
1703416981.319736,1703416981.320420,64.000000,0.000000,4174.871582,4265.256348,4319.102539,4345.384766,4224.487305,4222.307617,4250.128418,4237.820313,4219.871582,4202.948730,4582.051270,4488.077148,4420.128418,4529.871582,5706.000000,2.000000,50.000000,,,,0.000000,4.000000,4.000000,4.000000,4.000000,4.000000,4.000000,4.000000,4.000000,4.000000,4.000000,4.000000,4.000000,4.000000,4.000000,100.000000,,,,,,,,,,,,,,,,,16.000000,0.000000,0.700948,0.095032,-0.665588,0.237976,0.970822,-0.186546,0.101087,-13.351520,-48.168613,66.572586
1703416981.327544,1703416981.328228,65.000000,0.000000,4173.333496,4264.743652,4319.358887,4341.794922,4223.205078,4222.820313,4248.717773,4239.102539,4219.743652,4194.102539,4578.717773,4486.922852,4417.948730,4519.230957,5390.000000,2.000000,50.000000,,,,0.000000,4.000000,4.000000,4.000000,4.000000,4.000000,4.000000,4.000000,4.000000,4.000000,4.000000,4.000000,4.000000,4.000000,4.000000,100.000000,,,,,,,,,,,,,,,,,,,,,,,,,,,,
1703416981.335352,1703416981.335936,66.000000,0.000000,4172.179688,4268.589844,4319.615234,4345.256348,4229.743652,4226.410156,4249.358887,4239.358887,4223.461426,4204.871582,4578.205078,4481.666504,4416.538574,4510.384766,5399.000000,2.000000,50.000000,,,,0.000000,4.000000,4.000000,4.000000,4.000000,4.000000,4.000000,4.000000,4.000000,4.000000,4.000000,4.000000,4.000000,4.000000,4.000000,100.000000,,,,,,,,,,,,,,,,,,,,,,,,,,,,
1703416981.343160,1703416981.343744,67.000000,0.000000,4173.461426,4269.615234,4318.589844,4346.666504,4223.974121,4227.307617,4251.922852,4245.384766,4227.179688,4213.846191,4578.077148,4482.307617,4415.897461,4515.641113,5424.000000,2.000000,50.000000,,,,0.000000,4.000000,4.000000,4.000000,4.000000,4.000000,4.000000,4.000000,4.000000,4.000000,4.000000,4.000000,4.000000,4.000000,4.000000,100.000000,,,,,,,,,,,,,,,,,,,,,,,,,,,,
1703416981.350968,1703416981.351452,68.000000,0.000000,4176.794922,4267.179688,4316.922852,4346.282227,4221.794922,4233.846191,4254.743652,4253.461426,4231.153809,4204.230957,4578.717773,4485.384766,4416.538574,4517.820313,5394.000000,2.000000,50.000000,,,,0.000000,4.000000,4.000000,4.000000,4.000000,4.000000,4.000000,4.000000,4.000000,4.000000,4.000000,4.000000,4.000000,4.000000,4.000000,100.000000,,,,,,,,,,,,,,,,,17.000000,0.000000,0.701060,0.095093,-0.665527,0.237793,0.986937,-0.188011,0.099622,-13.283034,-48.201752,66.498665
1703416981.358776,1703416981.359260,69.000000,0.000000,4180.128418,4263.077148,4316.410156,4346.410156,4227.692383,4239.615234,4254.743652,4252.051270,4232.692383,4202.307617,4578.205078,4480.128418,4415.897461,4514.230957,5228.000000,2.000000,50.000000,,,,0.000000,4.000000,4.000000,4.000000,4.000000,4.000000,4.000000,4.000000,4.000000,4.000000,4.000000,4.000000,4.000000,4.000000,4.000000,100.000000,,,,,,,,,,,,,,,,,,,,,,,,,,,,
1703416981.366584,1703416981.366968,70.000000,0.000000,4183.077148,4261.794922,4316.666504,4342.179688,4227.436035,4241.922852,4253.974121,4245.000000,4227.692383,4207.563965,4577.948730,4474.871582,4413.077148,4513.589844,4505.000000,2.000000,50.000000,,,,0.000000,4.000000,4.000000,4.000000,4.000000,4.000000,4.000000,4.000000,4.000000,4.000000,4.000000,4.000000,4.000000,4.000000,4.000000,100.000000,,,,,,,,,,,,,,,,,,,,,,,,,,,,
1703416981.374392,1703416981.374776,71.000000,0.000000,4192.563965,4268.205078,4325.128418,4343.974121,4231.282227,4246.410156,4261.538574,4243.077148,4228.974121,4209.358887,4589.230957,4488.333496,4423.717773,4523.205078,5218.000000,2.000000,50.000000,,,,0.000000,4.000000,4.000000,4.000000,4.000000,4.000000,4.000000,4.000000,4.000000,4.000000,4.000000,4.000000,4.000000,4.000000,4.000000,100.000000,,,,,,,,,,,,,,,,,,,,,,,,,,,,
1703416981.382200,1703416981.382484,72.000000,0.000000,4205.512695,4272.563965,4336.153809,4350.128418,4240.641113,4246.410156,4266.922852,4243.077148,4235.384766,4208.717773,4599.487305,4502.692383,4438.846191,4532.179688,5579.000000,2.000000,50.000000,,,,0.000000,4.000000,4.000000,4.000000,4.000000,4.000000,4.000000,4.000000,4.000000,4.000000,4.000000,4.000000,4.000000,4.000000,4.000000,100.000000,,,,,,,,,,,,,,,,,18.000000,0.000000,0.701135,0.094849,-0.665527,0.237671,0.979123,-0.185081,0.086925,-13.454731,-48.214909,66.232132
1703416981.390008,1703416981.390292,73.000000,0.000000,4216.282227,4276.282227,4343.205078,4355.128418,4247.948730,4244.615234,4265.256348,4248.461426,4243.205078,4217.820313,4606.794922,4510.641113,4443.461426,4538.205078,5549.000000,2.000000,50.000000,,,,0.000000,4.000000,4.000000,4.000000,4.000000,4.000000,4.000000,4.000000,4.000000,4.000000,4.000000,4.000000,4.000000,4.000000,4.000000,100.000000,,,,,,,,,,,,,,,,,,,,,,,,,,,,
1703416981.397817,1703416981.398000,74.000000,0.000000,4222.179688,4278.461426,4345.897461,4356.153809,4247.563965,4244.102539,4261.666504,4256.666504,4253.846191,4237.307617,4615.769043,4517.820313,4445.512695,4547.948730,6168.000000,2.000000,50.000000,,,,0.000000,4.000000,4.000000,4.000000,4.000000,4.000000,4.000000,4.000000,4.000000,4.000000,4.000000,4.000000,4.000000,4.000000,4.000000,100.000000,,,,,,,,,,,,,,,,,,,,,,,,,,,,
1703416981.405625,1703416981.405908,75.000000,0.000000,4226.282227,4274.743652,4343.717773,4351.410156,4244.743652,4237.563965,4257.179688,4255.384766,4261.153809,4247.307617,4618.974121,4518.974121,4450.128418,4548.974121,6427.000000,2.000000,50.000000,,,,0.000000,4.000000,4.000000,4.000000,4.000000,4.000000,4.000000,4.000000,4.000000,4.000000,4.000000,4.000000,4.000000,4.000000,4.000000,100.000000,,,,,,,,,,,,,,,,,,,,,,,,,,,,
1703416981.413432,1703416981.413716,76.000000,0.000000,4231.282227,4275.384766,4344.743652,4350.000000,4252.948730,4237.563965,4257.307617,4256.794922,4267.179688,4246.025879,4622.051270,4523.077148,4457.051270,4547.051270,6957.000000,2.000000,50.000000,,,,0.000000,4.000000,4.000000,4.000000,4.000000,4.000000,4.000000,4.000000,4.000000,4.000000,4.000000,4.000000,4.000000,4.000000,4.000000,100.000000,,,,,,,,,,,,,,,,,19.000000,0.000000,0.701201,0.094788,-0.665466,0.237671,0.974240,-0.178244,0.093761,-13.375925,-48.076752,66.225586
1703416981.421241,1703416981.421624,77.000000,0.000000,4234.487305,4278.333496,4346.025879,4350.512695,4259.871582,4247.692383,4263.846191,4256.025879,4263.077148,4244.743652,4618.077148,4524.230957,4450.512695,4544.871582,7471.000000,2.000000,50.000000,,,,0.000000,4.000000,4.000000,4.000000,4.000000,4.000000,4.000000,4.000000,4.000000,4.000000,4.000000,4.000000,4.000000,4.000000,4.000000,100.000000,,,,,,,,,,,,,,,,,,,,,,,,,,,,
1703416981.429049,1703416981.429433,78.000000,0.000000,4246.794922,4279.358887,4350.641113,4347.820313,4258.077148,4252.692383,4267.948730,4244.871582,4252.179688,4243.461426,4608.461426,4522.179688,4440.384766,4548.205078,6168.000000,2.000000,50.000000,,,,0.000000,4.000000,4.000000,4.000000,4.000000,4.000000,4.000000,4.000000,4.000000,4.000000,4.000000,4.000000,4.000000,4.000000,4.000000,100.000000,,,,,,,,,,,,,,,,,,,,,,,,,,,,
1703416981.436857,1703416981.437341,79.000000,0.000000,4267.563965,4280.256348,4358.461426,4345.128418,4255.641113,4248.974121,4266.282227,4243.974121,4256.153809,4242.563965,4616.282227,4532.307617,4453.077148,4563.461426,6427.000000,2.000000,50.000000,,,,0.000000,4.000000,4.000000,4.000000,4.000000,4.000000,4.000000,4.000000,4.000000,4.000000,4.000000,4.000000,4.000000,4.000000,4.000000,100.000000,,,,,,,,,,,,,,,,,,,,,,,,,,,,
1703416981.444665,1703416981.445149,80.000000,0.000000,4270.000000,4277.436035,4356.666504,4342.051270,4250.000000,4244.230957,4262.563965,4249.230957,4259.871582,4239.102539,4626.025879,4536.794922,4463.974121,4568.974121,6957.000000,2.000000,50.000000,,,,0.000000,4.000000,4.000000,4.000000,4.000000,4.000000,4.000000,4.000000,4.000000,4.000000,4.000000,4.000000,4.000000,4.000000,4.000000,100.000000,,,,,,,,,,,,,,,,,20.000000,0.000000,0.701246,0.094849,-0.665344,0.237854,0.981077,-0.175803,0.104017,-13.438333,-48.002411,66.386360
1703416981.452473,1703416981.453057,81.000000,0.000000,4266.666504,4279.102539,4356.794922,4344.230957,4250.897461,4251.922852,4268.333496,4252.179688,4257.436035,4236.153809,4624.615234,4535.000000,4460.897461,4568.333496,7471.000000,2.000000,50.000000,,,,0.000000,4.000000,4.000000,4.000000,4.000000,4.000000,4.000000,4.000000,4.000000,4.000000,4.000000,4.000000,4.000000,4.000000,4.000000,100.000000,,,,,,,,,,,,,,,,,,,,,,,,,,,,
1703416981.460281,1703416981.460865,82.000000,0.000000,4270.512695,4284.230957,4358.974121,4347.563965,4261.025879,4258.717773,4275.512695,4253.846191,4256.282227,4242.948730,4620.384766,4534.230957,4455.000000,4565.128418,6168.000000,2.000000,50.000000,,,,0.000000,4.000000,4.000000,4.000000,4.000000,4.000000,4.000000,4.000000,4.000000,4.000000,4.000000,4.000000,4.000000,4.000000,4.000000,100.000000,,,,,,,,,,,,,,,,,,,,,,,,,,,,
1703416981.468089,1703416981.468773,83.000000,0.000000,4266.794922,4281.794922,4355.512695,4345.384766,4267.436035,4258.717773,4276.666504,4254.358887,4257.563965,4252.436035,4620.512695,4531.410156,4454.102539,4556.025879,6427.000000,2.000000,50.000000,,,,0.000000,4.000000,4.000000,4.000000,4.000000,4.000000,4.000000,4.000000,4.000000,4.000000,4.000000,4.000000,4.000000,4.000000,4.000000,100.000000,,,,,,,,,,,,,,,,,,,,,,,,,,,,
1703416981.475897,1703416981.476582,84.000000,0.000000,4271.410156,4283.461426,4362.307617,4347.820313,4269.871582,4269.487305,4283.846191,4264.615234,4268.717773,4255.000000,4635.384766,4540.897461,4466.025879,4564.230957,6957.000000,2.000000,50.000000,,,,0.000000,4.000000,4.000000,4.000000,4.000000,4.000000,4.000000,4.000000,4.000000,4.000000,4.000000,4.000000,4.000000,4.000000,4.000000,100.000000,,,,,,,,,,,,,,,,,21.000000,0.000000,0.701226,0.094849,-0.665344,0.237915,0.965938,-0.181663,0.104017,-13.611166,-48.018837,66.531059
1703416981.483705,1703416981.484290,85.000000,0.000000,4283.077148,4284.487305,4365.512695,4348.717773,4262.179688,4271.153809,4286.153809,4269.743652,4272.051270,4242.692383,4635.128418,4543.461426,4463.205078,4571.410156,7471.000000,2.000000,50.000000,,,,0.000000,4.000000,4.000000,4.000000,4.000000,4.000000,4.000000,4.000000,4.000000,4.000000,4.000000,4.000000,4.000000,4.000000,4.000000,100.000000,,,,,,,,,,,,,,,,,,,,,,,,,,,,
1703416981.491513,1703416981.492098,86.000000,0.000000,4280.384766,4279.230957,4357.692383,4346.025879,4258.205078,4259.743652,4279.230957,4267.820313,4268.461426,4234.230957,4620.000000,4532.692383,4447.692383,4557.820313,6168.000000,2.000000,50.000000,,,,0.000000,4.000000,4.000000,4.000000,4.000000,4.000000,4.000000,4.000000,4.000000,4.000000,4.000000,4.000000,4.000000,4.000000,4.000000,100.000000,,,,,,,,,,,,,,,,,,,,,,,,,,,,
1703416981.499321,1703416981.499806,87.000000,0.000000,4270.256348,4275.512695,4356.666504,4340.256348,4261.538574,4254.871582,4274.743652,4272.307617,4272.820313,4247.179688,4621.922852,4533.333496,4447.179688,4553.333496,6427.000000,2.000000,50.000000,,,,0.000000,4.000000,4.000000,4.000000,4.000000,4.000000,4.000000,4.000000,4.000000,4.000000,4.000000,4.000000,4.000000,4.000000,4.000000,100.000000,,,,,,,,,,,,,,,,,,,,,,,,,,,,
1703416981.507129,1703416981.507615,88.000000,0.000000,4274.743652,4273.974121,4359.358887,4335.512695,4251.282227,4251.410156,4271.922852,4273.846191,4275.512695,4251.922852,4629.102539,4539.615234,4454.230957,4565.000000,6957.000000,2.000000,50.000000,,,,0.000000,4.000000,4.000000,4.000000,4.000000,4.000000,4.000000,4.000000,4.000000,4.000000,4.000000,4.000000,4.000000,4.000000,4.000000,100.000000,,,,,,,,,,,,,,,,,22.000000,0.000000,0.701354,0.094604,-0.665222,0.237976,0.974728,-0.194360,0.091808,-13.466716,-48.150288,66.494614
1703416981.514937,1703416981.515323,89.000000,0.000000,4286.538574,4277.436035,4362.692383,4344.743652,4251.922852,4250.641113,4271.153809,4273.461426,4279.230957,4243.461426,4630.256348,4544.487305,4457.051270,4567.692383,7471.000000,2.000000,50.000000,,,,0.000000,4.000000,4.000000,4.000000,4.000000,4.000000,4.000000,4.000000,4.000000,4.000000,4.000000,4.000000,4.000000,4.000000,4.000000,100.000000,,,,,,,,,,,,,,,,,,,,,,,,,,,,
1703416981.522745,1703416981.523131,90.000000,0.000000,4283.461426,4276.410156,4362.692383,4346.538574,4264.615234,4256.538574,4271.922852,4270.641113,4277.051270,4244.743652,4627.307617,4541.410156,4452.948730,4558.589844,6168.000000,2.000000,50.000000,,,,0.000000,4.000000,4.000000,4.000000,4.000000,4.000000,4.000000,4.000000,4.000000,4.000000,4.000000,4.000000,4.000000,4.000000,4.000000,100.000000,,,,,,,,,,,,,,,,,,,,,,,,,,,,
1703416981.530553,1703416981.530839,91.000000,0.000000,4289.230957,4275.512695,4363.077148,4342.948730,4269.743652,4264.871582,4272.307617,4265.641113,4271.922852,4263.205078,4636.282227,4540.641113,4456.922852,4565.641113,6427.000000,2.000000,50.000000,,,,0.000000,4.000000,4.000000,4.000000,4.000000,4.000000,4.000000,4.000000,4.000000,4.000000,4.000000,4.000000,4.000000,4.000000,4.000000,100.000000,,,,,,,,,,,,,,,,,,,,,,,,,,,,
1703416981.538361,1703416981.538647,92.000000,0.000000,4306.025879,4282.948730,4371.794922,4350.897461,4275.128418,4269.230957,4275.000000,4261.922852,4275.641113,4263.077148,4648.333496,4552.179688,4470.000000,4578.974121,6957.000000,2.000000,50.000000,,,,0.000000,4.000000,4.000000,4.000000,4.000000,4.000000,4.000000,4.000000,4.000000,4.000000,4.000000,4.000000,4.000000,4.000000,4.000000,100.000000,,,,,,,,,,,,,,,,,23.000000,0.000000,0.701453,0.094299,-0.665161,0.237976,0.970333,-0.183616,0.097180,-13.603377,-48.151924,66.545158
1703416981.546169,1703416981.546355,93.000000,0.000000,4303.333496,4284.230957,4373.974121,4353.717773,4276.794922,4265.641113,4277.179688,4254.743652,4273.717773,4240.256348,4635.384766,4549.743652,4462.692383,4567.948730,7471.000000,2.000000,50.000000,,,,0.000000,4.000000,4.000000,4.000000,4.000000,4.000000,4.000000,4.000000,4.000000,4.000000,4.000000,4.000000,4.000000,4.000000,4.000000,100.000000,,,,,,,,,,,,,,,,,,,,,,,,,,,,
1703416981.553977,1703416981.554263,94.000000,0.000000,4303.205078,4287.820313,4376.025879,4353.333496,4277.563965,4269.358887,4280.897461,4253.717773,4273.589844,4246.282227,4630.384766,4546.282227,4456.410156,4568.846191,6168.000000,2.000000,50.000000,,,,0.000000,4.000000,4.000000,4.000000,4.000000,4.000000,4.000000,4.000000,4.000000,4.000000,4.000000,4.000000,4.000000,4.000000,4.000000,100.000000,1.000000,75.000000,4.000000,4.000000,4.000000,4.000000,4.000000,4.000000,4.000000,3.000000,3.000000,4.000000,4.000000,4.000000,4.000000,3.000000,,,,,,,,,,,,
1703416981.561786,1703416981.562071,95.000000,0.000000,4313.205078,4293.205078,4383.077148,4356.922852,4281.282227,4275.897461,4283.846191,4263.974121,4286.025879,4263.589844,4645.641113,4557.692383,4471.153809,4586.922852,6427.000000,2.000000,50.000000,,,,0.000000,4.000000,4.000000,4.000000,4.000000,4.000000,4.000000,4.000000,4.000000,4.000000,4.000000,4.000000,4.000000,4.000000,4.000000,100.000000,,,,,,,,,,,,,,,,,,,,,,,,,,,,
1703416981.569594,1703416981.569979,96.000000,0.000000,4310.256348,4290.000000,4380.000000,4355.256348,4281.282227,4275.000000,4281.922852,4271.666504,4289.487305,4263.589844,4651.025879,4559.358887,4474.358887,4581.282227,6957.000000,2.000000,50.000000,,,,0.000000,4.000000,4.000000,4.000000,4.000000,4.000000,4.000000,4.000000,4.000000,4.000000,4.000000,4.000000,4.000000,4.000000,4.000000,100.000000,,,,,,,,,,,,,,,,,24.000000,0.000000,0.701432,0.094177,-0.665222,0.237915,0.973752,-0.177268,0.101575,-13.726373,-48.153397,66.623970
1703416981.577402,1703416981.577787,97.000000,0.000000,4308.205078,4286.410156,4373.974121,4349.615234,4282.307617,4274.230957,4282.948730,4274.487305,4284.487305,4269.102539,4650.897461,4557.563965,4467.563965,4576.922852,7471.000000,2.000000,50.000000,,,,0.000000,4.000000,4.000000,4.000000,4.000000,4.000000,4.000000,4.000000,4.000000,4.000000,4.000000,4.000000,4.000000,4.000000,4.000000,100.000000,,,,,,,,,,,,,,,,,,,,,,,,,,,,
1703416981.585210,1703416981.585696,98.000000,0.000000,4315.000000,4284.871582,4376.410156,4348.333496,4283.077148,4273.461426,4283.589844,4276.538574,4285.897461,4273.333496,4648.205078,4559.743652,4464.102539,4582.051270,6168.000000,2.000000,50.000000,,,,0.000000,4.000000,4.000000,4.000000,4.000000,4.000000,4.000000,4.000000,4.000000,4.000000,4.000000,4.000000,4.000000,4.000000,4.000000,100.000000,,,,,,,,,,,,,,,,,,,,,,,,,,,,
1703416981.593018,1703416981.593504,99.000000,0.000000,4315.641113,4286.153809,4382.820313,4349.358887,4283.974121,4280.384766,4277.948730,4286.922852,4295.641113,4272.436035,4650.384766,4563.589844,4464.487305,4580.000000,6427.000000,2.000000,50.000000,,,,0.000000,4.000000,4.000000,4.000000,4.000000,4.000000,4.000000,4.000000,4.000000,4.000000,4.000000,4.000000,4.000000,4.000000,4.000000,100.000000,,,,,,,,,,,,,,,,,,,,,,,,,,,,
1703416981.600826,1703416981.601312,100.000000,0.000000,4313.589844,4288.333496,4384.615234,4348.461426,4287.051270,4290.897461,4275.641113,4297.051270,4304.358887,4278.461426,4662.051270,4568.461426,4470.769043,4585.641113,6957.000000,2.000000,50.000000,,,,0.000000,4.000000,4.000000,4.000000,4.000000,4.000000,4.000000,4.000000,4.000000,4.000000,4.000000,4.000000,4.000000,4.000000,4.000000,100.000000,,,,,,,,,,,,,,,,,25.000000,0.000000,0.701382,0.094238,-0.665222,0.238037,0.967892,-0.181174,0.090343,-13.703735,-48.021393,66.611572
1703416981.608634,1703416981.609020,101.000000,0.000000,4318.589844,4290.641113,4385.384766,4351.025879,4292.948730,4291.922852,4276.794922,4295.512695,4305.000000,4276.153809,4663.461426,4569.615234,4474.743652,4591.794922,7471.000000,2.000000,50.000000,,,,0.000000,4.000000,4.000000,4.000000,4.000000,4.000000,4.000000,4.000000,4.000000,4.000000,4.000000,4.000000,4.000000,4.000000,4.000000,100.000000,,,,,,,,,,,,,,,,,,,,,,,,,,,,
1703416981.616442,1703416981.616928,102.000000,0.000000,4328.461426,4300.512695,4394.487305,4357.563965,4299.743652,4296.794922,4280.897461,4299.102539,4313.846191,4278.974121,4663.846191,4575.897461,4481.794922,4590.897461,6168.000000,2.000000,50.000000,,,,0.000000,4.000000,4.000000,4.000000,4.000000,4.000000,4.000000,4.000000,4.000000,4.000000,4.000000,4.000000,4.000000,4.000000,4.000000,100.000000,,,,,,,,,,,,,,,,,,,,,,,,,,,,
1703416981.624250,1703416981.624736,103.000000,0.000000,4330.769043,4303.077148,4398.974121,4355.000000,4295.000000,4300.256348,4281.282227,4300.128418,4317.692383,4288.461426,4667.436035,4577.179688,4483.846191,4590.256348,6427.000000,2.000000,50.000000,,,,0.000000,4.000000,4.000000,4.000000,4.000000,4.000000,4.000000,4.000000,4.000000,4.000000,4.000000,4.000000,4.000000,4.000000,4.000000,100.000000,,,,,,,,,,,,,,,,,,,,,,,,,,,,
1703416981.632058,1703416981.632644,104.000000,0.000000,4333.333496,4296.794922,4397.692383,4350.641113,4290.000000,4295.256348,4276.025879,4289.358887,4303.333496,4282.563965,4667.563965,4573.461426,4481.538574,4595.128418,6957.000000,2.000000,50.000000,,,,0.000000,4.000000,4.000000,4.000000,4.000000,4.000000,4.000000,4.000000,4.000000,4.000000,4.000000,4.000000,4.000000,4.000000,4.000000,100.000000,,,,,,,,,,,,,,,,,26.000000,0.000000,0.701254,0.094299,-0.665283,0.238220,0.975705,-0.196801,0.097668,-13.750029,-48.219254,66.500420
1703416981.639866,1703416981.640453,105.000000,0.000000,4339.615234,4298.717773,4398.589844,4356.025879,4296.794922,4294.230957,4275.897461,4286.794922,4300.000000,4283.717773,4668.461426,4580.128418,4487.820313,4600.897461,7471.000000,2.000000,50.000000,,,,0.000000,4.000000,4.000000,4.000000,4.000000,4.000000,4.000000,4.000000,4.000000,4.000000,4.000000,4.000000,4.000000,4.000000,4.000000,100.000000,,,,,,,,,,,,,,,,,,,,,,,,,,,,
1703416981.647674,1703416981.648361,106.000000,0.000000,4336.282227,4301.282227,4395.384766,4355.384766,4293.846191,4290.256348,4276.922852,4288.846191,4304.358887,4288.974121,4662.820313,4580.256348,4487.692383,4592.307617,6168.000000,2.000000,50.000000,,,,0.000000,4.000000,4.000000,4.000000,4.000000,4.000000,4.000000,4.000000,4.000000,4.000000,4.000000,4.000000,4.000000,4.000000,4.000000,100.000000,,,,,,,,,,,,,,,,,,,,,,,,,,,,
1703416981.655482,1703416981.656169,107.000000,0.000000,4338.205078,4301.922852,4397.948730,4355.897461,4291.538574,4284.230957,4276.666504,4290.000000,4306.794922,4285.512695,4667.563965,4582.692383,4488.077148,4593.205078,6427.000000,2.000000,50.000000,,,,0.000000,4.000000,4.000000,4.000000,4.000000,4.000000,4.000000,4.000000,4.000000,4.000000,4.000000,4.000000,4.000000,4.000000,4.000000,100.000000,,,,,,,,,,,,,,,,,,,,,,,,,,,,
1703416981.663290,1703416981.664077,108.000000,0.000000,4348.974121,4303.077148,4407.179688,4363.589844,4296.025879,4283.333496,4273.077148,4287.563965,4304.615234,4277.051270,4680.256348,4594.871582,4493.717773,4607.563965,6957.000000,2.000000,50.000000,,,,0.000000,4.000000,4.000000,4.000000,4.000000,4.000000,4.000000,4.000000,4.000000,4.000000,4.000000,4.000000,4.000000,4.000000,4.000000,100.000000,,,,,,,,,,,,,,,,,27.000000,0.000000,0.701187,0.094055,-0.665344,0.238342,0.972775,-0.187035,0.088390,-13.591693,-48.130661,66.633713
1703416981.671098,1703416981.671885,109.000000,0.000000,4350.641113,4303.333496,4409.487305,4367.051270,4291.538574,4281.025879,4272.436035,4283.333496,4296.538574,4267.948730,4676.666504,4596.282227,4491.666504,4608.846191,7471.000000,2.000000,50.000000,,,,0.000000,4.000000,4.000000,4.000000,4.000000,4.000000,4.000000,4.000000,4.000000,4.000000,4.000000,4.000000,4.000000,4.000000,4.000000,100.000000,,,,,,,,,,,,,,,,,,,,,,,,,,,,
1703416981.678906,1703416981.679594,110.000000,0.000000,4350.256348,4308.077148,4410.512695,4371.666504,4293.205078,4283.205078,4279.615234,4287.563965,4298.589844,4286.922852,4680.512695,4599.102539,4496.538574,4606.282227,6168.000000,2.000000,50.000000,,,,0.000000,4.000000,4.000000,4.000000,4.000000,4.000000,4.000000,4.000000,4.000000,4.000000,4.000000,4.000000,4.000000,4.000000,4.000000,100.000000,,,,,,,,,,,,,,,,,,,,,,,,,,,,
1703416981.686714,1703416981.687502,111.000000,0.000000,4351.282227,4306.410156,4411.153809,4372.436035,4300.256348,4290.128418,4282.948730,4291.794922,4301.538574,4303.205078,4687.051270,4605.769043,4500.769043,4607.436035,6427.000000,2.000000,50.000000,,,,0.000000,4.000000,4.000000,4.000000,4.000000,4.000000,4.000000,4.000000,4.000000,4.000000,4.000000,4.000000,4.000000,4.000000,4.000000,100.000000,,,,,,,,,,,,,,,,,,,,,,,,,,,,
1703416981.694522,1703416981.695310,112.000000,0.000000,4355.128418,4303.717773,4415.128418,4372.692383,4302.948730,4298.333496,4288.077148,4299.615234,4303.461426,4281.410156,4683.461426,4613.589844,4498.717773,4613.461426,6957.000000,2.000000,50.000000,,,,0.000000,4.000000,4.000000,4.000000,4.000000,4.000000,4.000000,4.000000,4.000000,4.000000,4.000000,4.000000,4.000000,4.000000,4.000000,100.000000,,,,,,,,,,,,,,,,,28.000000,0.000000,0.701162,0.093811,-0.665405,0.238342,0.969357,-0.193871,0.096691,-13.449190,-48.050926,66.670341
1703416981.702330,1703416981.703218,113.000000,0.000000,4352.563965,4306.282227,4418.846191,4374.743652,4302.436035,4303.205078,4295.000000,4312.179688,4310.897461,4271.025879,4683.974121,4615.641113,4498.589844,4612.307617,7471.000000,2.000000,50.000000,,,,0.000000,4.000000,4.000000,4.000000,4.000000,4.000000,4.000000,4.000000,4.000000,4.000000,4.000000,4.000000,4.000000,4.000000,4.000000,100.000000,,,,,,,,,,,,,,,,,,,,,,,,,,,,
1703416981.710138,1703416981.711026,114.000000,0.000000,4337.436035,4298.077148,4403.974121,4367.051270,4295.000000,4297.563965,4289.615234,4307.948730,4310.897461,4287.436035,4676.794922,4598.077148,4489.487305,4592.820313,6168.000000,2.000000,50.000000,,,,0.000000,4.000000,4.000000,4.000000,4.000000,4.000000,4.000000,4.000000,4.000000,4.000000,4.000000,4.000000,4.000000,4.000000,4.000000,100.000000,,,,,,,,,,,,,,,,,,,,,,,,,,,,
1703416981.717946,1703416981.718834,115.000000,0.000000,4339.230957,4298.077148,4396.794922,4363.333496,4294.487305,4298.205078,4285.897461,4303.846191,4310.512695,4288.974121,4674.871582,4595.000000,4486.922852,4594.358887,6427.000000,2.000000,50.000000,,,,0.000000,4.000000,4.000000,4.000000,4.000000,4.000000,4.000000,4.000000,4.000000,4.000000,4.000000,4.000000,4.000000,4.000000,4.000000,100.000000,,,,,,,,,,,,,,,,,,,,,,,,,,,,
1703416981.725755,1703416981.726543,116.000000,0.000000,4355.897461,4311.794922,4413.461426,4367.692383,4302.820313,4307.179688,4293.461426,4311.794922,4320.000000,4278.589844,4690.256348,4615.128418,4503.333496,4617.563965,6957.000000,2.000000,50.000000,,,,0.000000,4.000000,4.000000,4.000000,4.000000,4.000000,4.000000,4.000000,4.000000,4.000000,4.000000,4.000000,4.000000,4.000000,4.000000,100.000000,,,,,,,,,,,,,,,,,29.000000,0.000000,0.701191,0.093872,-0.665344,0.238403,0.981077,-0.190941,0.101575,-13.437604,-48.129169,66.636635
1703416981.733563,1703416981.734350,117.000000,0.000000,4359.230957,4318.461426,4422.692383,4373.333496,4309.230957,4308.333496,4296.025879,4310.384766,4324.358887,4289.871582,4698.333496,4621.282227,4516.153809,4619.358887,7471.000000,2.000000,50.000000,,,,0.000000,4.000000,4.000000,4.000000,4.000000,4.000000,4.000000,4.000000,4.000000,4.000000,4.000000,4.000000,4.000000,4.000000,4.000000,100.000000,,,,,,,,,,,,,,,,,,,,,,,,,,,,
1703416981.741371,1703416981.742059,118.000000,0.000000,4356.282227,4316.794922,4417.436035,4374.487305,4311.922852,4303.717773,4288.717773,4304.230957,4318.974121,4300.641113,4693.717773,4612.307617,4513.077148,4612.563965,6168.000000,2.000000,50.000000,,,,0.000000,4.000000,4.000000,4.000000,4.000000,4.000000,4.000000,4.000000,4.000000,4.000000,4.000000,4.000000,4.000000,4.000000,4.000000,100.000000,,,,,,,,,,,,,,,,,,,,,,,,,,,,
1703416981.749179,1703416981.749867,119.000000,0.000000,4361.666504,4315.000000,4418.205078,4366.794922,4308.717773,4300.384766,4284.102539,4299.615234,4313.717773,4288.846191,4688.589844,4608.974121,4509.743652,4620.769043,6427.000000,2.000000,50.000000,,,,0.000000,4.000000,4.000000,4.000000,4.000000,4.000000,4.000000,4.000000,4.000000,4.000000,4.000000,4.000000,4.000000,4.000000,4.000000,100.000000,,,,,,,,,,,,,,,,,,,,,,,,,,,,
1703416981.756987,1703416981.757575,120.000000,0.000000,4369.102539,4319.358887,4428.846191,4368.974121,4310.256348,4304.615234,4288.333496,4298.974121,4317.820313,4285.384766,4694.871582,4620.641113,4521.282227,4631.025879,6957.000000,2.000000,50.000000,,,,0.000000,4.000000,4.000000,4.000000,4.000000,4.000000,4.000000,4.000000,4.000000,4.000000,4.000000,4.000000,4.000000,4.000000,4.000000,100.000000,,,,,,,,,,,,,,,,,30.000000,0.000000,0.701179,0.094116,-0.665344,0.238342,0.971798,-0.191430,0.094738,-13.327177,-48.199585,66.656311
1703416981.764795,1703416981.765383,121.000000,0.000000,4362.307617,4316.538574,4426.153809,4373.589844,4313.205078,4305.641113,4289.615234,4299.615234,4317.563965,4293.333496,4694.871582,4624.230957,4520.641113,4625.256348,7471.000000,2.000000,50.000000,,,,0.000000,4.000000,4.000000,4.000000,4.000000,4.000000,4.000000,4.000000,4.000000,4.000000,4.000000,4.000000,4.000000,4.000000,4.000000,100.000000,,,,,,,,,,,,,,,,,,,,,,,,,,,,
1703416981.772603,1703416981.773091,122.000000,0.000000,4353.333496,4306.282227,4412.820313,4361.922852,4305.384766,4295.000000,4282.307617,4290.641113,4305.000000,4290.128418,4678.846191,4605.897461,4501.153809,4609.871582,6168.000000,2.000000,50.000000,,,,0.000000,4.000000,4.000000,4.000000,4.000000,4.000000,4.000000,4.000000,4.000000,4.000000,4.000000,4.000000,4.000000,4.000000,4.000000,100.000000,,,,,,,,,,,,,,,,,,,,,,,,,,,,
1703416981.780411,1703416981.780999,123.000000,0.000000,4364.743652,4307.179688,4416.153809,4357.692383,4300.256348,4288.846191,4280.384766,4288.077148,4303.205078,4292.436035,4680.512695,4606.794922,4502.692383,4612.436035,6427.000000,2.000000,50.000000,,,,0.000000,4.000000,4.000000,4.000000,4.000000,4.000000,4.000000,4.000000,4.000000,4.000000,4.000000,4.000000,4.000000,4.000000,4.000000,100.000000,,,,,,,,,,,,,,,,,,,,,,,,,,,,
1703416981.788219,1703416981.788807,124.000000,0.000000,4374.230957,4309.487305,4424.615234,4365.384766,4300.641113,4286.666504,4282.563965,4297.307617,4307.179688,4306.538574,4696.410156,4624.615234,4520.769043,4626.153809,6957.000000,2.000000,50.000000,,,,0.000000,4.000000,4.000000,4.000000,4.000000,4.000000,4.000000,4.000000,4.000000,4.000000,4.000000,4.000000,4.000000,4.000000,4.000000,100.000000,,,,,,,,,,,,,,,,,31.000000,0.000000,0.701212,0.094177,-0.665344,0.238220,0.970333,-0.190453,0.102552,-13.261127,-48.196293,66.524010
1703416981.796027,1703416981.796715,125.000000,0.000000,4362.179688,4303.461426,4418.589844,4363.846191,4299.615234,4288.205078,4283.846191,4302.563965,4305.384766,4302.051270,4693.717773,4618.846191,4517.948730,4622.307617,7471.000000,2.000000,50.000000,,,,0.000000,4.000000,4.000000,4.000000,4.000000,4.000000,4.000000,4.000000,4.000000,4.000000,4.000000,4.000000,4.000000,4.000000,4.000000,100.000000,,,,,,,,,,,,,,,,,,,,,,,,,,,,
1703416981.803835,1703416981.804523,126.000000,0.000000,4353.077148,4299.871582,4410.641113,4360.512695,4301.794922,4295.769043,4287.948730,4298.461426,4303.717773,4275.000000,4680.384766,4603.717773,4500.000000,4609.102539,6168.000000,2.000000,50.000000,,,,0.000000,4.000000,4.000000,4.000000,4.000000,4.000000,4.000000,4.000000,4.000000,4.000000,4.000000,4.000000,4.000000,4.000000,4.000000,100.000000,,,,,,,,,,,,,,,,,,,,,,,,,,,,
1703416981.811643,1703416981.812431,127.000000,0.000000,4358.589844,4301.666504,4415.256348,4368.974121,4302.563965,4299.230957,4295.256348,4300.897461,4303.589844,4268.589844,4682.051270,4608.717773,4497.436035,4608.205078,50.000000,2.000000,50.000000,,,,0.000000,4.000000,4.000000,4.000000,4.000000,4.000000,4.000000,4.000000,4.000000,4.000000,4.000000,4.000000,4.000000,4.000000,4.000000,100.000000,,,,,,,,,,,,,,,,,,,,,,,,,,,,
1703416981.819451,1703416981.820240,0.000000,0.000000,4362.692383,4304.230957,4425.769043,4375.256348,4302.563965,4303.846191,4302.948730,4314.743652,4313.589844,4284.871582,4698.205078,4629.102539,4510.769043,4621.794922,5706.000000,2.000000,50.000000,,,,0.000000,4.000000,4.000000,4.000000,4.000000,4.000000,4.000000,4.000000,4.000000,4.000000,4.000000,4.000000,4.000000,4.000000,4.000000,100.000000,,,,,,,,,,,,,,,,,0.000000,0.000000,0.701245,0.093933,-0.665344,0.238220,0.968868,-0.192895,0.111342,-13.151680,-48.193329,66.488274
1703416981.827259,1703416981.828148,1.000000,0.000000,4355.128418,4299.871582,4422.051270,4366.794922,4301.922852,4303.589844,4300.128418,4312.307617,4313.461426,4278.077148,4693.205078,4627.307617,4504.743652,4619.615234,5392.000000,2.000000,50.000000,,,,0.000000,4.000000,4.000000,4.000000,4.000000,4.000000,4.000000,4.000000,4.000000,4.000000,4.000000,4.000000,4.000000,4.000000,4.000000,100.000000,,,,,,,,,,,,,,,,,,,,,,,,,,,,
1703416981.835067,1703416981.835956,2.000000,0.000000,4357.436035,4299.102539,4417.820313,4364.743652,4302.948730,4300.256348,4294.871582,4302.948730,4301.794922,4279.743652,4681.666504,4615.384766,4495.128418,4611.025879,5392.000000,2.000000,50.000000,,,,0.000000,4.000000,4.000000,4.000000,4.000000,4.000000,4.000000,4.000000,4.000000,4.000000,4.000000,4.000000,4.000000,4.000000,4.000000,100.000000,,,,,,,,,,,,,,,,,,,,,,,,,,,,
1703416981.842875,1703416981.843864,3.000000,0.000000,4371.794922,4309.871582,4427.692383,4374.615234,4308.205078,4303.333496,4299.102539,4311.153809,4314.358887,4305.641113,4697.179688,4629.358887,4514.487305,4621.794922,5424.000000,2.000000,50.000000,,,,0.000000,4.000000,4.000000,4.000000,4.000000,4.000000,4.000000,4.000000,4.000000,4.000000,4.000000,4.000000,4.000000,4.000000,4.000000,100.000000,,,,,,,,,,,,,,,,,,,,,,,,,,,,
1703416981.850683,1703416981.851672,4.000000,0.000000,4369.358887,4307.051270,4426.153809,4370.000000,4305.256348,4296.666504,4295.256348,4309.743652,4323.846191,4300.256348,4699.743652,4631.794922,4518.717773,4620.000000,5392.000000,2.000000,50.000000,,,,0.000000,4.000000,4.000000,4.000000,4.000000,4.000000,4.000000,4.000000,4.000000,4.000000,4.000000,4.000000,4.000000,4.000000,4.000000,100.000000,,,,,,,,,,,,,,,,,1.000000,0.000000,0.701236,0.093689,-0.665344,0.238342,0.966915,-0.185570,0.102063,-13.269846,-48.273998,66.489449
