title:جمعة انذار, start timestamp:1703163407.100838, stop timestamp:1703163418.141407, headset type:EPOCX, headset serial:E50206EF, headset firmware:720, channels:67, sampling rate:eeg_128;mot_32, samples:1415      , version:2.2, 
Timestamp,OriginalTimestamp,EEG.Counter,EEG.Interpolated,EEG.AF3,EEG.F7,EEG.F3,EEG.FC5,EEG.T7,EEG.P7,EEG.O1,EEG.O2,EEG.P8,EEG.T8,EEG.FC6,EEG.F4,EEG.F8,EEG.AF4,EEG.RawCq,EEG.Battery,EEG.BatteryPercent,MarkerIndex,MarkerType,MarkerValueInt,EEG.MarkerHardware,CQ.AF3,CQ.F7,CQ.F3,CQ.FC5,CQ.T7,CQ.P7,CQ.O1,CQ.O2,CQ.P8,CQ.T8,CQ.FC6,CQ.F4,CQ.F8,CQ.AF4,CQ.Overall,EQ.SampleRateQuality,EQ.OVERALL,EQ.AF3,EQ.F7,EQ.F3,EQ.FC5,EQ.T7,EQ.P7,EQ.O1,EQ.O2,EQ.P8,EQ.T8,EQ.FC6,EQ.F4,EQ.F8,EQ.AF4,MOT.CounterMems,MOT.InterpolatedMems,MOT.Q0,MOT.Q1,MOT.Q2,MOT.Q3,MOT.AccX,MOT.AccY,MOT.AccZ,MOT.MagX,MOT.MagY,MOT.MagZ
1703163407.100838,1703163407.101822,68.000000,0.000000,4252.051270,4254.358887,4359.871582,4254.358887,4222.436035,4190.256348,4293.717773,4226.922852,4234.230957,4212.307617,4765.641113,4548.461426,4511.410156,4669.487305,4918.000000,3.000000,74.000000,,,,0.000000,4.000000,4.000000,4.000000,4.000000,4.000000,4.000000,4.000000,4.000000,4.000000,4.000000,4.000000,4.000000,4.000000,4.000000,100.000000,,,,,,,,,,,,,,,,,17.000000,0.000000,0.716682,0.023621,-0.675476,0.171875,0.965938,-0.181663,0.077158,-12.259673,-43.802246,65.618042
1703163407.108647,1703163407.109530,69.000000,0.000000,4243.974121,4245.769043,4359.615234,4250.000000,4220.769043,4189.743652,4292.948730,4231.025879,4233.333496,4207.051270,4766.282227,4548.461426,4506.538574,4657.307617,4996.000000,3.000000,74.000000,,,,0.000000,4.000000,4.000000,4.000000,4.000000,4.000000,4.000000,4.000000,4.000000,4.000000,4.000000,4.000000,4.000000,4.000000,4.000000,100.000000,,,,,,,,,,,,,,,,,,,,,,,,,,,,
1703163407.116454,1703163407.117338,70.000000,0.000000,4245.512695,4245.769043,4358.717773,4272.051270,4222.692383,4196.410156,4294.487305,4233.461426,4232.436035,4207.563965,4764.871582,4546.538574,4509.358887,4666.666504,2468.000000,3.000000,74.000000,,,,0.000000,4.000000,4.000000,4.000000,4.000000,4.000000,4.000000,4.000000,4.000000,4.000000,4.000000,4.000000,4.000000,4.000000,4.000000,100.000000,,,,,,,,,,,,,,,,,,,,,,,,,,,,
1703163407.124262,1703163407.125047,71.000000,0.000000,4236.410156,4245.000000,4352.820313,4266.666504,4217.948730,4191.282227,4292.051270,4235.512695,4236.025879,4207.307617,4764.743652,4544.743652,4511.025879,4661.794922,4408.000000,3.000000,74.000000,,,,0.000000,4.000000,4.000000,4.000000,4.000000,4.000000,4.000000,4.000000,4.000000,4.000000,4.000000,4.000000,4.000000,4.000000,4.000000,100.000000,,,,,,,,,,,,,,,,,,,,,,,,,,,,
1703163407.132071,1703163407.132855,72.000000,0.000000,4235.641113,4246.538574,4353.077148,4252.948730,4214.230957,4184.487305,4288.461426,4242.436035,4244.615234,4201.025879,4765.128418,4549.230957,4516.410156,4647.563965,5148.000000,3.000000,74.000000,,,,0.000000,4.000000,4.000000,4.000000,4.000000,4.000000,4.000000,4.000000,4.000000,4.000000,4.000000,4.000000,4.000000,4.000000,4.000000,100.000000,,,,,,,,,,,,,,,,,18.000000,0.000000,0.716667,0.023621,-0.675476,0.171936,0.969357,-0.200708,0.084483,-12.233706,-43.872021,65.656242
1703163407.139879,1703163407.140563,73.000000,0.000000,4241.410156,4241.153809,4358.461426,4263.846191,4219.102539,4187.179688,4287.820313,4245.256348,4248.589844,4209.230957,4766.666504,4554.102539,4517.948730,4657.436035,5332.000000,3.000000,74.000000,,,,0.000000,4.000000,4.000000,4.000000,4.000000,4.000000,4.000000,4.000000,4.000000,4.000000,4.000000,4.000000,4.000000,4.000000,4.000000,100.000000,,,,,,,,,,,,,,,,,,,,,,,,,,,,
1703163407.147687,1703163407.148471,74.000000,0.000000,4234.615234,4221.922852,4359.358887,4265.000000,4219.230957,4185.512695,4286.922852,4237.563965,4240.000000,4217.692383,4766.922852,4553.974121,4510.256348,4663.077148,5647.000000,3.000000,74.000000,,,,0.000000,4.000000,4.000000,4.000000,4.000000,4.000000,4.000000,4.000000,4.000000,4.000000,4.000000,4.000000,4.000000,4.000000,4.000000,100.000000,,,,,,,,,,,,,,,,,,,,,,,,,,,,
1703163407.155495,1703163407.156279,75.000000,0.000000,4237.179688,4228.974121,4362.179688,4260.641113,4221.410156,4184.871582,4286.794922,4226.282227,4228.974121,4203.846191,4760.897461,4551.025879,4505.256348,4653.589844,5983.000000,3.000000,74.000000,,,,0.000000,4.000000,4.000000,4.000000,4.000000,4.000000,4.000000,4.000000,4.000000,4.000000,4.000000,4.000000,4.000000,4.000000,4.000000,100.000000,,,,,,,,,,,,,,,,,,,,,,,,,,,,
1703163407.163303,1703163407.164187,76.000000,0.000000,4251.666504,4260.897461,4364.871582,4275.641113,4225.000000,4187.692383,4284.230957,4216.794922,4217.948730,4186.282227,4746.666504,4543.333496,4498.333496,4655.256348,6302.000000,3.000000,74.000000,,,,0.000000,4.000000,4.000000,4.000000,4.000000,4.000000,4.000000,4.000000,4.000000,4.000000,4.000000,4.000000,4.000000,4.000000,4.000000,100.000000,,,,,,,,,,,,,,,,,19.000000,0.000000,0.716614,0.023499,-0.675537,0.171936,0.977658,-0.199243,0.080576,-12.227002,-43.884819,65.873947
1703163407.171111,1703163407.171995,77.000000,0.000000,4249.871582,4272.307617,4357.563965,4282.948730,4217.820313,4187.307617,4279.615234,4210.769043,4204.102539,4181.538574,4732.820313,4533.333496,4475.512695,4659.230957,5960.000000,3.000000,74.000000,,,,0.000000,4.000000,4.000000,4.000000,4.000000,4.000000,4.000000,4.000000,4.000000,4.000000,4.000000,4.000000,4.000000,4.000000,4.000000,100.000000,,,,,,,,,,,,,,,,,,,,,,,,,,,,
1703163407.178919,1703163407.179903,78.000000,0.000000,4234.358887,4271.538574,4354.358887,4275.256348,4218.205078,4186.794922,4280.256348,4207.179688,4197.948730,4182.563965,4729.230957,4531.153809,4460.128418,4646.794922,5647.000000,3.000000,74.000000,,,,0.000000,4.000000,4.000000,4.000000,4.000000,4.000000,4.000000,4.000000,4.000000,4.000000,4.000000,4.000000,4.000000,4.000000,4.000000,100.000000,,,,,,,,,,,,,,,,,,,,,,,,,,,,
1703163407.186727,1703163407.187712,79.000000,0.000000,4231.410156,4286.153809,4360.769043,4284.487305,4222.179688,4186.025879,4283.333496,4208.205078,4204.871582,4185.897461,4735.512695,4536.538574,4468.974121,4641.666504,5983.000000,3.000000,74.000000,,,,0.000000,4.000000,4.000000,4.000000,4.000000,4.000000,4.000000,4.000000,4.000000,4.000000,4.000000,4.000000,4.000000,4.000000,4.000000,100.000000,,,,,,,,,,,,,,,,,,,,,,,,,,,,
1703163407.194535,1703163407.195520,80.000000,0.000000,4240.769043,4293.333496,4359.615234,4283.077148,4213.589844,4184.230957,4280.641113,4211.410156,4212.820313,4190.128418,4742.051270,4538.717773,4474.358887,4641.282227,6302.000000,3.000000,74.000000,,,,0.000000,4.000000,4.000000,4.000000,4.000000,4.000000,4.000000,4.000000,4.000000,4.000000,4.000000,4.000000,4.000000,4.000000,4.000000,100.000000,,,,,,,,,,,,,,,,,20.000000,0.000000,0.716620,0.023315,-0.675537,0.171936,0.976682,-0.203638,0.074716,-12.170968,-44.096336,65.786552
1703163407.202343,1703163407.203228,81.000000,0.000000,4250.128418,4292.563965,4359.871582,4261.922852,4219.358887,4187.051270,4277.948730,4216.282227,4220.256348,4191.025879,4748.717773,4540.512695,4475.641113,4643.846191,5960.000000,3.000000,74.000000,,,,0.000000,4.000000,4.000000,4.000000,4.000000,4.000000,4.000000,4.000000,4.000000,4.000000,4.000000,4.000000,4.000000,4.000000,4.000000,100.000000,,,,,,,,,,,,,,,,,,,,,,,,,,,,
1703163407.210151,1703163407.211036,82.000000,0.000000,4255.897461,4302.948730,4369.487305,4283.589844,4235.512695,4190.384766,4279.487305,4224.230957,4230.512695,4201.410156,4754.358887,4543.974121,4488.846191,4670.000000,5647.000000,3.000000,74.000000,,,,0.000000,4.000000,4.000000,4.000000,4.000000,4.000000,4.000000,4.000000,4.000000,4.000000,4.000000,4.000000,4.000000,4.000000,4.000000,100.000000,,,,,,,,,,,,,,,,,,,,,,,,,,,,
1703163407.217959,1703163407.218744,83.000000,0.000000,4254.871582,4303.717773,4367.436035,4312.692383,4225.897461,4183.846191,4278.846191,4232.820313,4235.384766,4202.692383,4749.743652,4544.230957,4491.282227,4678.333496,5983.000000,3.000000,74.000000,,,,0.000000,4.000000,4.000000,4.000000,4.000000,4.000000,4.000000,4.000000,4.000000,4.000000,4.000000,4.000000,4.000000,4.000000,4.000000,100.000000,,,,,,,,,,,,,,,,,,,,,,,,,,,,
1703163407.225767,1703163407.226652,84.000000,0.000000,4248.846191,4295.000000,4357.820313,4286.794922,4212.436035,4177.307617,4276.794922,4235.641113,4234.743652,4189.743652,4743.974121,4542.307617,4477.179688,4654.871582,6302.000000,3.000000,74.000000,,,,0.000000,4.000000,4.000000,4.000000,4.000000,4.000000,4.000000,4.000000,4.000000,4.000000,4.000000,4.000000,4.000000,4.000000,4.000000,100.000000,,,,,,,,,,,,,,,,,21.000000,0.000000,0.716616,0.023438,-0.675537,0.171936,0.978147,-0.183128,0.076670,-12.187205,-44.136703,65.807899
1703163407.233575,1703163407.234460,85.000000,0.000000,4246.282227,4293.846191,4361.794922,4272.692383,4214.358887,4179.487305,4277.051270,4233.205078,4232.948730,4190.512695,4745.897461,4546.666504,4475.897461,4650.769043,5960.000000,3.000000,74.000000,,,,0.000000,4.000000,4.000000,4.000000,4.000000,4.000000,4.000000,4.000000,4.000000,4.000000,4.000000,4.000000,4.000000,4.000000,4.000000,100.000000,,,,,,,,,,,,,,,,,,,,,,,,,,,,
1703163407.241383,1703163407.242368,86.000000,0.000000,4248.589844,4289.743652,4372.563965,4292.692383,4217.948730,4183.974121,4275.512695,4233.589844,4231.538574,4199.871582,4753.205078,4555.000000,4494.358887,4669.102539,5647.000000,3.000000,74.000000,,,,0.000000,4.000000,4.000000,4.000000,4.000000,4.000000,4.000000,4.000000,4.000000,4.000000,4.000000,4.000000,4.000000,4.000000,4.000000,100.000000,,,,,,,,,,,,,,,,,,,,,,,,,,,,
1703163407.249191,1703163407.250176,87.000000,0.000000,4249.487305,4270.256348,4371.025879,4286.410156,4214.615234,4179.487305,4272.307617,4232.948730,4228.205078,4197.179688,4762.179688,4554.615234,4501.794922,4672.820313,5983.000000,3.000000,74.000000,,,,0.000000,4.000000,4.000000,4.000000,4.000000,4.000000,4.000000,4.000000,4.000000,4.000000,4.000000,4.000000,4.000000,4.000000,4.000000,100.000000,,,,,,,,,,,,,,,,,,,,,,,,,,,,
1703163407.256999,1703163407.258085,88.000000,0.000000,4246.922852,4246.922852,4361.410156,4270.769043,4208.205078,4171.666504,4271.153809,4227.436035,4221.282227,4186.666504,4759.615234,4547.692383,4493.974121,4665.256348,6302.000000,3.000000,74.000000,,,,0.000000,4.000000,4.000000,4.000000,4.000000,4.000000,4.000000,4.000000,4.000000,4.000000,4.000000,4.000000,4.000000,4.000000,4.000000,100.000000,,,,,,,,,,,,,,,,,22.000000,0.000000,0.716571,0.023499,-0.675598,0.171875,0.964473,-0.198266,0.078135,-12.251818,-44.139698,65.777107
1703163407.264807,1703163407.265893,89.000000,0.000000,4247.692383,4235.384766,4360.641113,4283.589844,4207.692383,4175.769043,4270.769043,4218.461426,4208.461426,4184.487305,4751.410156,4542.948730,4496.410156,4656.794922,5960.000000,3.000000,74.000000,,,,0.000000,4.000000,4.000000,4.000000,4.000000,4.000000,4.000000,4.000000,4.000000,4.000000,4.000000,4.000000,4.000000,4.000000,4.000000,100.000000,1.000000,100.000000,4.000000,4.000000,4.000000,4.000000,4.000000,4.000000,4.000000,4.000000,4.000000,4.000000,4.000000,4.000000,4.000000,4.000000,,,,,,,,,,,,
1703163407.272615,1703163407.273801,90.000000,0.000000,4248.333496,4229.871582,4366.794922,4283.846191,4217.307617,4185.641113,4271.538574,4207.307617,4200.128418,4188.589844,4757.179688,4542.692383,4508.846191,4649.358887,5647.000000,3.000000,74.000000,,,,0.000000,4.000000,4.000000,4.000000,4.000000,4.000000,4.000000,4.000000,4.000000,4.000000,4.000000,4.000000,4.000000,4.000000,4.000000,100.000000,,,,,,,,,,,,,,,,,,,,,,,,,,,,
1703163407.280423,1703163407.281609,91.000000,0.000000,4241.794922,4218.461426,4366.922852,4268.717773,4221.538574,4188.461426,4275.512695,4202.820313,4199.487305,4192.820313,4764.743652,4544.102539,4511.282227,4653.974121,5983.000000,3.000000,74.000000,,,,0.000000,4.000000,4.000000,4.000000,4.000000,4.000000,4.000000,4.000000,4.000000,4.000000,4.000000,4.000000,4.000000,4.000000,4.000000,100.000000,,,,,,,,,,,,,,,,,,,,,,,,,,,,
1703163407.288231,1703163407.289417,92.000000,0.000000,4237.436035,4206.153809,4366.794922,4275.256348,4212.948730,4186.538574,4280.000000,4209.358887,4200.641113,4189.487305,4761.282227,4547.051270,4505.384766,4659.615234,6302.000000,3.000000,74.000000,,,,0.000000,4.000000,4.000000,4.000000,4.000000,4.000000,4.000000,4.000000,4.000000,4.000000,4.000000,4.000000,4.000000,4.000000,4.000000,100.000000,,,,,,,,,,,,,,,,,23.000000,0.000000,0.716511,0.023560,-0.675659,0.171875,0.947381,-0.198266,0.088390,-12.159969,-43.992397,65.782730
1703163407.296039,1703163407.297325,93.000000,0.000000,4237.179688,4212.179688,4370.641113,4269.358887,4210.256348,4187.179688,4281.410156,4216.538574,4206.153809,4182.563965,4761.410156,4550.128418,4507.820313,4655.256348,5960.000000,3.000000,74.000000,,,,0.000000,4.000000,4.000000,4.000000,4.000000,4.000000,4.000000,4.000000,4.000000,4.000000,4.000000,4.000000,4.000000,4.000000,4.000000,100.000000,,,,,,,,,,,,,,,,,,,,,,,,,,,,
1703163407.303847,1703163407.305134,94.000000,0.000000,4237.563965,4221.282227,4367.179688,4248.205078,4218.077148,4189.743652,4278.205078,4218.717773,4213.461426,4189.743652,4762.948730,4547.820313,4509.358887,4647.436035,5647.000000,3.000000,74.000000,,,,0.000000,4.000000,4.000000,4.000000,4.000000,4.000000,4.000000,4.000000,4.000000,4.000000,4.000000,4.000000,4.000000,4.000000,4.000000,100.000000,,,,,,,,,,,,,,,,,,,,,,,,,,,,
1703163407.311655,1703163407.312942,95.000000,0.000000,4240.641113,4210.128418,4361.794922,4259.615234,4214.487305,4187.820313,4276.922852,4223.461426,4218.077148,4201.922852,4760.128418,4541.282227,4504.871582,4646.666504,5983.000000,3.000000,74.000000,,,,0.000000,4.000000,4.000000,4.000000,4.000000,4.000000,4.000000,4.000000,4.000000,4.000000,4.000000,4.000000,4.000000,4.000000,4.000000,100.000000,,,,,,,,,,,,,,,,,,,,,,,,,,,,
1703163407.319464,1703163407.320650,96.000000,0.000000,4240.641113,4198.846191,4362.307617,4282.307617,4200.769043,4179.871582,4276.153809,4231.025879,4226.666504,4203.461426,4765.641113,4540.384766,4505.897461,4653.846191,6302.000000,3.000000,74.000000,,,,0.000000,4.000000,4.000000,4.000000,4.000000,4.000000,4.000000,4.000000,4.000000,4.000000,4.000000,4.000000,4.000000,4.000000,4.000000,100.000000,,,,,,,,,,,,,,,,,24.000000,0.000000,0.716587,0.023438,-0.675537,0.172058,0.967403,-0.212917,0.083506,-12.077306,-44.026489,65.787788
1703163407.327272,1703163407.328458,97.000000,0.000000,4235.641113,4201.025879,4363.974121,4276.922852,4203.717773,4177.563965,4275.128418,4232.692383,4236.282227,4200.000000,4771.666504,4548.077148,4509.358887,4659.358887,5960.000000,3.000000,74.000000,,,,0.000000,4.000000,4.000000,4.000000,4.000000,4.000000,4.000000,4.000000,4.000000,4.000000,4.000000,4.000000,4.000000,4.000000,4.000000,100.000000,,,,,,,,,,,,,,,,,,,,,,,,,,,,
1703163407.335080,1703163407.336166,98.000000,0.000000,4234.487305,4198.974121,4367.948730,4269.615234,4213.333496,4181.922852,4272.820313,4233.205078,4237.307617,4200.897461,4769.487305,4553.717773,4511.538574,4654.487305,5647.000000,3.000000,74.000000,,,,0.000000,4.000000,4.000000,4.000000,4.000000,4.000000,4.000000,4.000000,4.000000,4.000000,4.000000,4.000000,4.000000,4.000000,4.000000,100.000000,,,,,,,,,,,,,,,,,,,,,,,,,,,,
1703163407.342888,1703163407.343974,99.000000,0.000000,4238.333496,4190.512695,4371.538574,4278.333496,4204.358887,4177.179688,4270.384766,4232.820313,4232.820313,4207.179688,4767.948730,4554.230957,4511.794922,4642.051270,5983.000000,3.000000,74.000000,,,,0.000000,4.000000,4.000000,4.000000,4.000000,4.000000,4.000000,4.000000,4.000000,4.000000,4.000000,4.000000,4.000000,4.000000,4.000000,100.000000,,,,,,,,,,,,,,,,,,,,,,,,,,,,
1703163407.350696,1703163407.351682,100.000000,0.000000,4234.487305,4187.051270,4369.871582,4280.000000,4195.641113,4168.974121,4265.512695,4224.230957,4224.743652,4203.589844,4761.922852,4552.179688,4508.717773,4643.589844,6302.000000,3.000000,74.000000,,,,0.000000,4.000000,4.000000,4.000000,4.000000,4.000000,4.000000,4.000000,4.000000,4.000000,4.000000,4.000000,4.000000,4.000000,4.000000,100.000000,,,,,,,,,,,,,,,,,25.000000,0.000000,0.716597,0.023071,-0.675476,0.172302,0.972287,-0.200220,0.081553,-12.286242,-43.990509,65.842346
1703163407.358504,1703163407.359490,101.000000,0.000000,4226.794922,4185.512695,4367.563965,4269.871582,4199.358887,4166.922852,4262.051270,4212.051270,4205.000000,4179.615234,4753.333496,4547.692383,4500.384766,4657.820313,5960.000000,3.000000,74.000000,,,,0.000000,4.000000,4.000000,4.000000,4.000000,4.000000,4.000000,4.000000,4.000000,4.000000,4.000000,4.000000,4.000000,4.000000,4.000000,100.000000,,,,,,,,,,,,,,,,,,,,,,,,,,,,
1703163407.366312,1703163407.367198,102.000000,0.000000,4228.461426,4184.487305,4364.871582,4258.589844,4207.307617,4175.000000,4263.589844,4197.820313,4184.615234,4166.410156,4751.794922,4542.051270,4498.974121,4657.563965,5647.000000,3.000000,74.000000,,,,0.000000,4.000000,4.000000,4.000000,4.000000,4.000000,4.000000,4.000000,4.000000,4.000000,4.000000,4.000000,4.000000,4.000000,4.000000,100.000000,,,,,,,,,,,,,,,,,,,,,,,,,,,,
1703163407.374120,1703163407.375006,103.000000,0.000000,4228.846191,4186.025879,4357.051270,4261.410156,4209.358887,4181.410156,4263.974121,4185.000000,4175.512695,4181.025879,4745.000000,4533.589844,4501.025879,4639.102539,5983.000000,3.000000,74.000000,,,,0.000000,4.000000,4.000000,4.000000,4.000000,4.000000,4.000000,4.000000,4.000000,4.000000,4.000000,4.000000,4.000000,4.000000,4.000000,100.000000,,,,,,,,,,,,,,,,,,,,,,,,,,,,
1703163407.381928,1703163407.382714,104.000000,0.000000,4224.102539,4179.358887,4351.282227,4277.948730,4201.922852,4181.922852,4263.717773,4188.717773,4181.153809,4190.641113,4737.692383,4528.589844,4495.128418,4632.307617,6302.000000,3.000000,74.000000,,,,0.000000,4.000000,4.000000,4.000000,4.000000,4.000000,4.000000,4.000000,4.000000,4.000000,4.000000,4.000000,4.000000,4.000000,4.000000,100.000000,,,,,,,,,,,,,,,,,26.000000,0.000000,0.716556,0.023010,-0.675537,0.172241,0.971310,-0.204615,0.069833,-12.140951,-44.024792,65.874779
1703163407.389736,1703163407.390522,105.000000,0.000000,4221.922852,4166.922852,4354.230957,4283.333496,4201.282227,4186.666504,4266.922852,4208.974121,4200.897461,4184.102539,4752.436035,4534.230957,4494.743652,4643.077148,5960.000000,3.000000,74.000000,,,,0.000000,4.000000,4.000000,4.000000,4.000000,4.000000,4.000000,4.000000,4.000000,4.000000,4.000000,4.000000,4.000000,4.000000,4.000000,100.000000,,,,,,,,,,,,,,,,,,,,,,,,,,,,
1703163407.397544,1703163407.398230,106.000000,0.000000,4221.410156,4168.205078,4356.666504,4272.307617,4212.563965,4192.307617,4268.846191,4220.512695,4218.205078,4182.307617,4768.077148,4538.846191,4505.512695,4640.256348,5647.000000,3.000000,74.000000,,,,0.000000,4.000000,4.000000,4.000000,4.000000,4.000000,4.000000,4.000000,4.000000,4.000000,4.000000,4.000000,4.000000,4.000000,4.000000,100.000000,,,,,,,,,,,,,,,,,,,,,,,,,,,,
1703163407.405352,1703163407.406038,107.000000,0.000000,4216.282227,4173.974121,4345.641113,4258.846191,4207.307617,4186.410156,4265.769043,4218.717773,4222.307617,4184.230957,4757.179688,4531.794922,4506.153809,4616.025879,5983.000000,3.000000,74.000000,,,,0.000000,4.000000,4.000000,4.000000,4.000000,4.000000,4.000000,4.000000,4.000000,4.000000,4.000000,4.000000,4.000000,4.000000,4.000000,100.000000,,,,,,,,,,,,,,,,,,,,,,,,,,,,
1703163407.413160,1703163407.413746,108.000000,0.000000,4206.282227,4163.077148,4336.794922,4260.128418,4191.794922,4180.128418,4262.563965,4222.948730,4223.974121,4188.077148,4742.820313,4525.512695,4491.794922,4606.538574,6302.000000,3.000000,74.000000,,,,0.000000,4.000000,4.000000,4.000000,4.000000,4.000000,4.000000,4.000000,4.000000,4.000000,4.000000,4.000000,4.000000,4.000000,4.000000,100.000000,,,,,,,,,,,,,,,,,27.000000,0.000000,0.716350,0.023193,-0.675781,0.172119,0.957636,-0.197778,0.090343,-11.993523,-44.072311,65.753967
1703163407.420968,1703163407.421654,109.000000,0.000000,4203.974121,4153.461426,4344.358887,4276.025879,4194.871582,4186.538574,4261.666504,4235.512695,4235.897461,4200.384766,4749.487305,4533.333496,4490.128418,4627.563965,5960.000000,3.000000,74.000000,,,,0.000000,4.000000,4.000000,4.000000,4.000000,4.000000,4.000000,4.000000,4.000000,4.000000,4.000000,4.000000,4.000000,4.000000,4.000000,100.000000,,,,,,,,,,,,,,,,,,,,,,,,,,,,
1703163407.428776,1703163407.429462,110.000000,0.000000,4217.563965,4161.538574,4351.282227,4278.717773,4202.563965,4190.128418,4258.589844,4242.692383,4245.641113,4212.948730,4764.102539,4543.205078,4503.077148,4647.692383,5647.000000,3.000000,74.000000,,,,0.000000,4.000000,4.000000,4.000000,4.000000,4.000000,4.000000,4.000000,4.000000,4.000000,4.000000,4.000000,4.000000,4.000000,4.000000,100.000000,,,,,,,,,,,,,,,,,,,,,,,,,,,,
1703163407.436584,1703163407.437371,111.000000,0.000000,4232.051270,4168.205078,4353.717773,4263.846191,4197.692383,4182.948730,4255.512695,4239.487305,4237.051270,4216.794922,4767.563965,4544.743652,4510.769043,4650.769043,5983.000000,3.000000,74.000000,,,,0.000000,4.000000,4.000000,4.000000,4.000000,4.000000,4.000000,4.000000,4.000000,4.000000,4.000000,4.000000,4.000000,4.000000,4.000000,100.000000,,,,,,,,,,,,,,,,,,,,,,,,,,,,
1703163407.444392,1703163407.445179,112.000000,0.000000,4231.794922,4170.384766,4363.846191,4270.000000,4200.000000,4175.000000,4252.563965,4232.820313,4224.615234,4206.922852,4767.436035,4549.230957,4510.897461,4651.153809,6302.000000,3.000000,74.000000,,,,0.000000,4.000000,4.000000,4.000000,4.000000,4.000000,4.000000,4.000000,4.000000,4.000000,4.000000,4.000000,4.000000,4.000000,4.000000,100.000000,,,,,,,,,,,,,,,,,28.000000,0.000000,0.716278,0.023621,-0.675842,0.172119,0.961055,-0.198266,0.083995,-11.860837,-43.998413,65.778572
1703163407.452200,1703163407.453087,113.000000,0.000000,4237.563965,4181.153809,4376.025879,4297.820313,4210.000000,4172.436035,4250.128418,4225.384766,4217.436035,4196.538574,4774.102539,4557.436035,4515.897461,4655.641113,5960.000000,3.000000,74.000000,,,,0.000000,4.000000,4.000000,4.000000,4.000000,4.000000,4.000000,4.000000,4.000000,4.000000,4.000000,4.000000,4.000000,4.000000,4.000000,100.000000,,,,,,,,,,,,,,,,,,,,,,,,,,,,
1703163407.460008,1703163407.460895,114.000000,0.000000,4251.025879,4190.384766,4381.282227,4305.897461,4207.692383,4172.948730,4249.102539,4212.436035,4207.692383,4199.102539,4775.512695,4558.974121,4522.436035,4664.871582,5647.000000,3.000000,74.000000,,,,0.000000,4.000000,4.000000,4.000000,4.000000,4.000000,4.000000,4.000000,4.000000,4.000000,4.000000,4.000000,4.000000,4.000000,4.000000,100.000000,,,,,,,,,,,,,,,,,,,,,,,,,,,,
1703163407.467816,1703163407.468603,115.000000,0.000000,4247.692383,4192.436035,4387.563965,4296.025879,4208.333496,4174.358887,4251.025879,4200.769043,4198.461426,4203.717773,4769.358887,4557.692383,4523.717773,4672.820313,5983.000000,3.000000,74.000000,,,,0.000000,4.000000,4.000000,4.000000,4.000000,4.000000,4.000000,4.000000,4.000000,4.000000,4.000000,4.000000,4.000000,4.000000,4.000000,100.000000,,,,,,,,,,,,,,,,,,,,,,,,,,,,
1703163407.475624,1703163407.476412,116.000000,0.000000,4242.436035,4196.922852,4384.102539,4300.641113,4219.358887,4181.538574,4256.153809,4195.897461,4191.666504,4203.077148,4763.461426,4553.974121,4524.230957,4657.948730,6302.000000,3.000000,74.000000,,,,0.000000,4.000000,4.000000,4.000000,4.000000,4.000000,4.000000,4.000000,4.000000,4.000000,4.000000,4.000000,4.000000,4.000000,4.000000,100.000000,,,,,,,,,,,,,,,,,29.000000,0.000000,0.716402,0.023804,-0.675720,0.172058,0.963008,-0.206568,0.077158,-11.774754,-44.098572,65.967377
1703163407.483432,1703163407.484120,117.000000,0.000000,4235.256348,4194.230957,4356.922852,4300.256348,4211.153809,4187.179688,4259.358887,4196.282227,4187.692383,4195.897461,4752.436035,4537.051270,4515.512695,4623.333496,5960.000000,3.000000,74.000000,,,,0.000000,4.000000,4.000000,4.000000,4.000000,4.000000,4.000000,4.000000,4.000000,4.000000,4.000000,4.000000,4.000000,4.000000,4.000000,100.000000,,,,,,,,,,,,,,,,,,,,,,,,,,,,
1703163407.491240,1703163407.491928,118.000000,0.000000,4221.025879,4183.333496,4336.282227,4281.922852,4197.436035,4187.307617,4261.922852,4205.512695,4196.794922,4193.077148,4744.871582,4522.692383,4503.461426,4618.077148,5647.000000,3.000000,74.000000,,,,0.000000,4.000000,4.000000,4.000000,4.000000,4.000000,4.000000,4.000000,4.000000,4.000000,4.000000,4.000000,4.000000,4.000000,4.000000,100.000000,,,,,,,,,,,,,,,,,,,,,,,,,,,,
1703163407.499048,1703163407.499636,119.000000,0.000000,4214.102539,4177.051270,4337.820313,4276.025879,4198.589844,4185.256348,4262.051270,4218.974121,4215.384766,4197.179688,4745.769043,4524.358887,4500.769043,4638.846191,5983.000000,3.000000,74.000000,,,,0.000000,4.000000,4.000000,4.000000,4.000000,4.000000,4.000000,4.000000,4.000000,4.000000,4.000000,4.000000,4.000000,4.000000,4.000000,100.000000,,,,,,,,,,,,,,,,,,,,,,,,,,,,
1703163407.506857,1703163407.507444,120.000000,0.000000,4209.230957,4171.282227,4334.871582,4273.205078,4203.333496,4182.051270,4256.666504,4219.358887,4221.666504,4194.358887,4739.871582,4522.820313,4497.948730,4627.179688,6302.000000,3.000000,74.000000,,,,0.000000,4.000000,4.000000,4.000000,4.000000,4.000000,4.000000,4.000000,4.000000,4.000000,4.000000,4.000000,4.000000,4.000000,4.000000,100.000000,,,,,,,,,,,,,,,,,30.000000,0.000000,0.716419,0.023743,-0.675720,0.171997,0.984984,-0.205103,0.079111,-11.730611,-44.288715,65.953972
1703163407.514665,1703163407.515152,121.000000,0.000000,4198.846191,4162.820313,4320.128418,4253.205078,4205.384766,4175.769043,4247.820313,4213.717773,4213.974121,4181.666504,4728.589844,4514.102539,4482.179688,4601.410156,5960.000000,3.000000,74.000000,,,,0.000000,4.000000,4.000000,4.000000,4.000000,4.000000,4.000000,4.000000,4.000000,4.000000,4.000000,4.000000,4.000000,4.000000,4.000000,100.000000,,,,,,,,,,,,,,,,,,,,,,,,,,,,
1703163407.522473,1703163407.522960,122.000000,0.000000,4202.820313,4165.512695,4322.820313,4254.871582,4201.538574,4170.897461,4245.256348,4218.974121,4210.769043,4182.436035,4732.307617,4518.333496,4477.692383,4612.692383,5647.000000,3.000000,74.000000,,,,0.000000,4.000000,4.000000,4.000000,4.000000,4.000000,4.000000,4.000000,4.000000,4.000000,4.000000,4.000000,4.000000,4.000000,4.000000,100.000000,,,,,,,,,,,,,,,,,,,,,,,,,,,,
1703163407.530280,1703163407.530668,123.000000,0.000000,4220.000000,4175.897461,4342.436035,4282.307617,4194.487305,4169.487305,4248.846191,4222.436035,4214.358887,4195.897461,4746.282227,4534.487305,4496.666504,4632.692383,5983.000000,3.000000,74.000000,,,,0.000000,4.000000,4.000000,4.000000,4.000000,4.000000,4.000000,4.000000,4.000000,4.000000,4.000000,4.000000,4.000000,4.000000,4.000000,100.000000,,,,,,,,,,,,,,,,,,,,,,,,,,,,
1703163407.538089,1703163407.538476,124.000000,0.000000,4224.102539,4178.974121,4351.794922,4285.512695,4196.025879,4163.461426,4248.333496,4218.974121,4215.256348,4195.769043,4756.410156,4543.974121,4506.794922,4633.717773,6302.000000,3.000000,74.000000,,,,0.000000,4.000000,4.000000,4.000000,4.000000,4.000000,4.000000,4.000000,4.000000,4.000000,4.000000,4.000000,4.000000,4.000000,4.000000,100.000000,,,,,,,,,,,,,,,,,31.000000,0.000000,0.716450,0.023682,-0.675720,0.171875,0.972287,-0.202173,0.083995,-11.824217,-44.209843,65.975243
1703163407.545897,1703163407.546184,125.000000,0.000000,4230.769043,4185.384766,4360.000000,4273.589844,4201.666504,4159.102539,4242.820313,4218.846191,4207.692383,4190.256348,4763.461426,4547.820313,4504.358887,4635.000000,5960.000000,3.000000,74.000000,,,,0.000000,4.000000,4.000000,4.000000,4.000000,4.000000,4.000000,4.000000,4.000000,4.000000,4.000000,4.000000,4.000000,4.000000,4.000000,100.000000,,,,,,,,,,,,,,,,,,,,,,,,,,,,
1703163407.553705,1703163407.553992,126.000000,0.000000,4251.922852,4198.974121,4377.179688,4282.948730,4196.794922,4161.410156,4241.153809,4213.333496,4195.128418,4195.769043,4769.871582,4555.897461,4514.871582,4651.666504,5647.000000,3.000000,74.000000,,,,0.000000,4.000000,4.000000,4.000000,4.000000,4.000000,4.000000,4.000000,4.000000,4.000000,4.000000,4.000000,4.000000,4.000000,4.000000,100.000000,,,,,,,,,,,,,,,,,,,,,,,,,,,,
1703163407.561513,1703163407.561700,127.000000,0.000000,4263.205078,4201.153809,4382.820313,4301.794922,4188.846191,4160.256348,4246.922852,4202.307617,4186.794922,4208.717773,4770.897461,4559.615234,4530.384766,4671.025879,74.000000,3.000000,74.000000,,,,0.000000,4.000000,4.000000,4.000000,4.000000,4.000000,4.000000,4.000000,4.000000,4.000000,4.000000,4.000000,4.000000,4.000000,4.000000,100.000000,,,,,,,,,,,,,,,,,,,,,,,,,,,,
1703163407.569321,1703163407.569508,0.000000,0.000000,4256.153809,4193.589844,4368.974121,4306.282227,4190.641113,4160.769043,4251.794922,4199.102539,4188.205078,4207.563965,4766.153809,4548.846191,4523.974121,4667.307617,5420.000000,3.000000,74.000000,,,,0.000000,4.000000,4.000000,4.000000,4.000000,4.000000,4.000000,4.000000,4.000000,4.000000,4.000000,4.000000,4.000000,4.000000,4.000000,100.000000,,,,,,,,,,,,,,,,,0.000000,0.000000,0.716339,0.023560,-0.675842,0.171875,0.963985,-0.203638,0.077158,-11.808462,-44.188858,65.911057
1703163407.577129,1703163407.577216,1.000000,0.000000,4238.461426,4187.563965,4356.794922,4289.743652,4201.666504,4173.205078,4251.282227,4203.077148,4196.666504,4191.922852,4760.769043,4535.128418,4506.794922,4636.153809,5369.000000,3.000000,74.000000,,,,0.000000,4.000000,4.000000,4.000000,4.000000,4.000000,4.000000,4.000000,4.000000,4.000000,4.000000,4.000000,4.000000,4.000000,4.000000,100.000000,,,,,,,,,,,,,,,,,,,,,,,,,,,,
1703163407.584937,1703163407.585124,2.000000,0.000000,4222.436035,4178.589844,4347.820313,4263.846191,4203.846191,4179.230957,4251.025879,4203.077148,4201.538574,4183.077148,4752.051270,4527.436035,4495.897461,4615.512695,5275.000000,3.000000,74.000000,,,,0.000000,4.000000,4.000000,4.000000,4.000000,4.000000,4.000000,4.000000,4.000000,4.000000,4.000000,4.000000,4.000000,4.000000,4.000000,100.000000,,,,,,,,,,,,,,,,,,,,,,,,,,,,
1703163407.592745,1703163407.592932,3.000000,0.000000,4213.717773,4167.692383,4331.922852,4256.282227,4190.512695,4171.794922,4250.384766,4202.563965,4202.179688,4177.179688,4736.922852,4518.077148,4485.641113,4619.615234,5252.000000,3.000000,74.000000,,,,0.000000,4.000000,4.000000,4.000000,4.000000,4.000000,4.000000,4.000000,4.000000,4.000000,4.000000,4.000000,4.000000,4.000000,4.000000,100.000000,,,,,,,,,,,,,,,,,,,,,,,,,,,,
1703163407.600553,1703163407.600840,4.000000,0.000000,4207.436035,4162.179688,4323.077148,4266.922852,4182.051270,4168.461426,4249.230957,4208.077148,4202.179688,4172.692383,4724.230957,4507.179688,4474.487305,4615.256348,4924.000000,3.000000,74.000000,,,,0.000000,4.000000,4.000000,4.000000,4.000000,4.000000,4.000000,4.000000,4.000000,4.000000,4.000000,4.000000,4.000000,4.000000,4.000000,100.000000,,,,,,,,,,,,,,,,,1.000000,0.000000,0.716311,0.023499,-0.675842,0.171997,0.963985,-0.213405,0.093761,-11.860949,-44.186638,65.869949
1703163407.608361,1703163407.608649,5.000000,0.000000,4201.922852,4160.512695,4325.641113,4263.461426,4187.563965,4169.871582,4248.974121,4214.615234,4206.025879,4168.589844,4723.077148,4509.743652,4468.846191,4594.615234,5006.000000,3.000000,74.000000,,,,0.000000,4.000000,4.000000,4.000000,4.000000,4.000000,4.000000,4.000000,4.000000,4.000000,4.000000,4.000000,4.000000,4.000000,4.000000,100.000000,,,,,,,,,,,,,,,,,,,,,,,,,,,,
1703163407.616169,1703163407.616557,6.000000,0.000000,4209.102539,4164.487305,4330.512695,4253.589844,4193.205078,4169.358887,4248.846191,4219.871582,4212.436035,4168.974121,4733.461426,4524.358887,4476.922852,4596.410156,2468.000000,3.000000,74.000000,,,,0.000000,4.000000,4.000000,4.000000,4.000000,4.000000,4.000000,4.000000,4.000000,4.000000,4.000000,4.000000,4.000000,4.000000,4.000000,100.000000,,,,,,,,,,,,,,,,,,,,,,,,,,,,
1703163407.623977,1703163407.624365,7.000000,0.000000,4222.820313,4175.128418,4336.153809,4264.230957,4184.743652,4166.153809,4247.563965,4217.179688,4210.128418,4176.282227,4741.153809,4529.871582,4489.487305,4625.641113,4408.000000,3.000000,74.000000,,,,0.000000,4.000000,4.000000,4.000000,4.000000,4.000000,4.000000,4.000000,4.000000,4.000000,4.000000,4.000000,4.000000,4.000000,4.000000,100.000000,,,,,,,,,,,,,,,,,,,,,,,,,,,,
1703163407.631785,1703163407.632273,8.000000,0.000000,4230.256348,4188.461426,4344.487305,4287.307617,4186.025879,4160.769043,4247.307617,4206.538574,4198.205078,4183.333496,4744.230957,4530.000000,4495.897461,4628.846191,5150.000000,3.000000,74.000000,,,,0.000000,4.000000,4.000000,4.000000,4.000000,4.000000,4.000000,4.000000,4.000000,4.000000,4.000000,4.000000,4.000000,4.000000,4.000000,100.000000,,,,,,,,,,,,,,,,,2.000000,0.000000,0.716210,0.023499,-0.675903,0.172180,0.970822,-0.209987,0.072763,-11.908187,-44.134644,65.966286
1703163407.639593,1703163407.640081,9.000000,0.000000,4240.256348,4201.153809,4356.410156,4298.589844,4208.205078,4158.205078,4244.615234,4198.205078,4190.641113,4184.358887,4751.666504,4540.000000,4500.000000,4612.820313,5350.000000,3.000000,74.000000,,,,0.000000,4.000000,4.000000,4.000000,4.000000,4.000000,4.000000,4.000000,4.000000,4.000000,4.000000,4.000000,4.000000,4.000000,4.000000,100.000000,,,,,,,,,,,,,,,,,,,,,,,,,,,,
1703163407.647401,1703163407.647989,10.000000,0.000000,4248.589844,4205.641113,4365.384766,4296.282227,4212.307617,4159.871582,4238.461426,4199.102539,4186.282227,4189.358887,4755.384766,4545.000000,4502.051270,4633.077148,5649.000000,3.000000,74.000000,,,,0.000000,4.000000,4.000000,4.000000,4.000000,4.000000,4.000000,4.000000,4.000000,4.000000,4.000000,4.000000,4.000000,4.000000,4.000000,100.000000,,,,,,,,,,,,,,,,,,,,,,,,,,,,
1703163407.655209,1703163407.655798,11.000000,0.000000,4244.743652,4199.615234,4366.922852,4296.153809,4198.077148,4164.230957,4239.230957,4202.948730,4183.333496,4197.307617,4749.487305,4539.871582,4497.692383,4657.436035,5993.000000,3.000000,74.000000,,,,0.000000,4.000000,4.000000,4.000000,4.000000,4.000000,4.000000,4.000000,4.000000,4.000000,4.000000,4.000000,4.000000,4.000000,4.000000,100.000000,,,,,,,,,,,,,,,,,,,,,,,,,,,,
1703163407.663017,1703163407.663706,12.000000,0.000000,4232.436035,4190.769043,4360.384766,4286.794922,4195.769043,4170.512695,4248.205078,4203.589844,4187.436035,4187.820313,4743.589844,4535.512695,4492.179688,4638.205078,6302.000000,3.000000,74.000000,,,,0.000000,4.000000,4.000000,4.000000,4.000000,4.000000,4.000000,4.000000,4.000000,4.000000,4.000000,4.000000,4.000000,4.000000,4.000000,100.000000,,,,,,,,,,,,,,,,,3.000000,0.000000,0.716114,0.023315,-0.675964,0.172363,0.963008,-0.232450,0.078135,-11.817369,-44.137844,66.002991
1703163407.670825,1703163407.671514,13.000000,0.000000,4220.000000,4183.461426,4345.897461,4265.000000,4194.871582,4173.205078,4250.384766,4202.307617,4194.230957,4176.538574,4739.615234,4529.230957,4489.487305,4614.102539,5976.000000,3.000000,74.000000,,,,0.000000,4.000000,4.000000,4.000000,4.000000,4.000000,4.000000,4.000000,4.000000,4.000000,4.000000,4.000000,4.000000,4.000000,4.000000,100.000000,,,,,,,,,,,,,,,,,,,,,,,,,,,,
1703163407.678633,1703163407.679222,14.000000,0.000000,4218.461426,4180.512695,4333.589844,4259.871582,4184.358887,4169.102539,4246.922852,4202.307617,4201.025879,4178.077148,4736.922852,4522.692383,4486.282227,4615.256348,5649.000000,3.000000,74.000000,,,,0.000000,4.000000,4.000000,4.000000,4.000000,4.000000,4.000000,4.000000,4.000000,4.000000,4.000000,4.000000,4.000000,4.000000,4.000000,100.000000,,,,,,,,,,,,,,,,,,,,,,,,,,,,
1703163407.686441,1703163407.687030,15.000000,0.000000,4218.205078,4173.077148,4328.461426,4266.922852,4175.384766,4166.153809,4246.282227,4206.025879,4204.743652,4177.307617,4732.436035,4518.589844,4477.563965,4613.589844,5993.000000,3.000000,74.000000,,,,0.000000,4.000000,4.000000,4.000000,4.000000,4.000000,4.000000,4.000000,4.000000,4.000000,4.000000,4.000000,4.000000,4.000000,4.000000,100.000000,,,,,,,,,,,,,,,,,,,,,,,,,,,,
1703163407.694250,1703163407.694738,16.000000,0.000000,4210.256348,4157.948730,4321.025879,4260.641113,4165.000000,4159.230957,4247.307617,4210.384766,4201.410156,4168.589844,4720.641113,4513.846191,4465.256348,4606.282227,0.000000,3.000000,74.000000,,,,0.000000,4.000000,4.000000,4.000000,4.000000,4.000000,4.000000,4.000000,4.000000,4.000000,4.000000,4.000000,4.000000,4.000000,4.000000,100.000000,,,,,,,,,,,,,,,,,4.000000,0.000000,0.716146,0.023254,-0.675964,0.172241,0.964962,-0.204615,0.085948,-11.735632,-44.140728,65.919357
1703163407.702057,1703163407.702546,17.000000,0.000000,4210.256348,4157.563965,4319.743652,4258.717773,4169.487305,4156.666504,4246.666504,4217.179688,4201.538574,4165.256348,4718.974121,4520.128418,4467.692383,4605.128418,0.000000,3.000000,74.000000,,,,0.000000,4.000000,4.000000,4.000000,4.000000,4.000000,4.000000,4.000000,4.000000,4.000000,4.000000,4.000000,4.000000,4.000000,4.000000,100.000000,,,,,,,,,,,,,,,,,,,,,,,,,,,,
1703163407.709865,1703163407.710254,18.000000,0.000000,4217.436035,4169.230957,4330.897461,4273.077148,4187.948730,4164.102539,4245.128418,4219.102539,4208.333496,4173.333496,4733.205078,4533.077148,4481.153809,4602.436035,0.000000,3.000000,74.000000,,,,0.000000,4.000000,4.000000,4.000000,4.000000,4.000000,4.000000,4.000000,4.000000,4.000000,4.000000,4.000000,4.000000,4.000000,4.000000,100.000000,,,,,,,,,,,,,,,,,,,,,,,,,,,,
1703163407.717674,1703163407.718062,19.000000,0.000000,4213.974121,4170.512695,4337.179688,4279.871582,4189.615234,4164.871582,4241.025879,4207.307617,4200.128418,4175.000000,4735.897461,4530.897461,4479.615234,4601.025879,0.000000,3.000000,74.000000,,,,0.000000,4.000000,4.000000,4.000000,4.000000,4.000000,4.000000,4.000000,4.000000,4.000000,4.000000,4.000000,4.000000,4.000000,4.000000,100.000000,,,,,,,,,,,,,,,,,,,,,,,,,,,,
1703163407.725482,1703163407.725770,20.000000,0.000000,4216.153809,4171.666504,4339.487305,4276.153809,4185.000000,4153.589844,4237.307617,4197.692383,4183.205078,4171.794922,4729.487305,4527.179688,4472.948730,4616.282227,0.000000,3.000000,74.000000,,,,0.000000,4.000000,4.000000,4.000000,4.000000,4.000000,4.000000,4.000000,4.000000,4.000000,4.000000,4.000000,4.000000,4.000000,4.000000,100.000000,,,,,,,,,,,,,,,,,5.000000,0.000000,0.716142,0.023376,-0.675964,0.172241,0.962031,-0.204615,0.071786,-11.728735,-44.043320,65.827423
1703163407.733290,1703163407.733678,21.000000,0.000000,4232.948730,4183.589844,4350.128418,4277.692383,4191.410156,4149.230957,4234.487305,4203.717773,4187.051270,4177.948730,4735.769043,4539.871582,4482.563965,4625.769043,0.000000,3.000000,74.000000,,,,0.000000,4.000000,4.000000,4.000000,4.000000,4.000000,4.000000,4.000000,4.000000,4.000000,4.000000,4.000000,4.000000,4.000000,4.000000,100.000000,,,,,,,,,,,,,,,,,,,,,,,,,,,,
1703163407.741098,1703163407.741486,22.000000,0.000000,4237.307617,4190.256348,4355.512695,4281.025879,4193.461426,4153.461426,4231.538574,4203.077148,4194.615234,4184.102539,4738.077148,4542.948730,4487.692383,4612.051270,0.000000,3.000000,74.000000,,,,0.000000,4.000000,4.000000,4.000000,4.000000,4.000000,4.000000,4.000000,4.000000,4.000000,4.000000,4.000000,4.000000,4.000000,4.000000,100.000000,,,,,,,,,,,,,,,,,,,,,,,,,,,,
1703163407.748906,1703163407.749394,23.000000,0.000000,4225.256348,4188.717773,4342.563965,4283.205078,4183.077148,4156.794922,4234.230957,4187.307617,4184.358887,4170.384766,4722.563965,4523.333496,4479.358887,4598.846191,0.000000,3.000000,74.000000,,,,0.000000,4.000000,4.000000,4.000000,4.000000,4.000000,4.000000,4.000000,4.000000,4.000000,4.000000,4.000000,4.000000,4.000000,4.000000,100.000000,,,,,,,,,,,,,,,,,,,,,,,,,,,,
1703163407.756714,1703163407.757203,24.000000,0.000000,4216.666504,4189.743652,4327.436035,4276.922852,4180.128418,4166.666504,4244.487305,4182.820313,4176.410156,4153.333496,4710.641113,4506.794922,4470.769043,4595.000000,0.000000,3.000000,74.000000,,,,0.000000,4.000000,4.000000,4.000000,4.000000,4.000000,4.000000,4.000000,4.000000,4.000000,4.000000,4.000000,4.000000,4.000000,4.000000,100.000000,,,,,,,,,,,,,,,,,6.000000,0.000000,0.716195,0.023499,-0.675903,0.172241,0.970333,-0.188988,0.069833,-11.572529,-44.055656,65.761345
1703163407.764522,1703163407.765011,25.000000,0.000000,4215.897461,4181.410156,4317.692383,4260.512695,4186.282227,4175.641113,4247.436035,4193.589844,4185.897461,4158.205078,4708.974121,4503.974121,4465.512695,4598.461426,0.000000,3.000000,74.000000,,,,0.000000,4.000000,4.000000,4.000000,4.000000,4.000000,4.000000,4.000000,4.000000,4.000000,4.000000,4.000000,4.000000,4.000000,4.000000,100.000000,1.000000,91.666664,4.000000,4.000000,4.000000,4.000000,4.000000,4.000000,4.000000,4.000000,4.000000,4.000000,4.000000,4.000000,4.000000,3.000000,,,,,,,,,,,,
1703163407.772330,1703163407.772719,26.000000,0.000000,4213.077148,4167.307617,4311.538574,4248.717773,4182.948730,4168.333496,4244.871582,4198.846191,4191.666504,4168.205078,4709.871582,4502.948730,4463.717773,4603.333496,0.000000,3.000000,74.000000,,,,0.000000,4.000000,4.000000,4.000000,4.000000,4.000000,4.000000,4.000000,4.000000,4.000000,4.000000,4.000000,4.000000,4.000000,4.000000,100.000000,,,,,,,,,,,,,,,,,,,,,,,,,,,,
1703163407.780138,1703163407.780627,27.000000,0.000000,4201.282227,4161.922852,4308.589844,4247.307617,4170.769043,4156.922852,4243.846191,4202.692383,4189.743652,4170.000000,4714.871582,4504.102539,4462.436035,4595.512695,0.000000,3.000000,74.000000,,,,0.000000,4.000000,4.000000,4.000000,4.000000,4.000000,4.000000,4.000000,4.000000,4.000000,4.000000,4.000000,4.000000,4.000000,4.000000,100.000000,,,,,,,,,,,,,,,,,,,,,,,,,,,,
1703163407.787946,1703163407.788435,28.000000,0.000000,4197.051270,4165.897461,4307.307617,4251.794922,4164.358887,4153.461426,4240.641113,4210.000000,4195.512695,4166.410156,4718.077148,4508.077148,4462.563965,4587.820313,0.000000,3.000000,74.000000,,,,0.000000,4.000000,4.000000,4.000000,4.000000,4.000000,4.000000,4.000000,4.000000,4.000000,4.000000,4.000000,4.000000,4.000000,4.000000,100.000000,,,,,,,,,,,,,,,,,7.000000,0.000000,0.716323,0.023560,-0.675781,0.172180,0.979123,-0.210475,0.072763,-11.615275,-44.066757,65.701881
1703163407.795754,1703163407.796343,29.000000,0.000000,4208.974121,4175.769043,4313.077148,4255.769043,4166.922852,4151.153809,4234.230957,4209.102539,4200.384766,4159.615234,4716.153809,4507.820313,4464.871582,4594.871582,0.000000,3.000000,74.000000,,,,0.000000,4.000000,4.000000,4.000000,4.000000,4.000000,4.000000,4.000000,4.000000,4.000000,4.000000,4.000000,4.000000,4.000000,4.000000,100.000000,,,,,,,,,,,,,,,,,,,,,,,,,,,,
1703163407.803562,1703163407.804152,30.000000,0.000000,4210.384766,4180.769043,4319.102539,4249.230957,4166.666504,4143.589844,4232.692383,4203.333496,4192.692383,4158.717773,4717.179688,4506.538574,4465.512695,4589.102539,0.000000,3.000000,74.000000,,,,0.000000,4.000000,4.000000,4.000000,4.000000,4.000000,4.000000,4.000000,4.000000,4.000000,4.000000,4.000000,4.000000,4.000000,4.000000,100.000000,,,,,,,,,,,,,,,,,,,,,,,,,,,,
1703163407.811370,1703163407.812060,31.000000,0.000000,4206.282227,4186.666504,4322.436035,4244.615234,4168.333496,4135.128418,4233.205078,4201.794922,4181.666504,4164.102539,4722.436035,4511.794922,4463.974121,4578.333496,0.000000,3.000000,74.000000,,,,0.000000,4.000000,4.000000,4.000000,4.000000,4.000000,4.000000,4.000000,4.000000,4.000000,4.000000,4.000000,4.000000,4.000000,4.000000,100.000000,,,,,,,,,,,,,,,,,,,,,,,,,,,,
1703163407.819178,1703163407.819868,32.000000,0.000000,4230.512695,4205.512695,4333.717773,4257.948730,4180.512695,4132.051270,4230.256348,4203.077148,4187.820313,4168.974121,4733.974121,4523.717773,4476.794922,4609.358887,0.000000,3.000000,74.000000,,,,0.000000,4.000000,4.000000,4.000000,4.000000,4.000000,4.000000,4.000000,4.000000,4.000000,4.000000,4.000000,4.000000,4.000000,4.000000,100.000000,,,,,,,,,,,,,,,,,8.000000,0.000000,0.716427,0.023499,-0.675720,0.171997,0.965938,-0.203638,0.079600,-11.687081,-43.993416,65.731689
1703163407.826986,1703163407.827776,33.000000,0.000000,4255.512695,4224.743652,4355.512695,4282.179688,4186.794922,4140.128418,4226.666504,4205.384766,4200.897461,4179.487305,4755.384766,4538.717773,4501.153809,4638.461426,0.000000,3.000000,74.000000,,,,0.000000,4.000000,4.000000,4.000000,4.000000,4.000000,4.000000,4.000000,4.000000,4.000000,4.000000,4.000000,4.000000,4.000000,4.000000,100.000000,,,,,,,,,,,,,,,,,,,,,,,,,,,,
1703163407.834794,1703163407.835584,34.000000,0.000000,4252.307617,4227.563965,4371.282227,4294.871582,4185.256348,4149.487305,4224.871582,4206.410156,4202.436035,4194.743652,4767.820313,4547.051270,4509.871582,4627.436035,0.000000,3.000000,74.000000,,,,0.000000,4.000000,4.000000,4.000000,4.000000,4.000000,4.000000,4.000000,4.000000,4.000000,4.000000,4.000000,4.000000,4.000000,4.000000,100.000000,,,,,,,,,,,,,,,,,,,,,,,,,,,,
1703163407.842602,1703163407.843492,35.000000,0.000000,4249.102539,4223.333496,4364.615234,4285.256348,4187.948730,4152.948730,4226.666504,4201.794922,4197.051270,4195.256348,4758.974121,4541.282227,4501.794922,4625.256348,0.000000,3.000000,74.000000,,,,0.000000,4.000000,4.000000,4.000000,4.000000,4.000000,4.000000,4.000000,4.000000,4.000000,4.000000,4.000000,4.000000,4.000000,4.000000,100.000000,,,,,,,,,,,,,,,,,,,,,,,,,,,,
1703163407.850410,1703163407.851400,36.000000,0.000000,4253.717773,4216.538574,4350.769043,4273.461426,4189.615234,4157.820313,4229.615234,4195.769043,4195.769043,4189.230957,4750.000000,4530.769043,4493.461426,4643.589844,0.000000,3.000000,74.000000,,,,0.000000,4.000000,4.000000,4.000000,4.000000,4.000000,4.000000,4.000000,4.000000,4.000000,4.000000,4.000000,4.000000,4.000000,4.000000,100.000000,,,,,,,,,,,,,,,,,9.000000,0.000000,0.716447,0.023315,-0.675720,0.171936,0.971310,-0.202173,0.083506,-11.735040,-44.110741,65.691856
1703163407.858218,1703163407.859209,37.000000,0.000000,4248.461426,4205.384766,4343.461426,4277.820313,4182.692383,4163.846191,4229.358887,4197.820313,4202.563965,4187.179688,4754.615234,4530.000000,4493.205078,4640.384766,0.000000,3.000000,74.000000,,,,0.000000,4.000000,4.000000,4.000000,4.000000,4.000000,4.000000,4.000000,4.000000,4.000000,4.000000,4.000000,4.000000,4.000000,4.000000,100.000000,,,,,,,,,,,,,,,,,,,,,,,,,,,,
1703163407.866026,1703163407.867017,38.000000,0.000000,4235.384766,4204.230957,4338.077148,4278.077148,4185.512695,4167.051270,4230.769043,4202.179688,4206.410156,4179.871582,4755.256348,4529.871582,4491.538574,4608.461426,0.000000,3.000000,74.000000,,,,0.000000,4.000000,4.000000,4.000000,4.000000,4.000000,4.000000,4.000000,4.000000,4.000000,4.000000,4.000000,4.000000,4.000000,4.000000,100.000000,,,,,,,,,,,,,,,,,,,,,,,,,,,,
1703163407.873834,1703163407.874725,39.000000,0.000000,4217.563965,4196.153809,4324.358887,4256.025879,4186.153809,4162.948730,4235.000000,4197.948730,4198.205078,4171.025879,4733.461426,4512.563965,4472.692383,4586.794922,0.000000,3.000000,74.000000,,,,0.000000,4.000000,4.000000,4.000000,4.000000,4.000000,4.000000,4.000000,4.000000,4.000000,4.000000,4.000000,4.000000,4.000000,4.000000,100.000000,,,,,,,,,,,,,,,,,,,,,,,,,,,,
1703163407.881642,1703163407.882533,40.000000,0.000000,4195.384766,4174.102539,4304.615234,4232.307617,4163.333496,4147.307617,4230.128418,4186.153809,4179.358887,4155.128418,4705.128418,4490.256348,4446.410156,4584.230957,0.000000,3.000000,74.000000,,,,0.000000,4.000000,4.000000,4.000000,4.000000,4.000000,4.000000,4.000000,4.000000,4.000000,4.000000,4.000000,4.000000,4.000000,4.000000,100.000000,,,,,,,,,,,,,,,,,10.000000,0.000000,0.716552,0.023193,-0.675598,0.171997,0.959590,-0.197290,0.090343,-11.911536,-44.182999,65.772667
1703163407.889450,1703163407.890241,41.000000,0.000000,4188.077148,4170.897461,4297.948730,4227.563965,4153.077148,4135.256348,4220.512695,4182.563965,4173.333496,4135.128418,4701.538574,4486.153809,4444.615234,4581.282227,0.000000,3.000000,74.000000,,,,0.000000,4.000000,4.000000,4.000000,4.000000,4.000000,4.000000,4.000000,4.000000,4.000000,4.000000,4.000000,4.000000,4.000000,4.000000,100.000000,,,,,,,,,,,,,,,,,,,,,,,,,,,,
1703163407.897258,1703163407.898049,42.000000,0.000000,4197.436035,4184.358887,4305.384766,4229.230957,4167.051270,4139.487305,4223.077148,4187.563965,4183.589844,4140.000000,4714.487305,4492.948730,4455.897461,4572.436035,0.000000,3.000000,74.000000,,,,0.000000,4.000000,4.000000,4.000000,4.000000,4.000000,4.000000,4.000000,4.000000,4.000000,4.000000,4.000000,4.000000,4.000000,4.000000,100.000000,,,,,,,,,,,,,,,,,,,,,,,,,,,,
1703163407.905067,1703163407.905757,43.000000,0.000000,4204.615234,4186.153809,4312.051270,4226.922852,4179.230957,4145.641113,4232.051270,4186.410156,4186.538574,4156.666504,4715.128418,4498.717773,4452.563965,4562.820313,0.000000,3.000000,74.000000,,,,0.000000,4.000000,4.000000,4.000000,4.000000,4.000000,4.000000,4.000000,4.000000,4.000000,4.000000,4.000000,4.000000,4.000000,4.000000,100.000000,,,,,,,,,,,,,,,,,,,,,,,,,,,,
1703163407.912875,1703163407.913565,44.000000,0.000000,4208.077148,4180.384766,4315.769043,4230.256348,4176.922852,4142.307617,4232.307617,4184.230957,4181.922852,4153.077148,4710.256348,4502.051270,4448.333496,4567.307617,0.000000,3.000000,74.000000,,,,0.000000,4.000000,4.000000,4.000000,4.000000,4.000000,4.000000,4.000000,4.000000,4.000000,4.000000,4.000000,4.000000,4.000000,4.000000,100.000000,,,,,,,,,,,,,,,,,11.000000,0.000000,0.716596,0.023132,-0.675537,0.172058,0.977658,-0.205591,0.076670,-11.853716,-44.198032,65.645401
1703163407.920683,1703163407.921273,45.000000,0.000000,4217.563965,4188.205078,4323.205078,4253.461426,4173.205078,4144.358887,4230.512695,4188.846191,4182.307617,4149.871582,4716.282227,4504.871582,4459.102539,4587.948730,0.000000,3.000000,74.000000,,,,0.000000,4.000000,4.000000,4.000000,4.000000,4.000000,4.000000,4.000000,4.000000,4.000000,4.000000,4.000000,4.000000,4.000000,4.000000,100.000000,,,,,,,,,,,,,,,,,,,,,,,,,,,,
1703163407.928491,1703163407.929081,46.000000,0.000000,4224.487305,4200.000000,4328.333496,4269.743652,4175.641113,4151.666504,4231.282227,4194.358887,4186.282227,4161.538574,4724.871582,4510.512695,4464.743652,4594.871582,0.000000,3.000000,74.000000,,,,0.000000,4.000000,4.000000,4.000000,4.000000,4.000000,4.000000,4.000000,4.000000,4.000000,4.000000,4.000000,4.000000,4.000000,4.000000,100.000000,,,,,,,,,,,,,,,,,,,,,,,,,,,,
1703163407.936299,1703163407.936789,47.000000,0.000000,4220.128418,4197.563965,4325.128418,4260.512695,4173.461426,4155.641113,4231.282227,4191.153809,4184.230957,4162.436035,4722.820313,4514.358887,4461.666504,4583.333496,0.000000,3.000000,74.000000,,,,0.000000,4.000000,4.000000,4.000000,4.000000,4.000000,4.000000,4.000000,4.000000,4.000000,4.000000,4.000000,4.000000,4.000000,4.000000,100.000000,,,,,,,,,,,,,,,,,,,,,,,,,,,,
1703163407.944107,1703163407.944597,48.000000,0.000000,4216.922852,4186.282227,4327.179688,4259.102539,4172.179688,4154.230957,4231.410156,4186.153809,4178.717773,4153.077148,4717.563965,4510.128418,4461.025879,4586.153809,0.000000,3.000000,74.000000,,,,0.000000,4.000000,4.000000,4.000000,4.000000,4.000000,4.000000,4.000000,4.000000,4.000000,4.000000,4.000000,4.000000,4.000000,4.000000,100.000000,,,,,,,,,,,,,,,,,12.000000,0.000000,0.716610,0.023132,-0.675476,0.172241,0.967403,-0.213405,0.080576,-11.968344,-44.128227,65.614197
1703163407.951915,1703163407.952305,49.000000,0.000000,4215.256348,4180.512695,4330.769043,4265.512695,4178.846191,4153.461426,4232.563965,4192.307617,4179.230957,4156.922852,4718.333496,4506.282227,4462.179688,4597.563965,0.000000,3.000000,74.000000,,,,0.000000,4.000000,4.000000,4.000000,4.000000,4.000000,4.000000,4.000000,4.000000,4.000000,4.000000,4.000000,4.000000,4.000000,4.000000,100.000000,,,,,,,,,,,,,,,,,,,,,,,,,,,,
1703163407.959723,1703163407.960113,50.000000,0.000000,4213.717773,4188.205078,4329.615234,4258.461426,4180.769043,4155.128418,4232.563965,4204.615234,4191.025879,4170.256348,4727.179688,4515.256348,4470.512695,4595.769043,0.000000,3.000000,74.000000,,,,0.000000,4.000000,4.000000,4.000000,4.000000,4.000000,4.000000,4.000000,4.000000,4.000000,4.000000,4.000000,4.000000,4.000000,4.000000,100.000000,,,,,,,,,,,,,,,,,,,,,,,,,,,,
1703163407.967531,1703163407.967821,51.000000,0.000000,4223.205078,4197.820313,4332.307617,4255.000000,4178.205078,4155.000000,4229.615234,4211.666504,4205.128418,4182.563965,4733.589844,4524.102539,4478.461426,4599.743652,0.000000,3.000000,74.000000,,,,0.000000,4.000000,4.000000,4.000000,4.000000,4.000000,4.000000,4.000000,4.000000,4.000000,4.000000,4.000000,4.000000,4.000000,4.000000,100.000000,,,,,,,,,,,,,,,,,,,,,,,,,,,,
1703163407.975339,1703163407.975629,52.000000,0.000000,4229.615234,4200.512695,4335.384766,4263.717773,4182.307617,4151.410156,4226.794922,4208.974121,4199.743652,4181.666504,4728.205078,4519.615234,4472.692383,4594.358887,0.000000,3.000000,74.000000,,,,0.000000,4.000000,4.000000,4.000000,4.000000,4.000000,4.000000,4.000000,4.000000,4.000000,4.000000,4.000000,4.000000,4.000000,4.000000,100.000000,,,,,,,,,,,,,,,,,13.000000,0.000000,0.716627,0.023071,-0.675476,0.172180,0.962031,-0.197290,0.078623,-11.838177,-43.965405,65.686111
1703163407.983147,1703163407.983337,53.000000,0.000000,4219.487305,4201.282227,4329.358887,4256.538574,4176.922852,4145.641113,4229.615234,4197.820313,4177.820313,4161.282227,4713.717773,4508.717773,4461.666504,4572.948730,0.000000,3.000000,74.000000,,,,0.000000,4.000000,4.000000,4.000000,4.000000,4.000000,4.000000,4.000000,4.000000,4.000000,4.000000,4.000000,4.000000,4.000000,4.000000,100.000000,,,,,,,,,,,,,,,,,,,,,,,,,,,,
1703163407.990955,1703163407.991245,54.000000,0.000000,4212.179688,4200.128418,4325.384766,4242.948730,4165.384766,4147.051270,4233.461426,4186.410156,4167.307617,4136.538574,4701.794922,4503.717773,4459.615234,4577.948730,0.000000,3.000000,74.000000,,,,0.000000,4.000000,4.000000,4.000000,4.000000,4.000000,4.000000,4.000000,4.000000,4.000000,4.000000,4.000000,4.000000,4.000000,4.000000,100.000000,,,,,,,,,,,,,,,,,,,,,,,,,,,,
1703163407.998763,1703163407.999054,55.000000,0.000000,4211.282227,4188.333496,4323.974121,4243.717773,4169.615234,4149.230957,4231.410156,4184.743652,4167.948730,4124.102539,4698.205078,4502.563965,4453.717773,4583.589844,0.000000,3.000000,74.000000,,,,0.000000,4.000000,4.000000,4.000000,4.000000,4.000000,4.000000,4.000000,4.000000,4.000000,4.000000,4.000000,4.000000,4.000000,4.000000,100.000000,,,,,,,,,,,,,,,,,,,,,,,,,,,,
1703163408.006571,1703163408.006962,56.000000,0.000000,4206.153809,4181.410156,4319.743652,4246.666504,4171.153809,4145.256348,4230.769043,4192.948730,4169.358887,4133.846191,4699.615234,4504.358887,4444.358887,4573.205078,0.000000,3.000000,74.000000,,,,0.000000,4.000000,4.000000,4.000000,4.000000,4.000000,4.000000,4.000000,4.000000,4.000000,4.000000,4.000000,4.000000,4.000000,4.000000,100.000000,,,,,,,,,,,,,,,,,14.000000,0.000000,0.716645,0.022949,-0.675476,0.172119,0.974240,-0.188500,0.079111,-11.721025,-44.018867,65.667496
1703163408.014379,1703163408.014770,57.000000,0.000000,4211.666504,4193.846191,4326.282227,4256.153809,4165.128418,4147.692383,4233.974121,4201.410156,4178.205078,4156.282227,4710.384766,4513.205078,4456.794922,4591.410156,0.000000,3.000000,74.000000,,,,0.000000,4.000000,4.000000,4.000000,4.000000,4.000000,4.000000,4.000000,4.000000,4.000000,4.000000,4.000000,4.000000,4.000000,4.000000,100.000000,,,,,,,,,,,,,,,,,,,,,,,,,,,,
1703163408.022187,1703163408.022678,58.000000,0.000000,4218.717773,4186.410156,4329.871582,4262.820313,4167.179688,4155.897461,4234.743652,4205.769043,4188.205078,4165.641113,4717.692383,4516.025879,4467.948730,4612.563965,0.000000,3.000000,74.000000,,,,0.000000,4.000000,4.000000,4.000000,4.000000,4.000000,4.000000,4.000000,4.000000,4.000000,4.000000,4.000000,4.000000,4.000000,4.000000,100.000000,,,,,,,,,,,,,,,,,,,,,,,,,,,,
1703163408.029995,1703163408.030486,59.000000,0.000000,4204.615234,4163.333496,4314.871582,4249.230957,4169.615234,4157.179688,4235.641113,4204.743652,4186.666504,4154.871582,4705.384766,4507.179688,4453.974121,4589.487305,0.000000,3.000000,74.000000,,,,0.000000,4.000000,4.000000,4.000000,4.000000,4.000000,4.000000,4.000000,4.000000,4.000000,4.000000,4.000000,4.000000,4.000000,4.000000,100.000000,,,,,,,,,,,,,,,,,,,,,,,,,,,,
1703163408.037803,1703163408.038394,60.000000,0.000000,4193.846191,4178.077148,4309.615234,4240.897461,4168.717773,4155.128418,4236.922852,4199.615234,4179.615234,4146.922852,4691.794922,4503.205078,4440.128418,4564.743652,0.000000,3.000000,74.000000,,,,0.000000,4.000000,4.000000,4.000000,4.000000,4.000000,4.000000,4.000000,4.000000,4.000000,4.000000,4.000000,4.000000,4.000000,4.000000,100.000000,,,,,,,,,,,,,,,,,15.000000,0.000000,0.716717,0.022949,-0.675415,0.172058,0.975705,-0.204615,0.080088,-11.965590,-44.066978,65.617416
1703163408.045611,1703163408.046202,61.000000,0.000000,4205.769043,4215.641113,4321.538574,4256.794922,4173.077148,4156.794922,4235.128418,4193.461426,4176.922852,4149.102539,4692.307617,4507.307617,4441.282227,4574.230957,0.000000,3.000000,74.000000,,,,0.000000,4.000000,4.000000,4.000000,4.000000,4.000000,4.000000,4.000000,4.000000,4.000000,4.000000,4.000000,4.000000,4.000000,4.000000,100.000000,,,,,,,,,,,,,,,,,,,,,,,,,,,,
1703163408.053419,1703163408.053911,62.000000,0.000000,4216.794922,4236.666504,4324.871582,4272.563965,4182.436035,4157.051270,4231.282227,4188.461426,4179.615234,4152.179688,4693.717773,4504.230957,4437.051270,4580.512695,0.000000,3.000000,74.000000,,,,0.000000,4.000000,4.000000,4.000000,4.000000,4.000000,4.000000,4.000000,4.000000,4.000000,4.000000,4.000000,4.000000,4.000000,4.000000,100.000000,,,,,,,,,,,,,,,,,,,,,,,,,,,,
1703163408.061227,1703163408.061719,63.000000,0.000000,4218.717773,4248.589844,4321.922852,4272.948730,4188.717773,4158.846191,4230.384766,4188.974121,4184.871582,4152.307617,4687.948730,4499.743652,4425.641113,4568.589844,0.000000,3.000000,74.000000,,,,0.000000,4.000000,4.000000,4.000000,4.000000,4.000000,4.000000,4.000000,4.000000,4.000000,4.000000,4.000000,4.000000,4.000000,4.000000,100.000000,,,,,,,,,,,,,,,,,,,,,,,,,,,,
1703163408.069035,1703163408.069427,64.000000,0.000000,4209.743652,4255.000000,4324.871582,4264.615234,4182.948730,4158.846191,4231.538574,4197.563965,4187.563965,4152.436035,4684.743652,4506.153809,4420.384766,4563.589844,5434.000000,3.000000,74.000000,,,,0.000000,4.000000,4.000000,4.000000,4.000000,4.000000,4.000000,4.000000,4.000000,4.000000,4.000000,4.000000,4.000000,4.000000,4.000000,100.000000,,,,,,,,,,,,,,,,,16.000000,0.000000,0.716745,0.023010,-0.675415,0.171936,0.968380,-0.210475,0.074716,-12.035697,-44.093613,65.672340
1703163408.076843,1703163408.077335,65.000000,0.000000,4200.000000,4250.641113,4325.256348,4259.102539,4178.461426,4154.871582,4230.000000,4201.025879,4184.487305,4156.538574,4681.794922,4507.051270,4418.974121,4573.333496,5380.000000,3.000000,74.000000,,,,0.000000,4.000000,4.000000,4.000000,4.000000,4.000000,4.000000,4.000000,4.000000,4.000000,4.000000,4.000000,4.000000,4.000000,4.000000,100.000000,,,,,,,,,,,,,,,,,,,,,,,,,,,,
1703163408.084651,1703163408.085143,66.000000,0.000000,4210.384766,4251.025879,4322.948730,4266.794922,4186.410156,4152.436035,4225.769043,4191.794922,4178.974121,4150.512695,4676.666504,4496.538574,4418.589844,4580.256348,5290.000000,3.000000,74.000000,,,,0.000000,4.000000,4.000000,4.000000,4.000000,4.000000,4.000000,4.000000,4.000000,4.000000,4.000000,4.000000,4.000000,4.000000,4.000000,100.000000,,,,,,,,,,,,,,,,,,,,,,,,,,,,
1703163408.092460,1703163408.092951,67.000000,0.000000,4222.179688,4252.563965,4322.948730,4270.897461,4188.077148,4151.282227,4224.743652,4182.307617,4171.794922,4131.922852,4671.666504,4493.974121,4414.871582,4580.512695,5255.000000,3.000000,74.000000,,,,0.000000,4.000000,4.000000,4.000000,4.000000,4.000000,4.000000,4.000000,4.000000,4.000000,4.000000,4.000000,4.000000,4.000000,4.000000,100.000000,,,,,,,,,,,,,,,,,,,,,,,,,,,,
1703163408.100268,1703163408.100659,68.000000,0.000000,4220.641113,4249.615234,4324.358887,4272.692383,4181.794922,4153.333496,4229.230957,4181.794922,4163.974121,4127.820313,4670.769043,4499.487305,4415.769043,4587.051270,4946.000000,3.000000,74.000000,,,,0.000000,4.000000,4.000000,4.000000,4.000000,4.000000,4.000000,4.000000,4.000000,4.000000,4.000000,4.000000,4.000000,4.000000,4.000000,100.000000,,,,,,,,,,,,,,,,,17.000000,0.000000,0.716955,0.022705,-0.675171,0.172058,0.974728,-0.194848,0.073251,-11.882128,-44.000919,65.721771
1703163408.108076,1703163408.108467,69.000000,0.000000,4222.307617,4247.692383,4327.820313,4282.820313,4187.307617,4157.307617,4232.179688,4183.846191,4163.717773,4140.128418,4673.717773,4498.974121,4427.563965,4589.487305,5020.000000,3.000000,74.000000,,,,0.000000,4.000000,4.000000,4.000000,4.000000,4.000000,4.000000,4.000000,4.000000,4.000000,4.000000,4.000000,4.000000,4.000000,4.000000,100.000000,,,,,,,,,,,,,,,,,,,,,,,,,,,,
1703163408.115884,1703163408.116175,70.000000,0.000000,4219.358887,4236.794922,4322.051270,4275.384766,4193.846191,4156.025879,4230.000000,4182.820313,4163.205078,4144.743652,4669.615234,4492.436035,4427.051270,4582.307617,2468.000000,3.000000,74.000000,,,,0.000000,4.000000,4.000000,4.000000,4.000000,4.000000,4.000000,4.000000,4.000000,4.000000,4.000000,4.000000,4.000000,4.000000,4.000000,100.000000,,,,,,,,,,,,,,,,,,,,,,,,,,,,
1703163408.123692,1703163408.123983,71.000000,0.000000,4205.897461,4224.487305,4314.487305,4261.410156,4191.153809,4153.589844,4229.615234,4182.563965,4156.410156,4137.307617,4664.871582,4490.000000,4417.179688,4575.641113,4415.000000,3.000000,74.000000,,,,0.000000,4.000000,4.000000,4.000000,4.000000,4.000000,4.000000,4.000000,4.000000,4.000000,4.000000,4.000000,4.000000,4.000000,4.000000,100.000000,,,,,,,,,,,,,,,,,,,,,,,,,,,,
1703163408.131500,1703163408.131691,72.000000,0.000000,4200.384766,4216.153809,4315.641113,4266.922852,4186.410156,4158.333496,4232.179688,4184.871582,4157.563965,4136.153809,4668.333496,4490.897461,4420.256348,4571.282227,5156.000000,3.000000,74.000000,,,,0.000000,4.000000,4.000000,4.000000,4.000000,4.000000,4.000000,4.000000,4.000000,4.000000,4.000000,4.000000,4.000000,4.000000,4.000000,100.000000,,,,,,,,,,,,,,,,,18.000000,0.000000,0.717049,0.022461,-0.675049,0.172180,0.973263,-0.205591,0.090343,-12.143915,-44.017494,65.699593
1703163408.139308,1703163408.139499,73.000000,0.000000,4202.820313,4206.666504,4314.358887,4266.025879,4178.077148,4158.974121,4231.922852,4185.641113,4166.410156,4140.512695,4667.179688,4487.051270,4427.307617,4565.641113,5352.000000,3.000000,74.000000,,,,0.000000,4.000000,4.000000,4.000000,4.000000,4.000000,4.000000,4.000000,4.000000,4.000000,4.000000,4.000000,4.000000,4.000000,4.000000,100.000000,,,,,,,,,,,,,,,,,,,,,,,,,,,,
1703163408.147116,1703163408.147207,74.000000,0.000000,4205.769043,4206.410156,4307.179688,4253.974121,4175.384766,4153.717773,4231.025879,4188.589844,4171.282227,4142.179688,4664.743652,4485.769043,4422.051270,4571.666504,5672.000000,3.000000,74.000000,,,,0.000000,4.000000,4.000000,4.000000,4.000000,4.000000,4.000000,4.000000,4.000000,4.000000,4.000000,4.000000,4.000000,4.000000,4.000000,100.000000,,,,,,,,,,,,,,,,,,,,,,,,,,,,
1703163408.154924,1703163408.155015,75.000000,0.000000,4208.333496,4213.461426,4307.307617,4255.512695,4183.077148,4155.384766,4233.846191,4195.897461,4175.897461,4144.102539,4674.102539,4495.384766,4422.948730,4578.974121,6023.000000,3.000000,74.000000,,,,0.000000,4.000000,4.000000,4.000000,4.000000,4.000000,4.000000,4.000000,4.000000,4.000000,4.000000,4.000000,4.000000,4.000000,4.000000,100.000000,,,,,,,,,,,,,,,,,,,,,,,,,,,,
1703163408.162732,1703163408.162723,76.000000,0.000000,4208.717773,4213.589844,4315.384766,4263.589844,4189.743652,4158.589844,4232.051270,4201.282227,4182.948730,4151.410156,4682.563965,4502.307617,4436.666504,4574.487305,6324.000000,3.000000,74.000000,,,,0.000000,4.000000,4.000000,4.000000,4.000000,4.000000,4.000000,4.000000,4.000000,4.000000,4.000000,4.000000,4.000000,4.000000,4.000000,100.000000,,,,,,,,,,,,,,,,,19.000000,0.000000,0.716950,0.022400,-0.675171,0.172119,0.969357,-0.200220,0.087413,-12.146190,-43.965744,65.829636
1703163408.170540,1703163408.170631,77.000000,0.000000,4213.974121,4214.230957,4322.692383,4274.871582,4190.897461,4155.769043,4226.922852,4201.794922,4190.897461,4166.794922,4686.794922,4503.717773,4445.000000,4588.974121,5985.000000,3.000000,74.000000,,,,0.000000,4.000000,4.000000,4.000000,4.000000,4.000000,4.000000,4.000000,4.000000,4.000000,4.000000,4.000000,4.000000,4.000000,4.000000,100.000000,,,,,,,,,,,,,,,,,,,,,,,,,,,,
1703163408.178348,1703163408.178440,78.000000,0.000000,4219.230957,4217.563965,4327.051270,4285.256348,4187.563965,4151.922852,4227.692383,4203.589844,4198.974121,4177.051270,4691.153809,4510.384766,4446.538574,4604.743652,5672.000000,3.000000,74.000000,,,,0.000000,4.000000,4.000000,4.000000,4.000000,4.000000,4.000000,4.000000,4.000000,4.000000,4.000000,4.000000,4.000000,4.000000,4.000000,100.000000,,,,,,,,,,,,,,,,,,,,,,,,,,,,
1703163408.186156,1703163408.186348,79.000000,0.000000,4220.384766,4211.153809,4326.794922,4280.384766,4187.563965,4152.563965,4227.820313,4203.461426,4192.436035,4164.743652,4685.769043,4511.153809,4446.153809,4590.384766,6023.000000,3.000000,74.000000,,,,0.000000,4.000000,4.000000,4.000000,4.000000,4.000000,4.000000,4.000000,4.000000,4.000000,4.000000,4.000000,4.000000,4.000000,4.000000,100.000000,,,,,,,,,,,,,,,,,,,,,,,,,,,,
1703163408.193964,1703163408.194156,80.000000,0.000000,4224.102539,4199.487305,4327.179688,4281.794922,4191.922852,4155.897461,4227.436035,4196.282227,4174.230957,4152.051270,4679.102539,4500.769043,4447.051270,4587.051270,6324.000000,3.000000,74.000000,,,,0.000000,4.000000,4.000000,4.000000,4.000000,4.000000,4.000000,4.000000,4.000000,4.000000,4.000000,4.000000,4.000000,4.000000,4.000000,100.000000,,,,,,,,,,,,,,,,,20.000000,0.000000,0.716831,0.022522,-0.675293,0.172119,0.967403,-0.203638,0.080576,-12.198237,-44.002502,65.746674
1703163408.201772,1703163408.202064,81.000000,0.000000,4217.051270,4190.256348,4325.256348,4285.512695,4183.846191,4150.769043,4227.820313,4187.307617,4167.820313,4152.051270,4675.000000,4492.948730,4440.769043,4599.102539,5985.000000,3.000000,74.000000,,,,0.000000,4.000000,4.000000,4.000000,4.000000,4.000000,4.000000,4.000000,4.000000,4.000000,4.000000,4.000000,4.000000,4.000000,4.000000,100.000000,,,,,,,,,,,,,,,,,,,,,,,,,,,,
1703163408.209580,1703163408.209872,82.000000,0.000000,4203.461426,4187.307617,4316.153809,4266.410156,4173.205078,4143.717773,4224.358887,4182.179688,4165.384766,4143.461426,4670.256348,4490.000000,4431.282227,4584.230957,5672.000000,3.000000,74.000000,,,,0.000000,4.000000,4.000000,4.000000,4.000000,4.000000,4.000000,4.000000,4.000000,4.000000,4.000000,4.000000,4.000000,4.000000,4.000000,100.000000,,,,,,,,,,,,,,,,,,,,,,,,,,,,
1703163408.217388,1703163408.217780,83.000000,0.000000,4210.256348,4196.153809,4315.641113,4261.153809,4182.692383,4150.769043,4224.743652,4183.205078,4158.974121,4135.256348,4671.666504,4489.743652,4433.589844,4571.922852,6023.000000,3.000000,74.000000,,,,0.000000,4.000000,4.000000,4.000000,4.000000,4.000000,4.000000,4.000000,4.000000,4.000000,4.000000,4.000000,4.000000,4.000000,4.000000,100.000000,,,,,,,,,,,,,,,,,,,,,,,,,,,,
1703163408.225196,1703163408.225589,84.000000,0.000000,4220.128418,4200.769043,4323.461426,4280.512695,4190.384766,4158.717773,4232.051270,4184.871582,4161.410156,4148.077148,4674.743652,4494.358887,4441.666504,4582.820313,6324.000000,3.000000,74.000000,,,,0.000000,4.000000,4.000000,4.000000,4.000000,4.000000,4.000000,4.000000,4.000000,4.000000,4.000000,4.000000,4.000000,4.000000,4.000000,100.000000,,,,,,,,,,,,,,,,,21.000000,0.000000,0.716910,0.022766,-0.675232,0.171997,0.980100,-0.198755,0.085948,-12.195081,-44.002254,65.705338
1703163408.233004,1703163408.233497,85.000000,0.000000,4214.358887,4199.102539,4326.538574,4280.128418,4182.820313,4155.641113,4233.205078,4189.743652,4168.205078,4160.512695,4674.230957,4499.230957,4446.282227,4583.974121,5985.000000,3.000000,74.000000,,,,0.000000,4.000000,4.000000,4.000000,4.000000,4.000000,4.000000,4.000000,4.000000,4.000000,4.000000,4.000000,4.000000,4.000000,4.000000,100.000000,,,,,,,,,,,,,,,,,,,,,,,,,,,,
1703163408.240812,1703163408.241305,86.000000,0.000000,4214.615234,4201.025879,4325.769043,4273.974121,4178.333496,4154.615234,4232.820313,4200.000000,4171.282227,4155.641113,4680.384766,4504.615234,4447.051270,4587.563965,5672.000000,3.000000,74.000000,,,,0.000000,4.000000,4.000000,4.000000,4.000000,4.000000,4.000000,4.000000,4.000000,4.000000,4.000000,4.000000,4.000000,4.000000,4.000000,100.000000,,,,,,,,,,,,,,,,,,,,,,,,,,,,
1703163408.248620,1703163408.249013,87.000000,0.000000,4222.563965,4201.922852,4324.871582,4284.743652,4175.897461,4156.538574,4236.410156,4199.102539,4169.487305,4151.538574,4682.436035,4507.436035,4443.205078,4592.820313,6023.000000,3.000000,74.000000,,,,0.000000,4.000000,4.000000,4.000000,4.000000,4.000000,4.000000,4.000000,4.000000,4.000000,4.000000,4.000000,4.000000,4.000000,4.000000,100.000000,,,,,,,,,,,,,,,,,,,,,,,,,,,,
1703163408.256428,1703163408.256821,88.000000,0.000000,4222.948730,4202.948730,4326.025879,4291.666504,4177.436035,4153.974121,4234.102539,4188.974121,4161.666504,4146.666504,4670.256348,4505.769043,4441.282227,4583.589844,6324.000000,3.000000,74.000000,,,,0.000000,4.000000,4.000000,4.000000,4.000000,4.000000,4.000000,4.000000,4.000000,4.000000,4.000000,4.000000,4.000000,4.000000,4.000000,100.000000,,,,,,,,,,,,,,,,,22.000000,0.000000,0.717038,0.022827,-0.675110,0.171936,0.965450,-0.205591,0.080576,-12.208906,-44.052029,65.684807
1703163408.264236,1703163408.264729,89.000000,0.000000,4218.205078,4204.871582,4329.358887,4287.051270,4188.846191,4157.179688,4233.205078,4191.922852,4162.179688,4138.846191,4669.615234,4506.153809,4447.563965,4580.897461,5985.000000,3.000000,74.000000,,,,0.000000,4.000000,4.000000,4.000000,4.000000,4.000000,4.000000,4.000000,4.000000,4.000000,4.000000,4.000000,4.000000,4.000000,4.000000,100.000000,1.000000,91.666664,4.000000,4.000000,4.000000,4.000000,4.000000,4.000000,4.000000,4.000000,4.000000,4.000000,4.000000,4.000000,4.000000,3.000000,,,,,,,,,,,,
1703163408.272044,1703163408.272537,90.000000,0.000000,4214.487305,4200.512695,4327.179688,4269.230957,4187.692383,4156.666504,4234.102539,4200.384766,4169.743652,4143.205078,4674.230957,4502.051270,4446.794922,4587.563965,5672.000000,3.000000,74.000000,,,,0.000000,4.000000,4.000000,4.000000,4.000000,4.000000,4.000000,4.000000,4.000000,4.000000,4.000000,4.000000,4.000000,4.000000,4.000000,100.000000,,,,,,,,,,,,,,,,,,,,,,,,,,,,
1703163408.279853,1703163408.280245,91.000000,0.000000,4216.538574,4201.282227,4322.179688,4259.230957,4178.205078,4151.666504,4231.538574,4200.128418,4173.205078,4153.717773,4671.666504,4497.307617,4440.769043,4589.743652,6023.000000,3.000000,74.000000,,,,0.000000,4.000000,4.000000,4.000000,4.000000,4.000000,4.000000,4.000000,4.000000,4.000000,4.000000,4.000000,4.000000,4.000000,4.000000,100.000000,,,,,,,,,,,,,,,,,,,,,,,,,,,,
1703163408.287660,1703163408.288053,92.000000,0.000000,4227.563965,4212.436035,4325.000000,4280.641113,4190.128418,4162.436035,4232.692383,4197.692383,4177.820313,4158.846191,4678.974121,4503.205078,4450.769043,4588.589844,6324.000000,3.000000,74.000000,,,,0.000000,4.000000,4.000000,4.000000,4.000000,4.000000,4.000000,4.000000,4.000000,4.000000,4.000000,4.000000,4.000000,4.000000,4.000000,100.000000,,,,,,,,,,,,,,,,,23.000000,0.000000,0.717127,0.022766,-0.675049,0.171814,0.967403,-0.214870,0.085460,-12.204682,-43.913490,65.732994
1703163408.295468,1703163408.295761,93.000000,0.000000,4233.077148,4216.794922,4327.692383,4296.025879,4201.538574,4169.358887,4232.692383,4192.948730,4182.436035,4158.333496,4685.256348,4504.487305,4457.051270,4587.692383,5985.000000,3.000000,74.000000,,,,0.000000,4.000000,4.000000,4.000000,4.000000,4.000000,4.000000,4.000000,4.000000,4.000000,4.000000,4.000000,4.000000,4.000000,4.000000,100.000000,,,,,,,,,,,,,,,,,,,,,,,,,,,,
1703163408.303277,1703163408.303669,94.000000,0.000000,4225.641113,4216.410156,4324.743652,4286.025879,4192.179688,4156.282227,4227.820313,4181.153809,4176.410156,4156.153809,4677.436035,4493.333496,4449.487305,4589.102539,5672.000000,3.000000,74.000000,,,,0.000000,4.000000,4.000000,4.000000,4.000000,4.000000,4.000000,4.000000,4.000000,4.000000,4.000000,4.000000,4.000000,4.000000,4.000000,100.000000,,,,,,,,,,,,,,,,,,,,,,,,,,,,
1703163408.311085,1703163408.311477,95.000000,0.000000,4217.692383,4213.974121,4321.666504,4280.512695,4183.846191,4149.102539,4227.436035,4175.000000,4167.436035,4150.897461,4668.461426,4485.512695,4450.641113,4587.307617,6023.000000,3.000000,74.000000,,,,0.000000,4.000000,4.000000,4.000000,4.000000,4.000000,4.000000,4.000000,4.000000,4.000000,4.000000,4.000000,4.000000,4.000000,4.000000,100.000000,,,,,,,,,,,,,,,,,,,,,,,,,,,,
1703163408.318893,1703163408.319385,96.000000,0.000000,4221.538574,4208.974121,4323.461426,4285.128418,4187.307617,4157.179688,4232.307617,4179.743652,4167.307617,4150.769043,4672.820313,4491.410156,4454.358887,4583.205078,6324.000000,3.000000,74.000000,,,,0.000000,4.000000,4.000000,4.000000,4.000000,4.000000,4.000000,4.000000,4.000000,4.000000,4.000000,4.000000,4.000000,4.000000,4.000000,100.000000,,,,,,,,,,,,,,,,,24.000000,0.000000,0.717220,0.022583,-0.675049,0.171448,0.983030,-0.192406,0.084483,-12.217547,-43.888809,65.626358
1703163408.326701,1703163408.327194,97.000000,0.000000,4225.512695,4211.025879,4329.487305,4282.820313,4195.384766,4162.307617,4235.384766,4183.077148,4172.179688,4159.743652,4677.436035,4499.871582,4453.717773,4591.025879,5985.000000,3.000000,74.000000,,,,0.000000,4.000000,4.000000,4.000000,4.000000,4.000000,4.000000,4.000000,4.000000,4.000000,4.000000,4.000000,4.000000,4.000000,4.000000,100.000000,,,,,,,,,,,,,,,,,,,,,,,,,,,,
1703163408.334509,1703163408.335102,98.000000,0.000000,4219.230957,4210.384766,4326.025879,4276.922852,4194.230957,4156.794922,4234.743652,4183.461426,4169.102539,4153.846191,4673.205078,4497.692383,4453.717773,4589.487305,5672.000000,3.000000,74.000000,,,,0.000000,4.000000,4.000000,4.000000,4.000000,4.000000,4.000000,4.000000,4.000000,4.000000,4.000000,4.000000,4.000000,4.000000,4.000000,100.000000,,,,,,,,,,,,,,,,,,,,,,,,,,,,
1703163408.342317,1703163408.342910,99.000000,0.000000,4213.333496,4200.769043,4316.538574,4275.128418,4178.077148,4148.974121,4232.307617,4183.333496,4159.615234,4134.358887,4668.717773,4489.358887,4451.538574,4576.025879,6023.000000,3.000000,74.000000,,,,0.000000,4.000000,4.000000,4.000000,4.000000,4.000000,4.000000,4.000000,4.000000,4.000000,4.000000,4.000000,4.000000,4.000000,4.000000,100.000000,,,,,,,,,,,,,,,,,,,,,,,,,,,,
1703163408.350125,1703163408.350818,100.000000,0.000000,4214.871582,4195.512695,4318.077148,4274.743652,4167.692383,4148.333496,4232.948730,4186.410156,4160.128418,4127.179688,4668.589844,4490.769043,4445.897461,4582.948730,6324.000000,3.000000,74.000000,,,,0.000000,4.000000,4.000000,4.000000,4.000000,4.000000,4.000000,4.000000,4.000000,4.000000,4.000000,4.000000,4.000000,4.000000,4.000000,100.000000,,,,,,,,,,,,,,,,,25.000000,0.000000,0.717311,0.022461,-0.674988,0.171326,0.974728,-0.188988,0.086436,-12.129126,-43.983261,65.563721
1703163408.357933,1703163408.358626,101.000000,0.000000,4221.282227,4204.102539,4326.153809,4276.025879,4178.974121,4153.846191,4235.256348,4190.897461,4164.743652,4136.666504,4674.102539,4500.128418,4451.538574,4591.794922,5985.000000,3.000000,74.000000,,,,0.000000,4.000000,4.000000,4.000000,4.000000,4.000000,4.000000,4.000000,4.000000,4.000000,4.000000,4.000000,4.000000,4.000000,4.000000,100.000000,,,,,,,,,,,,,,,,,,,,,,,,,,,,
1703163408.365741,1703163408.366534,102.000000,0.000000,4222.948730,4205.384766,4325.000000,4278.846191,4187.179688,4152.051270,4232.563965,4189.487305,4159.358887,4144.102539,4673.717773,4504.358887,4454.615234,4574.871582,5672.000000,3.000000,74.000000,,,,0.000000,4.000000,4.000000,4.000000,4.000000,4.000000,4.000000,4.000000,4.000000,4.000000,4.000000,4.000000,4.000000,4.000000,4.000000,100.000000,,,,,,,,,,,,,,,,,,,,,,,,,,,,
1703163408.373549,1703163408.374342,103.000000,0.000000,4210.641113,4185.769043,4317.307617,4284.358887,4176.538574,4149.230957,4230.769043,4187.948730,4158.974121,4140.256348,4663.846191,4500.641113,4434.358887,4563.461426,6023.000000,3.000000,74.000000,,,,0.000000,4.000000,4.000000,4.000000,4.000000,4.000000,4.000000,4.000000,4.000000,4.000000,4.000000,4.000000,4.000000,4.000000,4.000000,100.000000,,,,,,,,,,,,,,,,,,,,,,,,,,,,
1703163408.381357,1703163408.382251,104.000000,0.000000,4198.974121,4173.974121,4313.333496,4281.922852,4169.102539,4152.563965,4229.102539,4188.333496,4164.743652,4135.769043,4660.128418,4493.589844,4431.538574,4575.000000,6324.000000,3.000000,74.000000,,,,0.000000,4.000000,4.000000,4.000000,4.000000,4.000000,4.000000,4.000000,4.000000,4.000000,4.000000,4.000000,4.000000,4.000000,4.000000,100.000000,,,,,,,,,,,,,,,,,26.000000,0.000000,0.717352,0.022522,-0.674927,0.171387,0.972287,-0.189476,0.081553,-12.049546,-43.984936,65.590683
1703163408.389165,1703163408.390059,105.000000,0.000000,4205.641113,4183.974121,4311.410156,4270.384766,4174.871582,4153.077148,4226.410156,4187.692383,4167.051270,4142.179688,4672.307617,4490.512695,4459.102539,4585.641113,5985.000000,3.000000,74.000000,,,,0.000000,4.000000,4.000000,4.000000,4.000000,4.000000,4.000000,4.000000,4.000000,4.000000,4.000000,4.000000,4.000000,4.000000,4.000000,100.000000,,,,,,,,,,,,,,,,,,,,,,,,,,,,
1703163408.396973,1703163408.397967,106.000000,0.000000,4214.102539,4187.051270,4311.794922,4267.692383,4185.128418,4152.820313,4226.025879,4187.820313,4176.282227,4161.410156,4686.794922,4497.051270,4481.538574,4587.563965,5672.000000,3.000000,74.000000,,,,0.000000,4.000000,4.000000,4.000000,4.000000,4.000000,4.000000,4.000000,4.000000,4.000000,4.000000,4.000000,4.000000,4.000000,4.000000,100.000000,,,,,,,,,,,,,,,,,,,,,,,,,,,,
1703163408.404781,1703163408.405775,107.000000,0.000000,4206.794922,4170.769043,4313.846191,4264.358887,4190.769043,4157.820313,4221.025879,4190.641113,4193.205078,4180.897461,4689.487305,4500.384766,4484.871582,4582.563965,6023.000000,3.000000,74.000000,,,,0.000000,4.000000,4.000000,4.000000,4.000000,4.000000,4.000000,4.000000,4.000000,4.000000,4.000000,4.000000,4.000000,4.000000,4.000000,100.000000,,,,,,,,,,,,,,,,,,,,,,,,,,,,
1703163408.412589,1703163408.413683,108.000000,0.000000,4204.615234,4166.410156,4311.153809,4259.230957,4188.974121,4158.974121,4221.538574,4190.128418,4197.692383,4184.743652,4689.871582,4494.615234,4483.205078,4578.205078,6324.000000,3.000000,74.000000,,,,0.000000,4.000000,4.000000,4.000000,4.000000,4.000000,4.000000,4.000000,4.000000,4.000000,4.000000,4.000000,4.000000,4.000000,4.000000,100.000000,,,,,,,,,,,,,,,,,27.000000,0.000000,0.717243,0.022278,-0.674988,0.171631,0.962031,-0.212428,0.082041,-11.994592,-43.869774,65.714951
1703163408.420397,1703163408.421491,109.000000,0.000000,4210.128418,4170.769043,4303.077148,4262.307617,4183.974121,4157.820313,4227.820313,4185.000000,4191.538574,4178.461426,4689.102539,4487.051270,4480.897461,4576.538574,5985.000000,3.000000,74.000000,,,,0.000000,4.000000,4.000000,4.000000,4.000000,4.000000,4.000000,4.000000,4.000000,4.000000,4.000000,4.000000,4.000000,4.000000,4.000000,100.000000,,,,,,,,,,,,,,,,,,,,,,,,,,,,
1703163408.428205,1703163408.429200,110.000000,0.000000,4205.769043,4160.128418,4295.769043,4267.948730,4181.025879,4162.948730,4225.128418,4184.615234,4187.179688,4168.717773,4682.563965,4481.410156,4474.487305,4570.769043,5672.000000,3.000000,74.000000,,,,0.000000,4.000000,4.000000,4.000000,4.000000,4.000000,4.000000,4.000000,4.000000,4.000000,4.000000,4.000000,4.000000,4.000000,4.000000,100.000000,,,,,,,,,,,,,,,,,,,,,,,,,,,,
1703163408.436013,1703163408.437108,111.000000,0.000000,4196.922852,4151.922852,4295.128418,4262.820313,4184.358887,4164.871582,4224.102539,4183.717773,4181.282227,4158.461426,4675.128418,4478.717773,4470.000000,4572.051270,6023.000000,3.000000,74.000000,,,,0.000000,4.000000,4.000000,4.000000,4.000000,4.000000,4.000000,4.000000,4.000000,4.000000,4.000000,4.000000,4.000000,4.000000,4.000000,100.000000,,,,,,,,,,,,,,,,,,,,,,,,,,,,
1703163408.443821,1703163408.444916,112.000000,0.000000,4190.769043,4155.128418,4294.230957,4255.512695,4189.358887,4162.307617,4229.358887,4174.743652,4168.974121,4145.384766,4666.282227,4475.641113,4460.897461,4570.641113,6324.000000,3.000000,74.000000,,,,0.000000,4.000000,4.000000,4.000000,4.000000,4.000000,4.000000,4.000000,4.000000,4.000000,4.000000,4.000000,4.000000,4.000000,4.000000,100.000000,,,,,,,,,,,,,,,,,28.000000,0.000000,0.717216,0.022217,-0.674988,0.171753,0.967892,-0.204126,0.081065,-12.011799,-43.916130,65.643456
1703163408.451629,1703163408.452724,113.000000,0.000000,4184.102539,4155.384766,4292.436035,4257.051270,4190.000000,4161.410156,4229.230957,4169.615234,4157.948730,4133.333496,4659.102539,4471.922852,4455.641113,4554.487305,5985.000000,3.000000,74.000000,,,,0.000000,4.000000,4.000000,4.000000,4.000000,4.000000,4.000000,4.000000,4.000000,4.000000,4.000000,4.000000,4.000000,4.000000,4.000000,100.000000,,,,,,,,,,,,,,,,,,,,,,,,,,,,
1703163408.459437,1703163408.460432,114.000000,0.000000,4186.282227,4152.436035,4297.179688,4251.538574,4186.666504,4159.102539,4227.051270,4180.769043,4162.563965,4138.717773,4661.922852,4477.307617,4458.333496,4557.051270,5672.000000,3.000000,74.000000,,,,0.000000,4.000000,4.000000,4.000000,4.000000,4.000000,4.000000,4.000000,4.000000,4.000000,4.000000,4.000000,4.000000,4.000000,4.000000,100.000000,,,,,,,,,,,,,,,,,,,,,,,,,,,,
1703163408.467245,1703163408.468240,115.000000,0.000000,4200.641113,4157.179688,4310.000000,4246.922852,4179.102539,4155.897461,4230.000000,4198.205078,4180.512695,4159.230957,4678.461426,4492.051270,4466.153809,4586.153809,6023.000000,3.000000,74.000000,,,,0.000000,4.000000,4.000000,4.000000,4.000000,4.000000,4.000000,4.000000,4.000000,4.000000,4.000000,4.000000,4.000000,4.000000,4.000000,100.000000,,,,,,,,,,,,,,,,,,,,,,,,,,,,
1703163408.475053,1703163408.475948,116.000000,0.000000,4206.025879,4159.102539,4311.538574,4262.692383,4170.897461,4153.333496,4224.743652,4203.589844,4184.615234,4166.922852,4687.307617,4497.692383,4471.538574,4583.974121,6324.000000,3.000000,74.000000,,,,0.000000,4.000000,4.000000,4.000000,4.000000,4.000000,4.000000,4.000000,4.000000,4.000000,4.000000,4.000000,4.000000,4.000000,4.000000,100.000000,,,,,,,,,,,,,,,,,29.000000,0.000000,0.717349,0.022095,-0.674866,0.171692,0.958125,-0.222683,0.083506,-11.910620,-43.891186,65.545776
1703163408.482861,1703163408.483756,117.000000,0.000000,4198.333496,4153.461426,4300.000000,4270.256348,4169.487305,4151.153809,4217.563965,4196.922852,4169.871582,4154.487305,4678.333496,4491.282227,4464.871582,4556.922852,5985.000000,3.000000,74.000000,,,,0.000000,4.000000,4.000000,4.000000,4.000000,4.000000,4.000000,4.000000,4.000000,4.000000,4.000000,4.000000,4.000000,4.000000,4.000000,100.000000,,,,,,,,,,,,,,,,,,,,,,,,,,,,
1703163408.490670,1703163408.491464,118.000000,0.000000,4197.051270,4152.692383,4298.589844,4251.666504,4170.641113,4146.922852,4218.077148,4186.410156,4161.538574,4147.179688,4672.436035,4489.871582,4464.102539,4553.205078,5672.000000,3.000000,74.000000,,,,0.000000,4.000000,4.000000,4.000000,4.000000,4.000000,4.000000,4.000000,4.000000,4.000000,4.000000,4.000000,4.000000,4.000000,4.000000,100.000000,,,,,,,,,,,,,,,,,,,,,,,,,,,,
1703163408.498478,1703163408.499272,119.000000,0.000000,4202.051270,4154.102539,4307.820313,4247.307617,4169.487305,4145.384766,4216.410156,4182.051270,4168.717773,4153.461426,4677.820313,4492.948730,4476.410156,4566.794922,6023.000000,3.000000,74.000000,,,,0.000000,4.000000,4.000000,4.000000,4.000000,4.000000,4.000000,4.000000,4.000000,4.000000,4.000000,4.000000,4.000000,4.000000,4.000000,100.000000,,,,,,,,,,,,,,,,,,,,,,,,,,,,
1703163408.506286,1703163408.506980,120.000000,0.000000,4202.051270,4157.948730,4313.974121,4270.641113,4172.436035,4147.692383,4214.230957,4183.589844,4170.384766,4156.538574,4682.948730,4492.179688,4478.717773,4581.282227,6324.000000,3.000000,74.000000,,,,0.000000,4.000000,4.000000,4.000000,4.000000,4.000000,4.000000,4.000000,4.000000,4.000000,4.000000,4.000000,4.000000,4.000000,4.000000,100.000000,,,,,,,,,,,,,,,,,30.000000,0.000000,0.717482,0.021973,-0.674744,0.171631,0.970333,-0.214870,0.088390,-11.936224,-43.852066,65.574532
1703163408.514094,1703163408.514788,121.000000,0.000000,4208.205078,4165.897461,4315.769043,4282.436035,4176.922852,4151.538574,4220.641113,4182.692383,4166.538574,4152.820313,4685.641113,4491.666504,4473.461426,4588.717773,5985.000000,3.000000,74.000000,,,,0.000000,4.000000,4.000000,4.000000,4.000000,4.000000,4.000000,4.000000,4.000000,4.000000,4.000000,4.000000,4.000000,4.000000,4.000000,100.000000,,,,,,,,,,,,,,,,,,,,,,,,,,,,
1703163408.521902,1703163408.522497,122.000000,0.000000,4214.230957,4166.282227,4314.230957,4271.282227,4179.358887,4158.589844,4227.436035,4181.666504,4168.974121,4153.974121,4686.538574,4493.205078,4478.461426,4580.128418,5672.000000,3.000000,74.000000,,,,0.000000,4.000000,4.000000,4.000000,4.000000,4.000000,4.000000,4.000000,4.000000,4.000000,4.000000,4.000000,4.000000,4.000000,4.000000,100.000000,,,,,,,,,,,,,,,,,,,,,,,,,,,,
1703163408.529710,1703163408.530304,123.000000,0.000000,4203.974121,4158.077148,4309.743652,4260.641113,4183.846191,4166.410156,4225.256348,4182.692383,4170.384766,4160.512695,4681.153809,4490.256348,4479.230957,4566.922852,6023.000000,3.000000,74.000000,,,,0.000000,4.000000,4.000000,4.000000,4.000000,4.000000,4.000000,4.000000,4.000000,4.000000,4.000000,4.000000,4.000000,4.000000,4.000000,100.000000,,,,,,,,,,,,,,,,,,,,,,,,,,,,
1703163408.537518,1703163408.538013,124.000000,0.000000,4196.025879,4153.846191,4307.820313,4261.794922,4182.436035,4166.666504,4224.487305,4182.563965,4171.666504,4159.743652,4678.205078,4486.025879,4468.717773,4570.256348,6324.000000,3.000000,74.000000,,,,0.000000,4.000000,4.000000,4.000000,4.000000,4.000000,4.000000,4.000000,4.000000,4.000000,4.000000,4.000000,4.000000,4.000000,4.000000,100.000000,,,,,,,,,,,,,,,,,31.000000,0.000000,0.717612,0.021973,-0.674622,0.171570,0.968380,-0.192895,0.087901,-11.875935,-43.900192,65.467079
1703163408.545326,1703163408.545821,125.000000,0.000000,4202.307617,4157.436035,4308.589844,4265.897461,4176.922852,4158.717773,4224.871582,4183.077148,4172.179688,4154.230957,4681.538574,4487.692383,4469.358887,4574.230957,5985.000000,3.000000,74.000000,,,,0.000000,4.000000,4.000000,4.000000,4.000000,4.000000,4.000000,4.000000,4.000000,4.000000,4.000000,4.000000,4.000000,4.000000,4.000000,100.000000,,,,,,,,,,,,,,,,,,,,,,,,,,,,
1703163408.553134,1703163408.553529,126.000000,0.000000,4203.717773,4164.102539,4305.769043,4270.384766,4180.128418,4153.589844,4221.666504,4183.974121,4167.948730,4153.205078,4678.461426,4490.000000,4468.077148,4568.333496,5672.000000,3.000000,74.000000,,,,0.000000,4.000000,4.000000,4.000000,4.000000,4.000000,4.000000,4.000000,4.000000,4.000000,4.000000,4.000000,4.000000,4.000000,4.000000,100.000000,,,,,,,,,,,,,,,,,,,,,,,,,,,,
1703163408.560942,1703163408.561437,127.000000,0.000000,4200.512695,4169.743652,4305.512695,4274.871582,4181.922852,4149.358887,4220.641113,4186.153809,4166.666504,4153.846191,4672.692383,4490.769043,4461.410156,4567.436035,74.000000,3.000000,74.000000,,,,0.000000,4.000000,4.000000,4.000000,4.000000,4.000000,4.000000,4.000000,4.000000,4.000000,4.000000,4.000000,4.000000,4.000000,4.000000,100.000000,,,,,,,,,,,,,,,,,,,,,,,,,,,,
1703163408.568750,1703163408.569245,0.000000,0.000000,4207.179688,4171.922852,4310.641113,4273.589844,4180.000000,4145.641113,4223.205078,4193.589844,4171.410156,4153.205078,4674.358887,4492.820313,4467.948730,4575.641113,5437.000000,3.000000,74.000000,,,,0.000000,4.000000,4.000000,4.000000,4.000000,4.000000,4.000000,4.000000,4.000000,4.000000,4.000000,4.000000,4.000000,4.000000,4.000000,100.000000,,,,,,,,,,,,,,,,,0.000000,0.000000,0.717739,0.022034,-0.674500,0.171509,0.980100,-0.203150,0.089366,-11.905008,-43.943508,65.503700
1703163408.576558,1703163408.577153,1.000000,0.000000,4207.051270,4167.563965,4309.102539,4263.846191,4179.743652,4153.589844,4224.102539,4196.025879,4166.538574,4148.846191,4673.589844,4492.820313,4470.256348,4572.179688,5382.000000,3.000000,74.000000,,,,0.000000,4.000000,4.000000,4.000000,4.000000,4.000000,4.000000,4.000000,4.000000,4.000000,4.000000,4.000000,4.000000,4.000000,4.000000,100.000000,,,,,,,,,,,,,,,,,,,,,,,,,,,,
1703163408.584366,1703163408.584961,2.000000,0.000000,4198.974121,4160.641113,4300.897461,4262.948730,4178.846191,4158.589844,4223.077148,4188.846191,4157.820313,4140.512695,4666.025879,4487.820313,4455.384766,4553.846191,5290.000000,3.000000,74.000000,,,,0.000000,4.000000,4.000000,4.000000,4.000000,4.000000,4.000000,4.000000,4.000000,4.000000,4.000000,4.000000,4.000000,4.000000,4.000000,100.000000,,,,,,,,,,,,,,,,,,,,,,,,,,,,
1703163408.592174,1703163408.592869,3.000000,0.000000,4200.769043,4161.794922,4302.820313,4272.051270,4180.128418,4152.692383,4219.615234,4185.256348,4160.384766,4134.358887,4663.717773,4483.077148,4450.384766,4553.205078,5258.000000,3.000000,74.000000,,,,0.000000,4.000000,4.000000,4.000000,4.000000,4.000000,4.000000,4.000000,4.000000,4.000000,4.000000,4.000000,4.000000,4.000000,4.000000,100.000000,,,,,,,,,,,,,,,,,,,,,,,,,,,,
1703163408.599982,1703163408.600678,4.000000,0.000000,4203.077148,4169.230957,4309.358887,4275.384766,4184.487305,4153.589844,4216.282227,4188.205078,4165.128418,4139.487305,4672.051270,4486.153809,4463.846191,4573.077148,4929.000000,3.000000,74.000000,,,,0.000000,4.000000,4.000000,4.000000,4.000000,4.000000,4.000000,4.000000,4.000000,4.000000,4.000000,4.000000,4.000000,4.000000,4.000000,100.000000,,,,,,,,,,,,,,,,,1.000000,0.000000,0.717838,0.022095,-0.674438,0.171326,0.975705,-0.194848,0.084483,-11.947841,-43.965824,65.419998
1703163408.607790,1703163408.608586,5.000000,0.000000,4203.974121,4171.025879,4308.205078,4278.205078,4179.102539,4157.436035,4218.717773,4187.948730,4163.461426,4147.692383,4675.384766,4490.000000,4465.641113,4581.666504,5020.000000,3.000000,74.000000,,,,0.000000,4.000000,4.000000,4.000000,4.000000,4.000000,4.000000,4.000000,4.000000,4.000000,4.000000,4.000000,4.000000,4.000000,4.000000,100.000000,,,,,,,,,,,,,,,,,,,,,,,,,,,,
1703163408.615598,1703163408.616394,6.000000,0.000000,4213.333496,4168.461426,4308.077148,4279.743652,4173.589844,4153.974121,4219.743652,4181.666504,4159.102539,4142.820313,4670.512695,4485.384766,4458.717773,4575.897461,2468.000000,3.000000,74.000000,,,,0.000000,4.000000,4.000000,4.000000,4.000000,4.000000,4.000000,4.000000,4.000000,4.000000,4.000000,4.000000,4.000000,4.000000,4.000000,100.000000,,,,,,,,,,,,,,,,,,,,,,,,,,,,
1703163408.623406,1703163408.624102,7.000000,0.000000,4217.436035,4168.974121,4309.487305,4273.846191,4171.922852,4150.897461,4218.077148,4173.333496,4156.666504,4133.461426,4669.615234,4477.948730,4460.384766,4569.871582,4415.000000,3.000000,74.000000,,,,0.000000,4.000000,4.000000,4.000000,4.000000,4.000000,4.000000,4.000000,4.000000,4.000000,4.000000,4.000000,4.000000,4.000000,4.000000,100.000000,,,,,,,,,,,,,,,,,,,,,,,,,,,,
1703163408.631214,1703163408.631910,8.000000,0.000000,4213.205078,4174.743652,4306.410156,4273.846191,4161.922852,4151.025879,4220.128418,4169.102539,4153.846191,4134.102539,4672.563965,4476.666504,4462.820313,4567.436035,5161.000000,3.000000,74.000000,,,,0.000000,4.000000,4.000000,4.000000,4.000000,4.000000,4.000000,4.000000,4.000000,4.000000,4.000000,4.000000,4.000000,4.000000,4.000000,100.000000,,,,,,,,,,,,,,,,,2.000000,0.000000,0.717868,0.022095,-0.674438,0.171204,0.972775,-0.201685,0.086436,-12.053057,-44.052574,65.528000
1703163408.639022,1703163408.639618,9.000000,0.000000,4212.436035,4183.461426,4301.922852,4266.538574,4164.871582,4148.077148,4222.820313,4173.846191,4153.717773,4138.589844,4674.871582,4479.871582,4463.205078,4568.717773,5357.000000,3.000000,74.000000,,,,0.000000,4.000000,4.000000,4.000000,4.000000,4.000000,4.000000,4.000000,4.000000,4.000000,4.000000,4.000000,4.000000,4.000000,4.000000,100.000000,,,,,,,,,,,,,,,,,,,,,,,,,,,,
1703163408.646830,1703163408.647426,10.000000,0.000000,4212.820313,4186.153809,4303.846191,4243.974121,4175.641113,4147.179688,4222.820313,4181.666504,4160.384766,4136.794922,4680.512695,4485.000000,4467.436035,4571.666504,5676.000000,3.000000,74.000000,,,,0.000000,4.000000,4.000000,4.000000,4.000000,4.000000,4.000000,4.000000,4.000000,4.000000,4.000000,4.000000,4.000000,4.000000,4.000000,100.000000,,,,,,,,,,,,,,,,,,,,,,,,,,,,
1703163408.654638,1703163408.655134,11.000000,0.000000,4213.461426,4182.820313,4311.282227,4251.666504,4165.256348,4148.077148,4218.717773,4191.410156,4170.000000,4138.461426,4687.563965,4492.179688,4477.179688,4573.333496,6017.000000,3.000000,74.000000,,,,0.000000,4.000000,4.000000,4.000000,4.000000,4.000000,4.000000,4.000000,4.000000,4.000000,4.000000,4.000000,4.000000,4.000000,4.000000,100.000000,,,,,,,,,,,,,,,,,,,,,,,,,,,,
1703163408.662446,1703163408.662942,12.000000,0.000000,4220.128418,4185.512695,4314.358887,4277.436035,4154.871582,4144.487305,4216.922852,4200.000000,4174.743652,4145.769043,4685.641113,4493.974121,4476.410156,4587.436035,6325.000000,3.000000,74.000000,,,,0.000000,4.000000,4.000000,4.000000,4.000000,4.000000,4.000000,4.000000,4.000000,4.000000,4.000000,4.000000,4.000000,4.000000,4.000000,100.000000,,,,,,,,,,,,,,,,,3.000000,0.000000,0.717925,0.022095,-0.674377,0.171204,0.981077,-0.194360,0.090343,-11.981084,-43.913982,65.625198
1703163408.670254,1703163408.670650,13.000000,0.000000,4221.922852,4189.230957,4309.230957,4273.461426,4160.000000,4140.256348,4216.666504,4201.410156,4171.282227,4146.153809,4677.051270,4488.461426,4462.692383,4594.743652,5996.000000,3.000000,74.000000,,,,0.000000,4.000000,4.000000,4.000000,4.000000,4.000000,4.000000,4.000000,4.000000,4.000000,4.000000,4.000000,4.000000,4.000000,4.000000,100.000000,,,,,,,,,,,,,,,,,,,,,,,,,,,,
1703163408.678063,1703163408.678458,14.000000,0.000000,4212.051270,4185.512695,4307.820313,4266.410156,4164.871582,4140.256348,4216.538574,4198.333496,4170.000000,4138.461426,4672.820313,4486.794922,4460.000000,4580.000000,5676.000000,3.000000,74.000000,,,,0.000000,4.000000,4.000000,4.000000,4.000000,4.000000,4.000000,4.000000,4.000000,4.000000,4.000000,4.000000,4.000000,4.000000,4.000000,100.000000,,,,,,,,,,,,,,,,,,,,,,,,,,,,
1703163408.685871,1703163408.686166,15.000000,0.000000,4209.615234,4189.871582,4310.897461,4279.871582,4160.000000,4142.436035,4218.974121,4193.077148,4172.692383,4140.384766,4674.871582,4484.230957,4471.153809,4570.641113,6017.000000,3.000000,74.000000,,,,0.000000,4.000000,4.000000,4.000000,4.000000,4.000000,4.000000,4.000000,4.000000,4.000000,4.000000,4.000000,4.000000,4.000000,4.000000,100.000000,,,,,,,,,,,,,,,,,,,,,,,,,,,,
1703163408.693679,1703163408.693974,16.000000,0.000000,4218.974121,4198.717773,4307.179688,4281.666504,4154.743652,4141.025879,4218.974121,4187.436035,4171.666504,4149.102539,4677.563965,4477.051270,4477.307617,4581.922852,0.000000,3.000000,74.000000,,,,0.000000,4.000000,4.000000,4.000000,4.000000,4.000000,4.000000,4.000000,4.000000,4.000000,4.000000,4.000000,4.000000,4.000000,4.000000,100.000000,,,,,,,,,,,,,,,,,4.000000,0.000000,0.717925,0.022095,-0.674377,0.171204,0.965938,-0.186546,0.096203,-12.066309,-43.889252,65.612679
1703163408.701487,1703163408.701682,17.000000,0.000000,4222.948730,4191.794922,4308.333496,4270.000000,4159.487305,4141.153809,4216.922852,4187.051270,4164.615234,4144.743652,4674.487305,4478.205078,4474.358887,4594.102539,0.000000,3.000000,74.000000,,,,0.000000,4.000000,4.000000,4.000000,4.000000,4.000000,4.000000,4.000000,4.000000,4.000000,4.000000,4.000000,4.000000,4.000000,4.000000,100.000000,,,,,,,,,,,,,,,,,,,,,,,,,,,,
1703163408.709295,1703163408.709490,18.000000,0.000000,4214.358887,4186.922852,4315.897461,4266.282227,4173.461426,4148.205078,4217.948730,4183.333496,4156.794922,4137.051270,4667.948730,4481.922852,4472.307617,4582.820313,0.000000,3.000000,74.000000,,,,0.000000,4.000000,4.000000,4.000000,4.000000,4.000000,4.000000,4.000000,4.000000,4.000000,4.000000,4.000000,4.000000,4.000000,4.000000,100.000000,,,,,,,,,,,,,,,,,,,,,,,,,,,,
1703163408.717103,1703163408.717198,19.000000,0.000000,4210.769043,4201.153809,4313.077148,4265.256348,4178.589844,4154.615234,4218.589844,4171.282227,4148.589844,4131.794922,4662.436035,4475.256348,4471.153809,4563.974121,0.000000,3.000000,74.000000,,,,0.000000,4.000000,4.000000,4.000000,4.000000,4.000000,4.000000,4.000000,4.000000,4.000000,4.000000,4.000000,4.000000,4.000000,4.000000,100.000000,,,,,,,,,,,,,,,,,,,,,,,,,,,,
1703163408.724911,1703163408.725106,20.000000,0.000000,4221.153809,4206.922852,4309.102539,4266.153809,4169.743652,4154.871582,4218.077148,4168.205078,4141.538574,4122.051270,4659.743652,4471.025879,4463.077148,4572.948730,0.000000,3.000000,74.000000,,,,0.000000,4.000000,4.000000,4.000000,4.000000,4.000000,4.000000,4.000000,4.000000,4.000000,4.000000,4.000000,4.000000,4.000000,4.000000,100.000000,,,,,,,,,,,,,,,,,5.000000,0.000000,0.717939,0.022095,-0.674377,0.171143,0.978147,-0.195336,0.088878,-12.093012,-43.866993,65.518082
1703163408.732719,1703163408.732914,21.000000,0.000000,4231.794922,4201.666504,4317.436035,4279.230957,4165.769043,4152.436035,4220.641113,4172.436035,4145.769043,4117.307617,4662.948730,4479.358887,4458.717773,4597.436035,0.000000,3.000000,74.000000,,,,0.000000,4.000000,4.000000,4.000000,4.000000,4.000000,4.000000,4.000000,4.000000,4.000000,4.000000,4.000000,4.000000,4.000000,4.000000,100.000000,,,,,,,,,,,,,,,,,,,,,,,,,,,,
1703163408.740527,1703163408.740823,22.000000,0.000000,4234.487305,4205.128418,4326.153809,4288.717773,4163.846191,4149.615234,4221.666504,4173.461426,4153.333496,4126.282227,4671.538574,4487.948730,4468.717773,4597.436035,0.000000,3.000000,74.000000,,,,0.000000,4.000000,4.000000,4.000000,4.000000,4.000000,4.000000,4.000000,4.000000,4.000000,4.000000,4.000000,4.000000,4.000000,4.000000,100.000000,,,,,,,,,,,,,,,,,,,,,,,,,,,,
1703163408.748335,1703163408.748631,23.000000,0.000000,4230.512695,4205.897461,4323.974121,4269.871582,4153.205078,4142.179688,4219.871582,4176.922852,4154.743652,4132.692383,4677.692383,4487.948730,4477.692383,4583.461426,0.000000,3.000000,74.000000,,,,0.000000,4.000000,4.000000,4.000000,4.000000,4.000000,4.000000,4.000000,4.000000,4.000000,4.000000,4.000000,4.000000,4.000000,4.000000,100.000000,,,,,,,,,,,,,,,,,,,,,,,,,,,,
1703163408.756143,1703163408.756539,24.000000,0.000000,4231.282227,4203.077148,4319.871582,4254.743652,4150.128418,4135.641113,4220.769043,4184.230957,4155.897461,4132.692383,4680.256348,4486.153809,4477.307617,4592.948730,0.000000,3.000000,74.000000,,,,0.000000,4.000000,4.000000,4.000000,4.000000,4.000000,4.000000,4.000000,4.000000,4.000000,4.000000,4.000000,4.000000,4.000000,4.000000,100.000000,,,,,,,,,,,,,,,,,6.000000,0.000000,0.717911,0.022095,-0.674438,0.171021,0.959590,-0.198266,0.084971,-12.083711,-43.763626,65.649605
1703163408.763951,1703163408.764347,25.000000,0.000000,4230.512695,4205.000000,4319.358887,4276.153809,4163.205078,4143.333496,4220.128418,4188.461426,4162.436035,4142.051270,4683.333496,4490.128418,4477.563965,4599.102539,0.000000,3.000000,74.000000,,,,0.000000,4.000000,4.000000,4.000000,4.000000,4.000000,4.000000,4.000000,4.000000,4.000000,4.000000,4.000000,4.000000,4.000000,4.000000,100.000000,1.000000,91.666664,4.000000,4.000000,3.000000,4.000000,4.000000,4.000000,4.000000,4.000000,4.000000,4.000000,4.000000,4.000000,4.000000,4.000000,,,,,,,,,,,,
1703163408.771759,1703163408.772255,26.000000,0.000000,4219.615234,4198.333496,4317.051270,4290.000000,4172.307617,4150.128418,4221.025879,4189.102539,4163.846191,4150.384766,4680.897461,4490.641113,4477.307617,4584.871582,0.000000,3.000000,74.000000,,,,0.000000,4.000000,4.000000,4.000000,4.000000,4.000000,4.000000,4.000000,4.000000,4.000000,4.000000,4.000000,4.000000,4.000000,4.000000,100.000000,,,,,,,,,,,,,,,,,,,,,,,,,,,,
1703163408.779567,1703163408.780063,27.000000,0.000000,4213.846191,4184.615234,4310.000000,4270.641113,4162.179688,4141.538574,4223.846191,4187.051270,4156.794922,4146.538574,4671.666504,4479.487305,4467.051270,4579.871582,0.000000,3.000000,74.000000,,,,0.000000,4.000000,4.000000,4.000000,4.000000,4.000000,4.000000,4.000000,4.000000,4.000000,4.000000,4.000000,4.000000,4.000000,4.000000,100.000000,,,,,,,,,,,,,,,,,,,,,,,,,,,,
1703163408.787375,1703163408.787972,28.000000,0.000000,4219.743652,4182.307617,4304.102539,4261.025879,4158.974121,4140.769043,4222.179688,4185.384766,4157.563965,4138.333496,4669.358887,4473.333496,4459.743652,4592.692383,0.000000,3.000000,74.000000,,,,0.000000,4.000000,4.000000,4.000000,4.000000,4.000000,4.000000,4.000000,4.000000,4.000000,4.000000,4.000000,4.000000,4.000000,4.000000,100.000000,,,,,,,,,,,,,,,,,7.000000,0.000000,0.717891,0.022278,-0.674438,0.171082,0.961055,-0.208033,0.091808,-11.942006,-43.803932,65.801308
1703163408.795183,1703163408.795780,29.000000,0.000000,4215.641113,4184.871582,4306.282227,4269.102539,4167.179688,4151.922852,4225.641113,4190.769043,4165.769043,4138.077148,4675.769043,4482.820313,4459.615234,4592.436035,0.000000,3.000000,74.000000,,,,0.000000,4.000000,4.000000,4.000000,4.000000,4.000000,4.000000,4.000000,4.000000,4.000000,4.000000,4.000000,4.000000,4.000000,4.000000,100.000000,,,,,,,,,,,,,,,,,,,,,,,,,,,,
1703163408.802991,1703163408.803688,30.000000,0.000000,4202.563965,4181.538574,4308.974121,4264.871582,4162.692383,4148.717773,4227.563965,4187.948730,4163.077148,4140.897461,4673.333496,4487.179688,4457.692383,4572.307617,0.000000,3.000000,74.000000,,,,0.000000,4.000000,4.000000,4.000000,4.000000,4.000000,4.000000,4.000000,4.000000,4.000000,4.000000,4.000000,4.000000,4.000000,4.000000,100.000000,,,,,,,,,,,,,,,,,,,,,,,,,,,,
1703163408.810799,1703163408.811496,31.000000,0.000000,4205.384766,4178.205078,4305.256348,4255.769043,4150.384766,4141.410156,4224.871582,4172.307617,4146.410156,4133.974121,4659.615234,4473.846191,4452.820313,4570.000000,0.000000,3.000000,74.000000,,,,0.000000,4.000000,4.000000,4.000000,4.000000,4.000000,4.000000,4.000000,4.000000,4.000000,4.000000,4.000000,4.000000,4.000000,4.000000,100.000000,,,,,,,,,,,,,,,,,,,,,,,,,,,,
1703163408.818607,1703163408.819204,32.000000,0.000000,4215.000000,4181.538574,4303.589844,4260.000000,4152.948730,4149.487305,4224.743652,4164.871582,4137.948730,4126.153809,4653.846191,4465.512695,4447.692383,4580.641113,0.000000,3.000000,74.000000,,,,0.000000,4.000000,4.000000,4.000000,4.000000,4.000000,4.000000,4.000000,4.000000,4.000000,4.000000,4.000000,4.000000,4.000000,4.000000,100.000000,,,,,,,,,,,,,,,,,8.000000,0.000000,0.717892,0.022217,-0.674377,0.171326,0.986937,-0.197778,0.079111,-11.947805,-43.790203,65.687843
1703163408.826415,1703163408.827012,33.000000,0.000000,4217.948730,4195.128418,4310.000000,4273.974121,4164.743652,4157.179688,4224.230957,4168.077148,4142.051270,4123.717773,4665.256348,4475.000000,4452.692383,4583.077148,0.000000,3.000000,74.000000,,,,0.000000,4.000000,4.000000,4.000000,4.000000,4.000000,4.000000,4.000000,4.000000,4.000000,4.000000,4.000000,4.000000,4.000000,4.000000,100.000000,,,,,,,,,,,,,,,,,,,,,,,,,,,,
1703163408.834223,1703163408.834720,34.000000,0.000000,4216.794922,4201.538574,4316.025879,4274.743652,4172.436035,4157.307617,4224.230957,4168.461426,4141.410156,4126.025879,4671.794922,4480.897461,4458.846191,4581.410156,0.000000,3.000000,74.000000,,,,0.000000,4.000000,4.000000,4.000000,4.000000,4.000000,4.000000,4.000000,4.000000,4.000000,4.000000,4.000000,4.000000,4.000000,4.000000,100.000000,,,,,,,,,,,,,,,,,,,,,,,,,,,,
1703163408.842031,1703163408.842628,35.000000,0.000000,4212.948730,4194.102539,4312.436035,4265.384766,4170.897461,4154.871582,4225.128418,4165.897461,4140.641113,4125.128418,4666.410156,4473.717773,4452.436035,4574.743652,0.000000,3.000000,74.000000,,,,0.000000,4.000000,4.000000,4.000000,4.000000,4.000000,4.000000,4.000000,4.000000,4.000000,4.000000,4.000000,4.000000,4.000000,4.000000,100.000000,,,,,,,,,,,,,,,,,,,,,,,,,,,,
1703163408.849839,1703163408.850436,36.000000,0.000000,4218.846191,4196.282227,4308.589844,4277.948730,4167.436035,4151.025879,4221.282227,4171.282227,4150.384766,4125.897461,4671.922852,4474.102539,4452.563965,4569.615234,0.000000,3.000000,74.000000,,,,0.000000,4.000000,4.000000,4.000000,4.000000,4.000000,4.000000,4.000000,4.000000,4.000000,4.000000,4.000000,4.000000,4.000000,4.000000,100.000000,,,,,,,,,,,,,,,,,9.000000,0.000000,0.717825,0.022034,-0.674377,0.171631,0.968380,-0.218288,0.091320,-11.953025,-43.944519,65.752396
1703163408.857647,1703163408.858244,37.000000,0.000000,4232.563965,4208.333496,4316.538574,4298.974121,4170.641113,4151.153809,4217.948730,4181.282227,4161.025879,4138.974121,4687.820313,4486.794922,4466.794922,4581.153809,0.000000,3.000000,74.000000,,,,0.000000,4.000000,4.000000,4.000000,4.000000,4.000000,4.000000,4.000000,4.000000,4.000000,4.000000,4.000000,4.000000,4.000000,4.000000,100.000000,,,,,,,,,,,,,,,,,,,,,,,,,,,,
1703163408.865456,1703163408.865952,38.000000,0.000000,4231.153809,4200.641113,4321.794922,4290.769043,4171.538574,4153.205078,4222.307617,4189.487305,4165.641113,4153.717773,4689.102539,4489.487305,4471.410156,4596.410156,0.000000,3.000000,74.000000,,,,0.000000,4.000000,4.000000,4.000000,4.000000,4.000000,4.000000,4.000000,4.000000,4.000000,4.000000,4.000000,4.000000,4.000000,4.000000,100.000000,,,,,,,,,,,,,,,,,,,,,,,,,,,,
1703163408.873263,1703163408.873860,39.000000,0.000000,4212.948730,4179.487305,4314.102539,4270.641113,4167.563965,4150.512695,4219.230957,4192.692383,4170.384766,4156.282227,4675.769043,4481.410156,4457.692383,4585.769043,0.000000,3.000000,74.000000,,,,0.000000,4.000000,4.000000,4.000000,4.000000,4.000000,4.000000,4.000000,4.000000,4.000000,4.000000,4.000000,4.000000,4.000000,4.000000,100.000000,,,,,,,,,,,,,,,,,,,,,,,,,,,,
1703163408.881071,1703163408.881669,40.000000,0.000000,4202.436035,4172.179688,4306.410156,4269.743652,4165.512695,4147.051270,4213.333496,4190.384766,4169.487305,4153.846191,4668.717773,4481.153809,4450.128418,4573.974121,0.000000,3.000000,74.000000,,,,0.000000,4.000000,4.000000,4.000000,4.000000,4.000000,4.000000,4.000000,4.000000,4.000000,4.000000,4.000000,4.000000,4.000000,4.000000,100.000000,,,,,,,,,,,,,,,,,10.000000,0.000000,0.717755,0.021973,-0.674438,0.171692,0.958125,-0.193871,0.082530,-12.057722,-43.900066,65.677155
1703163408.888880,1703163408.889577,41.000000,0.000000,4200.384766,4168.077148,4307.436035,4264.615234,4165.769043,4148.077148,4218.974121,4187.692383,4160.000000,4152.948730,4670.897461,4482.820313,4456.922852,4570.512695,0.000000,3.000000,74.000000,,,,0.000000,4.000000,4.000000,4.000000,4.000000,4.000000,4.000000,4.000000,4.000000,4.000000,4.000000,4.000000,4.000000,4.000000,4.000000,100.000000,,,,,,,,,,,,,,,,,,,,,,,,,,,,
1703163408.896688,1703163408.897385,42.000000,0.000000,4194.102539,4153.846191,4302.436035,4253.077148,4165.641113,4147.692383,4220.128418,4183.717773,4153.974121,4144.615234,4669.358887,4474.230957,4457.051270,4553.974121,0.000000,3.000000,74.000000,,,,0.000000,4.000000,4.000000,4.000000,4.000000,4.000000,4.000000,4.000000,4.000000,4.000000,4.000000,4.000000,4.000000,4.000000,4.000000,100.000000,,,,,,,,,,,,,,,,,,,,,,,,,,,,
1703163408.904496,1703163408.905193,43.000000,0.000000,4193.333496,4148.077148,4295.769043,4260.769043,4167.307617,4150.512695,4216.025879,4181.794922,4152.692383,4134.615234,4666.922852,4471.922852,4448.205078,4556.538574,0.000000,3.000000,74.000000,,,,0.000000,4.000000,4.000000,4.000000,4.000000,4.000000,4.000000,4.000000,4.000000,4.000000,4.000000,4.000000,4.000000,4.000000,4.000000,100.000000,,,,,,,,,,,,,,,,,,,,,,,,,,,,
1703163408.912304,1703163408.912901,44.000000,0.000000,4200.897461,4158.205078,4301.282227,4267.307617,4171.538574,4158.461426,4223.205078,4183.077148,4153.077148,4137.563965,4670.000000,4480.769043,4450.641113,4576.025879,0.000000,3.000000,74.000000,,,,0.000000,4.000000,4.000000,4.000000,4.000000,4.000000,4.000000,4.000000,4.000000,4.000000,4.000000,4.000000,4.000000,4.000000,4.000000,100.000000,,,,,,,,,,,,,,,,,11.000000,0.000000,0.717525,0.021973,-0.674683,0.171692,0.973263,-0.203638,0.088878,-12.201950,-43.910061,65.476105
1703163408.920112,1703163408.920709,45.000000,0.000000,4202.307617,4157.051270,4304.102539,4265.512695,4163.461426,4157.179688,4230.128418,4177.692383,4152.436035,4140.897461,4669.487305,4479.102539,4458.974121,4562.948730,0.000000,3.000000,74.000000,,,,0.000000,4.000000,4.000000,4.000000,4.000000,4.000000,4.000000,4.000000,4.000000,4.000000,4.000000,4.000000,4.000000,4.000000,4.000000,100.000000,,,,,,,,,,,,,,,,,,,,,,,,,,,,
1703163408.927920,1703163408.928417,46.000000,0.000000,4202.307617,4147.563965,4301.794922,4274.487305,4160.128418,4151.794922,4224.615234,4168.974121,4148.333496,4135.769043,4668.077148,4471.025879,4456.410156,4550.897461,0.000000,3.000000,74.000000,,,,0.000000,4.000000,4.000000,4.000000,4.000000,4.000000,4.000000,4.000000,4.000000,4.000000,4.000000,4.000000,4.000000,4.000000,4.000000,100.000000,,,,,,,,,,,,,,,,,,,,,,,,,,,,
1703163408.935728,1703163408.936325,47.000000,0.000000,4211.025879,4159.743652,4310.256348,4284.615234,4175.384766,4154.102539,4220.000000,4172.820313,4148.717773,4136.410156,4678.974121,4477.692383,4454.487305,4581.282227,0.000000,3.000000,74.000000,,,,0.000000,4.000000,4.000000,4.000000,4.000000,4.000000,4.000000,4.000000,4.000000,4.000000,4.000000,4.000000,4.000000,4.000000,4.000000,100.000000,,,,,,,,,,,,,,,,,,,,,,,,,,,,
1703163408.943536,1703163408.944134,48.000000,0.000000,4222.179688,4179.358887,4322.436035,4287.563965,4181.666504,4154.358887,4222.692383,4184.743652,4158.461426,4145.512695,4689.871582,4491.794922,4467.179688,4602.820313,0.000000,3.000000,74.000000,,,,0.000000,4.000000,4.000000,4.000000,4.000000,4.000000,4.000000,4.000000,4.000000,4.000000,4.000000,4.000000,4.000000,4.000000,4.000000,100.000000,,,,,,,,,,,,,,,,,12.000000,0.000000,0.717358,0.022278,-0.674866,0.171631,0.954218,-0.209498,0.080576,-12.315088,-43.852386,65.528496
1703163408.951344,1703163408.952042,49.000000,0.000000,4230.256348,4188.205078,4328.974121,4293.846191,4168.589844,4147.692383,4219.743652,4184.358887,4164.615234,4158.077148,4694.871582,4498.077148,4479.487305,4603.205078,0.000000,3.000000,74.000000,,,,0.000000,4.000000,4.000000,4.000000,4.000000,4.000000,4.000000,4.000000,4.000000,4.000000,4.000000,4.000000,4.000000,4.000000,4.000000,100.000000,,,,,,,,,,,,,,,,,,,,,,,,,,,,
1703163408.959152,1703163408.959850,50.000000,0.000000,4240.000000,4199.615234,4340.256348,4300.256348,4166.538574,4147.820313,4215.641113,4184.230957,4166.922852,4173.461426,4706.025879,4503.589844,4487.436035,4616.666504,0.000000,3.000000,74.000000,,,,0.000000,4.000000,4.000000,4.000000,4.000000,4.000000,4.000000,4.000000,4.000000,4.000000,4.000000,4.000000,4.000000,4.000000,4.000000,100.000000,,,,,,,,,,,,,,,,,,,,,,,,,,,,
1703163408.966960,1703163408.967758,51.000000,0.000000,4240.128418,4209.358887,4344.871582,4299.487305,4173.589844,4149.487305,4216.922852,4196.025879,4177.948730,4180.897461,4710.512695,4511.538574,4491.282227,4609.230957,0.000000,3.000000,74.000000,,,,0.000000,4.000000,4.000000,4.000000,4.000000,4.000000,4.000000,4.000000,4.000000,4.000000,4.000000,4.000000,4.000000,4.000000,4.000000,100.000000,,,,,,,,,,,,,,,,,,,,,,,,,,,,
1703163408.974768,1703163408.975566,52.000000,0.000000,4225.512695,4204.102539,4332.179688,4292.436035,4164.615234,4142.948730,4214.743652,4198.846191,4185.512695,4173.846191,4697.948730,4506.666504,4482.436035,4586.794922,0.000000,3.000000,74.000000,,,,0.000000,4.000000,4.000000,4.000000,4.000000,4.000000,4.000000,4.000000,4.000000,4.000000,4.000000,4.000000,4.000000,4.000000,4.000000,100.000000,,,,,,,,,,,,,,,,,13.000000,0.000000,0.717280,0.022461,-0.674927,0.171692,0.971798,-0.197290,0.082530,-12.350246,-44.033813,65.625648
1703163408.982576,1703163408.983474,53.000000,0.000000,4223.077148,4201.410156,4323.717773,4278.717773,4161.410156,4141.410156,4212.948730,4188.461426,4177.820313,4171.794922,4691.282227,4494.102539,4476.282227,4600.128418,0.000000,3.000000,74.000000,,,,0.000000,4.000000,4.000000,4.000000,4.000000,4.000000,4.000000,4.000000,4.000000,4.000000,4.000000,4.000000,4.000000,4.000000,4.000000,100.000000,,,,,,,,,,,,,,,,,,,,,,,,,,,,
1703163408.990384,1703163408.991283,54.000000,0.000000,4232.179688,4205.512695,4320.897461,4276.282227,4171.666504,4149.102539,4215.897461,4183.461426,4170.769043,4174.743652,4697.436035,4491.153809,4486.025879,4611.153809,0.000000,3.000000,74.000000,,,,0.000000,4.000000,4.000000,4.000000,4.000000,4.000000,4.000000,4.000000,4.000000,4.000000,4.000000,4.000000,4.000000,4.000000,4.000000,100.000000,,,,,,,,,,,,,,,,,,,,,,,,,,,,
1703163408.998192,1703163408.999191,55.000000,0.000000,4222.692383,4195.000000,4313.077148,4279.358887,4173.589844,4155.256348,4217.179688,4185.128418,4171.410156,4161.025879,4693.974121,4490.641113,4490.641113,4590.769043,0.000000,3.000000,74.000000,,,,0.000000,4.000000,4.000000,4.000000,4.000000,4.000000,4.000000,4.000000,4.000000,4.000000,4.000000,4.000000,4.000000,4.000000,4.000000,100.000000,,,,,,,,,,,,,,,,,,,,,,,,,,,,
1703163409.006000,1703163409.006999,56.000000,0.000000,4212.051270,4177.307617,4308.974121,4268.205078,4168.333496,4153.974121,4219.358887,4183.846191,4170.641113,4152.948730,4684.102539,4483.717773,4483.589844,4577.307617,0.000000,3.000000,74.000000,,,,0.000000,4.000000,4.000000,4.000000,4.000000,4.000000,4.000000,4.000000,4.000000,4.000000,4.000000,4.000000,4.000000,4.000000,4.000000,100.000000,,,,,,,,,,,,,,,,,14.000000,0.000000,0.717346,0.022644,-0.674805,0.171875,0.964962,-0.211940,0.082041,-12.165221,-43.897099,65.513084
1703163409.013808,1703163409.014707,57.000000,0.000000,4223.461426,4169.743652,4314.615234,4266.282227,4168.461426,4153.589844,4219.743652,4185.384766,4169.743652,4164.615234,4691.153809,4483.461426,4486.282227,4585.000000,0.000000,3.000000,74.000000,,,,0.000000,4.000000,4.000000,4.000000,4.000000,4.000000,4.000000,4.000000,4.000000,4.000000,4.000000,4.000000,4.000000,4.000000,4.000000,100.000000,,,,,,,,,,,,,,,,,,,,,,,,,,,,
1703163409.021616,1703163409.022515,58.000000,0.000000,4227.820313,4169.487305,4319.615234,4280.769043,4174.743652,4158.717773,4217.051270,4184.871582,4170.641113,4165.000000,4701.794922,4490.897461,4495.769043,4592.820313,0.000000,3.000000,74.000000,,,,0.000000,4.000000,4.000000,4.000000,4.000000,4.000000,4.000000,4.000000,4.000000,4.000000,4.000000,4.000000,4.000000,4.000000,4.000000,100.000000,,,,,,,,,,,,,,,,,,,,,,,,,,,,
1703163409.029424,1703163409.030223,59.000000,0.000000,4219.615234,4172.692383,4321.410156,4285.256348,4172.436035,4157.820313,4217.563965,4172.307617,4166.410156,4156.153809,4698.846191,4491.025879,4498.205078,4600.897461,0.000000,3.000000,74.000000,,,,0.000000,4.000000,4.000000,4.000000,4.000000,4.000000,4.000000,4.000000,4.000000,4.000000,4.000000,4.000000,4.000000,4.000000,4.000000,100.000000,,,,,,,,,,,,,,,,,,,,,,,,,,,,
1703163409.037232,1703163409.038031,60.000000,0.000000,4231.666504,4182.692383,4323.974121,4286.153809,4167.436035,4150.641113,4219.102539,4165.512695,4161.282227,4163.333496,4697.692383,4488.717773,4501.153809,4612.436035,0.000000,3.000000,74.000000,,,,0.000000,4.000000,4.000000,4.000000,4.000000,4.000000,4.000000,4.000000,4.000000,4.000000,4.000000,4.000000,4.000000,4.000000,4.000000,100.000000,,,,,,,,,,,,,,,,,15.000000,0.000000,0.717391,0.022583,-0.674805,0.171692,0.977658,-0.192406,0.083506,-12.115366,-43.857391,65.611771
1703163409.045040,1703163409.045739,61.000000,0.000000,4246.666504,4192.436035,4324.615234,4293.333496,4173.846191,4146.410156,4208.717773,4174.487305,4162.563965,4169.871582,4703.974121,4492.051270,4505.256348,4612.051270,0.000000,3.000000,74.000000,,,,0.000000,4.000000,4.000000,4.000000,4.000000,4.000000,4.000000,4.000000,4.000000,4.000000,4.000000,4.000000,4.000000,4.000000,4.000000,100.000000,,,,,,,,,,,,,,,,,,,,,,,,,,,,
1703163409.052848,1703163409.053547,62.000000,0.000000,4245.000000,4201.025879,4331.025879,4296.666504,4186.025879,4149.871582,4201.666504,4185.256348,4169.102539,4174.615234,4710.641113,4501.153809,4514.230957,4608.205078,0.000000,3.000000,74.000000,,,,0.000000,4.000000,4.000000,4.000000,4.000000,4.000000,4.000000,4.000000,4.000000,4.000000,4.000000,4.000000,4.000000,4.000000,4.000000,100.000000,,,,,,,,,,,,,,,,,,,,,,,,,,,,
1703163409.060656,1703163409.061255,63.000000,0.000000,4248.077148,4207.820313,4343.717773,4298.333496,4185.384766,4152.692383,4208.846191,4192.307617,4173.974121,4187.820313,4719.871582,4513.589844,4523.974121,4616.538574,0.000000,3.000000,74.000000,,,,0.000000,4.000000,4.000000,4.000000,4.000000,4.000000,4.000000,4.000000,4.000000,4.000000,4.000000,4.000000,4.000000,4.000000,4.000000,100.000000,,,,,,,,,,,,,,,,,,,,,,,,,,,,
1703163409.068464,1703163409.069063,64.000000,0.000000,4251.794922,4201.410156,4345.897461,4297.307617,4173.589844,4144.615234,4208.077148,4199.358887,4170.897461,4182.563965,4723.077148,4517.948730,4513.974121,4613.461426,5437.000000,3.000000,74.000000,,,,0.000000,4.000000,4.000000,4.000000,4.000000,4.000000,4.000000,4.000000,4.000000,4.000000,4.000000,4.000000,4.000000,4.000000,4.000000,100.000000,,,,,,,,,,,,,,,,,16.000000,0.000000,0.717330,0.022705,-0.674866,0.171692,0.971798,-0.202661,0.075204,-12.237163,-44.004986,65.650597
1703163409.076273,1703163409.076771,65.000000,0.000000,4244.743652,4201.025879,4337.436035,4289.615234,4166.025879,4134.230957,4197.692383,4201.794922,4169.871582,4164.743652,4716.153809,4516.282227,4500.256348,4598.333496,5379.000000,3.000000,74.000000,,,,0.000000,4.000000,4.000000,4.000000,4.000000,4.000000,4.000000,4.000000,4.000000,4.000000,4.000000,4.000000,4.000000,4.000000,4.000000,100.000000,,,,,,,,,,,,,,,,,,,,,,,,,,,,
1703163409.084081,1703163409.084579,66.000000,0.000000,4250.769043,4220.384766,4342.051270,4301.153809,4172.692383,4143.077148,4198.589844,4204.102539,4183.077148,4177.563965,4721.282227,4519.615234,4514.871582,4615.000000,5292.000000,3.000000,74.000000,,,,0.000000,4.000000,4.000000,4.000000,4.000000,4.000000,4.000000,4.000000,4.000000,4.000000,4.000000,4.000000,4.000000,4.000000,4.000000,100.000000,,,,,,,,,,,,,,,,,,,,,,,,,,,,
1703163409.091889,1703163409.092287,67.000000,0.000000,4265.128418,4225.512695,4347.051270,4319.230957,4177.820313,4152.563965,4205.128418,4203.589844,4188.461426,4192.948730,4727.307617,4515.000000,4526.794922,4639.230957,5258.000000,3.000000,74.000000,,,,0.000000,4.000000,4.000000,4.000000,4.000000,4.000000,4.000000,4.000000,4.000000,4.000000,4.000000,4.000000,4.000000,4.000000,4.000000,100.000000,,,,,,,,,,,,,,,,,,,,,,,,,,,,
1703163409.099697,1703163409.100095,68.000000,0.000000,4255.000000,4207.307617,4332.307617,4296.282227,4170.000000,4142.948730,4201.410156,4192.563965,4175.128418,4176.153809,4709.230957,4498.333496,4505.384766,4621.153809,4936.000000,3.000000,74.000000,,,,0.000000,4.000000,4.000000,4.000000,4.000000,4.000000,4.000000,4.000000,4.000000,4.000000,4.000000,4.000000,4.000000,4.000000,4.000000,100.000000,,,,,,,,,,,,,,,,,17.000000,0.000000,0.717347,0.022644,-0.674866,0.171631,0.963985,-0.202661,0.078135,-12.413446,-44.037819,65.668869
1703163409.107505,1703163409.107803,69.000000,0.000000,4230.897461,4196.666504,4319.743652,4268.846191,4170.769043,4143.205078,4197.948730,4184.487305,4163.717773,4160.384766,4689.615234,4488.077148,4486.282227,4601.922852,5020.000000,3.000000,74.000000,,,,0.000000,4.000000,4.000000,4.000000,4.000000,4.000000,4.000000,4.000000,4.000000,4.000000,4.000000,4.000000,4.000000,4.000000,4.000000,100.000000,,,,,,,,,,,,,,,,,,,,,,,,,,,,
1703163409.115313,1703163409.115611,70.000000,0.000000,4230.256348,4201.025879,4320.384766,4286.282227,4187.948730,4160.769043,4207.307617,4181.794922,4161.025879,4152.436035,4686.794922,4487.436035,4485.256348,4597.051270,2471.000000,3.000000,74.000000,,,,0.000000,4.000000,4.000000,4.000000,4.000000,4.000000,4.000000,4.000000,4.000000,4.000000,4.000000,4.000000,4.000000,4.000000,4.000000,100.000000,,,,,,,,,,,,,,,,,,,,,,,,,,,,
1703163409.123121,1703163409.123319,71.000000,0.000000,4235.512695,4202.692383,4323.077148,4294.102539,4201.282227,4163.846191,4214.358887,4168.974121,4157.179688,4149.615234,4685.897461,4486.282227,4480.897461,4581.025879,4425.000000,3.000000,74.000000,,,,0.000000,4.000000,4.000000,4.000000,4.000000,4.000000,4.000000,4.000000,4.000000,4.000000,4.000000,4.000000,4.000000,4.000000,4.000000,100.000000,,,,,,,,,,,,,,,,,,,,,,,,,,,,
