title:شاهين انذار, start timestamp:1703488340.562300, stop timestamp:1703488351.321777, headset type:EPOCX, headset serial:E50206EF, headset firmware:720, channels:67, sampling rate:eeg_128;mot_32, samples:1379      , version:2.2, 
Timestamp,OriginalTimestamp,EEG.Counter,EEG.Interpolated,EEG.AF3,EEG.F7,EEG.F3,EEG.FC5,EEG.T7,EEG.P7,EEG.O1,EEG.O2,EEG.P8,EEG.T8,EEG.FC6,EEG.F4,EEG.F8,EEG.AF4,EEG.RawCq,EEG.Battery,EEG.BatteryPercent,MarkerIndex,MarkerType,MarkerValueInt,EEG.MarkerHardware,CQ.AF3,CQ.F7,CQ.F3,CQ.FC5,CQ.T7,CQ.P7,CQ.O1,CQ.O2,CQ.P8,CQ.T8,CQ.FC6,CQ.F4,CQ.F8,CQ.AF4,CQ.Overall,EQ.SampleRateQuality,EQ.OVERALL,EQ.AF3,EQ.F7,EQ.F3,EQ.FC5,EQ.T7,EQ.P7,EQ.O1,EQ.O2,EQ.P8,EQ.T8,EQ.FC6,EQ.F4,EQ.F8,EQ.AF4,MOT.CounterMems,MOT.InterpolatedMems,MOT.Q0,MOT.Q1,MOT.Q2,MOT.Q3,MOT.AccX,MOT.AccY,MOT.AccZ,MOT.MagX,MOT.MagY,MOT.MagZ
1703488340.562300,1703488340.563348,3.000000,0.000000,4200.897461,4233.846191,4276.025879,4262.563965,4238.589844,4284.230957,4276.282227,4249.358887,4251.666504,4253.461426,4492.307617,4443.333496,4360.897461,4404.871582,5444.000000,4.000000,98.000000,,,,0.000000,4.000000,4.000000,4.000000,4.000000,4.000000,4.000000,4.000000,4.000000,4.000000,4.000000,4.000000,4.000000,4.000000,4.000000,100.000000,,,,,,,,,,,,,,,,,,,,,,,,,,,,
1703488340.570108,1703488340.571056,4.000000,0.000000,4199.102539,4232.820313,4275.512695,4258.974121,4240.000000,4277.692383,4272.563965,4243.077148,4236.410156,4241.025879,4481.922852,4443.717773,4356.922852,4397.692383,5170.000000,4.000000,98.000000,,,,0.000000,4.000000,4.000000,4.000000,4.000000,4.000000,4.000000,4.000000,4.000000,4.000000,4.000000,4.000000,4.000000,4.000000,4.000000,100.000000,,,,,,,,,,,,,,,,,1.000000,0.000000,0.688132,-0.125549,-0.690979,0.182373,0.896105,-0.422415,0.026859,-6.602664,-47.968128,62.044506
1703488340.577916,1703488340.578864,5.000000,0.000000,4202.179688,4224.102539,4280.384766,4260.769043,4228.205078,4276.025879,4266.025879,4231.538574,4218.974121,4226.538574,4473.333496,4442.948730,4344.743652,4394.871582,4991.000000,4.000000,98.000000,,,,0.000000,4.000000,4.000000,4.000000,4.000000,4.000000,4.000000,4.000000,4.000000,4.000000,4.000000,4.000000,4.000000,4.000000,4.000000,100.000000,,,,,,,,,,,,,,,,,,,,,,,,,,,,
1703488340.585724,1703488340.586572,6.000000,0.000000,4204.871582,4224.230957,4286.410156,4263.974121,4221.794922,4274.743652,4265.897461,4229.102539,4216.282227,4216.410156,4474.871582,4443.589844,4342.692383,4396.794922,2393.000000,4.000000,98.000000,,,,0.000000,4.000000,4.000000,4.000000,4.000000,4.000000,4.000000,4.000000,4.000000,4.000000,4.000000,4.000000,4.000000,4.000000,4.000000,100.000000,,,,,,,,,,,,,,,,,,,,,,,,,,,,
1703488340.593532,1703488340.594380,7.000000,0.000000,4203.717773,4229.102539,4289.615234,4263.205078,4221.794922,4270.384766,4267.563965,4235.256348,4218.077148,4215.897461,4479.487305,4447.179688,4350.128418,4396.025879,4969.000000,4.000000,98.000000,,,,0.000000,4.000000,4.000000,4.000000,4.000000,4.000000,4.000000,4.000000,4.000000,4.000000,4.000000,4.000000,4.000000,4.000000,4.000000,100.000000,,,,,,,,,,,,,,,,,,,,,,,,,,,,
1703488340.601340,1703488340.602089,8.000000,0.000000,4206.025879,4221.153809,4291.025879,4261.538574,4217.307617,4263.333496,4262.179688,4244.615234,4223.846191,4227.563965,4482.307617,4457.692383,4353.333496,4396.025879,5187.000000,4.000000,98.000000,,,,0.000000,4.000000,4.000000,4.000000,4.000000,4.000000,4.000000,4.000000,4.000000,4.000000,4.000000,4.000000,4.000000,4.000000,4.000000,100.000000,,,,,,,,,,,,,,,,,2.000000,0.000000,0.688055,-0.125366,-0.691040,0.182556,0.891710,-0.439995,0.028324,-6.692398,-47.971313,62.023388
1703488340.609148,1703488340.609896,9.000000,0.000000,4215.256348,4220.512695,4296.538574,4262.307617,4223.333496,4261.538574,4262.051270,4260.000000,4237.051270,4238.333496,4498.077148,4470.512695,4358.589844,4408.077148,5317.000000,4.000000,98.000000,,,,0.000000,4.000000,4.000000,4.000000,4.000000,4.000000,4.000000,4.000000,4.000000,4.000000,4.000000,4.000000,4.000000,4.000000,4.000000,100.000000,,,,,,,,,,,,,,,,,,,,,,,,,,,,
1703488340.616956,1703488340.617605,10.000000,0.000000,4219.102539,4230.512695,4296.153809,4263.333496,4234.615234,4267.436035,4267.692383,4268.205078,4240.000000,4234.871582,4507.436035,4472.436035,4363.205078,4411.025879,5845.000000,4.000000,98.000000,,,,0.000000,4.000000,4.000000,4.000000,4.000000,4.000000,4.000000,4.000000,4.000000,4.000000,4.000000,4.000000,4.000000,4.000000,4.000000,100.000000,,,,,,,,,,,,,,,,,,,,,,,,,,,,
1703488340.624764,1703488340.625413,11.000000,0.000000,4212.051270,4230.128418,4287.051270,4262.948730,4235.641113,4273.205078,4266.666504,4265.128418,4238.333496,4227.436035,4496.922852,4462.179688,4359.871582,4397.436035,6249.000000,4.000000,98.000000,,,,0.000000,4.000000,4.000000,4.000000,4.000000,4.000000,4.000000,4.000000,4.000000,4.000000,4.000000,4.000000,4.000000,4.000000,4.000000,100.000000,,,,,,,,,,,,,,,,,,,,,,,,,,,,
1703488340.632572,1703488340.633121,12.000000,0.000000,4205.641113,4228.589844,4275.769043,4263.077148,4238.077148,4281.410156,4267.820313,4263.205078,4245.641113,4233.974121,4489.487305,4452.692383,4357.948730,4394.871582,6721.000000,4.000000,98.000000,,,,0.000000,4.000000,4.000000,4.000000,4.000000,4.000000,4.000000,4.000000,4.000000,4.000000,4.000000,4.000000,4.000000,4.000000,4.000000,100.000000,,,,,,,,,,,,,,,,,3.000000,0.000000,0.687871,-0.125366,-0.691223,0.182556,0.899036,-0.416066,0.017580,-6.756491,-47.940849,61.987717
1703488340.640381,1703488340.640929,13.000000,0.000000,4200.384766,4232.948730,4262.436035,4263.077148,4245.256348,4289.102539,4274.102539,4253.589844,4243.974121,4234.102539,4484.102539,4440.641113,4354.615234,4395.641113,6915.000000,4.000000,98.000000,,,,0.000000,4.000000,4.000000,4.000000,4.000000,4.000000,4.000000,4.000000,4.000000,4.000000,4.000000,4.000000,4.000000,4.000000,4.000000,100.000000,,,,,,,,,,,,,,,,,,,,,,,,,,,,
1703488340.648188,1703488340.648637,14.000000,0.000000,4198.717773,4233.589844,4258.974121,4263.974121,4248.077148,4286.410156,4273.077148,4236.666504,4227.563965,4220.000000,4475.256348,4429.358887,4347.179688,4389.230957,5845.000000,4.000000,98.000000,,,,0.000000,4.000000,4.000000,4.000000,4.000000,4.000000,4.000000,4.000000,4.000000,4.000000,4.000000,4.000000,4.000000,4.000000,4.000000,100.000000,,,,,,,,,,,,,,,,,,,,,,,,,,,,
1703488340.655996,1703488340.656544,15.000000,0.000000,4205.641113,4236.025879,4270.769043,4263.717773,4241.794922,4280.512695,4270.512695,4230.641113,4217.948730,4211.794922,4472.692383,4432.307617,4348.333496,4390.384766,6249.000000,4.000000,98.000000,,,,0.000000,4.000000,4.000000,4.000000,4.000000,4.000000,4.000000,4.000000,4.000000,4.000000,4.000000,4.000000,4.000000,4.000000,4.000000,100.000000,,,,,,,,,,,,,,,,,,,,,,,,,,,,
1703488340.663805,1703488340.664352,16.000000,0.000000,4215.641113,4243.077148,4277.948730,4265.641113,4234.358887,4282.563965,4271.666504,4232.307617,4215.769043,4220.000000,4478.205078,4441.153809,4352.563965,4394.487305,0.000000,4.000000,98.000000,,,,0.000000,4.000000,4.000000,4.000000,4.000000,4.000000,4.000000,4.000000,4.000000,4.000000,4.000000,4.000000,4.000000,4.000000,4.000000,100.000000,,,,,,,,,,,,,,,,,4.000000,0.000000,0.687675,-0.125610,-0.691406,0.182434,0.881455,-0.414601,0.013674,-6.797509,-47.896763,61.972279
1703488340.671613,1703488340.672260,17.000000,0.000000,4225.641113,4246.153809,4280.512695,4274.615234,4238.974121,4283.846191,4272.820313,4227.307617,4211.410156,4225.769043,4484.230957,4447.179688,4354.871582,4397.436035,0.000000,4.000000,98.000000,,,,0.000000,4.000000,4.000000,4.000000,4.000000,4.000000,4.000000,4.000000,4.000000,4.000000,4.000000,4.000000,4.000000,4.000000,4.000000,100.000000,,,,,,,,,,,,,,,,,,,,,,,,,,,,
1703488340.679421,1703488340.680068,18.000000,0.000000,4235.256348,4256.282227,4295.512695,4286.282227,4248.846191,4276.538574,4274.230957,4225.769043,4212.051270,4225.128418,4492.179688,4454.871582,4362.436035,4415.128418,0.000000,4.000000,98.000000,,,,0.000000,4.000000,4.000000,4.000000,4.000000,4.000000,4.000000,4.000000,4.000000,4.000000,4.000000,4.000000,4.000000,4.000000,4.000000,100.000000,,,,,,,,,,,,,,,,,,,,,,,,,,,,
1703488340.687229,1703488340.687976,19.000000,0.000000,4239.615234,4264.743652,4308.333496,4295.000000,4249.230957,4272.436035,4274.358887,4235.897461,4215.384766,4232.820313,4497.179688,4462.692383,4370.641113,4430.641113,0.000000,4.000000,98.000000,,,,0.000000,4.000000,4.000000,4.000000,4.000000,4.000000,4.000000,4.000000,4.000000,4.000000,4.000000,4.000000,4.000000,4.000000,4.000000,100.000000,,,,,,,,,,,,,,,,,,,,,,,,,,,,
1703488340.695037,1703488340.695784,20.000000,0.000000,4236.538574,4256.410156,4305.000000,4291.794922,4240.384766,4273.974121,4271.153809,4245.512695,4214.487305,4233.461426,4494.615234,4469.487305,4367.436035,4423.589844,0.000000,4.000000,98.000000,,,,0.000000,4.000000,4.000000,4.000000,4.000000,4.000000,4.000000,4.000000,4.000000,4.000000,4.000000,4.000000,4.000000,4.000000,4.000000,100.000000,,,,,,,,,,,,,,,,,5.000000,0.000000,0.687507,-0.125610,-0.691589,0.182373,0.894640,-0.420950,0.016604,-6.717758,-48.040421,61.941719
1703488340.702845,1703488340.703692,21.000000,0.000000,4230.897461,4247.051270,4296.794922,4280.512695,4234.102539,4276.666504,4266.538574,4257.692383,4222.179688,4225.641113,4494.487305,4474.230957,4360.384766,4415.897461,0.000000,4.000000,98.000000,,,,0.000000,4.000000,4.000000,4.000000,4.000000,4.000000,4.000000,4.000000,4.000000,4.000000,4.000000,4.000000,4.000000,4.000000,4.000000,100.000000,,,,,,,,,,,,,,,,,,,,,,,,,,,,
1703488340.710653,1703488340.711500,22.000000,0.000000,4218.717773,4242.692383,4289.230957,4278.846191,4237.563965,4277.307617,4268.205078,4276.794922,4242.948730,4232.436035,4500.000000,4473.717773,4362.820313,4417.051270,0.000000,4.000000,98.000000,,,,0.000000,4.000000,4.000000,4.000000,4.000000,4.000000,4.000000,4.000000,4.000000,4.000000,4.000000,4.000000,4.000000,4.000000,4.000000,100.000000,,,,,,,,,,,,,,,,,,,,,,,,,,,,
1703488340.718461,1703488340.719408,23.000000,0.000000,4200.128418,4233.333496,4275.384766,4277.948730,4244.871582,4277.436035,4270.512695,4278.205078,4246.025879,4238.205078,4495.512695,4461.025879,4358.717773,4403.846191,0.000000,4.000000,98.000000,,,,0.000000,4.000000,4.000000,4.000000,4.000000,4.000000,4.000000,4.000000,4.000000,4.000000,4.000000,4.000000,4.000000,4.000000,4.000000,100.000000,1.000000,100.000000,4.000000,4.000000,4.000000,4.000000,4.000000,4.000000,4.000000,4.000000,4.000000,4.000000,4.000000,4.000000,4.000000,4.000000,,,,,,,,,,,,
1703488340.726269,1703488340.727216,24.000000,0.000000,4192.692383,4226.922852,4261.153809,4269.102539,4245.897461,4281.410156,4270.897461,4263.974121,4233.205078,4228.461426,4479.230957,4444.487305,4345.384766,4385.000000,0.000000,4.000000,98.000000,,,,0.000000,4.000000,4.000000,4.000000,4.000000,4.000000,4.000000,4.000000,4.000000,4.000000,4.000000,4.000000,4.000000,4.000000,4.000000,100.000000,,,,,,,,,,,,,,,,,6.000000,0.000000,0.687502,-0.125305,-0.691650,0.182373,0.887804,-0.406300,0.021975,-6.779315,-48.169712,62.030880
1703488340.734077,1703488340.735124,25.000000,0.000000,4195.769043,4229.102539,4261.153809,4269.487305,4243.846191,4287.436035,4273.077148,4260.769043,4236.153809,4231.410156,4477.179688,4438.077148,4346.538574,4391.153809,0.000000,4.000000,98.000000,,,,0.000000,4.000000,4.000000,4.000000,4.000000,4.000000,4.000000,4.000000,4.000000,4.000000,4.000000,4.000000,4.000000,4.000000,4.000000,100.000000,,,,,,,,,,,,,,,,,,,,,,,,,,,,
1703488340.741885,1703488340.742932,26.000000,0.000000,4200.128418,4234.487305,4272.179688,4277.563965,4252.179688,4294.871582,4280.000000,4258.846191,4242.820313,4242.051270,4488.205078,4441.282227,4357.436035,4410.128418,0.000000,4.000000,98.000000,,,,0.000000,4.000000,4.000000,4.000000,4.000000,4.000000,4.000000,4.000000,4.000000,4.000000,4.000000,4.000000,4.000000,4.000000,4.000000,100.000000,,,,,,,,,,,,,,,,,,,,,,,,,,,,
1703488340.749693,1703488340.750640,27.000000,0.000000,4206.538574,4242.692383,4278.077148,4280.512695,4251.794922,4294.102539,4280.128418,4246.666504,4235.641113,4233.589844,4490.128418,4444.102539,4359.230957,4412.051270,0.000000,4.000000,98.000000,,,,0.000000,4.000000,4.000000,4.000000,4.000000,4.000000,4.000000,4.000000,4.000000,4.000000,4.000000,4.000000,4.000000,4.000000,4.000000,100.000000,,,,,,,,,,,,,,,,,,,,,,,,,,,,
1703488340.757501,1703488340.758448,28.000000,0.000000,4215.512695,4250.512695,4279.102539,4283.846191,4239.230957,4284.487305,4272.692383,4242.307617,4226.794922,4228.461426,4488.461426,4447.307617,4355.641113,4408.589844,0.000000,4.000000,98.000000,,,,0.000000,4.000000,4.000000,4.000000,4.000000,4.000000,4.000000,4.000000,4.000000,4.000000,4.000000,4.000000,4.000000,4.000000,4.000000,100.000000,,,,,,,,,,,,,,,,,7.000000,0.000000,0.687518,-0.124878,-0.691711,0.182373,0.895129,-0.422903,0.010255,-6.801384,-48.252743,62.027790
1703488340.765309,1703488340.766156,29.000000,0.000000,4220.512695,4253.333496,4287.307617,4291.922852,4246.666504,4284.102539,4277.948730,4247.307617,4224.871582,4232.307617,4490.384766,4453.461426,4357.051270,4416.794922,0.000000,4.000000,98.000000,,,,0.000000,4.000000,4.000000,4.000000,4.000000,4.000000,4.000000,4.000000,4.000000,4.000000,4.000000,4.000000,4.000000,4.000000,4.000000,100.000000,,,,,,,,,,,,,,,,,,,,,,,,,,,,
1703488340.773117,1703488340.773964,30.000000,0.000000,4230.128418,4264.487305,4304.358887,4302.051270,4267.307617,4291.666504,4283.846191,4249.102539,4228.077148,4236.922852,4500.000000,4464.358887,4367.692383,4434.358887,0.000000,4.000000,98.000000,,,,0.000000,4.000000,4.000000,4.000000,4.000000,4.000000,4.000000,4.000000,4.000000,4.000000,4.000000,4.000000,4.000000,4.000000,4.000000,100.000000,,,,,,,,,,,,,,,,,,,,,,,,,,,,
1703488340.780925,1703488340.781672,31.000000,0.000000,4251.666504,4280.128418,4321.153809,4312.820313,4270.000000,4285.000000,4279.871582,4249.615234,4232.692383,4250.000000,4516.794922,4481.538574,4384.102539,4453.205078,0.000000,4.000000,98.000000,,,,0.000000,4.000000,4.000000,4.000000,4.000000,4.000000,4.000000,4.000000,4.000000,4.000000,4.000000,4.000000,4.000000,4.000000,4.000000,100.000000,,,,,,,,,,,,,,,,,,,,,,,,,,,,
1703488340.788733,1703488340.789480,32.000000,0.000000,4260.384766,4282.563965,4325.897461,4315.897461,4256.794922,4273.333496,4278.077148,4250.000000,4229.102539,4252.051270,4524.487305,4492.051270,4386.538574,4462.179688,0.000000,4.000000,98.000000,,,,0.000000,4.000000,4.000000,4.000000,4.000000,4.000000,4.000000,4.000000,4.000000,4.000000,4.000000,4.000000,4.000000,4.000000,4.000000,100.000000,,,,,,,,,,,,,,,,,8.000000,0.000000,0.687189,-0.124817,-0.692017,0.182495,0.895617,-0.423880,0.016604,-6.687912,-48.194134,62.108345
1703488340.796541,1703488340.797188,33.000000,0.000000,4251.794922,4277.692383,4317.692383,4310.897461,4253.077148,4278.333496,4279.230957,4260.256348,4226.025879,4241.410156,4521.538574,4493.846191,4380.000000,4461.025879,0.000000,4.000000,98.000000,,,,0.000000,4.000000,4.000000,4.000000,4.000000,4.000000,4.000000,4.000000,4.000000,4.000000,4.000000,4.000000,4.000000,4.000000,4.000000,100.000000,,,,,,,,,,,,,,,,,,,,,,,,,,,,
1703488340.804349,1703488340.805096,34.000000,0.000000,4244.102539,4274.102539,4308.846191,4304.102539,4250.000000,4281.794922,4278.333496,4274.230957,4235.128418,4252.436035,4524.358887,4491.794922,4384.615234,4457.051270,0.000000,4.000000,98.000000,,,,0.000000,4.000000,4.000000,4.000000,4.000000,4.000000,4.000000,4.000000,4.000000,4.000000,4.000000,4.000000,4.000000,4.000000,4.000000,100.000000,,,,,,,,,,,,,,,,,,,,,,,,,,,,
1703488340.812157,1703488340.812904,35.000000,0.000000,4238.846191,4265.512695,4299.743652,4296.153809,4241.410156,4277.307617,4276.153809,4272.179688,4242.563965,4259.230957,4525.384766,4482.948730,4388.461426,4450.641113,0.000000,4.000000,98.000000,,,,0.000000,4.000000,4.000000,4.000000,4.000000,4.000000,4.000000,4.000000,4.000000,4.000000,4.000000,4.000000,4.000000,4.000000,4.000000,100.000000,,,,,,,,,,,,,,,,,,,,,,,,,,,,
1703488340.819965,1703488340.820712,36.000000,0.000000,4220.512695,4252.307617,4284.871582,4291.538574,4247.436035,4284.871582,4278.077148,4265.641113,4248.461426,4235.128418,4514.102539,4470.384766,4373.077148,4433.077148,0.000000,4.000000,98.000000,,,,0.000000,4.000000,4.000000,4.000000,4.000000,4.000000,4.000000,4.000000,4.000000,4.000000,4.000000,4.000000,4.000000,4.000000,4.000000,100.000000,,,,,,,,,,,,,,,,,9.000000,0.000000,0.686927,-0.124817,-0.692261,0.182556,0.887315,-0.413136,0.023929,-6.552454,-48.208054,62.197510
1703488340.827773,1703488340.828420,37.000000,0.000000,4198.461426,4246.153809,4274.358887,4289.871582,4260.897461,4296.153809,4280.256348,4268.717773,4257.692383,4237.307617,4504.743652,4458.205078,4359.615234,4415.897461,0.000000,4.000000,98.000000,,,,0.000000,4.000000,4.000000,4.000000,4.000000,4.000000,4.000000,4.000000,4.000000,4.000000,4.000000,4.000000,4.000000,4.000000,4.000000,100.000000,,,,,,,,,,,,,,,,,,,,,,,,,,,,
1703488340.835581,1703488340.836228,38.000000,0.000000,4203.589844,4248.589844,4274.102539,4290.384766,4265.128418,4296.794922,4279.871582,4265.128418,4255.769043,4266.282227,4503.974121,4446.410156,4366.025879,4419.871582,0.000000,4.000000,98.000000,,,,0.000000,4.000000,4.000000,4.000000,4.000000,4.000000,4.000000,4.000000,4.000000,4.000000,4.000000,4.000000,4.000000,4.000000,4.000000,100.000000,,,,,,,,,,,,,,,,,,,,,,,,,,,,
1703488340.843389,1703488340.843936,39.000000,0.000000,4217.692383,4251.025879,4276.666504,4292.051270,4258.205078,4288.846191,4273.589844,4250.000000,4241.666504,4262.051270,4501.282227,4442.051270,4368.974121,4426.794922,0.000000,4.000000,98.000000,,,,0.000000,4.000000,4.000000,4.000000,4.000000,4.000000,4.000000,4.000000,4.000000,4.000000,4.000000,4.000000,4.000000,4.000000,4.000000,100.000000,,,,,,,,,,,,,,,,,,,,,,,,,,,,
1703488340.851197,1703488340.851744,40.000000,0.000000,4217.307617,4254.358887,4281.282227,4294.487305,4257.820313,4281.410156,4269.358887,4243.077148,4231.922852,4242.436035,4499.743652,4446.282227,4363.333496,4423.077148,0.000000,4.000000,98.000000,,,,0.000000,4.000000,4.000000,4.000000,4.000000,4.000000,4.000000,4.000000,4.000000,4.000000,4.000000,4.000000,4.000000,4.000000,4.000000,100.000000,,,,,,,,,,,,,,,,,10.000000,0.000000,0.686983,-0.124512,-0.692261,0.182556,0.890734,-0.422415,0.010743,-6.763875,-48.120583,62.311092
1703488340.859006,1703488340.859453,41.000000,0.000000,4221.794922,4261.922852,4294.871582,4303.461426,4258.461426,4276.794922,4270.512695,4248.333496,4234.743652,4248.333496,4507.307617,4454.871582,4368.077148,4431.794922,0.000000,4.000000,98.000000,,,,0.000000,4.000000,4.000000,4.000000,4.000000,4.000000,4.000000,4.000000,4.000000,4.000000,4.000000,4.000000,4.000000,4.000000,4.000000,100.000000,,,,,,,,,,,,,,,,,,,,,,,,,,,,
1703488340.866814,1703488340.867261,42.000000,0.000000,4232.307617,4262.948730,4305.641113,4308.333496,4237.820313,4274.871582,4266.282227,4247.820313,4234.358887,4251.794922,4507.563965,4460.128418,4368.461426,4441.538574,0.000000,4.000000,98.000000,,,,0.000000,4.000000,4.000000,4.000000,4.000000,4.000000,4.000000,4.000000,4.000000,4.000000,4.000000,4.000000,4.000000,4.000000,4.000000,100.000000,,,,,,,,,,,,,,,,,,,,,,,,,,,,
1703488340.874622,1703488340.874969,43.000000,0.000000,4234.871582,4256.282227,4307.051270,4302.820313,4229.743652,4273.846191,4260.000000,4241.538574,4222.820313,4234.743652,4498.205078,4459.871582,4354.102539,4434.102539,0.000000,4.000000,98.000000,,,,0.000000,4.000000,4.000000,4.000000,4.000000,4.000000,4.000000,4.000000,4.000000,4.000000,4.000000,4.000000,4.000000,4.000000,4.000000,100.000000,,,,,,,,,,,,,,,,,,,,,,,,,,,,
1703488340.882430,1703488340.882876,44.000000,0.000000,4242.051270,4259.871582,4316.538574,4306.538574,4253.589844,4269.743652,4261.666504,4243.333496,4216.794922,4230.000000,4503.205078,4468.461426,4358.461426,4437.051270,0.000000,4.000000,98.000000,,,,0.000000,4.000000,4.000000,4.000000,4.000000,4.000000,4.000000,4.000000,4.000000,4.000000,4.000000,4.000000,4.000000,4.000000,4.000000,100.000000,,,,,,,,,,,,,,,,,11.000000,0.000000,0.687071,-0.124451,-0.692200,0.182495,0.895129,-0.430717,0.016115,-6.737488,-48.125191,62.279984
1703488340.890238,1703488340.890684,45.000000,0.000000,4251.410156,4267.051270,4325.128418,4312.563965,4263.717773,4265.384766,4265.641113,4249.487305,4220.128418,4238.589844,4513.974121,4483.077148,4375.512695,4449.743652,0.000000,4.000000,98.000000,,,,0.000000,4.000000,4.000000,4.000000,4.000000,4.000000,4.000000,4.000000,4.000000,4.000000,4.000000,4.000000,4.000000,4.000000,4.000000,100.000000,,,,,,,,,,,,,,,,,,,,,,,,,,,,
1703488340.898046,1703488340.898592,46.000000,0.000000,4244.743652,4260.256348,4317.820313,4302.820313,4251.538574,4265.769043,4266.282227,4246.282227,4216.922852,4237.179688,4510.384766,4481.410156,4369.230957,4448.205078,0.000000,4.000000,98.000000,,,,0.000000,4.000000,4.000000,4.000000,4.000000,4.000000,4.000000,4.000000,4.000000,4.000000,4.000000,4.000000,4.000000,4.000000,4.000000,100.000000,,,,,,,,,,,,,,,,,,,,,,,,,,,,
1703488340.905854,1703488340.906400,47.000000,0.000000,4236.153809,4250.384766,4307.692383,4292.948730,4245.000000,4268.589844,4261.922852,4241.025879,4212.436035,4230.256348,4504.487305,4470.000000,4360.512695,4440.512695,0.000000,4.000000,98.000000,,,,0.000000,4.000000,4.000000,4.000000,4.000000,4.000000,4.000000,4.000000,4.000000,4.000000,4.000000,4.000000,4.000000,4.000000,4.000000,100.000000,,,,,,,,,,,,,,,,,,,,,,,,,,,,
1703488340.913662,1703488340.914308,48.000000,0.000000,4232.948730,4246.922852,4301.794922,4291.666504,4238.461426,4264.230957,4254.487305,4243.846191,4221.410156,4228.846191,4504.230957,4461.666504,4364.358887,4433.333496,0.000000,4.000000,98.000000,,,,0.000000,4.000000,4.000000,4.000000,4.000000,4.000000,4.000000,4.000000,4.000000,4.000000,4.000000,4.000000,4.000000,4.000000,4.000000,100.000000,,,,,,,,,,,,,,,,,12.000000,0.000000,0.687171,-0.124329,-0.692139,0.182434,0.895129,-0.438042,0.012697,-6.863739,-48.229340,62.101986
1703488340.921470,1703488340.922116,49.000000,0.000000,4231.025879,4252.948730,4297.179688,4292.051270,4236.410156,4261.282227,4255.256348,4249.102539,4234.615234,4237.179688,4506.282227,4459.615234,4368.717773,4433.974121,0.000000,4.000000,98.000000,,,,0.000000,4.000000,4.000000,4.000000,4.000000,4.000000,4.000000,4.000000,4.000000,4.000000,4.000000,4.000000,4.000000,4.000000,4.000000,100.000000,,,,,,,,,,,,,,,,,,,,,,,,,,,,
1703488340.929278,1703488340.930024,50.000000,0.000000,4233.077148,4258.205078,4297.179688,4294.230957,4253.077148,4273.077148,4264.743652,4245.512695,4240.000000,4251.410156,4508.589844,4463.846191,4369.743652,4440.128418,0.000000,4.000000,98.000000,,,,0.000000,4.000000,4.000000,4.000000,4.000000,4.000000,4.000000,4.000000,4.000000,4.000000,4.000000,4.000000,4.000000,4.000000,4.000000,100.000000,,,,,,,,,,,,,,,,,,,,,,,,,,,,
1703488340.937086,1703488340.937832,51.000000,0.000000,4231.666504,4251.794922,4295.128418,4294.615234,4257.692383,4280.769043,4265.128418,4235.000000,4236.922852,4249.102539,4501.153809,4459.102539,4365.128418,4432.692383,0.000000,4.000000,98.000000,,,,0.000000,4.000000,4.000000,4.000000,4.000000,4.000000,4.000000,4.000000,4.000000,4.000000,4.000000,4.000000,4.000000,4.000000,4.000000,100.000000,,,,,,,,,,,,,,,,,,,,,,,,,,,,
1703488340.944894,1703488340.945740,52.000000,0.000000,4227.692383,4250.256348,4289.358887,4292.179688,4244.615234,4270.641113,4259.743652,4229.230957,4230.128418,4236.025879,4494.487305,4448.205078,4361.153809,4422.179688,0.000000,4.000000,98.000000,,,,0.000000,4.000000,4.000000,4.000000,4.000000,4.000000,4.000000,4.000000,4.000000,4.000000,4.000000,4.000000,4.000000,4.000000,4.000000,100.000000,,,,,,,,,,,,,,,,,13.000000,0.000000,0.687153,-0.124268,-0.692200,0.182312,0.894152,-0.419973,0.009767,-6.844032,-48.239738,62.108452
1703488340.952702,1703488340.953548,53.000000,0.000000,4232.179688,4259.102539,4295.641113,4294.358887,4250.769043,4264.615234,4262.820313,4233.333496,4230.000000,4237.563965,4501.922852,4454.230957,4366.153809,4428.589844,0.000000,4.000000,98.000000,,,,0.000000,4.000000,4.000000,4.000000,4.000000,4.000000,4.000000,4.000000,4.000000,4.000000,4.000000,4.000000,4.000000,4.000000,4.000000,100.000000,,,,,,,,,,,,,,,,,,,,,,,,,,,,
1703488340.960510,1703488340.961256,54.000000,0.000000,4233.974121,4255.256348,4303.333496,4295.897461,4257.563965,4266.794922,4263.589844,4240.641113,4231.025879,4238.077148,4508.717773,4462.307617,4367.820313,4431.153809,0.000000,4.000000,98.000000,,,,0.000000,4.000000,4.000000,4.000000,4.000000,4.000000,4.000000,4.000000,4.000000,4.000000,4.000000,4.000000,4.000000,4.000000,4.000000,100.000000,,,,,,,,,,,,,,,,,,,,,,,,,,,,
1703488340.968318,1703488340.969064,55.000000,0.000000,4230.641113,4245.512695,4301.282227,4291.922852,4230.769043,4256.282227,4250.897461,4244.487305,4230.897461,4234.871582,4504.487305,4460.000000,4363.589844,4422.948730,0.000000,4.000000,98.000000,,,,0.000000,4.000000,4.000000,4.000000,4.000000,4.000000,4.000000,4.000000,4.000000,4.000000,4.000000,4.000000,4.000000,4.000000,4.000000,100.000000,,,,,,,,,,,,,,,,,,,,,,,,,,,,
1703488340.976126,1703488340.976772,56.000000,0.000000,4240.000000,4256.794922,4307.820313,4294.871582,4217.692383,4244.358887,4249.102539,4249.230957,4234.487305,4249.102539,4507.307617,4469.615234,4373.077148,4432.179688,0.000000,4.000000,98.000000,,,,0.000000,4.000000,4.000000,4.000000,4.000000,4.000000,4.000000,4.000000,4.000000,4.000000,4.000000,4.000000,4.000000,4.000000,4.000000,100.000000,,,,,,,,,,,,,,,,,14.000000,0.000000,0.687334,-0.124146,-0.692139,0.181946,0.891222,-0.428275,0.018069,-6.726295,-48.232430,62.230942
1703488340.983934,1703488340.984580,57.000000,0.000000,4252.436035,4268.589844,4314.358887,4305.256348,4246.794922,4247.692383,4259.487305,4254.615234,4238.461426,4256.153809,4518.205078,4484.487305,4384.743652,4446.282227,0.000000,4.000000,98.000000,,,,0.000000,4.000000,4.000000,4.000000,4.000000,4.000000,4.000000,4.000000,4.000000,4.000000,4.000000,4.000000,4.000000,4.000000,4.000000,100.000000,,,,,,,,,,,,,,,,,,,,,,,,,,,,
1703488340.991742,1703488340.992288,58.000000,0.000000,4242.692383,4257.948730,4301.410156,4302.307617,4263.077148,4252.307617,4262.051270,4256.153809,4235.769043,4236.922852,4512.820313,4475.641113,4374.615234,4437.563965,0.000000,4.000000,98.000000,,,,0.000000,4.000000,4.000000,4.000000,4.000000,4.000000,4.000000,4.000000,4.000000,4.000000,4.000000,4.000000,4.000000,4.000000,4.000000,100.000000,,,,,,,,,,,,,,,,,,,,,,,,,,,,
1703488340.999550,1703488341.000096,59.000000,0.000000,4224.487305,4245.384766,4287.179688,4285.128418,4246.666504,4250.000000,4256.666504,4248.717773,4227.051270,4224.743652,4495.641113,4454.487305,4359.102539,4417.307617,0.000000,4.000000,98.000000,,,,0.000000,4.000000,4.000000,4.000000,4.000000,4.000000,4.000000,4.000000,4.000000,4.000000,4.000000,4.000000,4.000000,4.000000,4.000000,100.000000,,,,,,,,,,,,,,,,,,,,,,,,,,,,
1703488341.007358,1703488341.007804,60.000000,0.000000,4219.743652,4244.743652,4286.025879,4281.410156,4242.692383,4249.230957,4254.230957,4236.666504,4223.461426,4234.230957,4490.000000,4445.256348,4359.230957,4410.641113,0.000000,4.000000,98.000000,,,,0.000000,4.000000,4.000000,4.000000,4.000000,4.000000,4.000000,4.000000,4.000000,4.000000,4.000000,4.000000,4.000000,4.000000,4.000000,100.000000,,,,,,,,,,,,,,,,,15.000000,0.000000,0.687426,-0.123901,-0.692139,0.181763,0.889757,-0.424857,0.014650,-6.720333,-48.409187,62.274513
1703488341.015166,1703488341.015612,61.000000,0.000000,4218.717773,4247.692383,4282.563965,4291.666504,4252.692383,4251.153809,4257.307617,4230.256348,4225.897461,4233.589844,4495.512695,4445.256348,4364.230957,4414.102539,0.000000,4.000000,98.000000,,,,0.000000,4.000000,4.000000,4.000000,4.000000,4.000000,4.000000,4.000000,4.000000,4.000000,4.000000,4.000000,4.000000,4.000000,4.000000,100.000000,,,,,,,,,,,,,,,,,,,,,,,,,,,,
1703488341.022974,1703488341.023320,62.000000,0.000000,4220.897461,4248.333496,4277.307617,4292.820313,4248.333496,4251.153809,4257.179688,4226.025879,4223.333496,4219.615234,4494.358887,4443.461426,4360.128418,4410.897461,0.000000,4.000000,98.000000,,,,0.000000,4.000000,4.000000,4.000000,4.000000,4.000000,4.000000,4.000000,4.000000,4.000000,4.000000,4.000000,4.000000,4.000000,4.000000,100.000000,,,,,,,,,,,,,,,,,,,,,,,,,,,,
1703488341.030782,1703488341.031128,63.000000,0.000000,4227.307617,4249.358887,4280.897461,4284.615234,4241.922852,4246.922852,4254.102539,4220.256348,4222.051270,4220.512695,4489.615234,4439.743652,4356.282227,4403.333496,0.000000,4.000000,98.000000,,,,0.000000,4.000000,4.000000,4.000000,4.000000,4.000000,4.000000,4.000000,4.000000,4.000000,4.000000,4.000000,4.000000,4.000000,4.000000,100.000000,,,,,,,,,,,,,,,,,,,,,,,,,,,,
1703488341.038590,1703488341.038836,64.000000,0.000000,4221.153809,4243.974121,4284.102539,4280.384766,4241.922852,4242.692383,4252.692383,4216.153809,4228.846191,4235.769043,4488.461426,4440.641113,4355.512695,4401.922852,5435.000000,4.000000,98.000000,,,,0.000000,4.000000,4.000000,4.000000,4.000000,4.000000,4.000000,4.000000,4.000000,4.000000,4.000000,4.000000,4.000000,4.000000,4.000000,100.000000,,,,,,,,,,,,,,,,,16.000000,0.000000,0.687570,-0.123535,-0.692078,0.181702,0.897570,-0.430717,0.020999,-6.764966,-48.401604,62.347061
1703488341.046399,1703488341.046644,65.000000,0.000000,4215.897461,4236.922852,4286.794922,4279.102539,4245.512695,4241.025879,4254.230957,4220.897461,4231.922852,4235.256348,4487.051270,4443.205078,4350.769043,4408.846191,5521.000000,4.000000,98.000000,,,,0.000000,4.000000,4.000000,4.000000,4.000000,4.000000,4.000000,4.000000,4.000000,4.000000,4.000000,4.000000,4.000000,4.000000,4.000000,100.000000,,,,,,,,,,,,,,,,,,,,,,,,,,,,
1703488341.054206,1703488341.054352,66.000000,0.000000,4226.794922,4243.717773,4293.717773,4280.384766,4247.436035,4238.077148,4257.436035,4230.641113,4230.512695,4226.666504,4490.000000,4445.897461,4348.589844,4412.307617,5355.000000,4.000000,98.000000,,,,0.000000,4.000000,4.000000,4.000000,4.000000,4.000000,4.000000,4.000000,4.000000,4.000000,4.000000,4.000000,4.000000,4.000000,4.000000,100.000000,,,,,,,,,,,,,,,,,,,,,,,,,,,,
1703488341.062014,1703488341.062160,67.000000,0.000000,4235.256348,4250.128418,4296.282227,4287.179688,4238.461426,4233.974121,4255.897461,4233.717773,4230.897461,4223.974121,4488.205078,4451.025879,4349.871582,4409.615234,5444.000000,4.000000,98.000000,,,,0.000000,4.000000,4.000000,4.000000,4.000000,4.000000,4.000000,4.000000,4.000000,4.000000,4.000000,4.000000,4.000000,4.000000,4.000000,100.000000,,,,,,,,,,,,,,,,,,,,,,,,,,,,
1703488341.069822,1703488341.069868,68.000000,0.000000,4239.743652,4250.384766,4296.666504,4293.846191,4234.230957,4231.153809,4254.743652,4233.974121,4232.692383,4230.769043,4485.256348,4458.205078,4351.410156,4417.948730,5168.000000,4.000000,98.000000,,,,0.000000,4.000000,4.000000,4.000000,4.000000,4.000000,4.000000,4.000000,4.000000,4.000000,4.000000,4.000000,4.000000,4.000000,4.000000,100.000000,,,,,,,,,,,,,,,,,17.000000,0.000000,0.687608,-0.123230,-0.692078,0.181763,0.896594,-0.419973,0.030277,-6.805136,-48.478107,62.245689
1703488341.077631,1703488341.077776,69.000000,0.000000,4251.025879,4258.333496,4300.769043,4295.512695,4232.948730,4226.794922,4253.846191,4237.563965,4237.948730,4243.974121,4497.692383,4464.358887,4357.820313,4433.846191,4991.000000,4.000000,98.000000,,,,0.000000,4.000000,4.000000,4.000000,4.000000,4.000000,4.000000,4.000000,4.000000,4.000000,4.000000,4.000000,4.000000,4.000000,4.000000,100.000000,,,,,,,,,,,,,,,,,,,,,,,,,,,,
1703488341.085439,1703488341.085584,70.000000,0.000000,4250.512695,4262.692383,4298.333496,4293.589844,4233.846191,4228.461426,4253.077148,4236.922852,4232.948730,4235.384766,4500.256348,4460.897461,4358.333496,4431.410156,2394.000000,4.000000,98.000000,,,,0.000000,4.000000,4.000000,4.000000,4.000000,4.000000,4.000000,4.000000,4.000000,4.000000,4.000000,4.000000,4.000000,4.000000,4.000000,100.000000,,,,,,,,,,,,,,,,,,,,,,,,,,,,
1703488341.093247,1703488341.093492,71.000000,0.000000,4236.282227,4253.077148,4291.025879,4292.436035,4240.641113,4232.948730,4257.179688,4230.256348,4217.692383,4214.487305,4483.589844,4449.487305,4351.922852,4414.230957,4974.000000,4.000000,98.000000,,,,0.000000,4.000000,4.000000,4.000000,4.000000,4.000000,4.000000,4.000000,4.000000,4.000000,4.000000,4.000000,4.000000,4.000000,4.000000,100.000000,,,,,,,,,,,,,,,,,,,,,,,,,,,,
1703488341.101055,1703488341.101300,72.000000,0.000000,4231.282227,4247.436035,4290.512695,4290.128418,4239.358887,4224.871582,4258.333496,4227.051270,4214.230957,4213.205078,4481.922852,4443.333496,4353.974121,4410.512695,5178.000000,4.000000,98.000000,,,,0.000000,4.000000,4.000000,4.000000,4.000000,4.000000,4.000000,4.000000,4.000000,4.000000,4.000000,4.000000,4.000000,4.000000,4.000000,100.000000,,,,,,,,,,,,,,,,,18.000000,0.000000,0.687688,-0.123291,-0.691956,0.181885,0.897570,-0.428275,0.022464,-6.691289,-48.363632,62.221119
1703488341.108863,1703488341.109208,73.000000,0.000000,4233.974121,4248.717773,4288.717773,4288.846191,4236.025879,4214.230957,4255.512695,4217.307617,4212.820313,4218.589844,4490.641113,4444.743652,4356.666504,4414.358887,5310.000000,4.000000,98.000000,,,,0.000000,4.000000,4.000000,4.000000,4.000000,4.000000,4.000000,4.000000,4.000000,4.000000,4.000000,4.000000,4.000000,4.000000,4.000000,100.000000,,,,,,,,,,,,,,,,,,,,,,,,,,,,
1703488341.116671,1703488341.117016,74.000000,0.000000,4235.000000,4250.641113,4287.563965,4290.897461,4246.922852,4215.769043,4256.153809,4201.538574,4203.589844,4216.410156,4485.000000,4445.897461,4351.794922,4407.307617,5843.000000,4.000000,98.000000,,,,0.000000,4.000000,4.000000,4.000000,4.000000,4.000000,4.000000,4.000000,4.000000,4.000000,4.000000,4.000000,4.000000,4.000000,4.000000,100.000000,,,,,,,,,,,,,,,,,,,,,,,,,,,,
1703488341.124479,1703488341.124924,75.000000,0.000000,4229.102539,4250.769043,4288.333496,4286.794922,4252.051270,4219.230957,4257.051270,4196.538574,4194.615234,4205.128418,4471.666504,4435.897461,4344.102539,4395.384766,6247.000000,4.000000,98.000000,,,,0.000000,4.000000,4.000000,4.000000,4.000000,4.000000,4.000000,4.000000,4.000000,4.000000,4.000000,4.000000,4.000000,4.000000,4.000000,100.000000,,,,,,,,,,,,,,,,,,,,,,,,,,,,
1703488341.132287,1703488341.132731,76.000000,0.000000,4221.410156,4240.769043,4284.871582,4278.333496,4234.230957,4216.410156,4253.333496,4197.179688,4195.128418,4197.051270,4465.769043,4422.436035,4338.077148,4391.666504,6721.000000,4.000000,98.000000,,,,0.000000,4.000000,4.000000,4.000000,4.000000,4.000000,4.000000,4.000000,4.000000,4.000000,4.000000,4.000000,4.000000,4.000000,4.000000,100.000000,,,,,,,,,,,,,,,,,19.000000,0.000000,0.687740,-0.123596,-0.691833,0.181946,0.889269,-0.418996,0.021975,-6.738827,-48.443935,62.265675
1703488341.140095,1703488341.140639,77.000000,0.000000,4224.743652,4233.589844,4283.461426,4277.436035,4226.794922,4215.384766,4253.589844,4198.461426,4205.641113,4209.230957,4470.256348,4422.948730,4340.512695,4399.487305,6915.000000,4.000000,98.000000,,,,0.000000,4.000000,4.000000,4.000000,4.000000,4.000000,4.000000,4.000000,4.000000,4.000000,4.000000,4.000000,4.000000,4.000000,4.000000,100.000000,,,,,,,,,,,,,,,,,,,,,,,,,,,,
1703488341.147903,1703488341.148447,78.000000,0.000000,4227.436035,4238.846191,4284.871582,4280.256348,4242.820313,4217.692383,4258.077148,4211.282227,4218.461426,4220.897461,4477.436035,4432.051270,4345.897461,4404.487305,5843.000000,4.000000,98.000000,,,,0.000000,4.000000,4.000000,4.000000,4.000000,4.000000,4.000000,4.000000,4.000000,4.000000,4.000000,4.000000,4.000000,4.000000,4.000000,100.000000,,,,,,,,,,,,,,,,,,,,,,,,,,,,
1703488341.155711,1703488341.156155,79.000000,0.000000,4218.077148,4236.922852,4280.256348,4276.282227,4248.589844,4216.538574,4256.538574,4227.820313,4223.717773,4217.820313,4476.282227,4435.641113,4343.589844,4401.410156,6247.000000,4.000000,98.000000,,,,0.000000,4.000000,4.000000,4.000000,4.000000,4.000000,4.000000,4.000000,4.000000,4.000000,4.000000,4.000000,4.000000,4.000000,4.000000,100.000000,,,,,,,,,,,,,,,,,,,,,,,,,,,,
1703488341.163519,1703488341.163963,80.000000,0.000000,4214.487305,4233.589844,4279.743652,4276.410156,4244.102539,4217.948730,4259.871582,4237.051270,4232.436035,4226.025879,4479.615234,4440.769043,4343.846191,4402.436035,6721.000000,4.000000,98.000000,,,,0.000000,4.000000,4.000000,4.000000,4.000000,4.000000,4.000000,4.000000,4.000000,4.000000,4.000000,4.000000,4.000000,4.000000,4.000000,100.000000,,,,,,,,,,,,,,,,,20.000000,0.000000,0.687713,-0.123657,-0.691833,0.182007,0.903919,-0.416066,0.028324,-6.798277,-48.416206,62.239109
1703488341.171327,1703488341.171671,81.000000,0.000000,4213.205078,4243.077148,4280.641113,4278.205078,4240.128418,4220.769043,4264.615234,4243.589844,4245.897461,4238.461426,4493.461426,4450.128418,4351.153809,4405.128418,6915.000000,4.000000,98.000000,,,,0.000000,4.000000,4.000000,4.000000,4.000000,4.000000,4.000000,4.000000,4.000000,4.000000,4.000000,4.000000,4.000000,4.000000,4.000000,100.000000,,,,,,,,,,,,,,,,,,,,,,,,,,,,
1703488341.179135,1703488341.179479,82.000000,0.000000,4203.589844,4242.051270,4268.461426,4270.897461,4240.897461,4221.538574,4261.282227,4245.512695,4245.384766,4234.743652,4492.820313,4445.384766,4351.922852,4399.615234,5843.000000,4.000000,98.000000,,,,0.000000,4.000000,4.000000,4.000000,4.000000,4.000000,4.000000,4.000000,4.000000,4.000000,4.000000,4.000000,4.000000,4.000000,4.000000,100.000000,,,,,,,,,,,,,,,,,,,,,,,,,,,,
1703488341.186943,1703488341.187187,83.000000,0.000000,4205.256348,4231.153809,4260.000000,4266.794922,4241.410156,4226.153809,4258.974121,4230.769043,4231.538574,4230.128418,4480.641113,4431.153809,4349.487305,4394.743652,6247.000000,4.000000,98.000000,,,,0.000000,4.000000,4.000000,4.000000,4.000000,4.000000,4.000000,4.000000,4.000000,4.000000,4.000000,4.000000,4.000000,4.000000,4.000000,100.000000,,,,,,,,,,,,,,,,,,,,,,,,,,,,
1703488341.194751,1703488341.194995,84.000000,0.000000,4217.563965,4237.307617,4265.512695,4272.307617,4233.461426,4230.128418,4259.102539,4208.846191,4215.128418,4222.436035,4477.307617,4426.666504,4350.128418,4396.538574,6721.000000,4.000000,98.000000,,,,0.000000,4.000000,4.000000,4.000000,4.000000,4.000000,4.000000,4.000000,4.000000,4.000000,4.000000,4.000000,4.000000,4.000000,4.000000,100.000000,,,,,,,,,,,,,,,,,21.000000,0.000000,0.687708,-0.123596,-0.691833,0.182068,0.900501,-0.409718,0.015139,-6.785116,-48.407921,62.281864
1703488341.202559,1703488341.202704,85.000000,0.000000,4220.641113,4248.589844,4271.794922,4276.922852,4230.512695,4223.333496,4259.871582,4193.077148,4199.230957,4205.128418,4472.307617,4424.743652,4343.717773,4397.436035,6915.000000,4.000000,98.000000,,,,0.000000,4.000000,4.000000,4.000000,4.000000,4.000000,4.000000,4.000000,4.000000,4.000000,4.000000,4.000000,4.000000,4.000000,4.000000,100.000000,,,,,,,,,,,,,,,,,,,,,,,,,,,,
1703488341.210367,1703488341.210511,86.000000,0.000000,4225.897461,4247.563965,4276.794922,4278.974121,4242.563965,4214.615234,4263.461426,4178.974121,4182.820313,4194.102539,4461.025879,4420.000000,4334.358887,4396.538574,5843.000000,4.000000,98.000000,,,,0.000000,4.000000,4.000000,4.000000,4.000000,4.000000,4.000000,4.000000,4.000000,4.000000,4.000000,4.000000,4.000000,4.000000,4.000000,100.000000,,,,,,,,,,,,,,,,,,,,,,,,,,,,
1703488341.218175,1703488341.218220,87.000000,0.000000,4234.487305,4246.922852,4283.461426,4282.051270,4251.025879,4215.000000,4262.692383,4161.410156,4166.410156,4191.922852,4454.102539,4416.794922,4333.077148,4396.410156,6247.000000,4.000000,98.000000,,,,0.000000,4.000000,4.000000,4.000000,4.000000,4.000000,4.000000,4.000000,4.000000,4.000000,4.000000,4.000000,4.000000,4.000000,4.000000,100.000000,1.000000,100.000000,4.000000,4.000000,4.000000,4.000000,4.000000,4.000000,4.000000,4.000000,4.000000,4.000000,4.000000,4.000000,4.000000,4.000000,,,,,,,,,,,,
1703488341.225983,1703488341.226028,88.000000,0.000000,4233.205078,4247.436035,4289.615234,4281.922852,4245.128418,4215.641113,4255.384766,4150.256348,4159.358887,4195.897461,4450.384766,4415.384766,4331.538574,4395.000000,6721.000000,4.000000,98.000000,,,,0.000000,4.000000,4.000000,4.000000,4.000000,4.000000,4.000000,4.000000,4.000000,4.000000,4.000000,4.000000,4.000000,4.000000,4.000000,100.000000,,,,,,,,,,,,,,,,,22.000000,0.000000,0.687580,-0.123535,-0.691956,0.182129,0.905872,-0.443413,0.019534,-6.823271,-48.283794,62.187012
1703488341.233791,1703488341.233736,89.000000,0.000000,4229.102539,4244.230957,4293.205078,4281.025879,4237.820313,4211.025879,4254.102539,4158.077148,4166.922852,4199.102539,4445.897461,4412.563965,4325.512695,4390.256348,6915.000000,4.000000,98.000000,,,,0.000000,4.000000,4.000000,4.000000,4.000000,4.000000,4.000000,4.000000,4.000000,4.000000,4.000000,4.000000,4.000000,4.000000,4.000000,100.000000,,,,,,,,,,,,,,,,,,,,,,,,,,,,
1703488341.241599,1703488341.241643,90.000000,0.000000,4231.922852,4244.230957,4292.948730,4283.077148,4236.538574,4212.436035,4258.461426,4175.769043,4179.487305,4197.307617,4449.358887,4412.692383,4326.538574,4385.384766,5843.000000,4.000000,98.000000,,,,0.000000,4.000000,4.000000,4.000000,4.000000,4.000000,4.000000,4.000000,4.000000,4.000000,4.000000,4.000000,4.000000,4.000000,4.000000,100.000000,,,,,,,,,,,,,,,,,,,,,,,,,,,,
1703488341.249407,1703488341.249451,91.000000,0.000000,4231.922852,4247.307617,4287.948730,4280.384766,4240.000000,4222.436035,4257.307617,4189.358887,4189.358887,4205.128418,4459.487305,4418.461426,4333.717773,4387.307617,6247.000000,4.000000,98.000000,,,,0.000000,4.000000,4.000000,4.000000,4.000000,4.000000,4.000000,4.000000,4.000000,4.000000,4.000000,4.000000,4.000000,4.000000,4.000000,100.000000,,,,,,,,,,,,,,,,,,,,,,,,,,,,
1703488341.257215,1703488341.257359,92.000000,0.000000,4226.153809,4245.897461,4280.897461,4276.666504,4245.128418,4230.641113,4253.589844,4207.563965,4205.256348,4212.179688,4468.461426,4427.692383,4340.641113,4392.051270,6721.000000,4.000000,98.000000,,,,0.000000,4.000000,4.000000,4.000000,4.000000,4.000000,4.000000,4.000000,4.000000,4.000000,4.000000,4.000000,4.000000,4.000000,4.000000,100.000000,,,,,,,,,,,,,,,,,23.000000,0.000000,0.687643,-0.123596,-0.691833,0.182312,0.903919,-0.427298,0.010743,-6.740944,-48.188747,62.218311
1703488341.265024,1703488341.265167,93.000000,0.000000,4223.717773,4245.256348,4277.307617,4277.692383,4244.743652,4233.333496,4255.769043,4230.256348,4226.282227,4218.846191,4481.666504,4439.871582,4347.948730,4397.436035,6915.000000,4.000000,98.000000,,,,0.000000,4.000000,4.000000,4.000000,4.000000,4.000000,4.000000,4.000000,4.000000,4.000000,4.000000,4.000000,4.000000,4.000000,4.000000,100.000000,,,,,,,,,,,,,,,,,,,,,,,,,,,,
1703488341.272832,1703488341.273075,94.000000,0.000000,4222.179688,4246.538574,4274.487305,4273.974121,4248.974121,4234.743652,4261.922852,4239.487305,4237.820313,4239.102539,4493.461426,4446.922852,4351.922852,4401.794922,5843.000000,4.000000,98.000000,,,,0.000000,4.000000,4.000000,4.000000,4.000000,4.000000,4.000000,4.000000,4.000000,4.000000,4.000000,4.000000,4.000000,4.000000,4.000000,100.000000,,,,,,,,,,,,,,,,,,,,,,,,,,,,
1703488341.280640,1703488341.280883,95.000000,0.000000,4215.641113,4241.666504,4266.794922,4264.358887,4256.153809,4236.282227,4266.153809,4237.948730,4238.846191,4250.384766,4492.179688,4444.102539,4351.666504,4397.179688,6247.000000,4.000000,98.000000,,,,0.000000,4.000000,4.000000,4.000000,4.000000,4.000000,4.000000,4.000000,4.000000,4.000000,4.000000,4.000000,4.000000,4.000000,4.000000,100.000000,,,,,,,,,,,,,,,,,,,,,,,,,,,,
1703488341.288448,1703488341.288791,96.000000,0.000000,4211.025879,4232.948730,4258.333496,4260.384766,4249.743652,4242.820313,4264.487305,4232.948730,4232.563965,4235.641113,4482.179688,4432.820313,4348.974121,4385.897461,6721.000000,4.000000,98.000000,,,,0.000000,4.000000,4.000000,4.000000,4.000000,4.000000,4.000000,4.000000,4.000000,4.000000,4.000000,4.000000,4.000000,4.000000,4.000000,100.000000,,,,,,,,,,,,,,,,,24.000000,0.000000,0.687522,-0.123657,-0.691895,0.182495,0.875595,-0.416066,0.025882,-6.783516,-48.036541,62.296478
1703488341.296256,1703488341.296599,97.000000,0.000000,4214.487305,4231.410156,4257.820313,4261.025879,4245.128418,4247.948730,4259.743652,4217.179688,4223.717773,4229.358887,4476.153809,4422.436035,4344.615234,4382.436035,6915.000000,4.000000,98.000000,,,,0.000000,4.000000,4.000000,4.000000,4.000000,4.000000,4.000000,4.000000,4.000000,4.000000,4.000000,4.000000,4.000000,4.000000,4.000000,100.000000,,,,,,,,,,,,,,,,,,,,,,,,,,,,
1703488341.304064,1703488341.304507,98.000000,0.000000,4222.436035,4240.512695,4267.051270,4267.051270,4253.974121,4239.871582,4263.333496,4200.512695,4219.615234,4236.025879,4477.179688,4423.846191,4345.641113,4391.538574,5843.000000,4.000000,98.000000,,,,0.000000,4.000000,4.000000,4.000000,4.000000,4.000000,4.000000,4.000000,4.000000,4.000000,4.000000,4.000000,4.000000,4.000000,4.000000,100.000000,,,,,,,,,,,,,,,,,,,,,,,,,,,,
1703488341.311872,1703488341.312315,99.000000,0.000000,4231.922852,4244.230957,4281.153809,4275.769043,4261.025879,4230.128418,4266.794922,4191.538574,4212.820313,4222.051270,4476.538574,4429.615234,4351.410156,4401.538574,6247.000000,4.000000,98.000000,,,,0.000000,4.000000,4.000000,4.000000,4.000000,4.000000,4.000000,4.000000,4.000000,4.000000,4.000000,4.000000,4.000000,4.000000,4.000000,100.000000,,,,,,,,,,,,,,,,,,,,,,,,,,,,
1703488341.319680,1703488341.320223,100.000000,0.000000,4243.077148,4244.743652,4290.897461,4282.051270,4262.692383,4231.025879,4263.717773,4179.871582,4196.794922,4211.538574,4477.692383,4431.666504,4355.641113,4406.666504,6721.000000,4.000000,98.000000,,,,0.000000,4.000000,4.000000,4.000000,4.000000,4.000000,4.000000,4.000000,4.000000,4.000000,4.000000,4.000000,4.000000,4.000000,4.000000,100.000000,,,,,,,,,,,,,,,,,25.000000,0.000000,0.687179,-0.123657,-0.692139,0.182861,0.889269,-0.431693,0.026859,-6.855165,-47.949554,62.250164
1703488341.327488,1703488341.328031,101.000000,0.000000,4248.717773,4254.615234,4297.436035,4291.410156,4265.256348,4230.769043,4265.256348,4168.717773,4186.282227,4223.717773,4479.358887,4430.128418,4357.563965,4408.205078,6915.000000,4.000000,98.000000,,,,0.000000,4.000000,4.000000,4.000000,4.000000,4.000000,4.000000,4.000000,4.000000,4.000000,4.000000,4.000000,4.000000,4.000000,4.000000,100.000000,,,,,,,,,,,,,,,,,,,,,,,,,,,,
1703488341.335296,1703488341.335939,102.000000,0.000000,4245.256348,4255.128418,4297.692383,4296.282227,4260.128418,4226.410156,4265.641113,4166.153809,4178.461426,4214.743652,4465.897461,4423.846191,4344.487305,4403.461426,5843.000000,4.000000,98.000000,,,,0.000000,4.000000,4.000000,4.000000,4.000000,4.000000,4.000000,4.000000,4.000000,4.000000,4.000000,4.000000,4.000000,4.000000,4.000000,100.000000,,,,,,,,,,,,,,,,,,,,,,,,,,,,
1703488341.343104,1703488341.343746,103.000000,0.000000,4233.846191,4240.384766,4287.307617,4283.974121,4251.025879,4232.820313,4262.692383,4173.461426,4175.641113,4194.743652,4453.461426,4417.051270,4326.410156,4393.461426,6247.000000,4.000000,98.000000,,,,0.000000,4.000000,4.000000,4.000000,4.000000,4.000000,4.000000,4.000000,4.000000,4.000000,4.000000,4.000000,4.000000,4.000000,4.000000,100.000000,,,,,,,,,,,,,,,,,,,,,,,,,,,,
1703488341.350912,1703488341.351455,104.000000,0.000000,4222.948730,4228.846191,4276.282227,4269.743652,4250.512695,4240.512695,4262.051270,4194.358887,4196.922852,4215.384766,4463.077148,4420.897461,4330.641113,4387.179688,6721.000000,4.000000,98.000000,,,,0.000000,4.000000,4.000000,4.000000,4.000000,4.000000,4.000000,4.000000,4.000000,4.000000,4.000000,4.000000,4.000000,4.000000,4.000000,100.000000,,,,,,,,,,,,,,,,,26.000000,0.000000,0.687013,-0.123535,-0.692261,0.183105,0.897570,-0.432182,0.015139,-6.836315,-47.987930,62.241814
1703488341.358720,1703488341.359263,105.000000,0.000000,4213.461426,4221.538574,4267.179688,4263.077148,4248.333496,4237.563965,4262.179688,4212.436035,4219.615234,4239.102539,4468.846191,4425.897461,4337.051270,4382.051270,6915.000000,4.000000,98.000000,,,,0.000000,4.000000,4.000000,4.000000,4.000000,4.000000,4.000000,4.000000,4.000000,4.000000,4.000000,4.000000,4.000000,4.000000,4.000000,100.000000,,,,,,,,,,,,,,,,,,,,,,,,,,,,
1703488341.366528,1703488341.366971,106.000000,0.000000,4207.692383,4212.179688,4260.128418,4258.717773,4244.743652,4237.820313,4261.153809,4215.512695,4222.179688,4227.051270,4463.589844,4423.717773,4327.563965,4375.512695,5843.000000,4.000000,98.000000,,,,0.000000,4.000000,4.000000,4.000000,4.000000,4.000000,4.000000,4.000000,4.000000,4.000000,4.000000,4.000000,4.000000,4.000000,4.000000,100.000000,,,,,,,,,,,,,,,,,,,,,,,,,,,,
1703488341.374336,1703488341.374779,107.000000,0.000000,4213.205078,4211.794922,4268.077148,4262.307617,4254.743652,4247.563965,4262.436035,4224.102539,4234.743652,4227.820313,4475.000000,4430.897461,4330.897461,4381.538574,6247.000000,4.000000,98.000000,,,,0.000000,4.000000,4.000000,4.000000,4.000000,4.000000,4.000000,4.000000,4.000000,4.000000,4.000000,4.000000,4.000000,4.000000,4.000000,100.000000,,,,,,,,,,,,,,,,,,,,,,,,,,,,
1703488341.382144,1703488341.382487,108.000000,0.000000,4214.615234,4220.256348,4274.102539,4265.128418,4266.538574,4251.666504,4264.358887,4231.410156,4255.512695,4253.974121,4490.000000,4440.128418,4346.282227,4392.563965,6721.000000,4.000000,98.000000,,,,0.000000,4.000000,4.000000,4.000000,4.000000,4.000000,4.000000,4.000000,4.000000,4.000000,4.000000,4.000000,4.000000,4.000000,4.000000,100.000000,,,,,,,,,,,,,,,,,27.000000,0.000000,0.686890,-0.123352,-0.692383,0.183228,0.892199,-0.424368,0.029300,-6.819350,-48.105804,62.200966
1703488341.389952,1703488341.390394,109.000000,0.000000,4214.102539,4226.153809,4269.871582,4263.717773,4257.692383,4249.230957,4262.051270,4218.974121,4252.692383,4265.256348,4488.077148,4436.666504,4348.589844,4392.948730,6915.000000,4.000000,98.000000,,,,0.000000,4.000000,4.000000,4.000000,4.000000,4.000000,4.000000,4.000000,4.000000,4.000000,4.000000,4.000000,4.000000,4.000000,4.000000,100.000000,,,,,,,,,,,,,,,,,,,,,,,,,,,,
1703488341.397760,1703488341.398202,110.000000,0.000000,4226.025879,4232.692383,4278.589844,4274.871582,4246.025879,4244.743652,4259.358887,4211.666504,4235.641113,4252.692383,4487.179688,4438.717773,4347.948730,4400.384766,5843.000000,4.000000,98.000000,,,,0.000000,4.000000,4.000000,4.000000,4.000000,4.000000,4.000000,4.000000,4.000000,4.000000,4.000000,4.000000,4.000000,4.000000,4.000000,100.000000,,,,,,,,,,,,,,,,,,,,,,,,,,,,
1703488341.405568,1703488341.406010,111.000000,0.000000,4235.641113,4239.871582,4291.538574,4283.205078,4247.820313,4234.871582,4259.615234,4218.077148,4223.589844,4235.769043,4490.769043,4447.820313,4351.282227,4412.436035,6247.000000,4.000000,98.000000,,,,0.000000,4.000000,4.000000,4.000000,4.000000,4.000000,4.000000,4.000000,4.000000,4.000000,4.000000,4.000000,4.000000,4.000000,4.000000,100.000000,,,,,,,,,,,,,,,,,,,,,,,,,,,,
1703488341.413376,1703488341.413719,112.000000,0.000000,4239.230957,4246.666504,4294.743652,4280.384766,4250.128418,4229.358887,4261.794922,4212.436035,4215.000000,4232.692383,4489.615234,4446.282227,4354.871582,4412.307617,6721.000000,4.000000,98.000000,,,,0.000000,4.000000,4.000000,4.000000,4.000000,4.000000,4.000000,4.000000,4.000000,4.000000,4.000000,4.000000,4.000000,4.000000,4.000000,100.000000,,,,,,,,,,,,,,,,,28.000000,0.000000,0.686784,-0.123169,-0.692505,0.183289,0.889269,-0.423880,0.020999,-6.770749,-48.128559,62.164204
1703488341.421184,1703488341.421526,113.000000,0.000000,4254.743652,4256.538574,4303.333496,4290.384766,4254.358887,4234.358887,4263.974121,4205.897461,4212.820313,4239.871582,4491.410156,4449.615234,4363.077148,4418.461426,6915.000000,4.000000,98.000000,,,,0.000000,4.000000,4.000000,4.000000,4.000000,4.000000,4.000000,4.000000,4.000000,4.000000,4.000000,4.000000,4.000000,4.000000,4.000000,100.000000,,,,,,,,,,,,,,,,,,,,,,,,,,,,
1703488341.428992,1703488341.429235,114.000000,0.000000,4268.846191,4263.333496,4309.871582,4298.589844,4263.589844,4234.615234,4264.358887,4212.179688,4210.512695,4234.102539,4495.384766,4459.102539,4366.666504,4427.563965,5843.000000,4.000000,98.000000,,,,0.000000,4.000000,4.000000,4.000000,4.000000,4.000000,4.000000,4.000000,4.000000,4.000000,4.000000,4.000000,4.000000,4.000000,4.000000,100.000000,,,,,,,,,,,,,,,,,,,,,,,,,,,,
1703488341.436800,1703488341.437142,115.000000,0.000000,4261.025879,4260.384766,4301.282227,4287.051270,4264.358887,4229.871582,4264.230957,4215.384766,4208.205078,4228.846191,4490.512695,4454.102539,4361.153809,4419.102539,6247.000000,4.000000,98.000000,,,,0.000000,4.000000,4.000000,4.000000,4.000000,4.000000,4.000000,4.000000,4.000000,4.000000,4.000000,4.000000,4.000000,4.000000,4.000000,100.000000,,,,,,,,,,,,,,,,,,,,,,,,,,,,
1703488341.444608,1703488341.444950,116.000000,0.000000,4247.692383,4249.487305,4291.538574,4279.358887,4255.000000,4234.487305,4265.000000,4212.436035,4215.256348,4237.179688,4482.563965,4442.051270,4353.461426,4406.794922,6721.000000,4.000000,98.000000,,,,0.000000,4.000000,4.000000,4.000000,4.000000,4.000000,4.000000,4.000000,4.000000,4.000000,4.000000,4.000000,4.000000,4.000000,4.000000,100.000000,,,,,,,,,,,,,,,,,29.000000,0.000000,0.686652,-0.122986,-0.692749,0.182983,0.915639,-0.432670,0.018557,-6.527007,-48.132370,62.281116
1703488341.452416,1703488341.452858,117.000000,0.000000,4240.512695,4236.282227,4283.205078,4276.282227,4246.794922,4243.205078,4264.358887,4215.000000,4217.563965,4236.282227,4475.384766,4433.461426,4344.871582,4400.897461,6915.000000,4.000000,98.000000,,,,0.000000,4.000000,4.000000,4.000000,4.000000,4.000000,4.000000,4.000000,4.000000,4.000000,4.000000,4.000000,4.000000,4.000000,4.000000,100.000000,,,,,,,,,,,,,,,,,,,,,,,,,,,,
1703488341.460225,1703488341.460666,118.000000,0.000000,4229.871582,4225.256348,4270.769043,4263.974121,4245.384766,4243.717773,4261.410156,4226.153809,4213.717773,4228.846191,4469.487305,4427.307617,4336.666504,4392.436035,5843.000000,4.000000,98.000000,,,,0.000000,4.000000,4.000000,4.000000,4.000000,4.000000,4.000000,4.000000,4.000000,4.000000,4.000000,4.000000,4.000000,4.000000,4.000000,100.000000,,,,,,,,,,,,,,,,,,,,,,,,,,,,
1703488341.468032,1703488341.468574,119.000000,0.000000,4218.205078,4218.077148,4261.282227,4258.846191,4248.077148,4244.743652,4264.871582,4237.051270,4222.820313,4227.436035,4471.153809,4427.051270,4333.589844,4385.769043,6247.000000,4.000000,98.000000,,,,0.000000,4.000000,4.000000,4.000000,4.000000,4.000000,4.000000,4.000000,4.000000,4.000000,4.000000,4.000000,4.000000,4.000000,4.000000,100.000000,,,,,,,,,,,,,,,,,,,,,,,,,,,,
1703488341.475840,1703488341.476382,120.000000,0.000000,4217.563965,4215.512695,4258.974121,4261.922852,4248.589844,4248.077148,4271.410156,4237.948730,4232.820313,4227.948730,4473.461426,4430.256348,4333.589844,4384.230957,6721.000000,4.000000,98.000000,,,,0.000000,4.000000,4.000000,4.000000,4.000000,4.000000,4.000000,4.000000,4.000000,4.000000,4.000000,4.000000,4.000000,4.000000,4.000000,100.000000,,,,,,,,,,,,,,,,,30.000000,0.000000,0.686592,-0.122742,-0.692932,0.182678,0.888780,-0.402881,0.010743,-6.590973,-48.069130,62.236340
1703488341.483649,1703488341.484290,121.000000,0.000000,4228.205078,4220.000000,4266.538574,4262.179688,4248.461426,4245.128418,4269.358887,4232.820313,4232.692383,4237.820313,4475.128418,4436.282227,4338.589844,4391.538574,6915.000000,4.000000,98.000000,,,,0.000000,4.000000,4.000000,4.000000,4.000000,4.000000,4.000000,4.000000,4.000000,4.000000,4.000000,4.000000,4.000000,4.000000,4.000000,100.000000,,,,,,,,,,,,,,,,,,,,,,,,,,,,
1703488341.491457,1703488341.492098,122.000000,0.000000,4238.974121,4229.230957,4279.871582,4270.128418,4254.743652,4244.487305,4271.666504,4236.666504,4236.153809,4248.589844,4483.846191,4450.128418,4348.461426,4407.051270,5843.000000,4.000000,98.000000,,,,0.000000,4.000000,4.000000,4.000000,4.000000,4.000000,4.000000,4.000000,4.000000,4.000000,4.000000,4.000000,4.000000,4.000000,4.000000,100.000000,,,,,,,,,,,,,,,,,,,,,,,,,,,,
1703488341.499265,1703488341.500006,123.000000,0.000000,4247.948730,4236.153809,4288.205078,4279.871582,4254.871582,4246.666504,4276.410156,4234.615234,4237.179688,4235.384766,4489.615234,4458.333496,4352.436035,4413.846191,6247.000000,4.000000,98.000000,,,,0.000000,4.000000,4.000000,4.000000,4.000000,4.000000,4.000000,4.000000,4.000000,4.000000,4.000000,4.000000,4.000000,4.000000,4.000000,100.000000,,,,,,,,,,,,,,,,,,,,,,,,,,,,
1703488341.507073,1703488341.507814,124.000000,0.000000,4260.128418,4242.563965,4293.974121,4284.487305,4241.025879,4237.820313,4268.846191,4221.410156,4232.692383,4226.794922,4488.974121,4459.871582,4356.538574,4420.641113,6721.000000,4.000000,98.000000,,,,0.000000,4.000000,4.000000,4.000000,4.000000,4.000000,4.000000,4.000000,4.000000,4.000000,4.000000,4.000000,4.000000,4.000000,4.000000,100.000000,,,,,,,,,,,,,,,,,31.000000,0.000000,0.686577,-0.122314,-0.693054,0.182556,0.883897,-0.418020,0.010255,-6.665209,-47.862217,62.129372
1703488341.514881,1703488341.515722,125.000000,0.000000,4270.256348,4252.820313,4302.820313,4291.922852,4242.179688,4227.563965,4269.102539,4214.358887,4230.512695,4241.794922,4489.743652,4462.436035,4364.615234,4432.307617,6915.000000,4.000000,98.000000,,,,0.000000,4.000000,4.000000,4.000000,4.000000,4.000000,4.000000,4.000000,4.000000,4.000000,4.000000,4.000000,4.000000,4.000000,4.000000,100.000000,,,,,,,,,,,,,,,,,,,,,,,,,,,,
1703488341.522689,1703488341.523530,126.000000,0.000000,4265.641113,4255.641113,4299.358887,4291.025879,4265.000000,4234.871582,4278.974121,4207.948730,4215.512695,4236.282227,4479.102539,4447.692383,4355.897461,4421.025879,5843.000000,4.000000,98.000000,,,,0.000000,4.000000,4.000000,4.000000,4.000000,4.000000,4.000000,4.000000,4.000000,4.000000,4.000000,4.000000,4.000000,4.000000,4.000000,100.000000,,,,,,,,,,,,,,,,,,,,,,,,,,,,
1703488341.530497,1703488341.531238,127.000000,0.000000,4251.025879,4244.358887,4276.282227,4277.563965,4262.692383,4236.538574,4272.436035,4196.410156,4193.974121,4211.282227,4458.205078,4420.384766,4332.563965,4396.794922,98.000000,4.000000,98.000000,,,,0.000000,4.000000,4.000000,4.000000,4.000000,4.000000,4.000000,4.000000,4.000000,4.000000,4.000000,4.000000,4.000000,4.000000,4.000000,100.000000,,,,,,,,,,,,,,,,,,,,,,,,,,,,
1703488341.538305,1703488341.539046,0.000000,0.000000,4244.230957,4235.384766,4267.051270,4271.794922,4240.769043,4220.641113,4261.794922,4198.205078,4196.025879,4212.563965,4453.974121,4415.384766,4326.922852,4394.230957,5435.000000,4.000000,98.000000,,,,0.000000,4.000000,4.000000,4.000000,4.000000,4.000000,4.000000,4.000000,4.000000,4.000000,4.000000,4.000000,4.000000,4.000000,4.000000,100.000000,,,,,,,,,,,,,,,,,0.000000,0.000000,0.686648,-0.122009,-0.693054,0.182495,0.902454,-0.408741,0.014650,-6.882021,-47.825996,62.099766
1703488341.546113,1703488341.546754,1.000000,0.000000,4244.871582,4233.846191,4274.871582,4277.692383,4250.769043,4218.974121,4269.230957,4210.897461,4201.282227,4222.820313,4464.358887,4430.512695,4338.589844,4402.051270,5521.000000,4.000000,98.000000,,,,0.000000,4.000000,4.000000,4.000000,4.000000,4.000000,4.000000,4.000000,4.000000,4.000000,4.000000,4.000000,4.000000,4.000000,4.000000,100.000000,,,,,,,,,,,,,,,,,,,,,,,,,,,,
1703488341.553921,1703488341.554562,2.000000,0.000000,4244.871582,4236.153809,4274.615234,4277.051270,4269.871582,4233.846191,4276.153809,4217.948730,4196.794922,4215.128418,4469.230957,4442.307617,4343.077148,4401.025879,5355.000000,4.000000,98.000000,,,,0.000000,4.000000,4.000000,4.000000,4.000000,4.000000,4.000000,4.000000,4.000000,4.000000,4.000000,4.000000,4.000000,4.000000,4.000000,100.000000,,,,,,,,,,,,,,,,,,,,,,,,,,,,
1703488341.561729,1703488341.562270,3.000000,0.000000,4241.153809,4229.487305,4266.666504,4266.153809,4244.358887,4231.153809,4266.538574,4226.922852,4212.563965,4217.436035,4474.871582,4448.333496,4341.922852,4398.974121,5444.000000,4.000000,98.000000,,,,0.000000,4.000000,4.000000,4.000000,4.000000,4.000000,4.000000,4.000000,4.000000,4.000000,4.000000,4.000000,4.000000,4.000000,4.000000,100.000000,,,,,,,,,,,,,,,,,,,,,,,,,,,,
1703488341.569537,1703488341.570078,4.000000,0.000000,4237.051270,4218.461426,4268.205078,4258.461426,4216.666504,4213.461426,4259.615234,4237.051270,4234.230957,4232.307617,4484.871582,4451.410156,4346.666504,4399.358887,5150.000000,4.000000,98.000000,,,,0.000000,4.000000,4.000000,4.000000,4.000000,4.000000,4.000000,4.000000,4.000000,4.000000,4.000000,4.000000,4.000000,4.000000,4.000000,100.000000,,,,,,,,,,,,,,,,,1.000000,0.000000,0.686521,-0.122192,-0.693115,0.182617,0.891222,-0.433647,0.026370,-6.860486,-47.926731,62.073124
1703488341.577345,1703488341.577786,5.000000,0.000000,4240.769043,4221.794922,4276.410156,4259.743652,4238.077148,4217.436035,4268.333496,4236.153809,4234.102539,4237.051270,4487.692383,4455.384766,4351.153809,4403.461426,4998.000000,4.000000,98.000000,,,,0.000000,4.000000,4.000000,4.000000,4.000000,4.000000,4.000000,4.000000,4.000000,4.000000,4.000000,4.000000,4.000000,4.000000,4.000000,100.000000,,,,,,,,,,,,,,,,,,,,,,,,,,,,
1703488341.585153,1703488341.585594,6.000000,0.000000,4246.282227,4230.769043,4280.128418,4263.333496,4257.820313,4230.897461,4275.512695,4234.487305,4231.025879,4238.589844,4486.666504,4456.794922,4346.666504,4405.512695,2386.000000,4.000000,98.000000,,,,0.000000,4.000000,4.000000,4.000000,4.000000,4.000000,4.000000,4.000000,4.000000,4.000000,4.000000,4.000000,4.000000,4.000000,4.000000,100.000000,,,,,,,,,,,,,,,,,,,,,,,,,,,,
1703488341.592961,1703488341.593302,7.000000,0.000000,4244.743652,4230.641113,4279.230957,4263.717773,4247.563965,4224.487305,4267.307617,4235.128418,4234.871582,4235.128418,4487.563965,4448.461426,4341.153809,4400.256348,4979.000000,4.000000,98.000000,,,,0.000000,4.000000,4.000000,4.000000,4.000000,4.000000,4.000000,4.000000,4.000000,4.000000,4.000000,4.000000,4.000000,4.000000,4.000000,100.000000,,,,,,,,,,,,,,,,,,,,,,,,,,,,
1703488341.600769,1703488341.601110,8.000000,0.000000,4245.641113,4229.358887,4280.384766,4263.974121,4242.307617,4215.128418,4260.769043,4233.461426,4236.153809,4232.820313,4490.384766,4444.230957,4345.512695,4403.974121,5187.000000,4.000000,98.000000,,,,0.000000,4.000000,4.000000,4.000000,4.000000,4.000000,4.000000,4.000000,4.000000,4.000000,4.000000,4.000000,4.000000,4.000000,4.000000,100.000000,,,,,,,,,,,,,,,,,2.000000,0.000000,0.686556,-0.122437,-0.693054,0.182556,0.885362,-0.423880,0.008302,-6.807771,-48.017391,62.049145
1703488341.608577,1703488341.608818,9.000000,0.000000,4252.179688,4235.128418,4282.563965,4266.282227,4247.820313,4217.563965,4265.256348,4232.051270,4235.769043,4242.948730,4490.512695,4447.307617,4352.692383,4414.487305,5344.000000,4.000000,98.000000,,,,0.000000,4.000000,4.000000,4.000000,4.000000,4.000000,4.000000,4.000000,4.000000,4.000000,4.000000,4.000000,4.000000,4.000000,4.000000,100.000000,,,,,,,,,,,,,,,,,,,,,,,,,,,,
1703488341.616385,1703488341.616626,10.000000,0.000000,4245.641113,4229.358887,4271.666504,4263.205078,4240.641113,4221.282227,4266.666504,4223.717773,4224.487305,4239.487305,4478.846191,4434.615234,4341.922852,4405.641113,5843.000000,4.000000,98.000000,,,,0.000000,4.000000,4.000000,4.000000,4.000000,4.000000,4.000000,4.000000,4.000000,4.000000,4.000000,4.000000,4.000000,4.000000,4.000000,100.000000,,,,,,,,,,,,,,,,,,,,,,,,,,,,
1703488341.624193,1703488341.624334,11.000000,0.000000,4233.077148,4216.794922,4260.512695,4253.717773,4230.384766,4217.436035,4263.717773,4204.615234,4200.769043,4213.974121,4462.307617,4413.846191,4325.384766,4387.820313,6247.000000,4.000000,98.000000,,,,0.000000,4.000000,4.000000,4.000000,4.000000,4.000000,4.000000,4.000000,4.000000,4.000000,4.000000,4.000000,4.000000,4.000000,4.000000,100.000000,,,,,,,,,,,,,,,,,,,,,,,,,,,,
1703488341.632001,1703488341.632142,12.000000,0.000000,4227.948730,4219.487305,4262.051270,4248.717773,4235.769043,4216.153809,4263.589844,4199.102539,4188.077148,4204.615234,4458.205078,4410.769043,4325.000000,4382.563965,6723.000000,4.000000,98.000000,,,,0.000000,4.000000,4.000000,4.000000,4.000000,4.000000,4.000000,4.000000,4.000000,4.000000,4.000000,4.000000,4.000000,4.000000,4.000000,100.000000,,,,,,,,,,,,,,,,,3.000000,0.000000,0.686778,-0.122498,-0.692871,0.182373,0.891710,-0.425833,0.009278,-6.860327,-48.065651,62.094231
1703488341.639809,1703488341.639850,13.000000,0.000000,4228.974121,4220.256348,4263.461426,4253.589844,4249.230957,4220.512695,4267.820313,4208.077148,4188.333496,4216.025879,4466.025879,4417.820313,4326.666504,4380.769043,6915.000000,4.000000,98.000000,,,,0.000000,4.000000,4.000000,4.000000,4.000000,4.000000,4.000000,4.000000,4.000000,4.000000,4.000000,4.000000,4.000000,4.000000,4.000000,100.000000,,,,,,,,,,,,,,,,,,,,,,,,,,,,
1703488341.647617,1703488341.647758,14.000000,0.000000,4239.230957,4218.461426,4270.128418,4259.358887,4249.487305,4213.974121,4268.974121,4213.974121,4184.615234,4212.948730,4470.512695,4425.000000,4324.358887,4384.743652,5843.000000,4.000000,98.000000,,,,0.000000,4.000000,4.000000,4.000000,4.000000,4.000000,4.000000,4.000000,4.000000,4.000000,4.000000,4.000000,4.000000,4.000000,4.000000,100.000000,,,,,,,,,,,,,,,,,,,,,,,,,,,,
1703488341.655425,1703488341.655566,15.000000,0.000000,4248.205078,4226.666504,4280.897461,4262.051270,4229.102539,4199.743652,4265.384766,4221.538574,4185.128418,4201.922852,4477.820313,4436.666504,4331.666504,4395.000000,6247.000000,4.000000,98.000000,,,,0.000000,4.000000,4.000000,4.000000,4.000000,4.000000,4.000000,4.000000,4.000000,4.000000,4.000000,4.000000,4.000000,4.000000,4.000000,100.000000,,,,,,,,,,,,,,,,,,,,,,,,,,,,
1703488341.663233,1703488341.663474,16.000000,0.000000,4248.205078,4226.282227,4282.820313,4260.512695,4211.922852,4197.179688,4259.487305,4232.948730,4193.461426,4200.512695,4486.025879,4445.128418,4337.051270,4398.205078,0.000000,4.000000,98.000000,,,,0.000000,4.000000,4.000000,4.000000,4.000000,4.000000,4.000000,4.000000,4.000000,4.000000,4.000000,4.000000,4.000000,4.000000,4.000000,100.000000,,,,,,,,,,,,,,,,,4.000000,0.000000,0.687055,-0.122437,-0.692688,0.182068,0.888292,-0.421438,0.016604,-6.874294,-48.159088,62.168140
1703488341.671041,1703488341.671282,17.000000,0.000000,4245.897461,4213.205078,4279.487305,4251.025879,4216.025879,4197.563965,4255.384766,4235.641113,4199.743652,4205.384766,4482.307617,4440.256348,4329.358887,4394.871582,0.000000,4.000000,98.000000,,,,0.000000,4.000000,4.000000,4.000000,4.000000,4.000000,4.000000,4.000000,4.000000,4.000000,4.000000,4.000000,4.000000,4.000000,4.000000,100.000000,,,,,,,,,,,,,,,,,,,,,,,,,,,,
1703488341.678850,1703488341.679189,18.000000,0.000000,4249.102539,4211.794922,4279.487305,4246.794922,4226.794922,4190.641113,4258.333496,4234.743652,4210.641113,4218.077148,4478.846191,4433.333496,4325.384766,4393.717773,0.000000,4.000000,98.000000,,,,0.000000,4.000000,4.000000,4.000000,4.000000,4.000000,4.000000,4.000000,4.000000,4.000000,4.000000,4.000000,4.000000,4.000000,4.000000,100.000000,,,,,,,,,,,,,,,,,,,,,,,,,,,,
1703488341.686658,1703488341.686997,19.000000,0.000000,4256.666504,4219.230957,4279.102539,4256.410156,4230.769043,4190.769043,4262.179688,4236.794922,4227.820313,4232.179688,4485.897461,4438.205078,4335.384766,4400.769043,0.000000,4.000000,98.000000,,,,0.000000,4.000000,4.000000,4.000000,4.000000,4.000000,4.000000,4.000000,4.000000,4.000000,4.000000,4.000000,4.000000,4.000000,4.000000,100.000000,,,,,,,,,,,,,,,,,,,,,,,,,,,,
1703488341.694466,1703488341.694905,20.000000,0.000000,4265.641113,4224.871582,4284.871582,4265.897461,4236.794922,4201.025879,4260.641113,4236.538574,4235.641113,4235.384766,4499.230957,4453.077148,4349.615234,4413.077148,0.000000,4.000000,98.000000,,,,0.000000,4.000000,4.000000,4.000000,4.000000,4.000000,4.000000,4.000000,4.000000,4.000000,4.000000,4.000000,4.000000,4.000000,4.000000,100.000000,,,,,,,,,,,,,,,,,5.000000,0.000000,0.687347,-0.122375,-0.692505,0.181702,0.895617,-0.411183,0.016115,-6.970198,-48.026512,62.201324
1703488341.702274,1703488341.702713,21.000000,0.000000,4271.410156,4233.974121,4293.974121,4265.897461,4244.615234,4205.512695,4259.230957,4234.871582,4236.153809,4229.230957,4509.102539,4460.897461,4360.256348,4421.922852,0.000000,4.000000,98.000000,,,,0.000000,4.000000,4.000000,4.000000,4.000000,4.000000,4.000000,4.000000,4.000000,4.000000,4.000000,4.000000,4.000000,4.000000,4.000000,100.000000,,,,,,,,,,,,,,,,,,,,,,,,,,,,
1703488341.710082,1703488341.710621,22.000000,0.000000,4270.897461,4236.025879,4287.307617,4263.205078,4241.538574,4203.461426,4264.230957,4227.179688,4235.256348,4232.436035,4502.436035,4447.692383,4358.205078,4419.230957,0.000000,4.000000,98.000000,,,,0.000000,4.000000,4.000000,4.000000,4.000000,4.000000,4.000000,4.000000,4.000000,4.000000,4.000000,4.000000,4.000000,4.000000,4.000000,100.000000,,,,,,,,,,,,,,,,,,,,,,,,,,,,
1703488341.717890,1703488341.718429,23.000000,0.000000,4263.077148,4231.538574,4268.589844,4263.205078,4229.487305,4199.743652,4261.666504,4209.358887,4221.025879,4237.051270,4478.846191,4422.307617,4342.948730,4405.512695,0.000000,4.000000,98.000000,,,,0.000000,4.000000,4.000000,4.000000,4.000000,4.000000,4.000000,4.000000,4.000000,4.000000,4.000000,4.000000,4.000000,4.000000,4.000000,100.000000,1.000000,91.666664,4.000000,4.000000,4.000000,4.000000,4.000000,3.000000,4.000000,4.000000,4.000000,4.000000,4.000000,4.000000,4.000000,4.000000,,,,,,,,,,,,
1703488341.725698,1703488341.726137,24.000000,0.000000,4251.025879,4235.641113,4256.922852,4260.897461,4230.512695,4198.333496,4253.589844,4198.333496,4196.410156,4220.384766,4460.641113,4406.153809,4327.051270,4390.256348,0.000000,4.000000,98.000000,,,,0.000000,4.000000,4.000000,4.000000,4.000000,4.000000,4.000000,4.000000,4.000000,4.000000,4.000000,4.000000,4.000000,4.000000,4.000000,100.000000,,,,,,,,,,,,,,,,,6.000000,0.000000,0.687631,-0.122192,-0.692383,0.181213,0.890734,-0.426322,0.015627,-7.006512,-48.040527,62.097862
1703488341.733506,1703488341.733945,25.000000,0.000000,4248.205078,4232.179688,4256.666504,4253.077148,4246.153809,4201.410156,4257.307617,4196.922852,4183.205078,4199.871582,4453.461426,4399.615234,4315.384766,4380.512695,0.000000,4.000000,98.000000,,,,0.000000,4.000000,4.000000,4.000000,4.000000,4.000000,4.000000,4.000000,4.000000,4.000000,4.000000,4.000000,4.000000,4.000000,4.000000,100.000000,,,,,,,,,,,,,,,,,,,,,,,,,,,,
1703488341.741314,1703488341.741653,26.000000,0.000000,4249.102539,4216.794922,4258.205078,4246.153809,4247.563965,4196.794922,4260.641113,4194.230957,4183.461426,4199.743652,4451.794922,4399.615234,4313.333496,4376.025879,0.000000,4.000000,98.000000,,,,0.000000,4.000000,4.000000,4.000000,4.000000,4.000000,4.000000,4.000000,4.000000,4.000000,4.000000,4.000000,4.000000,4.000000,4.000000,100.000000,,,,,,,,,,,,,,,,,,,,,,,,,,,,
1703488341.749122,1703488341.749561,27.000000,0.000000,4244.230957,4212.051270,4259.871582,4247.948730,4239.230957,4186.794922,4254.743652,4197.051270,4179.871582,4199.102539,4456.410156,4408.461426,4318.589844,4378.461426,0.000000,4.000000,98.000000,,,,0.000000,4.000000,4.000000,4.000000,4.000000,4.000000,4.000000,4.000000,4.000000,4.000000,4.000000,4.000000,4.000000,4.000000,4.000000,100.000000,,,,,,,,,,,,,,,,,,,,,,,,,,,,
1703488341.756930,1703488341.757370,28.000000,0.000000,4248.077148,4217.307617,4268.205078,4253.461426,4226.282227,4178.205078,4248.461426,4207.051270,4168.717773,4182.820313,4460.641113,4419.871582,4320.641113,4390.000000,0.000000,4.000000,98.000000,,,,0.000000,4.000000,4.000000,4.000000,4.000000,4.000000,4.000000,4.000000,4.000000,4.000000,4.000000,4.000000,4.000000,4.000000,4.000000,100.000000,,,,,,,,,,,,,,,,,7.000000,0.000000,0.687733,-0.122070,-0.692383,0.180908,0.904407,-0.400440,0.025394,-6.905860,-48.003139,62.304741
1703488341.764738,1703488341.765178,29.000000,0.000000,4260.384766,4212.307617,4277.436035,4250.384766,4208.333496,4168.461426,4243.333496,4213.333496,4168.205078,4178.205078,4466.025879,4432.436035,4323.846191,4399.102539,0.000000,4.000000,98.000000,,,,0.000000,4.000000,4.000000,4.000000,4.000000,4.000000,4.000000,4.000000,4.000000,4.000000,4.000000,4.000000,4.000000,4.000000,4.000000,100.000000,,,,,,,,,,,,,,,,,,,,,,,,,,,,
1703488341.772546,1703488341.772886,30.000000,0.000000,4262.820313,4203.717773,4281.666504,4247.051270,4203.717773,4165.769043,4240.512695,4228.205078,4192.307617,4195.769043,4478.333496,4448.077148,4329.487305,4403.589844,0.000000,4.000000,98.000000,,,,0.000000,4.000000,4.000000,4.000000,4.000000,4.000000,4.000000,4.000000,4.000000,4.000000,4.000000,4.000000,4.000000,4.000000,4.000000,100.000000,,,,,,,,,,,,,,,,,,,,,,,,,,,,
1703488341.780354,1703488341.780694,31.000000,0.000000,4262.051270,4208.589844,4286.922852,4255.769043,4216.666504,4176.025879,4244.871582,4251.538574,4220.641113,4210.000000,4488.077148,4459.871582,4333.077148,4408.717773,0.000000,4.000000,98.000000,,,,0.000000,4.000000,4.000000,4.000000,4.000000,4.000000,4.000000,4.000000,4.000000,4.000000,4.000000,4.000000,4.000000,4.000000,4.000000,100.000000,,,,,,,,,,,,,,,,,,,,,,,,,,,,
1703488341.788162,1703488341.788402,32.000000,0.000000,4275.384766,4218.974121,4297.051270,4264.871582,4224.871582,4182.948730,4250.256348,4259.487305,4235.897461,4218.461426,4493.205078,4466.410156,4342.563965,4416.282227,0.000000,4.000000,98.000000,,,,0.000000,4.000000,4.000000,4.000000,4.000000,4.000000,4.000000,4.000000,4.000000,4.000000,4.000000,4.000000,4.000000,4.000000,4.000000,100.000000,,,,,,,,,,,,,,,,,8.000000,0.000000,0.687766,-0.121887,-0.692383,0.180908,0.899524,-0.398974,0.021487,-6.948608,-48.102825,62.440933
1703488341.795970,1703488341.796210,33.000000,0.000000,4284.487305,4222.179688,4300.384766,4265.000000,4227.820313,4184.743652,4251.922852,4253.589844,4243.974121,4230.641113,4501.922852,4469.487305,4354.230957,4423.974121,0.000000,4.000000,98.000000,,,,0.000000,4.000000,4.000000,4.000000,4.000000,4.000000,4.000000,4.000000,4.000000,4.000000,4.000000,4.000000,4.000000,4.000000,4.000000,100.000000,,,,,,,,,,,,,,,,,,,,,,,,,,,,
1703488341.803778,1703488341.803918,34.000000,0.000000,4268.461426,4219.230957,4285.641113,4258.974121,4240.512695,4196.794922,4254.871582,4246.666504,4242.820313,4228.589844,4499.871582,4456.922852,4351.922852,4416.410156,0.000000,4.000000,98.000000,,,,0.000000,4.000000,4.000000,4.000000,4.000000,4.000000,4.000000,4.000000,4.000000,4.000000,4.000000,4.000000,4.000000,4.000000,4.000000,100.000000,,,,,,,,,,,,,,,,,,,,,,,,,,,,
1703488341.811586,1703488341.811826,35.000000,0.000000,4249.487305,4216.282227,4265.897461,4252.307617,4245.000000,4204.230957,4252.692383,4238.717773,4233.846191,4216.153809,4482.820313,4436.538574,4341.666504,4397.820313,0.000000,4.000000,98.000000,,,,0.000000,4.000000,4.000000,4.000000,4.000000,4.000000,4.000000,4.000000,4.000000,4.000000,4.000000,4.000000,4.000000,4.000000,4.000000,100.000000,,,,,,,,,,,,,,,,,,,,,,,,,,,,
1703488341.819394,1703488341.819634,36.000000,0.000000,4246.025879,4214.230957,4255.769043,4245.000000,4232.820313,4196.538574,4246.794922,4227.436035,4225.769043,4216.794922,4468.333496,4423.205078,4331.922852,4387.436035,0.000000,4.000000,98.000000,,,,0.000000,4.000000,4.000000,4.000000,4.000000,4.000000,4.000000,4.000000,4.000000,4.000000,4.000000,4.000000,4.000000,4.000000,4.000000,100.000000,,,,,,,,,,,,,,,,,9.000000,0.000000,0.687847,-0.121521,-0.692383,0.180847,0.900989,-0.413136,0.017092,-6.887080,-48.125877,62.496841
1703488341.827202,1703488341.827542,37.000000,0.000000,4243.717773,4212.692383,4249.487305,4242.563965,4226.025879,4196.538574,4247.436035,4219.743652,4217.179688,4220.769043,4462.692383,4410.512695,4325.897461,4382.179688,0.000000,4.000000,98.000000,,,,0.000000,4.000000,4.000000,4.000000,4.000000,4.000000,4.000000,4.000000,4.000000,4.000000,4.000000,4.000000,4.000000,4.000000,4.000000,100.000000,,,,,,,,,,,,,,,,,,,,,,,,,,,,
1703488341.835010,1703488341.835350,38.000000,0.000000,4240.128418,4208.717773,4243.205078,4243.589844,4232.948730,4204.615234,4249.487305,4216.794922,4204.358887,4210.000000,4460.128418,4401.282227,4324.871582,4374.230957,0.000000,4.000000,98.000000,,,,0.000000,4.000000,4.000000,4.000000,4.000000,4.000000,4.000000,4.000000,4.000000,4.000000,4.000000,4.000000,4.000000,4.000000,4.000000,100.000000,,,,,,,,,,,,,,,,,,,,,,,,,,,,
1703488341.842818,1703488341.843257,39.000000,0.000000,4241.794922,4203.077148,4246.538574,4240.641113,4234.871582,4197.820313,4247.948730,4215.769043,4191.153809,4194.230957,4456.538574,4403.205078,4319.230957,4369.230957,0.000000,4.000000,98.000000,,,,0.000000,4.000000,4.000000,4.000000,4.000000,4.000000,4.000000,4.000000,4.000000,4.000000,4.000000,4.000000,4.000000,4.000000,4.000000,100.000000,,,,,,,,,,,,,,,,,,,,,,,,,,,,
1703488341.850626,1703488341.851065,40.000000,0.000000,4245.512695,4200.512695,4258.589844,4239.871582,4228.461426,4186.922852,4246.282227,4212.179688,4181.282227,4186.666504,4455.897461,4410.641113,4309.358887,4369.230957,0.000000,4.000000,98.000000,,,,0.000000,4.000000,4.000000,4.000000,4.000000,4.000000,4.000000,4.000000,4.000000,4.000000,4.000000,4.000000,4.000000,4.000000,4.000000,100.000000,,,,,,,,,,,,,,,,,10.000000,0.000000,0.687930,-0.121399,-0.692322,0.180847,0.906361,-0.421438,0.016115,-6.865039,-48.029957,62.347157
1703488341.858434,1703488341.858973,41.000000,0.000000,4255.897461,4201.794922,4269.743652,4245.128418,4225.256348,4186.794922,4246.538574,4209.871582,4172.948730,4184.102539,4457.179688,4418.333496,4308.589844,4374.230957,0.000000,4.000000,98.000000,,,,0.000000,4.000000,4.000000,4.000000,4.000000,4.000000,4.000000,4.000000,4.000000,4.000000,4.000000,4.000000,4.000000,4.000000,4.000000,100.000000,,,,,,,,,,,,,,,,,,,,,,,,,,,,
1703488341.866243,1703488341.866781,42.000000,0.000000,4265.000000,4208.461426,4277.307617,4253.717773,4223.461426,4182.051270,4247.051270,4212.820313,4167.436035,4181.410156,4457.051270,4427.436035,4315.897461,4386.282227,0.000000,4.000000,98.000000,,,,0.000000,4.000000,4.000000,4.000000,4.000000,4.000000,4.000000,4.000000,4.000000,4.000000,4.000000,4.000000,4.000000,4.000000,4.000000,100.000000,,,,,,,,,,,,,,,,,,,,,,,,,,,,
1703488341.874051,1703488341.874689,43.000000,0.000000,4265.128418,4215.256348,4287.051270,4260.256348,4214.102539,4171.025879,4245.512695,4212.948730,4163.205078,4178.077148,4461.282227,4436.153809,4320.641113,4392.820313,0.000000,4.000000,98.000000,,,,0.000000,4.000000,4.000000,4.000000,4.000000,4.000000,4.000000,4.000000,4.000000,4.000000,4.000000,4.000000,4.000000,4.000000,4.000000,100.000000,,,,,,,,,,,,,,,,,,,,,,,,,,,,
1703488341.881858,1703488341.882497,44.000000,0.000000,4274.358887,4218.717773,4299.743652,4262.948730,4203.589844,4164.358887,4240.897461,4218.589844,4174.871582,4188.333496,4477.051270,4451.282227,4327.692383,4399.230957,0.000000,4.000000,98.000000,,,,0.000000,4.000000,4.000000,4.000000,4.000000,4.000000,4.000000,4.000000,4.000000,4.000000,4.000000,4.000000,4.000000,4.000000,4.000000,100.000000,,,,,,,,,,,,,,,,,11.000000,0.000000,0.687906,-0.121277,-0.692383,0.180786,0.900501,-0.421926,0.025394,-6.745202,-48.076962,62.112442
1703488341.889666,1703488341.890405,45.000000,0.000000,4285.000000,4221.282227,4305.641113,4266.538574,4205.897461,4166.922852,4238.717773,4230.128418,4193.333496,4206.410156,4493.974121,4470.769043,4343.333496,4415.256348,0.000000,4.000000,98.000000,,,,0.000000,4.000000,4.000000,4.000000,4.000000,4.000000,4.000000,4.000000,4.000000,4.000000,4.000000,4.000000,4.000000,4.000000,4.000000,100.000000,,,,,,,,,,,,,,,,,,,,,,,,,,,,
1703488341.897475,1703488341.898213,46.000000,0.000000,4274.102539,4223.205078,4298.077148,4266.666504,4218.077148,4173.974121,4244.102539,4232.948730,4190.897461,4202.179688,4493.846191,4471.922852,4349.358887,4418.846191,0.000000,4.000000,98.000000,,,,0.000000,4.000000,4.000000,4.000000,4.000000,4.000000,4.000000,4.000000,4.000000,4.000000,4.000000,4.000000,4.000000,4.000000,4.000000,100.000000,,,,,,,,,,,,,,,,,,,,,,,,,,,,
1703488341.905283,1703488341.905921,47.000000,0.000000,4254.615234,4213.205078,4278.846191,4253.077148,4229.487305,4184.230957,4251.410156,4228.461426,4187.436035,4186.922852,4480.128418,4451.922852,4334.230957,4398.205078,0.000000,4.000000,98.000000,,,,0.000000,4.000000,4.000000,4.000000,4.000000,4.000000,4.000000,4.000000,4.000000,4.000000,4.000000,4.000000,4.000000,4.000000,4.000000,100.000000,,,,,,,,,,,,,,,,,,,,,,,,,,,,
1703488341.913091,1703488341.913729,48.000000,0.000000,4240.000000,4194.615234,4256.282227,4233.205078,4230.256348,4196.538574,4249.615234,4230.384766,4206.025879,4197.179688,4473.077148,4432.307617,4324.102539,4377.179688,0.000000,4.000000,98.000000,,,,0.000000,4.000000,4.000000,4.000000,4.000000,4.000000,4.000000,4.000000,4.000000,4.000000,4.000000,4.000000,4.000000,4.000000,4.000000,100.000000,,,,,,,,,,,,,,,,,12.000000,0.000000,0.688026,-0.121216,-0.692322,0.180603,0.905872,-0.411671,0.008790,-6.770681,-48.035931,62.101196
1703488341.920899,1703488341.921437,49.000000,0.000000,4227.820313,4190.256348,4243.846191,4225.897461,4226.025879,4203.589844,4247.692383,4241.666504,4222.179688,4222.820313,4476.666504,4425.512695,4331.282227,4371.538574,0.000000,4.000000,98.000000,,,,0.000000,4.000000,4.000000,4.000000,4.000000,4.000000,4.000000,4.000000,4.000000,4.000000,4.000000,4.000000,4.000000,4.000000,4.000000,100.000000,,,,,,,,,,,,,,,,,,,,,,,,,,,,
1703488341.928707,1703488341.929345,50.000000,0.000000,4227.692383,4198.846191,4246.025879,4229.615234,4232.948730,4205.256348,4252.820313,4251.025879,4226.282227,4228.333496,4480.512695,4424.871582,4335.000000,4372.307617,0.000000,4.000000,98.000000,,,,0.000000,4.000000,4.000000,4.000000,4.000000,4.000000,4.000000,4.000000,4.000000,4.000000,4.000000,4.000000,4.000000,4.000000,4.000000,100.000000,,,,,,,,,,,,,,,,,,,,,,,,,,,,
1703488341.936515,1703488341.937153,51.000000,0.000000,4232.051270,4202.179688,4247.820313,4231.410156,4231.025879,4205.769043,4252.692383,4248.077148,4228.461426,4217.436035,4474.358887,4419.487305,4328.846191,4370.641113,0.000000,4.000000,98.000000,,,,0.000000,4.000000,4.000000,4.000000,4.000000,4.000000,4.000000,4.000000,4.000000,4.000000,4.000000,4.000000,4.000000,4.000000,4.000000,100.000000,,,,,,,,,,,,,,,,,,,,,,,,,,,,
1703488341.944323,1703488341.945061,52.000000,0.000000,4230.128418,4197.692383,4244.487305,4230.641113,4211.794922,4200.128418,4246.282227,4234.871582,4225.256348,4219.743652,4461.794922,4411.282227,4323.077148,4365.000000,0.000000,4.000000,98.000000,,,,0.000000,4.000000,4.000000,4.000000,4.000000,4.000000,4.000000,4.000000,4.000000,4.000000,4.000000,4.000000,4.000000,4.000000,4.000000,100.000000,,,,,,,,,,,,,,,,,13.000000,0.000000,0.687873,-0.121460,-0.692383,0.180786,0.906849,-0.412648,0.023440,-6.876947,-48.132339,62.141075
1703488341.952131,1703488341.952870,53.000000,0.000000,4236.153809,4201.794922,4249.871582,4235.384766,4216.025879,4191.153809,4251.794922,4224.487305,4213.717773,4221.153809,4455.897461,4411.282227,4321.025879,4362.051270,0.000000,4.000000,98.000000,,,,0.000000,4.000000,4.000000,4.000000,4.000000,4.000000,4.000000,4.000000,4.000000,4.000000,4.000000,4.000000,4.000000,4.000000,4.000000,100.000000,,,,,,,,,,,,,,,,,,,,,,,,,,,,
1703488341.959939,1703488341.960678,54.000000,0.000000,4248.846191,4213.461426,4264.230957,4245.512695,4238.974121,4189.102539,4261.282227,4218.461426,4201.794922,4200.384766,4457.436035,4420.256348,4319.615234,4367.948730,0.000000,4.000000,98.000000,,,,0.000000,4.000000,4.000000,4.000000,4.000000,4.000000,4.000000,4.000000,4.000000,4.000000,4.000000,4.000000,4.000000,4.000000,4.000000,100.000000,,,,,,,,,,,,,,,,,,,,,,,,,,,,
1703488341.967747,1703488341.968386,55.000000,0.000000,4260.512695,4217.051270,4277.307617,4253.974121,4230.384766,4182.563965,4256.025879,4214.871582,4196.153809,4187.948730,4462.692383,4428.974121,4321.025879,4377.051270,0.000000,4.000000,98.000000,,,,0.000000,4.000000,4.000000,4.000000,4.000000,4.000000,4.000000,4.000000,4.000000,4.000000,4.000000,4.000000,4.000000,4.000000,4.000000,100.000000,,,,,,,,,,,,,,,,,,,,,,,,,,,,
1703488341.975555,1703488341.976194,56.000000,0.000000,4275.128418,4220.128418,4287.051270,4259.615234,4213.333496,4167.820313,4254.230957,4212.948730,4196.025879,4197.051270,4468.846191,4435.769043,4325.769043,4386.666504,0.000000,4.000000,98.000000,,,,0.000000,4.000000,4.000000,4.000000,4.000000,4.000000,4.000000,4.000000,4.000000,4.000000,4.000000,4.000000,4.000000,4.000000,4.000000,100.000000,,,,,,,,,,,,,,,,,14.000000,0.000000,0.687801,-0.121582,-0.692322,0.181213,0.894640,-0.409718,0.015627,-6.822586,-48.069103,62.226971
1703488341.983363,1703488341.983902,57.000000,0.000000,4282.948730,4228.077148,4294.871582,4267.436035,4221.282227,4170.512695,4258.461426,4214.230957,4197.948730,4204.743652,4476.666504,4444.487305,4337.948730,4397.563965,0.000000,4.000000,98.000000,,,,0.000000,4.000000,4.000000,4.000000,4.000000,4.000000,4.000000,4.000000,4.000000,4.000000,4.000000,4.000000,4.000000,4.000000,4.000000,100.000000,,,,,,,,,,,,,,,,,,,,,,,,,,,,
1703488341.991171,1703488341.991710,58.000000,0.000000,4273.205078,4226.282227,4287.307617,4264.871582,4224.358887,4185.512695,4256.025879,4221.025879,4206.922852,4207.563965,4479.615234,4446.282227,4343.461426,4399.102539,0.000000,4.000000,98.000000,,,,0.000000,4.000000,4.000000,4.000000,4.000000,4.000000,4.000000,4.000000,4.000000,4.000000,4.000000,4.000000,4.000000,4.000000,4.000000,100.000000,,,,,,,,,,,,,,,,,,,,,,,,,,,,
1703488341.998979,1703488341.999418,59.000000,0.000000,4261.282227,4213.461426,4267.436035,4248.077148,4212.436035,4184.102539,4253.717773,4220.769043,4215.000000,4207.179688,4470.000000,4430.897461,4332.179688,4388.205078,0.000000,4.000000,98.000000,,,,0.000000,4.000000,4.000000,4.000000,4.000000,4.000000,4.000000,4.000000,4.000000,4.000000,4.000000,4.000000,4.000000,4.000000,4.000000,100.000000,,,,,,,,,,,,,,,,,,,,,,,,,,,,
1703488342.006787,1703488342.007226,60.000000,0.000000,4257.948730,4210.769043,4253.461426,4240.128418,4218.974121,4178.974121,4257.179688,4217.051270,4208.974121,4202.051270,4465.641113,4415.769043,4331.025879,4385.897461,0.000000,4.000000,98.000000,,,,0.000000,4.000000,4.000000,4.000000,4.000000,4.000000,4.000000,4.000000,4.000000,4.000000,4.000000,4.000000,4.000000,4.000000,4.000000,100.000000,,,,,,,,,,,,,,,,,15.000000,0.000000,0.687555,-0.121460,-0.692444,0.181763,0.897082,-0.425833,0.017580,-6.840327,-47.945526,62.170940
1703488342.014595,1703488342.014934,61.000000,0.000000,4251.794922,4217.436035,4247.563965,4246.410156,4239.358887,4195.000000,4261.282227,4224.871582,4211.153809,4207.692383,4468.974121,4418.333496,4341.538574,4389.743652,0.000000,4.000000,98.000000,,,,0.000000,4.000000,4.000000,4.000000,4.000000,4.000000,4.000000,4.000000,4.000000,4.000000,4.000000,4.000000,4.000000,4.000000,4.000000,100.000000,,,,,,,,,,,,,,,,,,,,,,,,,,,,
1703488342.022403,1703488342.022842,62.000000,0.000000,4243.461426,4214.615234,4242.820313,4247.563965,4237.307617,4203.846191,4261.410156,4235.769043,4230.769043,4219.487305,4468.974121,4420.769043,4338.974121,4382.436035,0.000000,4.000000,98.000000,,,,0.000000,4.000000,4.000000,4.000000,4.000000,4.000000,4.000000,4.000000,4.000000,4.000000,4.000000,4.000000,4.000000,4.000000,4.000000,100.000000,,,,,,,,,,,,,,,,,,,,,,,,,,,,
1703488342.030211,1703488342.030650,63.000000,0.000000,4241.025879,4210.897461,4242.179688,4241.538574,4224.615234,4195.641113,4261.282227,4235.512695,4236.666504,4216.922852,4468.333496,4414.358887,4333.077148,4378.589844,0.000000,4.000000,98.000000,,,,0.000000,4.000000,4.000000,4.000000,4.000000,4.000000,4.000000,4.000000,4.000000,4.000000,4.000000,4.000000,4.000000,4.000000,4.000000,100.000000,,,,,,,,,,,,,,,,,,,,,,,,,,,,
1703488342.038019,1703488342.038458,64.000000,0.000000,4249.230957,4222.820313,4250.128418,4248.205078,4239.358887,4196.666504,4265.256348,4233.333496,4231.922852,4216.153809,4472.692383,4416.153809,4342.948730,4387.820313,5435.000000,4.000000,98.000000,,,,0.000000,4.000000,4.000000,4.000000,4.000000,4.000000,4.000000,4.000000,4.000000,4.000000,4.000000,4.000000,4.000000,4.000000,4.000000,100.000000,,,,,,,,,,,,,,,,,16.000000,0.000000,0.687420,-0.121582,-0.692444,0.182190,0.895129,-0.424368,0.013185,-6.739627,-48.034309,62.170513
1703488342.045827,1703488342.046166,65.000000,0.000000,4259.615234,4236.153809,4260.512695,4261.538574,4259.487305,4205.512695,4271.538574,4231.410156,4236.922852,4226.153809,4473.077148,4424.230957,4346.410156,4390.641113,5521.000000,4.000000,98.000000,,,,0.000000,4.000000,4.000000,4.000000,4.000000,4.000000,4.000000,4.000000,4.000000,4.000000,4.000000,4.000000,4.000000,4.000000,4.000000,100.000000,,,,,,,,,,,,,,,,,,,,,,,,,,,,
1703488342.053635,1703488342.054074,66.000000,0.000000,4265.256348,4235.512695,4273.717773,4265.641113,4246.922852,4203.717773,4267.436035,4217.436035,4232.948730,4222.051270,4470.512695,4428.717773,4339.487305,4390.897461,5345.000000,4.000000,98.000000,,,,0.000000,4.000000,4.000000,4.000000,4.000000,4.000000,4.000000,4.000000,4.000000,4.000000,4.000000,4.000000,4.000000,4.000000,4.000000,100.000000,,,,,,,,,,,,,,,,,,,,,,,,,,,,
1703488342.061443,1703488342.061882,67.000000,0.000000,4277.051270,4234.230957,4288.461426,4264.358887,4231.410156,4195.384766,4261.538574,4202.436035,4213.461426,4202.563965,4474.743652,4438.077148,4340.384766,4400.256348,5444.000000,4.000000,98.000000,,,,0.000000,4.000000,4.000000,4.000000,4.000000,4.000000,4.000000,4.000000,4.000000,4.000000,4.000000,4.000000,4.000000,4.000000,4.000000,100.000000,,,,,,,,,,,,,,,,,,,,,,,,,,,,
1703488342.069251,1703488342.069790,68.000000,0.000000,4292.436035,4239.743652,4300.128418,4265.256348,4233.717773,4187.179688,4264.358887,4197.948730,4197.051270,4189.230957,4475.769043,4453.333496,4337.051270,4403.717773,5160.000000,4.000000,98.000000,,,,0.000000,4.000000,4.000000,4.000000,4.000000,4.000000,4.000000,4.000000,4.000000,4.000000,4.000000,4.000000,4.000000,4.000000,4.000000,100.000000,,,,,,,,,,,,,,,,,17.000000,0.000000,0.687254,-0.121643,-0.692566,0.182312,0.881944,-0.423880,0.006348,-6.882331,-48.164211,62.120129
1703488342.077059,1703488342.077598,69.000000,0.000000,4292.820313,4234.230957,4308.205078,4264.615234,4233.077148,4183.333496,4265.000000,4197.307617,4182.563965,4180.000000,4470.897461,4457.948730,4327.179688,4398.846191,5015.000000,4.000000,98.000000,,,,0.000000,4.000000,4.000000,4.000000,4.000000,4.000000,4.000000,4.000000,4.000000,4.000000,4.000000,4.000000,4.000000,4.000000,4.000000,100.000000,,,,,,,,,,,,,,,,,,,,,,,,,,,,
1703488342.084868,1703488342.085506,70.000000,0.000000,4280.641113,4223.205078,4305.256348,4257.563965,4228.333496,4191.922852,4263.974121,4194.743652,4170.769043,4173.717773,4461.153809,4448.974121,4318.333496,4395.128418,2386.000000,4.000000,98.000000,,,,0.000000,4.000000,4.000000,4.000000,4.000000,4.000000,4.000000,4.000000,4.000000,4.000000,4.000000,4.000000,4.000000,4.000000,4.000000,100.000000,,,,,,,,,,,,,,,,,,,,,,,,,,,,
1703488342.092676,1703488342.093314,71.000000,0.000000,4267.307617,4215.000000,4284.487305,4250.256348,4226.794922,4195.641113,4263.589844,4196.410156,4176.410156,4177.307617,4446.025879,4435.256348,4303.461426,4379.871582,4979.000000,4.000000,98.000000,,,,0.000000,4.000000,4.000000,4.000000,4.000000,4.000000,4.000000,4.000000,4.000000,4.000000,4.000000,4.000000,4.000000,4.000000,4.000000,100.000000,,,,,,,,,,,,,,,,,,,,,,,,,,,,
1703488342.100484,1703488342.101022,72.000000,0.000000,4249.615234,4202.948730,4262.436035,4244.230957,4230.256348,4196.410156,4266.282227,4209.615234,4193.077148,4182.948730,4437.307617,4422.179688,4290.641113,4354.871582,5190.000000,4.000000,98.000000,,,,0.000000,4.000000,4.000000,4.000000,4.000000,4.000000,4.000000,4.000000,4.000000,4.000000,4.000000,4.000000,4.000000,4.000000,4.000000,100.000000,,,,,,,,,,,,,,,,,18.000000,0.000000,0.687098,-0.121826,-0.692688,0.182312,0.887315,-0.434135,0.022952,-6.860765,-48.264458,62.208115
1703488342.108292,1703488342.108830,73.000000,0.000000,4243.205078,4199.102539,4258.077148,4240.897461,4241.794922,4209.615234,4272.051270,4232.051270,4215.641113,4193.333496,4445.512695,4421.025879,4302.563965,4357.563965,5330.000000,4.000000,98.000000,,,,0.000000,4.000000,4.000000,4.000000,4.000000,4.000000,4.000000,4.000000,4.000000,4.000000,4.000000,4.000000,4.000000,4.000000,4.000000,100.000000,,,,,,,,,,,,,,,,,,,,,,,,,,,,
1703488342.116100,1703488342.116538,74.000000,0.000000,4259.358887,4213.205078,4259.871582,4249.615234,4260.128418,4222.051270,4280.000000,4248.461426,4242.179688,4217.692383,4466.025879,4433.077148,4325.256348,4384.615234,5846.000000,4.000000,98.000000,,,,0.000000,4.000000,4.000000,4.000000,4.000000,4.000000,4.000000,4.000000,4.000000,4.000000,4.000000,4.000000,4.000000,4.000000,4.000000,100.000000,,,,,,,,,,,,,,,,,,,,,,,,,,,,
1703488342.123908,1703488342.124346,75.000000,0.000000,4269.487305,4227.051270,4259.102539,4263.077148,4265.641113,4222.820313,4279.615234,4252.692383,4252.563965,4237.051270,4480.000000,4444.487305,4335.128418,4399.102539,6249.000000,4.000000,98.000000,,,,0.000000,4.000000,4.000000,4.000000,4.000000,4.000000,4.000000,4.000000,4.000000,4.000000,4.000000,4.000000,4.000000,4.000000,4.000000,100.000000,,,,,,,,,,,,,,,,,,,,,,,,,,,,
1703488342.131716,1703488342.132054,76.000000,0.000000,4261.922852,4228.077148,4258.717773,4263.974121,4247.436035,4216.922852,4270.000000,4257.051270,4254.871582,4243.974121,4487.948730,4448.589844,4349.358887,4402.307617,6725.000000,4.000000,98.000000,,,,0.000000,4.000000,4.000000,4.000000,4.000000,4.000000,4.000000,4.000000,4.000000,4.000000,4.000000,4.000000,4.000000,4.000000,4.000000,100.000000,,,,,,,,,,,,,,,,,19.000000,0.000000,0.687066,-0.121826,-0.692688,0.182434,0.879014,-0.409718,0.017580,-6.874689,-48.254677,61.937302
1703488342.139524,1703488342.139862,77.000000,0.000000,4268.846191,4233.077148,4266.282227,4265.000000,4241.666504,4214.871582,4268.461426,4264.230957,4261.666504,4249.871582,4499.743652,4453.077148,4365.384766,4409.102539,6918.000000,4.000000,98.000000,,,,0.000000,4.000000,4.000000,4.000000,4.000000,4.000000,4.000000,4.000000,4.000000,4.000000,4.000000,4.000000,4.000000,4.000000,4.000000,100.000000,,,,,,,,,,,,,,,,,,,,,,,,,,,,
1703488342.147332,1703488342.147570,78.000000,0.000000,4292.436035,4248.205078,4286.666504,4284.230957,4259.358887,4218.205078,4273.589844,4263.077148,4260.512695,4257.179688,4511.025879,4465.000000,4370.641113,4421.794922,5846.000000,4.000000,98.000000,,,,0.000000,4.000000,4.000000,4.000000,4.000000,4.000000,4.000000,4.000000,4.000000,4.000000,4.000000,4.000000,4.000000,4.000000,4.000000,100.000000,,,,,,,,,,,,,,,,,,,,,,,,,,,,
1703488342.155140,1703488342.155378,79.000000,0.000000,4300.641113,4256.666504,4306.794922,4297.436035,4263.333496,4216.153809,4275.128418,4251.410156,4247.948730,4253.461426,4511.794922,4475.769043,4372.948730,4432.563965,6249.000000,4.000000,98.000000,,,,0.000000,4.000000,4.000000,4.000000,4.000000,4.000000,4.000000,4.000000,4.000000,4.000000,4.000000,4.000000,4.000000,4.000000,4.000000,100.000000,,,,,,,,,,,,,,,,,,,,,,,,,,,,
1703488342.162948,1703488342.163086,80.000000,0.000000,4298.077148,4251.025879,4316.794922,4290.256348,4249.102539,4202.820313,4270.769043,4238.846191,4230.256348,4227.051270,4500.128418,4478.461426,4365.769043,4431.410156,6725.000000,4.000000,98.000000,,,,0.000000,4.000000,4.000000,4.000000,4.000000,4.000000,4.000000,4.000000,4.000000,4.000000,4.000000,4.000000,4.000000,4.000000,4.000000,100.000000,,,,,,,,,,,,,,,,,20.000000,0.000000,0.687238,-0.121643,-0.692566,0.182373,0.887804,-0.420950,0.017580,-7.003886,-48.195877,61.993572
1703488342.170756,1703488342.170894,81.000000,0.000000,4294.615234,4234.871582,4318.205078,4280.256348,4242.179688,4195.897461,4265.256348,4229.102539,4206.153809,4193.974121,4482.179688,4472.692383,4342.820313,4413.589844,6918.000000,4.000000,98.000000,,,,0.000000,4.000000,4.000000,4.000000,4.000000,4.000000,4.000000,4.000000,4.000000,4.000000,4.000000,4.000000,4.000000,4.000000,4.000000,100.000000,,,,,,,,,,,,,,,,,,,,,,,,,,,,
1703488342.178564,1703488342.178602,82.000000,0.000000,4284.743652,4221.153809,4314.102539,4271.794922,4237.436035,4198.333496,4261.025879,4220.897461,4181.794922,4174.230957,4463.974121,4462.563965,4322.051270,4396.538574,5846.000000,4.000000,98.000000,,,,0.000000,4.000000,4.000000,4.000000,4.000000,4.000000,4.000000,4.000000,4.000000,4.000000,4.000000,4.000000,4.000000,4.000000,4.000000,100.000000,,,,,,,,,,,,,,,,,,,,,,,,,,,,
1703488342.186372,1703488342.186410,83.000000,0.000000,4276.153809,4217.692383,4309.487305,4265.000000,4230.256348,4198.589844,4258.717773,4213.461426,4174.230957,4172.563965,4457.307617,4455.128418,4313.205078,4387.948730,6249.000000,4.000000,98.000000,,,,0.000000,4.000000,4.000000,4.000000,4.000000,4.000000,4.000000,4.000000,4.000000,4.000000,4.000000,4.000000,4.000000,4.000000,4.000000,100.000000,,,,,,,,,,,,,,,,,,,,,,,,,,,,
1703488342.194180,1703488342.194118,84.000000,0.000000,4273.589844,4214.487305,4300.769043,4260.897461,4229.743652,4201.410156,4259.871582,4212.563965,4178.077148,4178.333496,4454.102539,4445.384766,4306.922852,4378.461426,6725.000000,4.000000,98.000000,,,,0.000000,4.000000,4.000000,4.000000,4.000000,4.000000,4.000000,4.000000,4.000000,4.000000,4.000000,4.000000,4.000000,4.000000,4.000000,100.000000,,,,,,,,,,,,,,,,,21.000000,0.000000,0.687521,-0.121521,-0.692322,0.182312,0.900989,-0.427787,0.024905,-6.886831,-48.092957,62.010883
1703488342.201988,1703488342.202026,85.000000,0.000000,4262.563965,4204.230957,4278.205078,4254.871582,4227.820313,4213.077148,4259.743652,4220.128418,4182.051270,4180.384766,4441.538574,4426.410156,4300.256348,4368.077148,6918.000000,4.000000,98.000000,,,,0.000000,4.000000,4.000000,4.000000,4.000000,4.000000,4.000000,4.000000,4.000000,4.000000,4.000000,4.000000,4.000000,4.000000,4.000000,100.000000,,,,,,,,,,,,,,,,,,,,,,,,,,,,
1703488342.209796,1703488342.209834,86.000000,0.000000,4248.461426,4205.512695,4260.128418,4247.948730,4243.589844,4234.615234,4265.897461,4230.897461,4190.897461,4186.025879,4440.000000,4414.102539,4301.025879,4364.358887,5846.000000,4.000000,98.000000,,,,0.000000,4.000000,4.000000,4.000000,4.000000,4.000000,4.000000,4.000000,4.000000,4.000000,4.000000,4.000000,4.000000,4.000000,4.000000,100.000000,,,,,,,,,,,,,,,,,,,,,,,,,,,,
1703488342.217604,1703488342.217742,87.000000,0.000000,4248.461426,4217.436035,4260.769043,4248.333496,4271.025879,4251.666504,4274.615234,4239.487305,4212.051270,4207.563965,4455.897461,4420.641113,4314.871582,4374.230957,6249.000000,4.000000,98.000000,,,,0.000000,4.000000,4.000000,4.000000,4.000000,4.000000,4.000000,4.000000,4.000000,4.000000,4.000000,4.000000,4.000000,4.000000,4.000000,100.000000,1.000000,83.333336,4.000000,4.000000,3.000000,4.000000,4.000000,3.000000,4.000000,4.000000,4.000000,4.000000,4.000000,4.000000,4.000000,4.000000,,,,,,,,,,,,
1703488342.225412,1703488342.225550,88.000000,0.000000,4251.153809,4220.000000,4259.102539,4255.256348,4268.589844,4253.205078,4274.230957,4245.128418,4234.615234,4237.436035,4466.538574,4424.102539,4329.230957,4381.410156,6725.000000,4.000000,98.000000,,,,0.000000,4.000000,4.000000,4.000000,4.000000,4.000000,4.000000,4.000000,4.000000,4.000000,4.000000,4.000000,4.000000,4.000000,4.000000,100.000000,,,,,,,,,,,,,,,,,22.000000,0.000000,0.687602,-0.121521,-0.692322,0.182007,0.907337,-0.437553,0.012697,-6.914814,-48.116993,61.909794
1703488342.233220,1703488342.233457,89.000000,0.000000,4248.333496,4220.384766,4253.589844,4258.077148,4261.410156,4247.051270,4269.743652,4252.820313,4246.025879,4247.948730,4474.487305,4428.205078,4337.820313,4382.051270,6918.000000,4.000000,98.000000,,,,0.000000,4.000000,4.000000,4.000000,4.000000,4.000000,4.000000,4.000000,4.000000,4.000000,4.000000,4.000000,4.000000,4.000000,4.000000,100.000000,,,,,,,,,,,,,,,,,,,,,,,,,,,,
1703488342.241028,1703488342.241265,90.000000,0.000000,4256.538574,4229.743652,4266.282227,4262.307617,4274.230957,4240.512695,4271.282227,4266.153809,4261.153809,4251.922852,4501.666504,4455.128418,4358.461426,4401.153809,5846.000000,4.000000,98.000000,,,,0.000000,4.000000,4.000000,4.000000,4.000000,4.000000,4.000000,4.000000,4.000000,4.000000,4.000000,4.000000,4.000000,4.000000,4.000000,100.000000,,,,,,,,,,,,,,,,,,,,,,,,,,,,
1703488342.248836,1703488342.249173,91.000000,0.000000,4273.717773,4240.000000,4286.025879,4271.410156,4271.410156,4231.666504,4269.871582,4278.974121,4277.436035,4264.487305,4528.717773,4482.820313,4381.794922,4429.230957,6249.000000,4.000000,98.000000,,,,0.000000,4.000000,4.000000,4.000000,4.000000,4.000000,4.000000,4.000000,4.000000,4.000000,4.000000,4.000000,4.000000,4.000000,4.000000,100.000000,,,,,,,,,,,,,,,,,,,,,,,,,,,,
1703488342.256644,1703488342.256981,92.000000,0.000000,4279.743652,4246.666504,4291.410156,4280.256348,4255.000000,4225.641113,4261.282227,4280.000000,4268.846191,4262.436035,4528.974121,4488.846191,4384.230957,4436.922852,6725.000000,4.000000,98.000000,,,,0.000000,4.000000,4.000000,4.000000,4.000000,4.000000,4.000000,4.000000,4.000000,4.000000,4.000000,4.000000,4.000000,4.000000,4.000000,100.000000,,,,,,,,,,,,,,,,,23.000000,0.000000,0.687806,-0.121277,-0.692322,0.181396,0.880479,-0.412160,0.014162,-6.856667,-47.971962,62.018814
1703488342.264452,1703488342.264889,93.000000,0.000000,4277.948730,4249.743652,4296.794922,4286.538574,4257.179688,4227.948730,4262.563965,4267.563965,4242.436035,4244.615234,4513.333496,4484.230957,4372.820313,4428.974121,6918.000000,4.000000,98.000000,,,,0.000000,4.000000,4.000000,4.000000,4.000000,4.000000,4.000000,4.000000,4.000000,4.000000,4.000000,4.000000,4.000000,4.000000,4.000000,100.000000,,,,,,,,,,,,,,,,,,,,,,,,,,,,
1703488342.272260,1703488342.272697,94.000000,0.000000,4285.769043,4251.794922,4308.974121,4292.307617,4258.974121,4224.871582,4267.051270,4252.563965,4225.897461,4223.333496,4503.077148,4482.436035,4363.205078,4431.025879,5846.000000,4.000000,98.000000,,,,0.000000,4.000000,4.000000,4.000000,4.000000,4.000000,4.000000,4.000000,4.000000,4.000000,4.000000,4.000000,4.000000,4.000000,4.000000,100.000000,,,,,,,,,,,,,,,,,,,,,,,,,,,,
1703488342.280069,1703488342.280605,95.000000,0.000000,4295.641113,4260.512695,4313.461426,4296.282227,4245.512695,4218.717773,4259.230957,4248.205078,4226.538574,4215.128418,4504.230957,4485.897461,4361.666504,4439.102539,6249.000000,4.000000,98.000000,,,,0.000000,4.000000,4.000000,4.000000,4.000000,4.000000,4.000000,4.000000,4.000000,4.000000,4.000000,4.000000,4.000000,4.000000,4.000000,100.000000,,,,,,,,,,,,,,,,,,,,,,,,,,,,
1703488342.287876,1703488342.288413,96.000000,0.000000,4295.512695,4266.025879,4313.333496,4296.666504,4242.692383,4222.820313,4254.358887,4256.922852,4230.897461,4225.641113,4501.666504,4492.307617,4357.820313,4435.384766,6725.000000,4.000000,98.000000,,,,0.000000,4.000000,4.000000,4.000000,4.000000,4.000000,4.000000,4.000000,4.000000,4.000000,4.000000,4.000000,4.000000,4.000000,4.000000,100.000000,,,,,,,,,,,,,,,,,24.000000,0.000000,0.687957,-0.121155,-0.692322,0.180908,0.891222,-0.412648,0.034184,-7.021000,-48.008099,62.000267
1703488342.295684,1703488342.296121,97.000000,0.000000,4291.922852,4255.897461,4313.077148,4291.025879,4245.897461,4234.743652,4258.461426,4263.589844,4229.615234,4226.538574,4490.897461,4487.820313,4348.589844,4425.897461,6918.000000,4.000000,98.000000,,,,0.000000,4.000000,4.000000,4.000000,4.000000,4.000000,4.000000,4.000000,4.000000,4.000000,4.000000,4.000000,4.000000,4.000000,4.000000,100.000000,,,,,,,,,,,,,,,,,,,,,,,,,,,,
1703488342.303493,1703488342.303929,98.000000,0.000000,4289.871582,4243.589844,4305.897461,4280.641113,4243.333496,4246.538574,4262.179688,4262.436035,4233.589844,4219.358887,4488.077148,4476.794922,4348.974121,4425.641113,5846.000000,4.000000,98.000000,,,,0.000000,4.000000,4.000000,4.000000,4.000000,4.000000,4.000000,4.000000,4.000000,4.000000,4.000000,4.000000,4.000000,4.000000,4.000000,100.000000,,,,,,,,,,,,,,,,,,,,,,,,,,,,
1703488342.311301,1703488342.311637,99.000000,0.000000,4285.897461,4244.102539,4297.948730,4277.948730,4251.410156,4251.153809,4263.589844,4263.333496,4247.820313,4236.922852,4497.307617,4474.743652,4357.820313,4430.384766,6249.000000,4.000000,98.000000,,,,0.000000,4.000000,4.000000,4.000000,4.000000,4.000000,4.000000,4.000000,4.000000,4.000000,4.000000,4.000000,4.000000,4.000000,4.000000,100.000000,,,,,,,,,,,,,,,,,,,,,,,,,,,,
1703488342.319109,1703488342.319445,100.000000,0.000000,4279.615234,4246.794922,4293.333496,4280.384766,4263.717773,4251.666504,4264.230957,4265.512695,4255.384766,4251.025879,4499.743652,4473.333496,4361.025879,4428.589844,6725.000000,4.000000,98.000000,,,,0.000000,4.000000,4.000000,4.000000,4.000000,4.000000,4.000000,4.000000,4.000000,4.000000,4.000000,4.000000,4.000000,4.000000,4.000000,100.000000,,,,,,,,,,,,,,,,,25.000000,0.000000,0.688472,-0.120972,-0.692017,0.180237,0.916616,-0.410695,0.029789,-7.018900,-47.940620,61.966908
1703488342.326917,1703488342.327153,101.000000,0.000000,4280.384766,4246.410156,4288.461426,4277.436035,4261.666504,4256.282227,4265.000000,4264.358887,4255.256348,4239.487305,4498.589844,4471.794922,4366.922852,4431.794922,6918.000000,4.000000,98.000000,,,,0.000000,4.000000,4.000000,4.000000,4.000000,4.000000,4.000000,4.000000,4.000000,4.000000,4.000000,4.000000,4.000000,4.000000,4.000000,100.000000,,,,,,,,,,,,,,,,,,,,,,,,,,,,
1703488342.334725,1703488342.334961,102.000000,0.000000,4283.333496,4248.077148,4290.384766,4275.512695,4262.948730,4262.820313,4264.487305,4271.410156,4264.743652,4251.282227,4506.922852,4477.948730,4378.333496,4441.410156,5846.000000,4.000000,98.000000,,,,0.000000,4.000000,4.000000,4.000000,4.000000,4.000000,4.000000,4.000000,4.000000,4.000000,4.000000,4.000000,4.000000,4.000000,4.000000,100.000000,,,,,,,,,,,,,,,,,,,,,,,,,,,,
1703488342.342533,1703488342.342669,103.000000,0.000000,4281.794922,4246.025879,4294.358887,4279.230957,4279.102539,4260.128418,4266.538574,4276.922852,4271.922852,4270.128418,4512.692383,4480.641113,4378.205078,4445.128418,6249.000000,4.000000,98.000000,,,,0.000000,4.000000,4.000000,4.000000,4.000000,4.000000,4.000000,4.000000,4.000000,4.000000,4.000000,4.000000,4.000000,4.000000,4.000000,100.000000,,,,,,,,,,,,,,,,,,,,,,,,,,,,
1703488342.350341,1703488342.350477,104.000000,0.000000,4279.102539,4238.077148,4288.333496,4276.153809,4274.743652,4250.384766,4267.692383,4267.307617,4260.641113,4253.077148,4507.436035,4473.205078,4371.922852,4442.820313,6725.000000,4.000000,98.000000,,,,0.000000,4.000000,4.000000,4.000000,4.000000,4.000000,4.000000,4.000000,4.000000,4.000000,4.000000,4.000000,4.000000,4.000000,4.000000,100.000000,,,,,,,,,,,,,,,,,26.000000,0.000000,0.688666,-0.120850,-0.691956,0.179810,0.905872,-0.400440,0.009767,-7.067010,-47.896561,62.036884
1703488342.358149,1703488342.358185,105.000000,0.000000,4269.487305,4230.384766,4278.205078,4263.205078,4250.641113,4246.922852,4264.102539,4259.743652,4247.307617,4230.641113,4496.666504,4466.410156,4364.230957,4434.487305,6918.000000,4.000000,98.000000,,,,0.000000,4.000000,4.000000,4.000000,4.000000,4.000000,4.000000,4.000000,4.000000,4.000000,4.000000,4.000000,4.000000,4.000000,4.000000,100.000000,,,,,,,,,,,,,,,,,,,,,,,,,,,,
1703488342.365957,1703488342.365993,106.000000,0.000000,4257.436035,4229.358887,4274.230957,4260.000000,4254.615234,4249.230957,4262.820313,4261.794922,4237.948730,4210.384766,4480.128418,4463.205078,4347.051270,4422.948730,5846.000000,4.000000,98.000000,,,,0.000000,4.000000,4.000000,4.000000,4.000000,4.000000,4.000000,4.000000,4.000000,4.000000,4.000000,4.000000,4.000000,4.000000,4.000000,100.000000,,,,,,,,,,,,,,,,,,,,,,,,,,,,
1703488342.373765,1703488342.373701,107.000000,0.000000,4260.897461,4232.820313,4280.384766,4270.256348,4267.307617,4249.615234,4265.128418,4260.128418,4230.769043,4199.102539,4470.384766,4465.769043,4335.769043,4422.692383,6249.000000,4.000000,98.000000,,,,0.000000,4.000000,4.000000,4.000000,4.000000,4.000000,4.000000,4.000000,4.000000,4.000000,4.000000,4.000000,4.000000,4.000000,4.000000,100.000000,,,,,,,,,,,,,,,,,,,,,,,,,,,,
1703488342.381573,1703488342.381609,108.000000,0.000000,4274.358887,4234.871582,4291.410156,4276.538574,4255.897461,4246.410156,4265.128418,4264.871582,4233.077148,4211.794922,4478.461426,4481.025879,4343.077148,4438.461426,6725.000000,4.000000,98.000000,,,,0.000000,4.000000,4.000000,4.000000,4.000000,4.000000,4.000000,4.000000,4.000000,4.000000,4.000000,4.000000,4.000000,4.000000,4.000000,100.000000,,,,,,,,,,,,,,,,,27.000000,0.000000,0.688696,-0.121033,-0.691895,0.179810,0.901966,-0.411671,0.017092,-7.093642,-47.923569,61.999863
1703488342.389381,1703488342.389417,109.000000,0.000000,4278.974121,4230.897461,4296.922852,4274.230957,4241.153809,4242.563965,4261.666504,4277.179688,4235.897461,4210.769043,4481.922852,4489.615234,4345.769043,4441.025879,6918.000000,4.000000,98.000000,,,,0.000000,4.000000,4.000000,4.000000,4.000000,4.000000,4.000000,4.000000,4.000000,4.000000,4.000000,4.000000,4.000000,4.000000,4.000000,100.000000,,,,,,,,,,,,,,,,,,,,,,,,,,,,
1703488342.397189,1703488342.397325,110.000000,0.000000,4277.307617,4225.641113,4299.230957,4272.307617,4241.922852,4243.077148,4261.794922,4273.461426,4232.436035,4195.256348,4472.948730,4480.897461,4332.948730,4431.025879,5846.000000,4.000000,98.000000,,,,0.000000,4.000000,4.000000,4.000000,4.000000,4.000000,4.000000,4.000000,4.000000,4.000000,4.000000,4.000000,4.000000,4.000000,4.000000,100.000000,,,,,,,,,,,,,,,,,,,,,,,,,,,,
1703488342.404997,1703488342.405133,111.000000,0.000000,4278.333496,4222.692383,4301.538574,4270.256348,4243.846191,4248.077148,4263.077148,4262.179688,4229.230957,4198.077148,4470.641113,4473.077148,4326.282227,4427.948730,6249.000000,4.000000,98.000000,,,,0.000000,4.000000,4.000000,4.000000,4.000000,4.000000,4.000000,4.000000,4.000000,4.000000,4.000000,4.000000,4.000000,4.000000,4.000000,100.000000,,,,,,,,,,,,,,,,,,,,,,,,,,,,
1703488342.412805,1703488342.413041,112.000000,0.000000,4277.179688,4215.769043,4298.333496,4264.358887,4231.282227,4250.000000,4261.538574,4262.436035,4232.436035,4203.333496,4472.692383,4472.563965,4327.436035,4424.102539,6725.000000,4.000000,98.000000,,,,0.000000,4.000000,4.000000,4.000000,4.000000,4.000000,4.000000,4.000000,4.000000,4.000000,4.000000,4.000000,4.000000,4.000000,4.000000,100.000000,,,,,,,,,,,,,,,,,28.000000,0.000000,0.688736,-0.121216,-0.691711,0.180237,0.903919,-0.415578,0.013674,-7.100945,-47.964546,61.983208
1703488342.420613,1703488342.420849,113.000000,0.000000,4276.410156,4213.846191,4295.897461,4261.025879,4228.974121,4249.871582,4259.743652,4265.000000,4240.000000,4205.256348,4472.051270,4474.743652,4326.922852,4421.025879,6918.000000,4.000000,98.000000,,,,0.000000,4.000000,4.000000,4.000000,4.000000,4.000000,4.000000,4.000000,4.000000,4.000000,4.000000,4.000000,4.000000,4.000000,4.000000,100.000000,,,,,,,,,,,,,,,,,,,,,,,,,,,,
1703488342.428421,1703488342.428757,114.000000,0.000000,4278.974121,4221.794922,4302.563965,4266.282227,4254.230957,4256.025879,4263.461426,4262.563965,4247.179688,4218.333496,4477.820313,4483.589844,4328.846191,4425.769043,5846.000000,4.000000,98.000000,,,,0.000000,4.000000,4.000000,4.000000,4.000000,4.000000,4.000000,4.000000,4.000000,4.000000,4.000000,4.000000,4.000000,4.000000,4.000000,100.000000,,,,,,,,,,,,,,,,,,,,,,,,,,,,
1703488342.436229,1703488342.436564,115.000000,0.000000,4282.051270,4230.128418,4307.051270,4274.615234,4276.153809,4265.641113,4271.922852,4265.897461,4253.077148,4232.436035,4489.615234,4491.666504,4337.692383,4432.692383,6249.000000,4.000000,98.000000,,,,0.000000,4.000000,4.000000,4.000000,4.000000,4.000000,4.000000,4.000000,4.000000,4.000000,4.000000,4.000000,4.000000,4.000000,4.000000,100.000000,,,,,,,,,,,,,,,,,,,,,,,,,,,,
1703488342.444037,1703488342.444472,116.000000,0.000000,4277.051270,4231.666504,4298.461426,4272.563965,4269.358887,4263.846191,4270.512695,4266.410156,4253.077148,4239.871582,4492.051270,4482.307617,4344.871582,4428.205078,6725.000000,4.000000,98.000000,,,,0.000000,4.000000,4.000000,4.000000,4.000000,4.000000,4.000000,4.000000,4.000000,4.000000,4.000000,4.000000,4.000000,4.000000,4.000000,100.000000,,,,,,,,,,,,,,,,,29.000000,0.000000,0.688735,-0.121460,-0.691589,0.180542,0.906849,-0.434135,0.017092,-7.107517,-47.918091,61.968220
1703488342.451845,1703488342.452280,117.000000,0.000000,4266.410156,4228.717773,4283.589844,4263.077148,4255.000000,4254.102539,4265.256348,4250.897461,4240.769043,4232.436035,4477.563965,4458.333496,4340.256348,4415.000000,6918.000000,4.000000,98.000000,,,,0.000000,4.000000,4.000000,4.000000,4.000000,4.000000,4.000000,4.000000,4.000000,4.000000,4.000000,4.000000,4.000000,4.000000,4.000000,100.000000,,,,,,,,,,,,,,,,,,,,,,,,,,,,
1703488342.459653,1703488342.460188,118.000000,0.000000,4260.897461,4228.589844,4275.641113,4261.538574,4253.589844,4248.974121,4262.692383,4239.230957,4227.948730,4211.410156,4464.743652,4442.179688,4333.846191,4407.436035,5846.000000,4.000000,98.000000,,,,0.000000,4.000000,4.000000,4.000000,4.000000,4.000000,4.000000,4.000000,4.000000,4.000000,4.000000,4.000000,4.000000,4.000000,4.000000,100.000000,,,,,,,,,,,,,,,,,,,,,,,,,,,,
1703488342.467461,1703488342.467996,119.000000,0.000000,4260.256348,4230.000000,4276.922852,4263.589844,4245.512695,4241.666504,4257.948730,4242.179688,4225.384766,4196.153809,4466.794922,4441.666504,4336.666504,4409.230957,6249.000000,4.000000,98.000000,,,,0.000000,4.000000,4.000000,4.000000,4.000000,4.000000,4.000000,4.000000,4.000000,4.000000,4.000000,4.000000,4.000000,4.000000,4.000000,100.000000,,,,,,,,,,,,,,,,,,,,,,,,,,,,
1703488342.475269,1703488342.475704,120.000000,0.000000,4262.820313,4231.153809,4285.512695,4266.794922,4236.410156,4233.461426,4258.205078,4247.307617,4227.307617,4195.769043,4471.538574,4453.589844,4343.974121,4417.307617,6725.000000,4.000000,98.000000,,,,0.000000,4.000000,4.000000,4.000000,4.000000,4.000000,4.000000,4.000000,4.000000,4.000000,4.000000,4.000000,4.000000,4.000000,4.000000,100.000000,,,,,,,,,,,,,,,,,30.000000,0.000000,0.688684,-0.121826,-0.691528,0.180725,0.902942,-0.416066,0.025882,-6.996765,-48.026283,61.971397
1703488342.483077,1703488342.483512,121.000000,0.000000,4271.538574,4232.436035,4301.538574,4276.153809,4236.666504,4231.538574,4262.563965,4253.461426,4233.333496,4210.641113,4480.128418,4476.538574,4351.410156,4430.256348,6918.000000,4.000000,98.000000,,,,0.000000,4.000000,4.000000,4.000000,4.000000,4.000000,4.000000,4.000000,4.000000,4.000000,4.000000,4.000000,4.000000,4.000000,4.000000,100.000000,,,,,,,,,,,,,,,,,,,,,,,,,,,,
1703488342.490885,1703488342.491220,122.000000,0.000000,4283.846191,4235.641113,4316.282227,4284.230957,4242.563965,4234.615234,4265.000000,4262.179688,4242.307617,4228.717773,4497.179688,4496.410156,4361.538574,4447.692383,5846.000000,4.000000,98.000000,,,,0.000000,4.000000,4.000000,4.000000,4.000000,4.000000,4.000000,4.000000,4.000000,4.000000,4.000000,4.000000,4.000000,4.000000,4.000000,100.000000,,,,,,,,,,,,,,,,,,,,,,,,,,,,
1703488342.498694,1703488342.499028,123.000000,0.000000,4280.256348,4234.487305,4313.461426,4279.487305,4237.948730,4235.128418,4260.384766,4256.282227,4237.179688,4220.000000,4498.589844,4491.410156,4361.794922,4450.128418,6249.000000,4.000000,98.000000,,,,0.000000,4.000000,4.000000,4.000000,4.000000,4.000000,4.000000,4.000000,4.000000,4.000000,4.000000,4.000000,4.000000,4.000000,4.000000,100.000000,,,,,,,,,,,,,,,,,,,,,,,,,,,,
1703488342.506502,1703488342.506736,124.000000,0.000000,4267.436035,4226.794922,4298.461426,4268.461426,4215.256348,4231.794922,4251.794922,4236.666504,4217.563965,4196.153809,4479.102539,4466.922852,4350.769043,4435.512695,6725.000000,4.000000,98.000000,,,,0.000000,4.000000,4.000000,4.000000,4.000000,4.000000,4.000000,4.000000,4.000000,4.000000,4.000000,4.000000,4.000000,4.000000,4.000000,100.000000,,,,,,,,,,,,,,,,,31.000000,0.000000,0.688478,-0.121948,-0.691711,0.180725,0.893664,-0.409230,0.014162,-6.880422,-47.840321,61.957592
1703488342.514310,1703488342.514644,125.000000,0.000000,4273.333496,4229.743652,4294.871582,4271.794922,4223.205078,4238.205078,4252.948730,4230.897461,4211.410156,4202.307617,4482.948730,4460.384766,4356.282227,4435.512695,6918.000000,4.000000,98.000000,,,,0.000000,4.000000,4.000000,4.000000,4.000000,4.000000,4.000000,4.000000,4.000000,4.000000,4.000000,4.000000,4.000000,4.000000,4.000000,100.000000,,,,,,,,,,,,,,,,,,,,,,,,,,,,
1703488342.522118,1703488342.522452,126.000000,0.000000,4287.307617,4243.974121,4302.563965,4285.000000,4257.948730,4248.333496,4264.487305,4235.512695,4225.256348,4221.666504,4505.384766,4471.538574,4373.846191,4450.769043,5846.000000,4.000000,98.000000,,,,0.000000,4.000000,4.000000,4.000000,4.000000,4.000000,4.000000,4.000000,4.000000,4.000000,4.000000,4.000000,4.000000,4.000000,4.000000,100.000000,,,,,,,,,,,,,,,,,,,,,,,,,,,,
1703488342.529926,1703488342.530360,127.000000,0.000000,4280.641113,4245.128418,4297.820313,4285.897461,4258.077148,4247.563965,4266.922852,4230.512695,4228.461426,4221.538574,4502.563965,4463.461426,4373.589844,4450.000000,98.000000,4.000000,98.000000,,,,0.000000,4.000000,4.000000,4.000000,4.000000,4.000000,4.000000,4.000000,4.000000,4.000000,4.000000,4.000000,4.000000,4.000000,4.000000,100.000000,,,,,,,,,,,,,,,,,,,,,,,,,,,,
1703488342.537734,1703488342.538168,0.000000,0.000000,4263.589844,4234.102539,4280.384766,4279.615234,4245.128418,4245.384766,4261.538574,4226.794922,4219.358887,4211.538574,4486.538574,4445.769043,4361.282227,4435.384766,5434.000000,4.000000,98.000000,,,,0.000000,4.000000,4.000000,4.000000,4.000000,4.000000,4.000000,4.000000,4.000000,4.000000,4.000000,4.000000,4.000000,4.000000,4.000000,100.000000,,,,,,,,,,,,,,,,,0.000000,0.000000,0.688428,-0.121887,-0.691772,0.180725,0.905384,-0.422415,0.021487,-6.892380,-47.789623,62.045166
1703488342.545542,1703488342.545976,1.000000,0.000000,4253.205078,4232.051270,4265.512695,4275.897461,4258.589844,4253.589844,4264.871582,4232.563965,4219.230957,4204.358887,4476.410156,4438.077148,4350.641113,4426.922852,5521.000000,4.000000,98.000000,,,,0.000000,4.000000,4.000000,4.000000,4.000000,4.000000,4.000000,4.000000,4.000000,4.000000,4.000000,4.000000,4.000000,4.000000,4.000000,100.000000,,,,,,,,,,,,,,,,,,,,,,,,,,,,
1703488342.553350,1703488342.553684,2.000000,0.000000,4241.282227,4230.769043,4253.846191,4268.717773,4265.384766,4257.179688,4268.077148,4234.743652,4224.230957,4202.692383,4465.000000,4429.102539,4339.487305,4418.205078,5342.000000,4.000000,98.000000,,,,0.000000,4.000000,4.000000,4.000000,4.000000,4.000000,4.000000,4.000000,4.000000,4.000000,4.000000,4.000000,4.000000,4.000000,4.000000,100.000000,,,,,,,,,,,,,,,,,,,,,,,,,,,,
1703488342.561158,1703488342.561492,3.000000,0.000000,4228.589844,4216.794922,4243.461426,4259.102539,4247.563965,4246.025879,4259.102539,4231.282227,4219.102539,4201.025879,4451.666504,4417.436035,4326.538574,4404.743652,5442.000000,4.000000,98.000000,,,,0.000000,4.000000,4.000000,4.000000,4.000000,4.000000,4.000000,4.000000,4.000000,4.000000,4.000000,4.000000,4.000000,4.000000,4.000000,100.000000,,,,,,,,,,,,,,,,,,,,,,,,,,,,
1703488342.568966,1703488342.569200,4.000000,0.000000,4233.974121,4213.717773,4246.410156,4261.153809,4242.179688,4242.948730,4254.230957,4237.436035,4213.333496,4191.282227,4448.205078,4419.358887,4320.256348,4403.461426,5160.000000,4.000000,98.000000,,,,0.000000,4.000000,4.000000,4.000000,4.000000,4.000000,4.000000,4.000000,4.000000,4.000000,4.000000,4.000000,4.000000,4.000000,4.000000,100.000000,,,,,,,,,,,,,,,,,1.000000,0.000000,0.688279,-0.121582,-0.691895,0.181030,0.895617,-0.418020,0.016604,-7.003142,-47.810661,61.973984
1703488342.576774,1703488342.577108,5.000000,0.000000,4253.589844,4228.974121,4268.461426,4273.461426,4252.436035,4248.077148,4261.794922,4250.512695,4227.436035,4200.256348,4463.461426,4440.897461,4331.794922,4419.743652,5003.000000,4.000000,98.000000,,,,0.000000,4.000000,4.000000,4.000000,4.000000,4.000000,4.000000,4.000000,4.000000,4.000000,4.000000,4.000000,4.000000,4.000000,4.000000,100.000000,,,,,,,,,,,,,,,,,,,,,,,,,,,,
1703488342.584582,1703488342.584916,6.000000,0.000000,4266.282227,4237.820313,4290.897461,4280.256348,4251.922852,4241.025879,4260.512695,4256.282227,4247.692383,4227.820313,4486.538574,4464.358887,4351.794922,4438.077148,2381.000000,4.000000,98.000000,,,,0.000000,4.000000,4.000000,4.000000,4.000000,4.000000,4.000000,4.000000,4.000000,4.000000,4.000000,4.000000,4.000000,4.000000,4.000000,100.000000,,,,,,,,,,,,,,,,,,,,,,,,,,,,
