title:منى انذار, start timestamp:1703411420.109155, stop timestamp:1703411430.946726, headset type:EPOCX, headset serial:E50206EF, headset firmware:720, channels:67, sampling rate:eeg_128;mot_32, samples:1389      , version:2.2, 
Timestamp,OriginalTimestamp,EEG.Counter,EEG.Interpolated,EEG.AF3,EEG.F7,EEG.F3,EEG.FC5,EEG.T7,EEG.P7,EEG.O1,EEG.O2,EEG.P8,EEG.T8,EEG.FC6,EEG.F4,EEG.F8,EEG.AF4,EEG.RawCq,EEG.Battery,EEG.BatteryPercent,MarkerIndex,MarkerType,MarkerValueInt,EEG.MarkerHardware,CQ.AF3,CQ.F7,CQ.F3,CQ.FC5,CQ.T7,CQ.P7,CQ.O1,CQ.O2,CQ.P8,CQ.T8,CQ.FC6,CQ.F4,CQ.F8,CQ.AF4,CQ.Overall,EQ.SampleRateQuality,EQ.OVERALL,EQ.AF3,EQ.F7,EQ.F3,EQ.FC5,EQ.T7,EQ.P7,EQ.O1,EQ.O2,EQ.P8,EQ.T8,EQ.FC6,EQ.F4,EQ.F8,EQ.AF4,MOT.CounterMems,MOT.InterpolatedMems,MOT.Q0,MOT.Q1,MOT.Q2,MOT.Q3,MOT.AccX,MOT.AccY,MOT.AccZ,MOT.MagX,MOT.MagY,MOT.MagZ
1703411420.109155,1703411420.109293,46.000000,0.000000,4259.358887,4232.948730,4316.794922,4284.615234,4207.051270,4186.025879,4231.025879,4187.948730,4185.128418,4185.256348,4609.358887,4471.666504,4406.410156,4540.512695,0.000000,3.000000,64.000000,,,,0.000000,4.000000,4.000000,4.000000,4.000000,4.000000,4.000000,4.000000,4.000000,4.000000,4.000000,4.000000,4.000000,4.000000,4.000000,100.000000,,,,,,,,,,,,,,,,,,,,,,,,,,,,
1703411420.116963,1703411420.117001,47.000000,0.000000,4251.410156,4229.358887,4309.102539,4284.743652,4206.282227,4182.692383,4226.025879,4189.230957,4190.641113,4184.230957,4615.000000,4464.615234,4415.256348,4543.205078,0.000000,3.000000,64.000000,,,,0.000000,4.000000,4.000000,4.000000,4.000000,4.000000,4.000000,4.000000,4.000000,4.000000,4.000000,4.000000,4.000000,4.000000,4.000000,100.000000,,,,,,,,,,,,,,,,,,,,,,,,,,,,
1703411420.124771,1703411420.124909,48.000000,0.000000,4245.384766,4230.897461,4305.000000,4278.589844,4203.077148,4182.179688,4225.769043,4195.256348,4197.820313,4191.153809,4611.538574,4465.256348,4412.179688,4542.436035,0.000000,3.000000,64.000000,,,,0.000000,4.000000,4.000000,4.000000,4.000000,4.000000,4.000000,4.000000,4.000000,4.000000,4.000000,4.000000,4.000000,4.000000,4.000000,100.000000,,,,,,,,,,,,,,,,,12.000000,0.000000,0.677597,0.172546,-0.658813,0.277588,0.984007,-0.116225,0.063484,-13.840091,-42.769405,66.051163
1703411420.132579,1703411420.132717,49.000000,0.000000,4258.077148,4238.717773,4316.025879,4284.871582,4205.000000,4183.846191,4231.153809,4209.615234,4203.974121,4215.897461,4613.589844,4481.282227,4416.794922,4550.769043,0.000000,3.000000,64.000000,,,,0.000000,4.000000,4.000000,4.000000,4.000000,4.000000,4.000000,4.000000,4.000000,4.000000,4.000000,4.000000,4.000000,4.000000,4.000000,100.000000,,,,,,,,,,,,,,,,,,,,,,,,,,,,
1703411420.140387,1703411420.140625,50.000000,0.000000,4273.589844,4250.897461,4331.666504,4300.641113,4215.897461,4185.384766,4230.512695,4216.153809,4206.922852,4231.025879,4629.871582,4495.641113,4434.230957,4565.641113,0.000000,3.000000,64.000000,,,,0.000000,4.000000,4.000000,4.000000,4.000000,4.000000,4.000000,4.000000,4.000000,4.000000,4.000000,4.000000,4.000000,4.000000,4.000000,100.000000,,,,,,,,,,,,,,,,,,,,,,,,,,,,
1703411420.148195,1703411420.148433,51.000000,0.000000,4275.384766,4257.179688,4336.538574,4299.487305,4219.102539,4187.563965,4226.794922,4201.282227,4192.436035,4212.563965,4638.333496,4495.641113,4438.846191,4571.282227,0.000000,3.000000,64.000000,,,,0.000000,4.000000,4.000000,4.000000,4.000000,4.000000,4.000000,4.000000,4.000000,4.000000,4.000000,4.000000,4.000000,4.000000,4.000000,100.000000,,,,,,,,,,,,,,,,,,,,,,,,,,,,
1703411420.156003,1703411420.156341,52.000000,0.000000,4265.512695,4247.436035,4324.358887,4293.589844,4207.051270,4186.153809,4220.641113,4172.820313,4160.769043,4183.461426,4622.051270,4484.487305,4422.179688,4561.282227,0.000000,3.000000,64.000000,,,,0.000000,4.000000,4.000000,4.000000,4.000000,4.000000,4.000000,4.000000,4.000000,4.000000,4.000000,4.000000,4.000000,4.000000,4.000000,100.000000,,,,,,,,,,,,,,,,,13.000000,0.000000,0.677616,0.172668,-0.658813,0.277466,0.979612,-0.112318,0.079600,-13.906082,-42.775799,65.996048
1703411420.163811,1703411420.164149,53.000000,0.000000,4250.769043,4233.077148,4308.589844,4295.641113,4195.000000,4187.307617,4219.358887,4153.205078,4148.333496,4167.051270,4593.974121,4465.000000,4402.820313,4535.769043,0.000000,3.000000,64.000000,,,,0.000000,4.000000,4.000000,4.000000,4.000000,4.000000,4.000000,4.000000,4.000000,4.000000,4.000000,4.000000,4.000000,4.000000,4.000000,100.000000,,,,,,,,,,,,,,,,,,,,,,,,,,,,
1703411420.171619,1703411420.172056,54.000000,0.000000,4242.051270,4228.461426,4305.384766,4286.538574,4195.128418,4189.743652,4227.563965,4163.589844,4169.358887,4171.025879,4584.487305,4454.871582,4396.538574,4521.538574,0.000000,3.000000,64.000000,,,,0.000000,4.000000,4.000000,4.000000,4.000000,4.000000,4.000000,4.000000,4.000000,4.000000,4.000000,4.000000,4.000000,4.000000,4.000000,100.000000,,,,,,,,,,,,,,,,,,,,,,,,,,,,
1703411420.179427,1703411420.179864,55.000000,0.000000,4242.692383,4232.179688,4309.102539,4275.128418,4203.205078,4186.666504,4231.666504,4190.000000,4188.077148,4173.717773,4595.897461,4466.538574,4397.692383,4536.282227,0.000000,3.000000,64.000000,,,,0.000000,4.000000,4.000000,4.000000,4.000000,4.000000,4.000000,4.000000,4.000000,4.000000,4.000000,4.000000,4.000000,4.000000,4.000000,100.000000,,,,,,,,,,,,,,,,,,,,,,,,,,,,
1703411420.187235,1703411420.187772,56.000000,0.000000,4245.897461,4232.179688,4310.256348,4281.025879,4210.128418,4186.282227,4231.538574,4205.000000,4193.974121,4166.153809,4604.102539,4474.358887,4398.974121,4544.102539,0.000000,3.000000,64.000000,,,,0.000000,4.000000,4.000000,4.000000,4.000000,4.000000,4.000000,4.000000,4.000000,4.000000,4.000000,4.000000,4.000000,4.000000,4.000000,100.000000,,,,,,,,,,,,,,,,,14.000000,0.000000,0.677554,0.172913,-0.658813,0.277466,0.987425,-0.114272,0.075693,-13.932140,-42.748219,65.946442
1703411420.195043,1703411420.195580,57.000000,0.000000,4252.820313,4229.230957,4317.179688,4291.922852,4213.589844,4186.410156,4232.948730,4207.051270,4200.512695,4178.077148,4607.948730,4474.871582,4406.025879,4537.051270,0.000000,3.000000,64.000000,,,,0.000000,4.000000,4.000000,4.000000,4.000000,4.000000,4.000000,4.000000,4.000000,4.000000,4.000000,4.000000,4.000000,4.000000,4.000000,100.000000,,,,,,,,,,,,,,,,,,,,,,,,,,,,
1703411420.202851,1703411420.203488,58.000000,0.000000,4263.589844,4237.051270,4328.333496,4294.871582,4214.102539,4183.333496,4229.487305,4206.410156,4206.922852,4204.230957,4619.615234,4487.307617,4421.538574,4543.846191,0.000000,3.000000,64.000000,,,,0.000000,4.000000,4.000000,4.000000,4.000000,4.000000,4.000000,4.000000,4.000000,4.000000,4.000000,4.000000,4.000000,4.000000,4.000000,100.000000,,,,,,,,,,,,,,,,,,,,,,,,,,,,
1703411420.210659,1703411420.211296,59.000000,0.000000,4273.717773,4252.436035,4332.820313,4301.282227,4215.512695,4181.922852,4220.769043,4200.897461,4203.077148,4208.333496,4628.461426,4497.563965,4430.000000,4560.641113,0.000000,3.000000,64.000000,,,,0.000000,4.000000,4.000000,4.000000,4.000000,4.000000,4.000000,4.000000,4.000000,4.000000,4.000000,4.000000,4.000000,4.000000,4.000000,100.000000,,,,,,,,,,,,,,,,,,,,,,,,,,,,
1703411420.218467,1703411420.219004,60.000000,0.000000,4279.102539,4250.384766,4331.538574,4307.436035,4220.897461,4184.871582,4217.563965,4187.179688,4186.025879,4191.794922,4618.717773,4487.820313,4421.282227,4560.000000,0.000000,3.000000,64.000000,,,,0.000000,4.000000,4.000000,4.000000,4.000000,4.000000,4.000000,4.000000,4.000000,4.000000,4.000000,4.000000,4.000000,4.000000,4.000000,100.000000,,,,,,,,,,,,,,,,,15.000000,0.000000,0.677569,0.173157,-0.658630,0.277710,0.970822,-0.123550,0.063484,-14.105593,-42.623398,65.968468
1703411420.226275,1703411420.226812,61.000000,0.000000,4267.051270,4232.051270,4324.871582,4294.871582,4213.974121,4186.025879,4221.410156,4171.666504,4170.128418,4185.256348,4599.615234,4472.563965,4406.153809,4542.051270,0.000000,3.000000,64.000000,,,,0.000000,4.000000,4.000000,4.000000,4.000000,4.000000,4.000000,4.000000,4.000000,4.000000,4.000000,4.000000,4.000000,4.000000,4.000000,100.000000,,,,,,,,,,,,,,,,,,,,,,,,,,,,
1703411420.234084,1703411420.234520,62.000000,0.000000,4256.153809,4232.179688,4322.179688,4287.307617,4200.128418,4180.128418,4226.922852,4166.282227,4168.717773,4184.230957,4596.538574,4472.436035,4406.410156,4532.820313,0.000000,3.000000,64.000000,,,,0.000000,4.000000,4.000000,4.000000,4.000000,4.000000,4.000000,4.000000,4.000000,4.000000,4.000000,4.000000,4.000000,4.000000,4.000000,100.000000,,,,,,,,,,,,,,,,,,,,,,,,,,,,
1703411420.241892,1703411420.242428,63.000000,0.000000,4269.871582,4247.692383,4332.051270,4298.333496,4198.461426,4175.897461,4230.128418,4179.102539,4175.641113,4182.436035,4612.948730,4485.000000,4420.512695,4547.179688,0.000000,3.000000,64.000000,,,,0.000000,4.000000,4.000000,4.000000,4.000000,4.000000,4.000000,4.000000,4.000000,4.000000,4.000000,4.000000,4.000000,4.000000,4.000000,100.000000,,,,,,,,,,,,,,,,,,,,,,,,,,,,
1703411420.249699,1703411420.250237,64.000000,0.000000,4278.589844,4244.743652,4339.358887,4301.666504,4201.922852,4179.230957,4231.666504,4196.922852,4179.615234,4184.487305,4621.538574,4495.897461,4420.256348,4555.384766,5063.000000,3.000000,64.000000,,,,0.000000,4.000000,4.000000,4.000000,4.000000,4.000000,4.000000,4.000000,4.000000,4.000000,4.000000,4.000000,4.000000,4.000000,4.000000,100.000000,,,,,,,,,,,,,,,,,16.000000,0.000000,0.677560,0.173462,-0.658508,0.277832,0.975217,-0.119155,0.074228,-14.145034,-42.561058,66.054955
1703411420.257508,1703411420.258145,65.000000,0.000000,4264.615234,4233.717773,4329.615234,4292.692383,4200.128418,4185.641113,4232.179688,4207.179688,4194.615234,4194.358887,4617.179688,4493.717773,4412.563965,4543.077148,5452.000000,3.000000,64.000000,,,,0.000000,4.000000,4.000000,4.000000,4.000000,4.000000,4.000000,4.000000,4.000000,4.000000,4.000000,4.000000,4.000000,4.000000,4.000000,100.000000,,,,,,,,,,,,,,,,,,,,,,,,,,,,
1703411420.265316,1703411420.265953,66.000000,0.000000,4246.922852,4228.333496,4309.102539,4283.717773,4199.615234,4193.077148,4233.333496,4209.230957,4203.461426,4186.282227,4605.128418,4476.794922,4403.333496,4531.025879,5344.000000,3.000000,64.000000,,,,0.000000,4.000000,4.000000,4.000000,4.000000,4.000000,4.000000,4.000000,4.000000,4.000000,4.000000,4.000000,4.000000,4.000000,4.000000,100.000000,,,,,,,,,,,,,,,,,,,,,,,,,,,,
1703411420.273124,1703411420.273861,67.000000,0.000000,4233.974121,4217.307617,4293.717773,4269.358887,4209.487305,4197.307617,4232.179688,4197.563965,4187.179688,4145.641113,4584.230957,4459.102539,4379.615234,4520.000000,5342.000000,3.000000,64.000000,,,,0.000000,4.000000,4.000000,4.000000,4.000000,4.000000,4.000000,4.000000,4.000000,4.000000,4.000000,4.000000,4.000000,4.000000,4.000000,100.000000,,,,,,,,,,,,,,,,,,,,,,,,,,,,
1703411420.280932,1703411420.281669,68.000000,0.000000,4231.410156,4207.563965,4291.153809,4260.000000,4216.153809,4198.974121,4231.666504,4183.461426,4174.102539,4134.871582,4575.769043,4457.051270,4368.205078,4510.384766,5110.000000,3.000000,64.000000,,,,0.000000,4.000000,4.000000,4.000000,4.000000,4.000000,4.000000,4.000000,4.000000,4.000000,4.000000,4.000000,4.000000,4.000000,4.000000,100.000000,,,,,,,,,,,,,,,,,17.000000,0.000000,0.677485,0.173523,-0.658569,0.277832,0.989379,-0.132340,0.071298,-14.130530,-42.704952,65.949455
1703411420.288740,1703411420.289477,69.000000,0.000000,4246.153809,4217.307617,4301.922852,4272.436035,4209.615234,4197.820313,4231.025879,4181.153809,4180.641113,4173.846191,4587.436035,4466.538574,4386.282227,4518.846191,4126.000000,3.000000,64.000000,,,,0.000000,4.000000,4.000000,4.000000,4.000000,4.000000,4.000000,4.000000,4.000000,4.000000,4.000000,4.000000,4.000000,4.000000,4.000000,100.000000,,,,,,,,,,,,,,,,,,,,,,,,,,,,
1703411420.296548,1703411420.297185,70.000000,0.000000,4262.436035,4232.051270,4319.230957,4288.077148,4206.666504,4185.769043,4222.563965,4179.743652,4189.487305,4202.051270,4596.410156,4473.205078,4400.128418,4534.871582,2828.000000,3.000000,64.000000,,,,0.000000,4.000000,4.000000,4.000000,4.000000,4.000000,4.000000,4.000000,4.000000,4.000000,4.000000,4.000000,4.000000,4.000000,4.000000,100.000000,,,,,,,,,,,,,,,,,,,,,,,,,,,,
1703411420.304356,1703411420.305094,71.000000,0.000000,4265.512695,4235.000000,4328.589844,4291.282227,4211.794922,4169.358887,4214.358887,4177.948730,4187.692383,4196.666504,4599.615234,4479.871582,4402.563965,4537.820313,4999.000000,3.000000,64.000000,,,,0.000000,4.000000,4.000000,4.000000,4.000000,4.000000,4.000000,4.000000,4.000000,4.000000,4.000000,4.000000,4.000000,4.000000,4.000000,100.000000,,,,,,,,,,,,,,,,,,,,,,,,,,,,
1703411420.312164,1703411420.312902,72.000000,0.000000,4267.692383,4238.846191,4328.077148,4301.666504,4206.538574,4167.307617,4215.128418,4188.717773,4185.256348,4193.589844,4614.230957,4491.282227,4418.461426,4542.563965,4298.000000,3.000000,64.000000,,,,0.000000,4.000000,4.000000,4.000000,4.000000,4.000000,4.000000,4.000000,4.000000,4.000000,4.000000,4.000000,4.000000,4.000000,4.000000,100.000000,,,,,,,,,,,,,,,,,18.000000,0.000000,0.677363,0.173767,-0.658630,0.277832,1.004029,-0.127945,0.067391,-14.284143,-42.667789,65.971176
1703411420.319972,1703411420.320710,73.000000,0.000000,4277.179688,4251.538574,4332.051270,4314.615234,4195.128418,4168.461426,4217.563965,4206.538574,4189.615234,4200.769043,4631.922852,4503.717773,4435.769043,4554.358887,5247.000000,3.000000,64.000000,,,,0.000000,4.000000,4.000000,4.000000,4.000000,4.000000,4.000000,4.000000,4.000000,4.000000,4.000000,4.000000,4.000000,4.000000,4.000000,100.000000,,,,,,,,,,,,,,,,,,,,,,,,,,,,
1703411420.327780,1703411420.328418,74.000000,0.000000,4281.025879,4253.461426,4335.256348,4303.205078,4199.615234,4167.051270,4222.436035,4217.820313,4202.307617,4211.025879,4637.307617,4510.000000,4434.871582,4560.128418,5966.000000,3.000000,64.000000,,,,0.000000,4.000000,4.000000,4.000000,4.000000,4.000000,4.000000,4.000000,4.000000,4.000000,4.000000,4.000000,4.000000,4.000000,4.000000,100.000000,1.000000,75.000000,4.000000,4.000000,4.000000,4.000000,4.000000,4.000000,4.000000,4.000000,4.000000,1.000000,4.000000,4.000000,4.000000,4.000000,,,,,,,,,,,,
1703411420.335588,1703411420.336326,75.000000,0.000000,4271.410156,4233.974121,4324.487305,4279.230957,4201.025879,4176.282227,4230.512695,4215.641113,4204.487305,4203.205078,4627.563965,4502.179688,4421.025879,4554.743652,6133.000000,3.000000,64.000000,,,,0.000000,4.000000,4.000000,4.000000,4.000000,4.000000,4.000000,4.000000,4.000000,4.000000,4.000000,4.000000,4.000000,4.000000,4.000000,100.000000,,,,,,,,,,,,,,,,,,,,,,,,,,,,
1703411420.343396,1703411420.344134,76.000000,0.000000,4257.820313,4215.256348,4310.512695,4272.307617,4187.948730,4185.256348,4230.897461,4204.230957,4182.948730,4162.051270,4601.410156,4488.846191,4403.077148,4540.256348,6623.000000,3.000000,64.000000,,,,0.000000,4.000000,4.000000,4.000000,4.000000,4.000000,4.000000,4.000000,4.000000,4.000000,4.000000,4.000000,4.000000,4.000000,4.000000,100.000000,,,,,,,,,,,,,,,,,19.000000,0.000000,0.677162,0.174255,-0.658630,0.278015,0.976193,-0.107435,0.058601,-14.339063,-42.634342,65.907394
1703411420.351204,1703411420.351942,77.000000,0.000000,4255.256348,4213.717773,4308.589844,4273.205078,4179.487305,4185.512695,4230.897461,4193.589844,4168.846191,4140.897461,4582.179688,4483.333496,4390.769043,4533.846191,6977.000000,3.000000,64.000000,,,,0.000000,4.000000,4.000000,4.000000,4.000000,4.000000,4.000000,4.000000,4.000000,4.000000,4.000000,4.000000,4.000000,4.000000,4.000000,100.000000,,,,,,,,,,,,,,,,,,,,,,,,,,,,
1703411420.359012,1703411420.359650,78.000000,0.000000,4270.128418,4216.025879,4317.948730,4270.641113,4182.692383,4185.256348,4233.717773,4188.846191,4180.641113,4170.256348,4590.641113,4489.871582,4395.897461,4548.333496,5966.000000,3.000000,64.000000,,,,0.000000,4.000000,4.000000,4.000000,4.000000,4.000000,4.000000,4.000000,4.000000,4.000000,4.000000,4.000000,4.000000,4.000000,4.000000,100.000000,,,,,,,,,,,,,,,,,,,,,,,,,,,,
1703411420.366820,1703411420.367558,79.000000,0.000000,4290.512695,4219.487305,4326.153809,4279.871582,4193.589844,4185.512695,4223.974121,4187.179688,4194.358887,4190.512695,4604.358887,4497.820313,4403.461426,4565.769043,6133.000000,3.000000,64.000000,,,,0.000000,4.000000,4.000000,4.000000,4.000000,4.000000,4.000000,4.000000,4.000000,4.000000,4.000000,4.000000,4.000000,4.000000,4.000000,100.000000,,,,,,,,,,,,,,,,,,,,,,,,,,,,
1703411420.374628,1703411420.375366,80.000000,0.000000,4295.769043,4227.563965,4326.538574,4292.820313,4204.358887,4185.000000,4217.179688,4183.205078,4186.538574,4173.717773,4598.846191,4495.641113,4399.230957,4562.948730,6623.000000,3.000000,64.000000,,,,0.000000,4.000000,4.000000,4.000000,4.000000,4.000000,4.000000,4.000000,4.000000,4.000000,4.000000,4.000000,4.000000,4.000000,4.000000,100.000000,,,,,,,,,,,,,,,,,20.000000,0.000000,0.677035,0.175110,-0.658508,0.278076,0.988402,-0.131364,0.061531,-14.255157,-42.720909,66.049988
1703411420.382436,1703411420.383274,81.000000,0.000000,4296.282227,4236.025879,4325.512695,4294.871582,4207.436035,4187.563965,4226.282227,4183.589844,4176.410156,4178.974121,4596.794922,4495.769043,4401.922852,4567.179688,6977.000000,3.000000,64.000000,,,,0.000000,4.000000,4.000000,4.000000,4.000000,4.000000,4.000000,4.000000,4.000000,4.000000,4.000000,4.000000,4.000000,4.000000,4.000000,100.000000,,,,,,,,,,,,,,,,,,,,,,,,,,,,
1703411420.390244,1703411420.391082,82.000000,0.000000,4308.333496,4244.102539,4329.358887,4295.512695,4207.051270,4181.666504,4226.410156,4196.025879,4181.153809,4205.000000,4613.077148,4509.358887,4415.897461,4583.077148,5966.000000,3.000000,64.000000,,,,0.000000,4.000000,4.000000,4.000000,4.000000,4.000000,4.000000,4.000000,4.000000,4.000000,4.000000,4.000000,4.000000,4.000000,4.000000,100.000000,,,,,,,,,,,,,,,,,,,,,,,,,,,,
1703411420.398052,1703411420.398989,83.000000,0.000000,4314.102539,4245.641113,4330.384766,4295.769043,4201.538574,4169.871582,4218.205078,4205.769043,4188.589844,4191.410156,4619.743652,4513.333496,4417.307617,4580.512695,6133.000000,3.000000,64.000000,,,,0.000000,4.000000,4.000000,4.000000,4.000000,4.000000,4.000000,4.000000,4.000000,4.000000,4.000000,4.000000,4.000000,4.000000,4.000000,100.000000,,,,,,,,,,,,,,,,,,,,,,,,,,,,
1703411420.405861,1703411420.406797,84.000000,0.000000,4308.461426,4238.717773,4324.615234,4291.025879,4191.794922,4168.333496,4220.512695,4201.666504,4190.512695,4172.051270,4613.717773,4503.717773,4411.025879,4574.743652,6623.000000,3.000000,64.000000,,,,0.000000,4.000000,4.000000,4.000000,4.000000,4.000000,4.000000,4.000000,4.000000,4.000000,4.000000,4.000000,4.000000,4.000000,4.000000,100.000000,,,,,,,,,,,,,,,,,21.000000,0.000000,0.677034,0.175415,-0.658325,0.278320,0.986937,-0.139177,0.072763,-14.129641,-42.765484,65.944992
1703411420.413669,1703411420.414506,85.000000,0.000000,4306.282227,4229.871582,4316.538574,4285.641113,4188.461426,4173.974121,4224.487305,4202.051270,4187.179688,4190.769043,4613.333496,4507.820313,4413.589844,4585.000000,6977.000000,3.000000,64.000000,,,,0.000000,4.000000,4.000000,4.000000,4.000000,4.000000,4.000000,4.000000,4.000000,4.000000,4.000000,4.000000,4.000000,4.000000,4.000000,100.000000,,,,,,,,,,,,,,,,,,,,,,,,,,,,
1703411420.421476,1703411420.422314,86.000000,0.000000,4302.563965,4216.025879,4315.384766,4278.717773,4183.589844,4172.051270,4220.128418,4202.436035,4187.692383,4209.102539,4615.897461,4512.179688,4416.025879,4592.051270,5966.000000,3.000000,64.000000,,,,0.000000,4.000000,4.000000,4.000000,4.000000,4.000000,4.000000,4.000000,4.000000,4.000000,4.000000,4.000000,4.000000,4.000000,4.000000,100.000000,,,,,,,,,,,,,,,,,,,,,,,,,,,,
1703411420.429285,1703411420.430022,87.000000,0.000000,4296.538574,4205.641113,4322.692383,4273.589844,4175.128418,4167.179688,4218.077148,4189.487305,4191.794922,4199.102539,4614.102539,4508.717773,4416.666504,4583.333496,6133.000000,3.000000,64.000000,,,,0.000000,4.000000,4.000000,4.000000,4.000000,4.000000,4.000000,4.000000,4.000000,4.000000,4.000000,4.000000,4.000000,4.000000,4.000000,100.000000,,,,,,,,,,,,,,,,,,,,,,,,,,,,
1703411420.437093,1703411420.437830,88.000000,0.000000,4294.230957,4215.512695,4325.897461,4279.102539,4177.436035,4174.102539,4219.230957,4189.230957,4188.717773,4187.948730,4610.384766,4516.153809,4417.948730,4572.051270,6623.000000,3.000000,64.000000,,,,0.000000,4.000000,4.000000,4.000000,4.000000,4.000000,4.000000,4.000000,4.000000,4.000000,4.000000,4.000000,4.000000,4.000000,4.000000,100.000000,,,,,,,,,,,,,,,,,22.000000,0.000000,0.677024,0.175720,-0.658203,0.278442,0.973263,-0.128922,0.081553,-14.416677,-42.922268,65.933823
1703411420.444901,1703411420.445538,89.000000,0.000000,4291.282227,4221.794922,4320.769043,4280.000000,4186.153809,4186.410156,4218.205078,4202.820313,4182.179688,4182.179688,4606.153809,4517.051270,4412.820313,4569.743652,6977.000000,3.000000,64.000000,,,,0.000000,4.000000,4.000000,4.000000,4.000000,4.000000,4.000000,4.000000,4.000000,4.000000,4.000000,4.000000,4.000000,4.000000,4.000000,100.000000,,,,,,,,,,,,,,,,,,,,,,,,,,,,
1703411420.452709,1703411420.453346,90.000000,0.000000,4281.025879,4206.794922,4310.384766,4268.461426,4189.102539,4188.077148,4219.615234,4206.153809,4185.000000,4179.615234,4602.692383,4502.307617,4412.179688,4574.615234,5966.000000,3.000000,64.000000,,,,0.000000,4.000000,4.000000,4.000000,4.000000,4.000000,4.000000,4.000000,4.000000,4.000000,4.000000,4.000000,4.000000,4.000000,4.000000,100.000000,,,,,,,,,,,,,,,,,,,,,,,,,,,,
1703411420.460517,1703411420.461054,91.000000,0.000000,4262.307617,4194.871582,4301.922852,4260.128418,4188.205078,4184.871582,4221.794922,4203.846191,4192.179688,4184.230957,4602.307617,4489.487305,4412.692383,4563.974121,6133.000000,3.000000,64.000000,,,,0.000000,4.000000,4.000000,4.000000,4.000000,4.000000,4.000000,4.000000,4.000000,4.000000,4.000000,4.000000,4.000000,4.000000,4.000000,100.000000,,,,,,,,,,,,,,,,,,,,,,,,,,,,
1703411420.468325,1703411420.468862,92.000000,0.000000,4245.512695,4194.871582,4298.589844,4257.820313,4183.846191,4185.000000,4220.769043,4202.307617,4191.153809,4184.743652,4601.538574,4482.436035,4405.000000,4537.051270,6623.000000,3.000000,64.000000,,,,0.000000,4.000000,4.000000,4.000000,4.000000,4.000000,4.000000,4.000000,4.000000,4.000000,4.000000,4.000000,4.000000,4.000000,4.000000,100.000000,,,,,,,,,,,,,,,,,23.000000,0.000000,0.677001,0.175964,-0.658264,0.278198,0.985472,-0.113295,0.065438,-14.308342,-42.913376,65.807106
1703411420.476133,1703411420.476570,93.000000,0.000000,4243.846191,4204.615234,4296.922852,4265.769043,4184.487305,4182.179688,4217.563965,4192.051270,4180.512695,4182.563965,4599.615234,4476.282227,4403.461426,4537.307617,6977.000000,3.000000,64.000000,,,,0.000000,4.000000,4.000000,4.000000,4.000000,4.000000,4.000000,4.000000,4.000000,4.000000,4.000000,4.000000,4.000000,4.000000,4.000000,100.000000,,,,,,,,,,,,,,,,,,,,,,,,,,,,
1703411420.483941,1703411420.484378,94.000000,0.000000,4249.102539,4216.666504,4299.615234,4280.000000,4198.717773,4175.384766,4214.743652,4183.589844,4177.179688,4188.589844,4600.897461,4474.487305,4411.666504,4551.410156,5966.000000,3.000000,64.000000,,,,0.000000,4.000000,4.000000,4.000000,4.000000,4.000000,4.000000,4.000000,4.000000,4.000000,4.000000,4.000000,4.000000,4.000000,4.000000,100.000000,,,,,,,,,,,,,,,,,,,,,,,,,,,,
1703411420.491749,1703411420.492086,95.000000,0.000000,4249.487305,4220.128418,4309.358887,4283.717773,4205.897461,4172.948730,4214.358887,4187.563965,4182.820313,4187.051270,4608.717773,4478.333496,4413.974121,4545.128418,6133.000000,3.000000,64.000000,,,,0.000000,4.000000,4.000000,4.000000,4.000000,4.000000,4.000000,4.000000,4.000000,4.000000,4.000000,4.000000,4.000000,4.000000,4.000000,100.000000,,,,,,,,,,,,,,,,,,,,,,,,,,,,
1703411420.499557,1703411420.499894,96.000000,0.000000,4249.487305,4225.512695,4315.000000,4285.769043,4200.384766,4176.410156,4213.846191,4181.282227,4177.692383,4183.974121,4615.641113,4478.205078,4411.666504,4537.563965,6623.000000,3.000000,64.000000,,,,0.000000,4.000000,4.000000,4.000000,4.000000,4.000000,4.000000,4.000000,4.000000,4.000000,4.000000,4.000000,4.000000,4.000000,4.000000,100.000000,,,,,,,,,,,,,,,,,24.000000,0.000000,0.676917,0.175964,-0.658325,0.278259,0.978635,-0.114760,0.066414,-14.327508,-42.955372,65.776398
1703411420.507365,1703411420.507602,97.000000,0.000000,4249.871582,4234.487305,4313.589844,4291.666504,4197.179688,4184.615234,4214.230957,4174.102539,4172.820313,4196.538574,4606.922852,4473.589844,4412.563965,4542.820313,6977.000000,3.000000,64.000000,,,,0.000000,4.000000,4.000000,4.000000,4.000000,4.000000,4.000000,4.000000,4.000000,4.000000,4.000000,4.000000,4.000000,4.000000,4.000000,100.000000,,,,,,,,,,,,,,,,,,,,,,,,,,,,
1703411420.515173,1703411420.515410,98.000000,0.000000,4251.794922,4235.000000,4316.153809,4288.461426,4202.563965,4187.948730,4215.512695,4189.743652,4184.871582,4194.102539,4599.102539,4479.615234,4417.307617,4542.179688,5966.000000,3.000000,64.000000,,,,0.000000,4.000000,4.000000,4.000000,4.000000,4.000000,4.000000,4.000000,4.000000,4.000000,4.000000,4.000000,4.000000,4.000000,4.000000,100.000000,,,,,,,,,,,,,,,,,,,,,,,,,,,,
1703411420.522981,1703411420.523118,99.000000,0.000000,4250.641113,4225.256348,4312.563965,4277.436035,4203.077148,4184.871582,4217.051270,4206.538574,4192.051270,4182.692383,4610.512695,4492.820313,4419.871582,4535.000000,6133.000000,3.000000,64.000000,,,,0.000000,4.000000,4.000000,4.000000,4.000000,4.000000,4.000000,4.000000,4.000000,4.000000,4.000000,4.000000,4.000000,4.000000,4.000000,100.000000,,,,,,,,,,,,,,,,,,,,,,,,,,,,
1703411420.530789,1703411420.530926,100.000000,0.000000,4240.512695,4210.897461,4300.000000,4266.282227,4190.512695,4184.358887,4216.282227,4206.025879,4188.717773,4197.051270,4613.077148,4484.102539,4411.153809,4535.256348,6623.000000,3.000000,64.000000,,,,0.000000,4.000000,4.000000,4.000000,4.000000,4.000000,4.000000,4.000000,4.000000,4.000000,4.000000,4.000000,4.000000,4.000000,4.000000,100.000000,,,,,,,,,,,,,,,,,25.000000,0.000000,0.676830,0.175781,-0.658386,0.278442,0.983030,-0.122085,0.062996,-14.178091,-42.943169,65.832092
1703411420.538597,1703411420.538634,101.000000,0.000000,4227.820313,4193.974121,4291.282227,4251.922852,4180.769043,4184.743652,4213.717773,4197.051270,4181.538574,4194.487305,4584.230957,4455.256348,4391.794922,4529.487305,6977.000000,3.000000,64.000000,,,,0.000000,4.000000,4.000000,4.000000,4.000000,4.000000,4.000000,4.000000,4.000000,4.000000,4.000000,4.000000,4.000000,4.000000,4.000000,100.000000,,,,,,,,,,,,,,,,,,,,,,,,,,,,
1703411420.546405,1703411420.546542,102.000000,0.000000,4215.641113,4184.871582,4281.922852,4242.051270,4186.025879,4181.153809,4214.230957,4185.000000,4168.205078,4152.948730,4562.563965,4441.794922,4372.948730,4509.743652,5966.000000,3.000000,64.000000,,,,0.000000,4.000000,4.000000,4.000000,4.000000,4.000000,4.000000,4.000000,4.000000,4.000000,4.000000,4.000000,4.000000,4.000000,4.000000,100.000000,,,,,,,,,,,,,,,,,,,,,,,,,,,,
1703411420.554213,1703411420.554350,103.000000,0.000000,4200.897461,4184.487305,4270.256348,4243.461426,4189.871582,4181.666504,4214.358887,4174.358887,4168.461426,4137.948730,4568.333496,4440.897461,4366.922852,4499.358887,6133.000000,3.000000,64.000000,,,,0.000000,4.000000,4.000000,4.000000,4.000000,4.000000,4.000000,4.000000,4.000000,4.000000,4.000000,4.000000,4.000000,4.000000,4.000000,100.000000,,,,,,,,,,,,,,,,,,,,,,,,,,,,
1703411420.562021,1703411420.562258,104.000000,0.000000,4194.615234,4178.077148,4267.436035,4242.948730,4183.589844,4185.000000,4213.205078,4170.000000,4182.692383,4161.025879,4568.846191,4433.077148,4370.897461,4502.563965,6623.000000,3.000000,64.000000,,,,0.000000,4.000000,4.000000,4.000000,4.000000,4.000000,4.000000,4.000000,4.000000,4.000000,4.000000,4.000000,4.000000,4.000000,4.000000,100.000000,,,,,,,,,,,,,,,,,26.000000,0.000000,0.676852,0.175598,-0.658386,0.278503,0.975705,-0.121109,0.072274,-13.976949,-42.915520,66.032211
1703411420.569830,1703411420.570066,105.000000,0.000000,4202.692383,4179.743652,4274.358887,4245.641113,4186.794922,4184.358887,4213.846191,4168.461426,4186.153809,4180.256348,4575.641113,4434.871582,4383.717773,4505.128418,6977.000000,3.000000,64.000000,,,,0.000000,4.000000,4.000000,4.000000,4.000000,4.000000,4.000000,4.000000,4.000000,4.000000,4.000000,4.000000,4.000000,4.000000,4.000000,100.000000,,,,,,,,,,,,,,,,,,,,,,,,,,,,
1703411420.577638,1703411420.577973,106.000000,0.000000,4215.641113,4203.077148,4284.230957,4257.436035,4200.128418,4183.077148,4215.256348,4173.974121,4182.179688,4189.487305,4605.769043,4454.487305,4402.820313,4515.000000,5966.000000,3.000000,64.000000,,,,0.000000,4.000000,4.000000,4.000000,4.000000,4.000000,4.000000,4.000000,4.000000,4.000000,4.000000,4.000000,4.000000,4.000000,4.000000,100.000000,,,,,,,,,,,,,,,,,,,,,,,,,,,,
1703411420.585446,1703411420.585781,107.000000,0.000000,4226.282227,4220.000000,4292.051270,4266.153809,4203.077148,4185.512695,4216.025879,4191.025879,4190.384766,4197.051270,4622.436035,4468.333496,4417.307617,4532.307617,6133.000000,3.000000,64.000000,,,,0.000000,4.000000,4.000000,4.000000,4.000000,4.000000,4.000000,4.000000,4.000000,4.000000,4.000000,4.000000,4.000000,4.000000,4.000000,100.000000,,,,,,,,,,,,,,,,,,,,,,,,,,,,
1703411420.593254,1703411420.593689,108.000000,0.000000,4233.077148,4217.820313,4297.436035,4272.179688,4198.717773,4187.436035,4217.179688,4208.846191,4206.410156,4224.230957,4627.179688,4477.563965,4426.538574,4543.846191,6623.000000,3.000000,64.000000,,,,0.000000,4.000000,4.000000,4.000000,4.000000,4.000000,4.000000,4.000000,4.000000,4.000000,4.000000,4.000000,4.000000,4.000000,4.000000,100.000000,,,,,,,,,,,,,,,,,27.000000,0.000000,0.677075,0.175354,-0.658325,0.278259,0.987914,-0.113783,0.056159,-14.079253,-42.823967,66.112328
1703411420.601062,1703411420.601497,109.000000,0.000000,4237.179688,4217.179688,4297.563965,4279.358887,4202.307617,4184.487305,4216.666504,4218.589844,4208.974121,4244.871582,4642.436035,4493.589844,4437.051270,4550.384766,6977.000000,3.000000,64.000000,,,,0.000000,4.000000,4.000000,4.000000,4.000000,4.000000,4.000000,4.000000,4.000000,4.000000,4.000000,4.000000,4.000000,4.000000,4.000000,100.000000,,,,,,,,,,,,,,,,,,,,,,,,,,,,
1703411420.608870,1703411420.609305,110.000000,0.000000,4235.897461,4222.179688,4296.282227,4281.282227,4209.102539,4184.743652,4216.282227,4220.384766,4198.205078,4202.051270,4639.871582,4496.666504,4437.563965,4550.897461,5966.000000,3.000000,64.000000,,,,0.000000,4.000000,4.000000,4.000000,4.000000,4.000000,4.000000,4.000000,4.000000,4.000000,4.000000,4.000000,4.000000,4.000000,4.000000,100.000000,,,,,,,,,,,,,,,,,,,,,,,,,,,,
1703411420.616678,1703411420.617113,111.000000,0.000000,4225.769043,4216.282227,4296.666504,4275.769043,4198.846191,4189.615234,4218.333496,4218.077148,4196.538574,4173.717773,4617.436035,4482.179688,4421.282227,4541.153809,6133.000000,3.000000,64.000000,,,,0.000000,4.000000,4.000000,4.000000,4.000000,4.000000,4.000000,4.000000,4.000000,4.000000,4.000000,4.000000,4.000000,4.000000,4.000000,100.000000,,,,,,,,,,,,,,,,,,,,,,,,,,,,
1703411420.624486,1703411420.624821,112.000000,0.000000,4217.436035,4204.615234,4292.436035,4270.384766,4187.563965,4187.563965,4217.692383,4212.948730,4200.256348,4217.179688,4609.358887,4466.666504,4407.563965,4524.615234,6623.000000,3.000000,64.000000,,,,0.000000,4.000000,4.000000,4.000000,4.000000,4.000000,4.000000,4.000000,4.000000,4.000000,4.000000,4.000000,4.000000,4.000000,4.000000,100.000000,,,,,,,,,,,,,,,,,28.000000,0.000000,0.677241,0.175293,-0.658325,0.277893,0.986449,-0.119644,0.078135,-14.154661,-42.774902,66.034424
1703411420.632294,1703411420.632629,113.000000,0.000000,4217.436035,4199.743652,4285.256348,4265.128418,4193.205078,4182.436035,4215.769043,4200.897461,4193.461426,4218.333496,4600.769043,4453.205078,4396.410156,4509.871582,6977.000000,3.000000,64.000000,,,,0.000000,4.000000,4.000000,4.000000,4.000000,4.000000,4.000000,4.000000,4.000000,4.000000,4.000000,4.000000,4.000000,4.000000,4.000000,100.000000,,,,,,,,,,,,,,,,,,,,,,,,,,,,
1703411420.640102,1703411420.640337,114.000000,0.000000,4217.179688,4201.025879,4286.794922,4261.922852,4196.794922,4184.102539,4215.769043,4188.333496,4186.282227,4159.871582,4579.871582,4445.512695,4378.461426,4499.743652,5966.000000,3.000000,64.000000,,,,0.000000,4.000000,4.000000,4.000000,4.000000,4.000000,4.000000,4.000000,4.000000,4.000000,4.000000,4.000000,4.000000,4.000000,4.000000,100.000000,,,,,,,,,,,,,,,,,,,,,,,,,,,,
1703411420.647910,1703411420.648145,115.000000,0.000000,4215.769043,4203.461426,4293.974121,4267.820313,4193.205078,4187.307617,4216.922852,4187.051270,4185.256348,4163.461426,4576.410156,4446.794922,4379.230957,4496.666504,6133.000000,3.000000,64.000000,,,,0.000000,4.000000,4.000000,4.000000,4.000000,4.000000,4.000000,4.000000,4.000000,4.000000,4.000000,4.000000,4.000000,4.000000,4.000000,100.000000,,,,,,,,,,,,,,,,,,,,,,,,,,,,
1703411420.655718,1703411420.655853,116.000000,0.000000,4215.000000,4201.410156,4287.820313,4264.871582,4197.948730,4188.205078,4218.589844,4188.589844,4182.179688,4202.179688,4588.077148,4446.282227,4394.615234,4501.794922,6623.000000,3.000000,64.000000,,,,0.000000,4.000000,4.000000,4.000000,4.000000,4.000000,4.000000,4.000000,4.000000,4.000000,4.000000,4.000000,4.000000,4.000000,4.000000,100.000000,,,,,,,,,,,,,,,,,29.000000,0.000000,0.677631,0.175415,-0.658020,0.277588,0.986449,-0.122574,0.074228,-14.172528,-42.814079,66.047653
1703411420.663526,1703411420.663661,117.000000,0.000000,4205.000000,4195.000000,4275.641113,4252.692383,4203.461426,4189.487305,4219.358887,4187.179688,4183.205078,4182.948730,4587.563965,4438.077148,4390.128418,4501.538574,6977.000000,3.000000,64.000000,,,,0.000000,4.000000,4.000000,4.000000,4.000000,4.000000,4.000000,4.000000,4.000000,4.000000,4.000000,4.000000,4.000000,4.000000,4.000000,100.000000,,,,,,,,,,,,,,,,,,,,,,,,,,,,
1703411420.671334,1703411420.671369,118.000000,0.000000,4195.384766,4186.153809,4276.922852,4252.820313,4201.282227,4185.000000,4217.820313,4190.512695,4190.641113,4167.307617,4581.282227,4433.461426,4376.153809,4493.333496,5966.000000,3.000000,64.000000,,,,0.000000,4.000000,4.000000,4.000000,4.000000,4.000000,4.000000,4.000000,4.000000,4.000000,4.000000,4.000000,4.000000,4.000000,4.000000,100.000000,,,,,,,,,,,,,,,,,,,,,,,,,,,,
1703411420.679142,1703411420.679177,119.000000,0.000000,4200.000000,4183.461426,4285.641113,4261.666504,4199.230957,4177.692383,4216.153809,4188.846191,4190.128418,4183.974121,4581.922852,4434.358887,4380.000000,4488.974121,6133.000000,3.000000,64.000000,,,,0.000000,4.000000,4.000000,4.000000,4.000000,4.000000,4.000000,4.000000,4.000000,4.000000,4.000000,4.000000,4.000000,4.000000,4.000000,100.000000,,,,,,,,,,,,,,,,,,,,,,,,,,,,
1703411420.686950,1703411420.686885,120.000000,0.000000,4215.769043,4198.077148,4290.769043,4267.179688,4200.128418,4181.410156,4217.436035,4183.333496,4183.205078,4173.974121,4587.948730,4441.666504,4387.179688,4502.051270,6623.000000,3.000000,64.000000,,,,0.000000,4.000000,4.000000,4.000000,4.000000,4.000000,4.000000,4.000000,4.000000,4.000000,4.000000,4.000000,4.000000,4.000000,4.000000,100.000000,,,,,,,,,,,,,,,,,30.000000,0.000000,0.677643,0.175598,-0.657959,0.277588,0.991820,-0.130387,0.063484,-14.305276,-42.816006,66.126221
1703411420.694758,1703411420.694693,121.000000,0.000000,4227.948730,4212.692383,4292.436035,4265.897461,4201.666504,4190.641113,4219.871582,4191.794922,4186.538574,4173.846191,4591.794922,4453.333496,4387.307617,4517.307617,6977.000000,3.000000,64.000000,,,,0.000000,4.000000,4.000000,4.000000,4.000000,4.000000,4.000000,4.000000,4.000000,4.000000,4.000000,4.000000,4.000000,4.000000,4.000000,100.000000,,,,,,,,,,,,,,,,,,,,,,,,,,,,
1703411420.702566,1703411420.702401,122.000000,0.000000,4234.358887,4214.743652,4294.358887,4267.563965,4199.102539,4188.846191,4219.871582,4200.641113,4192.179688,4200.641113,4592.051270,4457.179688,4393.717773,4521.922852,5966.000000,3.000000,64.000000,,,,0.000000,4.000000,4.000000,4.000000,4.000000,4.000000,4.000000,4.000000,4.000000,4.000000,4.000000,4.000000,4.000000,4.000000,4.000000,100.000000,,,,,,,,,,,,,,,,,,,,,,,,,,,,
1703411420.710374,1703411420.710310,123.000000,0.000000,4243.974121,4218.846191,4297.692383,4275.384766,4191.025879,4181.282227,4215.384766,4190.000000,4185.000000,4191.025879,4591.538574,4455.384766,4403.589844,4531.025879,6133.000000,3.000000,64.000000,,,,0.000000,4.000000,4.000000,4.000000,4.000000,4.000000,4.000000,4.000000,4.000000,4.000000,4.000000,4.000000,4.000000,4.000000,4.000000,100.000000,,,,,,,,,,,,,,,,,,,,,,,,,,,,
1703411420.718182,1703411420.718118,124.000000,0.000000,4248.589844,4218.333496,4298.589844,4276.025879,4187.563965,4182.948730,4213.974121,4182.436035,4180.897461,4171.538574,4588.205078,4454.230957,4397.692383,4535.897461,6623.000000,3.000000,64.000000,,,,0.000000,4.000000,4.000000,4.000000,4.000000,4.000000,4.000000,4.000000,4.000000,4.000000,4.000000,4.000000,4.000000,4.000000,4.000000,100.000000,,,,,,,,,,,,,,,,,31.000000,0.000000,0.677568,0.175659,-0.658020,0.277588,0.980588,-0.127945,0.077646,-14.291415,-42.701073,66.146935
1703411420.725990,1703411420.726026,125.000000,0.000000,4238.974121,4197.820313,4292.179688,4261.666504,4188.589844,4188.205078,4217.436035,4193.077148,4189.358887,4186.282227,4581.410156,4451.153809,4376.922852,4527.051270,6977.000000,3.000000,64.000000,,,,0.000000,4.000000,4.000000,4.000000,4.000000,4.000000,4.000000,4.000000,4.000000,4.000000,4.000000,4.000000,4.000000,4.000000,4.000000,100.000000,,,,,,,,,,,,,,,,,,,,,,,,,,,,
1703411420.733799,1703411420.733834,126.000000,0.000000,4226.666504,4178.589844,4279.743652,4244.230957,4185.641113,4186.153809,4217.563965,4199.871582,4188.589844,4178.846191,4575.897461,4445.897461,4368.333496,4518.077148,5966.000000,3.000000,64.000000,,,,0.000000,4.000000,4.000000,4.000000,4.000000,4.000000,4.000000,4.000000,4.000000,4.000000,4.000000,4.000000,4.000000,4.000000,4.000000,100.000000,,,,,,,,,,,,,,,,,,,,,,,,,,,,
1703411420.741607,1703411420.741742,127.000000,0.000000,4228.846191,4185.000000,4277.692383,4242.179688,4183.077148,4182.436035,4216.282227,4199.487305,4180.128418,4156.922852,4578.846191,4446.025879,4382.051270,4523.846191,64.000000,3.000000,64.000000,,,,0.000000,4.000000,4.000000,4.000000,4.000000,4.000000,4.000000,4.000000,4.000000,4.000000,4.000000,4.000000,4.000000,4.000000,4.000000,100.000000,,,,,,,,,,,,,,,,,,,,,,,,,,,,
1703411420.749415,1703411420.749550,0.000000,0.000000,4237.179688,4200.256348,4288.205078,4254.358887,4189.358887,4185.641113,4219.487305,4197.307617,4183.846191,4167.948730,4578.461426,4448.717773,4385.512695,4532.692383,5061.000000,3.000000,64.000000,,,,0.000000,4.000000,4.000000,4.000000,4.000000,4.000000,4.000000,4.000000,4.000000,4.000000,4.000000,4.000000,4.000000,4.000000,4.000000,100.000000,,,,,,,,,,,,,,,,,0.000000,0.000000,0.677571,0.175781,-0.657959,0.277649,0.996215,-0.117690,0.063973,-14.212274,-42.580963,66.182236
1703411420.757223,1703411420.757458,1.000000,0.000000,4246.025879,4202.307617,4294.487305,4264.358887,4197.820313,4188.589844,4220.897461,4190.897461,4186.025879,4178.077148,4572.692383,4451.794922,4377.051270,4532.307617,5450.000000,3.000000,64.000000,,,,0.000000,4.000000,4.000000,4.000000,4.000000,4.000000,4.000000,4.000000,4.000000,4.000000,4.000000,4.000000,4.000000,4.000000,4.000000,100.000000,,,,,,,,,,,,,,,,,,,,,,,,,,,,
1703411420.765031,1703411420.765266,2.000000,0.000000,4258.205078,4200.641113,4294.487305,4266.410156,4200.000000,4185.512695,4216.794922,4184.871582,4176.922852,4177.692383,4578.589844,4459.487305,4387.307617,4538.974121,5345.000000,3.000000,64.000000,,,,0.000000,4.000000,4.000000,4.000000,4.000000,4.000000,4.000000,4.000000,4.000000,4.000000,4.000000,4.000000,4.000000,4.000000,4.000000,100.000000,,,,,,,,,,,,,,,,,,,,,,,,,,,,
1703411420.772839,1703411420.773174,3.000000,0.000000,4265.000000,4209.871582,4298.205078,4274.871582,4200.384766,4182.179688,4215.000000,4183.974121,4175.512695,4180.384766,4586.666504,4463.333496,4398.589844,4550.641113,5350.000000,3.000000,64.000000,,,,0.000000,4.000000,4.000000,4.000000,4.000000,4.000000,4.000000,4.000000,4.000000,4.000000,4.000000,4.000000,4.000000,4.000000,4.000000,100.000000,,,,,,,,,,,,,,,,,,,,,,,,,,,,
1703411420.780647,1703411420.780982,4.000000,0.000000,4269.358887,4219.230957,4304.358887,4282.307617,4198.461426,4182.051270,4216.922852,4186.922852,4185.769043,4182.307617,4589.487305,4469.615234,4397.563965,4556.538574,5115.000000,3.000000,64.000000,,,,0.000000,4.000000,4.000000,4.000000,4.000000,4.000000,4.000000,4.000000,4.000000,4.000000,4.000000,4.000000,4.000000,4.000000,4.000000,100.000000,,,,,,,,,,,,,,,,,1.000000,0.000000,0.677430,0.175903,-0.658020,0.277771,0.975705,-0.130387,0.072274,-14.124379,-42.406200,65.947350
1703411420.788455,1703411420.788889,5.000000,0.000000,4271.666504,4209.102539,4302.692383,4269.487305,4191.282227,4183.846191,4216.282227,4185.128418,4188.077148,4171.410156,4588.589844,4472.563965,4398.589844,4555.512695,4133.000000,3.000000,64.000000,,,,0.000000,4.000000,4.000000,4.000000,4.000000,4.000000,4.000000,4.000000,4.000000,4.000000,4.000000,4.000000,4.000000,4.000000,4.000000,100.000000,,,,,,,,,,,,,,,,,,,,,,,,,,,,
1703411420.796263,1703411420.796697,6.000000,0.000000,4266.410156,4194.871582,4295.512695,4259.102539,4187.307617,4183.589844,4213.846191,4181.153809,4177.820313,4144.743652,4583.461426,4461.153809,4396.410156,4553.589844,2830.000000,3.000000,64.000000,,,,0.000000,4.000000,4.000000,4.000000,4.000000,4.000000,4.000000,4.000000,4.000000,4.000000,4.000000,4.000000,4.000000,4.000000,4.000000,100.000000,,,,,,,,,,,,,,,,,,,,,,,,,,,,
1703411420.804071,1703411420.804405,7.000000,0.000000,4260.897461,4195.769043,4293.974121,4262.436035,4187.820313,4183.846191,4216.410156,4182.948730,4172.179688,4136.282227,4580.897461,4458.717773,4391.538574,4553.846191,4986.000000,3.000000,64.000000,,,,0.000000,4.000000,4.000000,4.000000,4.000000,4.000000,4.000000,4.000000,4.000000,4.000000,4.000000,4.000000,4.000000,4.000000,4.000000,100.000000,,,,,,,,,,,,,,,,,,,,,,,,,,,,
1703411420.811879,1703411420.812213,8.000000,0.000000,4263.333496,4193.717773,4296.025879,4259.743652,4187.051270,4187.563965,4220.128418,4186.666504,4172.692383,4161.666504,4583.717773,4472.692383,4398.974121,4555.769043,4226.000000,3.000000,64.000000,,,,0.000000,4.000000,4.000000,4.000000,4.000000,4.000000,4.000000,4.000000,4.000000,4.000000,4.000000,4.000000,4.000000,4.000000,4.000000,100.000000,,,,,,,,,,,,,,,,,2.000000,0.000000,0.677334,0.175720,-0.658142,0.277832,0.979123,-0.120132,0.070321,-14.145275,-42.432247,65.935944
1703411420.819687,1703411420.819922,9.000000,0.000000,4263.589844,4185.000000,4296.538574,4254.358887,4188.461426,4187.948730,4217.051270,4187.307617,4179.743652,4185.769043,4590.256348,4478.974121,4405.897461,4555.384766,5228.000000,3.000000,64.000000,,,,0.000000,4.000000,4.000000,4.000000,4.000000,4.000000,4.000000,4.000000,4.000000,4.000000,4.000000,4.000000,4.000000,4.000000,4.000000,100.000000,,,,,,,,,,,,,,,,,,,,,,,,,,,,
1703411420.827495,1703411420.827830,10.000000,0.000000,4261.666504,4192.051270,4299.615234,4261.794922,4191.794922,4178.205078,4213.333496,4189.102539,4195.384766,4198.077148,4594.615234,4478.589844,4401.538574,4551.666504,5963.000000,3.000000,64.000000,,,,0.000000,4.000000,4.000000,4.000000,4.000000,4.000000,4.000000,4.000000,4.000000,4.000000,4.000000,4.000000,4.000000,4.000000,4.000000,100.000000,1.000000,91.666664,4.000000,4.000000,4.000000,4.000000,4.000000,4.000000,4.000000,4.000000,4.000000,3.000000,4.000000,4.000000,4.000000,4.000000,,,,,,,,,,,,
1703411420.835303,1703411420.835638,11.000000,0.000000,4266.153809,4204.615234,4302.563965,4270.384766,4195.769043,4172.820313,4214.230957,4187.051270,4197.692383,4204.230957,4592.692383,4476.922852,4399.743652,4553.589844,6118.000000,3.000000,64.000000,,,,0.000000,4.000000,4.000000,4.000000,4.000000,4.000000,4.000000,4.000000,4.000000,4.000000,4.000000,4.000000,4.000000,4.000000,4.000000,100.000000,,,,,,,,,,,,,,,,,,,,,,,,,,,,
1703411420.843111,1703411420.843546,12.000000,0.000000,4257.948730,4202.948730,4296.538574,4269.871582,4200.128418,4179.230957,4214.743652,4174.871582,4175.769043,4184.615234,4581.666504,4459.102539,4399.743652,4558.589844,6619.000000,3.000000,64.000000,,,,0.000000,4.000000,4.000000,4.000000,4.000000,4.000000,4.000000,4.000000,4.000000,4.000000,4.000000,4.000000,4.000000,4.000000,4.000000,100.000000,,,,,,,,,,,,,,,,,3.000000,0.000000,0.677356,0.175598,-0.658203,0.277710,0.974728,-0.118667,0.065438,-14.347414,-42.455688,66.042351
1703411420.850919,1703411420.851354,13.000000,0.000000,4248.589844,4204.487305,4292.179688,4271.538574,4201.538574,4183.974121,4212.948730,4171.410156,4162.051270,4158.846191,4580.128418,4447.820313,4403.974121,4553.589844,6977.000000,3.000000,64.000000,,,,0.000000,4.000000,4.000000,4.000000,4.000000,4.000000,4.000000,4.000000,4.000000,4.000000,4.000000,4.000000,4.000000,4.000000,4.000000,100.000000,,,,,,,,,,,,,,,,,,,,,,,,,,,,
1703411420.858727,1703411420.859162,14.000000,0.000000,4255.000000,4216.282227,4297.436035,4278.461426,4202.692383,4184.871582,4214.230957,4180.512695,4176.282227,4151.666504,4588.846191,4462.436035,4406.410156,4543.205078,5963.000000,3.000000,64.000000,,,,0.000000,4.000000,4.000000,4.000000,4.000000,4.000000,4.000000,4.000000,4.000000,4.000000,4.000000,4.000000,4.000000,4.000000,4.000000,100.000000,,,,,,,,,,,,,,,,,,,,,,,,,,,,
1703411420.866535,1703411420.866870,15.000000,0.000000,4256.025879,4220.897461,4294.230957,4277.563965,4202.179688,4186.410156,4216.794922,4183.205078,4185.897461,4159.743652,4587.436035,4469.102539,4401.025879,4543.077148,6118.000000,3.000000,64.000000,,,,0.000000,4.000000,4.000000,4.000000,4.000000,4.000000,4.000000,4.000000,4.000000,4.000000,4.000000,4.000000,4.000000,4.000000,4.000000,100.000000,,,,,,,,,,,,,,,,,,,,,,,,,,,,
1703411420.874344,1703411420.874678,16.000000,0.000000,4247.051270,4212.948730,4286.922852,4266.025879,4199.102539,4187.692383,4216.538574,4188.846191,4183.333496,4197.436035,4591.153809,4461.153809,4405.641113,4553.974121,0.000000,3.000000,64.000000,,,,0.000000,4.000000,4.000000,4.000000,4.000000,4.000000,4.000000,4.000000,4.000000,4.000000,4.000000,4.000000,4.000000,4.000000,4.000000,100.000000,,,,,,,,,,,,,,,,,4.000000,0.000000,0.677565,0.175598,-0.658142,0.277344,0.981565,-0.123550,0.072763,-14.412673,-42.376785,65.954781
1703411420.882151,1703411420.882386,17.000000,0.000000,4245.384766,4207.692383,4289.871582,4261.282227,4200.384766,4187.948730,4217.307617,4201.410156,4188.461426,4212.051270,4605.000000,4463.974121,4418.077148,4557.563965,0.000000,3.000000,64.000000,,,,0.000000,4.000000,4.000000,4.000000,4.000000,4.000000,4.000000,4.000000,4.000000,4.000000,4.000000,4.000000,4.000000,4.000000,4.000000,100.000000,,,,,,,,,,,,,,,,,,,,,,,,,,,,
1703411420.889959,1703411420.890194,18.000000,0.000000,4242.307617,4204.230957,4288.589844,4261.538574,4199.871582,4187.948730,4219.230957,4197.179688,4189.358887,4177.436035,4600.384766,4466.410156,4414.615234,4542.948730,0.000000,3.000000,64.000000,,,,0.000000,4.000000,4.000000,4.000000,4.000000,4.000000,4.000000,4.000000,4.000000,4.000000,4.000000,4.000000,4.000000,4.000000,4.000000,100.000000,,,,,,,,,,,,,,,,,,,,,,,,,,,,
1703411420.897768,1703411420.897903,19.000000,0.000000,4225.384766,4192.563965,4278.077148,4251.410156,4194.487305,4186.410156,4219.230957,4181.538574,4178.974121,4167.307617,4578.589844,4450.128418,4391.025879,4520.641113,0.000000,3.000000,64.000000,,,,0.000000,4.000000,4.000000,4.000000,4.000000,4.000000,4.000000,4.000000,4.000000,4.000000,4.000000,4.000000,4.000000,4.000000,4.000000,100.000000,,,,,,,,,,,,,,,,,,,,,,,,,,,,
1703411420.905576,1703411420.905811,20.000000,0.000000,4216.538574,4184.871582,4271.794922,4244.102539,4196.922852,4184.102539,4216.153809,4179.358887,4179.487305,4184.230957,4566.282227,4437.948730,4374.487305,4511.153809,0.000000,3.000000,64.000000,,,,0.000000,4.000000,4.000000,4.000000,4.000000,4.000000,4.000000,4.000000,4.000000,4.000000,4.000000,4.000000,4.000000,4.000000,4.000000,100.000000,,,,,,,,,,,,,,,,,5.000000,0.000000,0.677897,0.175354,-0.658020,0.276978,0.973263,-0.114272,0.073739,-14.404738,-42.322441,66.009308
1703411420.913384,1703411420.913619,21.000000,0.000000,4216.794922,4184.102539,4270.128418,4246.282227,4200.769043,4188.974121,4218.077148,4185.000000,4184.743652,4169.487305,4567.051270,4441.538574,4376.538574,4510.641113,0.000000,3.000000,64.000000,,,,0.000000,4.000000,4.000000,4.000000,4.000000,4.000000,4.000000,4.000000,4.000000,4.000000,4.000000,4.000000,4.000000,4.000000,4.000000,100.000000,,,,,,,,,,,,,,,,,,,,,,,,,,,,
1703411420.921192,1703411420.921527,22.000000,0.000000,4215.384766,4184.487305,4271.666504,4250.256348,4196.666504,4194.230957,4225.256348,4185.512695,4177.179688,4165.128418,4573.205078,4443.717773,4388.077148,4506.922852,0.000000,3.000000,64.000000,,,,0.000000,4.000000,4.000000,4.000000,4.000000,4.000000,4.000000,4.000000,4.000000,4.000000,4.000000,4.000000,4.000000,4.000000,4.000000,100.000000,,,,,,,,,,,,,,,,,,,,,,,,,,,,
1703411420.929000,1703411420.929335,23.000000,0.000000,4220.641113,4193.461426,4278.974121,4255.641113,4200.384766,4188.461426,4222.051270,4183.846191,4175.897461,4197.051270,4585.769043,4446.794922,4399.615234,4510.641113,0.000000,3.000000,64.000000,,,,0.000000,4.000000,4.000000,4.000000,4.000000,4.000000,4.000000,4.000000,4.000000,4.000000,4.000000,4.000000,4.000000,4.000000,4.000000,100.000000,,,,,,,,,,,,,,,,,,,,,,,,,,,,
1703411420.936808,1703411420.937243,24.000000,0.000000,4233.077148,4206.922852,4283.589844,4265.512695,4210.128418,4182.307617,4213.333496,4181.538574,4182.948730,4196.410156,4594.615234,4456.794922,4407.948730,4529.743652,0.000000,3.000000,64.000000,,,,0.000000,4.000000,4.000000,4.000000,4.000000,4.000000,4.000000,4.000000,4.000000,4.000000,4.000000,4.000000,4.000000,4.000000,4.000000,100.000000,,,,,,,,,,,,,,,,,6.000000,0.000000,0.678012,0.175293,-0.658020,0.276733,0.994750,-0.110853,0.051764,-14.464265,-42.173531,66.008377
1703411420.944616,1703411420.945051,25.000000,0.000000,4239.487305,4208.461426,4284.102539,4265.769043,4208.205078,4185.769043,4215.000000,4187.307617,4187.051270,4187.563965,4600.769043,4464.358887,4412.820313,4540.384766,0.000000,3.000000,64.000000,,,,0.000000,4.000000,4.000000,4.000000,4.000000,4.000000,4.000000,4.000000,4.000000,4.000000,4.000000,4.000000,4.000000,4.000000,4.000000,100.000000,,,,,,,,,,,,,,,,,,,,,,,,,,,,
1703411420.952424,1703411420.952958,26.000000,0.000000,4227.948730,4201.922852,4283.974121,4254.487305,4200.769043,4187.692383,4221.025879,4196.025879,4190.512695,4213.461426,4605.128418,4464.358887,4411.794922,4530.000000,0.000000,3.000000,64.000000,,,,0.000000,4.000000,4.000000,4.000000,4.000000,4.000000,4.000000,4.000000,4.000000,4.000000,4.000000,4.000000,4.000000,4.000000,4.000000,100.000000,,,,,,,,,,,,,,,,,,,,,,,,,,,,
1703411420.960232,1703411420.960766,27.000000,0.000000,4216.538574,4197.179688,4282.179688,4248.589844,4202.563965,4184.871582,4219.615234,4192.051270,4189.871582,4206.153809,4597.179688,4457.436035,4405.512695,4515.000000,0.000000,3.000000,64.000000,,,,0.000000,4.000000,4.000000,4.000000,4.000000,4.000000,4.000000,4.000000,4.000000,4.000000,4.000000,4.000000,4.000000,4.000000,4.000000,100.000000,,,,,,,,,,,,,,,,,,,,,,,,,,,,
1703411420.968040,1703411420.968674,28.000000,0.000000,4213.974121,4187.820313,4279.102539,4247.692383,4197.948730,4184.487305,4218.589844,4185.256348,4182.307617,4176.025879,4582.307617,4449.230957,4390.256348,4503.205078,0.000000,3.000000,64.000000,,,,0.000000,4.000000,4.000000,4.000000,4.000000,4.000000,4.000000,4.000000,4.000000,4.000000,4.000000,4.000000,4.000000,4.000000,4.000000,100.000000,,,,,,,,,,,,,,,,,7.000000,0.000000,0.678266,0.174927,-0.657959,0.276489,0.972287,-0.129410,0.070809,-14.534505,-42.356178,66.057533
1703411420.975848,1703411420.976482,29.000000,0.000000,4206.666504,4178.717773,4269.102539,4244.358887,4184.358887,4186.794922,4221.410156,4186.025879,4182.563965,4186.666504,4575.641113,4446.666504,4381.282227,4492.692383,0.000000,3.000000,64.000000,,,,0.000000,4.000000,4.000000,4.000000,4.000000,4.000000,4.000000,4.000000,4.000000,4.000000,4.000000,4.000000,4.000000,4.000000,4.000000,100.000000,,,,,,,,,,,,,,,,,,,,,,,,,,,,
1703411420.983656,1703411420.984190,30.000000,0.000000,4200.256348,4182.436035,4264.871582,4245.384766,4190.128418,4187.948730,4219.358887,4185.641113,4187.692383,4195.256348,4574.230957,4447.563965,4388.461426,4491.666504,0.000000,3.000000,64.000000,,,,0.000000,4.000000,4.000000,4.000000,4.000000,4.000000,4.000000,4.000000,4.000000,4.000000,4.000000,4.000000,4.000000,4.000000,4.000000,100.000000,,,,,,,,,,,,,,,,,,,,,,,,,,,,
1703411420.991464,1703411420.991998,31.000000,0.000000,4207.692383,4194.743652,4275.384766,4251.538574,4202.820313,4186.282227,4216.666504,4180.128418,4183.717773,4170.769043,4569.358887,4440.641113,4390.000000,4498.205078,0.000000,3.000000,64.000000,,,,0.000000,4.000000,4.000000,4.000000,4.000000,4.000000,4.000000,4.000000,4.000000,4.000000,4.000000,4.000000,4.000000,4.000000,4.000000,100.000000,,,,,,,,,,,,,,,,,,,,,,,,,,,,
1703411420.999272,1703411420.999706,32.000000,0.000000,4218.077148,4198.461426,4280.000000,4250.897461,4199.358887,4184.358887,4218.461426,4181.410156,4182.179688,4170.128418,4573.717773,4442.436035,4388.205078,4505.384766,0.000000,3.000000,64.000000,,,,0.000000,4.000000,4.000000,4.000000,4.000000,4.000000,4.000000,4.000000,4.000000,4.000000,4.000000,4.000000,4.000000,4.000000,4.000000,100.000000,,,,,,,,,,,,,,,,,8.000000,0.000000,0.678522,0.174683,-0.657837,0.276306,0.982053,-0.115248,0.065926,-14.481054,-42.353893,65.985115
1703411421.007080,1703411421.007514,33.000000,0.000000,4218.717773,4192.051270,4278.717773,4246.153809,4198.589844,4187.307617,4219.487305,4191.538574,4185.897461,4201.153809,4590.384766,4460.897461,4398.589844,4512.307617,0.000000,3.000000,64.000000,,,,0.000000,4.000000,4.000000,4.000000,4.000000,4.000000,4.000000,4.000000,4.000000,4.000000,4.000000,4.000000,4.000000,4.000000,4.000000,100.000000,,,,,,,,,,,,,,,,,,,,,,,,,,,,
1703411421.014888,1703411421.015222,34.000000,0.000000,4213.846191,4187.436035,4280.641113,4246.666504,4204.358887,4188.461426,4219.102539,4200.769043,4190.384766,4204.358887,4596.538574,4466.153809,4404.487305,4512.948730,0.000000,3.000000,64.000000,,,,0.000000,4.000000,4.000000,4.000000,4.000000,4.000000,4.000000,4.000000,4.000000,4.000000,4.000000,4.000000,4.000000,4.000000,4.000000,100.000000,,,,,,,,,,,,,,,,,,,,,,,,,,,,
1703411421.022696,1703411421.023030,35.000000,0.000000,4205.256348,4182.563965,4272.563965,4249.358887,4201.025879,4186.410156,4221.410156,4199.230957,4188.077148,4177.179688,4585.897461,4450.512695,4390.769043,4501.922852,0.000000,3.000000,64.000000,,,,0.000000,4.000000,4.000000,4.000000,4.000000,4.000000,4.000000,4.000000,4.000000,4.000000,4.000000,4.000000,4.000000,4.000000,4.000000,100.000000,,,,,,,,,,,,,,,,,,,,,,,,,,,,
1703411421.030504,1703411421.030738,36.000000,0.000000,4197.948730,4177.948730,4256.410156,4247.179688,4192.179688,4187.820313,4220.641113,4189.871582,4190.512695,4179.487305,4581.538574,4438.589844,4380.512695,4485.769043,0.000000,3.000000,64.000000,,,,0.000000,4.000000,4.000000,4.000000,4.000000,4.000000,4.000000,4.000000,4.000000,4.000000,4.000000,4.000000,4.000000,4.000000,4.000000,100.000000,,,,,,,,,,,,,,,,,9.000000,0.000000,0.678640,0.174744,-0.657776,0.276123,0.983030,-0.111830,0.077158,-14.332949,-42.351837,66.003273
1703411421.038313,1703411421.038546,37.000000,0.000000,4198.461426,4177.179688,4253.846191,4237.436035,4189.230957,4188.974121,4218.717773,4186.153809,4191.794922,4205.512695,4584.358887,4446.282227,4385.769043,4478.461426,0.000000,3.000000,64.000000,,,,0.000000,4.000000,4.000000,4.000000,4.000000,4.000000,4.000000,4.000000,4.000000,4.000000,4.000000,4.000000,4.000000,4.000000,4.000000,100.000000,,,,,,,,,,,,,,,,,,,,,,,,,,,,
1703411421.046121,1703411421.046254,38.000000,0.000000,4199.871582,4177.051270,4260.512695,4231.153809,4192.179688,4187.692383,4220.897461,4189.615234,4178.974121,4199.487305,4576.922852,4450.897461,4394.102539,4484.102539,0.000000,3.000000,64.000000,,,,0.000000,4.000000,4.000000,4.000000,4.000000,4.000000,4.000000,4.000000,4.000000,4.000000,4.000000,4.000000,4.000000,4.000000,4.000000,100.000000,,,,,,,,,,,,,,,,,,,,,,,,,,,,
1703411421.053929,1703411421.054163,39.000000,0.000000,4201.410156,4174.230957,4263.717773,4231.153809,4197.051270,4186.794922,4223.077148,4186.666504,4171.025879,4178.077148,4569.871582,4434.230957,4390.000000,4494.102539,0.000000,3.000000,64.000000,,,,0.000000,4.000000,4.000000,4.000000,4.000000,4.000000,4.000000,4.000000,4.000000,4.000000,4.000000,4.000000,4.000000,4.000000,4.000000,100.000000,,,,,,,,,,,,,,,,,,,,,,,,,,,,
1703411421.061736,1703411421.061971,40.000000,0.000000,4201.153809,4171.794922,4261.666504,4233.077148,4196.666504,4185.128418,4221.282227,4182.692383,4179.871582,4181.922852,4571.666504,4426.153809,4375.512695,4493.333496,0.000000,3.000000,64.000000,,,,0.000000,4.000000,4.000000,4.000000,4.000000,4.000000,4.000000,4.000000,4.000000,4.000000,4.000000,4.000000,4.000000,4.000000,4.000000,100.000000,,,,,,,,,,,,,,,,,10.000000,0.000000,0.678733,0.174744,-0.657654,0.276184,0.989867,-0.117202,0.076670,-14.349654,-42.449986,66.002945
1703411421.069545,1703411421.069879,41.000000,0.000000,4200.769043,4177.948730,4260.897461,4239.230957,4196.025879,4183.717773,4219.487305,4194.743652,4196.282227,4186.410156,4579.230957,4445.641113,4378.717773,4488.461426,0.000000,3.000000,64.000000,,,,0.000000,4.000000,4.000000,4.000000,4.000000,4.000000,4.000000,4.000000,4.000000,4.000000,4.000000,4.000000,4.000000,4.000000,4.000000,100.000000,,,,,,,,,,,,,,,,,,,,,,,,,,,,
1703411421.077353,1703411421.077687,42.000000,0.000000,4213.589844,4195.256348,4272.179688,4253.974121,4202.051270,4182.179688,4219.102539,4204.102539,4202.179688,4186.922852,4591.538574,4463.846191,4401.153809,4501.666504,0.000000,3.000000,64.000000,,,,0.000000,4.000000,4.000000,4.000000,4.000000,4.000000,4.000000,4.000000,4.000000,4.000000,4.000000,4.000000,4.000000,4.000000,4.000000,100.000000,,,,,,,,,,,,,,,,,,,,,,,,,,,,
1703411421.085161,1703411421.085495,43.000000,0.000000,4228.205078,4200.769043,4278.461426,4260.000000,4202.051270,4181.410156,4217.820313,4191.794922,4194.230957,4191.410156,4592.307617,4455.512695,4403.205078,4513.974121,0.000000,3.000000,64.000000,,,,0.000000,4.000000,4.000000,4.000000,4.000000,4.000000,4.000000,4.000000,4.000000,4.000000,4.000000,4.000000,4.000000,4.000000,4.000000,100.000000,,,,,,,,,,,,,,,,,,,,,,,,,,,,
1703411421.092969,1703411421.093203,44.000000,0.000000,4223.333496,4188.461426,4270.128418,4252.948730,4192.563965,4181.794922,4216.410156,4180.000000,4180.897461,4176.538574,4571.410156,4444.358887,4379.230957,4506.794922,0.000000,3.000000,64.000000,,,,0.000000,4.000000,4.000000,4.000000,4.000000,4.000000,4.000000,4.000000,4.000000,4.000000,4.000000,4.000000,4.000000,4.000000,4.000000,100.000000,,,,,,,,,,,,,,,,,11.000000,0.000000,0.679023,0.174438,-0.657410,0.276245,0.990355,-0.121109,0.070809,-14.248022,-42.454987,66.002647
1703411421.100777,1703411421.101111,45.000000,0.000000,4215.897461,4185.128418,4269.743652,4248.974121,4183.333496,4180.897461,4215.512695,4182.179688,4181.153809,4163.717773,4554.358887,4444.615234,4369.871582,4504.487305,0.000000,3.000000,64.000000,,,,0.000000,4.000000,4.000000,4.000000,4.000000,4.000000,4.000000,4.000000,4.000000,4.000000,4.000000,4.000000,4.000000,4.000000,4.000000,100.000000,,,,,,,,,,,,,,,,,,,,,,,,,,,,
1703411421.108585,1703411421.108919,46.000000,0.000000,4222.051270,4187.820313,4275.128418,4250.128418,4180.641113,4180.384766,4217.436035,4180.512695,4186.410156,4170.512695,4554.358887,4436.410156,4371.666504,4504.615234,0.000000,3.000000,64.000000,,,,0.000000,4.000000,4.000000,4.000000,4.000000,4.000000,4.000000,4.000000,4.000000,4.000000,4.000000,4.000000,4.000000,4.000000,4.000000,100.000000,,,,,,,,,,,,,,,,,,,,,,,,,,,,
1703411421.116393,1703411421.116827,47.000000,0.000000,4230.384766,4188.205078,4272.307617,4250.384766,4186.794922,4183.717773,4220.128418,4175.000000,4177.179688,4167.948730,4553.717773,4432.307617,4363.077148,4494.358887,0.000000,3.000000,64.000000,,,,0.000000,4.000000,4.000000,4.000000,4.000000,4.000000,4.000000,4.000000,4.000000,4.000000,4.000000,4.000000,4.000000,4.000000,4.000000,100.000000,,,,,,,,,,,,,,,,,,,,,,,,,,,,
1703411421.124201,1703411421.124635,48.000000,0.000000,4230.897461,4182.307617,4272.051270,4241.794922,4188.717773,4186.666504,4218.205078,4174.102539,4175.256348,4151.666504,4551.025879,4439.615234,4357.820313,4493.461426,0.000000,3.000000,64.000000,,,,0.000000,4.000000,4.000000,4.000000,4.000000,4.000000,4.000000,4.000000,4.000000,4.000000,4.000000,4.000000,4.000000,4.000000,4.000000,100.000000,,,,,,,,,,,,,,,,,12.000000,0.000000,0.679074,0.174011,-0.657471,0.276245,0.969845,-0.124527,0.065438,-14.373219,-42.409489,66.002388
1703411421.132009,1703411421.132543,49.000000,0.000000,4230.128418,4172.179688,4280.000000,4233.974121,4185.128418,4187.692383,4215.000000,4169.743652,4177.948730,4147.948730,4558.461426,4445.897461,4364.358887,4505.256348,0.000000,3.000000,64.000000,,,,0.000000,4.000000,4.000000,4.000000,4.000000,4.000000,4.000000,4.000000,4.000000,4.000000,4.000000,4.000000,4.000000,4.000000,4.000000,100.000000,,,,,,,,,,,,,,,,,,,,,,,,,,,,
1703411421.139817,1703411421.140351,50.000000,0.000000,4233.461426,4172.820313,4280.384766,4239.102539,4185.641113,4182.179688,4213.333496,4173.333496,4177.436035,4153.846191,4576.153809,4452.563965,4378.974121,4514.871582,0.000000,3.000000,64.000000,,,,0.000000,4.000000,4.000000,4.000000,4.000000,4.000000,4.000000,4.000000,4.000000,4.000000,4.000000,4.000000,4.000000,4.000000,4.000000,100.000000,,,,,,,,,,,,,,,,,,,,,,,,,,,,
1703411421.147625,1703411421.148259,51.000000,0.000000,4235.384766,4176.794922,4277.307617,4245.256348,4184.230957,4172.948730,4214.358887,4185.384766,4179.487305,4163.333496,4584.743652,4456.922852,4388.205078,4522.820313,0.000000,3.000000,64.000000,,,,0.000000,4.000000,4.000000,4.000000,4.000000,4.000000,4.000000,4.000000,4.000000,4.000000,4.000000,4.000000,4.000000,4.000000,4.000000,100.000000,,,,,,,,,,,,,,,,,,,,,,,,,,,,
1703411421.155433,1703411421.156067,52.000000,0.000000,4233.589844,4174.871582,4280.384766,4245.641113,4178.846191,4174.615234,4214.230957,4190.128418,4184.230957,4182.051270,4582.820313,4451.794922,4388.333496,4530.384766,0.000000,3.000000,64.000000,,,,0.000000,4.000000,4.000000,4.000000,4.000000,4.000000,4.000000,4.000000,4.000000,4.000000,4.000000,4.000000,4.000000,4.000000,4.000000,100.000000,,,,,,,,,,,,,,,,,13.000000,0.000000,0.679043,0.173767,-0.657593,0.276184,0.980588,-0.112318,0.071786,-14.452564,-42.401875,66.018814
1703411421.163241,1703411421.163975,53.000000,0.000000,4232.051270,4181.153809,4277.820313,4248.461426,4178.717773,4185.128418,4215.769043,4186.794922,4183.461426,4178.461426,4580.512695,4446.282227,4381.666504,4522.948730,0.000000,3.000000,64.000000,,,,0.000000,4.000000,4.000000,4.000000,4.000000,4.000000,4.000000,4.000000,4.000000,4.000000,4.000000,4.000000,4.000000,4.000000,4.000000,100.000000,,,,,,,,,,,,,,,,,,,,,,,,,,,,
1703411421.171049,1703411421.171783,54.000000,0.000000,4234.102539,4195.897461,4271.282227,4252.820313,4190.000000,4186.666504,4217.692383,4187.820313,4182.820313,4160.000000,4575.769043,4448.717773,4375.384766,4511.153809,0.000000,3.000000,64.000000,,,,0.000000,4.000000,4.000000,4.000000,4.000000,4.000000,4.000000,4.000000,4.000000,4.000000,4.000000,4.000000,4.000000,4.000000,4.000000,100.000000,,,,,,,,,,,,,,,,,,,,,,,,,,,,
1703411421.178857,1703411421.179491,55.000000,0.000000,4233.589844,4200.128418,4273.077148,4255.000000,4195.128418,4181.410156,4213.077148,4190.256348,4187.563965,4172.436035,4569.358887,4446.794922,4373.333496,4512.692383,0.000000,3.000000,64.000000,,,,0.000000,4.000000,4.000000,4.000000,4.000000,4.000000,4.000000,4.000000,4.000000,4.000000,4.000000,4.000000,4.000000,4.000000,4.000000,100.000000,,,,,,,,,,,,,,,,,,,,,,,,,,,,
1703411421.186665,1703411421.187299,56.000000,0.000000,4232.948730,4199.358887,4280.769043,4260.128418,4189.230957,4183.333496,4212.051270,4188.461426,4189.102539,4193.205078,4570.128418,4448.717773,4376.410156,4524.358887,0.000000,3.000000,64.000000,,,,0.000000,4.000000,4.000000,4.000000,4.000000,4.000000,4.000000,4.000000,4.000000,4.000000,4.000000,4.000000,4.000000,4.000000,4.000000,100.000000,,,,,,,,,,,,,,,,,14.000000,0.000000,0.679074,0.173645,-0.657593,0.276184,0.979612,-0.113783,0.065926,-14.523974,-42.345020,66.033600
1703411421.194473,1703411421.195007,57.000000,0.000000,4242.692383,4203.077148,4288.461426,4265.000000,4187.563965,4187.307617,4217.820313,4188.717773,4189.230957,4179.743652,4573.589844,4461.025879,4381.922852,4532.563965,0.000000,3.000000,64.000000,,,,0.000000,4.000000,4.000000,4.000000,4.000000,4.000000,4.000000,4.000000,4.000000,4.000000,4.000000,4.000000,4.000000,4.000000,4.000000,100.000000,,,,,,,,,,,,,,,,,,,,,,,,,,,,
1703411421.202281,1703411421.202815,58.000000,0.000000,4250.897461,4205.128418,4290.769043,4264.230957,4189.487305,4184.743652,4218.589844,4187.948730,4180.897461,4157.051270,4569.358887,4460.256348,4378.717773,4527.307617,0.000000,3.000000,64.000000,,,,0.000000,4.000000,4.000000,4.000000,4.000000,4.000000,4.000000,4.000000,4.000000,4.000000,4.000000,4.000000,4.000000,4.000000,4.000000,100.000000,,,,,,,,,,,,,,,,,,,,,,,,,,,,
1703411421.210090,1703411421.210523,59.000000,0.000000,4237.563965,4196.666504,4285.000000,4259.230957,4184.102539,4181.922852,4214.743652,4186.025879,4171.025879,4154.487305,4568.589844,4449.871582,4373.205078,4518.333496,0.000000,3.000000,64.000000,,,,0.000000,4.000000,4.000000,4.000000,4.000000,4.000000,4.000000,4.000000,4.000000,4.000000,4.000000,4.000000,4.000000,4.000000,4.000000,100.000000,,,,,,,,,,,,,,,,,,,,,,,,,,,,
1703411421.217898,1703411421.218331,60.000000,0.000000,4218.974121,4178.589844,4276.410156,4244.102539,4180.512695,4184.615234,4215.000000,4179.358887,4169.615234,4149.615234,4569.230957,4442.563965,4371.410156,4507.307617,0.000000,3.000000,64.000000,,,,0.000000,4.000000,4.000000,4.000000,4.000000,4.000000,4.000000,4.000000,4.000000,4.000000,4.000000,4.000000,4.000000,4.000000,4.000000,100.000000,,,,,,,,,,,,,,,,,15.000000,0.000000,0.678925,0.173645,-0.657593,0.276550,0.993774,-0.111342,0.079111,-14.521577,-42.393852,66.146904
1703411421.225706,1703411421.226039,61.000000,0.000000,4220.769043,4172.051270,4273.333496,4229.615234,4186.794922,4187.948730,4217.179688,4172.692383,4173.333496,4157.436035,4569.102539,4438.846191,4374.871582,4502.563965,0.000000,3.000000,64.000000,,,,0.000000,4.000000,4.000000,4.000000,4.000000,4.000000,4.000000,4.000000,4.000000,4.000000,4.000000,4.000000,4.000000,4.000000,4.000000,100.000000,,,,,,,,,,,,,,,,,,,,,,,,,,,,
1703411421.233514,1703411421.233847,62.000000,0.000000,4232.692383,4182.179688,4279.871582,4235.897461,4188.589844,4186.282227,4216.922852,4181.410156,4183.077148,4186.025879,4582.051270,4444.358887,4385.384766,4515.512695,0.000000,3.000000,64.000000,,,,0.000000,4.000000,4.000000,4.000000,4.000000,4.000000,4.000000,4.000000,4.000000,4.000000,4.000000,4.000000,4.000000,4.000000,4.000000,100.000000,,,,,,,,,,,,,,,,,,,,,,,,,,,,
1703411421.241322,1703411421.241555,63.000000,0.000000,4241.538574,4194.743652,4291.153809,4253.205078,4190.769043,4185.384766,4217.692383,4196.025879,4194.230957,4197.948730,4602.820313,4459.358887,4402.820313,4530.897461,0.000000,3.000000,64.000000,,,,0.000000,4.000000,4.000000,4.000000,4.000000,4.000000,4.000000,4.000000,4.000000,4.000000,4.000000,4.000000,4.000000,4.000000,4.000000,100.000000,,,,,,,,,,,,,,,,,,,,,,,,,,,,
1703411421.249130,1703411421.249363,64.000000,0.000000,4243.717773,4199.871582,4296.410156,4260.769043,4200.897461,4190.384766,4220.256348,4193.974121,4192.436035,4190.512695,4608.589844,4466.153809,4413.589844,4530.256348,5065.000000,3.000000,64.000000,,,,0.000000,4.000000,4.000000,4.000000,4.000000,4.000000,4.000000,4.000000,4.000000,4.000000,4.000000,4.000000,4.000000,4.000000,4.000000,100.000000,,,,,,,,,,,,,,,,,16.000000,0.000000,0.678893,0.174133,-0.657471,0.276611,0.982542,-0.121109,0.076181,-14.436087,-42.571133,66.215546
1703411421.256938,1703411421.257071,65.000000,0.000000,4240.769043,4205.256348,4296.153809,4263.717773,4200.641113,4193.974121,4223.333496,4183.717773,4180.512695,4176.410156,4596.410156,4459.871582,4406.794922,4520.000000,5457.000000,3.000000,64.000000,,,,0.000000,4.000000,4.000000,4.000000,4.000000,4.000000,4.000000,4.000000,4.000000,4.000000,4.000000,4.000000,4.000000,4.000000,4.000000,100.000000,,,,,,,,,,,,,,,,,,,,,,,,,,,,
1703411421.264746,1703411421.264979,66.000000,0.000000,4237.436035,4210.512695,4294.102539,4271.282227,4188.974121,4187.179688,4219.487305,4184.615234,4179.615234,4170.512695,4585.641113,4453.077148,4395.000000,4516.794922,5349.000000,3.000000,64.000000,,,,0.000000,4.000000,4.000000,4.000000,4.000000,4.000000,4.000000,4.000000,4.000000,4.000000,4.000000,4.000000,4.000000,4.000000,4.000000,100.000000,,,,,,,,,,,,,,,,,,,,,,,,,,,,
1703411421.272554,1703411421.272787,67.000000,0.000000,4223.077148,4202.820313,4281.538574,4262.948730,4185.512695,4182.179688,4213.077148,4188.077148,4190.384766,4178.461426,4575.769043,4437.051270,4379.615234,4505.256348,5357.000000,3.000000,64.000000,,,,0.000000,4.000000,4.000000,4.000000,4.000000,4.000000,4.000000,4.000000,4.000000,4.000000,4.000000,4.000000,4.000000,4.000000,4.000000,100.000000,,,,,,,,,,,,,,,,,,,,,,,,,,,,
1703411421.280362,1703411421.280695,68.000000,0.000000,4204.743652,4191.410156,4271.410156,4247.820313,4187.948730,4183.589844,4216.153809,4184.230957,4187.307617,4174.102539,4564.102539,4425.769043,4367.051270,4484.102539,5116.000000,3.000000,64.000000,,,,0.000000,4.000000,4.000000,4.000000,4.000000,4.000000,4.000000,4.000000,4.000000,4.000000,4.000000,4.000000,4.000000,4.000000,4.000000,100.000000,,,,,,,,,,,,,,,,,17.000000,0.000000,0.678920,0.174683,-0.657349,0.276489,0.973263,-0.128922,0.076670,-14.259144,-42.497353,66.127327
1703411421.288170,1703411421.288503,69.000000,0.000000,4209.615234,4198.717773,4280.641113,4253.846191,4187.820313,4177.948730,4219.743652,4179.615234,4172.307617,4158.077148,4563.205078,4438.974121,4374.102539,4486.666504,4133.000000,3.000000,64.000000,,,,0.000000,4.000000,4.000000,4.000000,4.000000,4.000000,4.000000,4.000000,4.000000,4.000000,4.000000,4.000000,4.000000,4.000000,4.000000,100.000000,,,,,,,,,,,,,,,,,,,,,,,,,,,,
1703411421.295978,1703411421.296411,70.000000,0.000000,4219.743652,4207.563965,4284.743652,4259.487305,4189.615234,4175.128418,4217.948730,4183.461426,4173.205078,4161.794922,4569.615234,4444.358887,4380.128418,4501.666504,2830.000000,3.000000,64.000000,,,,0.000000,4.000000,4.000000,4.000000,4.000000,4.000000,4.000000,4.000000,4.000000,4.000000,4.000000,4.000000,4.000000,4.000000,4.000000,100.000000,,,,,,,,,,,,,,,,,,,,,,,,,,,,
1703411421.303786,1703411421.304219,71.000000,0.000000,4205.128418,4195.000000,4275.128418,4248.974121,4189.871582,4184.487305,4217.820313,4186.282227,4183.717773,4171.025879,4570.000000,4431.922852,4368.846191,4494.615234,4986.000000,3.000000,64.000000,,,,0.000000,4.000000,4.000000,4.000000,4.000000,4.000000,4.000000,4.000000,4.000000,4.000000,4.000000,4.000000,4.000000,4.000000,4.000000,100.000000,,,,,,,,,,,,,,,,,,,,,,,,,,,,
1703411421.311594,1703411421.312127,72.000000,0.000000,4201.794922,4190.769043,4276.794922,4247.051270,4191.410156,4186.794922,4218.589844,4185.000000,4188.846191,4172.307617,4577.436035,4434.487305,4375.128418,4490.256348,4220.000000,3.000000,64.000000,,,,0.000000,4.000000,4.000000,4.000000,4.000000,4.000000,4.000000,4.000000,4.000000,4.000000,4.000000,4.000000,4.000000,4.000000,4.000000,100.000000,,,,,,,,,,,,,,,,,18.000000,0.000000,0.678950,0.174988,-0.657288,0.276367,0.991820,-0.116225,0.076670,-14.133230,-42.730949,66.131264
1703411421.319402,1703411421.319935,73.000000,0.000000,4218.589844,4199.615234,4284.230957,4252.820313,4196.794922,4181.025879,4218.461426,4192.307617,4196.538574,4198.077148,4598.205078,4453.974121,4398.589844,4506.538574,5257.000000,3.000000,64.000000,,,,0.000000,4.000000,4.000000,4.000000,4.000000,4.000000,4.000000,4.000000,4.000000,4.000000,4.000000,4.000000,4.000000,4.000000,4.000000,100.000000,,,,,,,,,,,,,,,,,,,,,,,,,,,,
1703411421.327210,1703411421.327843,74.000000,0.000000,4214.615234,4191.666504,4278.974121,4246.922852,4191.666504,4184.230957,4220.641113,4203.333496,4204.743652,4213.717773,4607.179688,4457.820313,4401.282227,4507.307617,5965.000000,3.000000,64.000000,,,,0.000000,4.000000,4.000000,4.000000,4.000000,4.000000,4.000000,4.000000,4.000000,4.000000,4.000000,4.000000,4.000000,4.000000,4.000000,100.000000,1.000000,91.666664,4.000000,4.000000,4.000000,4.000000,4.000000,4.000000,4.000000,4.000000,4.000000,3.000000,4.000000,4.000000,4.000000,4.000000,,,,,,,,,,,,
1703411421.335018,1703411421.335651,75.000000,0.000000,4198.205078,4178.205078,4274.871582,4242.948730,4185.641113,4187.307617,4220.512695,4203.846191,4203.974121,4198.461426,4601.922852,4448.717773,4397.563965,4495.769043,6132.000000,3.000000,64.000000,,,,0.000000,4.000000,4.000000,4.000000,4.000000,4.000000,4.000000,4.000000,4.000000,4.000000,4.000000,4.000000,4.000000,4.000000,4.000000,100.000000,,,,,,,,,,,,,,,,,,,,,,,,,,,,
1703411421.342826,1703411421.343559,76.000000,0.000000,4200.256348,4183.077148,4281.025879,4248.333496,4192.307617,4180.384766,4217.179688,4201.794922,4202.692383,4206.666504,4602.948730,4448.205078,4406.153809,4497.051270,6618.000000,3.000000,64.000000,,,,0.000000,4.000000,4.000000,4.000000,4.000000,4.000000,4.000000,4.000000,4.000000,4.000000,4.000000,4.000000,4.000000,4.000000,4.000000,100.000000,,,,,,,,,,,,,,,,,19.000000,0.000000,0.679059,0.175049,-0.657288,0.276062,0.989867,-0.123550,0.063973,-14.203240,-42.641190,66.218132
1703411421.350634,1703411421.351367,77.000000,0.000000,4201.153809,4188.205078,4278.205078,4249.230957,4191.153809,4173.974121,4216.538574,4197.179688,4198.461426,4218.589844,4603.461426,4447.563965,4404.230957,4496.538574,6963.000000,3.000000,64.000000,,,,0.000000,4.000000,4.000000,4.000000,4.000000,4.000000,4.000000,4.000000,4.000000,4.000000,4.000000,4.000000,4.000000,4.000000,4.000000,100.000000,,,,,,,,,,,,,,,,,,,,,,,,,,,,
1703411421.358442,1703411421.359075,78.000000,0.000000,4188.205078,4181.794922,4267.436035,4245.897461,4186.153809,4172.692383,4216.538574,4186.153809,4189.230957,4185.769043,4585.512695,4438.077148,4387.307617,4488.846191,5965.000000,3.000000,64.000000,,,,0.000000,4.000000,4.000000,4.000000,4.000000,4.000000,4.000000,4.000000,4.000000,4.000000,4.000000,4.000000,4.000000,4.000000,4.000000,100.000000,,,,,,,,,,,,,,,,,,,,,,,,,,,,
1703411421.366250,1703411421.366883,79.000000,0.000000,4188.846191,4187.436035,4269.615234,4251.922852,4198.717773,4175.384766,4214.230957,4181.538574,4185.384766,4154.102539,4568.589844,4432.051270,4378.205078,4488.077148,6132.000000,3.000000,64.000000,,,,0.000000,4.000000,4.000000,4.000000,4.000000,4.000000,4.000000,4.000000,4.000000,4.000000,4.000000,4.000000,4.000000,4.000000,4.000000,100.000000,,,,,,,,,,,,,,,,,,,,,,,,,,,,
1703411421.374059,1703411421.374591,80.000000,0.000000,4202.563965,4200.512695,4280.256348,4265.256348,4207.179688,4178.717773,4218.205078,4186.922852,4185.256348,4170.384766,4573.974121,4440.512695,4381.410156,4491.794922,6618.000000,3.000000,64.000000,,,,0.000000,4.000000,4.000000,4.000000,4.000000,4.000000,4.000000,4.000000,4.000000,4.000000,4.000000,4.000000,4.000000,4.000000,4.000000,100.000000,,,,,,,,,,,,,,,,,20.000000,0.000000,0.678972,0.174988,-0.657471,0.275879,0.987914,-0.116225,0.080576,-14.416249,-42.627071,66.112991
1703411421.381867,1703411421.382499,81.000000,0.000000,4210.256348,4203.461426,4288.205078,4267.051270,4200.384766,4183.589844,4224.871582,4192.692383,4191.410156,4188.077148,4584.487305,4454.743652,4384.487305,4495.384766,6963.000000,3.000000,64.000000,,,,0.000000,4.000000,4.000000,4.000000,4.000000,4.000000,4.000000,4.000000,4.000000,4.000000,4.000000,4.000000,4.000000,4.000000,4.000000,100.000000,,,,,,,,,,,,,,,,,,,,,,,,,,,,
1703411421.389675,1703411421.390307,82.000000,0.000000,4216.282227,4202.692383,4290.897461,4261.538574,4198.333496,4185.384766,4222.563965,4191.153809,4202.692383,4186.025879,4586.666504,4458.846191,4384.615234,4498.974121,5965.000000,3.000000,64.000000,,,,0.000000,4.000000,4.000000,4.000000,4.000000,4.000000,4.000000,4.000000,4.000000,4.000000,4.000000,4.000000,4.000000,4.000000,4.000000,100.000000,,,,,,,,,,,,,,,,,,,,,,,,,,,,
1703411421.397483,1703411421.398215,83.000000,0.000000,4218.077148,4204.230957,4286.153809,4264.102539,4198.846191,4181.538574,4222.692383,4176.666504,4196.410156,4196.410156,4581.410156,4449.102539,4383.333496,4497.179688,6132.000000,3.000000,64.000000,,,,0.000000,4.000000,4.000000,4.000000,4.000000,4.000000,4.000000,4.000000,4.000000,4.000000,4.000000,4.000000,4.000000,4.000000,4.000000,100.000000,,,,,,,,,,,,,,,,,,,,,,,,,,,,
1703411421.405291,1703411421.406024,84.000000,0.000000,4207.820313,4202.692383,4279.871582,4263.974121,4195.384766,4182.436035,4228.333496,4163.974121,4183.589844,4197.948730,4571.410156,4437.563965,4378.461426,4491.794922,6618.000000,3.000000,64.000000,,,,0.000000,4.000000,4.000000,4.000000,4.000000,4.000000,4.000000,4.000000,4.000000,4.000000,4.000000,4.000000,4.000000,4.000000,4.000000,100.000000,,,,,,,,,,,,,,,,,21.000000,0.000000,0.678993,0.174866,-0.657532,0.275757,0.991820,-0.115248,0.060066,-14.474625,-42.697697,66.218353
1703411421.413099,1703411421.413932,85.000000,0.000000,4199.871582,4197.948730,4279.358887,4252.563965,4193.846191,4187.948730,4229.102539,4174.615234,4192.692383,4190.000000,4573.589844,4441.282227,4381.666504,4491.794922,6963.000000,3.000000,64.000000,,,,0.000000,4.000000,4.000000,4.000000,4.000000,4.000000,4.000000,4.000000,4.000000,4.000000,4.000000,4.000000,4.000000,4.000000,4.000000,100.000000,,,,,,,,,,,,,,,,,,,,,,,,,,,,
1703411421.420907,1703411421.421740,86.000000,0.000000,4202.179688,4190.641113,4278.589844,4244.743652,4192.436035,4189.358887,4228.333496,4192.948730,4205.769043,4205.128418,4592.051270,4453.589844,4395.384766,4494.102539,5965.000000,3.000000,64.000000,,,,0.000000,4.000000,4.000000,4.000000,4.000000,4.000000,4.000000,4.000000,4.000000,4.000000,4.000000,4.000000,4.000000,4.000000,4.000000,100.000000,,,,,,,,,,,,,,,,,,,,,,,,,,,,
1703411421.428715,1703411421.429548,87.000000,0.000000,4201.666504,4183.461426,4275.512695,4247.051270,4196.025879,4187.948730,4232.179688,4199.743652,4203.974121,4209.743652,4604.487305,4457.179688,4401.666504,4493.077148,6132.000000,3.000000,64.000000,,,,0.000000,4.000000,4.000000,4.000000,4.000000,4.000000,4.000000,4.000000,4.000000,4.000000,4.000000,4.000000,4.000000,4.000000,4.000000,100.000000,,,,,,,,,,,,,,,,,,,,,,,,,,,,
1703411421.436523,1703411421.437256,88.000000,0.000000,4198.461426,4185.128418,4277.692383,4248.205078,4202.563965,4186.025879,4232.307617,4197.436035,4201.922852,4193.205078,4600.641113,4451.922852,4396.410156,4491.410156,6618.000000,3.000000,64.000000,,,,0.000000,4.000000,4.000000,4.000000,4.000000,4.000000,4.000000,4.000000,4.000000,4.000000,4.000000,4.000000,4.000000,4.000000,4.000000,100.000000,,,,,,,,,,,,,,,,,22.000000,0.000000,0.678866,0.174866,-0.657715,0.275635,0.997680,-0.119155,0.072763,-14.527163,-42.844593,66.279854
1703411421.444331,1703411421.445064,89.000000,0.000000,4199.487305,4189.230957,4281.794922,4247.436035,4198.717773,4184.487305,4225.769043,4190.128418,4202.051270,4200.769043,4591.410156,4447.179688,4389.102539,4491.922852,6963.000000,3.000000,64.000000,,,,0.000000,4.000000,4.000000,4.000000,4.000000,4.000000,4.000000,4.000000,4.000000,4.000000,4.000000,4.000000,4.000000,4.000000,4.000000,100.000000,,,,,,,,,,,,,,,,,,,,,,,,,,,,
1703411421.452139,1703411421.452772,90.000000,0.000000,4206.538574,4187.179688,4284.615234,4253.846191,4194.871582,4183.077148,4221.410156,4186.794922,4200.512695,4223.333496,4587.179688,4449.871582,4388.077148,4493.717773,5965.000000,3.000000,64.000000,,,,0.000000,4.000000,4.000000,4.000000,4.000000,4.000000,4.000000,4.000000,4.000000,4.000000,4.000000,4.000000,4.000000,4.000000,4.000000,100.000000,,,,,,,,,,,,,,,,,,,,,,,,,,,,
1703411421.459947,1703411421.460580,91.000000,0.000000,4208.205078,4184.358887,4283.846191,4258.077148,4196.410156,4180.512695,4220.641113,4188.974121,4202.051270,4225.897461,4588.205078,4449.615234,4390.000000,4492.436035,6132.000000,3.000000,64.000000,,,,0.000000,4.000000,4.000000,4.000000,4.000000,4.000000,4.000000,4.000000,4.000000,4.000000,4.000000,4.000000,4.000000,4.000000,4.000000,100.000000,,,,,,,,,,,,,,,,,,,,,,,,,,,,
1703411421.467755,1703411421.468288,92.000000,0.000000,4202.051270,4184.358887,4278.717773,4251.410156,4195.384766,4179.358887,4219.487305,4186.025879,4198.461426,4214.487305,4587.948730,4442.436035,4387.307617,4489.358887,6618.000000,3.000000,64.000000,,,,0.000000,4.000000,4.000000,4.000000,4.000000,4.000000,4.000000,4.000000,4.000000,4.000000,4.000000,4.000000,4.000000,4.000000,4.000000,100.000000,,,,,,,,,,,,,,,,,23.000000,0.000000,0.678685,0.175049,-0.657776,0.275818,0.975217,-0.116713,0.070321,-14.591112,-42.793468,66.301865
1703411421.475563,1703411421.476196,93.000000,0.000000,4197.179688,4184.487305,4276.794922,4244.615234,4196.025879,4181.410156,4218.205078,4174.230957,4189.230957,4194.487305,4577.948730,4439.743652,4380.256348,4488.846191,6963.000000,3.000000,64.000000,,,,0.000000,4.000000,4.000000,4.000000,4.000000,4.000000,4.000000,4.000000,4.000000,4.000000,4.000000,4.000000,4.000000,4.000000,4.000000,100.000000,,,,,,,,,,,,,,,,,,,,,,,,,,,,
1703411421.483371,1703411421.484004,94.000000,0.000000,4199.743652,4186.282227,4279.487305,4245.512695,4198.717773,4184.230957,4223.077148,4168.717773,4185.641113,4182.692383,4567.563965,4443.589844,4377.563965,4491.282227,5965.000000,3.000000,64.000000,,,,0.000000,4.000000,4.000000,4.000000,4.000000,4.000000,4.000000,4.000000,4.000000,4.000000,4.000000,4.000000,4.000000,4.000000,4.000000,100.000000,,,,,,,,,,,,,,,,,,,,,,,,,,,,
1703411421.491179,1703411421.491912,95.000000,0.000000,4207.563965,4192.436035,4281.153809,4248.846191,4198.974121,4186.153809,4227.051270,4176.794922,4185.384766,4191.153809,4571.794922,4444.487305,4384.487305,4492.692383,6132.000000,3.000000,64.000000,,,,0.000000,4.000000,4.000000,4.000000,4.000000,4.000000,4.000000,4.000000,4.000000,4.000000,4.000000,4.000000,4.000000,4.000000,4.000000,100.000000,,,,,,,,,,,,,,,,,,,,,,,,,,,,
1703411421.498987,1703411421.499720,96.000000,0.000000,4214.743652,4196.282227,4288.589844,4248.589844,4196.794922,4184.230957,4226.153809,4186.282227,4191.794922,4199.487305,4584.743652,4445.000000,4392.307617,4497.820313,6618.000000,3.000000,64.000000,,,,0.000000,4.000000,4.000000,4.000000,4.000000,4.000000,4.000000,4.000000,4.000000,4.000000,4.000000,4.000000,4.000000,4.000000,4.000000,100.000000,,,,,,,,,,,,,,,,,24.000000,0.000000,0.678538,0.175232,-0.657776,0.276062,0.980588,-0.123062,0.070809,-14.715335,-42.880787,66.305016
1703411421.506795,1703411421.507628,97.000000,0.000000,4217.436035,4197.436035,4293.846191,4250.128418,4192.563965,4181.666504,4225.000000,4189.102539,4203.077148,4198.077148,4589.230957,4455.000000,4397.948730,4507.948730,6963.000000,3.000000,64.000000,,,,0.000000,4.000000,4.000000,4.000000,4.000000,4.000000,4.000000,4.000000,4.000000,4.000000,4.000000,4.000000,4.000000,4.000000,4.000000,100.000000,,,,,,,,,,,,,,,,,,,,,,,,,,,,
1703411421.514604,1703411421.515436,98.000000,0.000000,4216.666504,4200.769043,4286.410156,4256.538574,4184.871582,4182.692383,4222.563965,4186.794922,4203.205078,4188.846191,4585.769043,4458.077148,4397.820313,4511.025879,5965.000000,3.000000,64.000000,,,,0.000000,4.000000,4.000000,4.000000,4.000000,4.000000,4.000000,4.000000,4.000000,4.000000,4.000000,4.000000,4.000000,4.000000,4.000000,100.000000,,,,,,,,,,,,,,,,,,,,,,,,,,,,
1703411421.522411,1703411421.523344,99.000000,0.000000,4217.692383,4198.589844,4285.000000,4261.282227,4183.205078,4181.666504,4217.051270,4185.384766,4198.077148,4186.666504,4584.743652,4449.487305,4390.897461,4506.922852,6132.000000,3.000000,64.000000,,,,0.000000,4.000000,4.000000,4.000000,4.000000,4.000000,4.000000,4.000000,4.000000,4.000000,4.000000,4.000000,4.000000,4.000000,4.000000,100.000000,,,,,,,,,,,,,,,,,,,,,,,,,,,,
1703411421.530219,1703411421.531152,100.000000,0.000000,4218.205078,4190.897461,4291.410156,4256.794922,4185.000000,4179.871582,4218.846191,4186.794922,4200.897461,4204.743652,4584.230957,4445.641113,4388.846191,4502.820313,6618.000000,3.000000,64.000000,,,,0.000000,4.000000,4.000000,4.000000,4.000000,4.000000,4.000000,4.000000,4.000000,4.000000,4.000000,4.000000,4.000000,4.000000,4.000000,100.000000,,,,,,,,,,,,,,,,,25.000000,0.000000,0.678467,0.175354,-0.657715,0.276306,0.984984,-0.127457,0.076670,-14.660468,-42.876041,66.307846
1703411421.538028,1703411421.538860,101.000000,0.000000,4215.128418,4189.487305,4289.358887,4250.128418,4185.000000,4182.692383,4225.384766,4186.153809,4202.436035,4215.897461,4586.025879,4449.230957,4394.743652,4498.461426,6963.000000,3.000000,64.000000,,,,0.000000,4.000000,4.000000,4.000000,4.000000,4.000000,4.000000,4.000000,4.000000,4.000000,4.000000,4.000000,4.000000,4.000000,4.000000,100.000000,,,,,,,,,,,,,,,,,,,,,,,,,,,,
1703411421.545836,1703411421.546668,102.000000,0.000000,4214.102539,4188.333496,4281.922852,4247.563965,4191.538574,4183.077148,4222.179688,4183.974121,4197.307617,4203.589844,4588.333496,4454.615234,4391.794922,4491.410156,5965.000000,3.000000,64.000000,,,,0.000000,4.000000,4.000000,4.000000,4.000000,4.000000,4.000000,4.000000,4.000000,4.000000,4.000000,4.000000,4.000000,4.000000,4.000000,100.000000,,,,,,,,,,,,,,,,,,,,,,,,,,,,
1703411421.553644,1703411421.554376,103.000000,0.000000,4213.205078,4183.077148,4280.000000,4248.077148,4196.282227,4181.794922,4218.077148,4181.794922,4188.589844,4189.102539,4586.666504,4457.948730,4382.051270,4488.717773,6132.000000,3.000000,64.000000,,,,0.000000,4.000000,4.000000,4.000000,4.000000,4.000000,4.000000,4.000000,4.000000,4.000000,4.000000,4.000000,4.000000,4.000000,4.000000,100.000000,,,,,,,,,,,,,,,,,,,,,,,,,,,,
1703411421.561452,1703411421.562184,104.000000,0.000000,4214.871582,4183.077148,4285.128418,4249.743652,4191.538574,4183.846191,4224.358887,4182.179688,4183.846191,4186.153809,4591.794922,4459.615234,4390.512695,4498.077148,6618.000000,3.000000,64.000000,,,,0.000000,4.000000,4.000000,4.000000,4.000000,4.000000,4.000000,4.000000,4.000000,4.000000,4.000000,4.000000,4.000000,4.000000,4.000000,100.000000,,,,,,,,,,,,,,,,,26.000000,0.000000,0.678516,0.175354,-0.657715,0.276184,0.984495,-0.118178,0.070809,-14.494421,-43.021770,66.377060
1703411421.569260,1703411421.569892,105.000000,0.000000,4218.717773,4183.717773,4295.512695,4250.384766,4186.538574,4182.051270,4226.282227,4189.102539,4191.410156,4190.384766,4602.307617,4462.179688,4404.230957,4508.205078,6963.000000,3.000000,64.000000,,,,0.000000,4.000000,4.000000,4.000000,4.000000,4.000000,4.000000,4.000000,4.000000,4.000000,4.000000,4.000000,4.000000,4.000000,4.000000,100.000000,,,,,,,,,,,,,,,,,,,,,,,,,,,,
1703411421.577068,1703411421.577700,106.000000,0.000000,4220.384766,4185.897461,4298.846191,4253.461426,4188.717773,4178.974121,4220.897461,4200.384766,4204.615234,4210.128418,4599.487305,4465.384766,4401.025879,4507.563965,5965.000000,3.000000,64.000000,,,,0.000000,4.000000,4.000000,4.000000,4.000000,4.000000,4.000000,4.000000,4.000000,4.000000,4.000000,4.000000,4.000000,4.000000,4.000000,100.000000,,,,,,,,,,,,,,,,,,,,,,,,,,,,
1703411421.584876,1703411421.585408,107.000000,0.000000,4221.666504,4198.077148,4296.794922,4260.897461,4191.922852,4180.256348,4220.769043,4201.410156,4206.794922,4223.205078,4590.512695,4468.205078,4397.179688,4507.820313,6132.000000,3.000000,64.000000,,,,0.000000,4.000000,4.000000,4.000000,4.000000,4.000000,4.000000,4.000000,4.000000,4.000000,4.000000,4.000000,4.000000,4.000000,4.000000,100.000000,,,,,,,,,,,,,,,,,,,,,,,,,,,,
1703411421.592684,1703411421.593216,108.000000,0.000000,4218.589844,4202.051270,4297.436035,4260.897461,4189.615234,4182.820313,4225.128418,4191.153809,4197.692383,4200.769043,4587.307617,4465.641113,4393.846191,4505.897461,6618.000000,3.000000,64.000000,,,,0.000000,4.000000,4.000000,4.000000,4.000000,4.000000,4.000000,4.000000,4.000000,4.000000,4.000000,4.000000,4.000000,4.000000,4.000000,100.000000,,,,,,,,,,,,,,,,,27.000000,0.000000,0.678620,0.175049,-0.657715,0.276123,0.977170,-0.107435,0.067879,-14.478312,-43.119595,66.356026
1703411421.600492,1703411421.600924,109.000000,0.000000,4208.846191,4187.820313,4293.461426,4253.461426,4185.769043,4185.384766,4224.358887,4187.436035,4197.179688,4177.948730,4577.051270,4453.205078,4377.948730,4489.102539,6963.000000,3.000000,64.000000,,,,0.000000,4.000000,4.000000,4.000000,4.000000,4.000000,4.000000,4.000000,4.000000,4.000000,4.000000,4.000000,4.000000,4.000000,4.000000,100.000000,,,,,,,,,,,,,,,,,,,,,,,,,,,,
1703411421.608300,1703411421.608732,110.000000,0.000000,4208.589844,4183.846191,4292.820313,4252.051270,4186.282227,4180.897461,4220.256348,4190.000000,4199.871582,4189.358887,4565.128418,4443.589844,4364.358887,4478.589844,5965.000000,3.000000,64.000000,,,,0.000000,4.000000,4.000000,4.000000,4.000000,4.000000,4.000000,4.000000,4.000000,4.000000,4.000000,4.000000,4.000000,4.000000,4.000000,100.000000,,,,,,,,,,,,,,,,,,,,,,,,,,,,
1703411421.616108,1703411421.616440,111.000000,0.000000,4212.436035,4190.512695,4295.512695,4254.358887,4185.384766,4173.333496,4215.897461,4183.205078,4187.692383,4189.743652,4561.922852,4441.666504,4361.538574,4477.436035,6132.000000,3.000000,64.000000,,,,0.000000,4.000000,4.000000,4.000000,4.000000,4.000000,4.000000,4.000000,4.000000,4.000000,4.000000,4.000000,4.000000,4.000000,4.000000,100.000000,,,,,,,,,,,,,,,,,,,,,,,,,,,,
1703411421.623916,1703411421.624248,112.000000,0.000000,4202.307617,4188.589844,4290.384766,4247.692383,4179.102539,4175.897461,4216.025879,4177.563965,4185.769043,4168.077148,4563.461426,4436.410156,4362.692383,4466.282227,6618.000000,3.000000,64.000000,,,,0.000000,4.000000,4.000000,4.000000,4.000000,4.000000,4.000000,4.000000,4.000000,4.000000,4.000000,4.000000,4.000000,4.000000,4.000000,100.000000,,,,,,,,,,,,,,,,,28.000000,0.000000,0.678633,0.174866,-0.657776,0.276062,0.986449,-0.109877,0.055183,-14.513814,-43.074303,66.337090
1703411421.631724,1703411421.631956,113.000000,0.000000,4199.487305,4192.051270,4289.615234,4243.974121,4188.333496,4183.974121,4220.256348,4183.717773,4197.820313,4178.077148,4572.563965,4437.307617,4370.897461,4465.897461,6963.000000,3.000000,64.000000,,,,0.000000,4.000000,4.000000,4.000000,4.000000,4.000000,4.000000,4.000000,4.000000,4.000000,4.000000,4.000000,4.000000,4.000000,4.000000,100.000000,,,,,,,,,,,,,,,,,,,,,,,,,,,,
1703411421.639532,1703411421.639764,114.000000,0.000000,4216.538574,4201.153809,4300.384766,4257.436035,4203.333496,4186.282227,4220.000000,4187.692383,4191.666504,4203.077148,4585.256348,4453.974121,4380.769043,4488.333496,5965.000000,3.000000,64.000000,,,,0.000000,4.000000,4.000000,4.000000,4.000000,4.000000,4.000000,4.000000,4.000000,4.000000,4.000000,4.000000,4.000000,4.000000,4.000000,100.000000,,,,,,,,,,,,,,,,,,,,,,,,,,,,
1703411421.647340,1703411421.647472,115.000000,0.000000,4220.384766,4193.846191,4300.512695,4265.000000,4195.256348,4180.897461,4217.051270,4184.102539,4185.512695,4205.641113,4587.692383,4463.333496,4386.153809,4498.974121,6132.000000,3.000000,64.000000,,,,0.000000,4.000000,4.000000,4.000000,4.000000,4.000000,4.000000,4.000000,4.000000,4.000000,4.000000,4.000000,4.000000,4.000000,4.000000,100.000000,,,,,,,,,,,,,,,,,,,,,,,,,,,,
1703411421.655148,1703411421.655380,116.000000,0.000000,4212.051270,4181.794922,4293.589844,4254.358887,4189.871582,4175.641113,4217.051270,4184.743652,4195.769043,4193.974121,4584.102539,4463.589844,4392.051270,4489.230957,6618.000000,3.000000,64.000000,,,,0.000000,4.000000,4.000000,4.000000,4.000000,4.000000,4.000000,4.000000,4.000000,4.000000,4.000000,4.000000,4.000000,4.000000,4.000000,100.000000,,,,,,,,,,,,,,,,,29.000000,0.000000,0.678564,0.174866,-0.657898,0.275940,0.996704,-0.110853,0.063484,-14.629100,-43.083538,66.153381
1703411421.662956,1703411421.663188,117.000000,0.000000,4221.153809,4185.641113,4303.077148,4249.487305,4196.794922,4179.358887,4217.948730,4189.102539,4195.384766,4189.102539,4595.256348,4470.641113,4402.436035,4495.256348,6963.000000,3.000000,64.000000,,,,0.000000,4.000000,4.000000,4.000000,4.000000,4.000000,4.000000,4.000000,4.000000,4.000000,4.000000,4.000000,4.000000,4.000000,4.000000,100.000000,,,,,,,,,,,,,,,,,,,,,,,,,,,,
1703411421.670764,1703411421.671096,118.000000,0.000000,4230.128418,4187.820313,4312.179688,4251.153809,4191.282227,4182.563965,4217.563965,4187.820313,4192.563965,4198.589844,4604.615234,4471.922852,4408.846191,4507.563965,5965.000000,3.000000,64.000000,,,,0.000000,4.000000,4.000000,4.000000,4.000000,4.000000,4.000000,4.000000,4.000000,4.000000,4.000000,4.000000,4.000000,4.000000,4.000000,100.000000,,,,,,,,,,,,,,,,,,,,,,,,,,,,
1703411421.678573,1703411421.678904,119.000000,0.000000,4220.384766,4182.307617,4306.538574,4250.512695,4184.487305,4175.641113,4214.871582,4184.358887,4200.769043,4198.333496,4595.128418,4461.282227,4401.153809,4499.487305,6132.000000,3.000000,64.000000,,,,0.000000,4.000000,4.000000,4.000000,4.000000,4.000000,4.000000,4.000000,4.000000,4.000000,4.000000,4.000000,4.000000,4.000000,4.000000,100.000000,,,,,,,,,,,,,,,,,,,,,,,,,,,,
1703411421.686381,1703411421.686812,120.000000,0.000000,4213.589844,4184.102539,4301.410156,4255.000000,4189.102539,4174.230957,4215.000000,4183.846191,4198.846191,4188.461426,4583.461426,4452.051270,4389.871582,4488.974121,6618.000000,3.000000,64.000000,,,,0.000000,4.000000,4.000000,4.000000,4.000000,4.000000,4.000000,4.000000,4.000000,4.000000,4.000000,4.000000,4.000000,4.000000,4.000000,100.000000,,,,,,,,,,,,,,,,,30.000000,0.000000,0.678582,0.175293,-0.657715,0.276062,0.984495,-0.103528,0.062508,-14.749523,-42.975185,66.054710
1703411421.694188,1703411421.694620,121.000000,0.000000,4218.333496,4185.897461,4305.000000,4260.512695,4189.615234,4182.307617,4218.974121,4188.589844,4196.666504,4194.358887,4586.153809,4454.487305,4392.948730,4492.051270,6963.000000,3.000000,64.000000,,,,0.000000,4.000000,4.000000,4.000000,4.000000,4.000000,4.000000,4.000000,4.000000,4.000000,4.000000,4.000000,4.000000,4.000000,4.000000,100.000000,,,,,,,,,,,,,,,,,,,,,,,,,,,,
1703411421.701997,1703411421.702528,122.000000,0.000000,4220.897461,4185.256348,4308.846191,4258.974121,4191.025879,4184.358887,4222.179688,4189.102539,4200.512695,4210.000000,4589.615234,4455.384766,4397.436035,4492.692383,5965.000000,3.000000,64.000000,,,,0.000000,4.000000,4.000000,4.000000,4.000000,4.000000,4.000000,4.000000,4.000000,4.000000,4.000000,4.000000,4.000000,4.000000,4.000000,100.000000,,,,,,,,,,,,,,,,,,,,,,,,,,,,
1703411421.709805,1703411421.710336,123.000000,0.000000,4217.563965,4193.333496,4305.897461,4263.333496,4201.794922,4183.846191,4222.563965,4182.820313,4192.563965,4204.615234,4580.000000,4450.897461,4384.871582,4490.256348,6132.000000,3.000000,64.000000,,,,0.000000,4.000000,4.000000,4.000000,4.000000,4.000000,4.000000,4.000000,4.000000,4.000000,4.000000,4.000000,4.000000,4.000000,4.000000,100.000000,,,,,,,,,,,,,,,,,,,,,,,,,,,,
1703411421.717613,1703411421.718244,124.000000,0.000000,4210.769043,4199.743652,4298.077148,4265.256348,4203.717773,4187.820313,4221.538574,4182.692383,4185.256348,4184.871582,4569.871582,4449.487305,4369.743652,4487.820313,6618.000000,3.000000,64.000000,,,,0.000000,4.000000,4.000000,4.000000,4.000000,4.000000,4.000000,4.000000,4.000000,4.000000,4.000000,4.000000,4.000000,4.000000,4.000000,100.000000,,,,,,,,,,,,,,,,,31.000000,0.000000,0.678618,0.175720,-0.657410,0.276428,0.984007,-0.117202,0.074716,-14.724570,-42.960999,65.915901
1703411421.725421,1703411421.726052,125.000000,0.000000,4203.717773,4193.846191,4291.282227,4262.436035,4198.974121,4182.820313,4219.230957,4179.487305,4181.794922,4166.794922,4565.641113,4447.051270,4367.692383,4474.871582,6963.000000,3.000000,64.000000,,,,0.000000,4.000000,4.000000,4.000000,4.000000,4.000000,4.000000,4.000000,4.000000,4.000000,4.000000,4.000000,4.000000,4.000000,4.000000,100.000000,,,,,,,,,,,,,,,,,,,,,,,,,,,,
1703411421.733229,1703411421.733760,126.000000,0.000000,4210.128418,4197.051270,4295.897461,4273.589844,4200.897461,4172.179688,4217.820313,4175.512695,4183.974121,4167.820313,4576.666504,4451.922852,4381.410156,4476.794922,5965.000000,3.000000,64.000000,,,,0.000000,4.000000,4.000000,4.000000,4.000000,4.000000,4.000000,4.000000,4.000000,4.000000,4.000000,4.000000,4.000000,4.000000,4.000000,100.000000,,,,,,,,,,,,,,,,,,,,,,,,,,,,
1703411421.741037,1703411421.741568,127.000000,0.000000,4227.436035,4213.974121,4307.307617,4280.000000,4205.256348,4169.230957,4217.948730,4187.563965,4200.384766,4202.051270,4595.769043,4468.333496,4400.512695,4503.205078,64.000000,3.000000,64.000000,,,,0.000000,4.000000,4.000000,4.000000,4.000000,4.000000,4.000000,4.000000,4.000000,4.000000,4.000000,4.000000,4.000000,4.000000,4.000000,100.000000,,,,,,,,,,,,,,,,,,,,,,,,,,,,
1703411421.748845,1703411421.749276,0.000000,0.000000,4233.589844,4218.589844,4310.512695,4266.794922,4202.948730,4172.051270,4218.333496,4198.717773,4206.666504,4220.128418,4601.922852,4475.641113,4406.666504,4511.922852,5058.000000,3.000000,64.000000,,,,0.000000,4.000000,4.000000,4.000000,4.000000,4.000000,4.000000,4.000000,4.000000,4.000000,4.000000,4.000000,4.000000,4.000000,4.000000,100.000000,,,,,,,,,,,,,,,,,0.000000,0.000000,0.678753,0.175537,-0.657166,0.276794,0.985960,-0.133805,0.073739,-14.802114,-43.164898,65.840981
1703411421.756653,1703411421.757084,1.000000,0.000000,4231.666504,4213.461426,4314.102539,4264.487305,4199.487305,4171.025879,4218.589844,4196.794922,4195.256348,4216.538574,4608.589844,4475.769043,4411.153809,4508.333496,5457.000000,3.000000,64.000000,,,,0.000000,4.000000,4.000000,4.000000,4.000000,4.000000,4.000000,4.000000,4.000000,4.000000,4.000000,4.000000,4.000000,4.000000,4.000000,100.000000,,,,,,,,,,,,,,,,,,,,,,,,,,,,
1703411421.764461,1703411421.764792,2.000000,0.000000,4236.153809,4212.307617,4322.051270,4276.410156,4202.436035,4169.743652,4218.077148,4201.538574,4201.538574,4227.563965,4623.589844,4487.563965,4420.128418,4517.436035,5347.000000,3.000000,64.000000,,,,0.000000,4.000000,4.000000,4.000000,4.000000,4.000000,4.000000,4.000000,4.000000,4.000000,4.000000,4.000000,4.000000,4.000000,4.000000,100.000000,,,,,,,,,,,,,,,,,,,,,,,,,,,,
1703411421.772269,1703411421.772700,3.000000,0.000000,4232.692383,4197.820313,4319.230957,4268.717773,4201.153809,4174.487305,4217.692383,4202.307617,4206.410156,4222.820313,4615.897461,4487.051270,4412.692383,4517.307617,5364.000000,3.000000,64.000000,,,,0.000000,4.000000,4.000000,4.000000,4.000000,4.000000,4.000000,4.000000,4.000000,4.000000,4.000000,4.000000,4.000000,4.000000,4.000000,100.000000,,,,,,,,,,,,,,,,,,,,,,,,,,,,
1703411421.780077,1703411421.780508,4.000000,0.000000,4222.179688,4180.897461,4314.871582,4254.743652,4196.282227,4177.563965,4217.948730,4190.641113,4185.512695,4193.589844,4597.436035,4470.897461,4403.589844,4502.948730,5111.000000,3.000000,64.000000,,,,0.000000,4.000000,4.000000,4.000000,4.000000,4.000000,4.000000,4.000000,4.000000,4.000000,4.000000,4.000000,4.000000,4.000000,4.000000,100.000000,,,,,,,,,,,,,,,,,1.000000,0.000000,0.678944,0.175049,-0.657227,0.276489,0.967403,-0.125015,0.078623,-14.738569,-43.048409,65.973549
1703411421.787885,1703411421.788316,5.000000,0.000000,4221.794922,4192.563965,4324.358887,4265.641113,4198.717773,4172.820313,4217.692383,4195.641113,4187.820313,4197.948730,4608.205078,4477.051270,4416.282227,4506.282227,4123.000000,3.000000,64.000000,,,,0.000000,4.000000,4.000000,4.000000,4.000000,4.000000,4.000000,4.000000,4.000000,4.000000,4.000000,4.000000,4.000000,4.000000,4.000000,100.000000,,,,,,,,,,,,,,,,,,,,,,,,,,,,
1703411421.795693,1703411421.796024,6.000000,0.000000,4223.461426,4202.563965,4324.487305,4275.897461,4202.307617,4170.897461,4216.922852,4205.769043,4204.615234,4208.461426,4611.922852,4483.077148,4415.384766,4513.589844,2830.000000,3.000000,64.000000,,,,0.000000,4.000000,4.000000,4.000000,4.000000,4.000000,4.000000,4.000000,4.000000,4.000000,4.000000,4.000000,4.000000,4.000000,4.000000,100.000000,,,,,,,,,,,,,,,,,,,,,,,,,,,,
1703411421.803501,1703411421.803932,7.000000,0.000000,4214.358887,4187.179688,4309.743652,4263.077148,4196.282227,4175.641113,4217.948730,4194.743652,4193.589844,4179.102539,4586.794922,4465.769043,4389.871582,4503.717773,4993.000000,3.000000,64.000000,,,,0.000000,4.000000,4.000000,4.000000,4.000000,4.000000,4.000000,4.000000,4.000000,4.000000,4.000000,4.000000,4.000000,4.000000,4.000000,100.000000,,,,,,,,,,,,,,,,,,,,,,,,,,,,
1703411421.811309,1703411421.811741,8.000000,0.000000,4212.563965,4185.769043,4309.230957,4258.589844,4194.102539,4174.743652,4217.563965,4183.077148,4184.230957,4174.102539,4578.205078,4456.153809,4380.641113,4495.000000,4245.000000,3.000000,64.000000,,,,0.000000,4.000000,4.000000,4.000000,4.000000,4.000000,4.000000,4.000000,4.000000,4.000000,4.000000,4.000000,4.000000,4.000000,4.000000,100.000000,,,,,,,,,,,,,,,,,2.000000,0.000000,0.679172,0.174377,-0.657349,0.276062,0.978635,-0.130875,0.080576,-14.664712,-43.143570,66.076195
1703411421.819117,1703411421.819549,9.000000,0.000000,4216.666504,4201.538574,4313.333496,4271.922852,4200.897461,4169.230957,4215.000000,4184.871582,4191.153809,4196.794922,4585.769043,4457.436035,4384.743652,4491.282227,5265.000000,3.000000,64.000000,,,,0.000000,4.000000,4.000000,4.000000,4.000000,4.000000,4.000000,4.000000,4.000000,4.000000,4.000000,4.000000,4.000000,4.000000,4.000000,100.000000,,,,,,,,,,,,,,,,,,,,,,,,,,,,
1703411421.826925,1703411421.827257,10.000000,0.000000,4213.846191,4201.282227,4308.974121,4273.333496,4200.128418,4169.743652,4215.000000,4185.512695,4185.128418,4187.179688,4583.974121,4454.615234,4378.974121,4493.974121,5976.000000,3.000000,64.000000,,,,0.000000,4.000000,4.000000,4.000000,4.000000,4.000000,4.000000,4.000000,4.000000,4.000000,4.000000,4.000000,4.000000,4.000000,4.000000,100.000000,1.000000,66.666664,4.000000,4.000000,4.000000,4.000000,4.000000,4.000000,1.000000,4.000000,4.000000,3.000000,4.000000,4.000000,4.000000,4.000000,,,,,,,,,,,,
1703411421.834733,1703411421.835165,11.000000,0.000000,4219.615234,4197.948730,4314.230957,4265.641113,4198.333496,4173.333496,4216.794922,4185.128418,4186.153809,4179.743652,4585.000000,4462.820313,4381.922852,4507.307617,6137.000000,3.000000,64.000000,,,,0.000000,4.000000,4.000000,4.000000,4.000000,4.000000,4.000000,4.000000,4.000000,4.000000,4.000000,4.000000,4.000000,4.000000,4.000000,100.000000,,,,,,,,,,,,,,,,,,,,,,,,,,,,
1703411421.842541,1703411421.842973,12.000000,0.000000,4221.282227,4204.487305,4318.205078,4264.871582,4197.820313,4171.025879,4215.769043,4187.436035,4200.000000,4191.153809,4581.282227,4462.820313,4379.230957,4502.692383,6629.000000,3.000000,64.000000,,,,0.000000,4.000000,4.000000,4.000000,4.000000,4.000000,4.000000,4.000000,4.000000,4.000000,4.000000,4.000000,4.000000,4.000000,4.000000,100.000000,,,,,,,,,,,,,,,,,3.000000,0.000000,0.679238,0.173950,-0.657471,0.275879,0.990844,-0.110365,0.066903,-14.548241,-42.929211,66.085243
1703411421.850350,1703411421.850881,13.000000,0.000000,4205.256348,4198.333496,4311.025879,4263.846191,4190.384766,4168.846191,4213.974121,4182.436035,4190.000000,4174.615234,4561.538574,4438.205078,4356.922852,4478.717773,6973.000000,3.000000,64.000000,,,,0.000000,4.000000,4.000000,4.000000,4.000000,4.000000,4.000000,4.000000,4.000000,4.000000,4.000000,4.000000,4.000000,4.000000,4.000000,100.000000,,,,,,,,,,,,,,,,,,,,,,,,,,,,
1703411421.858158,1703411421.858689,14.000000,0.000000,4205.128418,4196.282227,4313.717773,4266.538574,4190.384766,4175.769043,4216.282227,4180.512695,4182.563965,4162.307617,4560.897461,4435.128418,4358.717773,4478.717773,5976.000000,3.000000,64.000000,,,,0.000000,4.000000,4.000000,4.000000,4.000000,4.000000,4.000000,4.000000,4.000000,4.000000,4.000000,4.000000,4.000000,4.000000,4.000000,100.000000,,,,,,,,,,,,,,,,,,,,,,,,,,,,
1703411421.865965,1703411421.866597,15.000000,0.000000,4228.205078,4214.230957,4328.077148,4278.589844,4202.820313,4183.077148,4220.256348,4194.615234,4199.871582,4191.666504,4584.487305,4461.282227,4383.974121,4500.256348,6137.000000,3.000000,64.000000,,,,0.000000,4.000000,4.000000,4.000000,4.000000,4.000000,4.000000,4.000000,4.000000,4.000000,4.000000,4.000000,4.000000,4.000000,4.000000,100.000000,,,,,,,,,,,,,,,,,,,,,,,,,,,,
1703411421.873774,1703411421.874405,16.000000,0.000000,4233.974121,4218.717773,4331.025879,4277.436035,4202.820313,4183.205078,4220.384766,4207.563965,4205.384766,4192.948730,4596.153809,4465.769043,4387.692383,4508.461426,0.000000,3.000000,64.000000,,,,0.000000,4.000000,4.000000,4.000000,4.000000,4.000000,4.000000,4.000000,4.000000,4.000000,4.000000,4.000000,4.000000,4.000000,4.000000,100.000000,,,,,,,,,,,,,,,,,4.000000,0.000000,0.679328,0.173828,-0.657410,0.275879,0.975217,-0.107435,0.066903,-14.460083,-42.802956,65.910049
1703411421.881582,1703411421.882313,17.000000,0.000000,4219.102539,4202.436035,4322.179688,4262.948730,4195.384766,4183.333496,4219.871582,4199.615234,4196.410156,4167.820313,4587.436035,4448.589844,4376.666504,4500.897461,0.000000,3.000000,64.000000,,,,0.000000,4.000000,4.000000,4.000000,4.000000,4.000000,4.000000,4.000000,4.000000,4.000000,4.000000,4.000000,4.000000,4.000000,4.000000,100.000000,,,,,,,,,,,,,,,,,,,,,,,,,,,,
1703411421.889390,1703411421.890121,18.000000,0.000000,4213.846191,4197.179688,4315.897461,4261.153809,4200.769043,4187.948730,4223.205078,4189.871582,4198.846191,4178.461426,4584.358887,4444.358887,4382.692383,4492.307617,0.000000,3.000000,64.000000,,,,0.000000,4.000000,4.000000,4.000000,4.000000,4.000000,4.000000,4.000000,4.000000,4.000000,4.000000,4.000000,4.000000,4.000000,4.000000,100.000000,,,,,,,,,,,,,,,,,,,,,,,,,,,,
1703411421.897198,1703411421.898029,19.000000,0.000000,4218.974121,4200.512695,4319.743652,4267.307617,4197.948730,4185.897461,4222.948730,4193.717773,4202.307617,4190.256348,4595.128418,4450.512695,4394.615234,4498.461426,0.000000,3.000000,64.000000,,,,0.000000,4.000000,4.000000,4.000000,4.000000,4.000000,4.000000,4.000000,4.000000,4.000000,4.000000,4.000000,4.000000,4.000000,4.000000,100.000000,,,,,,,,,,,,,,,,,,,,,,,,,,,,
1703411421.905006,1703411421.905837,20.000000,0.000000,4218.974121,4191.410156,4322.179688,4265.897461,4188.461426,4180.769043,4218.717773,4194.102539,4189.743652,4170.384766,4594.358887,4448.461426,4387.692383,4504.230957,0.000000,3.000000,64.000000,,,,0.000000,4.000000,4.000000,4.000000,4.000000,4.000000,4.000000,4.000000,4.000000,4.000000,4.000000,4.000000,4.000000,4.000000,4.000000,100.000000,,,,,,,,,,,,,,,,,5.000000,0.000000,0.679294,0.174133,-0.657288,0.276062,0.984984,-0.107923,0.064461,-14.447409,-42.789330,65.935715
1703411421.912814,1703411421.913744,21.000000,0.000000,4213.589844,4181.666504,4315.256348,4261.538574,4195.512695,4177.307617,4218.333496,4185.512695,4185.128418,4168.589844,4582.692383,4441.153809,4381.794922,4492.948730,0.000000,3.000000,64.000000,,,,0.000000,4.000000,4.000000,4.000000,4.000000,4.000000,4.000000,4.000000,4.000000,4.000000,4.000000,4.000000,4.000000,4.000000,4.000000,100.000000,,,,,,,,,,,,,,,,,,,,,,,,,,,,
1703411421.920622,1703411421.921552,22.000000,0.000000,4212.307617,4186.666504,4314.487305,4261.922852,4203.846191,4171.410156,4218.717773,4183.077148,4194.871582,4186.410156,4588.077148,4443.589844,4395.256348,4492.051270,0.000000,3.000000,64.000000,,,,0.000000,4.000000,4.000000,4.000000,4.000000,4.000000,4.000000,4.000000,4.000000,4.000000,4.000000,4.000000,4.000000,4.000000,4.000000,100.000000,,,,,,,,,,,,,,,,,,,,,,,,,,,,
1703411421.928430,1703411421.929261,23.000000,0.000000,4218.077148,4196.794922,4323.846191,4262.692383,4198.974121,4169.358887,4216.922852,4185.000000,4193.333496,4185.256348,4600.384766,4451.025879,4404.487305,4507.692383,0.000000,3.000000,64.000000,,,,0.000000,4.000000,4.000000,4.000000,4.000000,4.000000,4.000000,4.000000,4.000000,4.000000,4.000000,4.000000,4.000000,4.000000,4.000000,100.000000,,,,,,,,,,,,,,,,,,,,,,,,,,,,
1703411421.936238,1703411421.937069,24.000000,0.000000,4219.102539,4197.692383,4326.410156,4261.538574,4197.436035,4171.666504,4217.563965,4185.256348,4186.025879,4181.153809,4597.179688,4449.487305,4393.846191,4508.077148,0.000000,3.000000,64.000000,,,,0.000000,4.000000,4.000000,4.000000,4.000000,4.000000,4.000000,4.000000,4.000000,4.000000,4.000000,4.000000,4.000000,4.000000,4.000000,100.000000,,,,,,,,,,,,,,,,,6.000000,0.000000,0.679389,0.174683,-0.657043,0.276062,0.993774,-0.123062,0.072274,-14.419334,-42.677063,66.025475
1703411421.944046,1703411421.944777,25.000000,0.000000,4217.307617,4191.538574,4326.025879,4262.436035,4203.461426,4173.974121,4220.000000,4194.743652,4195.769043,4197.179688,4598.589844,4453.589844,4395.897461,4503.077148,0.000000,3.000000,64.000000,,,,0.000000,4.000000,4.000000,4.000000,4.000000,4.000000,4.000000,4.000000,4.000000,4.000000,4.000000,4.000000,4.000000,4.000000,4.000000,100.000000,,,,,,,,,,,,,,,,,,,,,,,,,,,,
1703411421.951854,1703411421.952585,26.000000,0.000000,4219.102539,4187.692383,4328.846191,4263.333496,4199.358887,4175.641113,4223.205078,4206.025879,4208.846191,4207.436035,4604.615234,4459.230957,4400.000000,4507.436035,0.000000,3.000000,64.000000,,,,0.000000,4.000000,4.000000,4.000000,4.000000,4.000000,4.000000,4.000000,4.000000,4.000000,4.000000,4.000000,4.000000,4.000000,4.000000,100.000000,,,,,,,,,,,,,,,,,,,,,,,,,,,,
1703411421.959662,1703411421.960293,27.000000,0.000000,4218.461426,4185.128418,4329.487305,4264.487305,4193.205078,4174.615234,4224.615234,4199.615234,4201.153809,4189.743652,4589.743652,4446.538574,4380.128418,4500.641113,0.000000,3.000000,64.000000,,,,0.000000,4.000000,4.000000,4.000000,4.000000,4.000000,4.000000,4.000000,4.000000,4.000000,4.000000,4.000000,4.000000,4.000000,4.000000,100.000000,,,,,,,,,,,,,,,,,,,,,,,,,,,,
1703411421.967470,1703411421.968201,28.000000,0.000000,4216.922852,4187.563965,4324.358887,4264.230957,4197.692383,4172.307617,4220.512695,4184.743652,4183.846191,4167.563965,4570.128418,4434.358887,4366.153809,4491.410156,0.000000,3.000000,64.000000,,,,0.000000,4.000000,4.000000,4.000000,4.000000,4.000000,4.000000,4.000000,4.000000,4.000000,4.000000,4.000000,4.000000,4.000000,4.000000,100.000000,,,,,,,,,,,,,,,,,7.000000,0.000000,0.679226,0.175354,-0.656982,0.276184,0.988402,-0.122085,0.073739,-14.327401,-42.592690,66.072929
1703411421.975278,1703411421.976009,29.000000,0.000000,4216.794922,4194.230957,4317.692383,4261.794922,4197.563965,4172.820313,4219.615234,4180.384766,4177.948730,4167.179688,4567.692383,4440.512695,4368.077148,4490.384766,0.000000,3.000000,64.000000,,,,0.000000,4.000000,4.000000,4.000000,4.000000,4.000000,4.000000,4.000000,4.000000,4.000000,4.000000,4.000000,4.000000,4.000000,4.000000,100.000000,,,,,,,,,,,,,,,,,,,,,,,,,,,,
1703411421.983086,1703411421.983917,30.000000,0.000000,4215.000000,4203.205078,4320.384766,4264.230957,4194.358887,4170.000000,4220.512695,4189.230957,4188.333496,4167.051270,4577.307617,4447.948730,4368.461426,4487.948730,0.000000,3.000000,64.000000,,,,0.000000,4.000000,4.000000,4.000000,4.000000,4.000000,4.000000,4.000000,4.000000,4.000000,4.000000,4.000000,4.000000,4.000000,4.000000,100.000000,,,,,,,,,,,,,,,,,,,,,,,,,,,,
1703411421.990894,1703411421.991725,31.000000,0.000000,4221.538574,4213.974121,4333.717773,4273.333496,4196.922852,4164.871582,4216.666504,4198.205078,4201.794922,4167.436035,4591.153809,4453.846191,4374.102539,4495.384766,0.000000,3.000000,64.000000,,,,0.000000,4.000000,4.000000,4.000000,4.000000,4.000000,4.000000,4.000000,4.000000,4.000000,4.000000,4.000000,4.000000,4.000000,4.000000,100.000000,,,,,,,,,,,,,,,,,,,,,,,,,,,,
1703411421.998702,1703411421.999533,32.000000,0.000000,4236.153809,4223.717773,4338.717773,4280.897461,4201.666504,4167.179688,4221.794922,4201.410156,4197.820313,4187.436035,4602.948730,4467.179688,4391.410156,4513.846191,0.000000,3.000000,64.000000,,,,0.000000,4.000000,4.000000,4.000000,4.000000,4.000000,4.000000,4.000000,4.000000,4.000000,4.000000,4.000000,4.000000,4.000000,4.000000,100.000000,,,,,,,,,,,,,,,,,8.000000,0.000000,0.679246,0.175598,-0.656921,0.276123,0.993285,-0.122574,0.076181,-14.327994,-42.650085,65.998970
1703411422.006510,1703411422.007242,33.000000,0.000000,4236.666504,4220.512695,4332.692383,4278.461426,4204.743652,4172.179688,4231.025879,4200.897461,4184.615234,4196.410156,4603.589844,4470.897461,4401.666504,4519.358887,0.000000,3.000000,64.000000,,,,0.000000,4.000000,4.000000,4.000000,4.000000,4.000000,4.000000,4.000000,4.000000,4.000000,4.000000,4.000000,4.000000,4.000000,4.000000,100.000000,,,,,,,,,,,,,,,,,,,,,,,,,,,,
1703411422.014319,1703411422.015050,34.000000,0.000000,4224.230957,4207.179688,4326.282227,4269.102539,4202.820313,4172.051270,4225.769043,4197.563965,4184.487305,4187.948730,4598.077148,4460.128418,4399.615234,4506.666504,0.000000,3.000000,64.000000,,,,0.000000,4.000000,4.000000,4.000000,4.000000,4.000000,4.000000,4.000000,4.000000,4.000000,4.000000,4.000000,4.000000,4.000000,4.000000,100.000000,,,,,,,,,,,,,,,,,,,,,,,,,,,,
1703411422.022127,1703411422.022758,35.000000,0.000000,4213.205078,4197.051270,4314.615234,4258.974121,4196.794922,4168.974121,4215.256348,4183.461426,4188.205078,4180.769043,4590.000000,4440.641113,4388.333496,4487.436035,0.000000,3.000000,64.000000,,,,0.000000,4.000000,4.000000,4.000000,4.000000,4.000000,4.000000,4.000000,4.000000,4.000000,4.000000,4.000000,4.000000,4.000000,4.000000,100.000000,,,,,,,,,,,,,,,,,,,,,,,,,,,,
1703411422.029935,1703411422.030566,36.000000,0.000000,4204.230957,4193.461426,4304.487305,4255.000000,4197.436035,4166.410156,4213.974121,4169.487305,4182.307617,4167.563965,4580.384766,4427.051270,4374.615234,4478.717773,0.000000,3.000000,64.000000,,,,0.000000,4.000000,4.000000,4.000000,4.000000,4.000000,4.000000,4.000000,4.000000,4.000000,4.000000,4.000000,4.000000,4.000000,4.000000,100.000000,,,,,,,,,,,,,,,,,9.000000,0.000000,0.679137,0.175720,-0.657104,0.275879,0.987914,-0.114272,0.069344,-14.178528,-42.585079,65.999069
1703411422.037743,1703411422.038274,37.000000,0.000000,4211.666504,4201.922852,4317.307617,4260.256348,4202.692383,4168.461426,4218.974121,4179.487305,4187.179688,4163.589844,4589.871582,4443.333496,4384.102539,4494.615234,0.000000,3.000000,64.000000,,,,0.000000,4.000000,4.000000,4.000000,4.000000,4.000000,4.000000,4.000000,4.000000,4.000000,4.000000,4.000000,4.000000,4.000000,4.000000,100.000000,,,,,,,,,,,,,,,,,,,,,,,,,,,,
1703411422.045551,1703411422.046181,38.000000,0.000000,4233.077148,4214.615234,4335.384766,4272.051270,4202.692383,4172.051270,4223.846191,4202.179688,4203.717773,4186.153809,4612.179688,4469.102539,4406.922852,4515.769043,0.000000,3.000000,64.000000,,,,0.000000,4.000000,4.000000,4.000000,4.000000,4.000000,4.000000,4.000000,4.000000,4.000000,4.000000,4.000000,4.000000,4.000000,4.000000,100.000000,,,,,,,,,,,,,,,,,,,,,,,,,,,,
1703411422.053359,1703411422.053989,39.000000,0.000000,4232.179688,4215.384766,4332.051270,4277.563965,4200.512695,4171.410156,4222.051270,4203.205078,4200.641113,4197.307617,4608.846191,4466.410156,4402.307617,4513.077148,0.000000,3.000000,64.000000,,,,0.000000,4.000000,4.000000,4.000000,4.000000,4.000000,4.000000,4.000000,4.000000,4.000000,4.000000,4.000000,4.000000,4.000000,4.000000,100.000000,,,,,,,,,,,,,,,,,,,,,,,,,,,,
1703411422.061167,1703411422.061897,40.000000,0.000000,4215.000000,4211.794922,4318.205078,4270.256348,4199.743652,4166.153809,4214.743652,4185.000000,4182.179688,4181.666504,4583.974121,4448.077148,4378.846191,4497.692383,0.000000,3.000000,64.000000,,,,0.000000,4.000000,4.000000,4.000000,4.000000,4.000000,4.000000,4.000000,4.000000,4.000000,4.000000,4.000000,4.000000,4.000000,4.000000,100.000000,,,,,,,,,,,,,,,,,10.000000,0.000000,0.679070,0.175354,-0.657349,0.275696,0.983518,-0.104505,0.083018,-14.244008,-42.559902,66.099167
1703411422.068975,1703411422.069705,41.000000,0.000000,4215.128418,4215.512695,4314.102539,4266.666504,4199.358887,4164.743652,4215.512695,4178.461426,4176.410156,4179.102539,4572.820313,4441.538574,4371.922852,4492.179688,0.000000,3.000000,64.000000,,,,0.000000,4.000000,4.000000,4.000000,4.000000,4.000000,4.000000,4.000000,4.000000,4.000000,4.000000,4.000000,4.000000,4.000000,4.000000,100.000000,,,,,,,,,,,,,,,,,,,,,,,,,,,,
1703411422.076783,1703411422.077613,42.000000,0.000000,4217.948730,4212.563965,4312.948730,4263.333496,4198.205078,4171.410156,4221.153809,4186.282227,4176.922852,4174.871582,4566.153809,4435.256348,4365.769043,4485.769043,0.000000,3.000000,64.000000,,,,0.000000,4.000000,4.000000,4.000000,4.000000,4.000000,4.000000,4.000000,4.000000,4.000000,4.000000,4.000000,4.000000,4.000000,4.000000,100.000000,,,,,,,,,,,,,,,,,,,,,,,,,,,,
1703411422.084591,1703411422.085421,43.000000,0.000000,4208.846191,4199.102539,4310.256348,4260.000000,4196.410156,4173.077148,4217.436035,4184.230957,4171.794922,4151.282227,4554.102539,4428.974121,4350.384766,4470.000000,0.000000,3.000000,64.000000,,,,0.000000,4.000000,4.000000,4.000000,4.000000,4.000000,4.000000,4.000000,4.000000,4.000000,4.000000,4.000000,4.000000,4.000000,4.000000,100.000000,,,,,,,,,,,,,,,,,,,,,,,,,,,,
1703411422.092399,1703411422.093329,44.000000,0.000000,4209.743652,4205.256348,4311.538574,4268.974121,4200.256348,4166.025879,4212.692383,4180.256348,4177.692383,4149.871582,4562.563965,4441.666504,4354.871582,4473.077148,0.000000,3.000000,64.000000,,,,0.000000,4.000000,4.000000,4.000000,4.000000,4.000000,4.000000,4.000000,4.000000,4.000000,4.000000,4.000000,4.000000,4.000000,4.000000,100.000000,,,,,,,,,,,,,,,,,11.000000,0.000000,0.679132,0.175171,-0.657410,0.275513,0.984007,-0.116225,0.064949,-14.219607,-42.570580,66.072578
1703411422.100207,1703411422.101137,45.000000,0.000000,4220.641113,4220.384766,4318.589844,4275.641113,4199.230957,4164.487305,4215.256348,4197.436035,4199.743652,4167.563965,4587.051270,4460.641113,4377.436035,4503.077148,0.000000,3.000000,64.000000,,,,0.000000,4.000000,4.000000,4.000000,4.000000,4.000000,4.000000,4.000000,4.000000,4.000000,4.000000,4.000000,4.000000,4.000000,4.000000,100.000000,,,,,,,,,,,,,,,,,,,,,,,,,,,,
1703411422.108015,1703411422.108845,46.000000,0.000000,4221.153809,4213.846191,4321.794922,4265.384766,4192.436035,4171.794922,4219.615234,4210.769043,4203.333496,4160.641113,4589.743652,4464.102539,4382.820313,4510.384766,0.000000,3.000000,64.000000,,,,0.000000,4.000000,4.000000,4.000000,4.000000,4.000000,4.000000,4.000000,4.000000,4.000000,4.000000,4.000000,4.000000,4.000000,4.000000,100.000000,,,,,,,,,,,,,,,,,,,,,,,,,,,,
1703411422.115823,1703411422.116653,47.000000,0.000000,4218.077148,4207.820313,4319.102539,4260.897461,4198.077148,4174.871582,4220.384766,4193.333496,4184.230957,4154.102539,4581.153809,4457.820313,4377.820313,4491.153809,0.000000,3.000000,64.000000,,,,0.000000,4.000000,4.000000,4.000000,4.000000,4.000000,4.000000,4.000000,4.000000,4.000000,4.000000,4.000000,4.000000,4.000000,4.000000,100.000000,,,,,,,,,,,,,,,,,,,,,,,,,,,,
1703411422.123631,1703411422.124461,48.000000,0.000000,4218.717773,4214.871582,4315.897461,4265.641113,4206.153809,4174.230957,4220.128418,4180.128418,4184.615234,4179.230957,4596.153809,4459.230957,4387.692383,4495.256348,0.000000,3.000000,64.000000,,,,0.000000,4.000000,4.000000,4.000000,4.000000,4.000000,4.000000,4.000000,4.000000,4.000000,4.000000,4.000000,4.000000,4.000000,4.000000,100.000000,,,,,,,,,,,,,,,,,12.000000,0.000000,0.679073,0.175171,-0.657471,0.275513,0.983030,-0.115737,0.071786,-14.164313,-42.513523,66.065323
1703411422.131439,1703411422.132269,49.000000,0.000000,4215.512695,4208.333496,4315.128418,4261.666504,4202.307617,4173.974121,4221.025879,4194.102539,4197.436035,4195.128418,4612.436035,4463.333496,4400.897461,4507.692383,0.000000,3.000000,64.000000,,,,0.000000,4.000000,4.000000,4.000000,4.000000,4.000000,4.000000,4.000000,4.000000,4.000000,4.000000,4.000000,4.000000,4.000000,4.000000,100.000000,,,,,,,,,,,,,,,,,,,,,,,,,,,,
