title:شويكي انذار, start timestamp:1703500630.411351, stop timestamp:1703500641.209878, headset type:EPOCX, headset serial:E50206EF, headset firmware:720, channels:67, sampling rate:eeg_128;mot_32, samples:1384      , version:2.2, 
Timestamp,OriginalTimestamp,EEG.Counter,EEG.Interpolated,EEG.AF3,EEG.F7,EEG.F3,EEG.FC5,EEG.T7,EEG.P7,EEG.O1,EEG.O2,EEG.P8,EEG.T8,EEG.FC6,EEG.F4,EEG.F8,EEG.AF4,EEG.RawCq,EEG.Battery,EEG.BatteryPercent,MarkerIndex,MarkerType,MarkerValueInt,EEG.MarkerHardware,CQ.AF3,CQ.F7,CQ.F3,CQ.FC5,CQ.T7,CQ.P7,CQ.O1,CQ.O2,CQ.P8,CQ.T8,CQ.FC6,CQ.F4,CQ.F8,CQ.AF4,CQ.Overall,EQ.SampleRateQuality,EQ.OVERALL,EQ.AF3,EQ.F7,EQ.F3,EQ.FC5,EQ.T7,EQ.P7,EQ.O1,EQ.O2,EQ.P8,EQ.T8,EQ.FC6,EQ.F4,EQ.F8,EQ.AF4,MOT.CounterMems,MOT.InterpolatedMems,MOT.Q0,MOT.Q1,MOT.Q2,MOT.Q3,MOT.AccX,MOT.AccY,MOT.AccZ,MOT.MagX,MOT.MagY,MOT.MagZ
1703500630.411351,1703500630.411172,33.000000,0.000000,4333.589844,4308.205078,4315.512695,4281.282227,4294.230957,4271.153809,4295.256348,4243.461426,4265.256348,4271.025879,4487.307617,4471.794922,4383.205078,4393.589844,0.000000,3.000000,72.000000,,,,0.000000,4.000000,4.000000,4.000000,4.000000,4.000000,4.000000,4.000000,4.000000,4.000000,4.000000,4.000000,4.000000,4.000000,4.000000,100.000000,,,,,,,,,,,,,,,,,,,,,,,,,,,,
1703500630.419159,1703500630.418881,34.000000,0.000000,4327.692383,4311.410156,4314.487305,4282.051270,4295.384766,4278.589844,4291.666504,4247.692383,4274.615234,4279.871582,4489.102539,4474.230957,4392.948730,4404.743652,0.000000,3.000000,72.000000,,,,0.000000,4.000000,4.000000,4.000000,4.000000,4.000000,4.000000,4.000000,4.000000,4.000000,4.000000,4.000000,4.000000,4.000000,4.000000,100.000000,,,,,,,,,,,,,,,,,,,,,,,,,,,,
1703500630.426967,1703500630.426789,35.000000,0.000000,4327.563965,4308.333496,4307.307617,4280.641113,4297.179688,4277.179688,4289.358887,4248.205078,4273.717773,4273.461426,4491.025879,4473.205078,4396.282227,4416.666504,0.000000,3.000000,72.000000,,,,0.000000,4.000000,4.000000,4.000000,4.000000,4.000000,4.000000,4.000000,4.000000,4.000000,4.000000,4.000000,4.000000,4.000000,4.000000,100.000000,,,,,,,,,,,,,,,,,,,,,,,,,,,,
1703500630.434775,1703500630.434597,36.000000,0.000000,4335.128418,4306.666504,4310.256348,4285.512695,4290.641113,4277.051270,4293.589844,4252.692383,4271.922852,4256.410156,4491.666504,4473.205078,4391.282227,4410.512695,0.000000,3.000000,72.000000,,,,0.000000,4.000000,4.000000,4.000000,4.000000,4.000000,4.000000,4.000000,4.000000,4.000000,4.000000,4.000000,4.000000,4.000000,4.000000,100.000000,,,,,,,,,,,,,,,,,9.000000,0.000000,0.622282,0.284851,-0.640442,0.348511,0.993285,-0.111342,0.003907,-12.471651,-37.240330,61.950741
1703500630.442583,1703500630.442405,37.000000,0.000000,4337.307617,4309.615234,4320.897461,4295.641113,4292.051270,4280.000000,4297.051270,4260.000000,4276.794922,4262.820313,4492.692383,4482.179688,4388.589844,4408.205078,0.000000,3.000000,72.000000,,,,0.000000,4.000000,4.000000,4.000000,4.000000,4.000000,4.000000,4.000000,4.000000,4.000000,4.000000,4.000000,4.000000,4.000000,4.000000,100.000000,,,,,,,,,,,,,,,,,,,,,,,,,,,,
1703500630.450391,1703500630.450113,38.000000,0.000000,4332.307617,4309.743652,4320.641113,4296.794922,4300.512695,4274.615234,4294.102539,4254.615234,4274.615234,4279.743652,4495.256348,4486.410156,4390.000000,4411.025879,0.000000,3.000000,72.000000,,,,0.000000,4.000000,4.000000,4.000000,4.000000,4.000000,4.000000,4.000000,4.000000,4.000000,4.000000,4.000000,4.000000,4.000000,4.000000,100.000000,,,,,,,,,,,,,,,,,,,,,,,,,,,,
1703500630.458199,1703500630.458021,39.000000,0.000000,4334.743652,4307.820313,4318.077148,4292.948730,4302.307617,4272.948730,4293.205078,4246.922852,4269.615234,4279.871582,4501.282227,4484.358887,4396.794922,4419.358887,0.000000,3.000000,72.000000,,,,0.000000,4.000000,4.000000,4.000000,4.000000,4.000000,4.000000,4.000000,4.000000,4.000000,4.000000,4.000000,4.000000,4.000000,4.000000,100.000000,,,,,,,,,,,,,,,,,,,,,,,,,,,,
1703500630.466007,1703500630.465829,40.000000,0.000000,4342.692383,4309.358887,4324.871582,4297.692383,4302.307617,4278.589844,4295.256348,4249.743652,4273.846191,4277.436035,4510.897461,4487.051270,4405.897461,4428.205078,0.000000,3.000000,72.000000,,,,0.000000,4.000000,4.000000,4.000000,4.000000,4.000000,4.000000,4.000000,4.000000,4.000000,4.000000,4.000000,4.000000,4.000000,4.000000,100.000000,,,,,,,,,,,,,,,,,10.000000,0.000000,0.622027,0.284546,-0.640625,0.348877,0.981565,-0.103528,-0.002442,-12.324486,-37.182964,61.938999
1703500630.473815,1703500630.473737,41.000000,0.000000,4343.974121,4311.025879,4327.820313,4304.615234,4302.436035,4279.358887,4294.230957,4252.179688,4278.333496,4281.538574,4511.538574,4490.769043,4406.282227,4418.717773,0.000000,3.000000,72.000000,,,,0.000000,4.000000,4.000000,4.000000,4.000000,4.000000,4.000000,4.000000,4.000000,4.000000,4.000000,4.000000,4.000000,4.000000,4.000000,100.000000,,,,,,,,,,,,,,,,,,,,,,,,,,,,
1703500630.481623,1703500630.481545,42.000000,0.000000,4341.666504,4309.743652,4323.717773,4305.000000,4294.615234,4277.051270,4293.974121,4249.230957,4274.871582,4270.641113,4498.974121,4488.974121,4395.641113,4409.102539,0.000000,3.000000,72.000000,,,,0.000000,4.000000,4.000000,4.000000,4.000000,4.000000,4.000000,4.000000,4.000000,4.000000,4.000000,4.000000,4.000000,4.000000,4.000000,100.000000,,,,,,,,,,,,,,,,,,,,,,,,,,,,
1703500630.489431,1703500630.489453,43.000000,0.000000,4341.153809,4307.436035,4325.897461,4304.615234,4292.051270,4277.820313,4292.820313,4252.051270,4275.000000,4257.563965,4493.974121,4487.436035,4390.641113,4417.179688,0.000000,3.000000,72.000000,,,,0.000000,4.000000,4.000000,4.000000,4.000000,4.000000,4.000000,4.000000,4.000000,4.000000,4.000000,4.000000,4.000000,4.000000,4.000000,100.000000,,,,,,,,,,,,,,,,,,,,,,,,,,,,
1703500630.497239,1703500630.497261,44.000000,0.000000,4343.077148,4309.358887,4330.000000,4309.743652,4305.128418,4279.487305,4290.769043,4260.128418,4287.948730,4278.077148,4508.205078,4489.615234,4403.846191,4427.820313,0.000000,3.000000,72.000000,,,,0.000000,4.000000,4.000000,4.000000,4.000000,4.000000,4.000000,4.000000,4.000000,4.000000,4.000000,4.000000,4.000000,4.000000,4.000000,100.000000,,,,,,,,,,,,,,,,,11.000000,0.000000,0.621744,0.284241,-0.640869,0.349182,0.992309,-0.093273,0.020022,-12.308703,-37.181335,61.911766
1703500630.505047,1703500630.505168,45.000000,0.000000,4346.282227,4318.461426,4328.333496,4312.820313,4315.641113,4278.717773,4293.589844,4264.871582,4294.102539,4304.102539,4519.358887,4492.948730,4417.948730,4436.282227,0.000000,3.000000,72.000000,,,,0.000000,4.000000,4.000000,4.000000,4.000000,4.000000,4.000000,4.000000,4.000000,4.000000,4.000000,4.000000,4.000000,4.000000,4.000000,100.000000,,,,,,,,,,,,,,,,,,,,,,,,,,,,
1703500630.512855,1703500630.512976,46.000000,0.000000,4352.948730,4321.922852,4326.666504,4310.897461,4310.256348,4279.871582,4294.487305,4261.666504,4284.487305,4290.641113,4510.769043,4492.563965,4411.922852,4433.717773,0.000000,3.000000,72.000000,,,,0.000000,4.000000,4.000000,4.000000,4.000000,4.000000,4.000000,4.000000,4.000000,4.000000,4.000000,4.000000,4.000000,4.000000,4.000000,100.000000,,,,,,,,,,,,,,,,,,,,,,,,,,,,
1703500630.520663,1703500630.520884,47.000000,0.000000,4351.282227,4313.205078,4327.307617,4309.743652,4301.153809,4281.538574,4290.769043,4255.000000,4277.307617,4262.692383,4500.641113,4487.051270,4396.153809,4416.025879,0.000000,3.000000,72.000000,,,,0.000000,4.000000,4.000000,4.000000,4.000000,4.000000,4.000000,4.000000,4.000000,4.000000,4.000000,4.000000,4.000000,4.000000,4.000000,100.000000,,,,,,,,,,,,,,,,,,,,,,,,,,,,
1703500630.528471,1703500630.528792,48.000000,0.000000,4341.025879,4308.077148,4329.871582,4309.230957,4299.230957,4281.025879,4292.307617,4257.179688,4276.666504,4261.025879,4498.717773,4483.589844,4390.256348,4409.230957,0.000000,3.000000,72.000000,,,,0.000000,4.000000,4.000000,4.000000,4.000000,4.000000,4.000000,4.000000,4.000000,4.000000,4.000000,4.000000,4.000000,4.000000,4.000000,100.000000,,,,,,,,,,,,,,,,,12.000000,0.000000,0.621752,0.283936,-0.640930,0.349304,0.997192,-0.098645,0.008790,-12.244500,-37.146534,61.753922
1703500630.536280,1703500630.536601,49.000000,0.000000,4341.410156,4311.538574,4333.974121,4309.487305,4294.615234,4278.974121,4295.897461,4261.282227,4271.153809,4271.410156,4497.820313,4481.794922,4393.333496,4422.563965,0.000000,3.000000,72.000000,,,,0.000000,4.000000,4.000000,4.000000,4.000000,4.000000,4.000000,4.000000,4.000000,4.000000,4.000000,4.000000,4.000000,4.000000,4.000000,100.000000,,,,,,,,,,,,,,,,,,,,,,,,,,,,
1703500630.544088,1703500630.544509,50.000000,0.000000,4350.128418,4308.461426,4340.128418,4310.641113,4288.333496,4276.794922,4293.589844,4253.974121,4262.179688,4268.717773,4496.025879,4484.487305,4396.410156,4430.384766,0.000000,3.000000,72.000000,,,,0.000000,4.000000,4.000000,4.000000,4.000000,4.000000,4.000000,4.000000,4.000000,4.000000,4.000000,4.000000,4.000000,4.000000,4.000000,100.000000,,,,,,,,,,,,,,,,,,,,,,,,,,,,
1703500630.551896,1703500630.552317,51.000000,0.000000,4355.256348,4305.769043,4342.179688,4312.948730,4295.641113,4277.820313,4291.282227,4244.743652,4260.897461,4253.461426,4494.871582,4487.051270,4397.307617,4422.563965,0.000000,3.000000,72.000000,,,,0.000000,4.000000,4.000000,4.000000,4.000000,4.000000,4.000000,4.000000,4.000000,4.000000,4.000000,4.000000,4.000000,4.000000,4.000000,100.000000,,,,,,,,,,,,,,,,,,,,,,,,,,,,
1703500630.559704,1703500630.560125,52.000000,0.000000,4351.025879,4311.794922,4338.333496,4313.333496,4308.205078,4279.871582,4294.358887,4245.512695,4262.948730,4243.974121,4494.615234,4483.461426,4393.077148,4416.282227,0.000000,3.000000,72.000000,,,,0.000000,4.000000,4.000000,4.000000,4.000000,4.000000,4.000000,4.000000,4.000000,4.000000,4.000000,4.000000,4.000000,4.000000,4.000000,100.000000,,,,,,,,,,,,,,,,,13.000000,0.000000,0.621670,0.283752,-0.640991,0.349487,0.974728,-0.099133,0.008790,-12.303383,-37.048550,61.711864
1703500630.567512,1703500630.567833,53.000000,0.000000,4344.487305,4309.615234,4331.153809,4310.384766,4304.871582,4277.436035,4292.307617,4246.922852,4262.692383,4253.846191,4490.512695,4478.846191,4386.794922,4413.974121,0.000000,3.000000,72.000000,,,,0.000000,4.000000,4.000000,4.000000,4.000000,4.000000,4.000000,4.000000,4.000000,4.000000,4.000000,4.000000,4.000000,4.000000,4.000000,100.000000,,,,,,,,,,,,,,,,,,,,,,,,,,,,
1703500630.575320,1703500630.575641,54.000000,0.000000,4348.333496,4304.615234,4326.922852,4311.666504,4297.692383,4274.615234,4284.487305,4245.897461,4268.205078,4268.589844,4495.256348,4477.179688,4392.051270,4416.794922,0.000000,3.000000,72.000000,,,,0.000000,4.000000,4.000000,4.000000,4.000000,4.000000,4.000000,4.000000,4.000000,4.000000,4.000000,4.000000,4.000000,4.000000,4.000000,100.000000,,,,,,,,,,,,,,,,,,,,,,,,,,,,
1703500630.583128,1703500630.583349,55.000000,0.000000,4351.538574,4308.205078,4330.512695,4315.384766,4300.384766,4277.307617,4286.410156,4252.563965,4278.461426,4270.384766,4508.717773,4483.461426,4400.000000,4426.025879,0.000000,3.000000,72.000000,,,,0.000000,4.000000,4.000000,4.000000,4.000000,4.000000,4.000000,4.000000,4.000000,4.000000,4.000000,4.000000,4.000000,4.000000,4.000000,100.000000,,,,,,,,,,,,,,,,,,,,,,,,,,,,
1703500630.590936,1703500630.591157,56.000000,0.000000,4346.153809,4306.282227,4331.794922,4313.717773,4296.282227,4281.025879,4295.000000,4260.256348,4284.230957,4265.384766,4507.307617,4487.436035,4394.487305,4429.230957,0.000000,3.000000,72.000000,,,,0.000000,4.000000,4.000000,4.000000,4.000000,4.000000,4.000000,4.000000,4.000000,4.000000,4.000000,4.000000,4.000000,4.000000,4.000000,100.000000,,,,,,,,,,,,,,,,,14.000000,0.000000,0.621684,0.283508,-0.641052,0.349548,0.993285,-0.102063,0.008790,-12.406379,-37.260361,61.674011
1703500630.598744,1703500630.598865,57.000000,0.000000,4338.717773,4295.256348,4325.897461,4307.692383,4291.282227,4280.384766,4294.615234,4258.589844,4282.307617,4265.641113,4491.153809,4479.615234,4384.102539,4419.487305,0.000000,3.000000,72.000000,,,,0.000000,4.000000,4.000000,4.000000,4.000000,4.000000,4.000000,4.000000,4.000000,4.000000,4.000000,4.000000,4.000000,4.000000,4.000000,100.000000,,,,,,,,,,,,,,,,,,,,,,,,,,,,
1703500630.606552,1703500630.606673,58.000000,0.000000,4338.846191,4292.307617,4322.692383,4305.000000,4298.717773,4278.077148,4291.666504,4256.410156,4281.794922,4263.846191,4491.025879,4474.743652,4385.769043,4417.948730,0.000000,3.000000,72.000000,,,,0.000000,4.000000,4.000000,4.000000,4.000000,4.000000,4.000000,4.000000,4.000000,4.000000,4.000000,4.000000,4.000000,4.000000,4.000000,100.000000,,,,,,,,,,,,,,,,,,,,,,,,,,,,
1703500630.614360,1703500630.614381,59.000000,0.000000,4344.615234,4304.102539,4329.102539,4308.589844,4308.846191,4281.666504,4295.384766,4264.743652,4291.282227,4268.333496,4513.461426,4488.333496,4403.589844,4436.538574,0.000000,3.000000,72.000000,,,,0.000000,4.000000,4.000000,4.000000,4.000000,4.000000,4.000000,4.000000,4.000000,4.000000,4.000000,4.000000,4.000000,4.000000,4.000000,100.000000,,,,,,,,,,,,,,,,,,,,,,,,,,,,
1703500630.622168,1703500630.622189,60.000000,0.000000,4348.846191,4310.000000,4339.487305,4312.820313,4308.461426,4285.512695,4301.282227,4268.846191,4298.333496,4286.025879,4525.384766,4502.051270,4412.563965,4444.615234,0.000000,3.000000,72.000000,,,,0.000000,4.000000,4.000000,4.000000,4.000000,4.000000,4.000000,4.000000,4.000000,4.000000,4.000000,4.000000,4.000000,4.000000,4.000000,100.000000,,,,,,,,,,,,,,,,,15.000000,0.000000,0.621740,0.283447,-0.640991,0.349609,0.982542,-0.099622,0.017092,-12.399074,-37.367657,61.773277
1703500630.629976,1703500630.629897,61.000000,0.000000,4350.512695,4303.333496,4342.179688,4314.102539,4300.897461,4282.820313,4303.077148,4266.666504,4295.256348,4297.436035,4522.051270,4503.461426,4407.051270,4440.256348,0.000000,3.000000,72.000000,,,,0.000000,4.000000,4.000000,4.000000,4.000000,4.000000,4.000000,4.000000,4.000000,4.000000,4.000000,4.000000,4.000000,4.000000,4.000000,100.000000,,,,,,,,,,,,,,,,,,,,,,,,,,,,
1703500630.637784,1703500630.637805,62.000000,0.000000,4349.102539,4300.128418,4334.102539,4312.051270,4294.102539,4278.589844,4299.358887,4270.256348,4292.307617,4290.897461,4518.077148,4501.666504,4406.538574,4440.384766,0.000000,3.000000,72.000000,,,,0.000000,4.000000,4.000000,4.000000,4.000000,4.000000,4.000000,4.000000,4.000000,4.000000,4.000000,4.000000,4.000000,4.000000,4.000000,100.000000,,,,,,,,,,,,,,,,,,,,,,,,,,,,
1703500630.645592,1703500630.645613,63.000000,0.000000,4352.948730,4302.179688,4331.025879,4309.743652,4289.615234,4277.307617,4295.128418,4271.282227,4288.333496,4266.922852,4510.512695,4499.358887,4404.102539,4434.230957,0.000000,3.000000,72.000000,,,,0.000000,4.000000,4.000000,4.000000,4.000000,4.000000,4.000000,4.000000,4.000000,4.000000,4.000000,4.000000,4.000000,4.000000,4.000000,100.000000,,,,,,,,,,,,,,,,,,,,,,,,,,,,
1703500630.653400,1703500630.653521,64.000000,0.000000,4358.333496,4302.436035,4342.820313,4315.384766,4292.179688,4275.897461,4296.794922,4264.102539,4279.871582,4259.487305,4503.846191,4497.051270,4393.974121,4425.256348,5637.000000,3.000000,72.000000,,,,0.000000,4.000000,4.000000,4.000000,4.000000,4.000000,4.000000,4.000000,4.000000,4.000000,4.000000,4.000000,4.000000,4.000000,4.000000,100.000000,,,,,,,,,,,,,,,,,16.000000,0.000000,0.621678,0.283447,-0.641052,0.349609,0.992309,-0.097668,0.002442,-12.292500,-37.264225,61.762615
1703500630.661208,1703500630.661329,65.000000,0.000000,4353.846191,4297.948730,4346.794922,4319.102539,4298.333496,4276.153809,4297.692383,4262.692383,4279.615234,4277.820313,4507.051270,4491.922852,4394.487305,4432.051270,5587.000000,3.000000,72.000000,,,,0.000000,4.000000,4.000000,4.000000,4.000000,4.000000,4.000000,4.000000,4.000000,4.000000,4.000000,4.000000,4.000000,4.000000,4.000000,100.000000,,,,,,,,,,,,,,,,,,,,,,,,,,,,
1703500630.669016,1703500630.669237,66.000000,0.000000,4345.128418,4293.974121,4338.077148,4312.820313,4296.794922,4278.077148,4296.282227,4263.974121,4282.820313,4270.384766,4503.717773,4488.205078,4398.974121,4435.769043,5415.000000,3.000000,72.000000,,,,0.000000,4.000000,4.000000,4.000000,4.000000,4.000000,4.000000,4.000000,4.000000,4.000000,4.000000,4.000000,4.000000,4.000000,4.000000,100.000000,,,,,,,,,,,,,,,,,,,,,,,,,,,,
1703500630.676824,1703500630.677045,67.000000,0.000000,4343.846191,4297.563965,4334.743652,4313.333496,4295.000000,4278.846191,4296.282227,4261.922852,4281.410156,4250.000000,4498.974121,4492.179688,4395.769043,4425.769043,5409.000000,3.000000,72.000000,,,,0.000000,4.000000,4.000000,4.000000,4.000000,4.000000,4.000000,4.000000,4.000000,4.000000,4.000000,4.000000,4.000000,4.000000,4.000000,100.000000,,,,,,,,,,,,,,,,,,,,,,,,,,,,
1703500630.684632,1703500630.684953,68.000000,0.000000,4345.769043,4302.436035,4335.000000,4321.025879,4298.974121,4278.589844,4296.538574,4261.410156,4283.333496,4270.512695,4504.743652,4491.025879,4397.820313,4425.384766,5338.000000,3.000000,72.000000,,,,0.000000,4.000000,4.000000,4.000000,4.000000,4.000000,4.000000,4.000000,4.000000,4.000000,4.000000,4.000000,4.000000,4.000000,4.000000,100.000000,,,,,,,,,,,,,,,,,17.000000,0.000000,0.621643,0.283447,-0.641052,0.349670,0.983518,-0.106458,0.009767,-12.263249,-37.204468,61.853020
1703500630.692440,1703500630.692761,69.000000,0.000000,4342.051270,4299.871582,4329.358887,4315.897461,4292.692383,4277.692383,4295.512695,4256.282227,4283.205078,4288.717773,4500.384766,4478.461426,4399.358887,4431.922852,5308.000000,3.000000,72.000000,,,,0.000000,4.000000,4.000000,4.000000,4.000000,4.000000,4.000000,4.000000,4.000000,4.000000,4.000000,4.000000,4.000000,4.000000,4.000000,100.000000,,,,,,,,,,,,,,,,,,,,,,,,,,,,
1703500630.700248,1703500630.700669,70.000000,0.000000,4340.769043,4293.461426,4323.461426,4308.077148,4281.538574,4276.922852,4294.102539,4251.153809,4280.256348,4273.589844,4493.461426,4469.743652,4394.102539,4429.358887,4527.000000,3.000000,72.000000,,,,0.000000,4.000000,4.000000,4.000000,4.000000,4.000000,4.000000,4.000000,4.000000,4.000000,4.000000,4.000000,4.000000,4.000000,4.000000,100.000000,,,,,,,,,,,,,,,,,,,,,,,,,,,,
1703500630.708057,1703500630.708477,71.000000,0.000000,4342.436035,4293.717773,4327.948730,4315.641113,4288.589844,4279.230957,4298.333496,4257.307617,4282.563965,4272.948730,4503.589844,4479.743652,4393.846191,4424.230957,5227.000000,3.000000,72.000000,,,,0.000000,4.000000,4.000000,4.000000,4.000000,4.000000,4.000000,4.000000,4.000000,4.000000,4.000000,4.000000,4.000000,4.000000,4.000000,100.000000,,,,,,,,,,,,,,,,,,,,,,,,,,,,
1703500630.715865,1703500630.716185,72.000000,0.000000,4347.820313,4301.922852,4338.461426,4321.794922,4302.820313,4286.538574,4305.897461,4262.179688,4286.282227,4272.051270,4513.333496,4493.589844,4401.153809,4430.000000,5422.000000,3.000000,72.000000,,,,0.000000,4.000000,4.000000,4.000000,4.000000,4.000000,4.000000,4.000000,4.000000,4.000000,4.000000,4.000000,4.000000,4.000000,4.000000,100.000000,1.000000,100.000000,4.000000,4.000000,4.000000,4.000000,4.000000,4.000000,4.000000,4.000000,4.000000,4.000000,4.000000,4.000000,4.000000,4.000000,18.000000,0.000000,0.621763,0.283386,-0.640930,0.349731,0.993285,-0.117690,0.008790,-12.236925,-37.234020,61.967720
1703500630.723673,1703500630.723993,73.000000,0.000000,4357.179688,4307.563965,4341.666504,4322.948730,4302.563965,4290.769043,4312.179688,4262.820313,4286.794922,4262.692383,4506.794922,4498.589844,4403.717773,4438.205078,5440.000000,3.000000,72.000000,,,,0.000000,4.000000,4.000000,4.000000,4.000000,4.000000,4.000000,4.000000,4.000000,4.000000,4.000000,4.000000,4.000000,4.000000,4.000000,100.000000,,,,,,,,,,,,,,,,,,,,,,,,,,,,
1703500630.731481,1703500630.731701,74.000000,0.000000,4354.487305,4300.769043,4335.128418,4323.333496,4296.538574,4284.615234,4312.563965,4261.666504,4284.871582,4277.436035,4496.153809,4493.077148,4392.179688,4427.692383,6077.000000,3.000000,72.000000,,,,0.000000,4.000000,4.000000,4.000000,4.000000,4.000000,4.000000,4.000000,4.000000,4.000000,4.000000,4.000000,4.000000,4.000000,4.000000,100.000000,,,,,,,,,,,,,,,,,,,,,,,,,,,,
1703500630.739289,1703500630.739609,75.000000,0.000000,4342.692383,4292.051270,4327.307617,4315.769043,4291.922852,4277.692383,4296.153809,4254.102539,4278.589844,4277.563965,4487.692383,4478.077148,4380.384766,4417.051270,6327.000000,3.000000,72.000000,,,,0.000000,4.000000,4.000000,4.000000,4.000000,4.000000,4.000000,4.000000,4.000000,4.000000,4.000000,4.000000,4.000000,4.000000,4.000000,100.000000,,,,,,,,,,,,,,,,,,,,,,,,,,,,
1703500630.747097,1703500630.747417,76.000000,0.000000,4339.487305,4292.051270,4327.307617,4309.358887,4278.589844,4275.769043,4278.461426,4248.077148,4273.589844,4248.077148,4481.794922,4471.666504,4380.897461,4426.666504,6863.000000,3.000000,72.000000,,,,0.000000,4.000000,4.000000,4.000000,4.000000,4.000000,4.000000,4.000000,4.000000,4.000000,4.000000,4.000000,4.000000,4.000000,4.000000,100.000000,,,,,,,,,,,,,,,,,19.000000,0.000000,0.621897,0.283203,-0.640747,0.349976,0.981565,-0.109877,0.016604,-12.246566,-37.093952,61.954281
1703500630.754905,1703500630.755225,77.000000,0.000000,4343.461426,4291.410156,4328.846191,4311.282227,4268.846191,4273.974121,4276.025879,4248.846191,4275.641113,4242.948730,4477.307617,4472.051270,4384.102539,4430.512695,7418.000000,3.000000,72.000000,,,,0.000000,4.000000,4.000000,4.000000,4.000000,4.000000,4.000000,4.000000,4.000000,4.000000,4.000000,4.000000,4.000000,4.000000,4.000000,100.000000,,,,,,,,,,,,,,,,,,,,,,,,,,,,
1703500630.762713,1703500630.762933,78.000000,0.000000,4342.692383,4287.436035,4326.410156,4313.589844,4276.922852,4269.358887,4272.436035,4247.436035,4273.846191,4257.051270,4475.000000,4465.000000,4383.461426,4421.410156,6077.000000,3.000000,72.000000,,,,0.000000,4.000000,4.000000,4.000000,4.000000,4.000000,4.000000,4.000000,4.000000,4.000000,4.000000,4.000000,4.000000,4.000000,4.000000,100.000000,,,,,,,,,,,,,,,,,,,,,,,,,,,,
1703500630.770521,1703500630.770741,79.000000,0.000000,4336.282227,4282.820313,4325.641113,4311.666504,4285.000000,4266.025879,4268.461426,4247.051270,4266.666504,4253.333496,4473.846191,4460.128418,4381.153809,4412.179688,6327.000000,3.000000,72.000000,,,,0.000000,4.000000,4.000000,4.000000,4.000000,4.000000,4.000000,4.000000,4.000000,4.000000,4.000000,4.000000,4.000000,4.000000,4.000000,100.000000,,,,,,,,,,,,,,,,,,,,,,,,,,,,
1703500630.778329,1703500630.778449,80.000000,0.000000,4333.589844,4279.615234,4326.282227,4311.666504,4278.846191,4267.436035,4280.897461,4245.512695,4263.205078,4243.974121,4460.000000,4463.461426,4373.461426,4400.128418,6863.000000,3.000000,72.000000,,,,0.000000,4.000000,4.000000,4.000000,4.000000,4.000000,4.000000,4.000000,4.000000,4.000000,4.000000,4.000000,4.000000,4.000000,4.000000,100.000000,,,,,,,,,,,,,,,,,20.000000,0.000000,0.621995,0.282837,-0.640747,0.350098,0.996215,-0.104017,0.009278,-12.155242,-36.984558,61.958851
1703500630.786137,1703500630.786257,81.000000,0.000000,4335.897461,4281.410156,4325.897461,4312.692383,4275.641113,4272.179688,4294.487305,4239.743652,4262.307617,4241.922852,4445.641113,4463.205078,4365.512695,4395.000000,7418.000000,3.000000,72.000000,,,,0.000000,4.000000,4.000000,4.000000,4.000000,4.000000,4.000000,4.000000,4.000000,4.000000,4.000000,4.000000,4.000000,4.000000,4.000000,100.000000,,,,,,,,,,,,,,,,,,,,,,,,,,,,
1703500630.793945,1703500630.793965,82.000000,0.000000,4330.897461,4280.897461,4323.077148,4311.794922,4277.051270,4275.512695,4292.179688,4240.769043,4261.538574,4247.820313,4448.205078,4461.666504,4364.102539,4403.077148,6077.000000,3.000000,72.000000,,,,0.000000,4.000000,4.000000,4.000000,4.000000,4.000000,4.000000,4.000000,4.000000,4.000000,4.000000,4.000000,4.000000,4.000000,4.000000,100.000000,,,,,,,,,,,,,,,,,,,,,,,,,,,,
1703500630.801753,1703500630.801873,83.000000,0.000000,4323.077148,4277.948730,4314.743652,4311.153809,4267.820313,4274.230957,4287.948730,4246.282227,4261.922852,4255.384766,4451.282227,4459.102539,4365.128418,4404.230957,6327.000000,3.000000,72.000000,,,,0.000000,4.000000,4.000000,4.000000,4.000000,4.000000,4.000000,4.000000,4.000000,4.000000,4.000000,4.000000,4.000000,4.000000,4.000000,100.000000,,,,,,,,,,,,,,,,,,,,,,,,,,,,
1703500630.809561,1703500630.809681,84.000000,0.000000,4322.948730,4277.820313,4310.384766,4309.102539,4258.589844,4268.846191,4285.897461,4245.512695,4261.153809,4251.282227,4447.051270,4449.871582,4367.563965,4396.410156,6863.000000,3.000000,72.000000,,,,0.000000,4.000000,4.000000,4.000000,4.000000,4.000000,4.000000,4.000000,4.000000,4.000000,4.000000,4.000000,4.000000,4.000000,4.000000,100.000000,,,,,,,,,,,,,,,,,21.000000,0.000000,0.622050,0.282654,-0.640808,0.350037,0.978635,-0.107435,0.019534,-12.206385,-37.002769,61.929634
1703500630.817369,1703500630.817589,85.000000,0.000000,4317.820313,4273.974121,4307.948730,4307.820313,4263.077148,4265.384766,4282.051270,4245.769043,4258.589844,4241.282227,4451.794922,4449.615234,4371.025879,4396.922852,7418.000000,3.000000,72.000000,,,,0.000000,4.000000,4.000000,4.000000,4.000000,4.000000,4.000000,4.000000,4.000000,4.000000,4.000000,4.000000,4.000000,4.000000,4.000000,100.000000,,,,,,,,,,,,,,,,,,,,,,,,,,,,
1703500630.825177,1703500630.825397,86.000000,0.000000,4308.846191,4272.820313,4300.384766,4308.717773,4268.846191,4270.384766,4283.589844,4248.974121,4260.256348,4241.153809,4460.641113,4461.025879,4372.820313,4396.794922,6077.000000,3.000000,72.000000,,,,0.000000,4.000000,4.000000,4.000000,4.000000,4.000000,4.000000,4.000000,4.000000,4.000000,4.000000,4.000000,4.000000,4.000000,4.000000,100.000000,,,,,,,,,,,,,,,,,,,,,,,,,,,,
1703500630.832985,1703500630.833305,87.000000,0.000000,4313.846191,4276.666504,4299.487305,4310.128418,4264.102539,4276.025879,4286.025879,4251.538574,4266.538574,4249.358887,4458.846191,4466.794922,4373.205078,4397.692383,6327.000000,3.000000,72.000000,,,,0.000000,4.000000,4.000000,4.000000,4.000000,4.000000,4.000000,4.000000,4.000000,4.000000,4.000000,4.000000,4.000000,4.000000,4.000000,100.000000,,,,,,,,,,,,,,,,,,,,,,,,,,,,
1703500630.840793,1703500630.841113,88.000000,0.000000,4320.512695,4274.230957,4301.410156,4309.871582,4265.641113,4271.922852,4282.436035,4257.820313,4275.256348,4251.922852,4459.102539,4461.538574,4375.769043,4411.410156,6863.000000,3.000000,72.000000,,,,0.000000,4.000000,4.000000,4.000000,4.000000,4.000000,4.000000,4.000000,4.000000,4.000000,4.000000,4.000000,4.000000,4.000000,4.000000,100.000000,,,,,,,,,,,,,,,,,22.000000,0.000000,0.622126,0.282349,-0.640869,0.350037,0.984984,-0.102552,0.016604,-12.252413,-37.019157,61.936668
1703500630.848601,1703500630.849021,89.000000,0.000000,4313.846191,4271.922852,4293.461426,4309.487305,4266.922852,4266.410156,4277.948730,4260.128418,4279.871582,4248.205078,4458.974121,4458.205078,4373.717773,4412.563965,7418.000000,3.000000,72.000000,,,,0.000000,4.000000,4.000000,4.000000,4.000000,4.000000,4.000000,4.000000,4.000000,4.000000,4.000000,4.000000,4.000000,4.000000,4.000000,100.000000,,,,,,,,,,,,,,,,,,,,,,,,,,,,
1703500630.856409,1703500630.856829,90.000000,0.000000,4309.743652,4274.230957,4289.743652,4309.358887,4253.333496,4266.153809,4278.205078,4252.436035,4276.538574,4253.461426,4450.897461,4459.102539,4370.000000,4392.436035,6077.000000,3.000000,72.000000,,,,0.000000,4.000000,4.000000,4.000000,4.000000,4.000000,4.000000,4.000000,4.000000,4.000000,4.000000,4.000000,4.000000,4.000000,4.000000,100.000000,,,,,,,,,,,,,,,,,,,,,,,,,,,,
1703500630.864217,1703500630.864737,91.000000,0.000000,4312.307617,4269.358887,4292.307617,4310.384766,4251.794922,4266.794922,4278.205078,4245.384766,4272.948730,4269.871582,4450.128418,4451.282227,4375.384766,4389.871582,6327.000000,3.000000,72.000000,,,,0.000000,4.000000,4.000000,4.000000,4.000000,4.000000,4.000000,4.000000,4.000000,4.000000,4.000000,4.000000,4.000000,4.000000,4.000000,100.000000,,,,,,,,,,,,,,,,,,,,,,,,,,,,
1703500630.872025,1703500630.872545,92.000000,0.000000,4308.205078,4260.897461,4284.230957,4306.282227,4266.153809,4266.410156,4276.666504,4242.820313,4268.846191,4267.692383,4453.077148,4439.743652,4376.153809,4401.025879,6863.000000,3.000000,72.000000,,,,0.000000,4.000000,4.000000,4.000000,4.000000,4.000000,4.000000,4.000000,4.000000,4.000000,4.000000,4.000000,4.000000,4.000000,4.000000,100.000000,,,,,,,,,,,,,,,,,23.000000,0.000000,0.622070,0.282471,-0.640869,0.350037,0.990355,-0.096691,0.023440,-12.160505,-37.033909,61.993004
1703500630.879834,1703500630.880452,93.000000,0.000000,4304.487305,4261.025879,4278.461426,4300.512695,4264.871582,4266.025879,4278.205078,4242.692383,4264.615234,4246.025879,4446.538574,4441.410156,4364.871582,4393.333496,7418.000000,3.000000,72.000000,,,,0.000000,4.000000,4.000000,4.000000,4.000000,4.000000,4.000000,4.000000,4.000000,4.000000,4.000000,4.000000,4.000000,4.000000,4.000000,100.000000,,,,,,,,,,,,,,,,,,,,,,,,,,,,
1703500630.887642,1703500630.888260,94.000000,0.000000,4307.820313,4265.128418,4287.179688,4299.102539,4257.179688,4267.179688,4280.769043,4243.461426,4264.743652,4238.717773,4441.282227,4447.307617,4359.615234,4385.512695,6077.000000,3.000000,72.000000,,,,0.000000,4.000000,4.000000,4.000000,4.000000,4.000000,4.000000,4.000000,4.000000,4.000000,4.000000,4.000000,4.000000,4.000000,4.000000,100.000000,,,,,,,,,,,,,,,,,,,,,,,,,,,,
1703500630.895450,1703500630.895968,95.000000,0.000000,4310.000000,4263.461426,4294.230957,4299.102539,4261.153809,4266.794922,4280.512695,4243.077148,4263.589844,4248.205078,4443.717773,4442.051270,4363.974121,4394.615234,6327.000000,3.000000,72.000000,,,,0.000000,4.000000,4.000000,4.000000,4.000000,4.000000,4.000000,4.000000,4.000000,4.000000,4.000000,4.000000,4.000000,4.000000,4.000000,100.000000,,,,,,,,,,,,,,,,,,,,,,,,,,,,
1703500630.903258,1703500630.903776,96.000000,0.000000,4311.410156,4266.282227,4293.974121,4304.102539,4255.000000,4265.128418,4279.871582,4243.846191,4263.461426,4248.846191,4445.641113,4440.512695,4367.563965,4398.589844,6863.000000,3.000000,72.000000,,,,0.000000,4.000000,4.000000,4.000000,4.000000,4.000000,4.000000,4.000000,4.000000,4.000000,4.000000,4.000000,4.000000,4.000000,4.000000,100.000000,,,,,,,,,,,,,,,,,24.000000,0.000000,0.621980,0.282593,-0.640869,0.350098,0.992309,-0.109388,0.011720,-12.144455,-36.997185,61.977036
1703500630.911066,1703500630.911485,97.000000,0.000000,4315.769043,4274.615234,4293.205078,4311.410156,4245.769043,4266.666504,4284.871582,4247.307617,4265.897461,4242.307617,4445.769043,4447.692383,4367.436035,4389.487305,7418.000000,3.000000,72.000000,,,,0.000000,4.000000,4.000000,4.000000,4.000000,4.000000,4.000000,4.000000,4.000000,4.000000,4.000000,4.000000,4.000000,4.000000,4.000000,100.000000,,,,,,,,,,,,,,,,,,,,,,,,,,,,
1703500630.918874,1703500630.919292,98.000000,0.000000,4318.717773,4272.692383,4295.769043,4311.794922,4257.436035,4272.051270,4287.820313,4246.794922,4264.102539,4243.077148,4448.205078,4448.717773,4368.717773,4387.692383,6077.000000,3.000000,72.000000,,,,0.000000,4.000000,4.000000,4.000000,4.000000,4.000000,4.000000,4.000000,4.000000,4.000000,4.000000,4.000000,4.000000,4.000000,4.000000,100.000000,,,,,,,,,,,,,,,,,,,,,,,,,,,,
1703500630.926682,1703500630.927001,99.000000,0.000000,4324.230957,4264.615234,4300.256348,4309.615234,4269.102539,4277.563965,4282.820313,4245.384766,4267.051270,4249.230957,4452.820313,4448.077148,4374.615234,4410.384766,6327.000000,3.000000,72.000000,,,,0.000000,4.000000,4.000000,4.000000,4.000000,4.000000,4.000000,4.000000,4.000000,4.000000,4.000000,4.000000,4.000000,4.000000,4.000000,100.000000,,,,,,,,,,,,,,,,,,,,,,,,,,,,
1703500630.934490,1703500630.934809,100.000000,0.000000,4332.051270,4270.128418,4306.538574,4311.282227,4263.461426,4271.666504,4279.102539,4246.153809,4273.717773,4255.897461,4460.000000,4454.102539,4379.487305,4431.538574,6863.000000,3.000000,72.000000,,,,0.000000,4.000000,4.000000,4.000000,4.000000,4.000000,4.000000,4.000000,4.000000,4.000000,4.000000,4.000000,4.000000,4.000000,4.000000,100.000000,,,,,,,,,,,,,,,,,25.000000,0.000000,0.622058,0.282837,-0.640686,0.350098,0.982542,-0.107923,0.020510,-12.230009,-37.014133,61.945999
1703500630.942298,1703500630.942517,101.000000,0.000000,4329.743652,4277.692383,4309.487305,4311.666504,4256.922852,4265.000000,4279.615234,4248.461426,4277.051270,4262.307617,4468.077148,4461.794922,4383.589844,4424.487305,7418.000000,3.000000,72.000000,,,,0.000000,4.000000,4.000000,4.000000,4.000000,4.000000,4.000000,4.000000,4.000000,4.000000,4.000000,4.000000,4.000000,4.000000,4.000000,100.000000,,,,,,,,,,,,,,,,,,,,,,,,,,,,
1703500630.950106,1703500630.950325,102.000000,0.000000,4324.743652,4273.205078,4309.615234,4310.512695,4264.230957,4271.538574,4278.974121,4254.487305,4284.743652,4267.563965,4478.717773,4471.794922,4394.743652,4420.128418,6077.000000,3.000000,72.000000,,,,0.000000,4.000000,4.000000,4.000000,4.000000,4.000000,4.000000,4.000000,4.000000,4.000000,4.000000,4.000000,4.000000,4.000000,4.000000,100.000000,,,,,,,,,,,,,,,,,,,,,,,,,,,,
1703500630.957914,1703500630.958033,103.000000,0.000000,4329.487305,4272.948730,4311.025879,4312.692383,4261.025879,4273.461426,4278.461426,4256.282227,4287.436035,4262.820313,4482.692383,4476.794922,4397.948730,4427.948730,6327.000000,3.000000,72.000000,,,,0.000000,4.000000,4.000000,4.000000,4.000000,4.000000,4.000000,4.000000,4.000000,4.000000,4.000000,4.000000,4.000000,4.000000,4.000000,100.000000,,,,,,,,,,,,,,,,,,,,,,,,,,,,
1703500630.965722,1703500630.965841,104.000000,0.000000,4325.897461,4275.512695,4308.589844,4311.922852,4246.922852,4265.000000,4277.563965,4248.077148,4279.743652,4258.589844,4470.641113,4466.922852,4383.974121,4415.384766,6863.000000,3.000000,72.000000,,,,0.000000,4.000000,4.000000,4.000000,4.000000,4.000000,4.000000,4.000000,4.000000,4.000000,4.000000,4.000000,4.000000,4.000000,4.000000,100.000000,,,,,,,,,,,,,,,,,26.000000,0.000000,0.622183,0.283203,-0.640503,0.349915,0.993285,-0.104505,0.017580,-12.357008,-37.246052,62.001400
1703500630.973530,1703500630.973549,105.000000,0.000000,4312.563965,4269.230957,4301.282227,4309.487305,4250.128418,4263.333496,4276.666504,4243.846191,4275.000000,4249.615234,4457.051270,4455.512695,4373.589844,4396.153809,7418.000000,3.000000,72.000000,,,,0.000000,4.000000,4.000000,4.000000,4.000000,4.000000,4.000000,4.000000,4.000000,4.000000,4.000000,4.000000,4.000000,4.000000,4.000000,100.000000,,,,,,,,,,,,,,,,,,,,,,,,,,,,
1703500630.981338,1703500630.981457,106.000000,0.000000,4307.051270,4261.025879,4295.256348,4306.922852,4261.666504,4266.410156,4275.384766,4247.436035,4269.615234,4232.051270,4456.282227,4449.871582,4373.077148,4395.128418,6077.000000,3.000000,72.000000,,,,0.000000,4.000000,4.000000,4.000000,4.000000,4.000000,4.000000,4.000000,4.000000,4.000000,4.000000,4.000000,4.000000,4.000000,4.000000,100.000000,,,,,,,,,,,,,,,,,,,,,,,,,,,,
1703500630.989146,1703500630.989265,107.000000,0.000000,4310.384766,4264.230957,4296.410156,4306.410156,4261.153809,4265.128418,4273.846191,4246.794922,4263.974121,4237.051270,4458.717773,4444.487305,4371.538574,4399.615234,6327.000000,3.000000,72.000000,,,,0.000000,4.000000,4.000000,4.000000,4.000000,4.000000,4.000000,4.000000,4.000000,4.000000,4.000000,4.000000,4.000000,4.000000,4.000000,100.000000,,,,,,,,,,,,,,,,,,,,,,,,,,,,
1703500630.996954,1703500630.997173,108.000000,0.000000,4317.948730,4273.974121,4307.563965,4311.025879,4256.538574,4266.666504,4277.563965,4246.922852,4271.538574,4254.487305,4459.230957,4450.384766,4372.563965,4406.410156,6863.000000,3.000000,72.000000,,,,0.000000,4.000000,4.000000,4.000000,4.000000,4.000000,4.000000,4.000000,4.000000,4.000000,4.000000,4.000000,4.000000,4.000000,4.000000,100.000000,,,,,,,,,,,,,,,,,27.000000,0.000000,0.622494,0.283386,-0.640320,0.349548,0.980100,-0.103528,-0.003907,-12.521307,-37.154781,62.084591
1703500631.004762,1703500631.004981,109.000000,0.000000,4326.538574,4277.563965,4313.717773,4317.820313,4251.794922,4269.615234,4281.666504,4252.051270,4280.641113,4258.461426,4465.641113,4462.692383,4381.282227,4418.077148,7418.000000,3.000000,72.000000,,,,0.000000,4.000000,4.000000,4.000000,4.000000,4.000000,4.000000,4.000000,4.000000,4.000000,4.000000,4.000000,4.000000,4.000000,4.000000,100.000000,,,,,,,,,,,,,,,,,,,,,,,,,,,,
1703500631.012570,1703500631.012889,110.000000,0.000000,4326.794922,4277.820313,4309.487305,4319.871582,4246.538574,4266.282227,4280.256348,4252.051270,4277.692383,4259.487305,4474.487305,4462.563965,4387.436035,4417.692383,6077.000000,3.000000,72.000000,,,,0.000000,4.000000,4.000000,4.000000,4.000000,4.000000,4.000000,4.000000,4.000000,4.000000,4.000000,4.000000,4.000000,4.000000,4.000000,100.000000,,,,,,,,,,,,,,,,,,,,,,,,,,,,
1703500631.020378,1703500631.020697,111.000000,0.000000,4325.384766,4279.743652,4314.615234,4318.077148,4253.974121,4265.512695,4279.487305,4247.563965,4272.051270,4260.384766,4474.487305,4460.641113,4386.794922,4414.743652,6327.000000,3.000000,72.000000,,,,0.000000,4.000000,4.000000,4.000000,4.000000,4.000000,4.000000,4.000000,4.000000,4.000000,4.000000,4.000000,4.000000,4.000000,4.000000,100.000000,,,,,,,,,,,,,,,,,,,,,,,,,,,,
1703500631.028186,1703500631.028505,112.000000,0.000000,4334.615234,4281.282227,4327.948730,4319.871582,4263.717773,4271.538574,4280.512695,4245.384766,4272.307617,4248.974121,4474.230957,4470.384766,4391.153809,4425.128418,6863.000000,3.000000,72.000000,,,,0.000000,4.000000,4.000000,4.000000,4.000000,4.000000,4.000000,4.000000,4.000000,4.000000,4.000000,4.000000,4.000000,4.000000,4.000000,100.000000,,,,,,,,,,,,,,,,,28.000000,0.000000,0.622520,0.283630,-0.640320,0.349304,0.986937,-0.099622,0.008302,-12.435843,-37.072636,62.209465
1703500631.035994,1703500631.036213,113.000000,0.000000,4342.307617,4281.282227,4330.512695,4322.692383,4261.025879,4272.820313,4279.487305,4245.384766,4273.333496,4243.589844,4475.256348,4479.487305,4395.897461,4425.384766,7418.000000,3.000000,72.000000,,,,0.000000,4.000000,4.000000,4.000000,4.000000,4.000000,4.000000,4.000000,4.000000,4.000000,4.000000,4.000000,4.000000,4.000000,4.000000,100.000000,,,,,,,,,,,,,,,,,,,,,,,,,,,,
1703500631.043802,1703500631.044121,114.000000,0.000000,4343.589844,4283.846191,4327.307617,4324.743652,4257.820313,4266.922852,4278.461426,4245.769043,4269.615234,4253.205078,4469.230957,4477.563965,4392.307617,4413.589844,6077.000000,3.000000,72.000000,,,,0.000000,4.000000,4.000000,4.000000,4.000000,4.000000,4.000000,4.000000,4.000000,4.000000,4.000000,4.000000,4.000000,4.000000,4.000000,100.000000,,,,,,,,,,,,,,,,,,,,,,,,,,,,
1703500631.051611,1703500631.051929,115.000000,0.000000,4344.230957,4283.461426,4328.589844,4323.846191,4256.153809,4265.384766,4278.717773,4247.051270,4265.256348,4248.589844,4463.846191,4471.025879,4386.922852,4417.692383,6327.000000,3.000000,72.000000,,,,0.000000,4.000000,4.000000,4.000000,4.000000,4.000000,4.000000,4.000000,4.000000,4.000000,4.000000,4.000000,4.000000,4.000000,4.000000,100.000000,,,,,,,,,,,,,,,,,,,,,,,,,,,,
1703500631.059419,1703500631.059837,116.000000,0.000000,4332.692383,4278.717773,4325.384766,4315.384766,4248.461426,4266.922852,4278.589844,4244.615234,4263.333496,4231.410156,4461.538574,4466.153809,4383.589844,4422.692383,6863.000000,3.000000,72.000000,,,,0.000000,4.000000,4.000000,4.000000,4.000000,4.000000,4.000000,4.000000,4.000000,4.000000,4.000000,4.000000,4.000000,4.000000,4.000000,100.000000,,,,,,,,,,,,,,,,,29.000000,0.000000,0.622622,0.283569,-0.640381,0.349060,0.984984,-0.091808,0.001465,-12.425592,-36.982040,62.038521
1703500631.067227,1703500631.067645,117.000000,0.000000,4318.717773,4277.563965,4317.820313,4309.230957,4243.461426,4264.230957,4277.948730,4241.538574,4262.051270,4228.333496,4459.487305,4461.538574,4381.025879,4416.282227,7418.000000,3.000000,72.000000,,,,0.000000,4.000000,4.000000,4.000000,4.000000,4.000000,4.000000,4.000000,4.000000,4.000000,4.000000,4.000000,4.000000,4.000000,4.000000,100.000000,,,,,,,,,,,,,,,,,,,,,,,,,,,,
1703500631.075035,1703500631.075553,118.000000,0.000000,4321.153809,4278.974121,4317.307617,4316.282227,4247.948730,4264.358887,4277.179688,4244.230957,4264.615234,4241.153809,4462.179688,4461.282227,4381.538574,4418.846191,6077.000000,3.000000,72.000000,,,,0.000000,4.000000,4.000000,4.000000,4.000000,4.000000,4.000000,4.000000,4.000000,4.000000,4.000000,4.000000,4.000000,4.000000,4.000000,100.000000,,,,,,,,,,,,,,,,,,,,,,,,,,,,
1703500631.082843,1703500631.083361,119.000000,0.000000,4328.461426,4279.871582,4320.384766,4322.948730,4254.358887,4267.948730,4277.820313,4247.307617,4266.538574,4242.563965,4465.256348,4465.512695,4380.897461,4423.205078,6327.000000,3.000000,72.000000,,,,0.000000,4.000000,4.000000,4.000000,4.000000,4.000000,4.000000,4.000000,4.000000,4.000000,4.000000,4.000000,4.000000,4.000000,4.000000,100.000000,,,,,,,,,,,,,,,,,,,,,,,,,,,,
1703500631.090651,1703500631.091069,120.000000,0.000000,4325.897461,4276.666504,4320.897461,4315.769043,4251.666504,4266.922852,4278.077148,4247.692383,4265.256348,4232.436035,4462.051270,4465.769043,4378.205078,4413.974121,6863.000000,3.000000,72.000000,,,,0.000000,4.000000,4.000000,4.000000,4.000000,4.000000,4.000000,4.000000,4.000000,4.000000,4.000000,4.000000,4.000000,4.000000,4.000000,100.000000,,,,,,,,,,,,,,,,,30.000000,0.000000,0.622560,0.283630,-0.640381,0.349121,0.978147,-0.090831,0.016115,-12.449699,-36.917168,62.201336
1703500631.098459,1703500631.098877,121.000000,0.000000,4322.179688,4272.692383,4321.153809,4308.205078,4237.051270,4261.666504,4272.692383,4242.692383,4263.077148,4234.871582,4454.230957,4465.769043,4373.461426,4405.512695,7418.000000,3.000000,72.000000,,,,0.000000,4.000000,4.000000,4.000000,4.000000,4.000000,4.000000,4.000000,4.000000,4.000000,4.000000,4.000000,4.000000,4.000000,4.000000,100.000000,,,,,,,,,,,,,,,,,,,,,,,,,,,,
1703500631.106267,1703500631.106585,122.000000,0.000000,4320.897461,4271.153809,4319.102539,4308.589844,4232.307617,4257.436035,4265.384766,4234.230957,4255.769043,4239.230957,4453.846191,4464.102539,4368.077148,4406.794922,6077.000000,3.000000,72.000000,,,,0.000000,4.000000,4.000000,4.000000,4.000000,4.000000,4.000000,4.000000,4.000000,4.000000,4.000000,4.000000,4.000000,4.000000,4.000000,100.000000,,,,,,,,,,,,,,,,,,,,,,,,,,,,
1703500631.114075,1703500631.114493,123.000000,0.000000,4318.589844,4268.846191,4313.333496,4309.615234,4247.051270,4257.948730,4268.846191,4228.974121,4247.436035,4224.230957,4455.641113,4453.205078,4369.358887,4408.974121,6327.000000,3.000000,72.000000,,,,0.000000,4.000000,4.000000,4.000000,4.000000,4.000000,4.000000,4.000000,4.000000,4.000000,4.000000,4.000000,4.000000,4.000000,4.000000,100.000000,,,,,,,,,,,,,,,,,,,,,,,,,,,,
1703500631.121883,1703500631.122301,124.000000,0.000000,4317.051270,4266.922852,4309.230957,4306.282227,4254.743652,4262.051270,4274.615234,4229.230957,4245.000000,4208.974121,4448.974121,4445.512695,4368.589844,4406.025879,6863.000000,3.000000,72.000000,,,,0.000000,4.000000,4.000000,4.000000,4.000000,4.000000,4.000000,4.000000,4.000000,4.000000,4.000000,4.000000,4.000000,4.000000,4.000000,100.000000,,,,,,,,,,,,,,,,,31.000000,0.000000,0.622588,0.283569,-0.640381,0.349121,0.980588,-0.107435,0.012209,-12.404730,-37.058784,61.997868
1703500631.129691,1703500631.130109,125.000000,0.000000,4313.589844,4265.128418,4306.410156,4305.769043,4247.563965,4262.820313,4268.846191,4228.717773,4243.077148,4221.538574,4441.410156,4448.589844,4358.205078,4395.769043,7418.000000,3.000000,72.000000,,,,0.000000,4.000000,4.000000,4.000000,4.000000,4.000000,4.000000,4.000000,4.000000,4.000000,4.000000,4.000000,4.000000,4.000000,4.000000,100.000000,,,,,,,,,,,,,,,,,,,,,,,,,,,,
1703500631.137499,1703500631.137817,126.000000,0.000000,4310.512695,4266.410156,4307.051270,4310.384766,4250.000000,4262.692383,4267.692383,4226.794922,4243.077148,4232.436035,4441.153809,4450.512695,4353.974121,4388.461426,6077.000000,3.000000,72.000000,,,,0.000000,4.000000,4.000000,4.000000,4.000000,4.000000,4.000000,4.000000,4.000000,4.000000,4.000000,4.000000,4.000000,4.000000,4.000000,100.000000,,,,,,,,,,,,,,,,,,,,,,,,,,,,
1703500631.145307,1703500631.145625,127.000000,0.000000,4311.410156,4272.179688,4309.743652,4310.641113,4254.615234,4269.102539,4275.897461,4230.384766,4252.051270,4214.743652,4443.077148,4443.846191,4358.205078,4395.641113,72.000000,3.000000,72.000000,,,,0.000000,4.000000,4.000000,4.000000,4.000000,4.000000,4.000000,4.000000,4.000000,4.000000,4.000000,4.000000,4.000000,4.000000,4.000000,100.000000,,,,,,,,,,,,,,,,,,,,,,,,,,,,
1703500631.153115,1703500631.153333,0.000000,0.000000,4317.820313,4276.410156,4312.307617,4312.051270,4247.820313,4277.563965,4278.077148,4242.179688,4267.563965,4212.436035,4448.333496,4446.922852,4362.307617,4405.641113,5637.000000,3.000000,72.000000,,,,0.000000,4.000000,4.000000,4.000000,4.000000,4.000000,4.000000,4.000000,4.000000,4.000000,4.000000,4.000000,4.000000,4.000000,4.000000,100.000000,,,,,,,,,,,,,,,,,0.000000,0.000000,0.622492,0.283691,-0.640320,0.349304,0.985472,-0.101575,0.010255,-12.380923,-37.069572,61.998081
1703500631.160923,1703500631.161141,1.000000,0.000000,4331.410156,4278.461426,4323.077148,4318.717773,4252.820313,4280.512695,4281.410156,4256.922852,4284.871582,4244.743652,4463.461426,4468.589844,4369.487305,4408.461426,5587.000000,3.000000,72.000000,,,,0.000000,4.000000,4.000000,4.000000,4.000000,4.000000,4.000000,4.000000,4.000000,4.000000,4.000000,4.000000,4.000000,4.000000,4.000000,100.000000,,,,,,,,,,,,,,,,,,,,,,,,,,,,
1703500631.168731,1703500631.168850,2.000000,0.000000,4337.307617,4278.205078,4332.948730,4320.641113,4265.512695,4280.256348,4291.153809,4270.000000,4295.897461,4259.743652,4478.974121,4481.025879,4382.948730,4418.846191,5424.000000,3.000000,72.000000,,,,0.000000,4.000000,4.000000,4.000000,4.000000,4.000000,4.000000,4.000000,4.000000,4.000000,4.000000,4.000000,4.000000,4.000000,4.000000,100.000000,,,,,,,,,,,,,,,,,,,,,,,,,,,,
1703500631.176539,1703500631.176758,3.000000,0.000000,4328.846191,4270.384766,4329.358887,4315.000000,4260.897461,4281.666504,4293.589844,4278.077148,4296.153809,4249.487305,4484.358887,4479.102539,4393.589844,4430.641113,5415.000000,3.000000,72.000000,,,,0.000000,4.000000,4.000000,4.000000,4.000000,4.000000,4.000000,4.000000,4.000000,4.000000,4.000000,4.000000,4.000000,4.000000,4.000000,100.000000,,,,,,,,,,,,,,,,,,,,,,,,,,,,
1703500631.184347,1703500631.184566,4.000000,0.000000,4326.410156,4264.487305,4323.205078,4314.871582,4253.461426,4282.692383,4291.025879,4275.256348,4294.358887,4248.205078,4480.641113,4482.051270,4392.948730,4421.922852,5349.000000,3.000000,72.000000,,,,0.000000,4.000000,4.000000,4.000000,4.000000,4.000000,4.000000,4.000000,4.000000,4.000000,4.000000,4.000000,4.000000,4.000000,4.000000,100.000000,,,,,,,,,,,,,,,,,1.000000,0.000000,0.622667,0.283508,-0.640198,0.349365,0.994750,-0.096203,0.009767,-12.376164,-37.145950,61.931606
1703500631.192155,1703500631.192374,5.000000,0.000000,4334.615234,4273.846191,4326.025879,4321.410156,4257.179688,4279.102539,4290.128418,4265.512695,4290.000000,4250.641113,4474.871582,4484.358887,4386.025879,4413.461426,5308.000000,3.000000,72.000000,,,,0.000000,4.000000,4.000000,4.000000,4.000000,4.000000,4.000000,4.000000,4.000000,4.000000,4.000000,4.000000,4.000000,4.000000,4.000000,100.000000,,,,,,,,,,,,,,,,,,,,,,,,,,,,
1703500631.199963,1703500631.200082,6.000000,0.000000,4340.897461,4283.077148,4335.641113,4326.922852,4257.563965,4276.282227,4290.128418,4263.589844,4283.077148,4251.410156,4474.358887,4483.333496,4383.333496,4426.410156,4527.000000,3.000000,72.000000,,,,0.000000,4.000000,4.000000,4.000000,4.000000,4.000000,4.000000,4.000000,4.000000,4.000000,4.000000,4.000000,4.000000,4.000000,4.000000,100.000000,,,,,,,,,,,,,,,,,,,,,,,,,,,,
1703500631.207771,1703500631.207990,7.000000,0.000000,4342.948730,4281.666504,4343.077148,4331.410156,4260.256348,4278.461426,4289.871582,4260.769043,4275.897461,4246.282227,4473.589844,4486.025879,4382.051270,4435.769043,5227.000000,3.000000,72.000000,,,,0.000000,4.000000,4.000000,4.000000,4.000000,4.000000,4.000000,4.000000,4.000000,4.000000,4.000000,4.000000,4.000000,4.000000,4.000000,100.000000,,,,,,,,,,,,,,,,,,,,,,,,,,,,
1703500631.215579,1703500631.215798,8.000000,0.000000,4341.666504,4281.282227,4343.461426,4334.871582,4271.410156,4282.307617,4288.974121,4250.384766,4271.025879,4230.897461,4471.794922,4483.717773,4380.769043,4426.153809,5427.000000,3.000000,72.000000,,,,0.000000,4.000000,4.000000,4.000000,4.000000,4.000000,4.000000,4.000000,4.000000,4.000000,4.000000,4.000000,4.000000,4.000000,4.000000,100.000000,1.000000,100.000000,4.000000,4.000000,4.000000,4.000000,4.000000,4.000000,4.000000,4.000000,4.000000,4.000000,4.000000,4.000000,4.000000,4.000000,2.000000,0.000000,0.622667,0.283508,-0.640198,0.349365,0.993285,-0.099133,0.015139,-12.355215,-37.231354,62.021778
1703500631.223388,1703500631.223706,9.000000,0.000000,4343.846191,4283.333496,4344.615234,4336.538574,4270.769043,4280.512695,4286.025879,4249.358887,4274.230957,4232.307617,4472.563965,4476.922852,4383.077148,4417.563965,5459.000000,3.000000,72.000000,,,,0.000000,4.000000,4.000000,4.000000,4.000000,4.000000,4.000000,4.000000,4.000000,4.000000,4.000000,4.000000,4.000000,4.000000,4.000000,100.000000,,,,,,,,,,,,,,,,,,,,,,,,,,,,
1703500631.231196,1703500631.231514,10.000000,0.000000,4351.025879,4277.820313,4346.282227,4338.205078,4265.128418,4278.589844,4284.743652,4256.025879,4280.128418,4253.077148,4474.487305,4477.948730,4382.307617,4421.922852,6078.000000,3.000000,72.000000,,,,0.000000,4.000000,4.000000,4.000000,4.000000,4.000000,4.000000,4.000000,4.000000,4.000000,4.000000,4.000000,4.000000,4.000000,4.000000,100.000000,,,,,,,,,,,,,,,,,,,,,,,,,,,,
1703500631.239004,1703500631.239422,11.000000,0.000000,4349.487305,4264.230957,4339.743652,4341.153809,4263.974121,4281.410156,4287.820313,4257.307617,4283.333496,4250.384766,4474.871582,4478.333496,4379.230957,4428.717773,6342.000000,3.000000,72.000000,,,,0.000000,4.000000,4.000000,4.000000,4.000000,4.000000,4.000000,4.000000,4.000000,4.000000,4.000000,4.000000,4.000000,4.000000,4.000000,100.000000,,,,,,,,,,,,,,,,,,,,,,,,,,,,
1703500631.246812,1703500631.247230,12.000000,0.000000,4338.974121,4251.025879,4332.820313,4335.128418,4257.051270,4281.282227,4288.974121,4258.205078,4288.077148,4237.563965,4474.743652,4472.820313,4385.769043,4423.077148,6867.000000,3.000000,72.000000,,,,0.000000,4.000000,4.000000,4.000000,4.000000,4.000000,4.000000,4.000000,4.000000,4.000000,4.000000,4.000000,4.000000,4.000000,4.000000,100.000000,,,,,,,,,,,,,,,,,3.000000,0.000000,0.622861,0.283508,-0.640076,0.349243,0.988890,-0.106458,0.015627,-12.269693,-37.258221,62.002934
1703500631.254620,1703500631.255137,13.000000,0.000000,4338.077148,4245.641113,4328.974121,4325.256348,4257.436035,4281.922852,4288.333496,4263.077148,4297.179688,4255.128418,4481.410156,4471.794922,4392.820313,4417.436035,7413.000000,3.000000,72.000000,,,,0.000000,4.000000,4.000000,4.000000,4.000000,4.000000,4.000000,4.000000,4.000000,4.000000,4.000000,4.000000,4.000000,4.000000,4.000000,100.000000,,,,,,,,,,,,,,,,,,,,,,,,,,,,
1703500631.262428,1703500631.262945,14.000000,0.000000,4340.897461,4245.256348,4324.743652,4328.077148,4273.461426,4290.641113,4294.230957,4265.769043,4299.102539,4260.641113,4480.128418,4474.615234,4384.487305,4415.512695,6078.000000,3.000000,72.000000,,,,0.000000,4.000000,4.000000,4.000000,4.000000,4.000000,4.000000,4.000000,4.000000,4.000000,4.000000,4.000000,4.000000,4.000000,4.000000,100.000000,,,,,,,,,,,,,,,,,,,,,,,,,,,,
1703500631.270236,1703500631.270654,15.000000,0.000000,4338.461426,4244.615234,4325.000000,4333.846191,4282.179688,4299.487305,4298.461426,4265.384766,4294.743652,4232.948730,4463.461426,4473.846191,4372.436035,4411.922852,6342.000000,3.000000,72.000000,,,,0.000000,4.000000,4.000000,4.000000,4.000000,4.000000,4.000000,4.000000,4.000000,4.000000,4.000000,4.000000,4.000000,4.000000,4.000000,100.000000,,,,,,,,,,,,,,,,,,,,,,,,,,,,
1703500631.278044,1703500631.278462,16.000000,0.000000,4340.384766,4245.000000,4326.153809,4328.846191,4273.333496,4294.615234,4293.461426,4264.615234,4291.666504,4228.077148,4460.641113,4468.205078,4375.256348,4417.692383,0.000000,3.000000,72.000000,,,,0.000000,4.000000,4.000000,4.000000,4.000000,4.000000,4.000000,4.000000,4.000000,4.000000,4.000000,4.000000,4.000000,4.000000,4.000000,100.000000,,,,,,,,,,,,,,,,,4.000000,0.000000,0.622985,0.283386,-0.640076,0.349121,0.979612,-0.066414,0.018557,-12.376058,-37.232399,62.152641
1703500631.285852,1703500631.286170,17.000000,0.000000,4350.641113,4246.153809,4328.589844,4324.871582,4258.205078,4281.410156,4291.538574,4264.230957,4286.282227,4238.717773,4473.846191,4470.769043,4382.307617,4426.410156,0.000000,3.000000,72.000000,,,,0.000000,4.000000,4.000000,4.000000,4.000000,4.000000,4.000000,4.000000,4.000000,4.000000,4.000000,4.000000,4.000000,4.000000,4.000000,100.000000,,,,,,,,,,,,,,,,,,,,,,,,,,,,
1703500631.293660,1703500631.293978,18.000000,0.000000,4353.846191,4248.717773,4337.436035,4331.666504,4254.358887,4275.512695,4290.641113,4264.487305,4278.333496,4219.487305,4476.282227,4479.102539,4380.897461,4430.000000,0.000000,3.000000,72.000000,,,,0.000000,4.000000,4.000000,4.000000,4.000000,4.000000,4.000000,4.000000,4.000000,4.000000,4.000000,4.000000,4.000000,4.000000,4.000000,100.000000,,,,,,,,,,,,,,,,,,,,,,,,,,,,
1703500631.301468,1703500631.301686,19.000000,0.000000,4345.897461,4249.230957,4344.102539,4334.743652,4261.666504,4275.128418,4282.436035,4261.794922,4270.769043,4205.128418,4468.333496,4478.077148,4376.025879,4426.666504,0.000000,3.000000,72.000000,,,,0.000000,4.000000,4.000000,4.000000,4.000000,4.000000,4.000000,4.000000,4.000000,4.000000,4.000000,4.000000,4.000000,4.000000,4.000000,100.000000,,,,,,,,,,,,,,,,,,,,,,,,,,,,
1703500631.309276,1703500631.309494,20.000000,0.000000,4350.128418,4245.897461,4345.000000,4334.487305,4265.384766,4274.358887,4278.077148,4260.128418,4271.025879,4231.794922,4471.410156,4481.666504,4381.538574,4418.461426,0.000000,3.000000,72.000000,,,,0.000000,4.000000,4.000000,4.000000,4.000000,4.000000,4.000000,4.000000,4.000000,4.000000,4.000000,4.000000,4.000000,4.000000,4.000000,100.000000,,,,,,,,,,,,,,,,,5.000000,0.000000,0.623165,0.283264,-0.639954,0.349121,0.970822,-0.094738,0.015139,-12.505118,-37.209156,62.204044
1703500631.317084,1703500631.317202,21.000000,0.000000,4361.282227,4247.948730,4346.282227,4339.871582,4264.615234,4278.077148,4282.563965,4261.922852,4276.922852,4245.384766,4483.333496,4491.410156,4393.461426,4426.922852,0.000000,3.000000,72.000000,,,,0.000000,4.000000,4.000000,4.000000,4.000000,4.000000,4.000000,4.000000,4.000000,4.000000,4.000000,4.000000,4.000000,4.000000,4.000000,100.000000,,,,,,,,,,,,,,,,,,,,,,,,,,,,
1703500631.324892,1703500631.325010,22.000000,0.000000,4362.307617,4257.820313,4351.410156,4342.820313,4263.205078,4285.512695,4287.820313,4262.948730,4285.000000,4237.307617,4491.538574,4492.307617,4397.051270,4447.436035,0.000000,3.000000,72.000000,,,,0.000000,4.000000,4.000000,4.000000,4.000000,4.000000,4.000000,4.000000,4.000000,4.000000,4.000000,4.000000,4.000000,4.000000,4.000000,100.000000,,,,,,,,,,,,,,,,,,,,,,,,,,,,
1703500631.332700,1703500631.332718,23.000000,0.000000,4364.615234,4265.256348,4354.358887,4343.846191,4264.615234,4290.000000,4285.128418,4266.025879,4291.794922,4253.077148,4491.153809,4492.563965,4398.461426,4442.563965,0.000000,3.000000,72.000000,,,,0.000000,4.000000,4.000000,4.000000,4.000000,4.000000,4.000000,4.000000,4.000000,4.000000,4.000000,4.000000,4.000000,4.000000,4.000000,100.000000,,,,,,,,,,,,,,,,,,,,,,,,,,,,
1703500631.340508,1703500631.340526,24.000000,0.000000,4368.717773,4263.461426,4352.307617,4343.205078,4275.897461,4292.436035,4280.512695,4263.717773,4288.205078,4264.487305,4478.589844,4494.102539,4400.000000,4424.358887,0.000000,3.000000,72.000000,,,,0.000000,4.000000,4.000000,4.000000,4.000000,4.000000,4.000000,4.000000,4.000000,4.000000,4.000000,4.000000,4.000000,4.000000,4.000000,100.000000,,,,,,,,,,,,,,,,,6.000000,0.000000,0.623165,0.283264,-0.639954,0.349121,0.987914,-0.098645,0.000977,-12.354607,-37.188240,62.283638
1703500631.348316,1703500631.348234,25.000000,0.000000,4361.922852,4253.974121,4346.794922,4333.846191,4279.230957,4289.102539,4280.769043,4253.205078,4278.205078,4241.922852,4461.666504,4482.051270,4390.000000,4427.051270,0.000000,3.000000,72.000000,,,,0.000000,4.000000,4.000000,4.000000,4.000000,4.000000,4.000000,4.000000,4.000000,4.000000,4.000000,4.000000,4.000000,4.000000,4.000000,100.000000,,,,,,,,,,,,,,,,,,,,,,,,,,,,
1703500631.356124,1703500631.356142,26.000000,0.000000,4351.153809,4250.897461,4342.051270,4325.000000,4264.358887,4280.384766,4280.000000,4253.589844,4277.563965,4230.256348,4457.692383,4470.000000,4383.077148,4432.948730,0.000000,3.000000,72.000000,,,,0.000000,4.000000,4.000000,4.000000,4.000000,4.000000,4.000000,4.000000,4.000000,4.000000,4.000000,4.000000,4.000000,4.000000,4.000000,100.000000,,,,,,,,,,,,,,,,,,,,,,,,,,,,
1703500631.363932,1703500631.363950,27.000000,0.000000,4351.282227,4260.000000,4343.974121,4330.512695,4262.820313,4279.871582,4279.487305,4264.230957,4281.922852,4229.358887,4464.102539,4475.641113,4387.051270,4427.051270,0.000000,3.000000,72.000000,,,,0.000000,4.000000,4.000000,4.000000,4.000000,4.000000,4.000000,4.000000,4.000000,4.000000,4.000000,4.000000,4.000000,4.000000,4.000000,100.000000,,,,,,,,,,,,,,,,,,,,,,,,,,,,
1703500631.371740,1703500631.371758,28.000000,0.000000,4355.384766,4264.230957,4347.692383,4335.769043,4270.512695,4284.743652,4285.256348,4265.128418,4279.358887,4227.307617,4460.256348,4480.000000,4386.153809,4419.615234,0.000000,3.000000,72.000000,,,,0.000000,4.000000,4.000000,4.000000,4.000000,4.000000,4.000000,4.000000,4.000000,4.000000,4.000000,4.000000,4.000000,4.000000,4.000000,100.000000,,,,,,,,,,,,,,,,,7.000000,0.000000,0.623194,0.283264,-0.639893,0.349182,0.986449,-0.098157,0.011232,-12.335813,-37.269417,62.221943
1703500631.379548,1703500631.379466,29.000000,0.000000,4357.307617,4259.358887,4349.871582,4334.358887,4262.820313,4282.436035,4289.871582,4262.692383,4278.717773,4255.897461,4457.436035,4479.358887,4388.589844,4425.128418,0.000000,3.000000,72.000000,,,,0.000000,4.000000,4.000000,4.000000,4.000000,4.000000,4.000000,4.000000,4.000000,4.000000,4.000000,4.000000,4.000000,4.000000,4.000000,100.000000,,,,,,,,,,,,,,,,,,,,,,,,,,,,
1703500631.387356,1703500631.387374,30.000000,0.000000,4359.871582,4261.153809,4356.025879,4339.230957,4263.974121,4278.717773,4292.307617,4266.025879,4281.666504,4278.077148,4469.743652,4489.358887,4401.794922,4439.102539,0.000000,3.000000,72.000000,,,,0.000000,4.000000,4.000000,4.000000,4.000000,4.000000,4.000000,4.000000,4.000000,4.000000,4.000000,4.000000,4.000000,4.000000,4.000000,100.000000,,,,,,,,,,,,,,,,,,,,,,,,,,,,
1703500631.395165,1703500631.395282,31.000000,0.000000,4357.692383,4266.153809,4359.230957,4344.358887,4279.230957,4284.230957,4292.948730,4267.820313,4281.794922,4258.846191,4479.871582,4501.025879,4408.205078,4436.794922,0.000000,3.000000,72.000000,,,,0.000000,4.000000,4.000000,4.000000,4.000000,4.000000,4.000000,4.000000,4.000000,4.000000,4.000000,4.000000,4.000000,4.000000,4.000000,100.000000,,,,,,,,,,,,,,,,,,,,,,,,,,,,
1703500631.402973,1703500631.403091,32.000000,0.000000,4351.025879,4263.077148,4355.256348,4342.051270,4283.589844,4287.948730,4285.769043,4265.256348,4278.717773,4243.717773,4474.743652,4496.153809,4402.179688,4425.641113,0.000000,3.000000,72.000000,,,,0.000000,4.000000,4.000000,4.000000,4.000000,4.000000,4.000000,4.000000,4.000000,4.000000,4.000000,4.000000,4.000000,4.000000,4.000000,100.000000,,,,,,,,,,,,,,,,,8.000000,0.000000,0.623341,0.283203,-0.639709,0.349304,0.984495,-0.102063,0.009278,-12.368897,-37.092476,62.033081
1703500631.410781,1703500631.410899,33.000000,0.000000,4350.128418,4261.538574,4350.897461,4340.000000,4276.666504,4282.436035,4280.000000,4261.922852,4277.179688,4242.051270,4463.461426,4487.563965,4393.333496,4428.077148,0.000000,3.000000,72.000000,,,,0.000000,4.000000,4.000000,4.000000,4.000000,4.000000,4.000000,4.000000,4.000000,4.000000,4.000000,4.000000,4.000000,4.000000,4.000000,100.000000,,,,,,,,,,,,,,,,,,,,,,,,,,,,
1703500631.418589,1703500631.418807,34.000000,0.000000,4358.333496,4269.487305,4345.384766,4341.922852,4273.077148,4282.436035,4281.153809,4262.307617,4289.230957,4236.153809,4460.641113,4489.615234,4397.436035,4432.307617,0.000000,3.000000,72.000000,,,,0.000000,4.000000,4.000000,4.000000,4.000000,4.000000,4.000000,4.000000,4.000000,4.000000,4.000000,4.000000,4.000000,4.000000,4.000000,100.000000,,,,,,,,,,,,,,,,,,,,,,,,,,,,
1703500631.426397,1703500631.426615,35.000000,0.000000,4360.512695,4276.153809,4342.692383,4344.358887,4280.256348,4293.589844,4282.948730,4268.846191,4306.025879,4249.102539,4467.179688,4491.410156,4409.358887,4426.922852,0.000000,3.000000,72.000000,,,,0.000000,4.000000,4.000000,4.000000,4.000000,4.000000,4.000000,4.000000,4.000000,4.000000,4.000000,4.000000,4.000000,4.000000,4.000000,100.000000,,,,,,,,,,,,,,,,,,,,,,,,,,,,
1703500631.434205,1703500631.434522,36.000000,0.000000,4349.871582,4271.794922,4341.282227,4341.410156,4289.102539,4295.769043,4282.051270,4264.102539,4302.436035,4270.000000,4462.692383,4479.230957,4402.436035,4418.461426,0.000000,3.000000,72.000000,,,,0.000000,4.000000,4.000000,4.000000,4.000000,4.000000,4.000000,4.000000,4.000000,4.000000,4.000000,4.000000,4.000000,4.000000,4.000000,100.000000,,,,,,,,,,,,,,,,,9.000000,0.000000,0.623474,0.282898,-0.639648,0.349426,0.986449,-0.103528,0.006348,-12.415341,-36.999893,61.963108
1703500631.442013,1703500631.442330,37.000000,0.000000,4337.948730,4263.205078,4329.102539,4336.538574,4285.384766,4289.615234,4278.846191,4250.000000,4285.897461,4260.384766,4445.512695,4459.487305,4381.666504,4413.974121,0.000000,3.000000,72.000000,,,,0.000000,4.000000,4.000000,4.000000,4.000000,4.000000,4.000000,4.000000,4.000000,4.000000,4.000000,4.000000,4.000000,4.000000,4.000000,100.000000,,,,,,,,,,,,,,,,,,,,,,,,,,,,
1703500631.449821,1703500631.450238,38.000000,0.000000,4335.897461,4264.487305,4324.487305,4339.230957,4277.948730,4288.974121,4278.333496,4247.563965,4280.256348,4242.563965,4441.538574,4457.051270,4381.153809,4409.743652,0.000000,3.000000,72.000000,,,,0.000000,4.000000,4.000000,4.000000,4.000000,4.000000,4.000000,4.000000,4.000000,4.000000,4.000000,4.000000,4.000000,4.000000,4.000000,100.000000,,,,,,,,,,,,,,,,,,,,,,,,,,,,
1703500631.457629,1703500631.458046,39.000000,0.000000,4342.436035,4270.000000,4336.410156,4345.128418,4279.871582,4286.666504,4280.512695,4252.436035,4283.205078,4246.410156,4448.846191,4468.077148,4393.974121,4405.000000,0.000000,3.000000,72.000000,,,,0.000000,4.000000,4.000000,4.000000,4.000000,4.000000,4.000000,4.000000,4.000000,4.000000,4.000000,4.000000,4.000000,4.000000,4.000000,100.000000,,,,,,,,,,,,,,,,,,,,,,,,,,,,
1703500631.465437,1703500631.465954,40.000000,0.000000,4344.102539,4268.461426,4340.897461,4342.692383,4272.179688,4280.000000,4279.230957,4250.897461,4279.102539,4250.769043,4449.743652,4468.846191,4391.922852,4408.205078,0.000000,3.000000,72.000000,,,,0.000000,4.000000,4.000000,4.000000,4.000000,4.000000,4.000000,4.000000,4.000000,4.000000,4.000000,4.000000,4.000000,4.000000,4.000000,100.000000,,,,,,,,,,,,,,,,,10.000000,0.000000,0.623486,0.282532,-0.639832,0.349365,0.991332,-0.101575,0.032230,-12.440474,-36.983238,61.883461
1703500631.473245,1703500631.473762,41.000000,0.000000,4338.974121,4263.589844,4332.436035,4336.538574,4258.717773,4275.128418,4274.743652,4242.948730,4263.589844,4235.256348,4441.282227,4458.717773,4380.512695,4411.666504,0.000000,3.000000,72.000000,,,,0.000000,4.000000,4.000000,4.000000,4.000000,4.000000,4.000000,4.000000,4.000000,4.000000,4.000000,4.000000,4.000000,4.000000,4.000000,100.000000,,,,,,,,,,,,,,,,,,,,,,,,,,,,
1703500631.481053,1703500631.481470,42.000000,0.000000,4338.205078,4262.436035,4326.282227,4336.025879,4261.282227,4273.589844,4273.461426,4233.974121,4247.692383,4225.512695,4430.897461,4457.563965,4378.205078,4400.641113,0.000000,3.000000,72.000000,,,,0.000000,4.000000,4.000000,4.000000,4.000000,4.000000,4.000000,4.000000,4.000000,4.000000,4.000000,4.000000,4.000000,4.000000,4.000000,100.000000,,,,,,,,,,,,,,,,,,,,,,,,,,,,
1703500631.488861,1703500631.489278,43.000000,0.000000,4340.000000,4265.384766,4326.410156,4340.769043,4267.563965,4273.589844,4275.128418,4228.333496,4242.820313,4229.615234,4431.538574,4467.307617,4381.153809,4394.358887,0.000000,3.000000,72.000000,,,,0.000000,4.000000,4.000000,4.000000,4.000000,4.000000,4.000000,4.000000,4.000000,4.000000,4.000000,4.000000,4.000000,4.000000,4.000000,100.000000,,,,,,,,,,,,,,,,,,,,,,,,,,,,
1703500631.496669,1703500631.496986,44.000000,0.000000,4338.717773,4264.487305,4323.846191,4340.512695,4267.563965,4273.461426,4270.000000,4230.384766,4244.230957,4226.666504,4441.410156,4473.205078,4383.077148,4406.153809,0.000000,3.000000,72.000000,,,,0.000000,4.000000,4.000000,4.000000,4.000000,4.000000,4.000000,4.000000,4.000000,4.000000,4.000000,4.000000,4.000000,4.000000,4.000000,100.000000,,,,,,,,,,,,,,,,,11.000000,0.000000,0.623473,0.282349,-0.639893,0.349426,0.981565,-0.089855,0.025394,-12.346427,-36.901581,61.828449
1703500631.504477,1703500631.504794,45.000000,0.000000,4336.538574,4259.487305,4316.538574,4331.794922,4261.153809,4272.820313,4263.589844,4239.102539,4251.025879,4229.871582,4446.538574,4474.358887,4385.641113,4407.692383,0.000000,3.000000,72.000000,,,,0.000000,4.000000,4.000000,4.000000,4.000000,4.000000,4.000000,4.000000,4.000000,4.000000,4.000000,4.000000,4.000000,4.000000,4.000000,100.000000,,,,,,,,,,,,,,,,,,,,,,,,,,,,
1703500631.512285,1703500631.512502,46.000000,0.000000,4331.538574,4260.256348,4312.436035,4325.256348,4253.205078,4274.358887,4270.641113,4251.794922,4269.102539,4244.230957,4445.769043,4473.717773,4387.563965,4394.230957,0.000000,3.000000,72.000000,,,,0.000000,4.000000,4.000000,4.000000,4.000000,4.000000,4.000000,4.000000,4.000000,4.000000,4.000000,4.000000,4.000000,4.000000,4.000000,100.000000,,,,,,,,,,,,,,,,,,,,,,,,,,,,
1703500631.520093,1703500631.520310,47.000000,0.000000,4328.846191,4263.974121,4307.051270,4326.410156,4259.102539,4278.974121,4281.282227,4262.307617,4291.282227,4258.333496,4453.461426,4468.333496,4391.025879,4397.820313,0.000000,3.000000,72.000000,,,,0.000000,4.000000,4.000000,4.000000,4.000000,4.000000,4.000000,4.000000,4.000000,4.000000,4.000000,4.000000,4.000000,4.000000,4.000000,100.000000,,,,,,,,,,,,,,,,,,,,,,,,,,,,
1703500631.527901,1703500631.528018,48.000000,0.000000,4322.948730,4259.743652,4295.384766,4325.897461,4271.666504,4284.487305,4279.487305,4266.794922,4302.948730,4260.384766,4461.410156,4458.974121,4397.436035,4405.128418,0.000000,3.000000,72.000000,,,,0.000000,4.000000,4.000000,4.000000,4.000000,4.000000,4.000000,4.000000,4.000000,4.000000,4.000000,4.000000,4.000000,4.000000,4.000000,100.000000,,,,,,,,,,,,,,,,,12.000000,0.000000,0.623274,0.282410,-0.639893,0.349731,0.985960,-0.102552,0.016604,-12.378450,-36.894756,61.895603
1703500631.535709,1703500631.535826,49.000000,0.000000,4310.897461,4253.205078,4289.102539,4321.282227,4268.974121,4292.563965,4276.922852,4265.000000,4298.589844,4254.743652,4451.666504,4454.487305,4391.794922,4395.897461,0.000000,3.000000,72.000000,,,,0.000000,4.000000,4.000000,4.000000,4.000000,4.000000,4.000000,4.000000,4.000000,4.000000,4.000000,4.000000,4.000000,4.000000,4.000000,100.000000,,,,,,,,,,,,,,,,,,,,,,,,,,,,
1703500631.543517,1703500631.543534,50.000000,0.000000,4311.922852,4257.692383,4290.769043,4320.000000,4264.615234,4293.974121,4281.410156,4256.410156,4289.230957,4253.461426,4434.487305,4456.922852,4379.102539,4391.410156,0.000000,3.000000,72.000000,,,,0.000000,4.000000,4.000000,4.000000,4.000000,4.000000,4.000000,4.000000,4.000000,4.000000,4.000000,4.000000,4.000000,4.000000,4.000000,100.000000,,,,,,,,,,,,,,,,,,,,,,,,,,,,
1703500631.551325,1703500631.551442,51.000000,0.000000,4325.384766,4264.358887,4298.333496,4324.871582,4266.282227,4284.358887,4281.410156,4248.461426,4281.282227,4243.205078,4430.256348,4457.179688,4375.641113,4396.282227,0.000000,3.000000,72.000000,,,,0.000000,4.000000,4.000000,4.000000,4.000000,4.000000,4.000000,4.000000,4.000000,4.000000,4.000000,4.000000,4.000000,4.000000,4.000000,100.000000,,,,,,,,,,,,,,,,,,,,,,,,,,,,
1703500631.559133,1703500631.559251,52.000000,0.000000,4325.384766,4263.717773,4309.102539,4327.563965,4260.897461,4277.179688,4277.692383,4246.282227,4273.333496,4227.179688,4441.794922,4455.256348,4381.538574,4398.974121,0.000000,3.000000,72.000000,,,,0.000000,4.000000,4.000000,4.000000,4.000000,4.000000,4.000000,4.000000,4.000000,4.000000,4.000000,4.000000,4.000000,4.000000,4.000000,100.000000,,,,,,,,,,,,,,,,,13.000000,0.000000,0.623087,0.282532,-0.639954,0.349854,0.991332,-0.105482,0.013185,-12.473939,-36.871948,61.922710
1703500631.566942,1703500631.567159,53.000000,0.000000,4324.102539,4268.333496,4313.589844,4325.769043,4265.128418,4279.487305,4276.282227,4246.666504,4268.205078,4239.102539,4454.230957,4459.102539,4392.307617,4407.436035,0.000000,3.000000,72.000000,,,,0.000000,4.000000,4.000000,4.000000,4.000000,4.000000,4.000000,4.000000,4.000000,4.000000,4.000000,4.000000,4.000000,4.000000,4.000000,100.000000,,,,,,,,,,,,,,,,,,,,,,,,,,,,
1703500631.574750,1703500631.574966,54.000000,0.000000,4343.205078,4280.128418,4319.358887,4330.000000,4276.922852,4278.589844,4278.077148,4242.820313,4266.410156,4249.358887,4461.025879,4473.077148,4398.974121,4419.230957,0.000000,3.000000,72.000000,,,,0.000000,4.000000,4.000000,4.000000,4.000000,4.000000,4.000000,4.000000,4.000000,4.000000,4.000000,4.000000,4.000000,4.000000,4.000000,100.000000,,,,,,,,,,,,,,,,,,,,,,,,,,,,
1703500631.582558,1703500631.582774,55.000000,0.000000,4353.461426,4282.820313,4331.410156,4340.897461,4272.948730,4268.717773,4277.563965,4234.230957,4260.128418,4230.384766,4466.922852,4488.717773,4400.512695,4420.256348,0.000000,3.000000,72.000000,,,,0.000000,4.000000,4.000000,4.000000,4.000000,4.000000,4.000000,4.000000,4.000000,4.000000,4.000000,4.000000,4.000000,4.000000,4.000000,100.000000,,,,,,,,,,,,,,,,,,,,,,,,,,,,
1703500631.590366,1703500631.590483,56.000000,0.000000,4345.384766,4280.384766,4333.717773,4340.256348,4264.230957,4262.948730,4274.615234,4227.948730,4249.102539,4232.307617,4464.615234,4490.641113,4400.641113,4420.512695,0.000000,3.000000,72.000000,,,,0.000000,4.000000,4.000000,4.000000,4.000000,4.000000,4.000000,4.000000,4.000000,4.000000,4.000000,4.000000,4.000000,4.000000,4.000000,100.000000,,,,,,,,,,,,,,,,,14.000000,0.000000,0.622922,0.282593,-0.639954,0.350098,0.977658,-0.115737,0.010743,-12.643211,-36.884754,61.863773
1703500631.598174,1703500631.598390,57.000000,0.000000,4342.563965,4281.153809,4328.461426,4330.769043,4260.769043,4266.410156,4273.333496,4226.922852,4241.666504,4250.512695,4450.641113,4480.897461,4391.410156,4421.922852,0.000000,3.000000,72.000000,,,,0.000000,4.000000,4.000000,4.000000,4.000000,4.000000,4.000000,4.000000,4.000000,4.000000,4.000000,4.000000,4.000000,4.000000,4.000000,100.000000,,,,,,,,,,,,,,,,,,,,,,,,,,,,
1703500631.605982,1703500631.606198,58.000000,0.000000,4343.461426,4275.128418,4325.769043,4326.666504,4258.846191,4272.051270,4274.358887,4228.974121,4243.846191,4240.256348,4440.000000,4470.897461,4378.846191,4405.256348,0.000000,3.000000,72.000000,,,,0.000000,4.000000,4.000000,4.000000,4.000000,4.000000,4.000000,4.000000,4.000000,4.000000,4.000000,4.000000,4.000000,4.000000,4.000000,100.000000,,,,,,,,,,,,,,,,,,,,,,,,,,,,
1703500631.613790,1703500631.614106,59.000000,0.000000,4336.282227,4263.717773,4321.794922,4322.179688,4266.282227,4281.410156,4279.743652,4235.512695,4252.051270,4228.717773,4444.358887,4472.051270,4378.589844,4391.666504,0.000000,3.000000,72.000000,,,,0.000000,4.000000,4.000000,4.000000,4.000000,4.000000,4.000000,4.000000,4.000000,4.000000,4.000000,4.000000,4.000000,4.000000,4.000000,100.000000,,,,,,,,,,,,,,,,,,,,,,,,,,,,
1703500631.621598,1703500631.621914,60.000000,0.000000,4326.666504,4261.538574,4316.153809,4312.563965,4276.922852,4292.820313,4283.205078,4247.436035,4265.128418,4231.410156,4452.307617,4478.717773,4383.846191,4407.436035,0.000000,3.000000,72.000000,,,,0.000000,4.000000,4.000000,4.000000,4.000000,4.000000,4.000000,4.000000,4.000000,4.000000,4.000000,4.000000,4.000000,4.000000,4.000000,100.000000,,,,,,,,,,,,,,,,,15.000000,0.000000,0.622736,0.282715,-0.640015,0.350220,0.983518,-0.111342,0.005860,-12.612224,-36.862946,61.860729
1703500631.629406,1703500631.629822,61.000000,0.000000,4324.487305,4263.846191,4314.487305,4308.333496,4269.743652,4292.051270,4282.051270,4255.769043,4276.922852,4236.153809,4449.871582,4475.769043,4378.205078,4416.410156,0.000000,3.000000,72.000000,,,,0.000000,4.000000,4.000000,4.000000,4.000000,4.000000,4.000000,4.000000,4.000000,4.000000,4.000000,4.000000,4.000000,4.000000,4.000000,100.000000,,,,,,,,,,,,,,,,,,,,,,,,,,,,
1703500631.637214,1703500631.637630,62.000000,0.000000,4325.384766,4261.922852,4320.000000,4313.333496,4261.025879,4282.820313,4283.077148,4259.871582,4281.410156,4247.563965,4447.436035,4471.666504,4370.384766,4394.358887,0.000000,3.000000,72.000000,,,,0.000000,4.000000,4.000000,4.000000,4.000000,4.000000,4.000000,4.000000,4.000000,4.000000,4.000000,4.000000,4.000000,4.000000,4.000000,100.000000,,,,,,,,,,,,,,,,,,,,,,,,,,,,
1703500631.645022,1703500631.645538,63.000000,0.000000,4323.846191,4262.692383,4324.358887,4316.794922,4268.205078,4282.179688,4284.743652,4263.077148,4285.384766,4250.256348,4452.436035,4476.282227,4373.846191,4388.205078,0.000000,3.000000,72.000000,,,,0.000000,4.000000,4.000000,4.000000,4.000000,4.000000,4.000000,4.000000,4.000000,4.000000,4.000000,4.000000,4.000000,4.000000,4.000000,100.000000,,,,,,,,,,,,,,,,,,,,,,,,,,,,
1703500631.652830,1703500631.653346,64.000000,0.000000,4324.615234,4267.307617,4324.743652,4313.205078,4263.974121,4280.641113,4281.666504,4264.358887,4288.974121,4239.358887,4458.589844,4484.743652,4383.077148,4411.922852,5637.000000,3.000000,72.000000,,,,0.000000,4.000000,4.000000,4.000000,4.000000,4.000000,4.000000,4.000000,4.000000,4.000000,4.000000,4.000000,4.000000,4.000000,4.000000,100.000000,,,,,,,,,,,,,,,,,16.000000,0.000000,0.622832,0.282654,-0.640015,0.350098,0.998169,-0.090831,0.004883,-12.417668,-36.926651,61.941322
1703500631.660638,1703500631.661154,65.000000,0.000000,4332.179688,4265.641113,4326.153809,4310.000000,4252.948730,4273.717773,4278.333496,4264.487305,4286.794922,4247.692383,4460.384766,4489.102539,4384.743652,4416.794922,5587.000000,3.000000,72.000000,,,,0.000000,4.000000,4.000000,4.000000,4.000000,4.000000,4.000000,4.000000,4.000000,4.000000,4.000000,4.000000,4.000000,4.000000,4.000000,100.000000,,,,,,,,,,,,,,,,,,,,,,,,,,,,
1703500631.668446,1703500631.669062,66.000000,0.000000,4335.897461,4262.948730,4328.717773,4313.589844,4258.461426,4271.538574,4278.205078,4263.077148,4280.769043,4265.128418,4460.000000,4491.282227,4378.974121,4407.948730,5419.000000,3.000000,72.000000,,,,0.000000,4.000000,4.000000,4.000000,4.000000,4.000000,4.000000,4.000000,4.000000,4.000000,4.000000,4.000000,4.000000,4.000000,4.000000,100.000000,,,,,,,,,,,,,,,,,,,,,,,,,,,,
1703500631.676254,1703500631.676870,67.000000,0.000000,4340.384766,4273.077148,4336.538574,4324.230957,4268.846191,4270.512695,4277.948730,4262.692383,4280.128418,4262.436035,4464.358887,4499.487305,4383.077148,4422.436035,5419.000000,3.000000,72.000000,,,,0.000000,4.000000,4.000000,4.000000,4.000000,4.000000,4.000000,4.000000,4.000000,4.000000,4.000000,4.000000,4.000000,4.000000,4.000000,100.000000,,,,,,,,,,,,,,,,,,,,,,,,,,,,
1703500631.684062,1703500631.684778,68.000000,0.000000,4349.743652,4286.794922,4341.794922,4329.743652,4271.282227,4266.666504,4277.820313,4268.333496,4286.666504,4258.333496,4474.615234,4506.794922,4399.615234,4433.077148,5349.000000,3.000000,72.000000,,,,0.000000,4.000000,4.000000,4.000000,4.000000,4.000000,4.000000,4.000000,4.000000,4.000000,4.000000,4.000000,4.000000,4.000000,4.000000,100.000000,,,,,,,,,,,,,,,,,17.000000,0.000000,0.622906,0.282654,-0.640076,0.349854,0.994750,-0.098157,0.013185,-12.275901,-36.933987,61.963856
1703500631.691870,1703500631.692586,69.000000,0.000000,4343.717773,4285.384766,4333.461426,4321.025879,4266.666504,4263.589844,4277.436035,4266.538574,4286.922852,4258.974121,4475.512695,4496.410156,4399.743652,4414.615234,5308.000000,3.000000,72.000000,,,,0.000000,4.000000,4.000000,4.000000,4.000000,4.000000,4.000000,4.000000,4.000000,4.000000,4.000000,4.000000,4.000000,4.000000,4.000000,100.000000,,,,,,,,,,,,,,,,,,,,,,,,,,,,
1703500631.699678,1703500631.700395,70.000000,0.000000,4322.179688,4276.282227,4324.871582,4308.717773,4259.358887,4264.743652,4276.538574,4252.820313,4277.436035,4244.358887,4459.230957,4476.153809,4378.333496,4397.563965,4527.000000,3.000000,72.000000,,,,0.000000,4.000000,4.000000,4.000000,4.000000,4.000000,4.000000,4.000000,4.000000,4.000000,4.000000,4.000000,4.000000,4.000000,4.000000,100.000000,,,,,,,,,,,,,,,,,,,,,,,,,,,,
1703500631.707486,1703500631.708103,71.000000,0.000000,4309.871582,4276.025879,4318.974121,4307.563965,4264.871582,4275.769043,4278.974121,4245.897461,4271.153809,4221.922852,4444.358887,4468.846191,4366.666504,4399.358887,5227.000000,3.000000,72.000000,,,,0.000000,4.000000,4.000000,4.000000,4.000000,4.000000,4.000000,4.000000,4.000000,4.000000,4.000000,4.000000,4.000000,4.000000,4.000000,100.000000,,,,,,,,,,,,,,,,,,,,,,,,,,,,
1703500631.715294,1703500631.715911,72.000000,0.000000,4306.410156,4275.897461,4310.000000,4309.871582,4276.538574,4287.692383,4285.897461,4251.025879,4274.102539,4227.051270,4443.846191,4470.512695,4369.615234,4400.512695,5427.000000,3.000000,72.000000,,,,0.000000,4.000000,4.000000,4.000000,4.000000,4.000000,4.000000,4.000000,4.000000,4.000000,4.000000,4.000000,4.000000,4.000000,4.000000,100.000000,1.000000,100.000000,4.000000,4.000000,4.000000,4.000000,4.000000,4.000000,4.000000,4.000000,4.000000,4.000000,4.000000,4.000000,4.000000,4.000000,18.000000,0.000000,0.623023,0.282410,-0.640137,0.349731,0.976682,-0.104017,0.008790,-12.381644,-36.690586,61.817471
1703500631.723102,1703500631.723619,73.000000,0.000000,4300.128418,4269.615234,4307.051270,4307.692383,4270.512695,4284.871582,4287.563965,4252.307617,4277.051270,4252.179688,4452.307617,4469.102539,4367.948730,4394.358887,5449.000000,3.000000,72.000000,,,,0.000000,4.000000,4.000000,4.000000,4.000000,4.000000,4.000000,4.000000,4.000000,4.000000,4.000000,4.000000,4.000000,4.000000,4.000000,100.000000,,,,,,,,,,,,,,,,,,,,,,,,,,,,
1703500631.730910,1703500631.731427,74.000000,0.000000,4293.974121,4269.743652,4310.000000,4307.307617,4263.077148,4278.077148,4282.692383,4248.461426,4274.230957,4251.538574,4458.205078,4463.589844,4368.461426,4393.333496,6087.000000,3.000000,72.000000,,,,0.000000,4.000000,4.000000,4.000000,4.000000,4.000000,4.000000,4.000000,4.000000,4.000000,4.000000,4.000000,4.000000,4.000000,4.000000,100.000000,,,,,,,,,,,,,,,,,,,,,,,,,,,,
1703500631.738719,1703500631.739135,75.000000,0.000000,4292.820313,4274.230957,4312.051270,4309.487305,4266.153809,4278.205078,4280.512695,4245.769043,4266.282227,4232.179688,4454.871582,4462.179688,4376.282227,4397.820313,6344.000000,3.000000,72.000000,,,,0.000000,4.000000,4.000000,4.000000,4.000000,4.000000,4.000000,4.000000,4.000000,4.000000,4.000000,4.000000,4.000000,4.000000,4.000000,100.000000,,,,,,,,,,,,,,,,,,,,,,,,,,,,
1703500631.746527,1703500631.747043,76.000000,0.000000,4299.487305,4279.102539,4319.743652,4312.820313,4262.051270,4273.589844,4281.025879,4249.102539,4263.717773,4237.820313,4463.333496,4475.512695,4386.666504,4405.769043,6878.000000,3.000000,72.000000,,,,0.000000,4.000000,4.000000,4.000000,4.000000,4.000000,4.000000,4.000000,4.000000,4.000000,4.000000,4.000000,4.000000,4.000000,4.000000,100.000000,,,,,,,,,,,,,,,,,19.000000,0.000000,0.622856,0.282288,-0.640320,0.349792,0.984007,-0.110365,0.016115,-12.443480,-36.654861,61.919056
1703500631.754335,1703500631.754851,77.000000,0.000000,4310.384766,4288.717773,4331.153809,4321.153809,4261.025879,4266.153809,4282.179688,4256.922852,4272.179688,4258.589844,4484.358887,4492.692383,4396.794922,4413.846191,7414.000000,3.000000,72.000000,,,,0.000000,4.000000,4.000000,4.000000,4.000000,4.000000,4.000000,4.000000,4.000000,4.000000,4.000000,4.000000,4.000000,4.000000,4.000000,100.000000,,,,,,,,,,,,,,,,,,,,,,,,,,,,
1703500631.762143,1703500631.762759,78.000000,0.000000,4318.846191,4293.846191,4331.153809,4323.461426,4264.871582,4263.589844,4281.922852,4255.128418,4271.538574,4258.461426,4485.000000,4495.641113,4399.358887,4417.563965,6087.000000,3.000000,72.000000,,,,0.000000,4.000000,4.000000,4.000000,4.000000,4.000000,4.000000,4.000000,4.000000,4.000000,4.000000,4.000000,4.000000,4.000000,4.000000,100.000000,,,,,,,,,,,,,,,,,,,,,,,,,,,,
1703500631.769951,1703500631.770567,79.000000,0.000000,4319.871582,4291.410156,4329.102539,4318.077148,4264.615234,4261.410156,4279.743652,4247.436035,4262.948730,4245.128418,4475.641113,4491.666504,4397.948730,4422.179688,6344.000000,3.000000,72.000000,,,,0.000000,4.000000,4.000000,4.000000,4.000000,4.000000,4.000000,4.000000,4.000000,4.000000,4.000000,4.000000,4.000000,4.000000,4.000000,100.000000,,,,,,,,,,,,,,,,,,,,,,,,,,,,
1703500631.777759,1703500631.778475,80.000000,0.000000,4315.256348,4291.538574,4333.717773,4318.717773,4269.358887,4261.153809,4280.128418,4248.333496,4268.589844,4244.615234,4486.538574,4495.000000,4402.563965,4427.692383,6878.000000,3.000000,72.000000,,,,0.000000,4.000000,4.000000,4.000000,4.000000,4.000000,4.000000,4.000000,4.000000,4.000000,4.000000,4.000000,4.000000,4.000000,4.000000,100.000000,,,,,,,,,,,,,,,,,20.000000,0.000000,0.622517,0.282166,-0.640503,0.350159,0.984984,-0.124527,0.019534,-12.482466,-36.689377,61.910484
1703500631.785567,1703500631.786283,81.000000,0.000000,4313.846191,4293.846191,4335.000000,4321.025879,4272.563965,4263.717773,4281.666504,4251.922852,4281.410156,4254.615234,4496.282227,4493.717773,4404.615234,4426.666504,7414.000000,3.000000,72.000000,,,,0.000000,4.000000,4.000000,4.000000,4.000000,4.000000,4.000000,4.000000,4.000000,4.000000,4.000000,4.000000,4.000000,4.000000,4.000000,100.000000,,,,,,,,,,,,,,,,,,,,,,,,,,,,
1703500631.793375,1703500631.794191,82.000000,0.000000,4310.384766,4291.025879,4325.384766,4315.769043,4260.897461,4264.743652,4277.948730,4248.205078,4281.666504,4254.230957,4484.230957,4482.563965,4393.333496,4411.410156,6087.000000,3.000000,72.000000,,,,0.000000,4.000000,4.000000,4.000000,4.000000,4.000000,4.000000,4.000000,4.000000,4.000000,4.000000,4.000000,4.000000,4.000000,4.000000,100.000000,,,,,,,,,,,,,,,,,,,,,,,,,,,,
1703500631.801183,1703500631.801999,83.000000,0.000000,4299.615234,4286.025879,4314.871582,4310.384766,4261.538574,4270.128418,4280.641113,4248.717773,4278.974121,4252.179688,4472.436035,4475.256348,4381.153809,4394.615234,6344.000000,3.000000,72.000000,,,,0.000000,4.000000,4.000000,4.000000,4.000000,4.000000,4.000000,4.000000,4.000000,4.000000,4.000000,4.000000,4.000000,4.000000,4.000000,100.000000,,,,,,,,,,,,,,,,,,,,,,,,,,,,
1703500631.808991,1703500631.809907,84.000000,0.000000,4292.820313,4280.384766,4313.589844,4309.230957,4275.769043,4281.153809,4292.692383,4258.846191,4288.077148,4265.641113,4479.102539,4476.153809,4385.512695,4401.538574,6878.000000,3.000000,72.000000,,,,0.000000,4.000000,4.000000,4.000000,4.000000,4.000000,4.000000,4.000000,4.000000,4.000000,4.000000,4.000000,4.000000,4.000000,4.000000,100.000000,,,,,,,,,,,,,,,,,21.000000,0.000000,0.622413,0.282104,-0.640564,0.350281,0.984007,-0.110853,0.026370,-12.450886,-36.703770,61.886105
1703500631.816799,1703500631.817715,85.000000,0.000000,4294.230957,4277.820313,4316.410156,4308.077148,4273.974121,4281.666504,4297.820313,4265.384766,4293.205078,4271.410156,4489.743652,4480.256348,4392.563965,4414.102539,7414.000000,3.000000,72.000000,,,,0.000000,4.000000,4.000000,4.000000,4.000000,4.000000,4.000000,4.000000,4.000000,4.000000,4.000000,4.000000,4.000000,4.000000,4.000000,100.000000,,,,,,,,,,,,,,,,,,,,,,,,,,,,
1703500631.824607,1703500631.825622,86.000000,0.000000,4293.461426,4280.641113,4320.000000,4307.692383,4270.128418,4278.461426,4296.025879,4268.077148,4286.538574,4263.205078,4491.922852,4488.589844,4388.077148,4412.820313,6087.000000,3.000000,72.000000,,,,0.000000,4.000000,4.000000,4.000000,4.000000,4.000000,4.000000,4.000000,4.000000,4.000000,4.000000,4.000000,4.000000,4.000000,4.000000,100.000000,,,,,,,,,,,,,,,,,,,,,,,,,,,,
1703500631.832415,1703500631.833430,87.000000,0.000000,4296.410156,4284.615234,4323.717773,4311.025879,4272.948730,4280.897461,4295.512695,4265.512695,4277.948730,4256.666504,4491.025879,4496.282227,4386.538574,4418.205078,6344.000000,3.000000,72.000000,,,,0.000000,4.000000,4.000000,4.000000,4.000000,4.000000,4.000000,4.000000,4.000000,4.000000,4.000000,4.000000,4.000000,4.000000,4.000000,100.000000,,,,,,,,,,,,,,,,,,,,,,,,,,,,
1703500631.840223,1703500631.841138,88.000000,0.000000,4310.897461,4290.000000,4330.512695,4317.436035,4265.384766,4273.461426,4291.153809,4253.974121,4267.820313,4238.205078,4493.205078,4493.077148,4388.717773,4433.077148,6878.000000,3.000000,72.000000,,,,0.000000,4.000000,4.000000,4.000000,4.000000,4.000000,4.000000,4.000000,4.000000,4.000000,4.000000,4.000000,4.000000,4.000000,4.000000,100.000000,,,,,,,,,,,,,,,,,22.000000,0.000000,0.622352,0.281860,-0.640564,0.350586,0.990355,-0.113783,0.013185,-12.405797,-36.700062,61.964161
1703500631.848031,1703500631.848946,89.000000,0.000000,4323.333496,4294.743652,4341.282227,4325.256348,4260.384766,4260.384766,4281.666504,4244.615234,4258.846191,4229.230957,4499.871582,4491.794922,4386.538574,4442.692383,7414.000000,3.000000,72.000000,,,,0.000000,4.000000,4.000000,4.000000,4.000000,4.000000,4.000000,4.000000,4.000000,4.000000,4.000000,4.000000,4.000000,4.000000,4.000000,100.000000,,,,,,,,,,,,,,,,,,,,,,,,,,,,
1703500631.855839,1703500631.856654,90.000000,0.000000,4327.179688,4295.641113,4345.000000,4328.846191,4266.410156,4257.692383,4278.333496,4245.384766,4260.641113,4260.128418,4507.051270,4501.794922,4389.871582,4443.077148,6087.000000,3.000000,72.000000,,,,0.000000,4.000000,4.000000,4.000000,4.000000,4.000000,4.000000,4.000000,4.000000,4.000000,4.000000,4.000000,4.000000,4.000000,4.000000,100.000000,,,,,,,,,,,,,,,,,,,,,,,,,,,,
1703500631.863647,1703500631.864462,91.000000,0.000000,4324.487305,4296.025879,4346.025879,4328.589844,4264.871582,4258.461426,4280.512695,4248.333496,4265.384766,4273.974121,4504.615234,4505.256348,4385.256348,4431.282227,6344.000000,3.000000,72.000000,,,,0.000000,4.000000,4.000000,4.000000,4.000000,4.000000,4.000000,4.000000,4.000000,4.000000,4.000000,4.000000,4.000000,4.000000,4.000000,100.000000,,,,,,,,,,,,,,,,,,,,,,,,,,,,
1703500631.871455,1703500631.872170,92.000000,0.000000,4318.077148,4293.846191,4343.205078,4329.358887,4261.922852,4259.871582,4280.897461,4245.256348,4264.102539,4250.769043,4492.436035,4495.384766,4362.563965,4424.230957,6878.000000,3.000000,72.000000,,,,0.000000,4.000000,4.000000,4.000000,4.000000,4.000000,4.000000,4.000000,4.000000,4.000000,4.000000,4.000000,4.000000,4.000000,4.000000,100.000000,,,,,,,,,,,,,,,,,23.000000,0.000000,0.622268,0.281616,-0.640686,0.350708,0.996215,-0.107435,0.009278,-12.398551,-36.730053,62.034409
1703500631.879263,1703500631.879978,93.000000,0.000000,4308.333496,4287.179688,4332.820313,4326.282227,4265.897461,4263.974121,4281.410156,4236.538574,4259.487305,4239.487305,4481.538574,4479.743652,4347.179688,4426.410156,7414.000000,3.000000,72.000000,,,,0.000000,4.000000,4.000000,4.000000,4.000000,4.000000,4.000000,4.000000,4.000000,4.000000,4.000000,4.000000,4.000000,4.000000,4.000000,100.000000,,,,,,,,,,,,,,,,,,,,,,,,,,,,
1703500631.887071,1703500631.887687,94.000000,0.000000,4297.307617,4279.487305,4323.205078,4315.769043,4263.205078,4268.333496,4281.922852,4230.512695,4255.512695,4243.717773,4468.846191,4464.358887,4343.846191,4407.563965,6087.000000,3.000000,72.000000,,,,0.000000,4.000000,4.000000,4.000000,4.000000,4.000000,4.000000,4.000000,4.000000,4.000000,4.000000,4.000000,4.000000,4.000000,4.000000,100.000000,,,,,,,,,,,,,,,,,,,,,,,,,,,,
1703500631.894879,1703500631.895495,95.000000,0.000000,4289.487305,4275.128418,4319.871582,4307.948730,4261.922852,4273.717773,4282.563965,4238.461426,4257.051270,4232.820313,4458.846191,4455.512695,4340.128418,4383.333496,6344.000000,3.000000,72.000000,,,,0.000000,4.000000,4.000000,4.000000,4.000000,4.000000,4.000000,4.000000,4.000000,4.000000,4.000000,4.000000,4.000000,4.000000,4.000000,100.000000,,,,,,,,,,,,,,,,,,,,,,,,,,,,
1703500631.902687,1703500631.903203,96.000000,0.000000,4291.410156,4277.563965,4318.846191,4309.615234,4265.641113,4279.871582,4291.794922,4248.333496,4260.000000,4216.666504,4465.512695,4460.256348,4341.410156,4395.512695,6878.000000,3.000000,72.000000,,,,0.000000,4.000000,4.000000,4.000000,4.000000,4.000000,4.000000,4.000000,4.000000,4.000000,4.000000,4.000000,4.000000,4.000000,4.000000,100.000000,,,,,,,,,,,,,,,,,24.000000,0.000000,0.622453,0.281372,-0.640747,0.350464,0.980588,-0.087413,0.017580,-12.258696,-36.840382,61.880970
1703500631.910496,1703500631.911011,97.000000,0.000000,4297.179688,4280.769043,4319.487305,4311.282227,4268.461426,4281.025879,4298.717773,4248.846191,4262.436035,4229.230957,4482.563965,4471.922852,4353.717773,4419.615234,7414.000000,3.000000,72.000000,,,,0.000000,4.000000,4.000000,4.000000,4.000000,4.000000,4.000000,4.000000,4.000000,4.000000,4.000000,4.000000,4.000000,4.000000,4.000000,100.000000,,,,,,,,,,,,,,,,,,,,,,,,,,,,
1703500631.918304,1703500631.918719,98.000000,0.000000,4299.102539,4278.333496,4326.922852,4307.692383,4264.230957,4275.641113,4289.230957,4251.922852,4267.436035,4257.948730,4493.589844,4481.538574,4362.563965,4419.487305,6087.000000,3.000000,72.000000,,,,0.000000,4.000000,4.000000,4.000000,4.000000,4.000000,4.000000,4.000000,4.000000,4.000000,4.000000,4.000000,4.000000,4.000000,4.000000,100.000000,,,,,,,,,,,,,,,,,,,,,,,,,,,,
1703500631.926112,1703500631.926527,99.000000,0.000000,4302.563965,4277.051270,4335.256348,4306.538574,4251.666504,4266.153809,4278.974121,4253.589844,4261.282227,4254.487305,4493.461426,4489.358887,4360.641113,4413.077148,6344.000000,3.000000,72.000000,,,,0.000000,4.000000,4.000000,4.000000,4.000000,4.000000,4.000000,4.000000,4.000000,4.000000,4.000000,4.000000,4.000000,4.000000,4.000000,100.000000,,,,,,,,,,,,,,,,,,,,,,,,,,,,
1703500631.933920,1703500631.934235,100.000000,0.000000,4306.794922,4280.769043,4337.820313,4314.615234,4253.589844,4260.128418,4278.846191,4241.538574,4246.794922,4227.820313,4490.128418,4489.871582,4359.743652,4420.256348,6878.000000,3.000000,72.000000,,,,0.000000,4.000000,4.000000,4.000000,4.000000,4.000000,4.000000,4.000000,4.000000,4.000000,4.000000,4.000000,4.000000,4.000000,4.000000,100.000000,,,,,,,,,,,,,,,,,25.000000,0.000000,0.622549,0.281250,-0.640808,0.350281,0.979123,-0.097668,0.015139,-12.249493,-37.006344,61.892872
1703500631.941728,1703500631.942043,101.000000,0.000000,4310.512695,4282.820313,4339.102539,4319.743652,4271.538574,4263.077148,4280.128418,4232.051270,4244.358887,4235.769043,4491.025879,4483.974121,4362.820313,4432.179688,7414.000000,3.000000,72.000000,,,,0.000000,4.000000,4.000000,4.000000,4.000000,4.000000,4.000000,4.000000,4.000000,4.000000,4.000000,4.000000,4.000000,4.000000,4.000000,100.000000,,,,,,,,,,,,,,,,,,,,,,,,,,,,
1703500631.949536,1703500631.949751,102.000000,0.000000,4312.948730,4282.436035,4343.461426,4316.666504,4274.102539,4267.051270,4278.461426,4239.871582,4253.717773,4254.102539,4495.384766,4482.436035,4362.692383,4430.384766,6087.000000,3.000000,72.000000,,,,0.000000,4.000000,4.000000,4.000000,4.000000,4.000000,4.000000,4.000000,4.000000,4.000000,4.000000,4.000000,4.000000,4.000000,4.000000,100.000000,,,,,,,,,,,,,,,,,,,,,,,,,,,,
1703500631.957344,1703500631.957559,103.000000,0.000000,4306.666504,4282.436035,4344.230957,4314.358887,4263.205078,4266.282227,4281.282227,4249.743652,4260.769043,4240.384766,4493.461426,4490.128418,4354.487305,4414.230957,6344.000000,3.000000,72.000000,,,,0.000000,4.000000,4.000000,4.000000,4.000000,4.000000,4.000000,4.000000,4.000000,4.000000,4.000000,4.000000,4.000000,4.000000,4.000000,100.000000,,,,,,,,,,,,,,,,,,,,,,,,,,,,
1703500631.965152,1703500631.965267,104.000000,0.000000,4300.897461,4277.820313,4338.846191,4314.358887,4262.820313,4264.358887,4288.461426,4249.230957,4259.871582,4226.922852,4484.358887,4491.282227,4349.102539,4402.307617,6878.000000,3.000000,72.000000,,,,0.000000,4.000000,4.000000,4.000000,4.000000,4.000000,4.000000,4.000000,4.000000,4.000000,4.000000,4.000000,4.000000,4.000000,4.000000,100.000000,,,,,,,,,,,,,,,,,26.000000,0.000000,0.622535,0.281128,-0.640808,0.350403,0.984984,-0.096203,0.011720,-12.307877,-37.139042,62.053585
1703500631.972960,1703500631.973175,105.000000,0.000000,4302.436035,4276.025879,4336.666504,4312.179688,4257.436035,4264.871582,4292.436035,4247.307617,4251.794922,4231.538574,4477.563965,4478.333496,4350.000000,4408.717773,7414.000000,3.000000,72.000000,,,,0.000000,4.000000,4.000000,4.000000,4.000000,4.000000,4.000000,4.000000,4.000000,4.000000,4.000000,4.000000,4.000000,4.000000,4.000000,100.000000,,,,,,,,,,,,,,,,,,,,,,,,,,,,
1703500631.980768,1703500631.980983,106.000000,0.000000,4301.538574,4277.563965,4335.384766,4310.384766,4245.897461,4266.410156,4293.205078,4249.230957,4247.692383,4232.692383,4475.128418,4469.358887,4345.256348,4420.384766,6087.000000,3.000000,72.000000,,,,0.000000,4.000000,4.000000,4.000000,4.000000,4.000000,4.000000,4.000000,4.000000,4.000000,4.000000,4.000000,4.000000,4.000000,4.000000,100.000000,,,,,,,,,,,,,,,,,,,,,,,,,,,,
1703500631.988576,1703500631.988890,107.000000,0.000000,4291.922852,4269.358887,4328.205078,4304.102539,4252.692383,4266.666504,4294.487305,4250.000000,4254.615234,4227.820313,4471.794922,4472.948730,4338.077148,4416.922852,6344.000000,3.000000,72.000000,,,,0.000000,4.000000,4.000000,4.000000,4.000000,4.000000,4.000000,4.000000,4.000000,4.000000,4.000000,4.000000,4.000000,4.000000,4.000000,100.000000,,,,,,,,,,,,,,,,,,,,,,,,,,,,
1703500631.996384,1703500631.996698,108.000000,0.000000,4288.846191,4262.692383,4322.692383,4294.871582,4264.743652,4270.256348,4295.256348,4251.922852,4264.358887,4233.077148,4471.794922,4477.307617,4344.615234,4413.589844,6878.000000,3.000000,72.000000,,,,0.000000,4.000000,4.000000,4.000000,4.000000,4.000000,4.000000,4.000000,4.000000,4.000000,4.000000,4.000000,4.000000,4.000000,4.000000,100.000000,,,,,,,,,,,,,,,,,27.000000,0.000000,0.622501,0.281128,-0.640808,0.350464,0.983518,-0.100598,0.015627,-12.343756,-37.108471,62.014893
1703500632.004192,1703500632.004606,109.000000,0.000000,4292.563965,4271.666504,4326.410156,4299.230957,4264.871582,4276.153809,4293.333496,4254.230957,4266.666504,4233.333496,4482.948730,4477.051270,4355.256348,4417.179688,7414.000000,3.000000,72.000000,,,,0.000000,4.000000,4.000000,4.000000,4.000000,4.000000,4.000000,4.000000,4.000000,4.000000,4.000000,4.000000,4.000000,4.000000,4.000000,100.000000,,,,,,,,,,,,,,,,,,,,,,,,,,,,
1703500632.012000,1703500632.012414,110.000000,0.000000,4295.769043,4281.666504,4332.563965,4309.230957,4264.358887,4277.051270,4293.717773,4251.794922,4264.615234,4224.487305,4488.974121,4475.384766,4352.948730,4415.384766,6087.000000,3.000000,72.000000,,,,0.000000,4.000000,4.000000,4.000000,4.000000,4.000000,4.000000,4.000000,4.000000,4.000000,4.000000,4.000000,4.000000,4.000000,4.000000,100.000000,,,,,,,,,,,,,,,,,,,,,,,,,,,,
1703500632.019808,1703500632.020322,111.000000,0.000000,4299.102539,4280.769043,4336.410156,4308.589844,4268.077148,4273.461426,4291.794922,4246.666504,4261.282227,4235.256348,4485.256348,4476.794922,4357.692383,4416.666504,6344.000000,3.000000,72.000000,,,,0.000000,4.000000,4.000000,4.000000,4.000000,4.000000,4.000000,4.000000,4.000000,4.000000,4.000000,4.000000,4.000000,4.000000,4.000000,100.000000,,,,,,,,,,,,,,,,,,,,,,,,,,,,
1703500632.027616,1703500632.028130,112.000000,0.000000,4297.563965,4278.717773,4339.102539,4307.820313,4261.538574,4267.563965,4283.974121,4245.256348,4255.256348,4251.282227,4487.948730,4482.563965,4367.692383,4419.230957,6878.000000,3.000000,72.000000,,,,0.000000,4.000000,4.000000,4.000000,4.000000,4.000000,4.000000,4.000000,4.000000,4.000000,4.000000,4.000000,4.000000,4.000000,4.000000,100.000000,,,,,,,,,,,,,,,,,28.000000,0.000000,0.622536,0.281189,-0.640747,0.350464,0.981565,-0.113295,0.011720,-12.309381,-37.097626,62.030071
1703500632.035424,1703500632.035938,113.000000,0.000000,4296.666504,4280.769043,4340.384766,4311.922852,4259.230957,4264.358887,4278.205078,4246.666504,4250.000000,4242.563965,4491.282227,4483.589844,4363.205078,4412.051270,7414.000000,3.000000,72.000000,,,,0.000000,4.000000,4.000000,4.000000,4.000000,4.000000,4.000000,4.000000,4.000000,4.000000,4.000000,4.000000,4.000000,4.000000,4.000000,100.000000,,,,,,,,,,,,,,,,,,,,,,,,,,,,
1703500632.043232,1703500632.043746,114.000000,0.000000,4298.589844,4282.948730,4340.769043,4314.230957,4272.436035,4265.641113,4278.333496,4240.384766,4246.282227,4224.615234,4480.641113,4478.846191,4356.922852,4411.666504,6087.000000,3.000000,72.000000,,,,0.000000,4.000000,4.000000,4.000000,4.000000,4.000000,4.000000,4.000000,4.000000,4.000000,4.000000,4.000000,4.000000,4.000000,4.000000,100.000000,,,,,,,,,,,,,,,,,,,,,,,,,,,,
1703500632.051040,1703500632.051554,115.000000,0.000000,4298.589844,4283.846191,4336.153809,4312.948730,4274.871582,4266.794922,4279.102539,4231.538574,4246.153809,4222.563965,4472.948730,4473.717773,4356.410156,4421.153809,6344.000000,3.000000,72.000000,,,,0.000000,4.000000,4.000000,4.000000,4.000000,4.000000,4.000000,4.000000,4.000000,4.000000,4.000000,4.000000,4.000000,4.000000,4.000000,100.000000,,,,,,,,,,,,,,,,,,,,,,,,,,,,
1703500632.058849,1703500632.059362,116.000000,0.000000,4295.128418,4276.922852,4327.051270,4307.307617,4268.589844,4266.153809,4279.358887,4237.307617,4255.512695,4222.563965,4477.436035,4466.282227,4357.179688,4415.128418,6878.000000,3.000000,72.000000,,,,0.000000,4.000000,4.000000,4.000000,4.000000,4.000000,4.000000,4.000000,4.000000,4.000000,4.000000,4.000000,4.000000,4.000000,4.000000,100.000000,,,,,,,,,,,,,,,,,29.000000,0.000000,0.622496,0.281189,-0.640686,0.350647,0.990355,-0.113783,0.019045,-12.378442,-37.237862,62.027065
1703500632.066656,1703500632.067070,117.000000,0.000000,4286.538574,4266.794922,4320.897461,4298.717773,4263.077148,4266.153809,4281.025879,4247.436035,4260.641113,4219.871582,4471.025879,4460.128418,4350.641113,4395.000000,7414.000000,3.000000,72.000000,,,,0.000000,4.000000,4.000000,4.000000,4.000000,4.000000,4.000000,4.000000,4.000000,4.000000,4.000000,4.000000,4.000000,4.000000,4.000000,100.000000,,,,,,,,,,,,,,,,,,,,,,,,,,,,
1703500632.074464,1703500632.074878,118.000000,0.000000,4276.922852,4264.230957,4319.102539,4293.974121,4253.846191,4265.512695,4281.282227,4245.641113,4250.384766,4218.205078,4455.769043,4457.436035,4335.769043,4391.794922,6087.000000,3.000000,72.000000,,,,0.000000,4.000000,4.000000,4.000000,4.000000,4.000000,4.000000,4.000000,4.000000,4.000000,4.000000,4.000000,4.000000,4.000000,4.000000,100.000000,,,,,,,,,,,,,,,,,,,,,,,,,,,,
1703500632.082273,1703500632.082586,119.000000,0.000000,4276.794922,4265.128418,4318.846191,4295.256348,4253.461426,4265.897461,4284.102539,4243.717773,4243.205078,4210.897461,4453.205078,4456.025879,4332.307617,4405.000000,6344.000000,3.000000,72.000000,,,,0.000000,4.000000,4.000000,4.000000,4.000000,4.000000,4.000000,4.000000,4.000000,4.000000,4.000000,4.000000,4.000000,4.000000,4.000000,100.000000,,,,,,,,,,,,,,,,,,,,,,,,,,,,
1703500632.090081,1703500632.090394,120.000000,0.000000,4288.077148,4264.230957,4323.077148,4296.666504,4266.794922,4268.205078,4292.179688,4248.974121,4246.282227,4211.410156,4464.871582,4459.487305,4344.230957,4408.974121,6878.000000,3.000000,72.000000,,,,0.000000,4.000000,4.000000,4.000000,4.000000,4.000000,4.000000,4.000000,4.000000,4.000000,4.000000,4.000000,4.000000,4.000000,4.000000,100.000000,,,,,,,,,,,,,,,,,30.000000,0.000000,0.622643,0.281128,-0.640503,0.350769,0.974728,-0.118178,0.007813,-12.440598,-37.147408,61.941025
1703500632.097889,1703500632.098102,121.000000,0.000000,4296.025879,4267.051270,4327.820313,4296.282227,4264.230957,4266.794922,4292.179688,4248.205078,4245.384766,4213.717773,4474.487305,4467.179688,4349.230957,4403.974121,7414.000000,3.000000,72.000000,,,,0.000000,4.000000,4.000000,4.000000,4.000000,4.000000,4.000000,4.000000,4.000000,4.000000,4.000000,4.000000,4.000000,4.000000,4.000000,100.000000,,,,,,,,,,,,,,,,,,,,,,,,,,,,
1703500632.105697,1703500632.105910,122.000000,0.000000,4294.230957,4270.000000,4331.538574,4299.230957,4249.743652,4264.102539,4282.692383,4245.256348,4242.051270,4202.820313,4475.512695,4479.615234,4348.846191,4408.846191,6087.000000,3.000000,72.000000,,,,0.000000,4.000000,4.000000,4.000000,4.000000,4.000000,4.000000,4.000000,4.000000,4.000000,4.000000,4.000000,4.000000,4.000000,4.000000,100.000000,,,,,,,,,,,,,,,,,,,,,,,,,,,,
1703500632.113505,1703500632.113618,123.000000,0.000000,4294.358887,4271.153809,4337.051270,4306.666504,4251.922852,4266.282227,4279.230957,4248.333496,4243.717773,4207.948730,4480.256348,4491.025879,4359.487305,4421.794922,6344.000000,3.000000,72.000000,,,,0.000000,4.000000,4.000000,4.000000,4.000000,4.000000,4.000000,4.000000,4.000000,4.000000,4.000000,4.000000,4.000000,4.000000,4.000000,100.000000,,,,,,,,,,,,,,,,,,,,,,,,,,,,
1703500632.121313,1703500632.121526,124.000000,0.000000,4304.358887,4276.666504,4340.897461,4311.922852,4250.512695,4263.846191,4277.948730,4247.307617,4247.692383,4237.820313,4489.871582,4487.179688,4370.512695,4427.051270,6878.000000,3.000000,72.000000,,,,0.000000,4.000000,4.000000,4.000000,4.000000,4.000000,4.000000,4.000000,4.000000,4.000000,4.000000,4.000000,4.000000,4.000000,4.000000,100.000000,,,,,,,,,,,,,,,,,31.000000,0.000000,0.622892,0.280701,-0.640381,0.350891,0.999145,-0.115248,0.015139,-12.463204,-37.232670,62.030254
1703500632.129121,1703500632.129334,125.000000,0.000000,4316.666504,4282.820313,4347.307617,4313.589844,4243.974121,4252.179688,4268.846191,4243.077148,4248.717773,4246.794922,4490.128418,4482.179688,4373.077148,4429.358887,7414.000000,3.000000,72.000000,,,,0.000000,4.000000,4.000000,4.000000,4.000000,4.000000,4.000000,4.000000,4.000000,4.000000,4.000000,4.000000,4.000000,4.000000,4.000000,100.000000,,,,,,,,,,,,,,,,,,,,,,,,,,,,
1703500632.136929,1703500632.137243,126.000000,0.000000,4312.307617,4280.384766,4348.974121,4310.128418,4255.000000,4246.538574,4259.871582,4243.974121,4248.846191,4230.512695,4481.794922,4487.820313,4373.846191,4430.000000,6087.000000,3.000000,72.000000,,,,0.000000,4.000000,4.000000,4.000000,4.000000,4.000000,4.000000,4.000000,4.000000,4.000000,4.000000,4.000000,4.000000,4.000000,4.000000,100.000000,,,,,,,,,,,,,,,,,,,,,,,,,,,,
1703500632.144737,1703500632.145051,127.000000,0.000000,4299.615234,4277.563965,4336.666504,4303.205078,4262.436035,4252.820313,4261.153809,4246.538574,4254.102539,4233.461426,4479.615234,4483.333496,4365.897461,4419.230957,72.000000,3.000000,72.000000,,,,0.000000,4.000000,4.000000,4.000000,4.000000,4.000000,4.000000,4.000000,4.000000,4.000000,4.000000,4.000000,4.000000,4.000000,4.000000,100.000000,,,,,,,,,,,,,,,,,,,,,,,,,,,,
1703500632.152545,1703500632.152959,0.000000,0.000000,4289.487305,4275.769043,4321.282227,4298.461426,4252.307617,4259.358887,4263.461426,4246.153809,4260.128418,4237.563965,4478.846191,4465.897461,4351.153809,4397.563965,5637.000000,3.000000,72.000000,,,,0.000000,4.000000,4.000000,4.000000,4.000000,4.000000,4.000000,4.000000,4.000000,4.000000,4.000000,4.000000,4.000000,4.000000,4.000000,100.000000,,,,,,,,,,,,,,,,,0.000000,0.000000,0.622946,0.280457,-0.640503,0.350769,0.980588,-0.104017,0.017092,-12.366884,-37.209400,61.960564
1703500632.160353,1703500632.160767,1.000000,0.000000,4278.974121,4269.102539,4314.230957,4295.769043,4250.897461,4263.077148,4264.102539,4247.307617,4264.871582,4221.794922,4470.256348,4453.461426,4344.102539,4387.307617,5596.000000,3.000000,72.000000,,,,0.000000,4.000000,4.000000,4.000000,4.000000,4.000000,4.000000,4.000000,4.000000,4.000000,4.000000,4.000000,4.000000,4.000000,4.000000,100.000000,,,,,,,,,,,,,,,,,,,,,,,,,,,,
1703500632.168161,1703500632.168675,2.000000,0.000000,4274.487305,4265.256348,4307.948730,4294.230957,4256.794922,4265.897461,4273.333496,4251.153809,4265.384766,4215.897461,4463.717773,4451.538574,4347.307617,4396.153809,5419.000000,3.000000,72.000000,,,,0.000000,4.000000,4.000000,4.000000,4.000000,4.000000,4.000000,4.000000,4.000000,4.000000,4.000000,4.000000,4.000000,4.000000,4.000000,100.000000,,,,,,,,,,,,,,,,,,,,,,,,,,,,
1703500632.175969,1703500632.176482,3.000000,0.000000,4280.384766,4261.922852,4298.077148,4291.922852,4245.256348,4265.897461,4279.487305,4252.051270,4257.820313,4211.153809,4464.230957,4453.461426,4350.512695,4397.436035,5419.000000,3.000000,72.000000,,,,0.000000,4.000000,4.000000,4.000000,4.000000,4.000000,4.000000,4.000000,4.000000,4.000000,4.000000,4.000000,4.000000,4.000000,4.000000,100.000000,,,,,,,,,,,,,,,,,,,,,,,,,,,,
1703500632.183777,1703500632.184390,4.000000,0.000000,4282.563965,4254.615234,4293.461426,4287.436035,4238.974121,4264.743652,4273.846191,4247.948730,4245.128418,4198.077148,4461.666504,4457.436035,4344.871582,4390.769043,5350.000000,3.000000,72.000000,,,,0.000000,4.000000,4.000000,4.000000,4.000000,4.000000,4.000000,4.000000,4.000000,4.000000,4.000000,4.000000,4.000000,4.000000,4.000000,100.000000,,,,,,,,,,,,,,,,,1.000000,0.000000,0.622875,0.280334,-0.640625,0.350769,0.987425,-0.101575,0.018069,-12.480196,-37.255127,61.964508
1703500632.191585,1703500632.192198,5.000000,0.000000,4276.666504,4254.102539,4298.589844,4287.948730,4249.743652,4263.461426,4273.077148,4246.025879,4234.615234,4205.512695,4458.333496,4461.666504,4338.333496,4389.615234,5307.000000,3.000000,72.000000,,,,0.000000,4.000000,4.000000,4.000000,4.000000,4.000000,4.000000,4.000000,4.000000,4.000000,4.000000,4.000000,4.000000,4.000000,4.000000,100.000000,,,,,,,,,,,,,,,,,,,,,,,,,,,,
1703500632.199393,1703500632.200106,6.000000,0.000000,4277.692383,4262.051270,4306.153809,4294.871582,4251.538574,4263.333496,4277.436035,4246.538574,4234.102539,4221.153809,4468.717773,4464.615234,4344.358887,4397.436035,4527.000000,3.000000,72.000000,,,,0.000000,4.000000,4.000000,4.000000,4.000000,4.000000,4.000000,4.000000,4.000000,4.000000,4.000000,4.000000,4.000000,4.000000,4.000000,100.000000,,,,,,,,,,,,,,,,,,,,,,,,,,,,
1703500632.207201,1703500632.207914,7.000000,0.000000,4284.102539,4264.487305,4308.846191,4295.897461,4248.589844,4262.692383,4270.256348,4240.641113,4236.922852,4212.563965,4480.512695,4465.256348,4354.487305,4401.153809,5233.000000,3.000000,72.000000,,,,0.000000,4.000000,4.000000,4.000000,4.000000,4.000000,4.000000,4.000000,4.000000,4.000000,4.000000,4.000000,4.000000,4.000000,4.000000,100.000000,,,,,,,,,,,,,,,,,,,,,,,,,,,,
1703500632.215009,1703500632.215822,8.000000,0.000000,4280.512695,4261.153809,4308.589844,4291.794922,4250.384766,4257.563965,4261.410156,4235.384766,4233.333496,4210.641113,4476.794922,4464.871582,4353.717773,4395.641113,5429.000000,3.000000,72.000000,,,,0.000000,4.000000,4.000000,4.000000,4.000000,4.000000,4.000000,4.000000,4.000000,4.000000,4.000000,4.000000,4.000000,4.000000,4.000000,100.000000,1.000000,100.000000,4.000000,4.000000,4.000000,4.000000,4.000000,4.000000,4.000000,4.000000,4.000000,4.000000,4.000000,4.000000,4.000000,4.000000,2.000000,0.000000,0.622716,0.280396,-0.640686,0.350891,0.996215,-0.109388,0.008302,-12.515510,-37.279613,61.984722
1703500632.222817,1703500632.223630,9.000000,0.000000,4277.948730,4260.769043,4306.025879,4291.538574,4239.871582,4249.487305,4263.205078,4241.538574,4236.025879,4231.922852,4474.358887,4465.512695,4354.743652,4400.512695,5440.000000,3.000000,72.000000,,,,0.000000,4.000000,4.000000,4.000000,4.000000,4.000000,4.000000,4.000000,4.000000,4.000000,4.000000,4.000000,4.000000,4.000000,4.000000,100.000000,,,,,,,,,,,,,,,,,,,,,,,,,,,,
1703500632.230626,1703500632.231438,10.000000,0.000000,4286.666504,4261.538574,4304.615234,4290.000000,4229.230957,4246.538574,4265.256348,4248.846191,4247.179688,4227.820313,4486.410156,4470.256348,4366.666504,4414.487305,6088.000000,3.000000,72.000000,,,,0.000000,4.000000,4.000000,4.000000,4.000000,4.000000,4.000000,4.000000,4.000000,4.000000,4.000000,4.000000,4.000000,4.000000,4.000000,100.000000,,,,,,,,,,,,,,,,,,,,,,,,,,,,
1703500632.238433,1703500632.239246,11.000000,0.000000,4287.948730,4262.820313,4304.871582,4288.205078,4242.692383,4254.615234,4262.051270,4248.974121,4251.666504,4205.641113,4494.615234,4472.179688,4370.128418,4413.205078,6327.000000,3.000000,72.000000,,,,0.000000,4.000000,4.000000,4.000000,4.000000,4.000000,4.000000,4.000000,4.000000,4.000000,4.000000,4.000000,4.000000,4.000000,4.000000,100.000000,,,,,,,,,,,,,,,,,,,,,,,,,,,,
1703500632.246241,1703500632.246954,12.000000,0.000000,4277.948730,4262.820313,4298.461426,4290.512695,4254.743652,4263.205078,4263.077148,4249.230957,4252.820313,4203.717773,4487.179688,4464.743652,4361.666504,4397.436035,6877.000000,3.000000,72.000000,,,,0.000000,4.000000,4.000000,4.000000,4.000000,4.000000,4.000000,4.000000,4.000000,4.000000,4.000000,4.000000,4.000000,4.000000,4.000000,100.000000,,,,,,,,,,,,,,,,,3.000000,0.000000,0.622536,0.280579,-0.640747,0.350952,0.981077,-0.101087,0.019045,-12.497292,-37.384987,62.002918
1703500632.254050,1703500632.254862,13.000000,0.000000,4280.128418,4261.153809,4296.153809,4289.230957,4249.102539,4264.102539,4270.128418,4251.538574,4261.410156,4217.307617,4478.077148,4458.717773,4358.974121,4397.563965,7414.000000,3.000000,72.000000,,,,0.000000,4.000000,4.000000,4.000000,4.000000,4.000000,4.000000,4.000000,4.000000,4.000000,4.000000,4.000000,4.000000,4.000000,4.000000,100.000000,,,,,,,,,,,,,,,,,,,,,,,,,,,,
1703500632.261858,1703500632.262670,14.000000,0.000000,4279.102539,4260.128418,4296.666504,4282.307617,4249.230957,4264.615234,4270.897461,4251.410156,4262.179688,4229.615234,4471.794922,4454.487305,4358.974121,4397.307617,6088.000000,3.000000,72.000000,,,,0.000000,4.000000,4.000000,4.000000,4.000000,4.000000,4.000000,4.000000,4.000000,4.000000,4.000000,4.000000,4.000000,4.000000,4.000000,100.000000,,,,,,,,,,,,,,,,,,,,,,,,,,,,
1703500632.269666,1703500632.270578,15.000000,0.000000,4266.538574,4254.871582,4285.897461,4277.051270,4246.025879,4265.512695,4264.615234,4249.487305,4252.563965,4226.666504,4462.307617,4443.461426,4348.589844,4377.307617,6327.000000,3.000000,72.000000,,,,0.000000,4.000000,4.000000,4.000000,4.000000,4.000000,4.000000,4.000000,4.000000,4.000000,4.000000,4.000000,4.000000,4.000000,4.000000,100.000000,,,,,,,,,,,,,,,,,,,,,,,,,,,,
1703500632.277474,1703500632.278387,16.000000,0.000000,4269.615234,4245.384766,4278.077148,4276.666504,4233.974121,4262.051270,4263.333496,4245.384766,4246.282227,4213.461426,4459.487305,4437.436035,4340.897461,4372.051270,0.000000,3.000000,72.000000,,,,0.000000,4.000000,4.000000,4.000000,4.000000,4.000000,4.000000,4.000000,4.000000,4.000000,4.000000,4.000000,4.000000,4.000000,4.000000,100.000000,,,,,,,,,,,,,,,,,4.000000,0.000000,0.622420,0.280823,-0.640686,0.351074,0.993285,-0.104993,0.012209,-12.547563,-37.663155,61.969292
1703500632.285282,1703500632.286195,17.000000,0.000000,4279.615234,4245.128418,4287.051270,4281.410156,4240.384766,4260.384766,4266.922852,4247.692383,4248.333496,4210.512695,4468.589844,4445.128418,4345.897461,4384.230957,0.000000,3.000000,72.000000,,,,0.000000,4.000000,4.000000,4.000000,4.000000,4.000000,4.000000,4.000000,4.000000,4.000000,4.000000,4.000000,4.000000,4.000000,4.000000,100.000000,,,,,,,,,,,,,,,,,,,,,,,,,,,,
1703500632.293090,1703500632.293903,18.000000,0.000000,4278.205078,4256.410156,4301.282227,4290.128418,4253.717773,4264.871582,4267.307617,4258.333496,4256.538574,4221.282227,4479.615234,4456.538574,4354.871582,4386.025879,0.000000,3.000000,72.000000,,,,0.000000,4.000000,4.000000,4.000000,4.000000,4.000000,4.000000,4.000000,4.000000,4.000000,4.000000,4.000000,4.000000,4.000000,4.000000,100.000000,,,,,,,,,,,,,,,,,,,,,,,,,,,,
1703500632.300898,1703500632.301711,19.000000,0.000000,4282.820313,4263.974121,4309.743652,4295.769043,4248.333496,4262.179688,4263.461426,4259.487305,4258.077148,4222.179688,4489.358887,4462.436035,4361.538574,4387.436035,0.000000,3.000000,72.000000,,,,0.000000,4.000000,4.000000,4.000000,4.000000,4.000000,4.000000,4.000000,4.000000,4.000000,4.000000,4.000000,4.000000,4.000000,4.000000,100.000000,,,,,,,,,,,,,,,,,,,,,,,,,,,,
1703500632.308706,1703500632.309419,20.000000,0.000000,4294.743652,4260.256348,4311.282227,4295.769043,4246.282227,4253.717773,4262.436035,4249.871582,4251.153809,4213.974121,4492.179688,4461.282227,4365.128418,4396.410156,0.000000,3.000000,72.000000,,,,0.000000,4.000000,4.000000,4.000000,4.000000,4.000000,4.000000,4.000000,4.000000,4.000000,4.000000,4.000000,4.000000,4.000000,4.000000,100.000000,,,,,,,,,,,,,,,,,5.000000,0.000000,0.622504,0.281006,-0.640625,0.350891,0.989867,-0.100110,0.009767,-12.576139,-37.680172,62.039028
1703500632.316514,1703500632.317227,21.000000,0.000000,4292.820313,4259.358887,4310.384766,4295.384766,4250.512695,4247.692383,4260.256348,4245.512695,4247.051270,4215.897461,4483.461426,4460.000000,4358.974121,4395.512695,0.000000,3.000000,72.000000,,,,0.000000,4.000000,4.000000,4.000000,4.000000,4.000000,4.000000,4.000000,4.000000,4.000000,4.000000,4.000000,4.000000,4.000000,4.000000,100.000000,,,,,,,,,,,,,,,,,,,,,,,,,,,,
1703500632.324322,1703500632.324935,22.000000,0.000000,4286.666504,4266.025879,4312.436035,4295.641113,4239.487305,4246.410156,4253.333496,4247.179688,4248.077148,4214.358887,4479.871582,4462.051270,4357.436035,4390.384766,0.000000,3.000000,72.000000,,,,0.000000,4.000000,4.000000,4.000000,4.000000,4.000000,4.000000,4.000000,4.000000,4.000000,4.000000,4.000000,4.000000,4.000000,4.000000,100.000000,,,,,,,,,,,,,,,,,,,,,,,,,,,,
1703500632.332130,1703500632.332843,23.000000,0.000000,4292.563965,4266.666504,4313.974121,4296.025879,4238.205078,4254.102539,4252.692383,4245.769043,4247.051270,4206.410156,4482.692383,4463.077148,4362.563965,4389.871582,0.000000,3.000000,72.000000,,,,0.000000,4.000000,4.000000,4.000000,4.000000,4.000000,4.000000,4.000000,4.000000,4.000000,4.000000,4.000000,4.000000,4.000000,4.000000,100.000000,,,,,,,,,,,,,,,,,,,,,,,,,,,,
1703500632.339938,1703500632.340651,24.000000,0.000000,4294.615234,4263.974121,4311.282227,4297.948730,4254.871582,4263.205078,4261.025879,4244.871582,4245.256348,4210.256348,4477.051270,4462.820313,4352.436035,4389.102539,0.000000,3.000000,72.000000,,,,0.000000,4.000000,4.000000,4.000000,4.000000,4.000000,4.000000,4.000000,4.000000,4.000000,4.000000,4.000000,4.000000,4.000000,4.000000,100.000000,,,,,,,,,,,,,,,,,6.000000,0.000000,0.622711,0.281067,-0.640564,0.350586,1.002564,-0.102552,0.021975,-12.551859,-37.745487,62.101791
1703500632.347746,1703500632.348559,25.000000,0.000000,4290.897461,4265.256348,4309.871582,4298.077148,4257.563965,4266.666504,4265.128418,4247.820313,4247.692383,4221.153809,4473.717773,4462.179688,4345.641113,4387.948730,0.000000,3.000000,72.000000,,,,0.000000,4.000000,4.000000,4.000000,4.000000,4.000000,4.000000,4.000000,4.000000,4.000000,4.000000,4.000000,4.000000,4.000000,4.000000,100.000000,,,,,,,,,,,,,,,,,,,,,,,,,,,,
1703500632.355554,1703500632.356367,26.000000,0.000000,4289.230957,4261.538574,4309.871582,4294.358887,4247.948730,4266.025879,4262.948730,4249.487305,4245.769043,4215.641113,4475.256348,4462.179688,4349.102539,4383.077148,0.000000,3.000000,72.000000,,,,0.000000,4.000000,4.000000,4.000000,4.000000,4.000000,4.000000,4.000000,4.000000,4.000000,4.000000,4.000000,4.000000,4.000000,4.000000,100.000000,,,,,,,,,,,,,,,,,,,,,,,,,,,,
1703500632.363362,1703500632.364275,27.000000,0.000000,4284.487305,4257.948730,4310.512695,4293.589844,4246.922852,4267.563965,4262.563965,4249.358887,4242.179688,4205.512695,4472.179688,4460.512695,4346.153809,4376.794922,0.000000,3.000000,72.000000,,,,0.000000,4.000000,4.000000,4.000000,4.000000,4.000000,4.000000,4.000000,4.000000,4.000000,4.000000,4.000000,4.000000,4.000000,4.000000,100.000000,,,,,,,,,,,,,,,,,,,,,,,,,,,,
1703500632.371170,1703500632.372083,28.000000,0.000000,4277.051270,4262.307617,4311.153809,4294.487305,4247.820313,4268.717773,4268.077148,4250.641113,4242.820313,4198.461426,4471.922852,4459.102539,4344.102539,4379.871582,0.000000,3.000000,72.000000,,,,0.000000,4.000000,4.000000,4.000000,4.000000,4.000000,4.000000,4.000000,4.000000,4.000000,4.000000,4.000000,4.000000,4.000000,4.000000,100.000000,,,,,,,,,,,,,,,,,7.000000,0.000000,0.622842,0.281067,-0.640503,0.350464,0.983030,-0.091320,0.016115,-12.396673,-37.670940,62.158279
1703500632.378978,1703500632.379990,29.000000,0.000000,4281.153809,4263.846191,4312.436035,4292.820313,4242.436035,4264.743652,4271.410156,4254.102539,4242.692383,4188.974121,4477.051270,4463.846191,4343.205078,4387.948730,0.000000,3.000000,72.000000,,,,0.000000,4.000000,4.000000,4.000000,4.000000,4.000000,4.000000,4.000000,4.000000,4.000000,4.000000,4.000000,4.000000,4.000000,4.000000,100.000000,,,,,,,,,,,,,,,,,,,,,,,,,,,,
1703500632.386786,1703500632.387798,30.000000,0.000000,4291.410156,4262.307617,4315.256348,4296.282227,4248.205078,4263.717773,4267.692383,4258.974121,4246.666504,4206.153809,4480.256348,4469.487305,4344.615234,4394.615234,0.000000,3.000000,72.000000,,,,0.000000,4.000000,4.000000,4.000000,4.000000,4.000000,4.000000,4.000000,4.000000,4.000000,4.000000,4.000000,4.000000,4.000000,4.000000,100.000000,,,,,,,,,,,,,,,,,,,,,,,,,,,,
1703500632.394594,1703500632.395706,31.000000,0.000000,4296.410156,4266.410156,4323.846191,4306.666504,4259.743652,4265.512695,4265.128418,4266.153809,4258.589844,4229.102539,4487.436035,4473.333496,4357.436035,4403.589844,0.000000,3.000000,72.000000,,,,0.000000,4.000000,4.000000,4.000000,4.000000,4.000000,4.000000,4.000000,4.000000,4.000000,4.000000,4.000000,4.000000,4.000000,4.000000,100.000000,,,,,,,,,,,,,,,,,,,,,,,,,,,,
1703500632.402403,1703500632.403514,32.000000,0.000000,4295.128418,4266.282227,4327.948730,4307.436035,4257.948730,4262.307617,4264.871582,4262.051270,4265.641113,4228.077148,4499.615234,4478.589844,4372.307617,4406.153809,0.000000,3.000000,72.000000,,,,0.000000,4.000000,4.000000,4.000000,4.000000,4.000000,4.000000,4.000000,4.000000,4.000000,4.000000,4.000000,4.000000,4.000000,4.000000,100.000000,,,,,,,,,,,,,,,,,8.000000,0.000000,0.622723,0.281067,-0.640686,0.350342,0.987425,-0.087901,0.010255,-12.323672,-37.620514,62.109119
1703500632.410210,1703500632.411422,33.000000,0.000000,4287.307617,4262.179688,4319.102539,4297.820313,4250.769043,4257.436035,4261.538574,4251.282227,4264.230957,4236.922852,4501.282227,4481.153809,4370.384766,4403.077148,0.000000,3.000000,72.000000,,,,0.000000,4.000000,4.000000,4.000000,4.000000,4.000000,4.000000,4.000000,4.000000,4.000000,4.000000,4.000000,4.000000,4.000000,4.000000,100.000000,,,,,,,,,,,,,,,,,,,,,,,,,,,,
1703500632.418018,1703500632.419230,34.000000,0.000000,4279.487305,4265.128418,4309.871582,4294.871582,4250.256348,4261.538574,4262.820313,4252.051270,4263.205078,4244.102539,4491.410156,4474.358887,4360.000000,4397.563965,0.000000,3.000000,72.000000,,,,0.000000,4.000000,4.000000,4.000000,4.000000,4.000000,4.000000,4.000000,4.000000,4.000000,4.000000,4.000000,4.000000,4.000000,4.000000,100.000000,,,,,,,,,,,,,,,,,,,,,,,,,,,,
1703500632.425827,1703500632.426938,35.000000,0.000000,4280.641113,4266.153809,4308.717773,4295.897461,4247.692383,4264.871582,4264.230957,4255.897461,4264.358887,4228.974121,4488.589844,4463.717773,4356.666504,4383.974121,0.000000,3.000000,72.000000,,,,0.000000,4.000000,4.000000,4.000000,4.000000,4.000000,4.000000,4.000000,4.000000,4.000000,4.000000,4.000000,4.000000,4.000000,4.000000,100.000000,,,,,,,,,,,,,,,,,,,,,,,,,,,,
1703500632.433635,1703500632.434746,36.000000,0.000000,4281.282227,4258.333496,4310.000000,4294.487305,4245.769043,4262.820313,4265.128418,4254.358887,4262.436035,4222.948730,4490.256348,4454.743652,4357.820313,4370.897461,0.000000,3.000000,72.000000,,,,0.000000,4.000000,4.000000,4.000000,4.000000,4.000000,4.000000,4.000000,4.000000,4.000000,4.000000,4.000000,4.000000,4.000000,4.000000,100.000000,,,,,,,,,,,,,,,,,9.000000,0.000000,0.622500,0.281067,-0.640869,0.350403,0.980588,-0.102552,0.006837,-12.357972,-37.625130,62.014874
