title:مريان انذار, start timestamp:1703413660.894715, stop timestamp:1703413671.638595, headset type:EPOCX, headset serial:E50206EF, headset firmware:720, channels:67, sampling rate:eeg_128;mot_32, samples:1377      , version:2.2, 
Timestamp,OriginalTimestamp,EEG.Counter,EEG.Interpolated,EEG.AF3,EEG.F7,EEG.F3,EEG.FC5,EEG.T7,EEG.P7,EEG.O1,EEG.O2,EEG.P8,EEG.T8,EEG.FC6,EEG.F4,EEG.F8,EEG.AF4,EEG.RawCq,EEG.Battery,EEG.BatteryPercent,MarkerIndex,MarkerType,MarkerValueInt,EEG.MarkerHardware,CQ.AF3,CQ.F7,CQ.F3,CQ.FC5,CQ.T7,CQ.P7,CQ.O1,CQ.O2,CQ.P8,CQ.T8,CQ.FC6,CQ.F4,CQ.F8,CQ.AF4,CQ.Overall,EQ.SampleRateQuality,EQ.OVERALL,EQ.AF3,EQ.F7,EQ.F3,EQ.FC5,EQ.T7,EQ.P7,EQ.O1,EQ.O2,EQ.P8,EQ.T8,EQ.FC6,EQ.F4,EQ.F8,EQ.AF4,MOT.CounterMems,MOT.InterpolatedMems,MOT.Q0,MOT.Q1,MOT.Q2,MOT.Q3,MOT.AccX,MOT.AccY,MOT.AccZ,MOT.MagX,MOT.MagY,MOT.MagZ
1703413660.894715,1703413660.894745,100.000000,0.000000,4256.025879,4220.512695,4294.743652,4241.794922,4232.307617,4228.589844,4281.666504,4200.256348,4199.358887,4183.717773,4502.307617,4441.410156,4381.025879,4441.025879,6546.000000,3.000000,59.000000,,,,0.000000,4.000000,4.000000,4.000000,4.000000,4.000000,4.000000,4.000000,4.000000,4.000000,4.000000,4.000000,4.000000,4.000000,4.000000,100.000000,,,,,,,,,,,,,,,,,25.000000,0.000000,0.354943,0.626038,-0.257446,0.644836,0.995727,0.127945,0.083018,-19.199675,-33.741135,65.456680
1703413660.902523,1703413660.902653,101.000000,0.000000,4259.358887,4221.410156,4299.358887,4248.589844,4229.102539,4232.179688,4281.922852,4200.897461,4202.692383,4186.025879,4514.743652,4448.846191,4389.743652,4448.205078,6504.000000,3.000000,59.000000,,,,0.000000,4.000000,4.000000,4.000000,4.000000,4.000000,4.000000,4.000000,4.000000,4.000000,4.000000,4.000000,4.000000,4.000000,4.000000,100.000000,,,,,,,,,,,,,,,,,,,,,,,,,,,,
1703413660.910331,1703413660.910461,102.000000,0.000000,4254.230957,4242.436035,4297.948730,4258.461426,4232.307617,4237.820313,4281.922852,4215.897461,4216.153809,4203.205078,4524.358887,4458.077148,4372.051270,4457.436035,5910.000000,3.000000,59.000000,,,,0.000000,4.000000,4.000000,4.000000,4.000000,4.000000,4.000000,4.000000,4.000000,4.000000,4.000000,4.000000,4.000000,4.000000,4.000000,100.000000,,,,,,,,,,,,,,,,,,,,,,,,,,,,
1703413660.918139,1703413660.918369,103.000000,0.000000,4250.641113,4237.179688,4291.153809,4262.307617,4237.179688,4230.384766,4282.436035,4213.077148,4207.436035,4197.436035,4502.948730,4446.025879,4351.153809,4443.077148,6082.000000,3.000000,59.000000,,,,0.000000,4.000000,4.000000,4.000000,4.000000,4.000000,4.000000,4.000000,4.000000,4.000000,4.000000,4.000000,4.000000,4.000000,4.000000,100.000000,,,,,,,,,,,,,,,,,,,,,,,,,,,,
1703413660.925947,1703413660.926177,104.000000,0.000000,4260.769043,4223.461426,4293.205078,4266.922852,4235.256348,4230.128418,4283.717773,4211.282227,4198.077148,4185.256348,4503.333496,4447.179688,4382.436035,4441.410156,6546.000000,3.000000,59.000000,,,,0.000000,4.000000,4.000000,4.000000,4.000000,4.000000,4.000000,4.000000,4.000000,4.000000,4.000000,4.000000,4.000000,4.000000,4.000000,100.000000,,,,,,,,,,,,,,,,,26.000000,0.000000,0.355079,0.626099,-0.257568,0.644653,0.977658,0.124039,0.077646,-19.146374,-33.833687,65.494347
1703413660.933755,1703413660.933885,105.000000,0.000000,4265.000000,4231.410156,4299.102539,4264.487305,4232.051270,4243.589844,4281.922852,4228.077148,4211.922852,4184.358887,4525.512695,4468.717773,4416.794922,4464.358887,6504.000000,3.000000,59.000000,,,,0.000000,4.000000,4.000000,4.000000,4.000000,4.000000,4.000000,4.000000,4.000000,4.000000,4.000000,4.000000,4.000000,4.000000,4.000000,100.000000,,,,,,,,,,,,,,,,,,,,,,,,,,,,
1703413660.941563,1703413660.941693,106.000000,0.000000,4265.000000,4223.846191,4299.230957,4264.358887,4229.743652,4239.615234,4277.563965,4240.256348,4220.769043,4190.897461,4535.256348,4479.487305,4414.743652,4477.051270,5910.000000,3.000000,59.000000,,,,0.000000,4.000000,4.000000,4.000000,4.000000,4.000000,4.000000,4.000000,4.000000,4.000000,4.000000,4.000000,4.000000,4.000000,4.000000,100.000000,,,,,,,,,,,,,,,,,,,,,,,,,,,,
1703413660.949371,1703413660.949401,107.000000,0.000000,4262.436035,4210.384766,4292.051270,4263.717773,4227.692383,4221.538574,4277.948730,4237.179688,4215.641113,4207.948730,4540.128418,4470.384766,4413.461426,4466.410156,6082.000000,3.000000,59.000000,,,,0.000000,4.000000,4.000000,4.000000,4.000000,4.000000,4.000000,4.000000,4.000000,4.000000,4.000000,4.000000,4.000000,4.000000,4.000000,100.000000,,,,,,,,,,,,,,,,,,,,,,,,,,,,
1703413660.957179,1703413660.957209,108.000000,0.000000,4254.871582,4225.512695,4287.051270,4242.820313,4230.897461,4221.025879,4276.922852,4225.641113,4217.436035,4219.743652,4540.897461,4458.333496,4420.128418,4455.897461,6546.000000,3.000000,59.000000,,,,0.000000,4.000000,4.000000,4.000000,4.000000,4.000000,4.000000,4.000000,4.000000,4.000000,4.000000,4.000000,4.000000,4.000000,4.000000,100.000000,,,,,,,,,,,,,,,,,27.000000,0.000000,0.355079,0.626099,-0.257568,0.644653,0.990844,0.131364,0.084483,-19.165070,-33.866985,65.328239
1703413660.964987,1703413660.964917,109.000000,0.000000,4257.820313,4237.563965,4293.205078,4248.717773,4240.897461,4234.358887,4270.641113,4219.230957,4223.333496,4225.128418,4535.256348,4459.871582,4415.256348,4462.051270,6504.000000,3.000000,59.000000,,,,0.000000,4.000000,4.000000,4.000000,4.000000,4.000000,4.000000,4.000000,4.000000,4.000000,4.000000,4.000000,4.000000,4.000000,4.000000,100.000000,,,,,,,,,,,,,,,,,,,,,,,,,,,,
1703413660.972795,1703413660.972725,110.000000,0.000000,4268.974121,4231.538574,4300.256348,4283.333496,4242.948730,4235.000000,4271.282227,4221.410156,4228.205078,4229.871582,4552.051270,4472.820313,4421.794922,4477.179688,5910.000000,3.000000,59.000000,,,,0.000000,4.000000,4.000000,4.000000,4.000000,4.000000,4.000000,4.000000,4.000000,4.000000,4.000000,4.000000,4.000000,4.000000,4.000000,100.000000,,,,,,,,,,,,,,,,,,,,,,,,,,,,
1703413660.980603,1703413660.980433,111.000000,0.000000,4266.538574,4230.384766,4294.358887,4269.358887,4236.794922,4232.179688,4278.974121,4219.871582,4232.307617,4223.974121,4561.410156,4471.410156,4436.666504,4479.230957,6082.000000,3.000000,59.000000,,,,0.000000,4.000000,4.000000,4.000000,4.000000,4.000000,4.000000,4.000000,4.000000,4.000000,4.000000,4.000000,4.000000,4.000000,4.000000,100.000000,,,,,,,,,,,,,,,,,,,,,,,,,,,,
1703413660.988412,1703413660.988241,112.000000,0.000000,4259.743652,4229.102539,4285.384766,4244.743652,4242.307617,4239.102539,4280.384766,4213.846191,4224.102539,4225.897461,4541.410156,4459.230957,4432.820313,4473.077148,6546.000000,3.000000,59.000000,,,,0.000000,4.000000,4.000000,4.000000,4.000000,4.000000,4.000000,4.000000,4.000000,4.000000,4.000000,4.000000,4.000000,4.000000,4.000000,100.000000,,,,,,,,,,,,,,,,,28.000000,0.000000,0.355161,0.625977,-0.257751,0.644653,0.993285,0.126969,0.073739,-19.165230,-33.946953,65.245415
1703413660.996220,1703413660.995949,113.000000,0.000000,4260.769043,4228.589844,4284.871582,4267.948730,4252.179688,4244.358887,4277.179688,4210.256348,4214.358887,4235.128418,4538.589844,4458.205078,4424.487305,4474.615234,6504.000000,3.000000,59.000000,,,,0.000000,4.000000,4.000000,4.000000,4.000000,4.000000,4.000000,4.000000,4.000000,4.000000,4.000000,4.000000,4.000000,4.000000,4.000000,100.000000,,,,,,,,,,,,,,,,,,,,,,,,,,,,
1703413661.004028,1703413661.003757,114.000000,0.000000,4260.256348,4234.743652,4283.717773,4284.871582,4248.589844,4244.487305,4278.205078,4217.179688,4222.179688,4219.230957,4545.128418,4462.436035,4420.512695,4475.128418,5910.000000,3.000000,59.000000,,,,0.000000,4.000000,4.000000,4.000000,4.000000,4.000000,4.000000,4.000000,4.000000,4.000000,4.000000,4.000000,4.000000,4.000000,4.000000,100.000000,,,,,,,,,,,,,,,,,,,,,,,,,,,,
1703413661.011836,1703413661.011465,115.000000,0.000000,4261.025879,4224.487305,4286.025879,4254.487305,4245.256348,4241.153809,4280.641113,4227.948730,4229.743652,4204.487305,4533.205078,4466.410156,4413.589844,4472.948730,6082.000000,3.000000,59.000000,,,,0.000000,4.000000,4.000000,4.000000,4.000000,4.000000,4.000000,4.000000,4.000000,4.000000,4.000000,4.000000,4.000000,4.000000,4.000000,100.000000,,,,,,,,,,,,,,,,,,,,,,,,,,,,
1703413661.019644,1703413661.019273,116.000000,0.000000,4262.563965,4212.563965,4292.436035,4241.025879,4247.051270,4233.974121,4273.974121,4226.153809,4222.948730,4216.282227,4537.179688,4470.384766,4402.692383,4473.846191,6546.000000,3.000000,59.000000,,,,0.000000,4.000000,4.000000,4.000000,4.000000,4.000000,4.000000,4.000000,4.000000,4.000000,4.000000,4.000000,4.000000,4.000000,4.000000,100.000000,,,,,,,,,,,,,,,,,29.000000,0.000000,0.355136,0.625916,-0.257629,0.644775,0.976193,0.125992,0.081553,-19.215374,-33.768925,65.304207
1703413661.027452,1703413661.026981,117.000000,0.000000,4260.000000,4224.102539,4288.974121,4267.563965,4242.692383,4231.922852,4268.589844,4217.820313,4220.000000,4221.538574,4558.077148,4470.256348,4407.692383,4473.717773,6504.000000,3.000000,59.000000,,,,0.000000,4.000000,4.000000,4.000000,4.000000,4.000000,4.000000,4.000000,4.000000,4.000000,4.000000,4.000000,4.000000,4.000000,4.000000,100.000000,,,,,,,,,,,,,,,,,,,,,,,,,,,,
1703413661.035260,1703413661.034889,118.000000,0.000000,4258.717773,4234.230957,4285.128418,4280.000000,4244.230957,4236.410156,4272.179688,4223.717773,4228.205078,4221.282227,4546.153809,4468.589844,4425.000000,4471.666504,5910.000000,3.000000,59.000000,,,,0.000000,4.000000,4.000000,4.000000,4.000000,4.000000,4.000000,4.000000,4.000000,4.000000,4.000000,4.000000,4.000000,4.000000,4.000000,100.000000,,,,,,,,,,,,,,,,,,,,,,,,,,,,
1703413661.043068,1703413661.042697,119.000000,0.000000,4268.205078,4226.922852,4294.102539,4273.846191,4253.589844,4234.230957,4272.051270,4234.358887,4233.717773,4235.512695,4542.563965,4474.102539,4436.666504,4479.230957,6082.000000,3.000000,59.000000,,,,0.000000,4.000000,4.000000,4.000000,4.000000,4.000000,4.000000,4.000000,4.000000,4.000000,4.000000,4.000000,4.000000,4.000000,4.000000,100.000000,,,,,,,,,,,,,,,,,,,,,,,,,,,,
1703413661.050876,1703413661.050605,120.000000,0.000000,4279.615234,4221.794922,4301.410156,4276.282227,4248.205078,4229.358887,4270.256348,4225.641113,4226.538574,4236.922852,4566.922852,4483.333496,4429.615234,4489.871582,6546.000000,3.000000,59.000000,,,,0.000000,4.000000,4.000000,4.000000,4.000000,4.000000,4.000000,4.000000,4.000000,4.000000,4.000000,4.000000,4.000000,4.000000,4.000000,100.000000,,,,,,,,,,,,,,,,,30.000000,0.000000,0.355404,0.625549,-0.257690,0.644958,0.989867,0.139177,0.080088,-19.277168,-33.708698,65.290459
1703413661.058684,1703413661.058413,121.000000,0.000000,4280.641113,4235.128418,4300.384766,4285.256348,4242.307617,4233.333496,4274.102539,4214.358887,4221.153809,4223.461426,4557.948730,4488.077148,4415.256348,4491.153809,6504.000000,3.000000,59.000000,,,,0.000000,4.000000,4.000000,4.000000,4.000000,4.000000,4.000000,4.000000,4.000000,4.000000,4.000000,4.000000,4.000000,4.000000,4.000000,100.000000,,,,,,,,,,,,,,,,,,,,,,,,,,,,
1703413661.066492,1703413661.066320,122.000000,0.000000,4277.436035,4246.794922,4300.897461,4282.051270,4254.102539,4230.769043,4272.307617,4218.333496,4221.666504,4216.282227,4540.128418,4485.256348,4416.794922,4486.666504,5910.000000,3.000000,59.000000,,,,0.000000,4.000000,4.000000,4.000000,4.000000,4.000000,4.000000,4.000000,4.000000,4.000000,4.000000,4.000000,4.000000,4.000000,4.000000,100.000000,,,,,,,,,,,,,,,,,,,,,,,,,,,,
1703413661.074300,1703413661.074128,123.000000,0.000000,4274.358887,4232.051270,4302.436035,4274.358887,4257.307617,4221.538574,4269.102539,4223.333496,4215.769043,4217.051270,4549.743652,4478.077148,4418.077148,4482.051270,6082.000000,3.000000,59.000000,,,,0.000000,4.000000,4.000000,4.000000,4.000000,4.000000,4.000000,4.000000,4.000000,4.000000,4.000000,4.000000,4.000000,4.000000,4.000000,100.000000,,,,,,,,,,,,,,,,,,,,,,,,,,,,
1703413661.082108,1703413661.082036,124.000000,0.000000,4273.333496,4219.230957,4304.102539,4278.333496,4247.436035,4226.410156,4275.384766,4228.589844,4218.974121,4225.641113,4554.102539,4480.769043,4410.641113,4478.333496,6546.000000,3.000000,59.000000,,,,0.000000,4.000000,4.000000,4.000000,4.000000,4.000000,4.000000,4.000000,4.000000,4.000000,4.000000,4.000000,4.000000,4.000000,4.000000,100.000000,,,,,,,,,,,,,,,,,31.000000,0.000000,0.355755,0.625488,-0.257813,0.644775,0.981565,0.135270,0.074716,-19.266119,-33.721161,65.378075
1703413661.089916,1703413661.089844,125.000000,0.000000,4282.051270,4231.025879,4313.205078,4278.717773,4250.384766,4239.743652,4282.051270,4244.615234,4241.794922,4232.051270,4558.077148,4498.461426,4416.922852,4489.102539,6504.000000,3.000000,59.000000,,,,0.000000,4.000000,4.000000,4.000000,4.000000,4.000000,4.000000,4.000000,4.000000,4.000000,4.000000,4.000000,4.000000,4.000000,4.000000,100.000000,,,,,,,,,,,,,,,,,,,,,,,,,,,,
1703413661.097724,1703413661.097752,126.000000,0.000000,4289.102539,4236.153809,4323.205078,4276.153809,4263.333496,4246.794922,4283.333496,4259.487305,4256.922852,4233.974121,4577.179688,4507.948730,4430.128418,4506.282227,5910.000000,3.000000,59.000000,,,,0.000000,4.000000,4.000000,4.000000,4.000000,4.000000,4.000000,4.000000,4.000000,4.000000,4.000000,4.000000,4.000000,4.000000,4.000000,100.000000,,,,,,,,,,,,,,,,,,,,,,,,,,,,
1703413661.105532,1703413661.105560,127.000000,0.000000,4281.922852,4231.410156,4317.436035,4286.666504,4272.563965,4251.538574,4286.922852,4263.717773,4255.769043,4242.307617,4574.487305,4497.692383,4432.563965,4499.102539,59.000000,3.000000,59.000000,,,,0.000000,4.000000,4.000000,4.000000,4.000000,4.000000,4.000000,4.000000,4.000000,4.000000,4.000000,4.000000,4.000000,4.000000,4.000000,100.000000,,,,,,,,,,,,,,,,,,,,,,,,,,,,
1703413661.113340,1703413661.113468,0.000000,0.000000,4275.256348,4245.512695,4303.846191,4299.230957,4271.666504,4253.717773,4292.179688,4270.512695,4260.641113,4252.948730,4562.820313,4493.077148,4433.205078,4487.179688,3633.000000,3.000000,59.000000,,,,0.000000,4.000000,4.000000,4.000000,4.000000,4.000000,4.000000,4.000000,4.000000,4.000000,4.000000,4.000000,4.000000,4.000000,4.000000,100.000000,,,,,,,,,,,,,,,,,0.000000,0.000000,0.355929,0.625427,-0.257874,0.644714,0.984007,0.127945,0.080088,-19.272840,-33.549046,65.390266
1703413661.121148,1703413661.121276,1.000000,0.000000,4278.974121,4252.948730,4306.410156,4295.000000,4267.563965,4249.615234,4290.897461,4280.769043,4268.589844,4250.384766,4581.538574,4505.897461,4428.846191,4498.461426,5402.000000,3.000000,59.000000,,,,0.000000,4.000000,4.000000,4.000000,4.000000,4.000000,4.000000,4.000000,4.000000,4.000000,4.000000,4.000000,4.000000,4.000000,4.000000,100.000000,,,,,,,,,,,,,,,,,,,,,,,,,,,,
1703413661.128956,1703413661.128984,2.000000,0.000000,4282.948730,4235.897461,4317.307617,4290.897461,4270.769043,4249.102539,4284.615234,4284.871582,4264.230957,4237.179688,4590.641113,4517.179688,4428.717773,4512.436035,5115.000000,3.000000,59.000000,,,,0.000000,4.000000,4.000000,4.000000,4.000000,4.000000,4.000000,4.000000,4.000000,4.000000,4.000000,4.000000,4.000000,4.000000,4.000000,100.000000,,,,,,,,,,,,,,,,,,,,,,,,,,,,
1703413661.136764,1703413661.136792,3.000000,0.000000,4283.974121,4229.743652,4316.538574,4294.487305,4273.717773,4248.461426,4283.333496,4281.025879,4250.512695,4228.717773,4576.025879,4514.230957,4437.692383,4507.436035,5287.000000,3.000000,59.000000,,,,0.000000,4.000000,4.000000,4.000000,4.000000,4.000000,4.000000,4.000000,4.000000,4.000000,4.000000,4.000000,4.000000,4.000000,4.000000,100.000000,,,,,,,,,,,,,,,,,,,,,,,,,,,,
1703413661.144573,1703413661.144500,4.000000,0.000000,4288.717773,4241.922852,4316.538574,4291.282227,4271.410156,4242.307617,4284.615234,4269.871582,4245.128418,4236.666504,4572.436035,4512.051270,4435.641113,4503.205078,5163.000000,3.000000,59.000000,,,,0.000000,4.000000,4.000000,4.000000,4.000000,4.000000,4.000000,4.000000,4.000000,4.000000,4.000000,4.000000,4.000000,4.000000,4.000000,100.000000,,,,,,,,,,,,,,,,,1.000000,0.000000,0.355793,0.625366,-0.257751,0.644897,0.985472,0.126969,0.082041,-19.262222,-33.460808,65.467911
1703413661.152381,1703413661.152408,5.000000,0.000000,4298.077148,4252.051270,4328.077148,4294.615234,4276.410156,4243.333496,4286.538574,4258.461426,4259.358887,4261.794922,4585.128418,4518.461426,4440.000000,4517.179688,4473.000000,3.000000,59.000000,,,,0.000000,4.000000,4.000000,4.000000,4.000000,4.000000,4.000000,4.000000,4.000000,4.000000,4.000000,4.000000,4.000000,4.000000,4.000000,100.000000,,,,,,,,,,,,,,,,,,,,,,,,,,,,
1703413661.160189,1703413661.160216,6.000000,0.000000,4304.615234,4252.436035,4333.974121,4308.717773,4283.205078,4249.871582,4288.974121,4260.000000,4266.282227,4271.282227,4594.487305,4524.358887,4453.461426,4529.102539,2748.000000,3.000000,59.000000,,,,0.000000,4.000000,4.000000,4.000000,4.000000,4.000000,4.000000,4.000000,4.000000,4.000000,4.000000,4.000000,4.000000,4.000000,4.000000,100.000000,1.000000,100.000000,4.000000,4.000000,4.000000,4.000000,4.000000,4.000000,4.000000,4.000000,4.000000,4.000000,4.000000,4.000000,4.000000,4.000000,,,,,,,,,,,,
1703413661.167997,1703413661.168124,7.000000,0.000000,4307.820313,4250.256348,4334.358887,4307.563965,4280.769043,4250.769043,4289.358887,4263.846191,4254.102539,4248.717773,4586.153809,4525.000000,4440.512695,4527.179688,4734.000000,3.000000,59.000000,,,,0.000000,4.000000,4.000000,4.000000,4.000000,4.000000,4.000000,4.000000,4.000000,4.000000,4.000000,4.000000,4.000000,4.000000,4.000000,100.000000,,,,,,,,,,,,,,,,,,,,,,,,,,,,
1703413661.175805,1703413661.175932,8.000000,0.000000,4306.538574,4248.717773,4339.102539,4297.563965,4279.230957,4243.589844,4288.461426,4262.307617,4247.179688,4229.871582,4573.717773,4523.333496,4426.538574,4523.589844,4373.000000,3.000000,59.000000,,,,0.000000,4.000000,4.000000,4.000000,4.000000,4.000000,4.000000,4.000000,4.000000,4.000000,4.000000,4.000000,4.000000,4.000000,4.000000,100.000000,,,,,,,,,,,,,,,,,2.000000,0.000000,0.355619,0.625427,-0.257690,0.644958,0.990844,0.120132,0.081065,-19.319334,-33.614727,65.437782
1703413661.183613,1703413661.183840,9.000000,0.000000,4298.974121,4246.282227,4340.512695,4295.128418,4280.256348,4232.563965,4287.051270,4267.948730,4248.461426,4231.666504,4576.282227,4521.666504,4437.563965,4522.563965,5335.000000,3.000000,59.000000,,,,0.000000,4.000000,4.000000,4.000000,4.000000,4.000000,4.000000,4.000000,4.000000,4.000000,4.000000,4.000000,4.000000,4.000000,4.000000,100.000000,,,,,,,,,,,,,,,,,,,,,,,,,,,,
1703413661.191421,1703413661.191648,10.000000,0.000000,4293.077148,4247.051270,4334.102539,4299.487305,4274.871582,4228.077148,4286.922852,4278.333496,4245.897461,4230.769043,4584.871582,4518.461426,4436.025879,4514.230957,5866.000000,3.000000,59.000000,,,,0.000000,4.000000,4.000000,4.000000,4.000000,4.000000,4.000000,4.000000,4.000000,4.000000,4.000000,4.000000,4.000000,4.000000,4.000000,100.000000,,,,,,,,,,,,,,,,,,,,,,,,,,,,
1703413661.199229,1703413661.199456,11.000000,0.000000,4295.897461,4248.461426,4332.179688,4294.743652,4266.922852,4231.666504,4287.563965,4278.846191,4245.641113,4236.282227,4585.769043,4516.282227,4425.256348,4506.025879,6072.000000,3.000000,59.000000,,,,0.000000,4.000000,4.000000,4.000000,4.000000,4.000000,4.000000,4.000000,4.000000,4.000000,4.000000,4.000000,4.000000,4.000000,4.000000,100.000000,,,,,,,,,,,,,,,,,,,,,,,,,,,,
1703413661.207037,1703413661.207164,12.000000,0.000000,4291.666504,4246.666504,4331.794922,4281.282227,4263.333496,4229.230957,4287.436035,4271.025879,4248.333496,4248.846191,4580.769043,4512.179688,4429.615234,4509.358887,6492.000000,3.000000,59.000000,,,,0.000000,4.000000,4.000000,4.000000,4.000000,4.000000,4.000000,4.000000,4.000000,4.000000,4.000000,4.000000,4.000000,4.000000,4.000000,100.000000,,,,,,,,,,,,,,,,,3.000000,0.000000,0.355686,0.625427,-0.257751,0.644897,0.993285,0.123550,0.088878,-19.320734,-33.536587,65.410675
1703413661.214845,1703413661.214972,13.000000,0.000000,4279.615234,4236.538574,4323.846191,4278.077148,4265.384766,4229.230957,4287.179688,4261.922852,4244.102539,4231.666504,4567.948730,4502.179688,4431.538574,4502.948730,6499.000000,3.000000,59.000000,,,,0.000000,4.000000,4.000000,4.000000,4.000000,4.000000,4.000000,4.000000,4.000000,4.000000,4.000000,4.000000,4.000000,4.000000,4.000000,100.000000,,,,,,,,,,,,,,,,,,,,,,,,,,,,
1703413661.222653,1703413661.222680,14.000000,0.000000,4284.102539,4226.282227,4320.000000,4280.641113,4265.897461,4234.743652,4286.025879,4258.846191,4239.615234,4213.461426,4565.000000,4497.179688,4434.487305,4490.256348,5866.000000,3.000000,59.000000,,,,0.000000,4.000000,4.000000,4.000000,4.000000,4.000000,4.000000,4.000000,4.000000,4.000000,4.000000,4.000000,4.000000,4.000000,4.000000,100.000000,,,,,,,,,,,,,,,,,,,,,,,,,,,,
1703413661.230461,1703413661.230588,15.000000,0.000000,4296.410156,4238.077148,4324.102539,4275.769043,4268.846191,4230.128418,4282.436035,4269.743652,4244.743652,4231.025879,4581.538574,4507.307617,4434.487305,4496.922852,6072.000000,3.000000,59.000000,,,,0.000000,4.000000,4.000000,4.000000,4.000000,4.000000,4.000000,4.000000,4.000000,4.000000,4.000000,4.000000,4.000000,4.000000,4.000000,100.000000,,,,,,,,,,,,,,,,,,,,,,,,,,,,
1703413661.238269,1703413661.238396,16.000000,0.000000,4297.307617,4259.102539,4322.051270,4285.897461,4279.487305,4237.051270,4286.666504,4281.538574,4255.897461,4254.871582,4586.282227,4520.641113,4431.410156,4511.410156,0.000000,3.000000,59.000000,,,,0.000000,4.000000,4.000000,4.000000,4.000000,4.000000,4.000000,4.000000,4.000000,4.000000,4.000000,4.000000,4.000000,4.000000,4.000000,100.000000,,,,,,,,,,,,,,,,,4.000000,0.000000,0.356039,0.625427,-0.257874,0.644653,0.996215,0.132340,0.082041,-19.288660,-33.466263,65.386269
1703413661.246077,1703413661.246303,17.000000,0.000000,4294.615234,4257.179688,4314.230957,4308.589844,4283.461426,4242.051270,4292.948730,4275.384766,4247.179688,4258.717773,4575.897461,4517.563965,4438.205078,4511.153809,0.000000,3.000000,59.000000,,,,0.000000,4.000000,4.000000,4.000000,4.000000,4.000000,4.000000,4.000000,4.000000,4.000000,4.000000,4.000000,4.000000,4.000000,4.000000,100.000000,,,,,,,,,,,,,,,,,,,,,,,,,,,,
1703413661.253885,1703413661.254111,18.000000,0.000000,4298.717773,4243.333496,4319.230957,4302.820313,4276.538574,4214.487305,4281.410156,4261.922852,4220.000000,4246.410156,4579.487305,4511.410156,4444.743652,4510.641113,0.000000,3.000000,59.000000,,,,0.000000,4.000000,4.000000,4.000000,4.000000,4.000000,4.000000,4.000000,4.000000,4.000000,4.000000,4.000000,4.000000,4.000000,4.000000,100.000000,,,,,,,,,,,,,,,,,,,,,,,,,,,,
1703413661.261693,1703413661.262019,19.000000,0.000000,4307.820313,4257.563965,4331.410156,4293.333496,4280.256348,4213.846191,4274.871582,4254.487305,4231.025879,4245.512695,4590.641113,4520.256348,4450.897461,4521.794922,0.000000,3.000000,59.000000,,,,0.000000,4.000000,4.000000,4.000000,4.000000,4.000000,4.000000,4.000000,4.000000,4.000000,4.000000,4.000000,4.000000,4.000000,4.000000,100.000000,,,,,,,,,,,,,,,,,,,,,,,,,,,,
1703413661.269501,1703413661.269827,20.000000,0.000000,4316.410156,4279.487305,4335.641113,4307.692383,4293.205078,4256.794922,4283.974121,4257.820313,4266.153809,4270.256348,4601.538574,4531.666504,4462.563965,4531.025879,0.000000,3.000000,59.000000,,,,0.000000,4.000000,4.000000,4.000000,4.000000,4.000000,4.000000,4.000000,4.000000,4.000000,4.000000,4.000000,4.000000,4.000000,4.000000,100.000000,,,,,,,,,,,,,,,,,5.000000,0.000000,0.356197,0.625488,-0.257813,0.644531,0.987914,0.145037,0.081553,-19.409794,-33.469635,65.430977
1703413661.277310,1703413661.277735,21.000000,0.000000,4310.769043,4266.794922,4330.000000,4301.025879,4287.179688,4257.307617,4283.974121,4258.974121,4252.051270,4277.436035,4599.102539,4524.487305,4457.179688,4523.461426,0.000000,3.000000,59.000000,,,,0.000000,4.000000,4.000000,4.000000,4.000000,4.000000,4.000000,4.000000,4.000000,4.000000,4.000000,4.000000,4.000000,4.000000,4.000000,100.000000,,,,,,,,,,,,,,,,,,,,,,,,,,,,
1703413661.285118,1703413661.285543,22.000000,0.000000,4294.615234,4242.948730,4317.692383,4280.000000,4271.025879,4226.794922,4278.461426,4253.589844,4231.794922,4251.538574,4581.282227,4507.692383,4440.512695,4507.820313,0.000000,3.000000,59.000000,,,,0.000000,4.000000,4.000000,4.000000,4.000000,4.000000,4.000000,4.000000,4.000000,4.000000,4.000000,4.000000,4.000000,4.000000,4.000000,100.000000,,,,,,,,,,,,,,,,,,,,,,,,,,,,
1703413661.292925,1703413661.293451,23.000000,0.000000,4292.436035,4240.256348,4315.128418,4275.000000,4271.794922,4237.436035,4278.846191,4254.615234,4261.025879,4237.692383,4588.717773,4508.717773,4442.051270,4507.563965,0.000000,3.000000,59.000000,,,,0.000000,4.000000,4.000000,4.000000,4.000000,4.000000,4.000000,4.000000,4.000000,4.000000,4.000000,4.000000,4.000000,4.000000,4.000000,100.000000,,,,,,,,,,,,,,,,,,,,,,,,,,,,
1703413661.300734,1703413661.301259,24.000000,0.000000,4296.025879,4246.282227,4324.615234,4266.666504,4278.589844,4253.717773,4281.666504,4265.384766,4276.538574,4241.410156,4597.692383,4517.307617,4440.641113,4508.205078,0.000000,3.000000,59.000000,,,,0.000000,4.000000,4.000000,4.000000,4.000000,4.000000,4.000000,4.000000,4.000000,4.000000,4.000000,4.000000,4.000000,4.000000,4.000000,100.000000,,,,,,,,,,,,,,,,,6.000000,0.000000,0.356330,0.625488,-0.257629,0.644531,0.981077,0.123062,0.092296,-19.368814,-33.406006,65.571213
1703413661.308542,1703413661.309167,25.000000,0.000000,4288.974121,4245.000000,4331.025879,4261.153809,4275.128418,4247.692383,4289.615234,4267.179688,4254.871582,4237.563965,4570.128418,4514.615234,4414.358887,4493.846191,0.000000,3.000000,59.000000,,,,0.000000,4.000000,4.000000,4.000000,4.000000,4.000000,4.000000,4.000000,4.000000,4.000000,4.000000,4.000000,4.000000,4.000000,4.000000,100.000000,,,,,,,,,,,,,,,,,,,,,,,,,,,,
1703413661.316350,1703413661.316975,26.000000,0.000000,4288.205078,4246.794922,4312.692383,4278.333496,4274.230957,4243.589844,4278.461426,4252.436035,4249.871582,4238.974121,4548.205078,4501.025879,4395.512695,4484.487305,0.000000,3.000000,59.000000,,,,0.000000,4.000000,4.000000,4.000000,4.000000,4.000000,4.000000,4.000000,4.000000,4.000000,4.000000,4.000000,4.000000,4.000000,4.000000,100.000000,,,,,,,,,,,,,,,,,,,,,,,,,,,,
1703413661.324158,1703413661.324683,27.000000,0.000000,4291.410156,4259.487305,4299.743652,4277.820313,4272.692383,4236.538574,4268.333496,4238.205078,4252.948730,4233.974121,4542.692383,4483.333496,4390.897461,4481.025879,0.000000,3.000000,59.000000,,,,0.000000,4.000000,4.000000,4.000000,4.000000,4.000000,4.000000,4.000000,4.000000,4.000000,4.000000,4.000000,4.000000,4.000000,4.000000,100.000000,,,,,,,,,,,,,,,,,,,,,,,,,,,,
1703413661.331966,1703413661.332491,28.000000,0.000000,4283.717773,4257.692383,4338.589844,4252.820313,4253.589844,4230.256348,4297.307617,4244.487305,4233.461426,4207.820313,4534.615234,4483.077148,4390.000000,4471.922852,0.000000,3.000000,59.000000,,,,0.000000,4.000000,4.000000,4.000000,4.000000,4.000000,4.000000,4.000000,4.000000,4.000000,4.000000,4.000000,4.000000,4.000000,4.000000,100.000000,,,,,,,,,,,,,,,,,7.000000,0.000000,0.356415,0.625427,-0.257507,0.644592,0.980588,0.137712,0.085460,-19.148600,-33.432072,65.480759
1703413661.339774,1703413661.340199,29.000000,0.000000,4302.307617,4261.922852,4291.282227,4265.897461,4274.102539,4242.051270,4244.487305,4239.615234,4247.820313,4235.897461,4563.846191,4498.461426,4424.230957,4493.717773,0.000000,3.000000,59.000000,,,,0.000000,4.000000,4.000000,4.000000,4.000000,4.000000,4.000000,4.000000,4.000000,4.000000,4.000000,4.000000,4.000000,4.000000,4.000000,100.000000,,,,,,,,,,,,,,,,,,,,,,,,,,,,
1703413661.347582,1703413661.348007,30.000000,0.000000,4337.436035,4304.358887,4166.153809,4310.897461,4337.948730,4254.102539,4144.102539,4201.794922,4299.358887,4314.615234,4624.358887,4502.692383,4478.589844,4539.743652,0.000000,3.000000,59.000000,,,,0.000000,4.000000,4.000000,4.000000,4.000000,4.000000,4.000000,4.000000,4.000000,4.000000,4.000000,4.000000,4.000000,4.000000,4.000000,100.000000,,,,,,,,,,,,,,,,,,,,,,,,,,,,
1703413661.355390,1703413661.355715,31.000000,0.000000,4329.615234,4325.128418,4200.384766,4326.153809,4336.794922,4249.615234,4191.666504,4187.948730,4303.717773,4313.974121,4624.487305,4497.820313,4473.077148,4540.000000,0.000000,3.000000,59.000000,,,,0.000000,4.000000,4.000000,4.000000,4.000000,4.000000,4.000000,4.000000,4.000000,4.000000,4.000000,4.000000,4.000000,4.000000,4.000000,100.000000,,,,,,,,,,,,,,,,,,,,,,,,,,,,
1703413661.363198,1703413661.363523,32.000000,0.000000,4302.436035,4288.205078,4339.102539,4299.358887,4280.384766,4247.179688,4291.410156,4222.563965,4264.871582,4245.256348,4574.230957,4501.794922,4427.692383,4505.897461,0.000000,3.000000,59.000000,,,,0.000000,4.000000,4.000000,4.000000,4.000000,4.000000,4.000000,4.000000,4.000000,4.000000,4.000000,4.000000,4.000000,4.000000,4.000000,100.000000,,,,,,,,,,,,,,,,,8.000000,0.000000,0.356481,0.625427,-0.257568,0.644531,0.985960,0.138200,0.079600,-19.200407,-33.355530,65.516014
1703413661.371006,1703413661.371231,33.000000,0.000000,4301.666504,4261.282227,4349.230957,4272.307617,4269.102539,4246.922852,4277.051270,4248.589844,4256.922852,4234.743652,4558.846191,4509.743652,4409.615234,4500.128418,0.000000,3.000000,59.000000,,,,0.000000,4.000000,4.000000,4.000000,4.000000,4.000000,4.000000,4.000000,4.000000,4.000000,4.000000,4.000000,4.000000,4.000000,4.000000,100.000000,,,,,,,,,,,,,,,,,,,,,,,,,,,,
1703413661.378814,1703413661.379039,34.000000,0.000000,4297.307617,4268.461426,4301.538574,4263.717773,4278.717773,4238.077148,4251.538574,4247.436035,4274.871582,4261.153809,4561.282227,4504.743652,4407.948730,4497.307617,0.000000,3.000000,59.000000,,,,0.000000,4.000000,4.000000,4.000000,4.000000,4.000000,4.000000,4.000000,4.000000,4.000000,4.000000,4.000000,4.000000,4.000000,4.000000,100.000000,,,,,,,,,,,,,,,,,,,,,,,,,,,,
1703413661.386622,1703413661.386747,35.000000,0.000000,4278.077148,4262.563965,4321.282227,4261.538574,4263.717773,4234.230957,4279.871582,4247.051270,4261.410156,4243.333496,4551.666504,4488.333496,4407.179688,4473.846191,0.000000,3.000000,59.000000,,,,0.000000,4.000000,4.000000,4.000000,4.000000,4.000000,4.000000,4.000000,4.000000,4.000000,4.000000,4.000000,4.000000,4.000000,4.000000,100.000000,,,,,,,,,,,,,,,,,,,,,,,,,,,,
1703413661.394430,1703413661.394555,36.000000,0.000000,4279.102539,4250.000000,4330.384766,4263.589844,4264.487305,4243.589844,4279.743652,4253.846191,4245.384766,4216.410156,4555.256348,4482.692383,4412.051270,4474.615234,0.000000,3.000000,59.000000,,,,0.000000,4.000000,4.000000,4.000000,4.000000,4.000000,4.000000,4.000000,4.000000,4.000000,4.000000,4.000000,4.000000,4.000000,4.000000,100.000000,,,,,,,,,,,,,,,,,9.000000,0.000000,0.356484,0.625488,-0.257568,0.644470,0.973263,0.118178,0.087901,-19.147034,-33.286644,65.414413
1703413661.402238,1703413661.402263,37.000000,0.000000,4283.333496,4251.794922,4316.282227,4259.230957,4273.846191,4246.538574,4273.461426,4262.692383,4256.153809,4221.794922,4563.333496,4492.051270,4408.333496,4490.641113,0.000000,3.000000,59.000000,,,,0.000000,4.000000,4.000000,4.000000,4.000000,4.000000,4.000000,4.000000,4.000000,4.000000,4.000000,4.000000,4.000000,4.000000,4.000000,100.000000,,,,,,,,,,,,,,,,,,,,,,,,,,,,
1703413661.410046,1703413661.410071,38.000000,0.000000,4274.487305,4248.333496,4313.205078,4252.436035,4265.000000,4236.922852,4282.307617,4266.794922,4260.000000,4226.410156,4550.256348,4487.436035,4400.641113,4477.820313,0.000000,3.000000,59.000000,,,,0.000000,4.000000,4.000000,4.000000,4.000000,4.000000,4.000000,4.000000,4.000000,4.000000,4.000000,4.000000,4.000000,4.000000,4.000000,100.000000,,,,,,,,,,,,,,,,,,,,,,,,,,,,
1703413661.417854,1703413661.417779,39.000000,0.000000,4276.153809,4244.871582,4313.974121,4257.692383,4260.128418,4231.794922,4277.820313,4262.563965,4251.025879,4217.948730,4545.897461,4479.102539,4399.487305,4464.487305,0.000000,3.000000,59.000000,,,,0.000000,4.000000,4.000000,4.000000,4.000000,4.000000,4.000000,4.000000,4.000000,4.000000,4.000000,4.000000,4.000000,4.000000,4.000000,100.000000,,,,,,,,,,,,,,,,,,,,,,,,,,,,
1703413661.425662,1703413661.425587,40.000000,0.000000,4286.666504,4251.922852,4325.897461,4272.051270,4260.641113,4231.794922,4273.077148,4259.871582,4247.051270,4225.384766,4560.256348,4490.256348,4403.461426,4479.487305,0.000000,3.000000,59.000000,,,,0.000000,4.000000,4.000000,4.000000,4.000000,4.000000,4.000000,4.000000,4.000000,4.000000,4.000000,4.000000,4.000000,4.000000,4.000000,100.000000,,,,,,,,,,,,,,,,,10.000000,0.000000,0.356503,0.625427,-0.257385,0.644592,0.978635,0.127945,0.083506,-19.082329,-33.157982,65.472977
1703413661.433470,1703413661.433295,41.000000,0.000000,4289.230957,4261.282227,4325.897461,4275.512695,4262.820313,4229.743652,4272.692383,4258.205078,4249.615234,4234.358887,4561.922852,4497.436035,4409.871582,4492.436035,0.000000,3.000000,59.000000,,,,0.000000,4.000000,4.000000,4.000000,4.000000,4.000000,4.000000,4.000000,4.000000,4.000000,4.000000,4.000000,4.000000,4.000000,4.000000,100.000000,,,,,,,,,,,,,,,,,,,,,,,,,,,,
1703413661.441279,1703413661.441203,42.000000,0.000000,4287.307617,4262.307617,4322.692383,4263.846191,4266.025879,4232.307617,4276.282227,4255.512695,4252.820313,4219.871582,4564.102539,4500.769043,4411.794922,4493.205078,0.000000,3.000000,59.000000,,,,0.000000,4.000000,4.000000,4.000000,4.000000,4.000000,4.000000,4.000000,4.000000,4.000000,4.000000,4.000000,4.000000,4.000000,4.000000,100.000000,,,,,,,,,,,,,,,,,,,,,,,,,,,,
1703413661.449087,1703413661.449011,43.000000,0.000000,4292.820313,4260.256348,4327.307617,4270.128418,4268.589844,4234.102539,4277.692383,4254.358887,4262.307617,4223.974121,4580.641113,4508.077148,4417.307617,4501.922852,0.000000,3.000000,59.000000,,,,0.000000,4.000000,4.000000,4.000000,4.000000,4.000000,4.000000,4.000000,4.000000,4.000000,4.000000,4.000000,4.000000,4.000000,4.000000,100.000000,,,,,,,,,,,,,,,,,,,,,,,,,,,,
1703413661.456895,1703413661.456919,44.000000,0.000000,4296.922852,4265.641113,4329.871582,4279.487305,4272.051270,4232.436035,4275.897461,4255.897461,4265.128418,4253.333496,4579.871582,4506.410156,4431.666504,4509.871582,0.000000,3.000000,59.000000,,,,0.000000,4.000000,4.000000,4.000000,4.000000,4.000000,4.000000,4.000000,4.000000,4.000000,4.000000,4.000000,4.000000,4.000000,4.000000,100.000000,,,,,,,,,,,,,,,,,11.000000,0.000000,0.356544,0.625366,-0.257324,0.644653,0.988402,0.123062,0.086436,-19.074097,-33.042183,65.475677
1703413661.464703,1703413661.464727,45.000000,0.000000,4295.128418,4267.948730,4328.077148,4271.153809,4273.717773,4234.487305,4274.743652,4259.487305,4259.743652,4258.846191,4569.487305,4503.974121,4436.922852,4509.743652,0.000000,3.000000,59.000000,,,,0.000000,4.000000,4.000000,4.000000,4.000000,4.000000,4.000000,4.000000,4.000000,4.000000,4.000000,4.000000,4.000000,4.000000,4.000000,100.000000,,,,,,,,,,,,,,,,,,,,,,,,,,,,
1703413661.472511,1703413661.472635,46.000000,0.000000,4296.794922,4264.615234,4330.000000,4273.333496,4270.897461,4230.000000,4273.333496,4261.666504,4263.205078,4239.615234,4583.461426,4510.769043,4430.384766,4512.051270,0.000000,3.000000,59.000000,,,,0.000000,4.000000,4.000000,4.000000,4.000000,4.000000,4.000000,4.000000,4.000000,4.000000,4.000000,4.000000,4.000000,4.000000,4.000000,100.000000,,,,,,,,,,,,,,,,,,,,,,,,,,,,
1703413661.480319,1703413661.480443,47.000000,0.000000,4294.615234,4263.205078,4332.563965,4290.512695,4269.615234,4218.974121,4273.205078,4257.179688,4257.436035,4223.589844,4584.871582,4509.358887,4420.512695,4507.051270,0.000000,3.000000,59.000000,,,,0.000000,4.000000,4.000000,4.000000,4.000000,4.000000,4.000000,4.000000,4.000000,4.000000,4.000000,4.000000,4.000000,4.000000,4.000000,100.000000,,,,,,,,,,,,,,,,,,,,,,,,,,,,
1703413661.488127,1703413661.488350,48.000000,0.000000,4282.948730,4260.897461,4326.410156,4280.000000,4269.230957,4221.922852,4273.846191,4253.205078,4243.461426,4220.128418,4554.487305,4495.384766,4413.717773,4485.000000,0.000000,3.000000,59.000000,,,,0.000000,4.000000,4.000000,4.000000,4.000000,4.000000,4.000000,4.000000,4.000000,4.000000,4.000000,4.000000,4.000000,4.000000,4.000000,100.000000,,,,,,,,,,,,,,,,,12.000000,0.000000,0.356714,0.625244,-0.257385,0.644653,0.983030,0.130387,0.089366,-19.133354,-32.954632,65.461441
1703413661.495935,1703413661.496158,49.000000,0.000000,4283.205078,4247.692383,4326.922852,4261.410156,4264.871582,4232.307617,4274.358887,4261.282227,4252.179688,4228.974121,4554.487305,4496.153809,4409.487305,4474.871582,0.000000,3.000000,59.000000,,,,0.000000,4.000000,4.000000,4.000000,4.000000,4.000000,4.000000,4.000000,4.000000,4.000000,4.000000,4.000000,4.000000,4.000000,4.000000,100.000000,,,,,,,,,,,,,,,,,,,,,,,,,,,,
1703413661.503743,1703413661.504066,50.000000,0.000000,4291.794922,4239.358887,4334.743652,4268.717773,4262.948730,4234.743652,4278.589844,4274.487305,4269.358887,4236.666504,4570.769043,4503.589844,4403.333496,4480.384766,0.000000,3.000000,59.000000,,,,0.000000,4.000000,4.000000,4.000000,4.000000,4.000000,4.000000,4.000000,4.000000,4.000000,4.000000,4.000000,4.000000,4.000000,4.000000,100.000000,,,,,,,,,,,,,,,,,,,,,,,,,,,,
1703413661.511551,1703413661.511874,51.000000,0.000000,4281.922852,4248.205078,4329.487305,4270.641113,4261.025879,4228.205078,4281.922852,4280.897461,4257.820313,4228.205078,4549.615234,4495.000000,4401.025879,4474.871582,0.000000,3.000000,59.000000,,,,0.000000,4.000000,4.000000,4.000000,4.000000,4.000000,4.000000,4.000000,4.000000,4.000000,4.000000,4.000000,4.000000,4.000000,4.000000,100.000000,,,,,,,,,,,,,,,,,,,,,,,,,,,,
1703413661.519359,1703413661.519582,52.000000,0.000000,4271.282227,4251.025879,4322.563965,4262.948730,4258.974121,4219.102539,4278.846191,4277.051270,4241.410156,4211.282227,4544.743652,4488.846191,4407.436035,4470.769043,0.000000,3.000000,59.000000,,,,0.000000,4.000000,4.000000,4.000000,4.000000,4.000000,4.000000,4.000000,4.000000,4.000000,4.000000,4.000000,4.000000,4.000000,4.000000,100.000000,,,,,,,,,,,,,,,,,13.000000,0.000000,0.356865,0.625183,-0.257324,0.644653,0.992309,0.137224,0.078135,-19.053352,-33.092503,65.565300
1703413661.527167,1703413661.527390,53.000000,0.000000,4277.692383,4245.769043,4326.410156,4261.794922,4264.615234,4215.384766,4275.256348,4267.820313,4251.794922,4214.230957,4571.153809,4496.282227,4408.461426,4476.666504,0.000000,3.000000,59.000000,,,,0.000000,4.000000,4.000000,4.000000,4.000000,4.000000,4.000000,4.000000,4.000000,4.000000,4.000000,4.000000,4.000000,4.000000,4.000000,100.000000,,,,,,,,,,,,,,,,,,,,,,,,,,,,
1703413661.534975,1703413661.535098,54.000000,0.000000,4281.922852,4244.487305,4329.615234,4265.512695,4263.461426,4217.563965,4274.102539,4256.410156,4263.205078,4238.205078,4565.128418,4498.461426,4406.282227,4479.743652,0.000000,3.000000,59.000000,,,,0.000000,4.000000,4.000000,4.000000,4.000000,4.000000,4.000000,4.000000,4.000000,4.000000,4.000000,4.000000,4.000000,4.000000,4.000000,100.000000,,,,,,,,,,,,,,,,,,,,,,,,,,,,
1703413661.542783,1703413661.542906,55.000000,0.000000,4285.256348,4253.205078,4332.436035,4285.769043,4258.077148,4219.102539,4274.871582,4247.820313,4257.307617,4250.897461,4545.000000,4494.871582,4417.948730,4484.615234,0.000000,3.000000,59.000000,,,,0.000000,4.000000,4.000000,4.000000,4.000000,4.000000,4.000000,4.000000,4.000000,4.000000,4.000000,4.000000,4.000000,4.000000,4.000000,100.000000,,,,,,,,,,,,,,,,,,,,,,,,,,,,
1703413661.550591,1703413661.550614,56.000000,0.000000,4295.128418,4261.922852,4338.205078,4292.436035,4267.563965,4219.871582,4276.153809,4245.769043,4251.410156,4241.025879,4561.922852,4500.128418,4427.820313,4492.692383,0.000000,3.000000,59.000000,,,,0.000000,4.000000,4.000000,4.000000,4.000000,4.000000,4.000000,4.000000,4.000000,4.000000,4.000000,4.000000,4.000000,4.000000,4.000000,100.000000,,,,,,,,,,,,,,,,,14.000000,0.000000,0.356972,0.625122,-0.257324,0.644653,0.980100,0.125015,0.083995,-19.064684,-33.166584,65.592102
1703413661.558399,1703413661.558422,57.000000,0.000000,4296.410156,4252.179688,4339.615234,4263.205078,4274.487305,4217.179688,4270.897461,4250.000000,4248.461426,4228.717773,4582.051270,4505.641113,4415.128418,4493.846191,0.000000,3.000000,59.000000,,,,0.000000,4.000000,4.000000,4.000000,4.000000,4.000000,4.000000,4.000000,4.000000,4.000000,4.000000,4.000000,4.000000,4.000000,4.000000,100.000000,,,,,,,,,,,,,,,,,,,,,,,,,,,,
1703413661.566207,1703413661.566130,58.000000,0.000000,4292.948730,4240.384766,4337.563965,4259.615234,4263.717773,4215.000000,4266.794922,4258.205078,4246.794922,4234.230957,4569.358887,4508.461426,4406.282227,4491.666504,0.000000,3.000000,59.000000,,,,0.000000,4.000000,4.000000,4.000000,4.000000,4.000000,4.000000,4.000000,4.000000,4.000000,4.000000,4.000000,4.000000,4.000000,4.000000,100.000000,,,,,,,,,,,,,,,,,,,,,,,,,,,,
1703413661.574016,1703413661.574038,59.000000,0.000000,4292.436035,4248.589844,4335.384766,4294.615234,4259.743652,4219.871582,4272.563965,4261.282227,4253.589844,4247.820313,4558.717773,4509.230957,4418.589844,4493.461426,0.000000,3.000000,59.000000,,,,0.000000,4.000000,4.000000,4.000000,4.000000,4.000000,4.000000,4.000000,4.000000,4.000000,4.000000,4.000000,4.000000,4.000000,4.000000,100.000000,,,,,,,,,,,,,,,,,,,,,,,,,,,,
1703413661.581823,1703413661.581846,60.000000,0.000000,4284.230957,4254.358887,4331.410156,4292.820313,4266.538574,4215.256348,4272.307617,4257.051270,4255.641113,4238.589844,4567.692383,4500.769043,4424.102539,4488.846191,0.000000,3.000000,59.000000,,,,0.000000,4.000000,4.000000,4.000000,4.000000,4.000000,4.000000,4.000000,4.000000,4.000000,4.000000,4.000000,4.000000,4.000000,4.000000,100.000000,,,,,,,,,,,,,,,,,15.000000,0.000000,0.356909,0.625183,-0.257263,0.644653,0.986937,0.133317,0.084483,-19.008215,-33.216591,65.716225
1703413661.589631,1703413661.589654,61.000000,0.000000,4275.384766,4244.230957,4330.897461,4267.820313,4256.025879,4204.487305,4265.384766,4254.743652,4247.948730,4220.256348,4573.974121,4492.563965,4417.051270,4480.512695,0.000000,3.000000,59.000000,,,,0.000000,4.000000,4.000000,4.000000,4.000000,4.000000,4.000000,4.000000,4.000000,4.000000,4.000000,4.000000,4.000000,4.000000,4.000000,100.000000,,,,,,,,,,,,,,,,,,,,,,,,,,,,
1703413661.597440,1703413661.597362,62.000000,0.000000,4277.179688,4246.538574,4329.102539,4272.563965,4247.179688,4208.461426,4268.974121,4261.282227,4248.077148,4225.256348,4567.307617,4496.538574,4419.230957,4483.205078,0.000000,3.000000,59.000000,,,,0.000000,4.000000,4.000000,4.000000,4.000000,4.000000,4.000000,4.000000,4.000000,4.000000,4.000000,4.000000,4.000000,4.000000,4.000000,100.000000,,,,,,,,,,,,,,,,,,,,,,,,,,,,
1703413661.605248,1703413661.605270,63.000000,0.000000,4279.487305,4249.871582,4326.282227,4278.077148,4259.743652,4219.230957,4275.641113,4268.846191,4251.794922,4234.358887,4558.077148,4503.333496,4421.666504,4490.897461,0.000000,3.000000,59.000000,,,,0.000000,4.000000,4.000000,4.000000,4.000000,4.000000,4.000000,4.000000,4.000000,4.000000,4.000000,4.000000,4.000000,4.000000,4.000000,100.000000,,,,,,,,,,,,,,,,,,,,,,,,,,,,
1703413661.613056,1703413661.613078,64.000000,0.000000,4276.538574,4236.282227,4330.256348,4270.897461,4262.307617,4215.256348,4274.615234,4267.948730,4248.717773,4229.230957,4553.461426,4498.717773,4415.000000,4489.102539,3588.000000,3.000000,59.000000,,,,0.000000,4.000000,4.000000,4.000000,4.000000,4.000000,4.000000,4.000000,4.000000,4.000000,4.000000,4.000000,4.000000,4.000000,4.000000,100.000000,,,,,,,,,,,,,,,,,16.000000,0.000000,0.357019,0.625183,-0.257263,0.644592,0.987425,0.127945,0.085948,-19.090727,-33.178268,65.777939
1703413661.620864,1703413661.620986,65.000000,0.000000,4280.128418,4229.871582,4336.282227,4274.615234,4251.538574,4206.153809,4272.563965,4264.230957,4247.051270,4233.205078,4558.974121,4499.358887,4410.897461,4487.051270,5455.000000,3.000000,59.000000,,,,0.000000,4.000000,4.000000,4.000000,4.000000,4.000000,4.000000,4.000000,4.000000,4.000000,4.000000,4.000000,4.000000,4.000000,4.000000,100.000000,,,,,,,,,,,,,,,,,,,,,,,,,,,,
1703413661.628672,1703413661.628794,66.000000,0.000000,4287.692383,4238.846191,4337.307617,4284.358887,4253.333496,4209.358887,4273.589844,4264.615234,4246.538574,4240.641113,4574.871582,4508.205078,4418.205078,4496.666504,5115.000000,3.000000,59.000000,,,,0.000000,4.000000,4.000000,4.000000,4.000000,4.000000,4.000000,4.000000,4.000000,4.000000,4.000000,4.000000,4.000000,4.000000,4.000000,100.000000,,,,,,,,,,,,,,,,,,,,,,,,,,,,
1703413661.636480,1703413661.636702,67.000000,0.000000,4282.820313,4249.230957,4334.615234,4282.692383,4263.461426,4212.179688,4272.948730,4268.717773,4247.051270,4236.410156,4577.051270,4508.461426,4428.589844,4498.077148,5305.000000,3.000000,59.000000,,,,0.000000,4.000000,4.000000,4.000000,4.000000,4.000000,4.000000,4.000000,4.000000,4.000000,4.000000,4.000000,4.000000,4.000000,4.000000,100.000000,,,,,,,,,,,,,,,,,,,,,,,,,,,,
1703413661.644288,1703413661.644510,68.000000,0.000000,4275.897461,4247.436035,4336.794922,4272.563965,4259.743652,4207.307617,4270.897461,4272.179688,4255.897461,4236.153809,4569.102539,4506.538574,4430.256348,4491.025879,5150.000000,3.000000,59.000000,,,,0.000000,4.000000,4.000000,4.000000,4.000000,4.000000,4.000000,4.000000,4.000000,4.000000,4.000000,4.000000,4.000000,4.000000,4.000000,100.000000,,,,,,,,,,,,,,,,,17.000000,0.000000,0.356896,0.625366,-0.257141,0.644531,0.970333,0.110853,0.088878,-19.181654,-33.160439,65.783478
1703413661.652096,1703413661.652418,69.000000,0.000000,4286.153809,4243.974121,4339.743652,4279.230957,4260.000000,4209.615234,4270.769043,4268.717773,4257.948730,4240.256348,4572.948730,4508.589844,4429.230957,4497.563965,4485.000000,3.000000,59.000000,,,,0.000000,4.000000,4.000000,4.000000,4.000000,4.000000,4.000000,4.000000,4.000000,4.000000,4.000000,4.000000,4.000000,4.000000,4.000000,100.000000,,,,,,,,,,,,,,,,,,,,,,,,,,,,
1703413661.659904,1703413661.660226,70.000000,0.000000,4293.846191,4254.487305,4340.000000,4299.358887,4270.000000,4214.230957,4272.179688,4256.922852,4248.333496,4240.256348,4573.974121,4507.948730,4428.077148,4505.897461,2742.000000,3.000000,59.000000,,,,0.000000,4.000000,4.000000,4.000000,4.000000,4.000000,4.000000,4.000000,4.000000,4.000000,4.000000,4.000000,4.000000,4.000000,4.000000,100.000000,1.000000,41.666668,4.000000,4.000000,1.000000,3.000000,3.000000,4.000000,1.000000,4.000000,4.000000,4.000000,4.000000,4.000000,4.000000,4.000000,,,,,,,,,,,,
1703413661.667712,1703413661.668134,71.000000,0.000000,4285.000000,4253.717773,4341.666504,4297.051270,4266.025879,4204.743652,4268.461426,4247.820313,4244.871582,4235.256348,4556.538574,4502.307617,4418.974121,4498.205078,4729.000000,3.000000,59.000000,,,,0.000000,4.000000,4.000000,4.000000,4.000000,4.000000,4.000000,4.000000,4.000000,4.000000,4.000000,4.000000,4.000000,4.000000,4.000000,100.000000,,,,,,,,,,,,,,,,,,,,,,,,,,,,
1703413661.675520,1703413661.675942,72.000000,0.000000,4277.436035,4236.922852,4337.948730,4277.179688,4260.769043,4195.769043,4263.589844,4244.487305,4248.077148,4226.153809,4552.179688,4493.461426,4415.000000,4489.487305,4350.000000,3.000000,59.000000,,,,0.000000,4.000000,4.000000,4.000000,4.000000,4.000000,4.000000,4.000000,4.000000,4.000000,4.000000,4.000000,4.000000,4.000000,4.000000,100.000000,,,,,,,,,,,,,,,,,18.000000,0.000000,0.356877,0.625427,-0.257019,0.644531,0.984007,0.119155,0.084483,-19.246822,-33.127728,65.838463
1703413661.683328,1703413661.683849,73.000000,0.000000,4278.974121,4241.922852,4330.000000,4282.179688,4266.282227,4199.743652,4263.974121,4248.333496,4248.717773,4224.871582,4565.128418,4490.641113,4420.512695,4493.077148,5332.000000,3.000000,59.000000,,,,0.000000,4.000000,4.000000,4.000000,4.000000,4.000000,4.000000,4.000000,4.000000,4.000000,4.000000,4.000000,4.000000,4.000000,4.000000,100.000000,,,,,,,,,,,,,,,,,,,,,,,,,,,,
1703413661.691136,1703413661.691657,74.000000,0.000000,4280.128418,4251.538574,4328.589844,4298.077148,4258.333496,4201.922852,4266.666504,4259.230957,4251.025879,4228.589844,4558.205078,4491.794922,4412.179688,4490.897461,5868.000000,3.000000,59.000000,,,,0.000000,4.000000,4.000000,4.000000,4.000000,4.000000,4.000000,4.000000,4.000000,4.000000,4.000000,4.000000,4.000000,4.000000,4.000000,100.000000,,,,,,,,,,,,,,,,,,,,,,,,,,,,
1703413661.698944,1703413661.699365,75.000000,0.000000,4273.589844,4237.179688,4329.358887,4290.384766,4244.230957,4200.641113,4268.205078,4266.025879,4249.487305,4223.589844,4546.410156,4489.230957,4394.487305,4480.000000,6070.000000,3.000000,59.000000,,,,0.000000,4.000000,4.000000,4.000000,4.000000,4.000000,4.000000,4.000000,4.000000,4.000000,4.000000,4.000000,4.000000,4.000000,4.000000,100.000000,,,,,,,,,,,,,,,,,,,,,,,,,,,,
1703413661.706752,1703413661.707173,76.000000,0.000000,4265.512695,4232.051270,4323.461426,4277.436035,4258.846191,4201.794922,4269.230957,4270.641113,4245.769043,4222.307617,4557.051270,4486.922852,4394.102539,4476.410156,6564.000000,3.000000,59.000000,,,,0.000000,4.000000,4.000000,4.000000,4.000000,4.000000,4.000000,4.000000,4.000000,4.000000,4.000000,4.000000,4.000000,4.000000,4.000000,100.000000,,,,,,,,,,,,,,,,,19.000000,0.000000,0.357110,0.625244,-0.257141,0.644531,0.978147,0.117690,0.083018,-19.372139,-33.198288,65.837952
1703413661.714560,1703413661.714881,77.000000,0.000000,4260.384766,4241.666504,4323.333496,4275.897461,4268.333496,4201.922852,4269.230957,4279.358887,4247.436035,4227.051270,4556.410156,4492.563965,4399.487305,4477.692383,6496.000000,3.000000,59.000000,,,,0.000000,4.000000,4.000000,4.000000,4.000000,4.000000,4.000000,4.000000,4.000000,4.000000,4.000000,4.000000,4.000000,4.000000,4.000000,100.000000,,,,,,,,,,,,,,,,,,,,,,,,,,,,
1703413661.722368,1703413661.722689,78.000000,0.000000,4263.077148,4232.307617,4331.538574,4279.358887,4249.871582,4197.692383,4268.974121,4273.846191,4240.384766,4221.153809,4537.307617,4491.666504,4391.153809,4472.820313,5868.000000,3.000000,59.000000,,,,0.000000,4.000000,4.000000,4.000000,4.000000,4.000000,4.000000,4.000000,4.000000,4.000000,4.000000,4.000000,4.000000,4.000000,4.000000,100.000000,,,,,,,,,,,,,,,,,,,,,,,,,,,,
1703413661.730176,1703413661.730398,79.000000,0.000000,4273.461426,4227.307617,4337.179688,4278.077148,4252.051270,4197.948730,4267.179688,4255.512695,4230.384766,4220.897461,4546.153809,4487.563965,4403.974121,4473.974121,6070.000000,3.000000,59.000000,,,,0.000000,4.000000,4.000000,4.000000,4.000000,4.000000,4.000000,4.000000,4.000000,4.000000,4.000000,4.000000,4.000000,4.000000,4.000000,100.000000,,,,,,,,,,,,,,,,,,,,,,,,,,,,
1703413661.737985,1703413661.738305,80.000000,0.000000,4280.641113,4241.794922,4342.179688,4277.820313,4268.717773,4204.230957,4266.666504,4252.692383,4234.871582,4230.128418,4577.948730,4497.179688,4422.948730,4488.846191,6564.000000,3.000000,59.000000,,,,0.000000,4.000000,4.000000,4.000000,4.000000,4.000000,4.000000,4.000000,4.000000,4.000000,4.000000,4.000000,4.000000,4.000000,4.000000,100.000000,,,,,,,,,,,,,,,,,20.000000,0.000000,0.357139,0.625366,-0.257263,0.644348,0.980100,0.129899,0.068368,-19.468260,-33.161793,65.604156
1703413661.745793,1703413661.746113,81.000000,0.000000,4287.948730,4252.436035,4348.077148,4294.358887,4263.205078,4205.641113,4269.743652,4256.410156,4239.615234,4227.179688,4576.153809,4507.563965,4402.051270,4498.461426,6496.000000,3.000000,59.000000,,,,0.000000,4.000000,4.000000,4.000000,4.000000,4.000000,4.000000,4.000000,4.000000,4.000000,4.000000,4.000000,4.000000,4.000000,4.000000,100.000000,,,,,,,,,,,,,,,,,,,,,,,,,,,,
1703413661.753601,1703413661.753921,82.000000,0.000000,4297.436035,4256.922852,4351.922852,4312.563965,4254.743652,4199.102539,4268.589844,4247.179688,4232.820313,4225.641113,4541.794922,4504.230957,4388.846191,4496.922852,5868.000000,3.000000,59.000000,,,,0.000000,4.000000,4.000000,4.000000,4.000000,4.000000,4.000000,4.000000,4.000000,4.000000,4.000000,4.000000,4.000000,4.000000,4.000000,100.000000,,,,,,,,,,,,,,,,,,,,,,,,,,,,
1703413661.761409,1703413661.761629,83.000000,0.000000,4291.794922,4252.948730,4348.974121,4303.717773,4260.000000,4194.871582,4264.487305,4241.410156,4228.205078,4232.948730,4528.717773,4490.512695,4413.205078,4488.974121,6070.000000,3.000000,59.000000,,,,0.000000,4.000000,4.000000,4.000000,4.000000,4.000000,4.000000,4.000000,4.000000,4.000000,4.000000,4.000000,4.000000,4.000000,4.000000,100.000000,,,,,,,,,,,,,,,,,,,,,,,,,,,,
1703413661.769217,1703413661.769437,84.000000,0.000000,4278.846191,4245.769043,4343.717773,4290.128418,4263.974121,4199.743652,4262.820313,4249.615234,4230.512695,4235.384766,4544.487305,4488.461426,4419.615234,4487.692383,6564.000000,3.000000,59.000000,,,,0.000000,4.000000,4.000000,4.000000,4.000000,4.000000,4.000000,4.000000,4.000000,4.000000,4.000000,4.000000,4.000000,4.000000,4.000000,100.000000,,,,,,,,,,,,,,,,,21.000000,0.000000,0.356932,0.625610,-0.257263,0.644226,0.975217,0.126480,0.090343,-19.488100,-33.228947,65.543739
1703413661.777025,1703413661.777145,85.000000,0.000000,4284.871582,4246.025879,4345.384766,4295.128418,4263.461426,4204.230957,4262.179688,4259.871582,4235.384766,4233.077148,4557.692383,4504.102539,4402.051270,4500.769043,6496.000000,3.000000,59.000000,,,,0.000000,4.000000,4.000000,4.000000,4.000000,4.000000,4.000000,4.000000,4.000000,4.000000,4.000000,4.000000,4.000000,4.000000,4.000000,100.000000,,,,,,,,,,,,,,,,,,,,,,,,,,,,
1703413661.784833,1703413661.784953,86.000000,0.000000,4284.358887,4243.333496,4340.769043,4290.897461,4264.230957,4202.692383,4263.461426,4257.820313,4241.282227,4223.461426,4555.512695,4503.205078,4403.589844,4499.743652,5868.000000,3.000000,59.000000,,,,0.000000,4.000000,4.000000,4.000000,4.000000,4.000000,4.000000,4.000000,4.000000,4.000000,4.000000,4.000000,4.000000,4.000000,4.000000,100.000000,,,,,,,,,,,,,,,,,,,,,,,,,,,,
1703413661.792641,1703413661.792661,87.000000,0.000000,4263.589844,4233.205078,4329.743652,4274.102539,4258.846191,4202.692383,4263.461426,4247.051270,4237.820313,4210.641113,4545.384766,4482.179688,4405.512695,4477.179688,6070.000000,3.000000,59.000000,,,,0.000000,4.000000,4.000000,4.000000,4.000000,4.000000,4.000000,4.000000,4.000000,4.000000,4.000000,4.000000,4.000000,4.000000,4.000000,100.000000,,,,,,,,,,,,,,,,,,,,,,,,,,,,
1703413661.800449,1703413661.800569,88.000000,0.000000,4264.230957,4227.051270,4330.128418,4273.717773,4251.538574,4204.230957,4262.820313,4245.897461,4230.897461,4215.128418,4541.410156,4475.256348,4389.871582,4471.025879,6564.000000,3.000000,59.000000,,,,0.000000,4.000000,4.000000,4.000000,4.000000,4.000000,4.000000,4.000000,4.000000,4.000000,4.000000,4.000000,4.000000,4.000000,4.000000,100.000000,,,,,,,,,,,,,,,,,22.000000,0.000000,0.356689,0.625610,-0.257141,0.644409,0.993774,0.124039,0.083506,-19.505957,-33.256054,65.522697
1703413661.808257,1703413661.808377,89.000000,0.000000,4275.128418,4233.205078,4332.436035,4286.922852,4255.512695,4204.230957,4263.589844,4249.230957,4236.794922,4225.897461,4537.692383,4480.641113,4390.641113,4478.333496,6496.000000,3.000000,59.000000,,,,0.000000,4.000000,4.000000,4.000000,4.000000,4.000000,4.000000,4.000000,4.000000,4.000000,4.000000,4.000000,4.000000,4.000000,4.000000,100.000000,,,,,,,,,,,,,,,,,,,,,,,,,,,,
1703413661.816065,1703413661.816285,90.000000,0.000000,4267.436035,4232.820313,4328.589844,4276.153809,4261.153809,4207.436035,4263.717773,4248.974121,4242.051270,4233.205078,4541.153809,4477.948730,4413.589844,4473.461426,5868.000000,3.000000,59.000000,,,,0.000000,4.000000,4.000000,4.000000,4.000000,4.000000,4.000000,4.000000,4.000000,4.000000,4.000000,4.000000,4.000000,4.000000,4.000000,100.000000,,,,,,,,,,,,,,,,,,,,,,,,,,,,
1703413661.823873,1703413661.824093,91.000000,0.000000,4264.358887,4224.102539,4332.051270,4261.153809,4254.230957,4201.153809,4260.512695,4253.205078,4240.769043,4233.077148,4561.922852,4482.307617,4434.102539,4480.000000,6070.000000,3.000000,59.000000,,,,0.000000,4.000000,4.000000,4.000000,4.000000,4.000000,4.000000,4.000000,4.000000,4.000000,4.000000,4.000000,4.000000,4.000000,4.000000,100.000000,,,,,,,,,,,,,,,,,,,,,,,,,,,,
1703413661.831681,1703413661.832001,92.000000,0.000000,4275.769043,4233.846191,4337.948730,4282.948730,4246.410156,4175.897461,4256.025879,4250.128418,4227.436035,4214.230957,4571.410156,4494.871582,4423.974121,4496.282227,6564.000000,3.000000,59.000000,,,,0.000000,4.000000,4.000000,4.000000,4.000000,4.000000,4.000000,4.000000,4.000000,4.000000,4.000000,4.000000,4.000000,4.000000,4.000000,100.000000,,,,,,,,,,,,,,,,,23.000000,0.000000,0.356673,0.625732,-0.257019,0.644348,0.982053,0.132829,0.091320,-19.455360,-33.380447,65.603760
1703413661.839489,1703413661.839809,93.000000,0.000000,4279.743652,4248.717773,4337.948730,4304.487305,4247.179688,4174.358887,4259.230957,4248.077148,4204.615234,4212.436035,4554.230957,4497.563965,4408.333496,4492.307617,6496.000000,3.000000,59.000000,,,,0.000000,4.000000,4.000000,4.000000,4.000000,4.000000,4.000000,4.000000,4.000000,4.000000,4.000000,4.000000,4.000000,4.000000,4.000000,100.000000,,,,,,,,,,,,,,,,,,,,,,,,,,,,
1703413661.847297,1703413661.847717,94.000000,0.000000,4281.282227,4246.025879,4343.077148,4298.717773,4259.102539,4197.692383,4265.256348,4259.358887,4213.461426,4245.384766,4557.948730,4501.282227,4421.794922,4493.205078,5868.000000,3.000000,59.000000,,,,0.000000,4.000000,4.000000,4.000000,4.000000,4.000000,4.000000,4.000000,4.000000,4.000000,4.000000,4.000000,4.000000,4.000000,4.000000,100.000000,,,,,,,,,,,,,,,,,,,,,,,,,,,,
1703413661.855105,1703413661.855525,95.000000,0.000000,4296.666504,4248.589844,4352.179688,4305.384766,4275.128418,4195.256348,4263.333496,4259.230957,4236.794922,4258.589844,4582.563965,4507.820313,4439.358887,4513.974121,6070.000000,3.000000,59.000000,,,,0.000000,4.000000,4.000000,4.000000,4.000000,4.000000,4.000000,4.000000,4.000000,4.000000,4.000000,4.000000,4.000000,4.000000,4.000000,100.000000,,,,,,,,,,,,,,,,,,,,,,,,,,,,
1703413661.862913,1703413661.863433,96.000000,0.000000,4308.205078,4270.769043,4351.794922,4330.384766,4274.358887,4197.179688,4260.512695,4245.897461,4235.512695,4252.307617,4578.974121,4508.717773,4445.769043,4521.025879,6564.000000,3.000000,59.000000,,,,0.000000,4.000000,4.000000,4.000000,4.000000,4.000000,4.000000,4.000000,4.000000,4.000000,4.000000,4.000000,4.000000,4.000000,4.000000,100.000000,,,,,,,,,,,,,,,,,24.000000,0.000000,0.356830,0.625793,-0.256958,0.644226,0.974728,0.136735,0.088878,-19.443157,-33.275738,65.643387
1703413661.870721,1703413661.871241,97.000000,0.000000,4294.743652,4270.512695,4344.230957,4320.512695,4264.230957,4224.615234,4265.256348,4245.769043,4239.358887,4260.897461,4564.743652,4506.794922,4439.871582,4509.615234,6496.000000,3.000000,59.000000,,,,0.000000,4.000000,4.000000,4.000000,4.000000,4.000000,4.000000,4.000000,4.000000,4.000000,4.000000,4.000000,4.000000,4.000000,4.000000,100.000000,,,,,,,,,,,,,,,,,,,,,,,,,,,,
1703413661.878529,1703413661.879149,98.000000,0.000000,4280.000000,4243.333496,4339.487305,4283.077148,4267.051270,4228.461426,4264.871582,4257.051270,4258.333496,4259.487305,4569.487305,4503.974121,4429.102539,4502.307617,5868.000000,3.000000,59.000000,,,,0.000000,4.000000,4.000000,4.000000,4.000000,4.000000,4.000000,4.000000,4.000000,4.000000,4.000000,4.000000,4.000000,4.000000,4.000000,100.000000,,,,,,,,,,,,,,,,,,,,,,,,,,,,
1703413661.886337,1703413661.886957,99.000000,0.000000,4277.307617,4236.538574,4334.871582,4277.820313,4266.922852,4211.666504,4253.717773,4261.666504,4250.128418,4241.410156,4573.205078,4495.897461,4425.000000,4497.692383,6070.000000,3.000000,59.000000,,,,0.000000,4.000000,4.000000,4.000000,4.000000,4.000000,4.000000,4.000000,4.000000,4.000000,4.000000,4.000000,4.000000,4.000000,4.000000,100.000000,,,,,,,,,,,,,,,,,,,,,,,,,,,,
1703413661.894146,1703413661.894665,100.000000,0.000000,4267.563965,4244.871582,4330.512695,4293.589844,4259.871582,4215.512695,4253.077148,4260.641113,4239.615234,4232.820313,4559.102539,4487.436035,4421.538574,4490.512695,6564.000000,3.000000,59.000000,,,,0.000000,4.000000,4.000000,4.000000,4.000000,4.000000,4.000000,4.000000,4.000000,4.000000,4.000000,4.000000,4.000000,4.000000,4.000000,100.000000,,,,,,,,,,,,,,,,,25.000000,0.000000,0.356944,0.625854,-0.256958,0.644104,0.969357,0.119644,0.087413,-19.498842,-33.131496,65.695717
1703413661.901954,1703413661.902473,101.000000,0.000000,4259.871582,4237.820313,4332.692383,4292.051270,4265.256348,4222.179688,4261.153809,4261.153809,4258.846191,4235.512695,4551.282227,4493.333496,4413.333496,4488.589844,6496.000000,3.000000,59.000000,,,,0.000000,4.000000,4.000000,4.000000,4.000000,4.000000,4.000000,4.000000,4.000000,4.000000,4.000000,4.000000,4.000000,4.000000,4.000000,100.000000,,,,,,,,,,,,,,,,,,,,,,,,,,,,
1703413661.909762,1703413661.910181,102.000000,0.000000,4272.692383,4227.563965,4337.820313,4282.948730,4262.692383,4213.461426,4260.641113,4272.307617,4266.538574,4241.794922,4561.538574,4505.897461,4413.461426,4493.846191,5868.000000,3.000000,59.000000,,,,0.000000,4.000000,4.000000,4.000000,4.000000,4.000000,4.000000,4.000000,4.000000,4.000000,4.000000,4.000000,4.000000,4.000000,4.000000,100.000000,,,,,,,,,,,,,,,,,,,,,,,,,,,,
1703413661.917570,1703413661.917989,103.000000,0.000000,4280.128418,4234.615234,4340.256348,4293.461426,4247.051270,4211.538574,4258.077148,4280.769043,4261.025879,4238.846191,4568.077148,4507.436035,4428.974121,4499.871582,6070.000000,3.000000,59.000000,,,,0.000000,4.000000,4.000000,4.000000,4.000000,4.000000,4.000000,4.000000,4.000000,4.000000,4.000000,4.000000,4.000000,4.000000,4.000000,100.000000,,,,,,,,,,,,,,,,,,,,,,,,,,,,
1703413661.925378,1703413661.925697,104.000000,0.000000,4273.205078,4247.948730,4344.615234,4304.871582,4253.461426,4216.282227,4260.000000,4275.897461,4267.820313,4235.384766,4578.333496,4506.410156,4437.948730,4506.922852,6564.000000,3.000000,59.000000,,,,0.000000,4.000000,4.000000,4.000000,4.000000,4.000000,4.000000,4.000000,4.000000,4.000000,4.000000,4.000000,4.000000,4.000000,4.000000,100.000000,,,,,,,,,,,,,,,,,26.000000,0.000000,0.357012,0.625916,-0.256714,0.644104,0.977658,0.129410,0.092296,-19.448957,-33.101681,65.759476
1703413661.933186,1703413661.933505,105.000000,0.000000,4282.820313,4258.077148,4351.282227,4310.256348,4277.307617,4220.384766,4262.563965,4275.641113,4277.179688,4265.256348,4602.692383,4517.692383,4444.743652,4518.333496,6496.000000,3.000000,59.000000,,,,0.000000,4.000000,4.000000,4.000000,4.000000,4.000000,4.000000,4.000000,4.000000,4.000000,4.000000,4.000000,4.000000,4.000000,4.000000,100.000000,,,,,,,,,,,,,,,,,,,,,,,,,,,,
1703413661.940994,1703413661.941213,106.000000,0.000000,4303.077148,4260.769043,4358.717773,4310.512695,4282.179688,4214.230957,4258.461426,4278.846191,4279.230957,4295.000000,4598.077148,4524.487305,4450.512695,4522.948730,5868.000000,3.000000,59.000000,,,,0.000000,4.000000,4.000000,4.000000,4.000000,4.000000,4.000000,4.000000,4.000000,4.000000,4.000000,4.000000,4.000000,4.000000,4.000000,100.000000,,,,,,,,,,,,,,,,,,,,,,,,,,,,
1703413661.948802,1703413661.949021,107.000000,0.000000,4300.512695,4245.897461,4360.384766,4301.666504,4267.948730,4205.256348,4252.051270,4268.333496,4272.948730,4270.641113,4563.461426,4514.615234,4442.948730,4514.615234,6070.000000,3.000000,59.000000,,,,0.000000,4.000000,4.000000,4.000000,4.000000,4.000000,4.000000,4.000000,4.000000,4.000000,4.000000,4.000000,4.000000,4.000000,4.000000,100.000000,,,,,,,,,,,,,,,,,,,,,,,,,,,,
1703413661.956610,1703413661.956729,108.000000,0.000000,4275.641113,4243.333496,4346.282227,4303.205078,4263.333496,4206.666504,4250.000000,4251.666504,4267.436035,4239.487305,4573.333496,4503.461426,4428.846191,4502.948730,6564.000000,3.000000,59.000000,,,,0.000000,4.000000,4.000000,4.000000,4.000000,4.000000,4.000000,4.000000,4.000000,4.000000,4.000000,4.000000,4.000000,4.000000,4.000000,100.000000,,,,,,,,,,,,,,,,,27.000000,0.000000,0.356899,0.625854,-0.256714,0.644226,0.986937,0.119644,0.076181,-19.370729,-33.141510,65.833527
1703413661.964418,1703413661.964537,109.000000,0.000000,4259.743652,4252.563965,4332.179688,4305.256348,4270.384766,4204.615234,4249.871582,4244.871582,4266.282227,4249.487305,4590.641113,4495.128418,4412.563965,4495.000000,6496.000000,3.000000,59.000000,,,,0.000000,4.000000,4.000000,4.000000,4.000000,4.000000,4.000000,4.000000,4.000000,4.000000,4.000000,4.000000,4.000000,4.000000,4.000000,100.000000,,,,,,,,,,,,,,,,,,,,,,,,,,,,
1703413661.972226,1703413661.972245,110.000000,0.000000,4267.820313,4247.948730,4338.333496,4295.256348,4273.589844,4203.333496,4251.410156,4251.282227,4269.487305,4266.282227,4560.384766,4494.615234,4413.974121,4490.641113,5868.000000,3.000000,59.000000,,,,0.000000,4.000000,4.000000,4.000000,4.000000,4.000000,4.000000,4.000000,4.000000,4.000000,4.000000,4.000000,4.000000,4.000000,4.000000,100.000000,,,,,,,,,,,,,,,,,,,,,,,,,,,,
1703413661.980034,1703413661.980153,111.000000,0.000000,4272.948730,4242.820313,4342.051270,4292.051270,4268.717773,4208.846191,4253.717773,4259.871582,4266.282227,4253.077148,4549.743652,4497.820313,4429.743652,4493.205078,6070.000000,3.000000,59.000000,,,,0.000000,4.000000,4.000000,4.000000,4.000000,4.000000,4.000000,4.000000,4.000000,4.000000,4.000000,4.000000,4.000000,4.000000,4.000000,100.000000,,,,,,,,,,,,,,,,,,,,,,,,,,,,
1703413661.987842,1703413661.987961,112.000000,0.000000,4263.205078,4246.538574,4332.563965,4295.256348,4261.922852,4205.897461,4255.000000,4265.128418,4258.077148,4228.077148,4575.769043,4494.871582,4426.153809,4494.871582,6564.000000,3.000000,59.000000,,,,0.000000,4.000000,4.000000,4.000000,4.000000,4.000000,4.000000,4.000000,4.000000,4.000000,4.000000,4.000000,4.000000,4.000000,4.000000,100.000000,,,,,,,,,,,,,,,,,28.000000,0.000000,0.356984,0.625793,-0.256897,0.644165,0.993774,0.125992,0.085948,-19.333656,-33.144028,65.883507
1703413661.995650,1703413661.995868,113.000000,0.000000,4260.256348,4239.743652,4333.077148,4297.820313,4261.666504,4200.769043,4255.128418,4275.000000,4262.307617,4220.897461,4570.641113,4496.282227,4406.794922,4490.769043,6496.000000,3.000000,59.000000,,,,0.000000,4.000000,4.000000,4.000000,4.000000,4.000000,4.000000,4.000000,4.000000,4.000000,4.000000,4.000000,4.000000,4.000000,4.000000,100.000000,,,,,,,,,,,,,,,,,,,,,,,,,,,,
1703413662.003458,1703413662.003676,114.000000,0.000000,4267.563965,4229.743652,4344.487305,4293.717773,4269.230957,4208.077148,4253.205078,4282.051270,4268.333496,4235.128418,4550.000000,4503.974121,4410.641113,4491.410156,5868.000000,3.000000,59.000000,,,,0.000000,4.000000,4.000000,4.000000,4.000000,4.000000,4.000000,4.000000,4.000000,4.000000,4.000000,4.000000,4.000000,4.000000,4.000000,100.000000,,,,,,,,,,,,,,,,,,,,,,,,,,,,
1703413662.011266,1703413662.011584,115.000000,0.000000,4269.358887,4236.153809,4342.820313,4282.307617,4270.641113,4214.102539,4252.563965,4277.436035,4264.230957,4254.743652,4556.282227,4503.077148,4425.512695,4493.717773,6070.000000,3.000000,59.000000,,,,0.000000,4.000000,4.000000,4.000000,4.000000,4.000000,4.000000,4.000000,4.000000,4.000000,4.000000,4.000000,4.000000,4.000000,4.000000,100.000000,,,,,,,,,,,,,,,,,,,,,,,,,,,,
1703413662.019074,1703413662.019392,116.000000,0.000000,4267.820313,4253.461426,4332.948730,4291.282227,4266.922852,4214.743652,4255.641113,4277.436035,4268.333496,4258.974121,4567.692383,4498.846191,4427.051270,4495.769043,6564.000000,3.000000,59.000000,,,,0.000000,4.000000,4.000000,4.000000,4.000000,4.000000,4.000000,4.000000,4.000000,4.000000,4.000000,4.000000,4.000000,4.000000,4.000000,100.000000,,,,,,,,,,,,,,,,,29.000000,0.000000,0.356893,0.625732,-0.257019,0.644226,0.978147,0.121109,0.087901,-19.266956,-33.179626,65.911827
1703413662.026883,1703413662.027300,117.000000,0.000000,4263.461426,4267.563965,4336.282227,4317.948730,4273.846191,4219.358887,4257.307617,4281.794922,4278.974121,4253.333496,4576.922852,4509.487305,4431.794922,4508.717773,6496.000000,3.000000,59.000000,,,,0.000000,4.000000,4.000000,4.000000,4.000000,4.000000,4.000000,4.000000,4.000000,4.000000,4.000000,4.000000,4.000000,4.000000,4.000000,100.000000,,,,,,,,,,,,,,,,,,,,,,,,,,,,
1703413662.034691,1703413662.035108,118.000000,0.000000,4252.436035,4265.641113,4347.820313,4318.717773,4279.743652,4214.230957,4253.846191,4272.051270,4265.641113,4256.153809,4588.205078,4519.615234,4435.256348,4520.897461,5868.000000,3.000000,59.000000,,,,0.000000,4.000000,4.000000,4.000000,4.000000,4.000000,4.000000,4.000000,4.000000,4.000000,4.000000,4.000000,4.000000,4.000000,4.000000,100.000000,,,,,,,,,,,,,,,,,,,,,,,,,,,,
1703413662.042498,1703413662.043016,119.000000,0.000000,4245.128418,4254.743652,4347.436035,4308.333496,4278.974121,4204.487305,4252.179688,4259.230957,4244.102539,4260.769043,4579.230957,4509.102539,4431.666504,4517.307617,6070.000000,3.000000,59.000000,,,,0.000000,4.000000,4.000000,4.000000,4.000000,4.000000,4.000000,4.000000,4.000000,4.000000,4.000000,4.000000,4.000000,4.000000,4.000000,100.000000,,,,,,,,,,,,,,,,,,,,,,,,,,,,
1703413662.050307,1703413662.050824,120.000000,0.000000,4238.077148,4251.410156,4337.051270,4306.922852,4270.128418,4197.563965,4250.512695,4258.333496,4245.128418,4244.230957,4555.641113,4495.641113,4425.897461,4505.256348,6564.000000,3.000000,59.000000,,,,0.000000,4.000000,4.000000,4.000000,4.000000,4.000000,4.000000,4.000000,4.000000,4.000000,4.000000,4.000000,4.000000,4.000000,4.000000,100.000000,,,,,,,,,,,,,,,,,30.000000,0.000000,0.357060,0.625549,-0.257080,0.644287,0.987425,0.129410,0.082530,-19.306929,-33.244995,65.970642
1703413662.058115,1703413662.058732,121.000000,0.000000,4230.897461,4246.538574,4338.205078,4302.436035,4255.384766,4187.436035,4245.128418,4261.282227,4247.307617,4230.641113,4556.410156,4501.666504,4426.922852,4502.179688,6496.000000,3.000000,59.000000,,,,0.000000,4.000000,4.000000,4.000000,4.000000,4.000000,4.000000,4.000000,4.000000,4.000000,4.000000,4.000000,4.000000,4.000000,4.000000,100.000000,,,,,,,,,,,,,,,,,,,,,,,,,,,,
1703413662.065923,1703413662.066540,122.000000,0.000000,4238.846191,4243.589844,4348.333496,4305.512695,4252.051270,4186.922852,4248.589844,4266.282227,4250.769043,4252.820313,4583.205078,4516.922852,4441.922852,4515.256348,5868.000000,3.000000,59.000000,,,,0.000000,4.000000,4.000000,4.000000,4.000000,4.000000,4.000000,4.000000,4.000000,4.000000,4.000000,4.000000,4.000000,4.000000,4.000000,100.000000,,,,,,,,,,,,,,,,,,,,,,,,,,,,
1703413662.073731,1703413662.074248,123.000000,0.000000,4250.769043,4259.743652,4347.307617,4313.333496,4264.230957,4205.000000,4254.615234,4276.538574,4267.692383,4268.974121,4590.384766,4519.487305,4447.307617,4527.820313,6070.000000,3.000000,59.000000,,,,0.000000,4.000000,4.000000,4.000000,4.000000,4.000000,4.000000,4.000000,4.000000,4.000000,4.000000,4.000000,4.000000,4.000000,4.000000,100.000000,,,,,,,,,,,,,,,,,,,,,,,,,,,,
1703413662.081539,1703413662.082056,124.000000,0.000000,4239.871582,4257.051270,4336.538574,4300.769043,4266.025879,4214.230957,4252.051270,4277.179688,4272.436035,4247.179688,4574.871582,4508.461426,4426.538574,4513.589844,6564.000000,3.000000,59.000000,,,,0.000000,4.000000,4.000000,4.000000,4.000000,4.000000,4.000000,4.000000,4.000000,4.000000,4.000000,4.000000,4.000000,4.000000,4.000000,100.000000,,,,,,,,,,,,,,,,,31.000000,0.000000,0.356994,0.625549,-0.257019,0.644348,0.981565,0.123062,0.081065,-19.226234,-33.237164,65.756912
1703413662.089347,1703413662.089764,125.000000,0.000000,4220.256348,4226.922852,4328.205078,4285.897461,4254.615234,4208.077148,4252.051270,4265.512695,4259.358887,4230.512695,4565.256348,4493.461426,4404.615234,4487.307617,6496.000000,3.000000,59.000000,,,,0.000000,4.000000,4.000000,4.000000,4.000000,4.000000,4.000000,4.000000,4.000000,4.000000,4.000000,4.000000,4.000000,4.000000,4.000000,100.000000,,,,,,,,,,,,,,,,,,,,,,,,,,,,
1703413662.097155,1703413662.097572,126.000000,0.000000,4226.025879,4230.384766,4328.846191,4288.205078,4257.563965,4203.205078,4249.230957,4264.743652,4259.743652,4242.436035,4568.205078,4490.000000,4415.512695,4489.871582,5868.000000,3.000000,59.000000,,,,0.000000,4.000000,4.000000,4.000000,4.000000,4.000000,4.000000,4.000000,4.000000,4.000000,4.000000,4.000000,4.000000,4.000000,4.000000,100.000000,,,,,,,,,,,,,,,,,,,,,,,,,,,,
1703413662.104963,1703413662.105280,127.000000,0.000000,4244.743652,4253.205078,4341.282227,4304.487305,4274.358887,4199.358887,4237.436035,4281.666504,4279.102539,4252.820313,4581.666504,4511.922852,4437.563965,4513.974121,59.000000,3.000000,59.000000,,,,0.000000,4.000000,4.000000,4.000000,4.000000,4.000000,4.000000,4.000000,4.000000,4.000000,4.000000,4.000000,4.000000,4.000000,4.000000,100.000000,,,,,,,,,,,,,,,,,,,,,,,,,,,,
1703413662.112771,1703413662.113088,0.000000,0.000000,4250.769043,4249.102539,4351.538574,4321.922852,4292.307617,4197.948730,4236.922852,4296.282227,4288.974121,4262.179688,4588.846191,4534.230957,4439.487305,4524.743652,3603.000000,3.000000,59.000000,,,,0.000000,4.000000,4.000000,4.000000,4.000000,4.000000,4.000000,4.000000,4.000000,4.000000,4.000000,4.000000,4.000000,4.000000,4.000000,100.000000,,,,,,,,,,,,,,,,,0.000000,0.000000,0.357211,0.625488,-0.257019,0.644287,0.980588,0.131852,0.083506,-19.286945,-33.063446,65.781219
1703413662.120579,1703413662.120796,1.000000,0.000000,4253.974121,4247.307617,4350.641113,4328.333496,4300.000000,4201.666504,4251.282227,4298.205078,4289.487305,4277.051270,4584.487305,4536.922852,4444.358887,4529.743652,5435.000000,3.000000,59.000000,,,,0.000000,4.000000,4.000000,4.000000,4.000000,4.000000,4.000000,4.000000,4.000000,4.000000,4.000000,4.000000,4.000000,4.000000,4.000000,100.000000,,,,,,,,,,,,,,,,,,,,,,,,,,,,
1703413662.128387,1703413662.128604,2.000000,0.000000,4265.641113,4267.307617,4353.717773,4331.282227,4296.666504,4202.051270,4253.077148,4292.436035,4284.871582,4279.871582,4595.512695,4538.846191,4466.410156,4540.897461,5096.000000,3.000000,59.000000,,,,0.000000,4.000000,4.000000,4.000000,4.000000,4.000000,4.000000,4.000000,4.000000,4.000000,4.000000,4.000000,4.000000,4.000000,4.000000,100.000000,,,,,,,,,,,,,,,,,,,,,,,,,,,,
1703413662.136195,1703413662.136312,3.000000,0.000000,4267.436035,4268.589844,4356.538574,4330.897461,4297.948730,4200.384766,4245.641113,4283.589844,4278.846191,4280.769043,4612.179688,4542.692383,4468.846191,4545.512695,5288.000000,3.000000,59.000000,,,,0.000000,4.000000,4.000000,4.000000,4.000000,4.000000,4.000000,4.000000,4.000000,4.000000,4.000000,4.000000,4.000000,4.000000,4.000000,100.000000,,,,,,,,,,,,,,,,,,,,,,,,,,,,
1703413662.144003,1703413662.144220,4.000000,0.000000,4260.256348,4252.436035,4350.769043,4322.563965,4297.820313,4201.282227,4248.461426,4281.538574,4281.410156,4278.461426,4606.666504,4536.794922,4443.077148,4540.897461,5138.000000,3.000000,59.000000,,,,0.000000,4.000000,4.000000,4.000000,4.000000,4.000000,4.000000,4.000000,4.000000,4.000000,4.000000,4.000000,4.000000,4.000000,4.000000,100.000000,,,,,,,,,,,,,,,,,1.000000,0.000000,0.357271,0.625366,-0.257080,0.644348,0.979123,0.129410,0.084483,-19.258251,-33.073769,65.753098
1703413662.151811,1703413662.152028,5.000000,0.000000,4264.743652,4253.333496,4350.000000,4322.436035,4288.974121,4203.461426,4252.436035,4282.179688,4285.641113,4266.025879,4594.743652,4530.384766,4438.461426,4537.307617,4448.000000,3.000000,59.000000,,,,0.000000,4.000000,4.000000,4.000000,4.000000,4.000000,4.000000,4.000000,4.000000,4.000000,4.000000,4.000000,4.000000,4.000000,4.000000,100.000000,,,,,,,,,,,,,,,,,,,,,,,,,,,,
1703413662.159619,1703413662.159836,6.000000,0.000000,4264.615234,4260.384766,4353.846191,4332.692383,4279.615234,4203.974121,4251.282227,4277.436035,4281.538574,4267.051270,4592.563965,4530.000000,4452.179688,4531.538574,2738.000000,3.000000,59.000000,,,,0.000000,4.000000,4.000000,4.000000,4.000000,4.000000,4.000000,4.000000,4.000000,4.000000,4.000000,4.000000,4.000000,4.000000,4.000000,100.000000,1.000000,41.666668,4.000000,4.000000,1.000000,3.000000,4.000000,4.000000,1.000000,4.000000,4.000000,4.000000,4.000000,4.000000,4.000000,4.000000,,,,,,,,,,,,
1703413662.167427,1703413662.167544,7.000000,0.000000,4250.384766,4246.538574,4347.179688,4324.487305,4276.410156,4204.102539,4252.563965,4282.563965,4277.436035,4269.871582,4590.384766,4523.846191,4446.153809,4522.436035,4717.000000,3.000000,59.000000,,,,0.000000,4.000000,4.000000,4.000000,4.000000,4.000000,4.000000,4.000000,4.000000,4.000000,4.000000,4.000000,4.000000,4.000000,4.000000,100.000000,,,,,,,,,,,,,,,,,,,,,,,,,,,,
1703413662.175235,1703413662.175452,8.000000,0.000000,4243.846191,4230.256348,4341.922852,4309.230957,4278.717773,4201.025879,4255.000000,4294.230957,4278.589844,4254.358887,4587.179688,4516.666504,4436.410156,4518.077148,4336.000000,3.000000,59.000000,,,,0.000000,4.000000,4.000000,4.000000,4.000000,4.000000,4.000000,4.000000,4.000000,4.000000,4.000000,4.000000,4.000000,4.000000,4.000000,100.000000,,,,,,,,,,,,,,,,,2.000000,0.000000,0.357220,0.625244,-0.257141,0.644470,0.977170,0.132829,0.083995,-19.232426,-33.083057,65.777786
1703413662.183043,1703413662.183260,9.000000,0.000000,4247.820313,4236.666504,4348.589844,4310.256348,4282.307617,4201.410156,4253.717773,4296.153809,4276.922852,4250.897461,4583.846191,4521.282227,4434.230957,4516.922852,5350.000000,3.000000,59.000000,,,,0.000000,4.000000,4.000000,4.000000,4.000000,4.000000,4.000000,4.000000,4.000000,4.000000,4.000000,4.000000,4.000000,4.000000,4.000000,100.000000,,,,,,,,,,,,,,,,,,,,,,,,,,,,
1703413662.190852,1703413662.191168,10.000000,0.000000,4248.333496,4236.666504,4352.820313,4308.589844,4280.256348,4204.487305,4251.410156,4293.333496,4274.871582,4261.666504,4587.436035,4525.128418,4429.102539,4520.128418,5819.000000,3.000000,59.000000,,,,0.000000,4.000000,4.000000,4.000000,4.000000,4.000000,4.000000,4.000000,4.000000,4.000000,4.000000,4.000000,4.000000,4.000000,4.000000,100.000000,,,,,,,,,,,,,,,,,,,,,,,,,,,,
1703413662.198660,1703413662.198976,11.000000,0.000000,4245.384766,4227.563965,4347.436035,4306.282227,4274.487305,4200.897461,4253.589844,4290.256348,4271.922852,4257.051270,4584.871582,4517.436035,4421.794922,4517.307617,6068.000000,3.000000,59.000000,,,,0.000000,4.000000,4.000000,4.000000,4.000000,4.000000,4.000000,4.000000,4.000000,4.000000,4.000000,4.000000,4.000000,4.000000,4.000000,100.000000,,,,,,,,,,,,,,,,,,,,,,,,,,,,
1703413662.206468,1703413662.206883,12.000000,0.000000,4247.051270,4238.974121,4341.794922,4314.230957,4274.230957,4196.153809,4255.512695,4282.051270,4262.563965,4248.333496,4568.846191,4511.410156,4423.077148,4508.077148,6549.000000,3.000000,59.000000,,,,0.000000,4.000000,4.000000,4.000000,4.000000,4.000000,4.000000,4.000000,4.000000,4.000000,4.000000,4.000000,4.000000,4.000000,4.000000,100.000000,,,,,,,,,,,,,,,,,3.000000,0.000000,0.357264,0.625244,-0.257080,0.644470,0.969845,0.125992,0.079600,-19.275850,-33.124752,65.650009
1703413662.214276,1703413662.214691,13.000000,0.000000,4247.563965,4244.102539,4343.974121,4315.897461,4276.282227,4198.333496,4251.025879,4275.000000,4263.333496,4263.846191,4571.153809,4516.538574,4429.487305,4512.307617,6502.000000,3.000000,59.000000,,,,0.000000,4.000000,4.000000,4.000000,4.000000,4.000000,4.000000,4.000000,4.000000,4.000000,4.000000,4.000000,4.000000,4.000000,4.000000,100.000000,,,,,,,,,,,,,,,,,,,,,,,,,,,,
1703413662.222084,1703413662.222599,14.000000,0.000000,4249.743652,4235.641113,4347.563965,4309.102539,4276.282227,4198.717773,4248.846191,4275.384766,4269.487305,4274.871582,4588.205078,4523.589844,4423.974121,4524.871582,5819.000000,3.000000,59.000000,,,,0.000000,4.000000,4.000000,4.000000,4.000000,4.000000,4.000000,4.000000,4.000000,4.000000,4.000000,4.000000,4.000000,4.000000,4.000000,100.000000,,,,,,,,,,,,,,,,,,,,,,,,,,,,
1703413662.229892,1703413662.230407,15.000000,0.000000,4258.461426,4239.230957,4345.000000,4313.717773,4272.179688,4190.512695,4251.410156,4281.025879,4266.153809,4265.000000,4586.025879,4523.205078,4430.641113,4524.487305,6068.000000,3.000000,59.000000,,,,0.000000,4.000000,4.000000,4.000000,4.000000,4.000000,4.000000,4.000000,4.000000,4.000000,4.000000,4.000000,4.000000,4.000000,4.000000,100.000000,,,,,,,,,,,,,,,,,,,,,,,,,,,,
1703413662.237700,1703413662.238315,16.000000,0.000000,4265.897461,4242.179688,4343.077148,4319.487305,4263.974121,4186.282227,4248.333496,4279.487305,4258.461426,4258.205078,4577.563965,4517.307617,4445.128418,4517.563965,0.000000,3.000000,59.000000,,,,0.000000,4.000000,4.000000,4.000000,4.000000,4.000000,4.000000,4.000000,4.000000,4.000000,4.000000,4.000000,4.000000,4.000000,4.000000,100.000000,,,,,,,,,,,,,,,,,4.000000,0.000000,0.357264,0.625244,-0.257080,0.644470,0.983030,0.136247,0.092296,-19.264931,-33.162277,65.585007
1703413662.245508,1703413662.246123,17.000000,0.000000,4264.871582,4232.948730,4346.666504,4309.871582,4264.743652,4193.205078,4245.512695,4267.179688,4259.871582,4255.384766,4586.282227,4514.487305,4430.256348,4521.282227,0.000000,3.000000,59.000000,,,,0.000000,4.000000,4.000000,4.000000,4.000000,4.000000,4.000000,4.000000,4.000000,4.000000,4.000000,4.000000,4.000000,4.000000,4.000000,100.000000,,,,,,,,,,,,,,,,,,,,,,,,,,,,
1703413662.253316,1703413662.253931,18.000000,0.000000,4256.538574,4233.077148,4344.358887,4308.333496,4270.512695,4200.384766,4249.358887,4261.282227,4262.051270,4246.410156,4576.153809,4513.461426,4409.102539,4520.000000,0.000000,3.000000,59.000000,,,,0.000000,4.000000,4.000000,4.000000,4.000000,4.000000,4.000000,4.000000,4.000000,4.000000,4.000000,4.000000,4.000000,4.000000,4.000000,100.000000,,,,,,,,,,,,,,,,,,,,,,,,,,,,
1703413662.261124,1703413662.261739,19.000000,0.000000,4246.025879,4237.051270,4332.563965,4309.487305,4266.153809,4202.820313,4251.922852,4262.179688,4253.846191,4236.410156,4554.230957,4502.820313,4414.358887,4504.743652,0.000000,3.000000,59.000000,,,,0.000000,4.000000,4.000000,4.000000,4.000000,4.000000,4.000000,4.000000,4.000000,4.000000,4.000000,4.000000,4.000000,4.000000,4.000000,100.000000,,,,,,,,,,,,,,,,,,,,,,,,,,,,
1703413662.268932,1703413662.269447,20.000000,0.000000,4235.384766,4229.358887,4329.743652,4298.461426,4255.769043,4203.461426,4251.025879,4259.230957,4245.384766,4231.538574,4558.077148,4491.538574,4412.307617,4492.436035,0.000000,3.000000,59.000000,,,,0.000000,4.000000,4.000000,4.000000,4.000000,4.000000,4.000000,4.000000,4.000000,4.000000,4.000000,4.000000,4.000000,4.000000,4.000000,100.000000,,,,,,,,,,,,,,,,,5.000000,0.000000,0.357201,0.625305,-0.257019,0.644470,0.984007,0.139665,0.072763,-19.255104,-33.279385,65.676506
1703413662.276740,1703413662.277255,21.000000,0.000000,4231.410156,4215.641113,4336.282227,4292.051270,4249.487305,4201.666504,4253.333496,4260.256348,4246.538574,4227.692383,4562.051270,4493.333496,4398.333496,4488.717773,0.000000,3.000000,59.000000,,,,0.000000,4.000000,4.000000,4.000000,4.000000,4.000000,4.000000,4.000000,4.000000,4.000000,4.000000,4.000000,4.000000,4.000000,4.000000,100.000000,,,,,,,,,,,,,,,,,,,,,,,,,,,,
1703413662.284548,1703413662.284963,22.000000,0.000000,4240.000000,4201.153809,4334.871582,4289.871582,4249.358887,4200.769043,4251.666504,4265.128418,4247.563965,4221.922852,4553.461426,4497.692383,4395.256348,4490.512695,0.000000,3.000000,59.000000,,,,0.000000,4.000000,4.000000,4.000000,4.000000,4.000000,4.000000,4.000000,4.000000,4.000000,4.000000,4.000000,4.000000,4.000000,4.000000,100.000000,,,,,,,,,,,,,,,,,,,,,,,,,,,,
1703413662.292356,1703413662.292871,23.000000,0.000000,4241.922852,4197.948730,4327.820313,4279.743652,4251.794922,4199.743652,4248.717773,4266.410156,4242.692383,4215.128418,4548.205078,4493.846191,4388.077148,4489.230957,0.000000,3.000000,59.000000,,,,0.000000,4.000000,4.000000,4.000000,4.000000,4.000000,4.000000,4.000000,4.000000,4.000000,4.000000,4.000000,4.000000,4.000000,4.000000,100.000000,,,,,,,,,,,,,,,,,,,,,,,,,,,,
1703413662.300164,1703413662.300679,24.000000,0.000000,4232.307617,4215.384766,4325.256348,4291.666504,4254.487305,4201.794922,4253.205078,4261.922852,4246.538574,4224.230957,4555.769043,4489.615234,4391.410156,4485.641113,0.000000,3.000000,59.000000,,,,0.000000,4.000000,4.000000,4.000000,4.000000,4.000000,4.000000,4.000000,4.000000,4.000000,4.000000,4.000000,4.000000,4.000000,4.000000,100.000000,,,,,,,,,,,,,,,,,6.000000,0.000000,0.357292,0.625366,-0.256897,0.644409,0.983030,0.123550,0.094250,-19.312927,-33.234779,65.708855
1703413662.307972,1703413662.308587,25.000000,0.000000,4242.307617,4232.307617,4330.000000,4316.922852,4256.666504,4207.179688,4256.025879,4253.717773,4253.589844,4256.922852,4565.256348,4495.128418,4419.102539,4491.922852,0.000000,3.000000,59.000000,,,,0.000000,4.000000,4.000000,4.000000,4.000000,4.000000,4.000000,4.000000,4.000000,4.000000,4.000000,4.000000,4.000000,4.000000,4.000000,100.000000,,,,,,,,,,,,,,,,,,,,,,,,,,,,
1703413662.315780,1703413662.316395,26.000000,0.000000,4262.436035,4233.589844,4338.717773,4307.948730,4262.179688,4206.538574,4255.128418,4250.256348,4250.256348,4271.282227,4564.102539,4507.692383,4430.000000,4508.077148,0.000000,3.000000,59.000000,,,,0.000000,4.000000,4.000000,4.000000,4.000000,4.000000,4.000000,4.000000,4.000000,4.000000,4.000000,4.000000,4.000000,4.000000,4.000000,100.000000,,,,,,,,,,,,,,,,,,,,,,,,,,,,
1703413662.323588,1703413662.324203,27.000000,0.000000,4252.948730,4231.666504,4339.871582,4294.230957,4271.282227,4201.410156,4253.717773,4250.641113,4249.102539,4253.077148,4564.102539,4504.743652,4418.974121,4508.461426,0.000000,3.000000,59.000000,,,,0.000000,4.000000,4.000000,4.000000,4.000000,4.000000,4.000000,4.000000,4.000000,4.000000,4.000000,4.000000,4.000000,4.000000,4.000000,100.000000,,,,,,,,,,,,,,,,,,,,,,,,,,,,
1703413662.331396,1703413662.331911,28.000000,0.000000,4239.230957,4235.000000,4330.128418,4308.974121,4274.615234,4197.820313,4251.666504,4244.615234,4253.461426,4242.307617,4561.153809,4489.358887,4413.205078,4496.666504,0.000000,3.000000,59.000000,,,,0.000000,4.000000,4.000000,4.000000,4.000000,4.000000,4.000000,4.000000,4.000000,4.000000,4.000000,4.000000,4.000000,4.000000,4.000000,100.000000,,,,,,,,,,,,,,,,,7.000000,0.000000,0.357263,0.625244,-0.256775,0.644592,0.986449,0.124527,0.080088,-19.348301,-33.294632,65.721306
1703413662.339204,1703413662.339719,29.000000,0.000000,4256.410156,4237.179688,4330.897461,4314.615234,4266.666504,4198.333496,4252.563965,4244.743652,4252.948730,4252.179688,4557.563965,4497.948730,4418.333496,4505.897461,0.000000,3.000000,59.000000,,,,0.000000,4.000000,4.000000,4.000000,4.000000,4.000000,4.000000,4.000000,4.000000,4.000000,4.000000,4.000000,4.000000,4.000000,4.000000,100.000000,,,,,,,,,,,,,,,,,,,,,,,,,,,,
1703413662.347013,1703413662.347427,30.000000,0.000000,4269.487305,4230.256348,4342.436035,4290.512695,4254.230957,4201.666504,4255.128418,4256.025879,4246.282227,4255.128418,4563.333496,4510.769043,4429.487305,4514.615234,0.000000,3.000000,59.000000,,,,0.000000,4.000000,4.000000,4.000000,4.000000,4.000000,4.000000,4.000000,4.000000,4.000000,4.000000,4.000000,4.000000,4.000000,4.000000,100.000000,,,,,,,,,,,,,,,,,,,,,,,,,,,,
1703413662.354821,1703413662.355235,31.000000,0.000000,4259.230957,4219.230957,4338.461426,4278.974121,4246.153809,4194.871582,4248.717773,4253.974121,4243.589844,4234.102539,4568.461426,4497.948730,4417.436035,4500.256348,0.000000,3.000000,59.000000,,,,0.000000,4.000000,4.000000,4.000000,4.000000,4.000000,4.000000,4.000000,4.000000,4.000000,4.000000,4.000000,4.000000,4.000000,4.000000,100.000000,,,,,,,,,,,,,,,,,,,,,,,,,,,,
1703413662.362629,1703413662.362943,32.000000,0.000000,4260.256348,4218.717773,4320.256348,4297.948730,4250.512695,4188.461426,4243.077148,4245.256348,4245.256348,4214.743652,4561.153809,4482.948730,4380.512695,4486.025879,0.000000,3.000000,59.000000,,,,0.000000,4.000000,4.000000,4.000000,4.000000,4.000000,4.000000,4.000000,4.000000,4.000000,4.000000,4.000000,4.000000,4.000000,4.000000,100.000000,,,,,,,,,,,,,,,,,8.000000,0.000000,0.357412,0.625122,-0.257019,0.644531,0.983030,0.134294,0.073251,-19.263472,-33.381836,65.532509
1703413662.370437,1703413662.370851,33.000000,0.000000,4275.384766,4217.948730,4312.692383,4304.230957,4258.589844,4203.205078,4254.487305,4256.666504,4249.615234,4226.794922,4541.794922,4479.871582,4377.563965,4482.179688,0.000000,3.000000,59.000000,,,,0.000000,4.000000,4.000000,4.000000,4.000000,4.000000,4.000000,4.000000,4.000000,4.000000,4.000000,4.000000,4.000000,4.000000,4.000000,100.000000,,,,,,,,,,,,,,,,,,,,,,,,,,,,
1703413662.378245,1703413662.378659,34.000000,0.000000,4285.769043,4212.563965,4322.692383,4276.922852,4254.871582,4216.666504,4260.641113,4270.384766,4253.333496,4240.384766,4526.025879,4481.282227,4401.794922,4481.538574,0.000000,3.000000,59.000000,,,,0.000000,4.000000,4.000000,4.000000,4.000000,4.000000,4.000000,4.000000,4.000000,4.000000,4.000000,4.000000,4.000000,4.000000,4.000000,100.000000,,,,,,,,,,,,,,,,,,,,,,,,,,,,
1703413662.386053,1703413662.386567,35.000000,0.000000,4292.563965,4218.974121,4331.666504,4251.282227,4246.794922,4208.846191,4253.077148,4262.436035,4247.307617,4227.948730,4550.384766,4489.871582,4415.512695,4489.743652,0.000000,3.000000,59.000000,,,,0.000000,4.000000,4.000000,4.000000,4.000000,4.000000,4.000000,4.000000,4.000000,4.000000,4.000000,4.000000,4.000000,4.000000,4.000000,100.000000,,,,,,,,,,,,,,,,,,,,,,,,,,,,
1703413662.393861,1703413662.394375,36.000000,0.000000,4298.461426,4222.051270,4331.538574,4271.025879,4248.589844,4205.128418,4252.051270,4255.897461,4246.666504,4219.358887,4589.102539,4501.794922,4415.128418,4500.641113,0.000000,3.000000,59.000000,,,,0.000000,4.000000,4.000000,4.000000,4.000000,4.000000,4.000000,4.000000,4.000000,4.000000,4.000000,4.000000,4.000000,4.000000,4.000000,100.000000,,,,,,,,,,,,,,,,,9.000000,0.000000,0.357327,0.625183,-0.257141,0.644470,0.991332,0.131852,0.080088,-19.303791,-33.260319,65.679260
1703413662.401669,1703413662.402283,37.000000,0.000000,4296.666504,4214.358887,4328.974121,4316.538574,4253.846191,4207.307617,4255.256348,4258.717773,4252.179688,4234.871582,4568.974121,4496.922852,4402.179688,4495.000000,0.000000,3.000000,59.000000,,,,0.000000,4.000000,4.000000,4.000000,4.000000,4.000000,4.000000,4.000000,4.000000,4.000000,4.000000,4.000000,4.000000,4.000000,4.000000,100.000000,,,,,,,,,,,,,,,,,,,,,,,,,,,,
1703413662.409477,1703413662.410090,38.000000,0.000000,4290.512695,4229.743652,4324.230957,4324.615234,4255.769043,4206.666504,4251.025879,4250.384766,4242.436035,4250.897461,4533.461426,4483.846191,4398.205078,4486.025879,0.000000,3.000000,59.000000,,,,0.000000,4.000000,4.000000,4.000000,4.000000,4.000000,4.000000,4.000000,4.000000,4.000000,4.000000,4.000000,4.000000,4.000000,4.000000,100.000000,,,,,,,,,,,,,,,,,,,,,,,,,,,,
1703413662.417285,1703413662.417998,39.000000,0.000000,4295.128418,4247.563965,4327.820313,4274.743652,4260.512695,4214.102539,4252.436035,4245.256348,4240.128418,4247.436035,4548.846191,4488.333496,4414.358887,4492.820313,0.000000,3.000000,59.000000,,,,0.000000,4.000000,4.000000,4.000000,4.000000,4.000000,4.000000,4.000000,4.000000,4.000000,4.000000,4.000000,4.000000,4.000000,4.000000,100.000000,,,,,,,,,,,,,,,,,,,,,,,,,,,,
1703413662.425093,1703413662.425806,40.000000,0.000000,4298.846191,4227.436035,4331.025879,4250.000000,4258.205078,4207.307617,4255.512695,4248.077148,4246.282227,4229.102539,4551.153809,4490.128418,4415.384766,4492.179688,0.000000,3.000000,59.000000,,,,0.000000,4.000000,4.000000,4.000000,4.000000,4.000000,4.000000,4.000000,4.000000,4.000000,4.000000,4.000000,4.000000,4.000000,4.000000,100.000000,,,,,,,,,,,,,,,,,10.000000,0.000000,0.357258,0.625122,-0.257080,0.644592,0.985960,0.123062,0.087413,-19.340078,-33.484287,65.644661
1703413662.432901,1703413662.433714,41.000000,0.000000,4293.717773,4211.025879,4325.000000,4283.205078,4245.000000,4186.794922,4247.948730,4242.948730,4229.871582,4215.512695,4547.948730,4486.410156,4404.102539,4489.615234,0.000000,3.000000,59.000000,,,,0.000000,4.000000,4.000000,4.000000,4.000000,4.000000,4.000000,4.000000,4.000000,4.000000,4.000000,4.000000,4.000000,4.000000,4.000000,100.000000,,,,,,,,,,,,,,,,,,,,,,,,,,,,
1703413662.440709,1703413662.441522,42.000000,0.000000,4302.051270,4225.769043,4332.179688,4291.410156,4243.974121,4196.922852,4245.128418,4249.230957,4230.000000,4225.641113,4592.948730,4508.589844,4414.230957,4509.487305,0.000000,3.000000,59.000000,,,,0.000000,4.000000,4.000000,4.000000,4.000000,4.000000,4.000000,4.000000,4.000000,4.000000,4.000000,4.000000,4.000000,4.000000,4.000000,100.000000,,,,,,,,,,,,,,,,,,,,,,,,,,,,
1703413662.448517,1703413662.449230,43.000000,0.000000,4314.358887,4245.641113,4343.974121,4281.410156,4259.358887,4224.230957,4257.563965,4263.589844,4264.871582,4251.025879,4595.897461,4528.589844,4434.358887,4523.333496,0.000000,3.000000,59.000000,,,,0.000000,4.000000,4.000000,4.000000,4.000000,4.000000,4.000000,4.000000,4.000000,4.000000,4.000000,4.000000,4.000000,4.000000,4.000000,100.000000,,,,,,,,,,,,,,,,,,,,,,,,,,,,
1703413662.456325,1703413662.457038,44.000000,0.000000,4306.922852,4245.641113,4330.769043,4279.487305,4261.282227,4223.077148,4262.820313,4256.666504,4267.307617,4258.077148,4530.256348,4497.307617,4443.461426,4501.282227,0.000000,3.000000,59.000000,,,,0.000000,4.000000,4.000000,4.000000,4.000000,4.000000,4.000000,4.000000,4.000000,4.000000,4.000000,4.000000,4.000000,4.000000,4.000000,100.000000,,,,,,,,,,,,,,,,,11.000000,0.000000,0.357041,0.625183,-0.257080,0.644653,0.975705,0.125992,0.084971,-19.339403,-33.419193,65.630196
1703413662.464133,1703413662.464746,45.000000,0.000000,4288.461426,4228.717773,4314.615234,4256.666504,4245.256348,4212.436035,4254.871582,4245.128418,4241.794922,4236.153809,4521.282227,4465.512695,4432.051270,4476.410156,0.000000,3.000000,59.000000,,,,0.000000,4.000000,4.000000,4.000000,4.000000,4.000000,4.000000,4.000000,4.000000,4.000000,4.000000,4.000000,4.000000,4.000000,4.000000,100.000000,,,,,,,,,,,,,,,,,,,,,,,,,,,,
1703413662.471941,1703413662.472554,46.000000,0.000000,4281.282227,4230.897461,4317.051270,4250.897461,4242.307617,4224.487305,4256.538574,4251.922852,4246.538574,4219.871582,4566.666504,4482.820313,4407.948730,4482.179688,0.000000,3.000000,59.000000,,,,0.000000,4.000000,4.000000,4.000000,4.000000,4.000000,4.000000,4.000000,4.000000,4.000000,4.000000,4.000000,4.000000,4.000000,4.000000,100.000000,,,,,,,,,,,,,,,,,,,,,,,,,,,,
1703413662.479749,1703413662.480262,47.000000,0.000000,4284.102539,4250.000000,4317.307617,4279.871582,4254.102539,4238.717773,4263.846191,4257.436035,4258.589844,4232.051270,4555.769043,4493.974121,4413.717773,4491.538574,0.000000,3.000000,59.000000,,,,0.000000,4.000000,4.000000,4.000000,4.000000,4.000000,4.000000,4.000000,4.000000,4.000000,4.000000,4.000000,4.000000,4.000000,4.000000,100.000000,,,,,,,,,,,,,,,,,,,,,,,,,,,,
1703413662.487558,1703413662.488070,48.000000,0.000000,4283.077148,4245.000000,4310.384766,4285.769043,4256.794922,4230.384766,4260.897461,4252.563965,4251.794922,4243.589844,4526.794922,4476.282227,4442.051270,4484.743652,0.000000,3.000000,59.000000,,,,0.000000,4.000000,4.000000,4.000000,4.000000,4.000000,4.000000,4.000000,4.000000,4.000000,4.000000,4.000000,4.000000,4.000000,4.000000,100.000000,,,,,,,,,,,,,,,,,12.000000,0.000000,0.357088,0.625244,-0.257019,0.644592,0.982053,0.134782,0.075204,-19.305464,-33.493938,65.617180
1703413662.495366,1703413662.495778,49.000000,0.000000,4276.794922,4216.922852,4312.307617,4260.641113,4248.846191,4215.512695,4255.641113,4245.641113,4246.282227,4240.641113,4545.897461,4473.717773,4438.717773,4480.000000,0.000000,3.000000,59.000000,,,,0.000000,4.000000,4.000000,4.000000,4.000000,4.000000,4.000000,4.000000,4.000000,4.000000,4.000000,4.000000,4.000000,4.000000,4.000000,100.000000,,,,,,,,,,,,,,,,,,,,,,,,,,,,
1703413662.503173,1703413662.503586,50.000000,0.000000,4282.436035,4210.897461,4318.846191,4256.538574,4249.358887,4213.846191,4257.179688,4245.256348,4245.000000,4243.846191,4559.743652,4487.820313,4437.948730,4488.717773,0.000000,3.000000,59.000000,,,,0.000000,4.000000,4.000000,4.000000,4.000000,4.000000,4.000000,4.000000,4.000000,4.000000,4.000000,4.000000,4.000000,4.000000,4.000000,100.000000,,,,,,,,,,,,,,,,,,,,,,,,,,,,
1703413662.510982,1703413662.511294,51.000000,0.000000,4304.743652,4228.205078,4325.897461,4279.358887,4260.641113,4220.384766,4261.410156,4250.512695,4248.333496,4249.615234,4569.487305,4495.897461,4470.769043,4506.666504,0.000000,3.000000,59.000000,,,,0.000000,4.000000,4.000000,4.000000,4.000000,4.000000,4.000000,4.000000,4.000000,4.000000,4.000000,4.000000,4.000000,4.000000,4.000000,100.000000,,,,,,,,,,,,,,,,,,,,,,,,,,,,
1703413662.518790,1703413662.519102,52.000000,0.000000,4305.512695,4238.589844,4325.256348,4283.461426,4258.717773,4220.512695,4259.358887,4248.974121,4249.230957,4245.000000,4579.487305,4491.666504,4478.333496,4509.615234,0.000000,3.000000,59.000000,,,,0.000000,4.000000,4.000000,4.000000,4.000000,4.000000,4.000000,4.000000,4.000000,4.000000,4.000000,4.000000,4.000000,4.000000,4.000000,100.000000,,,,,,,,,,,,,,,,,13.000000,0.000000,0.357305,0.625183,-0.257019,0.644531,0.986449,0.127457,0.090831,-19.141584,-33.427879,65.655457
1703413662.526598,1703413662.526810,53.000000,0.000000,4286.153809,4235.512695,4316.794922,4251.025879,4243.717773,4211.153809,4253.717773,4245.128418,4246.794922,4241.538574,4557.692383,4487.692383,4447.948730,4501.153809,0.000000,3.000000,59.000000,,,,0.000000,4.000000,4.000000,4.000000,4.000000,4.000000,4.000000,4.000000,4.000000,4.000000,4.000000,4.000000,4.000000,4.000000,4.000000,100.000000,,,,,,,,,,,,,,,,,,,,,,,,,,,,
1703413662.534406,1703413662.534618,54.000000,0.000000,4288.077148,4226.794922,4319.743652,4237.820313,4240.384766,4204.871582,4252.307617,4247.051270,4251.794922,4252.179688,4552.436035,4489.615234,4449.871582,4502.692383,0.000000,3.000000,59.000000,,,,0.000000,4.000000,4.000000,4.000000,4.000000,4.000000,4.000000,4.000000,4.000000,4.000000,4.000000,4.000000,4.000000,4.000000,4.000000,100.000000,,,,,,,,,,,,,,,,,,,,,,,,,,,,
1703413662.542214,1703413662.542326,55.000000,0.000000,4297.948730,4232.436035,4324.743652,4278.974121,4251.153809,4218.077148,4257.051270,4249.487305,4263.846191,4269.615234,4581.666504,4488.974121,4477.820313,4509.487305,0.000000,3.000000,59.000000,,,,0.000000,4.000000,4.000000,4.000000,4.000000,4.000000,4.000000,4.000000,4.000000,4.000000,4.000000,4.000000,4.000000,4.000000,4.000000,100.000000,,,,,,,,,,,,,,,,,,,,,,,,,,,,
1703413662.550022,1703413662.550234,56.000000,0.000000,4294.358887,4234.743652,4321.538574,4291.153809,4252.436035,4229.358887,4261.153809,4251.538574,4264.615234,4266.794922,4579.615234,4488.461426,4455.641113,4504.358887,0.000000,3.000000,59.000000,,,,0.000000,4.000000,4.000000,4.000000,4.000000,4.000000,4.000000,4.000000,4.000000,4.000000,4.000000,4.000000,4.000000,4.000000,4.000000,100.000000,,,,,,,,,,,,,,,,,14.000000,0.000000,0.357462,0.625244,-0.256958,0.644409,0.980588,0.127945,0.082041,-19.077425,-33.535091,65.639915
1703413662.557830,1703413662.558042,57.000000,0.000000,4288.205078,4219.358887,4321.666504,4244.230957,4240.769043,4220.384766,4259.743652,4253.846191,4253.589844,4244.230957,4560.128418,4488.717773,4433.974121,4494.102539,0.000000,3.000000,59.000000,,,,0.000000,4.000000,4.000000,4.000000,4.000000,4.000000,4.000000,4.000000,4.000000,4.000000,4.000000,4.000000,4.000000,4.000000,4.000000,100.000000,,,,,,,,,,,,,,,,,,,,,,,,,,,,
1703413662.565638,1703413662.565950,58.000000,0.000000,4284.871582,4217.948730,4321.666504,4230.512695,4236.666504,4216.794922,4257.307617,4252.948730,4251.282227,4232.692383,4553.974121,4482.179688,4453.717773,4492.179688,0.000000,3.000000,59.000000,,,,0.000000,4.000000,4.000000,4.000000,4.000000,4.000000,4.000000,4.000000,4.000000,4.000000,4.000000,4.000000,4.000000,4.000000,4.000000,100.000000,,,,,,,,,,,,,,,,,,,,,,,,,,,,
1703413662.573446,1703413662.573758,59.000000,0.000000,4281.538574,4235.000000,4314.743652,4268.717773,4245.641113,4229.615234,4257.563965,4250.000000,4254.102539,4240.128418,4542.436035,4479.743652,4448.077148,4490.641113,0.000000,3.000000,59.000000,,,,0.000000,4.000000,4.000000,4.000000,4.000000,4.000000,4.000000,4.000000,4.000000,4.000000,4.000000,4.000000,4.000000,4.000000,4.000000,100.000000,,,,,,,,,,,,,,,,,,,,,,,,,,,,
1703413662.581254,1703413662.581666,60.000000,0.000000,4285.000000,4232.436035,4317.179688,4265.128418,4250.512695,4232.948730,4260.641113,4249.358887,4248.589844,4248.205078,4550.384766,4489.358887,4424.743652,4492.948730,0.000000,3.000000,59.000000,,,,0.000000,4.000000,4.000000,4.000000,4.000000,4.000000,4.000000,4.000000,4.000000,4.000000,4.000000,4.000000,4.000000,4.000000,4.000000,100.000000,,,,,,,,,,,,,,,,,15.000000,0.000000,0.357657,0.625183,-0.256836,0.644409,0.983030,0.131364,0.087901,-19.069683,-33.548248,65.542587
1703413662.589062,1703413662.589474,61.000000,0.000000,4289.615234,4221.282227,4325.256348,4236.282227,4247.051270,4229.230957,4263.717773,4248.205078,4243.717773,4245.384766,4565.256348,4486.922852,4442.563965,4494.871582,0.000000,3.000000,59.000000,,,,0.000000,4.000000,4.000000,4.000000,4.000000,4.000000,4.000000,4.000000,4.000000,4.000000,4.000000,4.000000,4.000000,4.000000,4.000000,100.000000,,,,,,,,,,,,,,,,,,,,,,,,,,,,
1703413662.596870,1703413662.597382,62.000000,0.000000,4294.487305,4232.179688,4323.589844,4269.102539,4248.461426,4227.563965,4264.358887,4248.717773,4243.589844,4241.153809,4573.077148,4481.922852,4466.153809,4498.589844,0.000000,3.000000,59.000000,,,,0.000000,4.000000,4.000000,4.000000,4.000000,4.000000,4.000000,4.000000,4.000000,4.000000,4.000000,4.000000,4.000000,4.000000,4.000000,100.000000,,,,,,,,,,,,,,,,,,,,,,,,,,,,
1703413662.604678,1703413662.605190,63.000000,0.000000,4301.794922,4237.820313,4321.025879,4298.974121,4249.487305,4223.589844,4262.436035,4246.025879,4246.282227,4249.615234,4589.102539,4495.512695,4458.077148,4512.179688,0.000000,3.000000,59.000000,,,,0.000000,4.000000,4.000000,4.000000,4.000000,4.000000,4.000000,4.000000,4.000000,4.000000,4.000000,4.000000,4.000000,4.000000,4.000000,100.000000,,,,,,,,,,,,,,,,,,,,,,,,,,,,
1703413662.612486,1703413662.613098,64.000000,0.000000,4294.615234,4230.769043,4317.051270,4266.666504,4248.333496,4220.000000,4260.512695,4240.641113,4252.051270,4266.538574,4566.538574,4491.666504,4456.410156,4509.358887,3615.000000,3.000000,59.000000,,,,0.000000,4.000000,4.000000,4.000000,4.000000,4.000000,4.000000,4.000000,4.000000,4.000000,4.000000,4.000000,4.000000,4.000000,4.000000,100.000000,,,,,,,,,,,,,,,,,16.000000,0.000000,0.357763,0.625122,-0.256836,0.644409,0.990355,0.137712,0.079600,-19.096048,-33.560089,65.371666
1703413662.620294,1703413662.620906,65.000000,0.000000,4280.641113,4231.410156,4308.717773,4247.563965,4253.333496,4213.077148,4257.948730,4237.563965,4243.205078,4269.230957,4524.487305,4469.102539,4452.692383,4488.717773,5417.000000,3.000000,59.000000,,,,0.000000,4.000000,4.000000,4.000000,4.000000,4.000000,4.000000,4.000000,4.000000,4.000000,4.000000,4.000000,4.000000,4.000000,4.000000,100.000000,,,,,,,,,,,,,,,,,,,,,,,,,,,,
1703413662.628102,1703413662.628814,66.000000,0.000000,4280.641113,4232.307617,4306.025879,4272.436035,4246.794922,4206.922852,4255.384766,4240.128418,4233.846191,4254.102539,4549.230957,4470.256348,4445.512695,4486.538574,5095.000000,3.000000,59.000000,,,,0.000000,4.000000,4.000000,4.000000,4.000000,4.000000,4.000000,4.000000,4.000000,4.000000,4.000000,4.000000,4.000000,4.000000,4.000000,100.000000,,,,,,,,,,,,,,,,,,,,,,,,,,,,
1703413662.635910,1703413662.636622,67.000000,0.000000,4280.000000,4231.153809,4312.436035,4274.102539,4235.769043,4216.538574,4257.948730,4246.922852,4254.743652,4246.410156,4589.102539,4480.641113,4456.153809,4497.307617,5300.000000,3.000000,59.000000,,,,0.000000,4.000000,4.000000,4.000000,4.000000,4.000000,4.000000,4.000000,4.000000,4.000000,4.000000,4.000000,4.000000,4.000000,4.000000,100.000000,,,,,,,,,,,,,,,,,,,,,,,,,,,,
1703413662.643719,1703413662.644330,68.000000,0.000000,4278.077148,4221.282227,4319.871582,4236.153809,4242.692383,4227.563965,4261.153809,4252.948730,4271.922852,4252.051270,4560.769043,4477.948730,4451.794922,4488.589844,5150.000000,3.000000,59.000000,,,,0.000000,4.000000,4.000000,4.000000,4.000000,4.000000,4.000000,4.000000,4.000000,4.000000,4.000000,4.000000,4.000000,4.000000,4.000000,100.000000,,,,,,,,,,,,,,,,,17.000000,0.000000,0.357635,0.625183,-0.257019,0.644348,0.971798,0.142107,0.082530,-18.986443,-33.787415,65.434494
1703413662.651527,1703413662.652138,69.000000,0.000000,4278.461426,4208.589844,4315.769043,4228.589844,4252.948730,4223.205078,4259.358887,4250.000000,4252.051270,4249.102539,4538.589844,4474.871582,4420.897461,4475.512695,4473.000000,3.000000,59.000000,,,,0.000000,4.000000,4.000000,4.000000,4.000000,4.000000,4.000000,4.000000,4.000000,4.000000,4.000000,4.000000,4.000000,4.000000,4.000000,100.000000,,,,,,,,,,,,,,,,,,,,,,,,,,,,
1703413662.659335,1703413662.659846,70.000000,0.000000,4266.922852,4218.205078,4303.846191,4267.051270,4244.871582,4216.922852,4258.333496,4242.948730,4233.333496,4233.461426,4543.717773,4469.487305,4408.461426,4472.692383,2748.000000,3.000000,59.000000,,,,0.000000,4.000000,4.000000,4.000000,4.000000,4.000000,4.000000,4.000000,4.000000,4.000000,4.000000,4.000000,4.000000,4.000000,4.000000,100.000000,1.000000,41.666668,4.000000,4.000000,1.000000,3.000000,4.000000,4.000000,1.000000,4.000000,4.000000,4.000000,4.000000,4.000000,4.000000,4.000000,,,,,,,,,,,,
1703413662.667143,1703413662.667654,71.000000,0.000000,4263.461426,4226.025879,4303.717773,4282.051270,4230.897461,4216.922852,4258.333496,4248.461426,4242.820313,4225.897461,4520.000000,4465.384766,4421.410156,4470.641113,4731.000000,3.000000,59.000000,,,,0.000000,4.000000,4.000000,4.000000,4.000000,4.000000,4.000000,4.000000,4.000000,4.000000,4.000000,4.000000,4.000000,4.000000,4.000000,100.000000,,,,,,,,,,,,,,,,,,,,,,,,,,,,
1703413662.674951,1703413662.675362,72.000000,0.000000,4276.922852,4215.384766,4313.846191,4262.179688,4231.153809,4216.282227,4256.666504,4248.589844,4246.282227,4230.897461,4519.487305,4471.153809,4424.615234,4477.307617,4333.000000,3.000000,59.000000,,,,0.000000,4.000000,4.000000,4.000000,4.000000,4.000000,4.000000,4.000000,4.000000,4.000000,4.000000,4.000000,4.000000,4.000000,4.000000,100.000000,,,,,,,,,,,,,,,,,18.000000,0.000000,0.357785,0.625122,-0.256958,0.644348,0.984007,0.143572,0.083018,-18.954466,-33.625340,65.424377
1703413662.682759,1703413662.683170,73.000000,0.000000,4284.615234,4218.589844,4319.615234,4261.666504,4245.256348,4217.692383,4260.512695,4232.820313,4239.871582,4239.102539,4552.179688,4478.205078,4418.589844,4491.282227,5327.000000,3.000000,59.000000,,,,0.000000,4.000000,4.000000,4.000000,4.000000,4.000000,4.000000,4.000000,4.000000,4.000000,4.000000,4.000000,4.000000,4.000000,4.000000,100.000000,,,,,,,,,,,,,,,,,,,,,,,,,,,,
1703413662.690567,1703413662.690878,74.000000,0.000000,4282.051270,4232.307617,4321.153809,4268.974121,4250.641113,4219.743652,4264.743652,4234.358887,4242.692383,4245.000000,4559.615234,4484.358887,4431.025879,4495.000000,5763.000000,3.000000,59.000000,,,,0.000000,4.000000,4.000000,4.000000,4.000000,4.000000,4.000000,4.000000,4.000000,4.000000,4.000000,4.000000,4.000000,4.000000,4.000000,100.000000,,,,,,,,,,,,,,,,,,,,,,,,,,,,
1703413662.698375,1703413662.698686,75.000000,0.000000,4284.230957,4231.922852,4325.000000,4257.563965,4238.205078,4220.128418,4261.538574,4248.974121,4252.179688,4247.820313,4559.102539,4493.846191,4446.282227,4490.641113,6052.000000,3.000000,59.000000,,,,0.000000,4.000000,4.000000,4.000000,4.000000,4.000000,4.000000,4.000000,4.000000,4.000000,4.000000,4.000000,4.000000,4.000000,4.000000,100.000000,,,,,,,,,,,,,,,,,,,,,,,,,,,,
1703413662.706183,1703413662.706394,76.000000,0.000000,4291.538574,4225.512695,4328.589844,4266.538574,4235.000000,4216.282227,4257.051270,4241.794922,4248.461426,4250.769043,4560.000000,4491.666504,4436.922852,4490.769043,6429.000000,3.000000,59.000000,,,,0.000000,4.000000,4.000000,4.000000,4.000000,4.000000,4.000000,4.000000,4.000000,4.000000,4.000000,4.000000,4.000000,4.000000,4.000000,100.000000,,,,,,,,,,,,,,,,,19.000000,0.000000,0.357738,0.625061,-0.257019,0.644409,0.980100,0.109877,0.078135,-18.992352,-33.496140,65.565277
1703413662.713991,1703413662.714202,77.000000,0.000000,4288.461426,4227.948730,4323.589844,4277.563965,4248.717773,4214.230957,4256.922852,4224.615234,4231.794922,4242.563965,4549.230957,4481.025879,4427.692383,4489.102539,6494.000000,3.000000,59.000000,,,,0.000000,4.000000,4.000000,4.000000,4.000000,4.000000,4.000000,4.000000,4.000000,4.000000,4.000000,4.000000,4.000000,4.000000,4.000000,100.000000,,,,,,,,,,,,,,,,,,,,,,,,,,,,
1703413662.721799,1703413662.721910,78.000000,0.000000,4283.333496,4229.743652,4321.025879,4269.487305,4252.307617,4218.846191,4258.077148,4227.179688,4232.692383,4236.025879,4557.948730,4483.077148,4434.871582,4489.615234,5763.000000,3.000000,59.000000,,,,0.000000,4.000000,4.000000,4.000000,4.000000,4.000000,4.000000,4.000000,4.000000,4.000000,4.000000,4.000000,4.000000,4.000000,4.000000,100.000000,,,,,,,,,,,,,,,,,,,,,,,,,,,,
1703413662.729607,1703413662.729818,79.000000,0.000000,4282.051270,4231.794922,4322.179688,4273.974121,4246.282227,4220.769043,4260.256348,4236.153809,4242.179688,4243.717773,4569.615234,4488.205078,4439.230957,4495.769043,6052.000000,3.000000,59.000000,,,,0.000000,4.000000,4.000000,4.000000,4.000000,4.000000,4.000000,4.000000,4.000000,4.000000,4.000000,4.000000,4.000000,4.000000,4.000000,100.000000,,,,,,,,,,,,,,,,,,,,,,,,,,,,
1703413662.737415,1703413662.737626,80.000000,0.000000,4276.538574,4230.512695,4314.487305,4275.384766,4244.743652,4217.692383,4260.769043,4234.743652,4237.179688,4245.897461,4541.922852,4476.410156,4433.846191,4483.589844,6429.000000,3.000000,59.000000,,,,0.000000,4.000000,4.000000,4.000000,4.000000,4.000000,4.000000,4.000000,4.000000,4.000000,4.000000,4.000000,4.000000,4.000000,4.000000,100.000000,,,,,,,,,,,,,,,,,20.000000,0.000000,0.357757,0.625000,-0.257141,0.644409,0.987425,0.122085,0.087901,-19.209784,-33.346527,65.608749
1703413662.745223,1703413662.745534,81.000000,0.000000,4263.589844,4216.922852,4304.615234,4270.384766,4247.436035,4218.846191,4257.051270,4232.820313,4233.077148,4229.615234,4530.769043,4462.179688,4412.948730,4460.384766,6494.000000,3.000000,59.000000,,,,0.000000,4.000000,4.000000,4.000000,4.000000,4.000000,4.000000,4.000000,4.000000,4.000000,4.000000,4.000000,4.000000,4.000000,4.000000,100.000000,,,,,,,,,,,,,,,,,,,,,,,,,,,,
1703413662.753031,1703413662.753341,82.000000,0.000000,4260.384766,4204.102539,4303.077148,4265.512695,4243.077148,4217.179688,4253.974121,4239.358887,4245.641113,4221.666504,4542.692383,4463.846191,4404.871582,4460.897461,5763.000000,3.000000,59.000000,,,,0.000000,4.000000,4.000000,4.000000,4.000000,4.000000,4.000000,4.000000,4.000000,4.000000,4.000000,4.000000,4.000000,4.000000,4.000000,100.000000,,,,,,,,,,,,,,,,,,,,,,,,,,,,
1703413662.760839,1703413662.761249,83.000000,0.000000,4273.205078,4202.179688,4308.333496,4255.897461,4235.769043,4214.230957,4256.922852,4247.179688,4255.128418,4242.820313,4537.563965,4472.820313,4438.333496,4475.641113,6052.000000,3.000000,59.000000,,,,0.000000,4.000000,4.000000,4.000000,4.000000,4.000000,4.000000,4.000000,4.000000,4.000000,4.000000,4.000000,4.000000,4.000000,4.000000,100.000000,,,,,,,,,,,,,,,,,,,,,,,,,,,,
1703413662.768647,1703413662.769057,84.000000,0.000000,4277.307617,4214.102539,4308.077148,4256.794922,4240.769043,4221.153809,4262.820313,4251.025879,4255.897461,4257.820313,4546.666504,4476.794922,4446.666504,4478.974121,6429.000000,3.000000,59.000000,,,,0.000000,4.000000,4.000000,4.000000,4.000000,4.000000,4.000000,4.000000,4.000000,4.000000,4.000000,4.000000,4.000000,4.000000,4.000000,100.000000,,,,,,,,,,,,,,,,,21.000000,0.000000,0.357717,0.625061,-0.257202,0.644348,0.990844,0.120132,0.086925,-19.222139,-33.511871,65.564537
1703413662.776456,1703413662.776965,85.000000,0.000000,4274.615234,4229.102539,4303.461426,4277.307617,4249.230957,4226.922852,4262.948730,4255.128418,4263.077148,4254.230957,4556.153809,4481.922852,4417.948730,4480.897461,6494.000000,3.000000,59.000000,,,,0.000000,4.000000,4.000000,4.000000,4.000000,4.000000,4.000000,4.000000,4.000000,4.000000,4.000000,4.000000,4.000000,4.000000,4.000000,100.000000,,,,,,,,,,,,,,,,,,,,,,,,,,,,
1703413662.784263,1703413662.784773,86.000000,0.000000,4277.179688,4233.846191,4305.256348,4280.384766,4248.205078,4223.333496,4259.230957,4256.410156,4267.820313,4253.717773,4560.256348,4489.743652,4436.153809,4490.128418,5763.000000,3.000000,59.000000,,,,0.000000,4.000000,4.000000,4.000000,4.000000,4.000000,4.000000,4.000000,4.000000,4.000000,4.000000,4.000000,4.000000,4.000000,4.000000,100.000000,,,,,,,,,,,,,,,,,,,,,,,,,,,,
1703413662.792071,1703413662.792681,87.000000,0.000000,4282.820313,4230.897461,4315.128418,4252.051270,4247.051270,4213.077148,4258.974121,4250.128418,4257.051270,4254.871582,4580.128418,4492.820313,4466.538574,4495.000000,6052.000000,3.000000,59.000000,,,,0.000000,4.000000,4.000000,4.000000,4.000000,4.000000,4.000000,4.000000,4.000000,4.000000,4.000000,4.000000,4.000000,4.000000,4.000000,100.000000,,,,,,,,,,,,,,,,,,,,,,,,,,,,
1703413662.799880,1703413662.800489,88.000000,0.000000,4282.179688,4229.230957,4316.922852,4270.384766,4245.128418,4207.948730,4258.846191,4247.692383,4251.922852,4253.205078,4574.615234,4488.717773,4447.307617,4493.333496,6429.000000,3.000000,59.000000,,,,0.000000,4.000000,4.000000,4.000000,4.000000,4.000000,4.000000,4.000000,4.000000,4.000000,4.000000,4.000000,4.000000,4.000000,4.000000,100.000000,,,,,,,,,,,,,,,,,22.000000,0.000000,0.357980,0.625061,-0.257141,0.644226,0.987914,0.120620,0.078623,-19.066591,-33.277351,65.358086
1703413662.807688,1703413662.808397,89.000000,0.000000,4276.922852,4231.922852,4308.974121,4303.077148,4237.948730,4212.820313,4254.615234,4249.230957,4257.179688,4250.512695,4561.922852,4484.102539,4433.846191,4491.922852,6494.000000,3.000000,59.000000,,,,0.000000,4.000000,4.000000,4.000000,4.000000,4.000000,4.000000,4.000000,4.000000,4.000000,4.000000,4.000000,4.000000,4.000000,4.000000,100.000000,,,,,,,,,,,,,,,,,,,,,,,,,,,,
1703413662.815496,1703413662.816205,90.000000,0.000000,4282.307617,4231.666504,4313.461426,4284.743652,4240.897461,4218.461426,4255.384766,4246.666504,4253.974121,4248.717773,4582.307617,4486.538574,4446.922852,4497.948730,5763.000000,3.000000,59.000000,,,,0.000000,4.000000,4.000000,4.000000,4.000000,4.000000,4.000000,4.000000,4.000000,4.000000,4.000000,4.000000,4.000000,4.000000,4.000000,100.000000,,,,,,,,,,,,,,,,,,,,,,,,,,,,
1703413662.823304,1703413662.823913,91.000000,0.000000,4291.794922,4231.666504,4322.051270,4277.307617,4252.563965,4218.333496,4259.871582,4246.153809,4252.563965,4254.102539,4586.922852,4497.307617,4452.948730,4510.384766,6052.000000,3.000000,59.000000,,,,0.000000,4.000000,4.000000,4.000000,4.000000,4.000000,4.000000,4.000000,4.000000,4.000000,4.000000,4.000000,4.000000,4.000000,4.000000,100.000000,,,,,,,,,,,,,,,,,,,,,,,,,,,,
1703413662.831112,1703413662.831721,92.000000,0.000000,4290.384766,4236.410156,4321.538574,4288.461426,4252.563965,4217.436035,4258.077148,4248.717773,4261.153809,4263.846191,4565.000000,4496.538574,4456.282227,4508.589844,6429.000000,3.000000,59.000000,,,,0.000000,4.000000,4.000000,4.000000,4.000000,4.000000,4.000000,4.000000,4.000000,4.000000,4.000000,4.000000,4.000000,4.000000,4.000000,100.000000,,,,,,,,,,,,,,,,,23.000000,0.000000,0.357852,0.625122,-0.257019,0.644287,0.990355,0.131852,0.085948,-18.943266,-33.382950,65.522278
1703413662.838920,1703413662.839429,93.000000,0.000000,4281.282227,4232.820313,4318.077148,4271.538574,4244.230957,4217.820313,4254.743652,4245.769043,4256.025879,4249.871582,4568.717773,4484.487305,4452.948730,4489.615234,6494.000000,3.000000,59.000000,,,,0.000000,4.000000,4.000000,4.000000,4.000000,4.000000,4.000000,4.000000,4.000000,4.000000,4.000000,4.000000,4.000000,4.000000,4.000000,100.000000,,,,,,,,,,,,,,,,,,,,,,,,,,,,
1703413662.846728,1703413662.847237,94.000000,0.000000,4275.641113,4222.820313,4311.538574,4264.358887,4233.077148,4216.794922,4256.538574,4237.563965,4243.589844,4228.077148,4570.128418,4475.512695,4437.820313,4478.974121,5763.000000,3.000000,59.000000,,,,0.000000,4.000000,4.000000,4.000000,4.000000,4.000000,4.000000,4.000000,4.000000,4.000000,4.000000,4.000000,4.000000,4.000000,4.000000,100.000000,,,,,,,,,,,,,,,,,,,,,,,,,,,,
1703413662.854536,1703413662.854945,95.000000,0.000000,4270.641113,4214.743652,4303.974121,4282.692383,4223.461426,4217.948730,4257.820313,4229.487305,4242.051270,4226.666504,4542.692383,4462.051270,4422.179688,4475.512695,6052.000000,3.000000,59.000000,,,,0.000000,4.000000,4.000000,4.000000,4.000000,4.000000,4.000000,4.000000,4.000000,4.000000,4.000000,4.000000,4.000000,4.000000,4.000000,100.000000,,,,,,,,,,,,,,,,,,,,,,,,,,,,
1703413662.862344,1703413662.862753,96.000000,0.000000,4263.717773,4210.256348,4306.025879,4258.333496,4232.307617,4215.897461,4252.948730,4227.436035,4235.384766,4222.179688,4531.282227,4455.128418,4402.948730,4471.538574,6429.000000,3.000000,59.000000,,,,0.000000,4.000000,4.000000,4.000000,4.000000,4.000000,4.000000,4.000000,4.000000,4.000000,4.000000,4.000000,4.000000,4.000000,4.000000,100.000000,,,,,,,,,,,,,,,,,24.000000,0.000000,0.357939,0.625122,-0.256897,0.644287,0.984495,0.129410,0.088390,-18.982273,-33.161324,65.486717
1703413662.870152,1703413662.870461,97.000000,0.000000,4263.461426,4213.974121,4312.563965,4231.282227,4250.897461,4215.000000,4252.051270,4229.230957,4230.384766,4218.974121,4544.871582,4468.846191,4399.487305,4476.538574,6494.000000,3.000000,59.000000,,,,0.000000,4.000000,4.000000,4.000000,4.000000,4.000000,4.000000,4.000000,4.000000,4.000000,4.000000,4.000000,4.000000,4.000000,4.000000,100.000000,,,,,,,,,,,,,,,,,,,,,,,,,,,,
1703413662.877960,1703413662.878369,98.000000,0.000000,4265.769043,4234.230957,4307.436035,4272.563965,4248.846191,4221.922852,4258.717773,4231.282227,4242.436035,4225.897461,4560.897461,4476.410156,4425.256348,4478.846191,5763.000000,3.000000,59.000000,,,,0.000000,4.000000,4.000000,4.000000,4.000000,4.000000,4.000000,4.000000,4.000000,4.000000,4.000000,4.000000,4.000000,4.000000,4.000000,100.000000,,,,,,,,,,,,,,,,,,,,,,,,,,,,
1703413662.885768,1703413662.886177,99.000000,0.000000,4273.974121,4240.512695,4308.333496,4303.077148,4231.410156,4219.615234,4258.717773,4230.512695,4248.461426,4232.307617,4558.205078,4472.436035,4445.897461,4477.948730,6052.000000,3.000000,59.000000,,,,0.000000,4.000000,4.000000,4.000000,4.000000,4.000000,4.000000,4.000000,4.000000,4.000000,4.000000,4.000000,4.000000,4.000000,4.000000,100.000000,,,,,,,,,,,,,,,,,,,,,,,,,,,,
1703413662.893576,1703413662.894085,100.000000,0.000000,4283.717773,4216.282227,4320.897461,4278.461426,4230.384766,4208.461426,4249.871582,4231.794922,4245.897461,4238.077148,4536.282227,4476.538574,4430.000000,4482.179688,6429.000000,3.000000,59.000000,,,,0.000000,4.000000,4.000000,4.000000,4.000000,4.000000,4.000000,4.000000,4.000000,4.000000,4.000000,4.000000,4.000000,4.000000,4.000000,100.000000,,,,,,,,,,,,,,,,,25.000000,0.000000,0.357880,0.625244,-0.256836,0.644226,0.984984,0.125015,0.077646,-19.000711,-33.061855,65.521378
1703413662.901384,1703413662.901993,101.000000,0.000000,4275.256348,4217.692383,4316.153809,4262.692383,4243.846191,4207.563965,4247.307617,4237.436035,4250.128418,4236.410156,4535.897461,4477.820313,4416.025879,4480.128418,6494.000000,3.000000,59.000000,,,,0.000000,4.000000,4.000000,4.000000,4.000000,4.000000,4.000000,4.000000,4.000000,4.000000,4.000000,4.000000,4.000000,4.000000,4.000000,100.000000,,,,,,,,,,,,,,,,,,,,,,,,,,,,
1703413662.909192,1703413662.909801,102.000000,0.000000,4270.128418,4244.743652,4306.794922,4290.512695,4249.230957,4208.077148,4251.410156,4237.563965,4254.487305,4241.282227,4569.358887,4477.948730,4435.256348,4481.410156,5763.000000,3.000000,59.000000,,,,0.000000,4.000000,4.000000,4.000000,4.000000,4.000000,4.000000,4.000000,4.000000,4.000000,4.000000,4.000000,4.000000,4.000000,4.000000,100.000000,,,,,,,,,,,,,,,,,,,,,,,,,,,,
1703413662.917000,1703413662.917609,103.000000,0.000000,4281.922852,4241.153809,4318.205078,4307.563965,4244.615234,4202.948730,4251.538574,4232.820313,4244.615234,4251.410156,4587.948730,4490.769043,4444.230957,4494.487305,6052.000000,3.000000,59.000000,,,,0.000000,4.000000,4.000000,4.000000,4.000000,4.000000,4.000000,4.000000,4.000000,4.000000,4.000000,4.000000,4.000000,4.000000,4.000000,100.000000,,,,,,,,,,,,,,,,,,,,,,,,,,,,
