title:مضر يمين, start timestamp:1703402446.652864, stop timestamp:1703402457.427980, headset type:EPOCX, headset serial:E50206EF, headset firmware:720, channels:67, sampling rate:eeg_128;mot_32, samples:1381      , version:2.2, 
Timestamp,OriginalTimestamp,EEG.Counter,EEG.Interpolated,EEG.AF3,EEG.F7,EEG.F3,EEG.FC5,EEG.T7,EEG.P7,EEG.O1,EEG.O2,EEG.P8,EEG.T8,EEG.FC6,EEG.F4,EEG.F8,EEG.AF4,EEG.RawCq,EEG.Battery,EEG.BatteryPercent,MarkerIndex,MarkerType,MarkerValueInt,EEG.MarkerHardware,CQ.AF3,CQ.F7,CQ.F3,CQ.FC5,CQ.T7,CQ.P7,CQ.O1,CQ.O2,CQ.P8,CQ.T8,CQ.FC6,CQ.F4,CQ.F8,CQ.AF4,CQ.Overall,EQ.SampleRateQuality,EQ.OVERALL,EQ.AF3,EQ.F7,EQ.F3,EQ.FC5,EQ.T7,EQ.P7,EQ.O1,EQ.O2,EQ.P8,EQ.T8,EQ.FC6,EQ.F4,EQ.F8,EQ.AF4,MOT.CounterMems,MOT.InterpolatedMems,MOT.Q0,MOT.Q1,MOT.Q2,MOT.Q3,MOT.AccX,MOT.AccY,MOT.AccZ,MOT.MagX,MOT.MagY,MOT.MagZ
1703402446.652864,1703402446.652946,34.000000,0.000000,4101.794922,4170.128418,4252.051270,4147.436035,4177.051270,4181.025879,4276.025879,4200.128418,4179.230957,4106.025879,4475.641113,4386.025879,4323.589844,4407.436035,0.000000,4.000000,92.000000,,,,0.000000,4.000000,4.000000,4.000000,4.000000,4.000000,4.000000,4.000000,4.000000,4.000000,4.000000,4.000000,4.000000,4.000000,4.000000,100.000000,,,,,,,,,,,,,,,,,,,,,,,,,,,,
1703402446.660672,1703402446.660854,35.000000,0.000000,4109.615234,4177.948730,4251.153809,4153.589844,4174.230957,4180.641113,4278.589844,4204.743652,4186.025879,4105.256348,4477.820313,4382.820313,4325.128418,4408.077148,0.000000,4.000000,92.000000,,,,0.000000,4.000000,4.000000,4.000000,4.000000,4.000000,4.000000,4.000000,4.000000,4.000000,4.000000,4.000000,4.000000,4.000000,4.000000,100.000000,,,,,,,,,,,,,,,,,,,,,,,,,,,,
1703402446.668480,1703402446.668662,36.000000,0.000000,4107.692383,4175.512695,4250.512695,4156.153809,4182.179688,4174.102539,4275.384766,4204.358887,4177.307617,4103.461426,4472.436035,4374.615234,4316.922852,4401.025879,0.000000,4.000000,92.000000,,,,0.000000,4.000000,4.000000,4.000000,4.000000,4.000000,4.000000,4.000000,4.000000,4.000000,4.000000,4.000000,4.000000,4.000000,4.000000,100.000000,,,,,,,,,,,,,,,,,9.000000,0.000000,0.681889,-0.080383,-0.695007,0.213379,0.909779,-0.404835,0.032230,-31.008177,-8.117132,75.908302
1703402446.676288,1703402446.676470,37.000000,0.000000,4102.692383,4173.717773,4248.205078,4153.205078,4190.128418,4175.897461,4272.179688,4199.743652,4172.307617,4108.333496,4468.717773,4371.410156,4312.307617,4398.205078,0.000000,4.000000,92.000000,,,,0.000000,4.000000,4.000000,4.000000,4.000000,4.000000,4.000000,4.000000,4.000000,4.000000,4.000000,4.000000,4.000000,4.000000,4.000000,100.000000,,,,,,,,,,,,,,,,,,,,,,,,,,,,
1703402446.684096,1703402446.684178,38.000000,0.000000,4103.846191,4181.538574,4245.641113,4155.897461,4179.230957,4178.846191,4273.589844,4190.128418,4169.487305,4097.436035,4468.205078,4375.897461,4317.179688,4400.256348,0.000000,4.000000,92.000000,,,,0.000000,4.000000,4.000000,4.000000,4.000000,4.000000,4.000000,4.000000,4.000000,4.000000,4.000000,4.000000,4.000000,4.000000,4.000000,100.000000,,,,,,,,,,,,,,,,,,,,,,,,,,,,
1703402446.691904,1703402446.692086,39.000000,0.000000,4105.512695,4180.256348,4243.589844,4157.948730,4170.000000,4170.769043,4270.897461,4182.948730,4157.692383,4083.589844,4462.692383,4374.871582,4315.641113,4399.230957,0.000000,4.000000,92.000000,,,,0.000000,4.000000,4.000000,4.000000,4.000000,4.000000,4.000000,4.000000,4.000000,4.000000,4.000000,4.000000,4.000000,4.000000,4.000000,100.000000,,,,,,,,,,,,,,,,,,,,,,,,,,,,
1703402446.699712,1703402446.699894,40.000000,0.000000,4102.179688,4171.153809,4239.487305,4150.256348,4173.846191,4165.512695,4263.974121,4184.487305,4150.000000,4086.025635,4457.563965,4366.025879,4307.692383,4393.717773,0.000000,4.000000,92.000000,,,,0.000000,4.000000,4.000000,4.000000,4.000000,4.000000,4.000000,4.000000,4.000000,4.000000,4.000000,4.000000,4.000000,4.000000,4.000000,100.000000,,,,,,,,,,,,,,,,,10.000000,0.000000,0.681863,-0.080444,-0.695007,0.213440,0.901477,-0.401416,0.026370,-30.874025,-8.138752,75.934143
1703402446.707520,1703402446.707802,41.000000,0.000000,4098.974121,4171.538574,4237.179688,4140.769043,4179.230957,4170.512695,4262.563965,4183.846191,4150.256348,4085.897461,4459.230957,4363.717773,4304.358887,4389.487305,0.000000,4.000000,92.000000,,,,0.000000,4.000000,4.000000,4.000000,4.000000,4.000000,4.000000,4.000000,4.000000,4.000000,4.000000,4.000000,4.000000,4.000000,4.000000,100.000000,,,,,,,,,,,,,,,,,,,,,,,,,,,,
1703402446.715328,1703402446.715610,42.000000,0.000000,4099.615234,4171.153809,4237.948730,4137.179688,4171.922852,4169.358887,4266.153809,4173.077148,4140.769043,4072.820557,4454.102539,4360.641113,4297.436035,4386.666504,0.000000,4.000000,92.000000,,,,0.000000,4.000000,4.000000,4.000000,4.000000,4.000000,4.000000,4.000000,4.000000,4.000000,4.000000,4.000000,4.000000,4.000000,4.000000,100.000000,,,,,,,,,,,,,,,,,,,,,,,,,,,,
1703402446.723137,1703402446.723518,43.000000,0.000000,4097.692383,4163.589844,4238.333496,4140.384766,4165.769043,4166.025879,4265.000000,4165.256348,4132.051270,4067.435791,4448.205078,4353.205078,4288.846191,4383.974121,0.000000,4.000000,92.000000,,,,0.000000,4.000000,4.000000,4.000000,4.000000,4.000000,4.000000,4.000000,4.000000,4.000000,4.000000,4.000000,4.000000,4.000000,4.000000,100.000000,,,,,,,,,,,,,,,,,,,,,,,,,,,,
1703402446.730945,1703402446.731326,44.000000,0.000000,4093.461426,4166.282227,4240.256348,4143.717773,4178.717773,4171.538574,4264.102539,4175.897461,4143.717773,4073.974365,4459.358887,4359.230957,4298.333496,4385.128418,0.000000,4.000000,92.000000,,,,0.000000,4.000000,4.000000,4.000000,4.000000,4.000000,4.000000,4.000000,4.000000,4.000000,4.000000,4.000000,4.000000,4.000000,4.000000,100.000000,,,,,,,,,,,,,,,,,11.000000,0.000000,0.681791,-0.080566,-0.695007,0.213623,0.907337,-0.407765,0.024905,-30.803289,-8.158211,75.957390
1703402446.738752,1703402446.739234,45.000000,0.000000,4091.923096,4173.077148,4240.769043,4141.153809,4183.846191,4176.410156,4265.128418,4184.743652,4156.666504,4076.666748,4465.384766,4365.000000,4308.333496,4384.871582,0.000000,4.000000,92.000000,,,,0.000000,4.000000,4.000000,4.000000,4.000000,4.000000,4.000000,4.000000,4.000000,4.000000,4.000000,4.000000,4.000000,4.000000,4.000000,100.000000,,,,,,,,,,,,,,,,,,,,,,,,,,,,
1703402446.746561,1703402446.747042,46.000000,0.000000,4094.871826,4166.538574,4237.692383,4136.794922,4170.641113,4173.589844,4263.333496,4176.282227,4153.461426,4076.025635,4456.153809,4356.025879,4302.692383,4383.333496,0.000000,4.000000,92.000000,,,,0.000000,4.000000,4.000000,4.000000,4.000000,4.000000,4.000000,4.000000,4.000000,4.000000,4.000000,4.000000,4.000000,4.000000,4.000000,100.000000,,,,,,,,,,,,,,,,,,,,,,,,,,,,
1703402446.754369,1703402446.754750,47.000000,0.000000,4102.307617,4161.153809,4240.641113,4138.974121,4171.794922,4169.871582,4263.205078,4171.410156,4154.615234,4086.410156,4462.948730,4360.000000,4304.102539,4394.358887,0.000000,4.000000,92.000000,,,,0.000000,4.000000,4.000000,4.000000,4.000000,4.000000,4.000000,4.000000,4.000000,4.000000,4.000000,4.000000,4.000000,4.000000,4.000000,100.000000,,,,,,,,,,,,,,,,,,,,,,,,,,,,
1703402446.762177,1703402446.762558,48.000000,0.000000,4103.333496,4169.102539,4247.692383,4144.358887,4180.256348,4171.153809,4264.487305,4176.025879,4163.461426,4096.922852,4475.769043,4376.794922,4314.743652,4408.205078,0.000000,4.000000,92.000000,,,,0.000000,4.000000,4.000000,4.000000,4.000000,4.000000,4.000000,4.000000,4.000000,4.000000,4.000000,4.000000,4.000000,4.000000,4.000000,100.000000,,,,,,,,,,,,,,,,,12.000000,0.000000,0.681669,-0.080750,-0.695068,0.213745,0.904407,-0.411671,0.017092,-30.756294,-8.192389,76.078323
1703402446.769985,1703402446.770266,49.000000,0.000000,4093.846191,4169.871582,4243.077148,4140.128418,4173.846191,4169.487305,4261.025879,4174.487305,4159.615234,4090.128174,4469.743652,4376.794922,4314.615234,4402.563965,0.000000,4.000000,92.000000,,,,0.000000,4.000000,4.000000,4.000000,4.000000,4.000000,4.000000,4.000000,4.000000,4.000000,4.000000,4.000000,4.000000,4.000000,4.000000,100.000000,,,,,,,,,,,,,,,,,,,,,,,,,,,,
1703402446.777793,1703402446.778074,50.000000,0.000000,4090.256348,4162.179688,4238.589844,4135.897461,4168.589844,4166.410156,4256.538574,4169.615234,4158.461426,4086.281982,4467.179688,4371.282227,4314.743652,4395.256348,0.000000,4.000000,92.000000,,,,0.000000,4.000000,4.000000,4.000000,4.000000,4.000000,4.000000,4.000000,4.000000,4.000000,4.000000,4.000000,4.000000,4.000000,4.000000,100.000000,,,,,,,,,,,,,,,,,,,,,,,,,,,,
1703402446.785601,1703402446.785782,51.000000,0.000000,4097.820313,4166.025879,4248.589844,4145.897461,4178.589844,4169.871582,4260.000000,4174.102539,4169.102539,4096.922852,4481.153809,4381.538574,4321.538574,4405.641113,0.000000,4.000000,92.000000,,,,0.000000,4.000000,4.000000,4.000000,4.000000,4.000000,4.000000,4.000000,4.000000,4.000000,4.000000,4.000000,4.000000,4.000000,4.000000,100.000000,,,,,,,,,,,,,,,,,,,,,,,,,,,,
1703402446.793409,1703402446.793590,52.000000,0.000000,4100.512695,4173.077148,4253.846191,4153.333496,4184.230957,4171.922852,4266.025879,4176.153809,4165.641113,4095.769287,4480.128418,4387.436035,4315.897461,4406.282227,0.000000,4.000000,92.000000,,,,0.000000,4.000000,4.000000,4.000000,4.000000,4.000000,4.000000,4.000000,4.000000,4.000000,4.000000,4.000000,4.000000,4.000000,4.000000,100.000000,,,,,,,,,,,,,,,,,13.000000,0.000000,0.681592,-0.080872,-0.695129,0.213745,0.906361,-0.401416,0.031742,-30.697332,-8.156484,76.170486
1703402446.801217,1703402446.801298,53.000000,0.000000,4093.333252,4165.256348,4244.102539,4145.384766,4177.563965,4167.948730,4264.230957,4172.692383,4154.871582,4084.230713,4462.307617,4378.333496,4304.230957,4394.871582,0.000000,4.000000,92.000000,,,,0.000000,4.000000,4.000000,4.000000,4.000000,4.000000,4.000000,4.000000,4.000000,4.000000,4.000000,4.000000,4.000000,4.000000,4.000000,100.000000,,,,,,,,,,,,,,,,,,,,,,,,,,,,
1703402446.809025,1703402446.809106,54.000000,0.000000,4087.435791,4156.922852,4238.589844,4136.794922,4169.743652,4166.410156,4260.512695,4177.179688,4157.692383,4086.025635,4456.666504,4377.820313,4301.153809,4392.948730,0.000000,4.000000,92.000000,,,,0.000000,4.000000,4.000000,4.000000,4.000000,4.000000,4.000000,4.000000,4.000000,4.000000,4.000000,4.000000,4.000000,4.000000,4.000000,100.000000,,,,,,,,,,,,,,,,,,,,,,,,,,,,
1703402446.816833,1703402446.816814,55.000000,0.000000,4082.948730,4154.871582,4240.641113,4136.538574,4171.282227,4169.358887,4262.179688,4184.487305,4159.743652,4088.205078,4456.666504,4381.538574,4295.128418,4393.333496,0.000000,4.000000,92.000000,,,,0.000000,4.000000,4.000000,4.000000,4.000000,4.000000,4.000000,4.000000,4.000000,4.000000,4.000000,4.000000,4.000000,4.000000,4.000000,100.000000,,,,,,,,,,,,,,,,,,,,,,,,,,,,
1703402446.824641,1703402446.824622,56.000000,0.000000,4080.512939,4148.205078,4234.102539,4135.512695,4168.717773,4170.641113,4265.000000,4184.743652,4155.512695,4078.461426,4447.179688,4374.230957,4286.666504,4382.820313,0.000000,4.000000,92.000000,,,,0.000000,4.000000,4.000000,4.000000,4.000000,4.000000,4.000000,4.000000,4.000000,4.000000,4.000000,4.000000,4.000000,4.000000,4.000000,100.000000,,,,,,,,,,,,,,,,,14.000000,0.000000,0.681643,-0.080811,-0.695068,0.213806,0.902454,-0.407276,0.025394,-30.510931,-8.174169,76.170105
1703402446.832449,1703402446.832330,57.000000,0.000000,4083.718018,4145.256348,4224.102539,4135.641113,4158.589844,4170.000000,4263.589844,4183.717773,4159.615234,4075.256348,4437.948730,4368.589844,4287.436035,4373.461426,0.000000,4.000000,92.000000,,,,0.000000,4.000000,4.000000,4.000000,4.000000,4.000000,4.000000,4.000000,4.000000,4.000000,4.000000,4.000000,4.000000,4.000000,4.000000,100.000000,,,,,,,,,,,,,,,,,,,,,,,,,,,,
1703402446.840257,1703402446.840238,58.000000,0.000000,4089.358887,4151.538574,4224.230957,4137.563965,4169.743652,4169.358887,4262.307617,4189.743652,4167.436035,4083.718018,4440.384766,4373.205078,4293.205078,4378.077148,0.000000,4.000000,92.000000,,,,0.000000,4.000000,4.000000,4.000000,4.000000,4.000000,4.000000,4.000000,4.000000,4.000000,4.000000,4.000000,4.000000,4.000000,4.000000,100.000000,,,,,,,,,,,,,,,,,,,,,,,,,,,,
1703402446.848065,1703402446.848046,59.000000,0.000000,4091.538574,4157.820313,4230.769043,4136.282227,4185.384766,4169.871582,4263.974121,4195.641113,4171.410156,4090.512939,4446.666504,4379.487305,4297.563965,4389.743652,0.000000,4.000000,92.000000,,,,0.000000,4.000000,4.000000,4.000000,4.000000,4.000000,4.000000,4.000000,4.000000,4.000000,4.000000,4.000000,4.000000,4.000000,4.000000,100.000000,,,,,,,,,,,,,,,,,,,,,,,,,,,,
1703402446.855873,1703402446.855954,60.000000,0.000000,4093.846191,4161.410156,4233.974121,4139.743652,4176.282227,4176.538574,4263.974121,4200.897461,4172.307617,4093.461426,4447.436035,4380.000000,4302.436035,4399.871582,0.000000,4.000000,92.000000,,,,0.000000,4.000000,4.000000,4.000000,4.000000,4.000000,4.000000,4.000000,4.000000,4.000000,4.000000,4.000000,4.000000,4.000000,4.000000,100.000000,,,,,,,,,,,,,,,,,15.000000,0.000000,0.681662,-0.080811,-0.695068,0.213745,0.899036,-0.407276,0.022464,-30.543173,-8.423419,76.186432
1703402446.863681,1703402446.863761,61.000000,0.000000,4099.743652,4168.205078,4234.102539,4143.717773,4171.282227,4181.153809,4263.717773,4203.205078,4172.051270,4094.358887,4446.538574,4380.769043,4309.743652,4405.897461,0.000000,4.000000,92.000000,,,,0.000000,4.000000,4.000000,4.000000,4.000000,4.000000,4.000000,4.000000,4.000000,4.000000,4.000000,4.000000,4.000000,4.000000,4.000000,100.000000,,,,,,,,,,,,,,,,,,,,,,,,,,,,
1703402446.871489,1703402446.871669,62.000000,0.000000,4103.589844,4172.436035,4236.538574,4140.641113,4182.436035,4174.230957,4263.205078,4196.282227,4173.461426,4092.307617,4452.051270,4381.794922,4312.948730,4409.871582,0.000000,4.000000,92.000000,,,,0.000000,4.000000,4.000000,4.000000,4.000000,4.000000,4.000000,4.000000,4.000000,4.000000,4.000000,4.000000,4.000000,4.000000,4.000000,100.000000,,,,,,,,,,,,,,,,,,,,,,,,,,,,
1703402446.879298,1703402446.879477,63.000000,0.000000,4105.128418,4171.794922,4237.820313,4144.230957,4186.538574,4166.794922,4263.461426,4188.717773,4171.410156,4088.718018,4458.077148,4380.769043,4310.641113,4414.102539,0.000000,4.000000,92.000000,,,,0.000000,4.000000,4.000000,4.000000,4.000000,4.000000,4.000000,4.000000,4.000000,4.000000,4.000000,4.000000,4.000000,4.000000,4.000000,100.000000,,,,,,,,,,,,,,,,,,,,,,,,,,,,
1703402446.887106,1703402446.887385,64.000000,0.000000,4105.897461,4172.820313,4236.666504,4152.179688,4177.948730,4168.333496,4260.384766,4181.666504,4161.282227,4082.820557,4452.051270,4380.769043,4313.077148,4413.846191,5135.000000,4.000000,92.000000,,,,0.000000,4.000000,4.000000,4.000000,4.000000,4.000000,4.000000,4.000000,4.000000,4.000000,4.000000,4.000000,4.000000,4.000000,4.000000,100.000000,1.000000,91.666664,4.000000,4.000000,4.000000,4.000000,4.000000,4.000000,3.000000,4.000000,4.000000,4.000000,4.000000,4.000000,4.000000,4.000000,16.000000,0.000000,0.681630,-0.080872,-0.695129,0.213623,0.896594,-0.416555,0.017092,-30.655521,-8.481076,76.234451
1703402446.894914,1703402446.895193,65.000000,0.000000,4108.205078,4171.922852,4236.025879,4146.153809,4175.000000,4168.205078,4252.051270,4173.461426,4152.820313,4080.256348,4443.974121,4383.077148,4309.615234,4412.563965,4649.000000,4.000000,92.000000,,,,0.000000,4.000000,4.000000,4.000000,4.000000,4.000000,4.000000,4.000000,4.000000,4.000000,4.000000,4.000000,4.000000,4.000000,4.000000,100.000000,,,,,,,,,,,,,,,,,,,,,,,,,,,,
1703402446.902722,1703402446.903101,66.000000,0.000000,4115.897461,4168.717773,4238.077148,4141.153809,4178.717773,4165.897461,4254.487305,4170.000000,4155.128418,4085.128174,4441.410156,4382.820313,4298.974121,4414.487305,5093.000000,4.000000,92.000000,,,,0.000000,4.000000,4.000000,4.000000,4.000000,4.000000,4.000000,4.000000,4.000000,4.000000,4.000000,4.000000,4.000000,4.000000,4.000000,100.000000,,,,,,,,,,,,,,,,,,,,,,,,,,,,
1703402446.910530,1703402446.910909,67.000000,0.000000,4115.256348,4162.563965,4235.512695,4147.179688,4178.077148,4168.333496,4258.461426,4171.282227,4156.538574,4083.589844,4437.692383,4378.333496,4294.871582,4413.589844,5215.000000,4.000000,92.000000,,,,0.000000,4.000000,4.000000,4.000000,4.000000,4.000000,4.000000,4.000000,4.000000,4.000000,4.000000,4.000000,4.000000,4.000000,4.000000,100.000000,,,,,,,,,,,,,,,,,,,,,,,,,,,,
1703402446.918338,1703402446.918817,68.000000,0.000000,4104.743652,4155.128418,4228.974121,4143.205078,4175.128418,4167.563965,4251.666504,4171.153809,4153.205078,4073.076904,4431.666504,4372.948730,4292.179688,4404.487305,4984.000000,4.000000,92.000000,,,,0.000000,4.000000,4.000000,4.000000,4.000000,4.000000,4.000000,4.000000,4.000000,4.000000,4.000000,4.000000,4.000000,4.000000,4.000000,100.000000,,,,,,,,,,,,,,,,,17.000000,0.000000,0.681520,-0.080750,-0.695251,0.213623,0.906361,-0.407765,0.018069,-30.639969,-8.499636,76.227676
1703402446.926146,1703402446.926625,69.000000,0.000000,4100.384766,4152.948730,4231.410156,4138.077148,4178.589844,4166.410156,4253.974121,4172.820313,4155.256348,4071.025635,4429.743652,4373.205078,4283.589844,4401.282227,5038.000000,4.000000,92.000000,,,,0.000000,4.000000,4.000000,4.000000,4.000000,4.000000,4.000000,4.000000,4.000000,4.000000,4.000000,4.000000,4.000000,4.000000,4.000000,100.000000,,,,,,,,,,,,,,,,,,,,,,,,,,,,
1703402446.933954,1703402446.934333,70.000000,0.000000,4100.897461,4154.487305,4235.000000,4148.333496,4183.077148,4175.897461,4266.538574,4180.384766,4156.794922,4076.410156,4430.128418,4379.871582,4276.153809,4408.333496,3214.000000,4.000000,92.000000,,,,0.000000,4.000000,4.000000,4.000000,4.000000,4.000000,4.000000,4.000000,4.000000,4.000000,4.000000,4.000000,4.000000,4.000000,4.000000,100.000000,,,,,,,,,,,,,,,,,,,,,,,,,,,,
1703402446.941762,1703402446.942141,71.000000,0.000000,4100.000000,4154.102539,4233.846191,4155.512695,4181.922852,4182.563965,4265.384766,4184.615234,4154.615234,4078.461426,4426.922852,4381.153809,4273.077148,4409.358887,5158.000000,4.000000,92.000000,,,,0.000000,4.000000,4.000000,4.000000,4.000000,4.000000,4.000000,4.000000,4.000000,4.000000,4.000000,4.000000,4.000000,4.000000,4.000000,100.000000,,,,,,,,,,,,,,,,,,,,,,,,,,,,
1703402446.949570,1703402446.949849,72.000000,0.000000,4098.205078,4148.974121,4232.179688,4148.205078,4183.589844,4176.922852,4259.487305,4184.102539,4156.794922,4078.974365,4423.333496,4379.487305,4264.615234,4401.153809,5198.000000,4.000000,92.000000,,,,0.000000,4.000000,4.000000,4.000000,4.000000,4.000000,4.000000,4.000000,4.000000,4.000000,4.000000,4.000000,4.000000,4.000000,4.000000,100.000000,,,,,,,,,,,,,,,,,18.000000,0.000000,0.681509,-0.080688,-0.695251,0.213684,0.913686,-0.409718,0.009767,-30.675972,-8.483006,76.221573
1703402446.957378,1703402446.957657,73.000000,0.000000,4096.922852,4145.000000,4228.846191,4140.384766,4186.794922,4172.692383,4265.512695,4183.717773,4160.000000,4078.718018,4422.307617,4380.769043,4261.025879,4397.307617,5095.000000,4.000000,92.000000,,,,0.000000,4.000000,4.000000,4.000000,4.000000,4.000000,4.000000,4.000000,4.000000,4.000000,4.000000,4.000000,4.000000,4.000000,4.000000,100.000000,,,,,,,,,,,,,,,,,,,,,,,,,,,,
1703402446.965186,1703402446.965365,74.000000,0.000000,4101.025879,4148.589844,4226.666504,4140.000000,4178.846191,4175.512695,4264.615234,4184.871582,4159.487305,4076.025635,4421.025879,4383.846191,4271.282227,4403.717773,5808.000000,4.000000,92.000000,,,,0.000000,4.000000,4.000000,4.000000,4.000000,4.000000,4.000000,4.000000,4.000000,4.000000,4.000000,4.000000,4.000000,4.000000,4.000000,100.000000,,,,,,,,,,,,,,,,,,,,,,,,,,,,
1703402446.972994,1703402446.973273,75.000000,0.000000,4104.358887,4152.692383,4228.846191,4140.000000,4171.538574,4174.358887,4255.256348,4185.769043,4159.743652,4075.000000,4420.897461,4384.871582,4278.974121,4411.538574,6130.000000,4.000000,92.000000,,,,0.000000,4.000000,4.000000,4.000000,4.000000,4.000000,4.000000,4.000000,4.000000,4.000000,4.000000,4.000000,4.000000,4.000000,4.000000,100.000000,,,,,,,,,,,,,,,,,,,,,,,,,,,,
1703402446.980802,1703402446.981081,76.000000,0.000000,4093.974365,4151.153809,4231.794922,4138.717773,4176.922852,4168.974121,4254.102539,4184.743652,4160.769043,4079.230713,4426.025879,4384.487305,4278.461426,4414.358887,6588.000000,4.000000,92.000000,,,,0.000000,4.000000,4.000000,4.000000,4.000000,4.000000,4.000000,4.000000,4.000000,4.000000,4.000000,4.000000,4.000000,4.000000,4.000000,100.000000,,,,,,,,,,,,,,,,,19.000000,0.000000,0.681552,-0.080688,-0.695190,0.213745,0.898059,-0.411671,0.023929,-30.791708,-8.468039,76.132751
1703402446.988610,1703402446.988890,77.000000,0.000000,4084.871826,4150.897461,4234.102539,4137.051270,4183.974121,4167.307617,4257.692383,4182.948730,4157.692383,4081.410156,4429.871582,4389.358887,4277.948730,4413.846191,6025.000000,4.000000,92.000000,,,,0.000000,4.000000,4.000000,4.000000,4.000000,4.000000,4.000000,4.000000,4.000000,4.000000,4.000000,4.000000,4.000000,4.000000,4.000000,100.000000,,,,,,,,,,,,,,,,,,,,,,,,,,,,
1703402446.996418,1703402446.996598,78.000000,0.000000,4091.538574,4150.897461,4236.794922,4139.743652,4180.512695,4168.461426,4254.871582,4181.025879,4153.205078,4081.923096,4427.436035,4394.743652,4281.153809,4414.102539,5808.000000,4.000000,92.000000,,,,0.000000,4.000000,4.000000,4.000000,4.000000,4.000000,4.000000,4.000000,4.000000,4.000000,4.000000,4.000000,4.000000,4.000000,4.000000,100.000000,,,,,,,,,,,,,,,,,,,,,,,,,,,,
1703402447.004227,1703402447.004505,79.000000,0.000000,4096.794922,4148.205078,4236.282227,4148.846191,4173.333496,4163.461426,4248.589844,4180.641113,4154.358887,4092.051270,4422.051270,4398.461426,4280.256348,4416.794922,6130.000000,4.000000,92.000000,,,,0.000000,4.000000,4.000000,4.000000,4.000000,4.000000,4.000000,4.000000,4.000000,4.000000,4.000000,4.000000,4.000000,4.000000,4.000000,100.000000,,,,,,,,,,,,,,,,,,,,,,,,,,,,
1703402447.012035,1703402447.012313,80.000000,0.000000,4097.436035,4151.153809,4236.410156,4156.025879,4170.000000,4157.563965,4247.051270,4186.666504,4163.846191,4101.025879,4420.512695,4402.692383,4279.743652,4419.871582,6588.000000,4.000000,92.000000,,,,0.000000,4.000000,4.000000,4.000000,4.000000,4.000000,4.000000,4.000000,4.000000,4.000000,4.000000,4.000000,4.000000,4.000000,4.000000,100.000000,,,,,,,,,,,,,,,,,20.000000,0.000000,0.681365,-0.080688,-0.695374,0.213745,0.899036,-0.393114,0.010743,-30.745871,-8.387901,76.019478
1703402447.019843,1703402447.020121,81.000000,0.000000,4096.282227,4155.000000,4239.102539,4153.974121,4166.922852,4162.820313,4253.205078,4197.948730,4173.717773,4096.794922,4423.077148,4401.410156,4285.897461,4418.846191,6025.000000,4.000000,92.000000,,,,0.000000,4.000000,4.000000,4.000000,4.000000,4.000000,4.000000,4.000000,4.000000,4.000000,4.000000,4.000000,4.000000,4.000000,4.000000,100.000000,,,,,,,,,,,,,,,,,,,,,,,,,,,,
1703402447.027651,1703402447.027829,82.000000,0.000000,4091.538574,4153.333496,4237.307617,4149.615234,4171.025879,4171.410156,4259.358887,4201.666504,4174.743652,4092.692383,4420.256348,4395.897461,4286.282227,4413.846191,5808.000000,4.000000,92.000000,,,,0.000000,4.000000,4.000000,4.000000,4.000000,4.000000,4.000000,4.000000,4.000000,4.000000,4.000000,4.000000,4.000000,4.000000,4.000000,100.000000,,,,,,,,,,,,,,,,,,,,,,,,,,,,
1703402447.035459,1703402447.035737,83.000000,0.000000,4083.589844,4152.820313,4232.692383,4151.666504,4178.717773,4171.410156,4255.256348,4198.461426,4173.461426,4096.153809,4414.871582,4392.820313,4280.128418,4412.563965,6130.000000,4.000000,92.000000,,,,0.000000,4.000000,4.000000,4.000000,4.000000,4.000000,4.000000,4.000000,4.000000,4.000000,4.000000,4.000000,4.000000,4.000000,4.000000,100.000000,,,,,,,,,,,,,,,,,,,,,,,,,,,,
1703402447.043267,1703402447.043545,84.000000,0.000000,4076.410156,4152.820313,4227.948730,4151.666504,4176.282227,4169.102539,4247.436035,4199.871582,4175.512695,4095.512939,4415.000000,4387.820313,4277.436035,4410.384766,6588.000000,4.000000,92.000000,,,,0.000000,4.000000,4.000000,4.000000,4.000000,4.000000,4.000000,4.000000,4.000000,4.000000,4.000000,4.000000,4.000000,4.000000,4.000000,100.000000,,,,,,,,,,,,,,,,,21.000000,0.000000,0.681391,-0.080627,-0.695374,0.213684,0.888292,-0.393114,0.019045,-30.754618,-8.449111,76.084190
1703402447.051075,1703402447.051453,85.000000,0.000000,4082.948730,4152.563965,4226.666504,4151.538574,4177.179688,4168.205078,4247.948730,4198.077148,4175.384766,4097.820313,4414.615234,4389.487305,4277.948730,4407.820313,6025.000000,4.000000,92.000000,,,,0.000000,4.000000,4.000000,4.000000,4.000000,4.000000,4.000000,4.000000,4.000000,4.000000,4.000000,4.000000,4.000000,4.000000,4.000000,100.000000,,,,,,,,,,,,,,,,,,,,,,,,,,,,
1703402447.058883,1703402447.059261,86.000000,0.000000,4096.794922,4156.025879,4228.974121,4153.974121,4183.461426,4168.461426,4250.256348,4189.615234,4173.333496,4104.487305,4412.948730,4399.487305,4279.358887,4411.794922,5808.000000,4.000000,92.000000,,,,0.000000,4.000000,4.000000,4.000000,4.000000,4.000000,4.000000,4.000000,4.000000,4.000000,4.000000,4.000000,4.000000,4.000000,4.000000,100.000000,,,,,,,,,,,,,,,,,,,,,,,,,,,,
1703402447.066691,1703402447.067169,87.000000,0.000000,4095.512939,4157.820313,4227.179688,4153.205078,4178.717773,4169.871582,4248.077148,4186.153809,4170.256348,4099.230957,4410.128418,4397.307617,4277.820313,4416.538574,6130.000000,4.000000,92.000000,,,,0.000000,4.000000,4.000000,4.000000,4.000000,4.000000,4.000000,4.000000,4.000000,4.000000,4.000000,4.000000,4.000000,4.000000,4.000000,100.000000,,,,,,,,,,,,,,,,,,,,,,,,,,,,
1703402447.074499,1703402447.074977,88.000000,0.000000,4084.102539,4154.358887,4221.025879,4152.436035,4170.512695,4168.717773,4247.307617,4183.589844,4163.205078,4087.692383,4399.230957,4388.717773,4269.487305,4412.179688,6588.000000,4.000000,92.000000,,,,0.000000,4.000000,4.000000,4.000000,4.000000,4.000000,4.000000,4.000000,4.000000,4.000000,4.000000,4.000000,4.000000,4.000000,4.000000,100.000000,,,,,,,,,,,,,,,,,22.000000,0.000000,0.681523,-0.080566,-0.695251,0.213684,0.908314,-0.407765,0.019534,-30.712488,-8.454200,76.109108
1703402447.082307,1703402447.082885,89.000000,0.000000,4081.025635,4150.128418,4217.051270,4154.615234,4179.487305,4167.307617,4248.077148,4173.589844,4155.897461,4081.666748,4390.000000,4385.769043,4265.000000,4402.948730,6025.000000,4.000000,92.000000,,,,0.000000,4.000000,4.000000,4.000000,4.000000,4.000000,4.000000,4.000000,4.000000,4.000000,4.000000,4.000000,4.000000,4.000000,4.000000,100.000000,,,,,,,,,,,,,,,,,,,,,,,,,,,,
1703402447.090115,1703402447.090693,90.000000,0.000000,4087.435791,4155.769043,4221.538574,4158.717773,4186.025879,4168.717773,4244.615234,4165.128418,4152.692383,4083.846191,4395.897461,4388.974121,4272.692383,4404.615234,5808.000000,4.000000,92.000000,,,,0.000000,4.000000,4.000000,4.000000,4.000000,4.000000,4.000000,4.000000,4.000000,4.000000,4.000000,4.000000,4.000000,4.000000,4.000000,100.000000,,,,,,,,,,,,,,,,,,,,,,,,,,,,
1703402447.097923,1703402447.098601,91.000000,0.000000,4096.153809,4168.461426,4228.846191,4161.282227,4175.512695,4167.563965,4242.563965,4166.410156,4153.205078,4092.435791,4410.128418,4394.487305,4283.846191,4416.922852,6130.000000,4.000000,92.000000,,,,0.000000,4.000000,4.000000,4.000000,4.000000,4.000000,4.000000,4.000000,4.000000,4.000000,4.000000,4.000000,4.000000,4.000000,4.000000,100.000000,,,,,,,,,,,,,,,,,,,,,,,,,,,,
1703402447.105731,1703402447.106409,92.000000,0.000000,4094.230713,4166.538574,4227.179688,4157.563965,4169.615234,4163.205078,4245.641113,4174.487305,4155.897461,4094.230713,4417.051270,4396.410156,4291.025879,4418.974121,6588.000000,4.000000,92.000000,,,,0.000000,4.000000,4.000000,4.000000,4.000000,4.000000,4.000000,4.000000,4.000000,4.000000,4.000000,4.000000,4.000000,4.000000,4.000000,100.000000,,,,,,,,,,,,,,,,,23.000000,0.000000,0.681580,-0.080566,-0.695251,0.213501,0.906849,-0.403858,0.018557,-30.624573,-8.458780,76.131531
1703402447.113539,1703402447.114117,93.000000,0.000000,4079.743652,4155.000000,4222.179688,4151.538574,4173.333496,4163.077148,4244.871582,4183.333496,4162.051270,4095.000000,4420.384766,4392.948730,4293.846191,4411.794922,6025.000000,4.000000,92.000000,,,,0.000000,4.000000,4.000000,4.000000,4.000000,4.000000,4.000000,4.000000,4.000000,4.000000,4.000000,4.000000,4.000000,4.000000,4.000000,100.000000,,,,,,,,,,,,,,,,,,,,,,,,,,,,
1703402447.121347,1703402447.121925,94.000000,0.000000,4074.743652,4156.282227,4222.948730,4150.897461,4174.871582,4167.820313,4242.436035,4187.820313,4167.307617,4103.846191,4431.153809,4390.897461,4295.256348,4411.025879,5808.000000,4.000000,92.000000,,,,0.000000,4.000000,4.000000,4.000000,4.000000,4.000000,4.000000,4.000000,4.000000,4.000000,4.000000,4.000000,4.000000,4.000000,4.000000,100.000000,,,,,,,,,,,,,,,,,,,,,,,,,,,,
1703402447.129155,1703402447.129633,95.000000,0.000000,4085.384521,4166.025879,4223.717773,4152.692383,4175.384766,4172.820313,4242.692383,4192.051270,4170.000000,4111.922852,4444.743652,4397.051270,4304.358887,4412.820313,6130.000000,4.000000,92.000000,,,,0.000000,4.000000,4.000000,4.000000,4.000000,4.000000,4.000000,4.000000,4.000000,4.000000,4.000000,4.000000,4.000000,4.000000,4.000000,100.000000,,,,,,,,,,,,,,,,,,,,,,,,,,,,
1703402447.136963,1703402447.137441,96.000000,0.000000,4086.281982,4168.717773,4220.000000,4152.051270,4179.230957,4173.589844,4240.000000,4199.487305,4173.077148,4116.025879,4454.487305,4401.794922,4319.871582,4412.692383,6588.000000,4.000000,92.000000,,,,0.000000,4.000000,4.000000,4.000000,4.000000,4.000000,4.000000,4.000000,4.000000,4.000000,4.000000,4.000000,4.000000,4.000000,4.000000,100.000000,,,,,,,,,,,,,,,,,24.000000,0.000000,0.681602,-0.080750,-0.695190,0.213562,0.903919,-0.414601,0.027835,-30.645449,-8.429568,76.151711
1703402447.144771,1703402447.145149,97.000000,0.000000,4072.051270,4170.128418,4220.769043,4153.205078,4182.051270,4172.436035,4236.538574,4203.589844,4173.717773,4120.512695,4463.461426,4398.461426,4326.282227,4414.487305,6025.000000,4.000000,92.000000,,,,0.000000,4.000000,4.000000,4.000000,4.000000,4.000000,4.000000,4.000000,4.000000,4.000000,4.000000,4.000000,4.000000,4.000000,4.000000,100.000000,,,,,,,,,,,,,,,,,,,,,,,,,,,,
1703402447.152579,1703402447.153057,98.000000,0.000000,4073.076904,4172.692383,4221.025879,4154.358887,4184.487305,4175.384766,4236.410156,4198.974121,4172.307617,4123.333496,4469.358887,4396.282227,4326.666504,4415.512695,5808.000000,4.000000,92.000000,,,,0.000000,4.000000,4.000000,4.000000,4.000000,4.000000,4.000000,4.000000,4.000000,4.000000,4.000000,4.000000,4.000000,4.000000,4.000000,100.000000,,,,,,,,,,,,,,,,,,,,,,,,,,,,
1703402447.160388,1703402447.160865,99.000000,0.000000,4082.564209,4171.538574,4215.769043,4154.487305,4183.333496,4175.512695,4234.487305,4190.769043,4171.153809,4119.358887,4466.153809,4395.384766,4328.717773,4413.974121,6130.000000,4.000000,92.000000,,,,0.000000,4.000000,4.000000,4.000000,4.000000,4.000000,4.000000,4.000000,4.000000,4.000000,4.000000,4.000000,4.000000,4.000000,4.000000,100.000000,,,,,,,,,,,,,,,,,,,,,,,,,,,,
1703402447.168196,1703402447.168773,100.000000,0.000000,4071.923096,4170.769043,4217.051270,4153.846191,4175.769043,4170.897461,4231.794922,4185.256348,4166.153809,4113.717773,4461.153809,4392.820313,4326.666504,4412.179688,6588.000000,4.000000,92.000000,,,,0.000000,4.000000,4.000000,4.000000,4.000000,4.000000,4.000000,4.000000,4.000000,4.000000,4.000000,4.000000,4.000000,4.000000,4.000000,100.000000,,,,,,,,,,,,,,,,,25.000000,0.000000,0.681580,-0.080933,-0.695190,0.213562,0.889269,-0.404835,0.032230,-30.630905,-8.453279,76.153206
1703402447.176004,1703402447.176581,101.000000,0.000000,4070.769287,4173.846191,4220.897461,4156.922852,4174.615234,4168.461426,4234.487305,4181.410156,4163.461426,4116.922852,4463.717773,4393.333496,4326.794922,4409.871582,6025.000000,4.000000,92.000000,,,,0.000000,4.000000,4.000000,4.000000,4.000000,4.000000,4.000000,4.000000,4.000000,4.000000,4.000000,4.000000,4.000000,4.000000,4.000000,100.000000,,,,,,,,,,,,,,,,,,,,,,,,,,,,
1703402447.183812,1703402447.184490,102.000000,0.000000,4090.128174,4171.410156,4217.692383,4156.922852,4178.589844,4168.846191,4236.538574,4178.717773,4164.102539,4122.692383,4465.512695,4392.436035,4327.436035,4404.615234,5808.000000,4.000000,92.000000,,,,0.000000,4.000000,4.000000,4.000000,4.000000,4.000000,4.000000,4.000000,4.000000,4.000000,4.000000,4.000000,4.000000,4.000000,4.000000,100.000000,,,,,,,,,,,,,,,,,,,,,,,,,,,,
1703402447.191620,1703402447.192298,103.000000,0.000000,4084.487061,4156.153809,4216.025879,4145.641113,4173.077148,4168.974121,4232.563965,4181.282227,4160.769043,4117.051270,4456.153809,4388.974121,4315.641113,4396.153809,6130.000000,4.000000,92.000000,,,,0.000000,4.000000,4.000000,4.000000,4.000000,4.000000,4.000000,4.000000,4.000000,4.000000,4.000000,4.000000,4.000000,4.000000,4.000000,100.000000,,,,,,,,,,,,,,,,,,,,,,,,,,,,
1703402447.199428,1703402447.200206,104.000000,0.000000,4070.000000,4154.102539,4222.436035,4146.794922,4167.051270,4169.487305,4234.487305,4187.307617,4162.820313,4115.000000,4450.512695,4392.179688,4311.922852,4398.461426,6588.000000,4.000000,92.000000,,,,0.000000,4.000000,4.000000,4.000000,4.000000,4.000000,4.000000,4.000000,4.000000,4.000000,4.000000,4.000000,4.000000,4.000000,4.000000,100.000000,,,,,,,,,,,,,,,,,26.000000,0.000000,0.681535,-0.080994,-0.695190,0.213684,0.898059,-0.397998,0.025394,-30.601147,-8.341284,76.171219
1703402447.207236,1703402447.208014,105.000000,0.000000,4071.281982,4170.128418,4223.461426,4161.153809,4171.025879,4168.461426,4240.512695,4185.000000,4165.769043,4118.846191,4446.153809,4391.538574,4316.153809,4404.743652,6025.000000,4.000000,92.000000,,,,0.000000,4.000000,4.000000,4.000000,4.000000,4.000000,4.000000,4.000000,4.000000,4.000000,4.000000,4.000000,4.000000,4.000000,4.000000,100.000000,,,,,,,,,,,,,,,,,,,,,,,,,,,,
1703402447.215044,1703402447.215822,106.000000,0.000000,4063.076904,4172.051270,4215.897461,4160.384766,4174.871582,4172.179688,4240.128418,4180.256348,4159.102539,4109.871582,4429.102539,4383.461426,4295.256348,4392.436035,5808.000000,4.000000,92.000000,,,,0.000000,4.000000,4.000000,4.000000,4.000000,4.000000,4.000000,4.000000,4.000000,4.000000,4.000000,4.000000,4.000000,4.000000,4.000000,100.000000,,,,,,,,,,,,,,,,,,,,,,,,,,,,
1703402447.222852,1703402447.223530,107.000000,0.000000,4057.179443,4165.384766,4210.000000,4151.794922,4177.179688,4183.333496,4241.922852,4188.589844,4159.743652,4099.871582,4420.769043,4381.794922,4273.333496,4378.846191,6130.000000,4.000000,92.000000,,,,0.000000,4.000000,4.000000,4.000000,4.000000,4.000000,4.000000,4.000000,4.000000,4.000000,4.000000,4.000000,4.000000,4.000000,4.000000,100.000000,,,,,,,,,,,,,,,,,,,,,,,,,,,,
1703402447.230660,1703402447.231338,108.000000,0.000000,4065.128174,4168.589844,4210.641113,4154.615234,4176.666504,4181.794922,4245.769043,4199.358887,4170.256348,4108.333496,4430.384766,4388.717773,4277.051270,4380.769043,6588.000000,4.000000,92.000000,,,,0.000000,4.000000,4.000000,4.000000,4.000000,4.000000,4.000000,4.000000,4.000000,4.000000,4.000000,4.000000,4.000000,4.000000,4.000000,100.000000,,,,,,,,,,,,,,,,,27.000000,0.000000,0.681542,-0.080933,-0.695190,0.213684,0.898547,-0.410695,0.023929,-30.724365,-8.257155,76.170761
1703402447.238468,1703402447.239045,109.000000,0.000000,4065.769287,4171.025879,4216.025879,4161.794922,4169.871582,4169.743652,4242.436035,4200.384766,4170.256348,4117.692383,4435.000000,4394.358887,4281.025879,4383.205078,6025.000000,4.000000,92.000000,,,,0.000000,4.000000,4.000000,4.000000,4.000000,4.000000,4.000000,4.000000,4.000000,4.000000,4.000000,4.000000,4.000000,4.000000,4.000000,100.000000,,,,,,,,,,,,,,,,,,,,,,,,,,,,
1703402447.246276,1703402447.246953,110.000000,0.000000,4067.692383,4169.743652,4219.487305,4167.051270,4167.692383,4168.205078,4237.051270,4200.256348,4166.666504,4114.743652,4431.410156,4394.487305,4276.922852,4381.153809,5808.000000,4.000000,92.000000,,,,0.000000,4.000000,4.000000,4.000000,4.000000,4.000000,4.000000,4.000000,4.000000,4.000000,4.000000,4.000000,4.000000,4.000000,4.000000,100.000000,,,,,,,,,,,,,,,,,,,,,,,,,,,,
1703402447.254084,1703402447.254761,111.000000,0.000000,4070.769287,4170.897461,4217.820313,4169.230957,4169.102539,4172.179688,4238.205078,4202.692383,4169.615234,4115.384766,4430.512695,4393.205078,4279.230957,4381.282227,6130.000000,4.000000,92.000000,,,,0.000000,4.000000,4.000000,4.000000,4.000000,4.000000,4.000000,4.000000,4.000000,4.000000,4.000000,4.000000,4.000000,4.000000,4.000000,100.000000,,,,,,,,,,,,,,,,,,,,,,,,,,,,
1703402447.261892,1703402447.262669,112.000000,0.000000,4063.718018,4167.692383,4210.897461,4164.230957,4170.384766,4170.128418,4240.000000,4198.077148,4169.487305,4123.717773,4425.897461,4389.615234,4278.077148,4378.333496,6588.000000,4.000000,92.000000,,,,0.000000,4.000000,4.000000,4.000000,4.000000,4.000000,4.000000,4.000000,4.000000,4.000000,4.000000,4.000000,4.000000,4.000000,4.000000,100.000000,,,,,,,,,,,,,,,,,28.000000,0.000000,0.681539,-0.081116,-0.695190,0.213623,0.898547,-0.420461,0.023440,-30.751928,-8.264773,76.120354
1703402447.269700,1703402447.270477,113.000000,0.000000,4066.794922,4165.128418,4205.769043,4164.487305,4170.000000,4168.333496,4237.307617,4193.205078,4168.333496,4125.641113,4424.230957,4388.461426,4279.230957,4376.153809,6025.000000,4.000000,92.000000,,,,0.000000,4.000000,4.000000,4.000000,4.000000,4.000000,4.000000,4.000000,4.000000,4.000000,4.000000,4.000000,4.000000,4.000000,4.000000,100.000000,,,,,,,,,,,,,,,,,,,,,,,,,,,,
1703402447.277508,1703402447.278385,114.000000,0.000000,4072.564209,4168.461426,4208.717773,4167.948730,4166.025879,4168.846191,4233.717773,4195.384766,4172.051270,4122.307617,4433.846191,4391.410156,4287.948730,4379.230957,5808.000000,4.000000,92.000000,,,,0.000000,4.000000,4.000000,4.000000,4.000000,4.000000,4.000000,4.000000,4.000000,4.000000,4.000000,4.000000,4.000000,4.000000,4.000000,100.000000,,,,,,,,,,,,,,,,,,,,,,,,,,,,
1703402447.285316,1703402447.286193,115.000000,0.000000,4065.641113,4169.358887,4211.153809,4165.512695,4165.128418,4165.641113,4231.538574,4191.794922,4173.077148,4128.333496,4432.179688,4391.282227,4284.871582,4379.871582,6130.000000,4.000000,92.000000,,,,0.000000,4.000000,4.000000,4.000000,4.000000,4.000000,4.000000,4.000000,4.000000,4.000000,4.000000,4.000000,4.000000,4.000000,4.000000,100.000000,,,,,,,,,,,,,,,,,,,,,,,,,,,,
1703402447.293125,1703402447.294101,116.000000,0.000000,4069.615479,4169.358887,4204.358887,4167.179688,4169.358887,4164.102539,4232.307617,4178.205078,4163.589844,4135.641113,4417.820313,4385.769043,4275.000000,4378.205078,6588.000000,4.000000,92.000000,,,,0.000000,4.000000,4.000000,4.000000,4.000000,4.000000,4.000000,4.000000,4.000000,4.000000,4.000000,4.000000,4.000000,4.000000,4.000000,100.000000,,,,,,,,,,,,,,,,,29.000000,0.000000,0.681539,-0.081116,-0.695190,0.213623,0.903431,-0.412648,0.020510,-30.726736,-8.104962,76.124985
1703402447.300933,1703402447.301909,117.000000,0.000000,4076.410156,4171.794922,4197.692383,4169.871582,4166.666504,4166.922852,4229.358887,4166.025879,4152.692383,4130.256348,4415.384766,4383.333496,4274.487305,4380.641113,6025.000000,4.000000,92.000000,,,,0.000000,4.000000,4.000000,4.000000,4.000000,4.000000,4.000000,4.000000,4.000000,4.000000,4.000000,4.000000,4.000000,4.000000,4.000000,100.000000,,,,,,,,,,,,,,,,,,,,,,,,,,,,
1703402447.308741,1703402447.309617,118.000000,0.000000,4078.333252,4178.717773,4208.205078,4174.358887,4166.410156,4168.717773,4229.102539,4171.282227,4159.358887,4125.000000,4428.974121,4394.743652,4282.307617,4392.307617,5808.000000,4.000000,92.000000,,,,0.000000,4.000000,4.000000,4.000000,4.000000,4.000000,4.000000,4.000000,4.000000,4.000000,4.000000,4.000000,4.000000,4.000000,4.000000,100.000000,,,,,,,,,,,,,,,,,,,,,,,,,,,,
1703402447.316549,1703402447.317425,119.000000,0.000000,4089.871826,4187.436035,4223.846191,4182.820313,4175.256348,4170.256348,4234.615234,4183.717773,4171.410156,4125.641113,4430.641113,4402.051270,4285.641113,4403.205078,6130.000000,4.000000,92.000000,,,,0.000000,4.000000,4.000000,4.000000,4.000000,4.000000,4.000000,4.000000,4.000000,4.000000,4.000000,4.000000,4.000000,4.000000,4.000000,100.000000,,,,,,,,,,,,,,,,,,,,,,,,,,,,
1703402447.324357,1703402447.325133,120.000000,0.000000,4095.256348,4187.563965,4220.641113,4185.512695,4176.025879,4170.256348,4234.743652,4185.000000,4167.948730,4127.051270,4414.615234,4393.717773,4280.769043,4396.922852,6588.000000,4.000000,92.000000,,,,0.000000,4.000000,4.000000,4.000000,4.000000,4.000000,4.000000,4.000000,4.000000,4.000000,4.000000,4.000000,4.000000,4.000000,4.000000,100.000000,,,,,,,,,,,,,,,,,30.000000,0.000000,0.681592,-0.080994,-0.695190,0.213501,0.909291,-0.402881,0.024417,-30.920729,-8.161133,76.162483
1703402447.332165,1703402447.332941,121.000000,0.000000,4085.897461,4183.974121,4211.794922,4178.077148,4169.102539,4168.846191,4232.563965,4180.512695,4161.282227,4122.948730,4400.641113,4388.846191,4275.512695,4385.512695,6025.000000,4.000000,92.000000,,,,0.000000,4.000000,4.000000,4.000000,4.000000,4.000000,4.000000,4.000000,4.000000,4.000000,4.000000,4.000000,4.000000,4.000000,4.000000,100.000000,,,,,,,,,,,,,,,,,,,,,,,,,,,,
1703402447.339973,1703402447.340649,122.000000,0.000000,4082.692383,4184.358887,4215.641113,4171.794922,4168.974121,4172.948730,4231.922852,4181.794922,4164.230957,4120.641113,4397.051270,4396.666504,4275.000000,4384.743652,5808.000000,4.000000,92.000000,,,,0.000000,4.000000,4.000000,4.000000,4.000000,4.000000,4.000000,4.000000,4.000000,4.000000,4.000000,4.000000,4.000000,4.000000,4.000000,100.000000,,,,,,,,,,,,,,,,,,,,,,,,,,,,
1703402447.347781,1703402447.348457,123.000000,0.000000,4087.051270,4184.487305,4223.974121,4177.948730,4171.153809,4178.717773,4234.615234,4189.358887,4171.666504,4132.307617,4402.692383,4404.102539,4279.102539,4388.461426,6130.000000,4.000000,92.000000,,,,0.000000,4.000000,4.000000,4.000000,4.000000,4.000000,4.000000,4.000000,4.000000,4.000000,4.000000,4.000000,4.000000,4.000000,4.000000,100.000000,,,,,,,,,,,,,,,,,,,,,,,,,,,,
1703402447.355589,1703402447.356165,124.000000,0.000000,4085.897461,4185.128418,4225.512695,4180.641113,4169.871582,4174.871582,4234.743652,4195.000000,4171.410156,4140.512695,4406.153809,4405.256348,4279.358887,4386.153809,6588.000000,4.000000,92.000000,,,,0.000000,4.000000,4.000000,4.000000,4.000000,4.000000,4.000000,4.000000,4.000000,4.000000,4.000000,4.000000,4.000000,4.000000,4.000000,100.000000,,,,,,,,,,,,,,,,,31.000000,0.000000,0.681637,-0.080933,-0.695190,0.213379,0.896105,-0.399951,0.028812,-30.661989,-8.295020,76.029572
1703402447.363397,1703402447.363973,125.000000,0.000000,4084.871826,4183.461426,4220.897461,4175.641113,4165.000000,4167.692383,4233.461426,4195.641113,4168.846191,4133.717773,4406.282227,4406.410156,4278.717773,4387.051270,6025.000000,4.000000,92.000000,,,,0.000000,4.000000,4.000000,4.000000,4.000000,4.000000,4.000000,4.000000,4.000000,4.000000,4.000000,4.000000,4.000000,4.000000,4.000000,100.000000,,,,,,,,,,,,,,,,,,,,,,,,,,,,
1703402447.371205,1703402447.371681,126.000000,0.000000,4085.512939,4175.128418,4217.563965,4172.563965,4158.974121,4168.205078,4229.743652,4197.307617,4177.948730,4130.641113,4405.769043,4408.205078,4279.487305,4392.179688,5808.000000,4.000000,92.000000,,,,0.000000,4.000000,4.000000,4.000000,4.000000,4.000000,4.000000,4.000000,4.000000,4.000000,4.000000,4.000000,4.000000,4.000000,4.000000,100.000000,,,,,,,,,,,,,,,,,,,,,,,,,,,,
1703402447.379013,1703402447.379489,127.000000,0.000000,4080.128174,4168.846191,4219.358887,4173.205078,4155.897461,4168.589844,4225.641113,4202.307617,4184.358887,4138.974121,4400.641113,4407.179688,4279.743652,4389.615234,92.000000,4.000000,92.000000,,,,0.000000,4.000000,4.000000,4.000000,4.000000,4.000000,4.000000,4.000000,4.000000,4.000000,4.000000,4.000000,4.000000,4.000000,4.000000,100.000000,,,,,,,,,,,,,,,,,,,,,,,,,,,,
1703402447.386821,1703402447.387197,0.000000,0.000000,4076.025635,4170.128418,4222.820313,4173.974121,4156.153809,4162.051270,4222.948730,4201.794922,4180.512695,4141.025879,4398.717773,4405.256348,4282.307617,4385.641113,5143.000000,4.000000,92.000000,,,,0.000000,4.000000,4.000000,4.000000,4.000000,4.000000,4.000000,4.000000,4.000000,4.000000,4.000000,4.000000,4.000000,4.000000,4.000000,100.000000,1.000000,91.666664,4.000000,4.000000,4.000000,4.000000,4.000000,4.000000,4.000000,4.000000,4.000000,4.000000,3.000000,4.000000,4.000000,4.000000,0.000000,0.000000,0.681599,-0.080933,-0.695190,0.213501,0.896594,-0.408253,0.022464,-30.679125,-8.315517,75.976616
1703402447.394629,1703402447.395005,1.000000,0.000000,4079.358887,4171.410156,4217.820313,4172.820313,4159.615234,4159.871582,4222.948730,4197.948730,4177.307617,4136.794922,4396.410156,4404.871582,4282.307617,4386.025879,4652.000000,4.000000,92.000000,,,,0.000000,4.000000,4.000000,4.000000,4.000000,4.000000,4.000000,4.000000,4.000000,4.000000,4.000000,4.000000,4.000000,4.000000,4.000000,100.000000,,,,,,,,,,,,,,,,,,,,,,,,,,,,
1703402447.402437,1703402447.402713,2.000000,0.000000,4079.743652,4169.871582,4212.051270,4174.871582,4163.717773,4163.589844,4224.230957,4200.512695,4174.615234,4136.025879,4389.358887,4405.000000,4279.102539,4388.589844,5101.000000,4.000000,92.000000,,,,0.000000,4.000000,4.000000,4.000000,4.000000,4.000000,4.000000,4.000000,4.000000,4.000000,4.000000,4.000000,4.000000,4.000000,4.000000,100.000000,,,,,,,,,,,,,,,,,,,,,,,,,,,,
1703402447.410245,1703402447.410621,3.000000,0.000000,4072.435791,4166.025879,4211.922852,4175.256348,4161.282227,4161.025879,4222.948730,4199.102539,4169.487305,4130.897461,4385.512695,4402.179688,4278.974121,4386.794922,5220.000000,4.000000,92.000000,,,,0.000000,4.000000,4.000000,4.000000,4.000000,4.000000,4.000000,4.000000,4.000000,4.000000,4.000000,4.000000,4.000000,4.000000,4.000000,100.000000,,,,,,,,,,,,,,,,,,,,,,,,,,,,
1703402447.418053,1703402447.418429,4.000000,0.000000,4067.820557,4160.384766,4210.128418,4176.153809,4153.077148,4152.948730,4219.230957,4189.358887,4165.641113,4122.820313,4383.846191,4399.102539,4275.128418,4379.615234,4993.000000,4.000000,92.000000,,,,0.000000,4.000000,4.000000,4.000000,4.000000,4.000000,4.000000,4.000000,4.000000,4.000000,4.000000,4.000000,4.000000,4.000000,4.000000,100.000000,,,,,,,,,,,,,,,,,1.000000,0.000000,0.681427,-0.081177,-0.695313,0.213562,0.909291,-0.417531,0.023440,-30.527878,-8.233966,75.912285
1703402447.425861,1703402447.426337,5.000000,0.000000,4071.281982,4156.922852,4208.974121,4180.128418,4146.153809,4151.922852,4216.282227,4186.153809,4162.692383,4125.512695,4376.153809,4403.589844,4267.179688,4380.000000,5040.000000,4.000000,92.000000,,,,0.000000,4.000000,4.000000,4.000000,4.000000,4.000000,4.000000,4.000000,4.000000,4.000000,4.000000,4.000000,4.000000,4.000000,4.000000,100.000000,,,,,,,,,,,,,,,,,,,,,,,,,,,,
1703402447.433669,1703402447.434145,6.000000,0.000000,4073.461426,4156.282227,4210.384766,4180.512695,4146.025879,4156.666504,4217.307617,4190.769043,4158.333496,4132.051270,4364.230957,4408.333496,4259.358887,4379.615234,3216.000000,4.000000,92.000000,,,,0.000000,4.000000,4.000000,4.000000,4.000000,4.000000,4.000000,4.000000,4.000000,4.000000,4.000000,4.000000,4.000000,4.000000,4.000000,100.000000,,,,,,,,,,,,,,,,,,,,,,,,,,,,
1703402447.441478,1703402447.442053,7.000000,0.000000,4063.974365,4151.922852,4203.974121,4178.846191,4151.538574,4155.512695,4217.820313,4189.743652,4155.512695,4127.692383,4354.487305,4397.436035,4249.615234,4365.512695,5170.000000,4.000000,92.000000,,,,0.000000,4.000000,4.000000,4.000000,4.000000,4.000000,4.000000,4.000000,4.000000,4.000000,4.000000,4.000000,4.000000,4.000000,4.000000,100.000000,,,,,,,,,,,,,,,,,,,,,,,,,,,,
1703402447.449286,1703402447.449861,8.000000,0.000000,4054.102539,4150.256348,4194.102539,4180.384766,4155.128418,4152.692383,4216.153809,4184.743652,4156.282227,4119.743652,4348.846191,4384.615234,4244.871582,4354.871582,5210.000000,4.000000,92.000000,,,,0.000000,4.000000,4.000000,4.000000,4.000000,4.000000,4.000000,4.000000,4.000000,4.000000,4.000000,4.000000,4.000000,4.000000,4.000000,100.000000,,,,,,,,,,,,,,,,,2.000000,0.000000,0.681342,-0.081360,-0.695374,0.213562,0.879014,-0.414601,0.018069,-30.375090,-8.310570,75.871056
1703402447.457094,1703402447.457768,9.000000,0.000000,4063.333252,4158.077148,4194.871582,4184.487305,4154.743652,4159.487305,4220.000000,4186.282227,4165.512695,4129.615234,4350.512695,4388.846191,4250.000000,4362.820313,5105.000000,4.000000,92.000000,,,,0.000000,4.000000,4.000000,4.000000,4.000000,4.000000,4.000000,4.000000,4.000000,4.000000,4.000000,4.000000,4.000000,4.000000,4.000000,100.000000,,,,,,,,,,,,,,,,,,,,,,,,,,,,
1703402447.464902,1703402447.465576,10.000000,0.000000,4078.333252,4162.307617,4197.692383,4188.461426,4156.025879,4166.025879,4222.948730,4188.461426,4168.333496,4139.871582,4348.461426,4393.205078,4251.025879,4363.717773,5808.000000,4.000000,92.000000,,,,0.000000,4.000000,4.000000,4.000000,4.000000,4.000000,4.000000,4.000000,4.000000,4.000000,4.000000,4.000000,4.000000,4.000000,4.000000,100.000000,,,,,,,,,,,,,,,,,,,,,,,,,,,,
1703402447.472710,1703402447.473484,11.000000,0.000000,4073.461426,4163.589844,4193.846191,4193.846191,4158.589844,4165.769043,4220.000000,4181.538574,4156.410156,4127.948730,4341.410156,4387.179688,4246.794922,4353.846191,6133.000000,4.000000,92.000000,,,,0.000000,4.000000,4.000000,4.000000,4.000000,4.000000,4.000000,4.000000,4.000000,4.000000,4.000000,4.000000,4.000000,4.000000,4.000000,100.000000,,,,,,,,,,,,,,,,,,,,,,,,,,,,
1703402447.480518,1703402447.481292,12.000000,0.000000,4063.846191,4165.384766,4194.487305,4194.358887,4162.948730,4167.436035,4215.769043,4174.102539,4153.846191,4119.230957,4338.589844,4384.615234,4245.512695,4354.358887,6609.000000,4.000000,92.000000,,,,0.000000,4.000000,4.000000,4.000000,4.000000,4.000000,4.000000,4.000000,4.000000,4.000000,4.000000,4.000000,4.000000,4.000000,4.000000,100.000000,,,,,,,,,,,,,,,,,3.000000,0.000000,0.681304,-0.081360,-0.695374,0.213684,0.899524,-0.423880,0.020510,-30.387581,-8.396179,75.900620
1703402447.488326,1703402447.489000,13.000000,0.000000,4070.641113,4161.794922,4199.230957,4191.538574,4165.000000,4166.538574,4216.410156,4169.487305,4159.102539,4125.512695,4332.051270,4386.922852,4237.820313,4356.025879,6030.000000,4.000000,92.000000,,,,0.000000,4.000000,4.000000,4.000000,4.000000,4.000000,4.000000,4.000000,4.000000,4.000000,4.000000,4.000000,4.000000,4.000000,4.000000,100.000000,,,,,,,,,,,,,,,,,,,,,,,,,,,,
1703402447.496134,1703402447.496808,14.000000,0.000000,4081.923096,4161.025879,4198.846191,4197.436035,4162.179688,4163.077148,4216.410156,4168.333496,4156.410156,4126.922852,4321.922852,4387.692383,4230.512695,4355.000000,5808.000000,4.000000,92.000000,,,,0.000000,4.000000,4.000000,4.000000,4.000000,4.000000,4.000000,4.000000,4.000000,4.000000,4.000000,4.000000,4.000000,4.000000,4.000000,100.000000,,,,,,,,,,,,,,,,,,,,,,,,,,,,
1703402447.503942,1703402447.504516,15.000000,0.000000,4083.333252,4167.948730,4197.692383,4203.205078,4159.743652,4164.487305,4216.410156,4176.794922,4154.871582,4124.615234,4321.282227,4392.692383,4234.615234,4364.102539,6133.000000,4.000000,92.000000,,,,0.000000,4.000000,4.000000,4.000000,4.000000,4.000000,4.000000,4.000000,4.000000,4.000000,4.000000,4.000000,4.000000,4.000000,4.000000,100.000000,,,,,,,,,,,,,,,,,,,,,,,,,,,,
1703402447.511750,1703402447.512324,16.000000,0.000000,4077.820557,4165.897461,4197.436035,4202.436035,4158.717773,4163.333496,4217.692383,4183.717773,4159.615234,4125.128418,4320.769043,4397.692383,4233.461426,4368.589844,0.000000,4.000000,92.000000,,,,0.000000,4.000000,4.000000,4.000000,4.000000,4.000000,4.000000,4.000000,4.000000,4.000000,4.000000,4.000000,4.000000,4.000000,4.000000,100.000000,,,,,,,,,,,,,,,,,4.000000,0.000000,0.681278,-0.081421,-0.695374,0.213745,0.900501,-0.414601,0.019045,-30.265490,-8.423228,76.010559
1703402447.519558,1703402447.520032,17.000000,0.000000,4075.128174,4155.384766,4198.974121,4202.051270,4157.051270,4155.897461,4216.538574,4183.461426,4166.025879,4124.487305,4312.051270,4396.538574,4227.051270,4361.410156,0.000000,4.000000,92.000000,,,,0.000000,4.000000,4.000000,4.000000,4.000000,4.000000,4.000000,4.000000,4.000000,4.000000,4.000000,4.000000,4.000000,4.000000,4.000000,100.000000,,,,,,,,,,,,,,,,,,,,,,,,,,,,
1703402447.527366,1703402447.527840,18.000000,0.000000,4079.871826,4155.641113,4205.512695,4202.436035,4156.153809,4153.974121,4215.512695,4191.025879,4171.025879,4127.563965,4310.512695,4397.948730,4229.743652,4359.487305,0.000000,4.000000,92.000000,,,,0.000000,4.000000,4.000000,4.000000,4.000000,4.000000,4.000000,4.000000,4.000000,4.000000,4.000000,4.000000,4.000000,4.000000,4.000000,100.000000,,,,,,,,,,,,,,,,,,,,,,,,,,,,
1703402447.535174,1703402447.535548,19.000000,0.000000,4076.794922,4158.589844,4208.589844,4202.307617,4153.717773,4155.000000,4218.589844,4198.333496,4172.692383,4136.666504,4311.410156,4401.282227,4232.820313,4361.282227,0.000000,4.000000,92.000000,,,,0.000000,4.000000,4.000000,4.000000,4.000000,4.000000,4.000000,4.000000,4.000000,4.000000,4.000000,4.000000,4.000000,4.000000,4.000000,100.000000,,,,,,,,,,,,,,,,,,,,,,,,,,,,
1703402447.542982,1703402447.543356,20.000000,0.000000,4067.564209,4149.358887,4200.641113,4197.820313,4151.922852,4153.846191,4218.205078,4191.153809,4168.589844,4139.487305,4297.820313,4397.563965,4224.615234,4352.820313,0.000000,4.000000,92.000000,,,,0.000000,4.000000,4.000000,4.000000,4.000000,4.000000,4.000000,4.000000,4.000000,4.000000,4.000000,4.000000,4.000000,4.000000,4.000000,100.000000,,,,,,,,,,,,,,,,,5.000000,0.000000,0.681196,-0.081421,-0.695435,0.213806,0.893175,-0.417531,0.022464,-30.272274,-8.397572,75.959503
1703402447.550790,1703402447.551065,21.000000,0.000000,4065.769287,4138.717773,4187.948730,4187.948730,4156.410156,4156.666504,4215.897461,4182.692383,4162.051270,4129.487305,4281.666504,4388.333496,4215.256348,4338.333496,0.000000,4.000000,92.000000,,,,0.000000,4.000000,4.000000,4.000000,4.000000,4.000000,4.000000,4.000000,4.000000,4.000000,4.000000,4.000000,4.000000,4.000000,4.000000,100.000000,,,,,,,,,,,,,,,,,,,,,,,,,,,,
1703402447.558598,1703402447.558873,22.000000,0.000000,4066.666748,4141.025879,4183.717773,4185.512695,4158.077148,4158.333496,4217.563965,4180.897461,4158.205078,4117.307617,4271.922852,4382.820313,4209.871582,4328.461426,0.000000,4.000000,92.000000,,,,0.000000,4.000000,4.000000,4.000000,4.000000,4.000000,4.000000,4.000000,4.000000,4.000000,4.000000,4.000000,4.000000,4.000000,4.000000,100.000000,,,,,,,,,,,,,,,,,,,,,,,,,,,,
1703402447.566406,1703402447.566581,23.000000,0.000000,4069.358887,4151.922852,4187.307617,4189.871582,4157.692383,4159.230957,4217.563965,4185.256348,4166.153809,4121.666504,4270.897461,4385.897461,4210.128418,4331.794922,0.000000,4.000000,92.000000,,,,0.000000,4.000000,4.000000,4.000000,4.000000,4.000000,4.000000,4.000000,4.000000,4.000000,4.000000,4.000000,4.000000,4.000000,4.000000,100.000000,,,,,,,,,,,,,,,,,,,,,,,,,,,,
1703402447.574215,1703402447.574389,24.000000,0.000000,4073.846191,4154.871582,4189.615234,4190.384766,4159.615234,4164.230957,4217.179688,4197.692383,4180.000000,4136.922852,4281.538574,4395.512695,4216.794922,4344.487305,0.000000,4.000000,92.000000,,,,0.000000,4.000000,4.000000,4.000000,4.000000,4.000000,4.000000,4.000000,4.000000,4.000000,4.000000,4.000000,4.000000,4.000000,4.000000,100.000000,,,,,,,,,,,,,,,,,6.000000,0.000000,0.681230,-0.081299,-0.695435,0.213745,0.889757,-0.402881,0.024417,-30.228380,-8.324481,75.913551
1703402447.582023,1703402447.582097,25.000000,0.000000,4070.256348,4151.410156,4186.410156,4187.948730,4159.230957,4166.794922,4219.487305,4202.948730,4179.615234,4141.666504,4283.333496,4399.615234,4220.256348,4348.717773,0.000000,4.000000,92.000000,,,,0.000000,4.000000,4.000000,4.000000,4.000000,4.000000,4.000000,4.000000,4.000000,4.000000,4.000000,4.000000,4.000000,4.000000,4.000000,100.000000,,,,,,,,,,,,,,,,,,,,,,,,,,,,
1703402447.589831,1703402447.589905,26.000000,0.000000,4063.589844,4152.436035,4180.128418,4187.563965,4158.077148,4162.692383,4217.051270,4199.102539,4177.820313,4140.256348,4267.051270,4395.000000,4217.820313,4344.871582,0.000000,4.000000,92.000000,,,,0.000000,4.000000,4.000000,4.000000,4.000000,4.000000,4.000000,4.000000,4.000000,4.000000,4.000000,4.000000,4.000000,4.000000,4.000000,100.000000,,,,,,,,,,,,,,,,,,,,,,,,,,,,
1703402447.597639,1703402447.597613,27.000000,0.000000,4067.820557,4152.179688,4176.922852,4186.666504,4163.205078,4158.077148,4213.974121,4200.897461,4182.820313,4142.948730,4261.794922,4395.769043,4218.717773,4343.333496,0.000000,4.000000,92.000000,,,,0.000000,4.000000,4.000000,4.000000,4.000000,4.000000,4.000000,4.000000,4.000000,4.000000,4.000000,4.000000,4.000000,4.000000,4.000000,100.000000,,,,,,,,,,,,,,,,,,,,,,,,,,,,
1703402447.605447,1703402447.605521,28.000000,0.000000,4070.384521,4148.077148,4178.461426,4186.410156,4164.743652,4156.153809,4215.256348,4196.538574,4178.205078,4143.333496,4265.256348,4400.256348,4222.820313,4341.025879,0.000000,4.000000,92.000000,,,,0.000000,4.000000,4.000000,4.000000,4.000000,4.000000,4.000000,4.000000,4.000000,4.000000,4.000000,4.000000,4.000000,4.000000,4.000000,100.000000,,,,,,,,,,,,,,,,,7.000000,0.000000,0.681259,-0.081421,-0.695374,0.213806,0.905872,-0.411183,0.013674,-30.405542,-8.258699,75.905533
1703402447.613255,1703402447.613329,29.000000,0.000000,4064.487061,4150.769043,4182.692383,4189.230957,4157.692383,4153.846191,4211.282227,4185.384766,4171.282227,4138.077148,4253.077148,4398.846191,4221.025879,4338.717773,0.000000,4.000000,92.000000,,,,0.000000,4.000000,4.000000,4.000000,4.000000,4.000000,4.000000,4.000000,4.000000,4.000000,4.000000,4.000000,4.000000,4.000000,4.000000,100.000000,,,,,,,,,,,,,,,,,,,,,,,,,,,,
1703402447.621063,1703402447.621236,30.000000,0.000000,4063.205078,4149.743652,4179.871582,4188.589844,4152.051270,4150.641113,4206.282227,4183.846191,4168.077148,4128.717773,4234.615234,4392.692383,4208.589844,4330.128418,0.000000,4.000000,92.000000,,,,0.000000,4.000000,4.000000,4.000000,4.000000,4.000000,4.000000,4.000000,4.000000,4.000000,4.000000,4.000000,4.000000,4.000000,4.000000,100.000000,,,,,,,,,,,,,,,,,,,,,,,,,,,,
1703402447.628871,1703402447.629044,31.000000,0.000000,4062.307617,4138.974121,4169.871582,4183.717773,4152.307617,4153.589844,4211.538574,4183.461426,4162.692383,4120.641113,4218.589844,4386.410156,4190.641113,4315.256348,0.000000,4.000000,92.000000,,,,0.000000,4.000000,4.000000,4.000000,4.000000,4.000000,4.000000,4.000000,4.000000,4.000000,4.000000,4.000000,4.000000,4.000000,4.000000,100.000000,,,,,,,,,,,,,,,,,,,,,,,,,,,,
1703402447.636679,1703402447.636952,32.000000,0.000000,4058.205078,4135.256348,4166.410156,4183.205078,4160.000000,4162.820313,4217.436035,4180.641113,4159.230957,4120.384766,4206.025879,4381.538574,4180.769043,4308.717773,0.000000,4.000000,92.000000,,,,0.000000,4.000000,4.000000,4.000000,4.000000,4.000000,4.000000,4.000000,4.000000,4.000000,4.000000,4.000000,4.000000,4.000000,4.000000,100.000000,,,,,,,,,,,,,,,,,8.000000,0.000000,0.681283,-0.081421,-0.695313,0.213928,0.894152,-0.407765,0.024417,-30.548321,-8.266163,76.048309
1703402447.644487,1703402447.644760,33.000000,0.000000,4051.410156,4134.743652,4165.769043,4181.794922,4165.128418,4165.641113,4216.282227,4182.692383,4160.128418,4122.563965,4197.692383,4378.846191,4175.641113,4304.743652,0.000000,4.000000,92.000000,,,,0.000000,4.000000,4.000000,4.000000,4.000000,4.000000,4.000000,4.000000,4.000000,4.000000,4.000000,4.000000,4.000000,4.000000,4.000000,100.000000,,,,,,,,,,,,,,,,,,,,,,,,,,,,
1703402447.652295,1703402447.652668,34.000000,0.000000,4045.769287,4129.358887,4161.410156,4173.717773,4160.769043,4163.846191,4215.641113,4183.205078,4155.384766,4122.307617,4189.102539,4378.205078,4168.077148,4294.615234,0.000000,4.000000,92.000000,,,,0.000000,4.000000,4.000000,4.000000,4.000000,4.000000,4.000000,4.000000,4.000000,4.000000,4.000000,4.000000,4.000000,4.000000,4.000000,100.000000,,,,,,,,,,,,,,,,,,,,,,,,,,,,
1703402447.660103,1703402447.660476,35.000000,0.000000,4048.718018,4131.794922,4161.666504,4169.487305,4161.282227,4161.666504,4215.897461,4180.128418,4154.230957,4120.128418,4187.307617,4375.384766,4172.436035,4297.307617,0.000000,4.000000,92.000000,,,,0.000000,4.000000,4.000000,4.000000,4.000000,4.000000,4.000000,4.000000,4.000000,4.000000,4.000000,4.000000,4.000000,4.000000,4.000000,100.000000,,,,,,,,,,,,,,,,,,,,,,,,,,,,
1703402447.667911,1703402447.668384,36.000000,0.000000,4057.564209,4141.538574,4165.897461,4172.179688,4169.743652,4158.974121,4215.641113,4181.025879,4159.487305,4122.179688,4193.333496,4375.000000,4184.615234,4307.948730,0.000000,4.000000,92.000000,,,,0.000000,4.000000,4.000000,4.000000,4.000000,4.000000,4.000000,4.000000,4.000000,4.000000,4.000000,4.000000,4.000000,4.000000,4.000000,100.000000,,,,,,,,,,,,,,,,,9.000000,0.000000,0.681247,-0.081360,-0.695374,0.213867,0.906361,-0.416555,0.029789,-30.676823,-8.189547,76.060143
1703402447.675719,1703402447.676192,37.000000,0.000000,4060.512939,4145.897461,4164.615234,4172.179688,4170.641113,4160.641113,4216.794922,4182.563965,4161.153809,4131.025879,4195.512695,4379.871582,4188.717773,4302.436035,0.000000,4.000000,92.000000,,,,0.000000,4.000000,4.000000,4.000000,4.000000,4.000000,4.000000,4.000000,4.000000,4.000000,4.000000,4.000000,4.000000,4.000000,4.000000,100.000000,,,,,,,,,,,,,,,,,,,,,,,,,,,,
1703402447.683527,1703402447.684100,38.000000,0.000000,4062.307617,4150.769043,4165.641113,4171.410156,4167.692383,4167.051270,4216.922852,4182.692383,4165.000000,4138.205078,4197.179688,4385.384766,4191.410156,4298.974121,0.000000,4.000000,92.000000,,,,0.000000,4.000000,4.000000,4.000000,4.000000,4.000000,4.000000,4.000000,4.000000,4.000000,4.000000,4.000000,4.000000,4.000000,4.000000,100.000000,,,,,,,,,,,,,,,,,,,,,,,,,,,,
1703402447.691335,1703402447.691908,39.000000,0.000000,4071.025635,4156.922852,4173.205078,4172.820313,4172.436035,4170.512695,4217.563965,4185.000000,4170.512695,4140.512695,4200.897461,4389.230957,4195.256348,4310.897461,0.000000,4.000000,92.000000,,,,0.000000,4.000000,4.000000,4.000000,4.000000,4.000000,4.000000,4.000000,4.000000,4.000000,4.000000,4.000000,4.000000,4.000000,4.000000,100.000000,,,,,,,,,,,,,,,,,,,,,,,,,,,,
1703402447.699143,1703402447.699616,40.000000,0.000000,4072.051270,4153.589844,4172.692383,4172.820313,4167.820313,4163.846191,4217.563965,4183.846191,4171.153809,4138.717773,4192.436035,4387.820313,4190.769043,4313.846191,0.000000,4.000000,92.000000,,,,0.000000,4.000000,4.000000,4.000000,4.000000,4.000000,4.000000,4.000000,4.000000,4.000000,4.000000,4.000000,4.000000,4.000000,4.000000,100.000000,,,,,,,,,,,,,,,,,10.000000,0.000000,0.681232,-0.081482,-0.695374,0.213867,0.904407,-0.415578,0.022952,-30.692474,-8.220592,75.954132
1703402447.706952,1703402447.707424,41.000000,0.000000,4058.461426,4144.230957,4165.769043,4172.307617,4157.436035,4155.897461,4214.871582,4180.128418,4165.128418,4129.230957,4176.666504,4380.641113,4178.461426,4303.205078,0.000000,4.000000,92.000000,,,,0.000000,4.000000,4.000000,4.000000,4.000000,4.000000,4.000000,4.000000,4.000000,4.000000,4.000000,4.000000,4.000000,4.000000,4.000000,100.000000,,,,,,,,,,,,,,,,,,,,,,,,,,,,
1703402447.714759,1703402447.715132,42.000000,0.000000,4046.281982,4137.051270,4163.205078,4170.512695,4161.025879,4156.538574,4213.077148,4180.641113,4157.948730,4120.641113,4165.000000,4374.871582,4168.205078,4292.692383,0.000000,4.000000,92.000000,,,,0.000000,4.000000,4.000000,4.000000,4.000000,4.000000,4.000000,4.000000,4.000000,4.000000,4.000000,4.000000,4.000000,4.000000,4.000000,100.000000,,,,,,,,,,,,,,,,,,,,,,,,,,,,
1703402447.722567,1703402447.723040,43.000000,0.000000,4046.153809,4138.205078,4162.179688,4168.077148,4165.256348,4160.384766,4215.128418,4184.230957,4158.717773,4123.846191,4158.461426,4377.179688,4166.538574,4289.487305,0.000000,4.000000,92.000000,,,,0.000000,4.000000,4.000000,4.000000,4.000000,4.000000,4.000000,4.000000,4.000000,4.000000,4.000000,4.000000,4.000000,4.000000,4.000000,100.000000,,,,,,,,,,,,,,,,,,,,,,,,,,,,
1703402447.730376,1703402447.730848,44.000000,0.000000,4041.923096,4140.000000,4157.307617,4167.948730,4161.153809,4164.230957,4217.179688,4185.128418,4160.641113,4128.846191,4154.615234,4376.922852,4168.461426,4287.179688,0.000000,4.000000,92.000000,,,,0.000000,4.000000,4.000000,4.000000,4.000000,4.000000,4.000000,4.000000,4.000000,4.000000,4.000000,4.000000,4.000000,4.000000,4.000000,100.000000,,,,,,,,,,,,,,,,,11.000000,0.000000,0.681213,-0.081604,-0.695435,0.213684,0.897570,-0.403858,0.020022,-30.723227,-8.231866,75.808716
1703402447.738184,1703402447.738756,45.000000,0.000000,4026.923096,4136.666504,4151.666504,4168.589844,4161.922852,4163.333496,4216.538574,4179.230957,4157.051270,4126.153809,4141.666504,4366.025879,4160.897461,4285.000000,0.000000,4.000000,92.000000,,,,0.000000,4.000000,4.000000,4.000000,4.000000,4.000000,4.000000,4.000000,4.000000,4.000000,4.000000,4.000000,4.000000,4.000000,4.000000,100.000000,,,,,,,,,,,,,,,,,,,,,,,,,,,,
1703402447.745992,1703402447.746564,46.000000,0.000000,4019.102539,4133.974121,4148.589844,4166.922852,4168.974121,4157.179688,4216.794922,4174.743652,4152.820313,4118.205078,4122.563965,4355.128418,4145.000000,4277.692383,0.000000,4.000000,92.000000,,,,0.000000,4.000000,4.000000,4.000000,4.000000,4.000000,4.000000,4.000000,4.000000,4.000000,4.000000,4.000000,4.000000,4.000000,4.000000,100.000000,,,,,,,,,,,,,,,,,,,,,,,,,,,,
1703402447.753800,1703402447.754473,47.000000,0.000000,4027.564209,4134.358887,4148.077148,4161.282227,4170.000000,4159.615234,4218.077148,4178.333496,4153.077148,4113.717773,4116.410156,4351.410156,4139.871582,4267.436035,0.000000,4.000000,92.000000,,,,0.000000,4.000000,4.000000,4.000000,4.000000,4.000000,4.000000,4.000000,4.000000,4.000000,4.000000,4.000000,4.000000,4.000000,4.000000,100.000000,,,,,,,,,,,,,,,,,,,,,,,,,,,,
1703402447.761608,1703402447.762381,48.000000,0.000000,4037.179443,4136.025879,4149.615234,4153.974121,4163.589844,4167.051270,4216.666504,4186.922852,4161.282227,4120.641113,4121.794922,4355.897461,4146.410156,4269.358887,0.000000,4.000000,92.000000,,,,0.000000,4.000000,4.000000,4.000000,4.000000,4.000000,4.000000,4.000000,4.000000,4.000000,4.000000,4.000000,4.000000,4.000000,4.000000,100.000000,,,,,,,,,,,,,,,,,12.000000,0.000000,0.681232,-0.081604,-0.695435,0.213623,0.917104,-0.408253,0.025882,-30.767570,-8.392013,75.944511
1703402447.769416,1703402447.770189,49.000000,0.000000,4033.076904,4135.512695,4147.820313,4152.436035,4154.871582,4160.897461,4215.000000,4190.256348,4168.846191,4123.974121,4125.000000,4362.436035,4152.948730,4275.256348,0.000000,4.000000,92.000000,,,,0.000000,4.000000,4.000000,4.000000,4.000000,4.000000,4.000000,4.000000,4.000000,4.000000,4.000000,4.000000,4.000000,4.000000,4.000000,100.000000,,,,,,,,,,,,,,,,,,,,,,,,,,,,
1703402447.777224,1703402447.777997,50.000000,0.000000,4025.897461,4137.179688,4145.000000,4155.769043,4153.846191,4155.897461,4217.820313,4190.512695,4168.974121,4122.051270,4125.512695,4362.436035,4153.461426,4269.615234,0.000000,4.000000,92.000000,,,,0.000000,4.000000,4.000000,4.000000,4.000000,4.000000,4.000000,4.000000,4.000000,4.000000,4.000000,4.000000,4.000000,4.000000,4.000000,100.000000,,,,,,,,,,,,,,,,,,,,,,,,,,,,
1703402447.785032,1703402447.785905,51.000000,0.000000,4024.871826,4144.358887,4143.333496,4157.436035,4167.692383,4165.384766,4219.615234,4192.692383,4170.512695,4133.589844,4126.282227,4362.692383,4155.769043,4264.871582,0.000000,4.000000,92.000000,,,,0.000000,4.000000,4.000000,4.000000,4.000000,4.000000,4.000000,4.000000,4.000000,4.000000,4.000000,4.000000,4.000000,4.000000,4.000000,100.000000,,,,,,,,,,,,,,,,,,,,,,,,,,,,
1703402447.792840,1703402447.793713,52.000000,0.000000,4020.128174,4143.333496,4136.538574,4156.666504,4172.051270,4166.794922,4217.563965,4189.871582,4170.384766,4142.307617,4126.025879,4362.307617,4163.205078,4264.871582,0.000000,4.000000,92.000000,,,,0.000000,4.000000,4.000000,4.000000,4.000000,4.000000,4.000000,4.000000,4.000000,4.000000,4.000000,4.000000,4.000000,4.000000,4.000000,100.000000,,,,,,,,,,,,,,,,,13.000000,0.000000,0.681500,-0.081604,-0.695190,0.213562,0.888780,-0.393114,0.024417,-30.857479,-8.486145,75.850060
1703402447.800648,1703402447.801621,53.000000,0.000000,4008.846191,4136.538574,4130.641113,4153.077148,4163.205078,4162.948730,4217.051270,4183.077148,4158.589844,4131.153809,4128.333496,4356.922852,4166.410156,4256.153809,0.000000,4.000000,92.000000,,,,0.000000,4.000000,4.000000,4.000000,4.000000,4.000000,4.000000,4.000000,4.000000,4.000000,4.000000,4.000000,4.000000,4.000000,4.000000,100.000000,,,,,,,,,,,,,,,,,,,,,,,,,,,,
1703402447.808456,1703402447.809429,54.000000,0.000000,4011.025635,4144.487305,4132.692383,4152.307617,4167.051270,4169.871582,4219.102539,4181.666504,4153.589844,4132.692383,4140.897461,4358.077148,4174.871582,4255.384766,0.000000,4.000000,92.000000,,,,0.000000,4.000000,4.000000,4.000000,4.000000,4.000000,4.000000,4.000000,4.000000,4.000000,4.000000,4.000000,4.000000,4.000000,4.000000,100.000000,,,,,,,,,,,,,,,,,,,,,,,,,,,,
1703402447.816264,1703402447.817337,55.000000,0.000000,4019.871826,4156.153809,4133.846191,4156.025879,4176.410156,4172.307617,4220.000000,4184.487305,4161.025879,4146.410156,4157.820313,4362.820313,4190.641113,4265.897461,0.000000,4.000000,92.000000,,,,0.000000,4.000000,4.000000,4.000000,4.000000,4.000000,4.000000,4.000000,4.000000,4.000000,4.000000,4.000000,4.000000,4.000000,4.000000,100.000000,,,,,,,,,,,,,,,,,,,,,,,,,,,,
1703402447.824072,1703402447.825145,56.000000,0.000000,4019.743652,4155.128418,4135.384766,4157.307617,4175.000000,4170.256348,4218.205078,4184.358887,4162.307617,4147.179688,4166.794922,4357.563965,4199.358887,4263.333496,0.000000,4.000000,92.000000,,,,0.000000,4.000000,4.000000,4.000000,4.000000,4.000000,4.000000,4.000000,4.000000,4.000000,4.000000,4.000000,4.000000,4.000000,4.000000,100.000000,,,,,,,,,,,,,,,,,14.000000,0.000000,0.681605,-0.081726,-0.695129,0.213379,0.917592,-0.408253,0.024417,-30.921732,-8.504197,75.798386
1703402447.831880,1703402447.833052,57.000000,0.000000,4020.769287,4152.692383,4142.436035,4156.025879,4171.922852,4171.666504,4214.871582,4185.256348,4163.205078,4149.102539,4177.563965,4352.436035,4205.641113,4260.769043,0.000000,4.000000,92.000000,,,,0.000000,4.000000,4.000000,4.000000,4.000000,4.000000,4.000000,4.000000,4.000000,4.000000,4.000000,4.000000,4.000000,4.000000,4.000000,100.000000,,,,,,,,,,,,,,,,,,,,,,,,,,,,
1703402447.839688,1703402447.840860,58.000000,0.000000,4017.692383,4153.461426,4139.487305,4154.743652,4173.974121,4172.436035,4217.436035,4187.051270,4168.974121,4151.922852,4187.692383,4349.358887,4212.051270,4262.436035,0.000000,4.000000,92.000000,,,,0.000000,4.000000,4.000000,4.000000,4.000000,4.000000,4.000000,4.000000,4.000000,4.000000,4.000000,4.000000,4.000000,4.000000,4.000000,100.000000,,,,,,,,,,,,,,,,,,,,,,,,,,,,
1703402447.847496,1703402447.848668,59.000000,0.000000,4006.923096,4152.179688,4129.487305,4151.025879,4172.563965,4166.666504,4216.666504,4182.820313,4168.333496,4145.128418,4182.692383,4339.230957,4211.153809,4252.436035,0.000000,4.000000,92.000000,,,,0.000000,4.000000,4.000000,4.000000,4.000000,4.000000,4.000000,4.000000,4.000000,4.000000,4.000000,4.000000,4.000000,4.000000,4.000000,100.000000,,,,,,,,,,,,,,,,,,,,,,,,,,,,
1703402447.855304,1703402447.856476,60.000000,0.000000,4008.461426,4152.051270,4130.256348,4148.461426,4169.615234,4160.384766,4207.436035,4181.282227,4166.538574,4146.410156,4178.589844,4334.102539,4211.538574,4245.641113,0.000000,4.000000,92.000000,,,,0.000000,4.000000,4.000000,4.000000,4.000000,4.000000,4.000000,4.000000,4.000000,4.000000,4.000000,4.000000,4.000000,4.000000,4.000000,100.000000,,,,,,,,,,,,,,,,,15.000000,0.000000,0.681530,-0.082031,-0.695129,0.213501,0.907826,-0.416066,0.026859,-30.929558,-8.353778,75.951881
1703402447.863113,1703402447.864184,61.000000,0.000000,4021.281982,4153.717773,4135.897461,4150.897461,4171.025879,4164.102539,4207.692383,4185.256348,4169.487305,4157.051270,4191.153809,4336.538574,4225.128418,4255.000000,0.000000,4.000000,92.000000,,,,0.000000,4.000000,4.000000,4.000000,4.000000,4.000000,4.000000,4.000000,4.000000,4.000000,4.000000,4.000000,4.000000,4.000000,4.000000,100.000000,,,,,,,,,,,,,,,,,,,,,,,,,,,,
1703402447.870921,1703402447.872093,62.000000,0.000000,4026.153809,4156.666504,4138.333496,4154.871582,4170.256348,4170.128418,4213.717773,4187.051270,4172.563965,4159.358887,4203.461426,4336.922852,4234.102539,4262.179688,0.000000,4.000000,92.000000,,,,0.000000,4.000000,4.000000,4.000000,4.000000,4.000000,4.000000,4.000000,4.000000,4.000000,4.000000,4.000000,4.000000,4.000000,4.000000,100.000000,,,,,,,,,,,,,,,,,,,,,,,,,,,,
1703402447.878729,1703402447.879901,63.000000,0.000000,4023.846191,4160.000000,4137.179688,4156.025879,4168.461426,4170.512695,4212.692383,4184.487305,4169.230957,4151.666504,4203.974121,4332.563965,4231.410156,4254.743652,0.000000,4.000000,92.000000,,,,0.000000,4.000000,4.000000,4.000000,4.000000,4.000000,4.000000,4.000000,4.000000,4.000000,4.000000,4.000000,4.000000,4.000000,4.000000,100.000000,,,,,,,,,,,,,,,,,,,,,,,,,,,,
1703402447.886537,1703402447.887709,64.000000,0.000000,4021.410156,4155.641113,4134.102539,4152.051270,4170.512695,4168.333496,4212.436035,4184.487305,4161.794922,4143.077148,4201.410156,4328.974121,4231.538574,4247.436035,5158.000000,4.000000,92.000000,,,,0.000000,4.000000,4.000000,4.000000,4.000000,4.000000,4.000000,4.000000,4.000000,4.000000,4.000000,4.000000,4.000000,4.000000,4.000000,100.000000,1.000000,66.666664,4.000000,4.000000,3.000000,4.000000,4.000000,4.000000,4.000000,4.000000,4.000000,4.000000,1.000000,4.000000,4.000000,4.000000,16.000000,0.000000,0.681408,-0.082214,-0.695190,0.213623,0.903919,-0.402393,0.024905,-30.936604,-8.351733,76.006691
1703402447.894345,1703402447.895417,65.000000,0.000000,4018.974365,4153.333496,4132.436035,4149.743652,4171.538574,4167.692383,4214.871582,4182.436035,4160.769043,4138.077148,4200.897461,4327.051270,4234.358887,4252.051270,4665.000000,4.000000,92.000000,,,,0.000000,4.000000,4.000000,4.000000,4.000000,4.000000,4.000000,4.000000,4.000000,4.000000,4.000000,4.000000,4.000000,4.000000,4.000000,100.000000,,,,,,,,,,,,,,,,,,,,,,,,,,,,
1703402447.902153,1703402447.903225,66.000000,0.000000,4020.897461,4165.512695,4134.102539,4155.000000,4167.820313,4168.589844,4214.358887,4175.512695,4160.897461,4140.769043,4203.589844,4324.871582,4233.461426,4255.128418,5110.000000,4.000000,92.000000,,,,0.000000,4.000000,4.000000,4.000000,4.000000,4.000000,4.000000,4.000000,4.000000,4.000000,4.000000,4.000000,4.000000,4.000000,4.000000,100.000000,,,,,,,,,,,,,,,,,,,,,,,,,,,,
1703402447.909961,1703402447.910933,67.000000,0.000000,4026.153809,4171.410156,4132.436035,4158.974121,4169.871582,4168.846191,4216.025879,4175.384766,4156.794922,4148.077148,4202.436035,4323.077148,4231.410156,4249.230957,5230.000000,4.000000,92.000000,,,,0.000000,4.000000,4.000000,4.000000,4.000000,4.000000,4.000000,4.000000,4.000000,4.000000,4.000000,4.000000,4.000000,4.000000,4.000000,100.000000,,,,,,,,,,,,,,,,,,,,,,,,,,,,
1703402447.917769,1703402447.918741,68.000000,0.000000,4025.384521,4160.256348,4125.641113,4154.743652,4172.948730,4167.307617,4218.717773,4181.153809,4159.230957,4156.538574,4198.333496,4319.615234,4234.358887,4247.436035,5004.000000,4.000000,92.000000,,,,0.000000,4.000000,4.000000,4.000000,4.000000,4.000000,4.000000,4.000000,4.000000,4.000000,4.000000,4.000000,4.000000,4.000000,4.000000,100.000000,,,,,,,,,,,,,,,,,17.000000,0.000000,0.681303,-0.082092,-0.695251,0.213806,0.907337,-0.400440,0.030765,-31.009609,-8.333226,75.956024
1703402447.925577,1703402447.926449,69.000000,0.000000,4014.102539,4152.820313,4122.820313,4150.384766,4166.025879,4167.179688,4215.384766,4183.846191,4165.897461,4157.307617,4198.717773,4319.102539,4233.717773,4249.102539,5055.000000,4.000000,92.000000,,,,0.000000,4.000000,4.000000,4.000000,4.000000,4.000000,4.000000,4.000000,4.000000,4.000000,4.000000,4.000000,4.000000,4.000000,4.000000,100.000000,,,,,,,,,,,,,,,,,,,,,,,,,,,,
1703402447.933385,1703402447.934257,70.000000,0.000000,4008.974365,4158.974121,4126.538574,4152.692383,4169.615234,4171.666504,4217.051270,4185.641113,4165.641113,4150.641113,4201.666504,4322.948730,4232.307617,4246.410156,3216.000000,4.000000,92.000000,,,,0.000000,4.000000,4.000000,4.000000,4.000000,4.000000,4.000000,4.000000,4.000000,4.000000,4.000000,4.000000,4.000000,4.000000,4.000000,100.000000,,,,,,,,,,,,,,,,,,,,,,,,,,,,
1703402447.941193,1703402447.941965,71.000000,0.000000,4015.512939,4165.512695,4129.615234,4155.897461,4180.897461,4174.487305,4225.769043,4188.205078,4164.358887,4150.000000,4200.256348,4326.410156,4240.384766,4250.256348,5173.000000,4.000000,92.000000,,,,0.000000,4.000000,4.000000,4.000000,4.000000,4.000000,4.000000,4.000000,4.000000,4.000000,4.000000,4.000000,4.000000,4.000000,4.000000,100.000000,,,,,,,,,,,,,,,,,,,,,,,,,,,,
1703402447.949001,1703402447.949773,72.000000,0.000000,4015.641113,4167.692383,4127.051270,4153.333496,4174.615234,4172.436035,4228.589844,4187.179688,4169.487305,4153.461426,4203.077148,4327.948730,4245.384766,4257.820313,5210.000000,4.000000,92.000000,,,,0.000000,4.000000,4.000000,4.000000,4.000000,4.000000,4.000000,4.000000,4.000000,4.000000,4.000000,4.000000,4.000000,4.000000,4.000000,100.000000,,,,,,,,,,,,,,,,,18.000000,0.000000,0.681360,-0.081970,-0.695190,0.213867,0.907337,-0.415090,0.011720,-30.925316,-8.449903,76.060425
1703402447.956809,1703402447.957481,73.000000,0.000000,4005.897461,4169.615234,4124.743652,4152.436035,4164.871582,4170.128418,4222.820313,4186.025879,4172.436035,4154.358887,4211.538574,4326.922852,4236.794922,4255.897461,5106.000000,4.000000,92.000000,,,,0.000000,4.000000,4.000000,4.000000,4.000000,4.000000,4.000000,4.000000,4.000000,4.000000,4.000000,4.000000,4.000000,4.000000,4.000000,100.000000,,,,,,,,,,,,,,,,,,,,,,,,,,,,
1703402447.964617,1703402447.965289,74.000000,0.000000,3998.589844,4165.641113,4125.128418,4154.358887,4170.384766,4169.487305,4217.692383,4185.897461,4165.256348,4152.179688,4207.436035,4322.692383,4227.436035,4248.461426,5823.000000,4.000000,92.000000,,,,0.000000,4.000000,4.000000,4.000000,4.000000,4.000000,4.000000,4.000000,4.000000,4.000000,4.000000,4.000000,4.000000,4.000000,4.000000,100.000000,,,,,,,,,,,,,,,,,,,,,,,,,,,,
1703402447.972425,1703402447.972997,75.000000,0.000000,3996.666748,4160.641113,4125.769043,4145.897461,4179.615234,4169.615234,4218.589844,4183.077148,4158.974121,4152.563965,4199.615234,4318.461426,4227.948730,4247.692383,6145.000000,4.000000,92.000000,,,,0.000000,4.000000,4.000000,4.000000,4.000000,4.000000,4.000000,4.000000,4.000000,4.000000,4.000000,4.000000,4.000000,4.000000,4.000000,100.000000,,,,,,,,,,,,,,,,,,,,,,,,,,,,
1703402447.980233,1703402447.980805,76.000000,0.000000,3997.179443,4166.922852,4131.666504,4144.102539,4182.051270,4171.410156,4219.871582,4180.256348,4166.922852,4156.794922,4209.871582,4321.922852,4233.333496,4256.410156,6633.000000,4.000000,92.000000,,,,0.000000,4.000000,4.000000,4.000000,4.000000,4.000000,4.000000,4.000000,4.000000,4.000000,4.000000,4.000000,4.000000,4.000000,4.000000,100.000000,,,,,,,,,,,,,,,,,19.000000,0.000000,0.681298,-0.081970,-0.695251,0.213867,0.899524,-0.419485,0.024905,-30.749451,-8.554914,76.154381
1703402447.988041,1703402447.988513,77.000000,0.000000,3987.692383,4174.230957,4137.820313,4161.282227,4178.077148,4171.538574,4217.948730,4175.384766,4170.641113,4155.256348,4221.666504,4329.358887,4234.615234,4262.307617,6042.000000,4.000000,92.000000,,,,0.000000,4.000000,4.000000,4.000000,4.000000,4.000000,4.000000,4.000000,4.000000,4.000000,4.000000,4.000000,4.000000,4.000000,4.000000,100.000000,,,,,,,,,,,,,,,,,,,,,,,,,,,,
1703402447.995849,1703402447.996421,78.000000,0.000000,3968.718018,4172.948730,4137.820313,4167.436035,4171.025879,4168.974121,4216.538574,4169.743652,4158.205078,4149.230957,4220.641113,4328.974121,4230.641113,4258.589844,5823.000000,4.000000,92.000000,,,,0.000000,4.000000,4.000000,4.000000,4.000000,4.000000,4.000000,4.000000,4.000000,4.000000,4.000000,4.000000,4.000000,4.000000,4.000000,100.000000,,,,,,,,,,,,,,,,,,,,,,,,,,,,
1703402448.003657,1703402448.004229,79.000000,0.000000,3956.538574,4173.717773,4134.743652,4157.948730,4172.436035,4167.692383,4216.538574,4169.358887,4152.820313,4142.948730,4214.230957,4321.153809,4226.025879,4254.230957,6145.000000,4.000000,92.000000,,,,0.000000,4.000000,4.000000,4.000000,4.000000,4.000000,4.000000,4.000000,4.000000,4.000000,4.000000,4.000000,4.000000,4.000000,4.000000,100.000000,,,,,,,,,,,,,,,,,,,,,,,,,,,,
1703402448.011466,1703402448.012137,80.000000,0.000000,3945.256348,4170.128418,4128.846191,4148.589844,4174.871582,4169.743652,4217.307617,4169.487305,4155.384766,4137.948730,4205.897461,4316.410156,4217.563965,4244.230957,6633.000000,4.000000,92.000000,,,,0.000000,4.000000,4.000000,4.000000,4.000000,4.000000,4.000000,4.000000,4.000000,4.000000,4.000000,4.000000,4.000000,4.000000,4.000000,100.000000,,,,,,,,,,,,,,,,,20.000000,0.000000,0.681425,-0.081909,-0.695190,0.213684,0.914662,-0.405323,0.015139,-30.774506,-8.532756,76.022278
1703402448.019274,1703402448.019945,81.000000,0.000000,3925.769287,4156.410156,4119.871582,4141.922852,4171.153809,4170.128418,4218.077148,4167.179688,4151.666504,4135.000000,4196.153809,4314.102539,4203.846191,4232.051270,6042.000000,4.000000,92.000000,,,,0.000000,4.000000,4.000000,4.000000,4.000000,4.000000,4.000000,4.000000,4.000000,4.000000,4.000000,4.000000,4.000000,4.000000,4.000000,100.000000,,,,,,,,,,,,,,,,,,,,,,,,,,,,
1703402448.027082,1703402448.027853,82.000000,0.000000,3920.256348,4153.974121,4117.692383,4147.563965,4169.230957,4166.282227,4217.820313,4176.794922,4156.153809,4139.230957,4198.205078,4316.153809,4197.948730,4238.717773,5823.000000,4.000000,92.000000,,,,0.000000,4.000000,4.000000,4.000000,4.000000,4.000000,4.000000,4.000000,4.000000,4.000000,4.000000,4.000000,4.000000,4.000000,4.000000,100.000000,,,,,,,,,,,,,,,,,,,,,,,,,,,,
1703402448.034890,1703402448.035661,83.000000,0.000000,3925.384521,4161.666504,4120.128418,4156.282227,4168.077148,4165.000000,4218.333496,4193.589844,4168.461426,4142.051270,4207.051270,4319.871582,4201.282227,4247.179688,6145.000000,4.000000,92.000000,,,,0.000000,4.000000,4.000000,4.000000,4.000000,4.000000,4.000000,4.000000,4.000000,4.000000,4.000000,4.000000,4.000000,4.000000,4.000000,100.000000,,,,,,,,,,,,,,,,,,,,,,,,,,,,
1703402448.042698,1703402448.043568,84.000000,0.000000,3920.256348,4156.922852,4116.410156,4146.153809,4168.589844,4168.717773,4221.922852,4193.589844,4170.512695,4138.974121,4206.538574,4313.461426,4200.000000,4234.615234,6633.000000,4.000000,92.000000,,,,0.000000,4.000000,4.000000,4.000000,4.000000,4.000000,4.000000,4.000000,4.000000,4.000000,4.000000,4.000000,4.000000,4.000000,4.000000,100.000000,,,,,,,,,,,,,,,,,21.000000,0.000000,0.681571,-0.081848,-0.695129,0.213440,0.897082,-0.401416,0.027347,-30.647055,-8.362813,75.970047
1703402448.050506,1703402448.051376,85.000000,0.000000,3915.384521,4151.538574,4113.589844,4140.384766,4171.666504,4172.948730,4223.589844,4184.230957,4168.974121,4143.589844,4207.563965,4307.436035,4198.717773,4230.641113,6042.000000,4.000000,92.000000,,,,0.000000,4.000000,4.000000,4.000000,4.000000,4.000000,4.000000,4.000000,4.000000,4.000000,4.000000,4.000000,4.000000,4.000000,4.000000,100.000000,,,,,,,,,,,,,,,,,,,,,,,,,,,,
1703402448.058314,1703402448.059084,86.000000,0.000000,3915.641113,4157.051270,4115.512695,4152.179688,4171.666504,4172.948730,4219.743652,4185.000000,4169.743652,4146.794922,4214.615234,4311.282227,4200.128418,4244.102539,5823.000000,4.000000,92.000000,,,,0.000000,4.000000,4.000000,4.000000,4.000000,4.000000,4.000000,4.000000,4.000000,4.000000,4.000000,4.000000,4.000000,4.000000,4.000000,100.000000,,,,,,,,,,,,,,,,,,,,,,,,,,,,
1703402448.066122,1703402448.066892,87.000000,0.000000,3916.538574,4160.128418,4119.871582,4155.256348,4171.153809,4170.641113,4215.897461,4187.692383,4165.641113,4144.743652,4215.384766,4317.436035,4195.256348,4247.307617,6145.000000,4.000000,92.000000,,,,0.000000,4.000000,4.000000,4.000000,4.000000,4.000000,4.000000,4.000000,4.000000,4.000000,4.000000,4.000000,4.000000,4.000000,4.000000,100.000000,,,,,,,,,,,,,,,,,,,,,,,,,,,,
1703402448.073930,1703402448.074601,88.000000,0.000000,3921.666748,4159.102539,4126.153809,4151.538574,4174.487305,4167.948730,4216.025879,4182.307617,4164.871582,4149.230957,4218.077148,4318.717773,4195.000000,4245.256348,6633.000000,4.000000,92.000000,,,,0.000000,4.000000,4.000000,4.000000,4.000000,4.000000,4.000000,4.000000,4.000000,4.000000,4.000000,4.000000,4.000000,4.000000,4.000000,100.000000,,,,,,,,,,,,,,,,,22.000000,0.000000,0.681715,-0.081848,-0.695007,0.213379,0.893664,-0.414601,0.021975,-30.699017,-8.293199,75.789711
1703402448.081738,1703402448.082408,89.000000,0.000000,3921.666748,4157.436035,4127.436035,4155.000000,4172.307617,4167.692383,4217.436035,4174.487305,4166.538574,4151.666504,4225.384766,4312.436035,4197.820313,4247.307617,6042.000000,4.000000,92.000000,,,,0.000000,4.000000,4.000000,4.000000,4.000000,4.000000,4.000000,4.000000,4.000000,4.000000,4.000000,4.000000,4.000000,4.000000,4.000000,100.000000,,,,,,,,,,,,,,,,,,,,,,,,,,,,
1703402448.089546,1703402448.090117,90.000000,0.000000,3918.333252,4155.512695,4126.666504,4159.358887,4170.256348,4169.230957,4215.897461,4169.102539,4158.461426,4138.205078,4224.358887,4307.051270,4189.743652,4243.974121,5823.000000,4.000000,92.000000,,,,0.000000,4.000000,4.000000,4.000000,4.000000,4.000000,4.000000,4.000000,4.000000,4.000000,4.000000,4.000000,4.000000,4.000000,4.000000,100.000000,,,,,,,,,,,,,,,,,,,,,,,,,,,,
1703402448.097354,1703402448.097925,91.000000,0.000000,3930.128174,4163.589844,4130.641113,4161.538574,4182.307617,4168.846191,4215.384766,4169.230957,4152.051270,4133.846191,4223.333496,4313.589844,4183.717773,4243.589844,6145.000000,4.000000,92.000000,,,,0.000000,4.000000,4.000000,4.000000,4.000000,4.000000,4.000000,4.000000,4.000000,4.000000,4.000000,4.000000,4.000000,4.000000,4.000000,100.000000,,,,,,,,,,,,,,,,,,,,,,,,,,,,
1703402448.105162,1703402448.105633,92.000000,0.000000,3943.333252,4167.692383,4132.692383,4159.102539,4186.282227,4170.897461,4216.282227,4171.410156,4156.282227,4152.179688,4232.692383,4321.794922,4188.205078,4248.205078,6633.000000,4.000000,92.000000,,,,0.000000,4.000000,4.000000,4.000000,4.000000,4.000000,4.000000,4.000000,4.000000,4.000000,4.000000,4.000000,4.000000,4.000000,4.000000,100.000000,,,,,,,,,,,,,,,,,23.000000,0.000000,0.681696,-0.081848,-0.695007,0.213440,0.892199,-0.408741,0.013185,-30.612448,-8.480545,75.877403
1703402448.112970,1703402448.113441,93.000000,0.000000,3939.871826,4159.743652,4131.153809,4155.769043,4172.563965,4170.897461,4212.692383,4168.974121,4157.820313,4154.487305,4234.230957,4316.666504,4188.974121,4247.563965,6042.000000,4.000000,92.000000,,,,0.000000,4.000000,4.000000,4.000000,4.000000,4.000000,4.000000,4.000000,4.000000,4.000000,4.000000,4.000000,4.000000,4.000000,4.000000,100.000000,,,,,,,,,,,,,,,,,,,,,,,,,,,,
1703402448.120778,1703402448.121149,94.000000,0.000000,3939.230713,4157.948730,4130.384766,4156.538574,4164.743652,4167.563965,4208.589844,4167.948730,4155.384766,4140.769043,4229.615234,4310.769043,4183.461426,4245.000000,5823.000000,4.000000,92.000000,,,,0.000000,4.000000,4.000000,4.000000,4.000000,4.000000,4.000000,4.000000,4.000000,4.000000,4.000000,4.000000,4.000000,4.000000,4.000000,100.000000,,,,,,,,,,,,,,,,,,,,,,,,,,,,
1703402448.128586,1703402448.128957,95.000000,0.000000,3946.666748,4158.974121,4128.077148,4154.871582,4172.307617,4167.820313,4212.436035,4174.487305,4158.077148,4142.051270,4231.666504,4314.871582,4183.974121,4243.717773,6145.000000,4.000000,92.000000,,,,0.000000,4.000000,4.000000,4.000000,4.000000,4.000000,4.000000,4.000000,4.000000,4.000000,4.000000,4.000000,4.000000,4.000000,4.000000,100.000000,,,,,,,,,,,,,,,,,,,,,,,,,,,,
1703402448.136394,1703402448.136665,96.000000,0.000000,3957.948730,4158.333496,4128.205078,4159.230957,4177.948730,4169.615234,4215.897461,4178.717773,4164.358887,4155.897461,4237.179688,4319.743652,4192.692383,4245.769043,6633.000000,4.000000,92.000000,,,,0.000000,4.000000,4.000000,4.000000,4.000000,4.000000,4.000000,4.000000,4.000000,4.000000,4.000000,4.000000,4.000000,4.000000,4.000000,100.000000,,,,,,,,,,,,,,,,,24.000000,0.000000,0.681643,-0.081970,-0.695007,0.213562,0.903919,-0.397998,0.011720,-30.701202,-8.582491,75.939667
1703402448.144203,1703402448.144473,97.000000,0.000000,3966.794922,4163.461426,4132.820313,4167.179688,4174.487305,4169.358887,4213.717773,4179.743652,4169.358887,4160.000000,4243.589844,4320.641113,4200.000000,4249.871582,6042.000000,4.000000,92.000000,,,,0.000000,4.000000,4.000000,4.000000,4.000000,4.000000,4.000000,4.000000,4.000000,4.000000,4.000000,4.000000,4.000000,4.000000,4.000000,100.000000,,,,,,,,,,,,,,,,,,,,,,,,,,,,
1703402448.152011,1703402448.152181,98.000000,0.000000,3962.692383,4162.179688,4131.153809,4159.615234,4171.153809,4169.102539,4211.794922,4177.307617,4169.230957,4153.077148,4248.077148,4320.641113,4196.410156,4249.743652,5823.000000,4.000000,92.000000,,,,0.000000,4.000000,4.000000,4.000000,4.000000,4.000000,4.000000,4.000000,4.000000,4.000000,4.000000,4.000000,4.000000,4.000000,4.000000,100.000000,,,,,,,,,,,,,,,,,,,,,,,,,,,,
1703402448.159819,1703402448.160089,99.000000,0.000000,3956.538574,4152.051270,4125.897461,4151.794922,4170.641113,4169.358887,4215.512695,4172.179688,4166.922852,4152.692383,4247.820313,4314.871582,4188.974121,4246.794922,6145.000000,4.000000,92.000000,,,,0.000000,4.000000,4.000000,4.000000,4.000000,4.000000,4.000000,4.000000,4.000000,4.000000,4.000000,4.000000,4.000000,4.000000,4.000000,100.000000,,,,,,,,,,,,,,,,,,,,,,,,,,,,
1703402448.167627,1703402448.167897,100.000000,0.000000,3959.871826,4152.820313,4125.897461,4159.230957,4173.333496,4169.487305,4214.230957,4175.769043,4168.461426,4156.282227,4248.461426,4310.384766,4186.282227,4247.563965,6633.000000,4.000000,92.000000,,,,0.000000,4.000000,4.000000,4.000000,4.000000,4.000000,4.000000,4.000000,4.000000,4.000000,4.000000,4.000000,4.000000,4.000000,4.000000,100.000000,,,,,,,,,,,,,,,,,25.000000,0.000000,0.681652,-0.082092,-0.694946,0.213684,0.893664,-0.404835,0.023929,-30.514416,-8.590908,76.045700
1703402448.175435,1703402448.175804,101.000000,0.000000,3964.871826,4157.179688,4128.205078,4161.538574,4174.230957,4168.974121,4205.641113,4182.820313,4169.487305,4155.769043,4248.974121,4310.512695,4185.128418,4248.333496,6042.000000,4.000000,92.000000,,,,0.000000,4.000000,4.000000,4.000000,4.000000,4.000000,4.000000,4.000000,4.000000,4.000000,4.000000,4.000000,4.000000,4.000000,4.000000,100.000000,,,,,,,,,,,,,,,,,,,,,,,,,,,,
1703402448.183243,1703402448.183612,102.000000,0.000000,3965.641113,4154.615234,4132.051270,4159.358887,4170.128418,4163.846191,4205.000000,4179.615234,4169.487305,4154.487305,4248.077148,4307.820313,4181.153809,4251.153809,5823.000000,4.000000,92.000000,,,,0.000000,4.000000,4.000000,4.000000,4.000000,4.000000,4.000000,4.000000,4.000000,4.000000,4.000000,4.000000,4.000000,4.000000,4.000000,100.000000,,,,,,,,,,,,,,,,,,,,,,,,,,,,
1703402448.191051,1703402448.191520,103.000000,0.000000,3970.384521,4161.282227,4136.282227,4167.436035,4169.871582,4162.307617,4210.512695,4171.410156,4170.384766,4154.102539,4251.410156,4307.051270,4177.051270,4256.282227,6145.000000,4.000000,92.000000,,,,0.000000,4.000000,4.000000,4.000000,4.000000,4.000000,4.000000,4.000000,4.000000,4.000000,4.000000,4.000000,4.000000,4.000000,4.000000,100.000000,,,,,,,,,,,,,,,,,,,,,,,,,,,,
1703402448.198859,1703402448.199328,104.000000,0.000000,3977.564209,4166.153809,4135.128418,4172.692383,4174.743652,4165.384766,4206.794922,4170.128418,4165.897461,4148.717773,4251.410156,4304.871582,4174.615234,4254.615234,6633.000000,4.000000,92.000000,,,,0.000000,4.000000,4.000000,4.000000,4.000000,4.000000,4.000000,4.000000,4.000000,4.000000,4.000000,4.000000,4.000000,4.000000,4.000000,100.000000,,,,,,,,,,,,,,,,,26.000000,0.000000,0.681695,-0.082092,-0.694885,0.213745,0.894152,-0.411183,0.022464,-30.262974,-8.598484,76.007797
1703402448.206667,1703402448.207236,105.000000,0.000000,3976.410156,4160.897461,4131.666504,4169.487305,4176.410156,4160.641113,4200.384766,4171.410156,4158.846191,4141.025879,4242.179688,4301.410156,4169.615234,4248.077148,6042.000000,4.000000,92.000000,,,,0.000000,4.000000,4.000000,4.000000,4.000000,4.000000,4.000000,4.000000,4.000000,4.000000,4.000000,4.000000,4.000000,4.000000,4.000000,100.000000,,,,,,,,,,,,,,,,,,,,,,,,,,,,
1703402448.214475,1703402448.215044,106.000000,0.000000,3972.051270,4154.487305,4130.128418,4162.307617,4172.051270,4153.717773,4200.128418,4164.615234,4150.769043,4136.410156,4233.333496,4298.205078,4157.436035,4245.256348,5823.000000,4.000000,92.000000,,,,0.000000,4.000000,4.000000,4.000000,4.000000,4.000000,4.000000,4.000000,4.000000,4.000000,4.000000,4.000000,4.000000,4.000000,4.000000,100.000000,,,,,,,,,,,,,,,,,,,,,,,,,,,,
1703402448.222283,1703402448.222952,107.000000,0.000000,3978.718018,4152.563965,4130.769043,4158.974121,4165.769043,4152.436035,4199.615234,4157.948730,4142.563965,4130.384766,4225.256348,4290.897461,4149.230957,4246.410156,6145.000000,4.000000,92.000000,,,,0.000000,4.000000,4.000000,4.000000,4.000000,4.000000,4.000000,4.000000,4.000000,4.000000,4.000000,4.000000,4.000000,4.000000,4.000000,100.000000,,,,,,,,,,,,,,,,,,,,,,,,,,,,
1703402448.230091,1703402448.230760,108.000000,0.000000,3993.846191,4154.743652,4134.615234,4161.282227,4162.563965,4155.000000,4199.358887,4164.358887,4146.666504,4130.512695,4219.358887,4295.641113,4153.589844,4248.717773,6633.000000,4.000000,92.000000,,,,0.000000,4.000000,4.000000,4.000000,4.000000,4.000000,4.000000,4.000000,4.000000,4.000000,4.000000,4.000000,4.000000,4.000000,4.000000,100.000000,,,,,,,,,,,,,,,,,27.000000,0.000000,0.681808,-0.082031,-0.694763,0.213806,0.899036,-0.408741,0.022464,-30.336678,-8.688636,76.140350
1703402448.237899,1703402448.238668,109.000000,0.000000,3996.281982,4151.410156,4133.974121,4161.410156,4165.897461,4159.871582,4202.436035,4169.615234,4154.615234,4134.102539,4216.282227,4303.717773,4150.512695,4246.410156,6042.000000,4.000000,92.000000,,,,0.000000,4.000000,4.000000,4.000000,4.000000,4.000000,4.000000,4.000000,4.000000,4.000000,4.000000,4.000000,4.000000,4.000000,4.000000,100.000000,,,,,,,,,,,,,,,,,,,,,,,,,,,,
1703402448.245707,1703402448.246476,110.000000,0.000000,3984.871826,4140.897461,4128.205078,4160.256348,4170.128418,4159.487305,4203.717773,4160.256348,4147.436035,4125.384766,4206.282227,4296.666504,4137.692383,4241.794922,5823.000000,4.000000,92.000000,,,,0.000000,4.000000,4.000000,4.000000,4.000000,4.000000,4.000000,4.000000,4.000000,4.000000,4.000000,4.000000,4.000000,4.000000,4.000000,100.000000,,,,,,,,,,,,,,,,,,,,,,,,,,,,
1703402448.253515,1703402448.254384,111.000000,0.000000,3985.256348,4135.256348,4131.153809,4163.205078,4168.333496,4156.025879,4204.358887,4158.846191,4142.051270,4119.487305,4196.922852,4293.205078,4135.512695,4241.282227,6145.000000,4.000000,92.000000,,,,0.000000,4.000000,4.000000,4.000000,4.000000,4.000000,4.000000,4.000000,4.000000,4.000000,4.000000,4.000000,4.000000,4.000000,4.000000,100.000000,,,,,,,,,,,,,,,,,,,,,,,,,,,,
1703402448.261323,1703402448.262192,112.000000,0.000000,3999.615479,4138.333496,4133.589844,4166.538574,4167.051270,4158.077148,4204.230957,4170.000000,4151.025879,4125.128418,4197.948730,4300.000000,4140.384766,4243.974121,6633.000000,4.000000,92.000000,,,,0.000000,4.000000,4.000000,4.000000,4.000000,4.000000,4.000000,4.000000,4.000000,4.000000,4.000000,4.000000,4.000000,4.000000,4.000000,100.000000,,,,,,,,,,,,,,,,,28.000000,0.000000,0.681820,-0.082092,-0.694763,0.213745,0.901477,-0.405811,0.025394,-30.186342,-8.569772,76.176315
1703402448.269131,1703402448.269900,113.000000,0.000000,4007.307617,4138.589844,4129.102539,4167.051270,4167.563965,4157.820313,4201.666504,4168.717773,4154.230957,4129.102539,4198.846191,4295.384766,4137.563965,4242.692383,6042.000000,4.000000,92.000000,,,,0.000000,4.000000,4.000000,4.000000,4.000000,4.000000,4.000000,4.000000,4.000000,4.000000,4.000000,4.000000,4.000000,4.000000,4.000000,100.000000,,,,,,,,,,,,,,,,,,,,,,,,,,,,
1703402448.276940,1703402448.277708,114.000000,0.000000,4010.128174,4140.641113,4135.897461,4170.000000,4167.307617,4158.205078,4202.692383,4163.974121,4151.794922,4132.179688,4204.615234,4292.051270,4138.846191,4244.615234,5823.000000,4.000000,92.000000,,,,0.000000,4.000000,4.000000,4.000000,4.000000,4.000000,4.000000,4.000000,4.000000,4.000000,4.000000,4.000000,4.000000,4.000000,4.000000,100.000000,,,,,,,,,,,,,,,,,,,,,,,,,,,,
1703402448.284747,1703402448.285416,115.000000,0.000000,4022.564209,4147.948730,4147.820313,4173.077148,4170.641113,4163.717773,4208.077148,4169.615234,4155.000000,4137.563965,4221.666504,4304.615234,4149.487305,4256.153809,6145.000000,4.000000,92.000000,,,,0.000000,4.000000,4.000000,4.000000,4.000000,4.000000,4.000000,4.000000,4.000000,4.000000,4.000000,4.000000,4.000000,4.000000,4.000000,100.000000,,,,,,,,,,,,,,,,,,,,,,,,,,,,
1703402448.292555,1703402448.293224,116.000000,0.000000,4029.743652,4150.897461,4150.512695,4174.743652,4173.846191,4163.205078,4207.692383,4171.922852,4159.230957,4142.307617,4231.410156,4311.538574,4154.358887,4262.820313,6633.000000,4.000000,92.000000,,,,0.000000,4.000000,4.000000,4.000000,4.000000,4.000000,4.000000,4.000000,4.000000,4.000000,4.000000,4.000000,4.000000,4.000000,4.000000,100.000000,,,,,,,,,,,,,,,,,29.000000,0.000000,0.681805,-0.082214,-0.694763,0.213745,0.896594,-0.410695,0.006348,-30.134375,-8.662795,76.125351
1703402448.300364,1703402448.300932,117.000000,0.000000,4029.230713,4151.025879,4156.666504,4175.000000,4170.897461,4158.461426,4202.820313,4171.538574,4165.384766,4153.333496,4235.769043,4312.820313,4154.743652,4267.307617,6042.000000,4.000000,92.000000,,,,0.000000,4.000000,4.000000,4.000000,4.000000,4.000000,4.000000,4.000000,4.000000,4.000000,4.000000,4.000000,4.000000,4.000000,4.000000,100.000000,,,,,,,,,,,,,,,,,,,,,,,,,,,,
1703402448.308172,1703402448.308840,118.000000,0.000000,4038.333252,4150.641113,4162.948730,4173.589844,4164.615234,4158.461426,4200.256348,4174.230957,4167.436035,4161.538574,4245.897461,4321.794922,4157.307617,4277.436035,5823.000000,4.000000,92.000000,,,,0.000000,4.000000,4.000000,4.000000,4.000000,4.000000,4.000000,4.000000,4.000000,4.000000,4.000000,4.000000,4.000000,4.000000,4.000000,100.000000,,,,,,,,,,,,,,,,,,,,,,,,,,,,
1703402448.315980,1703402448.316648,119.000000,0.000000,4043.846191,4148.461426,4158.974121,4173.077148,4164.230957,4153.846191,4201.922852,4172.563965,4159.871582,4150.256348,4250.769043,4326.410156,4158.077148,4282.051270,6145.000000,4.000000,92.000000,,,,0.000000,4.000000,4.000000,4.000000,4.000000,4.000000,4.000000,4.000000,4.000000,4.000000,4.000000,4.000000,4.000000,4.000000,4.000000,100.000000,,,,,,,,,,,,,,,,,,,,,,,,,,,,
1703402448.323788,1703402448.324556,120.000000,0.000000,4041.281982,4144.358887,4159.743652,4172.179688,4164.358887,4150.641113,4205.256348,4171.538574,4156.666504,4142.179688,4251.282227,4324.743652,4158.589844,4285.512695,6633.000000,4.000000,92.000000,,,,0.000000,4.000000,4.000000,4.000000,4.000000,4.000000,4.000000,4.000000,4.000000,4.000000,4.000000,4.000000,4.000000,4.000000,4.000000,100.000000,,,,,,,,,,,,,,,,,30.000000,0.000000,0.681817,-0.082275,-0.694763,0.213684,0.897570,-0.408253,0.018069,-30.270937,-8.579849,76.296150
1703402448.331596,1703402448.332364,121.000000,0.000000,4047.307617,4141.666504,4164.743652,4173.589844,4161.794922,4160.769043,4206.922852,4176.153809,4159.102539,4150.512695,4253.333496,4325.641113,4161.538574,4292.051270,6042.000000,4.000000,92.000000,,,,0.000000,4.000000,4.000000,4.000000,4.000000,4.000000,4.000000,4.000000,4.000000,4.000000,4.000000,4.000000,4.000000,4.000000,4.000000,100.000000,,,,,,,,,,,,,,,,,,,,,,,,,,,,
1703402448.339404,1703402448.340173,122.000000,0.000000,4049.871826,4138.205078,4156.410156,4173.077148,4166.538574,4167.436035,4208.846191,4175.384766,4157.820313,4150.512695,4248.589844,4321.153809,4158.077148,4287.692383,5823.000000,4.000000,92.000000,,,,0.000000,4.000000,4.000000,4.000000,4.000000,4.000000,4.000000,4.000000,4.000000,4.000000,4.000000,4.000000,4.000000,4.000000,4.000000,100.000000,,,,,,,,,,,,,,,,,,,,,,,,,,,,
1703402448.347212,1703402448.347881,123.000000,0.000000,4044.487061,4131.282227,4147.179688,4167.948730,4174.230957,4168.461426,4213.205078,4170.512695,4155.769043,4139.102539,4242.436035,4311.794922,4146.538574,4277.179688,6145.000000,4.000000,92.000000,,,,0.000000,4.000000,4.000000,4.000000,4.000000,4.000000,4.000000,4.000000,4.000000,4.000000,4.000000,4.000000,4.000000,4.000000,4.000000,100.000000,,,,,,,,,,,,,,,,,,,,,,,,,,,,
1703402448.355020,1703402448.355689,124.000000,0.000000,4043.205078,4125.000000,4147.436035,4166.410156,4172.436035,4171.538574,4215.000000,4172.051270,4153.846191,4134.615234,4243.077148,4310.641113,4138.717773,4276.410156,6633.000000,4.000000,92.000000,,,,0.000000,4.000000,4.000000,4.000000,4.000000,4.000000,4.000000,4.000000,4.000000,4.000000,4.000000,4.000000,4.000000,4.000000,4.000000,100.000000,,,,,,,,,,,,,,,,,31.000000,0.000000,0.681833,-0.082336,-0.694702,0.213806,0.892687,-0.408253,0.019045,-30.210510,-8.588531,76.366531
1703402448.362828,1703402448.363397,125.000000,0.000000,4040.128174,4122.051270,4143.846191,4168.461426,4165.128418,4164.487305,4213.846191,4170.128418,4150.641113,4137.179688,4240.000000,4306.922852,4137.179688,4274.615234,6042.000000,4.000000,92.000000,,,,0.000000,4.000000,4.000000,4.000000,4.000000,4.000000,4.000000,4.000000,4.000000,4.000000,4.000000,4.000000,4.000000,4.000000,4.000000,100.000000,,,,,,,,,,,,,,,,,,,,,,,,,,,,
1703402448.370636,1703402448.371205,126.000000,0.000000,4036.153809,4121.538574,4139.487305,4168.846191,4164.487305,4157.051270,4210.769043,4164.615234,4150.128418,4135.384766,4235.512695,4301.410156,4139.230957,4271.922852,5823.000000,4.000000,92.000000,,,,0.000000,4.000000,4.000000,4.000000,4.000000,4.000000,4.000000,4.000000,4.000000,4.000000,4.000000,4.000000,4.000000,4.000000,4.000000,100.000000,,,,,,,,,,,,,,,,,,,,,,,,,,,,
1703402448.378444,1703402448.378912,127.000000,0.000000,4043.718018,4125.384766,4144.871582,4171.282227,4165.512695,4163.589844,4206.794922,4168.461426,4153.077148,4134.487305,4243.077148,4308.846191,4147.563965,4278.717773,92.000000,4.000000,92.000000,,,,0.000000,4.000000,4.000000,4.000000,4.000000,4.000000,4.000000,4.000000,4.000000,4.000000,4.000000,4.000000,4.000000,4.000000,4.000000,100.000000,,,,,,,,,,,,,,,,,,,,,,,,,,,,
1703402448.386252,1703402448.386820,0.000000,0.000000,4051.281982,4134.102539,4149.871582,4177.436035,4168.717773,4166.538574,4209.615234,4175.512695,4155.128418,4141.282227,4258.461426,4313.974121,4155.128418,4281.282227,5166.000000,4.000000,92.000000,,,,0.000000,4.000000,4.000000,4.000000,4.000000,4.000000,4.000000,4.000000,4.000000,4.000000,4.000000,4.000000,4.000000,4.000000,4.000000,100.000000,1.000000,75.000000,4.000000,4.000000,4.000000,4.000000,4.000000,4.000000,4.000000,4.000000,4.000000,4.000000,1.000000,4.000000,4.000000,4.000000,0.000000,0.000000,0.681833,-0.082336,-0.694702,0.213806,0.897082,-0.398974,0.020022,-30.272793,-8.663011,76.279877
1703402448.394060,1703402448.394628,1.000000,0.000000,4052.051270,4137.692383,4149.743652,4181.922852,4167.307617,4161.922852,4213.717773,4175.256348,4158.589844,4148.589844,4263.077148,4307.692383,4151.282227,4277.307617,4665.000000,4.000000,92.000000,,,,0.000000,4.000000,4.000000,4.000000,4.000000,4.000000,4.000000,4.000000,4.000000,4.000000,4.000000,4.000000,4.000000,4.000000,4.000000,100.000000,,,,,,,,,,,,,,,,,,,,,,,,,,,,
1703402448.401868,1703402448.402536,2.000000,0.000000,4063.718018,4137.563965,4154.230957,4185.128418,4166.282227,4164.358887,4208.974121,4176.922852,4164.871582,4148.717773,4264.102539,4308.974121,4152.563965,4283.205078,5116.000000,4.000000,92.000000,,,,0.000000,4.000000,4.000000,4.000000,4.000000,4.000000,4.000000,4.000000,4.000000,4.000000,4.000000,4.000000,4.000000,4.000000,4.000000,100.000000,,,,,,,,,,,,,,,,,,,,,,,,,,,,
1703402448.409676,1703402448.410344,3.000000,0.000000,4070.769287,4136.538574,4159.358887,4186.153809,4177.179688,4163.846191,4202.179688,4177.692383,4168.974121,4145.897461,4272.436035,4315.384766,4163.461426,4290.384766,5227.000000,4.000000,92.000000,,,,0.000000,4.000000,4.000000,4.000000,4.000000,4.000000,4.000000,4.000000,4.000000,4.000000,4.000000,4.000000,4.000000,4.000000,4.000000,100.000000,,,,,,,,,,,,,,,,,,,,,,,,,,,,
1703402448.417484,1703402448.418252,4.000000,0.000000,4067.820557,4137.436035,4159.487305,4185.769043,4183.333496,4161.666504,4204.102539,4176.025879,4169.358887,4158.717773,4280.256348,4319.615234,4168.333496,4293.589844,4996.000000,4.000000,92.000000,,,,0.000000,4.000000,4.000000,4.000000,4.000000,4.000000,4.000000,4.000000,4.000000,4.000000,4.000000,4.000000,4.000000,4.000000,4.000000,100.000000,,,,,,,,,,,,,,,,,1.000000,0.000000,0.681838,-0.082458,-0.694702,0.213745,0.894152,-0.402881,0.021487,-30.395514,-8.713376,76.218559
1703402448.425292,1703402448.426060,5.000000,0.000000,4081.281982,4145.256348,4163.589844,4191.153809,4175.256348,4162.948730,4209.358887,4182.436035,4171.282227,4176.153809,4284.230957,4327.307617,4169.871582,4305.512695,5056.000000,4.000000,92.000000,,,,0.000000,4.000000,4.000000,4.000000,4.000000,4.000000,4.000000,4.000000,4.000000,4.000000,4.000000,4.000000,4.000000,4.000000,4.000000,100.000000,,,,,,,,,,,,,,,,,,,,,,,,,,,,
1703402448.433101,1703402448.433968,6.000000,0.000000,4091.794922,4149.102539,4167.820313,4198.077148,4170.512695,4160.384766,4206.794922,4185.128418,4171.922852,4168.205078,4283.589844,4328.589844,4172.948730,4310.128418,3218.000000,4.000000,92.000000,,,,0.000000,4.000000,4.000000,4.000000,4.000000,4.000000,4.000000,4.000000,4.000000,4.000000,4.000000,4.000000,4.000000,4.000000,4.000000,100.000000,,,,,,,,,,,,,,,,,,,,,,,,,,,,
1703402448.440909,1703402448.441776,7.000000,0.000000,4079.358887,4141.922852,4162.692383,4199.487305,4174.487305,4160.641113,4203.077148,4174.743652,4164.615234,4152.051270,4280.128418,4317.820313,4170.384766,4301.282227,5173.000000,4.000000,92.000000,,,,0.000000,4.000000,4.000000,4.000000,4.000000,4.000000,4.000000,4.000000,4.000000,4.000000,4.000000,4.000000,4.000000,4.000000,4.000000,100.000000,,,,,,,,,,,,,,,,,,,,,,,,,,,,
1703402448.448717,1703402448.449484,8.000000,0.000000,4076.153809,4139.871582,4158.846191,4197.436035,4174.615234,4164.487305,4205.897461,4168.717773,4157.436035,4154.102539,4279.358887,4316.282227,4163.589844,4299.230957,5212.000000,4.000000,92.000000,,,,0.000000,4.000000,4.000000,4.000000,4.000000,4.000000,4.000000,4.000000,4.000000,4.000000,4.000000,4.000000,4.000000,4.000000,4.000000,100.000000,,,,,,,,,,,,,,,,,2.000000,0.000000,0.681912,-0.082520,-0.694641,0.213684,0.897082,-0.416066,0.021975,-30.439295,-8.742039,76.096703
1703402448.456525,1703402448.457292,9.000000,0.000000,4092.307617,4149.102539,4158.589844,4202.179688,4175.512695,4161.922852,4206.922852,4168.333496,4155.256348,4153.333496,4281.410156,4322.179688,4163.974121,4301.410156,5106.000000,4.000000,92.000000,,,,0.000000,4.000000,4.000000,4.000000,4.000000,4.000000,4.000000,4.000000,4.000000,4.000000,4.000000,4.000000,4.000000,4.000000,4.000000,100.000000,,,,,,,,,,,,,,,,,,,,,,,,,,,,
1703402448.464333,1703402448.465000,10.000000,0.000000,4097.820313,4156.025879,4156.794922,4213.205078,4181.538574,4161.666504,4201.025879,4163.205078,4152.948730,4140.128418,4279.871582,4313.846191,4164.358887,4299.743652,5826.000000,4.000000,92.000000,,,,0.000000,4.000000,4.000000,4.000000,4.000000,4.000000,4.000000,4.000000,4.000000,4.000000,4.000000,4.000000,4.000000,4.000000,4.000000,100.000000,,,,,,,,,,,,,,,,,,,,,,,,,,,,
1703402448.472141,1703402448.472808,11.000000,0.000000,4093.589844,4153.461426,4156.666504,4214.102539,4185.384766,4167.436035,4200.512695,4162.436035,4149.230957,4136.666504,4276.153809,4305.641113,4157.436035,4299.102539,6148.000000,4.000000,92.000000,,,,0.000000,4.000000,4.000000,4.000000,4.000000,4.000000,4.000000,4.000000,4.000000,4.000000,4.000000,4.000000,4.000000,4.000000,4.000000,100.000000,,,,,,,,,,,,,,,,,,,,,,,,,,,,
1703402448.479949,1703402448.480516,12.000000,0.000000,4092.435791,4149.358887,4160.384766,4210.128418,4184.615234,4167.436035,4205.512695,4167.563965,4150.000000,4146.794922,4277.179688,4311.666504,4156.666504,4299.102539,6624.000000,4.000000,92.000000,,,,0.000000,4.000000,4.000000,4.000000,4.000000,4.000000,4.000000,4.000000,4.000000,4.000000,4.000000,4.000000,4.000000,4.000000,4.000000,100.000000,,,,,,,,,,,,,,,,,3.000000,0.000000,0.682153,-0.082581,-0.694397,0.213684,0.896594,-0.395556,0.025394,-30.562033,-8.767835,76.237030
1703402448.487757,1703402448.488324,13.000000,0.000000,4091.538574,4151.794922,4161.666504,4215.384766,4184.230957,4169.102539,4206.922852,4168.974121,4154.871582,4153.717773,4286.025879,4317.436035,4166.538574,4300.769043,6050.000000,4.000000,92.000000,,,,0.000000,4.000000,4.000000,4.000000,4.000000,4.000000,4.000000,4.000000,4.000000,4.000000,4.000000,4.000000,4.000000,4.000000,4.000000,100.000000,,,,,,,,,,,,,,,,,,,,,,,,,,,,
1703402448.495565,1703402448.496032,14.000000,0.000000,4089.230713,4156.410156,4155.512695,4216.794922,4192.820313,4172.179688,4207.051270,4170.000000,4156.922852,4153.589844,4298.333496,4314.102539,4170.897461,4308.461426,5826.000000,4.000000,92.000000,,,,0.000000,4.000000,4.000000,4.000000,4.000000,4.000000,4.000000,4.000000,4.000000,4.000000,4.000000,4.000000,4.000000,4.000000,4.000000,100.000000,,,,,,,,,,,,,,,,,,,,,,,,,,,,
1703402448.503373,1703402448.503940,15.000000,0.000000,4080.512939,4152.563965,4149.230957,4210.128418,4197.563965,4169.487305,4208.717773,4170.384766,4155.128418,4151.153809,4307.436035,4310.641113,4167.692383,4308.974121,6148.000000,4.000000,92.000000,,,,0.000000,4.000000,4.000000,4.000000,4.000000,4.000000,4.000000,4.000000,4.000000,4.000000,4.000000,4.000000,4.000000,4.000000,4.000000,100.000000,,,,,,,,,,,,,,,,,,,,,,,,,,,,
1703402448.511181,1703402448.511748,16.000000,0.000000,4081.538574,4153.461426,4151.282227,4211.410156,4196.922852,4170.641113,4210.641113,4170.128418,4157.563965,4158.205078,4323.846191,4315.641113,4176.153809,4305.897461,0.000000,4.000000,92.000000,,,,0.000000,4.000000,4.000000,4.000000,4.000000,4.000000,4.000000,4.000000,4.000000,4.000000,4.000000,4.000000,4.000000,4.000000,4.000000,100.000000,,,,,,,,,,,,,,,,,4.000000,0.000000,0.682221,-0.082886,-0.694275,0.213745,0.913686,-0.404346,0.021975,-30.389162,-8.841051,76.229996
1703402448.518989,1703402448.519557,17.000000,0.000000,4099.743652,4161.794922,4151.282227,4217.051270,4195.641113,4171.666504,4205.897461,4171.282227,4162.307617,4167.563965,4346.922852,4317.692383,4191.410156,4310.256348,0.000000,4.000000,92.000000,,,,0.000000,4.000000,4.000000,4.000000,4.000000,4.000000,4.000000,4.000000,4.000000,4.000000,4.000000,4.000000,4.000000,4.000000,4.000000,100.000000,,,,,,,,,,,,,,,,,,,,,,,,,,,,
1703402448.526797,1703402448.527265,18.000000,0.000000,4107.820313,4159.487305,4144.230957,4216.410156,4189.743652,4167.563965,4198.846191,4170.641113,4159.871582,4170.641113,4366.153809,4312.179688,4203.846191,4310.641113,0.000000,4.000000,92.000000,,,,0.000000,4.000000,4.000000,4.000000,4.000000,4.000000,4.000000,4.000000,4.000000,4.000000,4.000000,4.000000,4.000000,4.000000,4.000000,100.000000,,,,,,,,,,,,,,,,,,,,,,,,,,,,
1703402448.534605,1703402448.535173,19.000000,0.000000,4106.666504,4158.461426,4146.538574,4215.769043,4186.025879,4164.358887,4200.000000,4168.589844,4159.230957,4180.384766,4389.358887,4314.871582,4217.692383,4308.717773,0.000000,4.000000,92.000000,,,,0.000000,4.000000,4.000000,4.000000,4.000000,4.000000,4.000000,4.000000,4.000000,4.000000,4.000000,4.000000,4.000000,4.000000,4.000000,100.000000,,,,,,,,,,,,,,,,,,,,,,,,,,,,
1703402448.542413,1703402448.542980,20.000000,0.000000,4115.641113,4168.205078,4155.000000,4217.436035,4188.717773,4167.948730,4202.563965,4172.563965,4166.538574,4186.153809,4418.846191,4321.794922,4235.128418,4313.974121,0.000000,4.000000,92.000000,,,,0.000000,4.000000,4.000000,4.000000,4.000000,4.000000,4.000000,4.000000,4.000000,4.000000,4.000000,4.000000,4.000000,4.000000,4.000000,100.000000,,,,,,,,,,,,,,,,,5.000000,0.000000,0.682313,-0.083191,-0.694092,0.213928,0.895617,-0.418996,0.023440,-30.333580,-8.940280,76.406998
1703402448.550221,1703402448.550788,21.000000,0.000000,4126.922852,4172.563965,4152.563965,4224.230957,4189.487305,4171.282227,4201.410156,4179.487305,4168.333496,4179.102539,4437.563965,4324.102539,4246.153809,4322.563965,0.000000,4.000000,92.000000,,,,0.000000,4.000000,4.000000,4.000000,4.000000,4.000000,4.000000,4.000000,4.000000,4.000000,4.000000,4.000000,4.000000,4.000000,4.000000,100.000000,,,,,,,,,,,,,,,,,,,,,,,,,,,,
1703402448.558029,1703402448.558497,22.000000,0.000000,4126.666504,4173.846191,4152.436035,4230.897461,4192.820313,4170.128418,4202.307617,4179.871582,4166.153809,4179.358887,4450.512695,4328.077148,4249.358887,4326.153809,0.000000,4.000000,92.000000,,,,0.000000,4.000000,4.000000,4.000000,4.000000,4.000000,4.000000,4.000000,4.000000,4.000000,4.000000,4.000000,4.000000,4.000000,4.000000,100.000000,,,,,,,,,,,,,,,,,,,,,,,,,,,,
1703402448.565838,1703402448.566404,23.000000,0.000000,4123.589844,4177.692383,4160.769043,4228.205078,4198.846191,4170.128418,4203.077148,4177.820313,4169.871582,4183.589844,4470.000000,4331.025879,4258.077148,4327.436035,0.000000,4.000000,92.000000,,,,0.000000,4.000000,4.000000,4.000000,4.000000,4.000000,4.000000,4.000000,4.000000,4.000000,4.000000,4.000000,4.000000,4.000000,4.000000,100.000000,,,,,,,,,,,,,,,,,,,,,,,,,,,,
1703402448.573645,1703402448.574212,24.000000,0.000000,4125.769043,4174.743652,4160.384766,4227.820313,4194.487305,4171.025879,4202.436035,4181.794922,4173.077148,4173.205078,4484.615234,4327.051270,4264.230957,4332.563965,0.000000,4.000000,92.000000,,,,0.000000,4.000000,4.000000,4.000000,4.000000,4.000000,4.000000,4.000000,4.000000,4.000000,4.000000,4.000000,4.000000,4.000000,4.000000,100.000000,,,,,,,,,,,,,,,,,6.000000,0.000000,0.682383,-0.083435,-0.694031,0.213806,0.903431,-0.413136,0.018557,-30.533556,-9.129585,76.416298
1703402448.581454,1703402448.582120,25.000000,0.000000,4129.743652,4167.307617,4155.128418,4233.461426,4187.307617,4169.102539,4201.666504,4187.307617,4169.230957,4166.025879,4490.384766,4322.307617,4263.205078,4340.897461,0.000000,4.000000,92.000000,,,,0.000000,4.000000,4.000000,4.000000,4.000000,4.000000,4.000000,4.000000,4.000000,4.000000,4.000000,4.000000,4.000000,4.000000,4.000000,100.000000,,,,,,,,,,,,,,,,,,,,,,,,,,,,
1703402448.589262,1703402448.589928,26.000000,0.000000,4138.974121,4170.512695,4157.179688,4230.000000,4188.974121,4168.846191,4200.384766,4187.563965,4171.153809,4171.282227,4499.871582,4323.846191,4270.256348,4349.102539,0.000000,4.000000,92.000000,,,,0.000000,4.000000,4.000000,4.000000,4.000000,4.000000,4.000000,4.000000,4.000000,4.000000,4.000000,4.000000,4.000000,4.000000,4.000000,100.000000,,,,,,,,,,,,,,,,,,,,,,,,,,,,
1703402448.597070,1703402448.597836,27.000000,0.000000,4153.589844,4181.282227,4162.692383,4230.128418,4197.179688,4174.615234,4203.846191,4188.205078,4179.615234,4167.820313,4515.384766,4329.615234,4282.948730,4358.333496,0.000000,4.000000,92.000000,,,,0.000000,4.000000,4.000000,4.000000,4.000000,4.000000,4.000000,4.000000,4.000000,4.000000,4.000000,4.000000,4.000000,4.000000,4.000000,100.000000,,,,,,,,,,,,,,,,,,,,,,,,,,,,
1703402448.604878,1703402448.605644,28.000000,0.000000,4162.820313,4190.000000,4163.077148,4243.974121,4198.589844,4176.794922,4209.871582,4190.512695,4180.000000,4155.384766,4525.384766,4330.641113,4285.000000,4366.666504,0.000000,4.000000,92.000000,,,,0.000000,4.000000,4.000000,4.000000,4.000000,4.000000,4.000000,4.000000,4.000000,4.000000,4.000000,4.000000,4.000000,4.000000,4.000000,100.000000,,,,,,,,,,,,,,,,,7.000000,0.000000,0.682383,-0.083435,-0.694031,0.213806,0.905872,-0.420950,0.021975,-30.563534,-9.149960,76.407997
1703402448.612686,1703402448.613552,29.000000,0.000000,4159.743652,4187.948730,4155.897461,4246.794922,4191.153809,4171.025879,4207.563965,4187.051270,4171.922852,4144.487305,4522.307617,4322.948730,4280.512695,4364.871582,0.000000,4.000000,92.000000,,,,0.000000,4.000000,4.000000,4.000000,4.000000,4.000000,4.000000,4.000000,4.000000,4.000000,4.000000,4.000000,4.000000,4.000000,4.000000,100.000000,,,,,,,,,,,,,,,,,,,,,,,,,,,,
1703402448.620494,1703402448.621360,30.000000,0.000000,4151.794922,4181.153809,4149.487305,4240.384766,4188.077148,4168.205078,4200.769043,4180.384766,4167.051270,4137.948730,4523.974121,4316.538574,4279.230957,4361.666504,0.000000,4.000000,92.000000,,,,0.000000,4.000000,4.000000,4.000000,4.000000,4.000000,4.000000,4.000000,4.000000,4.000000,4.000000,4.000000,4.000000,4.000000,4.000000,100.000000,,,,,,,,,,,,,,,,,,,,,,,,,,,,
1703402448.628302,1703402448.629268,31.000000,0.000000,4156.025879,4183.205078,4149.871582,4241.794922,4191.538574,4170.128418,4200.769043,4176.410156,4168.461426,4138.205078,4534.743652,4320.512695,4280.256348,4367.563965,0.000000,4.000000,92.000000,,,,0.000000,4.000000,4.000000,4.000000,4.000000,4.000000,4.000000,4.000000,4.000000,4.000000,4.000000,4.000000,4.000000,4.000000,4.000000,100.000000,,,,,,,,,,,,,,,,,,,,,,,,,,,,
1703402448.636110,1703402448.637076,32.000000,0.000000,4168.974121,4185.000000,4147.307617,4243.077148,4194.743652,4170.128418,4202.436035,4173.205078,4166.282227,4137.692383,4538.717773,4320.641113,4286.410156,4368.589844,0.000000,4.000000,92.000000,,,,0.000000,4.000000,4.000000,4.000000,4.000000,4.000000,4.000000,4.000000,4.000000,4.000000,4.000000,4.000000,4.000000,4.000000,4.000000,100.000000,,,,,,,,,,,,,,,,,8.000000,0.000000,0.682455,-0.083313,-0.694031,0.213623,0.887804,-0.410206,0.019045,-30.423845,-9.068297,76.300537
1703402448.643918,1703402448.644784,33.000000,0.000000,4170.256348,4182.820313,4136.410156,4241.922852,4193.077148,4169.743652,4201.282227,4171.410156,4159.358887,4129.230957,4542.307617,4312.179688,4289.743652,4362.948730,0.000000,4.000000,92.000000,,,,0.000000,4.000000,4.000000,4.000000,4.000000,4.000000,4.000000,4.000000,4.000000,4.000000,4.000000,4.000000,4.000000,4.000000,4.000000,100.000000,,,,,,,,,,,,,,,,,,,,,,,,,,,,
1703402448.651726,1703402448.652592,34.000000,0.000000,4167.179688,4183.974121,4135.256348,4247.563965,4190.769043,4169.871582,4201.666504,4171.410156,4158.461426,4121.794922,4558.461426,4311.410156,4291.922852,4370.256348,0.000000,4.000000,92.000000,,,,0.000000,4.000000,4.000000,4.000000,4.000000,4.000000,4.000000,4.000000,4.000000,4.000000,4.000000,4.000000,4.000000,4.000000,4.000000,100.000000,,,,,,,,,,,,,,,,,,,,,,,,,,,,
1703402448.659534,1703402448.660300,35.000000,0.000000,4177.820313,4184.743652,4141.922852,4248.846191,4190.256348,4166.922852,4202.948730,4170.000000,4164.871582,4120.128418,4574.358887,4322.948730,4303.205078,4380.897461,0.000000,4.000000,92.000000,,,,0.000000,4.000000,4.000000,4.000000,4.000000,4.000000,4.000000,4.000000,4.000000,4.000000,4.000000,4.000000,4.000000,4.000000,4.000000,100.000000,,,,,,,,,,,,,,,,,,,,,,,,,,,,
1703402448.667342,1703402448.668108,36.000000,0.000000,4185.641113,4183.461426,4143.717773,4244.487305,4192.948730,4166.282227,4201.794922,4175.128418,4170.128418,4120.384766,4582.820313,4332.051270,4310.641113,4386.410156,0.000000,4.000000,92.000000,,,,0.000000,4.000000,4.000000,4.000000,4.000000,4.000000,4.000000,4.000000,4.000000,4.000000,4.000000,4.000000,4.000000,4.000000,4.000000,100.000000,,,,,,,,,,,,,,,,,9.000000,0.000000,0.682518,-0.083313,-0.693970,0.213623,0.890734,-0.412160,0.021487,-30.481462,-9.028134,76.120483
1703402448.675150,1703402448.675816,37.000000,0.000000,4185.512695,4186.666504,4150.641113,4253.077148,4190.769043,4169.358887,4200.512695,4185.000000,4171.282227,4127.948730,4598.205078,4334.102539,4312.051270,4400.384766,0.000000,4.000000,92.000000,,,,0.000000,4.000000,4.000000,4.000000,4.000000,4.000000,4.000000,4.000000,4.000000,4.000000,4.000000,4.000000,4.000000,4.000000,4.000000,100.000000,,,,,,,,,,,,,,,,,,,,,,,,,,,,
