title:جمعة حذف, start timestamp:1703164043.160151, stop timestamp:1703164053.950872, headset type:EPOCX, headset serial:E50206EF, headset firmware:720, channels:67, sampling rate:eeg_128;mot_32, samples:1383      , version:2.2, 
Timestamp,OriginalTimestamp,EEG.Counter,EEG.Interpolated,EEG.AF3,EEG.F7,EEG.F3,EEG.FC5,EEG.T7,EEG.P7,EEG.O1,EEG.O2,EEG.P8,EEG.T8,EEG.FC6,EEG.F4,EEG.F8,EEG.AF4,EEG.RawCq,EEG.Battery,EEG.BatteryPercent,MarkerIndex,MarkerType,MarkerValueInt,EEG.MarkerHardware,CQ.AF3,CQ.F7,CQ.F3,CQ.FC5,CQ.T7,CQ.P7,CQ.O1,CQ.O2,CQ.P8,CQ.T8,CQ.FC6,CQ.F4,CQ.F8,CQ.AF4,CQ.Overall,EQ.SampleRateQuality,EQ.OVERALL,EQ.AF3,EQ.F7,EQ.F3,EQ.FC5,EQ.T7,EQ.P7,EQ.O1,EQ.O2,EQ.P8,EQ.T8,EQ.FC6,EQ.F4,EQ.F8,EQ.AF4,MOT.CounterMems,MOT.InterpolatedMems,MOT.Q0,MOT.Q1,MOT.Q2,MOT.Q3,MOT.AccX,MOT.AccY,MOT.AccZ,MOT.MagX,MOT.MagY,MOT.MagZ
1703164043.160151,1703164043.160739,122.000000,0.000000,4160.512695,4156.153809,4208.077148,4200.128418,4159.871582,4137.563965,4205.256348,4138.974121,4110.512695,4125.256348,4582.307617,4419.487305,4397.307617,4501.538574,5691.000000,3.000000,71.000000,,,,0.000000,4.000000,4.000000,4.000000,4.000000,4.000000,4.000000,4.000000,4.000000,4.000000,4.000000,4.000000,4.000000,4.000000,4.000000,100.000000,,,,,,,,,,,,,,,,,,,,,,,,,,,,
1703164043.167959,1703164043.168647,123.000000,0.000000,4158.077148,4166.153809,4212.820313,4199.871582,4141.410156,4129.487305,4204.358887,4129.615234,4101.025879,4120.641113,4576.538574,4422.179688,4391.282227,4486.025879,6077.000000,3.000000,71.000000,,,,0.000000,4.000000,4.000000,4.000000,4.000000,4.000000,4.000000,4.000000,4.000000,4.000000,4.000000,4.000000,4.000000,4.000000,4.000000,100.000000,,,,,,,,,,,,,,,,,,,,,,,,,,,,
1703164043.175767,1703164043.176455,124.000000,0.000000,4152.436035,4160.256348,4217.436035,4198.333496,4137.820313,4124.358887,4201.666504,4122.692383,4089.487061,4118.717773,4574.230957,4417.051270,4389.615234,4484.230957,6426.000000,3.000000,71.000000,,,,0.000000,4.000000,4.000000,4.000000,4.000000,4.000000,4.000000,4.000000,4.000000,4.000000,4.000000,4.000000,4.000000,4.000000,4.000000,100.000000,,,,,,,,,,,,,,,,,31.000000,0.000000,0.680943,0.106567,-0.687683,0.228149,0.982542,-0.174826,0.045904,-11.600146,-42.497196,64.446991
1703164043.183575,1703164043.184362,125.000000,0.000000,4158.974121,4152.563965,4222.051270,4198.461426,4151.025879,4129.358887,4201.922852,4128.717773,4094.615479,4121.025879,4581.922852,4422.563965,4389.743652,4492.563965,6257.000000,3.000000,71.000000,,,,0.000000,4.000000,4.000000,4.000000,4.000000,4.000000,4.000000,4.000000,4.000000,4.000000,4.000000,4.000000,4.000000,4.000000,4.000000,100.000000,,,,,,,,,,,,,,,,,,,,,,,,,,,,
1703164043.191383,1703164043.192170,126.000000,0.000000,4172.948730,4165.641113,4233.077148,4201.538574,4146.282227,4136.410156,4202.692383,4137.820313,4105.769043,4126.794922,4591.922852,4432.563965,4392.051270,4497.051270,5691.000000,3.000000,71.000000,,,,0.000000,4.000000,4.000000,4.000000,4.000000,4.000000,4.000000,4.000000,4.000000,4.000000,4.000000,4.000000,4.000000,4.000000,4.000000,100.000000,,,,,,,,,,,,,,,,,,,,,,,,,,,,
1703164043.199191,1703164043.199879,127.000000,0.000000,4177.051270,4181.282227,4245.769043,4207.692383,4138.846191,4135.384766,4209.102539,4143.589844,4110.897461,4135.128418,4601.666504,4440.897461,4399.102539,4505.641113,71.000000,3.000000,71.000000,,,,0.000000,4.000000,4.000000,4.000000,4.000000,4.000000,4.000000,4.000000,4.000000,4.000000,4.000000,4.000000,4.000000,4.000000,4.000000,100.000000,,,,,,,,,,,,,,,,,,,,,,,,,,,,
1703164043.206999,1703164043.207686,0.000000,0.000000,4170.256348,4178.589844,4242.948730,4202.948730,4141.538574,4128.461426,4212.563965,4141.282227,4106.410156,4128.589844,4598.846191,4444.487305,4399.487305,4508.717773,5459.000000,3.000000,71.000000,,,,0.000000,4.000000,4.000000,4.000000,4.000000,4.000000,4.000000,4.000000,4.000000,4.000000,4.000000,4.000000,4.000000,4.000000,4.000000,100.000000,,,,,,,,,,,,,,,,,0.000000,0.000000,0.681066,0.106567,-0.687500,0.228333,0.968380,-0.168478,0.035649,-11.856798,-42.447475,64.468956
1703164043.214807,1703164043.215395,1.000000,0.000000,4171.538574,4169.102539,4233.717773,4198.974121,4141.922852,4126.282227,4208.205078,4141.922852,4109.358887,4114.358887,4594.615234,4438.333496,4392.179688,4504.743652,5395.000000,3.000000,71.000000,,,,0.000000,4.000000,4.000000,4.000000,4.000000,4.000000,4.000000,4.000000,4.000000,4.000000,4.000000,4.000000,4.000000,4.000000,4.000000,100.000000,,,,,,,,,,,,,,,,,,,,,,,,,,,,
1703164043.222615,1703164043.223203,2.000000,0.000000,4182.692383,4169.102539,4239.230957,4212.179688,4138.333496,4126.025879,4208.974121,4151.282227,4120.128418,4124.358887,4602.436035,4442.948730,4395.897461,4512.436035,5308.000000,3.000000,71.000000,,,,0.000000,4.000000,4.000000,4.000000,4.000000,4.000000,4.000000,4.000000,4.000000,4.000000,4.000000,4.000000,4.000000,4.000000,4.000000,100.000000,,,,,,,,,,,,,,,,,,,,,,,,,,,,
1703164043.230423,1703164043.230911,3.000000,0.000000,4186.025879,4168.205078,4248.333496,4219.102539,4142.307617,4131.666504,4211.922852,4157.692383,4126.282227,4154.358887,4613.333496,4454.743652,4418.461426,4529.871582,5222.000000,3.000000,71.000000,,,,0.000000,4.000000,4.000000,4.000000,4.000000,4.000000,4.000000,4.000000,4.000000,4.000000,4.000000,4.000000,4.000000,4.000000,4.000000,100.000000,,,,,,,,,,,,,,,,,,,,,,,,,,,,
1703164043.238231,1703164043.238719,4.000000,0.000000,4177.820313,4158.717773,4239.615234,4209.487305,4140.897461,4133.461426,4212.179688,4156.538574,4121.025879,4156.153809,4615.384766,4446.794922,4430.256348,4524.102539,5030.000000,3.000000,71.000000,,,,0.000000,4.000000,4.000000,4.000000,4.000000,4.000000,4.000000,4.000000,4.000000,4.000000,4.000000,4.000000,4.000000,4.000000,4.000000,100.000000,,,,,,,,,,,,,,,,,1.000000,0.000000,0.681077,0.106628,-0.687500,0.228271,0.985960,-0.173361,0.043951,-11.821118,-42.202728,64.455399
1703164043.246039,1703164043.246427,5.000000,0.000000,4165.512695,4142.436035,4226.794922,4194.102539,4132.436035,4122.948730,4213.461426,4150.384766,4110.897461,4133.717773,4606.666504,4438.461426,4417.692383,4496.025879,5045.000000,3.000000,71.000000,,,,0.000000,4.000000,4.000000,4.000000,4.000000,4.000000,4.000000,4.000000,4.000000,4.000000,4.000000,4.000000,4.000000,4.000000,4.000000,100.000000,,,,,,,,,,,,,,,,,,,,,,,,,,,,
1703164043.253847,1703164043.254235,6.000000,0.000000,4153.461426,4125.256348,4231.282227,4184.102539,4138.717773,4124.615234,4212.692383,4143.205078,4107.179688,4130.769043,4598.205078,4436.410156,4408.461426,4485.641113,1935.000000,3.000000,71.000000,,,,0.000000,4.000000,4.000000,4.000000,4.000000,4.000000,4.000000,4.000000,4.000000,4.000000,4.000000,4.000000,4.000000,4.000000,4.000000,100.000000,,,,,,,,,,,,,,,,,,,,,,,,,,,,
1703164043.261655,1703164043.261943,7.000000,0.000000,4147.692383,4118.974121,4232.820313,4185.256348,4151.025879,4133.846191,4211.538574,4133.846191,4099.615234,4136.282227,4588.589844,4429.102539,4403.846191,4494.358887,4694.000000,3.000000,71.000000,,,,0.000000,4.000000,4.000000,4.000000,4.000000,4.000000,4.000000,4.000000,4.000000,4.000000,4.000000,4.000000,4.000000,4.000000,4.000000,100.000000,,,,,,,,,,,,,,,,,,,,,,,,,,,,
1703164043.269463,1703164043.269751,8.000000,0.000000,4158.077148,4135.897461,4221.922852,4197.692383,4158.333496,4132.948730,4209.487305,4130.000000,4094.102539,4124.871582,4582.051270,4422.692383,4404.358887,4496.794922,5197.000000,3.000000,71.000000,,,,0.000000,4.000000,4.000000,4.000000,4.000000,4.000000,4.000000,4.000000,4.000000,4.000000,4.000000,4.000000,4.000000,4.000000,4.000000,100.000000,,,,,,,,,,,,,,,,,2.000000,0.000000,0.681015,0.106628,-0.687622,0.228088,0.974240,-0.160664,0.049322,-11.839006,-42.315788,64.643188
1703164043.277272,1703164043.277459,9.000000,0.000000,4164.871582,4147.563965,4218.077148,4200.000000,4151.410156,4130.897461,4202.307617,4128.589844,4097.820313,4115.769043,4588.589844,4419.102539,4412.948730,4491.025879,5340.000000,3.000000,71.000000,,,,0.000000,4.000000,4.000000,4.000000,4.000000,4.000000,4.000000,4.000000,4.000000,4.000000,4.000000,4.000000,4.000000,4.000000,4.000000,100.000000,,,,,,,,,,,,,,,,,,,,,,,,,,,,
1703164043.285080,1703164043.285267,10.000000,0.000000,4161.025879,4131.025879,4226.282227,4190.384766,4141.410156,4134.871582,4200.128418,4128.589844,4101.282227,4128.846191,4596.410156,4429.743652,4413.333496,4491.025879,5688.000000,3.000000,71.000000,,,,0.000000,4.000000,4.000000,4.000000,4.000000,4.000000,4.000000,4.000000,4.000000,4.000000,4.000000,4.000000,4.000000,4.000000,4.000000,100.000000,,,,,,,,,,,,,,,,,,,,,,,,,,,,
1703164043.292888,1703164043.292975,11.000000,0.000000,4167.948730,4128.077148,4235.384766,4197.307617,4143.333496,4135.384766,4202.307617,4134.743652,4105.256348,4149.743652,4604.487305,4437.692383,4422.436035,4516.538574,6062.000000,3.000000,71.000000,,,,0.000000,4.000000,4.000000,4.000000,4.000000,4.000000,4.000000,4.000000,4.000000,4.000000,4.000000,4.000000,4.000000,4.000000,4.000000,100.000000,,,,,,,,,,,,,,,,,,,,,,,,,,,,
1703164043.300696,1703164043.300883,12.000000,0.000000,4174.102539,4148.461426,4234.487305,4199.358887,4142.436035,4133.077148,4208.589844,4138.717773,4108.846191,4158.589844,4610.128418,4431.153809,4438.333496,4537.179688,6429.000000,3.000000,71.000000,,,,0.000000,4.000000,4.000000,4.000000,4.000000,4.000000,4.000000,4.000000,4.000000,4.000000,4.000000,4.000000,4.000000,4.000000,4.000000,100.000000,,,,,,,,,,,,,,,,,3.000000,0.000000,0.681047,0.106689,-0.687622,0.227966,0.971798,-0.163594,0.041997,-11.855106,-42.284210,64.695534
1703164043.308504,1703164043.308691,13.000000,0.000000,4167.563965,4147.948730,4233.205078,4186.410156,4144.230957,4134.871582,4212.692383,4138.589844,4112.948730,4154.487305,4607.307617,4440.641113,4440.512695,4517.436035,6254.000000,3.000000,71.000000,,,,0.000000,4.000000,4.000000,4.000000,4.000000,4.000000,4.000000,4.000000,4.000000,4.000000,4.000000,4.000000,4.000000,4.000000,4.000000,100.000000,,,,,,,,,,,,,,,,,,,,,,,,,,,,
1703164043.316312,1703164043.316598,14.000000,0.000000,4166.666504,4125.000000,4243.205078,4190.384766,4154.358887,4138.077148,4208.974121,4145.000000,4120.512695,4149.871582,4612.179688,4450.897461,4439.487305,4505.769043,5688.000000,3.000000,71.000000,,,,0.000000,4.000000,4.000000,4.000000,4.000000,4.000000,4.000000,4.000000,4.000000,4.000000,4.000000,4.000000,4.000000,4.000000,4.000000,100.000000,,,,,,,,,,,,,,,,,,,,,,,,,,,,
1703164043.324120,1703164043.324406,15.000000,0.000000,4170.384766,4121.153809,4249.487305,4203.974121,4150.769043,4139.102539,4212.179688,4154.871582,4117.948730,4143.717773,4615.128418,4448.077148,4436.410156,4527.563965,6062.000000,3.000000,71.000000,,,,0.000000,4.000000,4.000000,4.000000,4.000000,4.000000,4.000000,4.000000,4.000000,4.000000,4.000000,4.000000,4.000000,4.000000,4.000000,100.000000,,,,,,,,,,,,,,,,,,,,,,,,,,,,
1703164043.331928,1703164043.332314,16.000000,0.000000,4169.487305,4137.051270,4243.333496,4200.897461,4140.769043,4136.025879,4211.922852,4152.307617,4109.230957,4133.974121,4603.205078,4442.820313,4430.512695,4524.230957,0.000000,3.000000,71.000000,,,,0.000000,4.000000,4.000000,4.000000,4.000000,4.000000,4.000000,4.000000,4.000000,4.000000,4.000000,4.000000,4.000000,4.000000,4.000000,100.000000,,,,,,,,,,,,,,,,,4.000000,0.000000,0.681057,0.106750,-0.687683,0.227722,0.978635,-0.156757,0.048346,-11.802929,-42.539124,64.642647
1703164043.339736,1703164043.340122,17.000000,0.000000,4179.871582,4142.563965,4243.846191,4198.717773,4149.358887,4134.230957,4209.487305,4151.153809,4117.820313,4136.666504,4608.589844,4441.922852,4442.692383,4513.974121,0.000000,3.000000,71.000000,,,,0.000000,4.000000,4.000000,4.000000,4.000000,4.000000,4.000000,4.000000,4.000000,4.000000,4.000000,4.000000,4.000000,4.000000,4.000000,100.000000,,,,,,,,,,,,,,,,,,,,,,,,,,,,
1703164043.347544,1703164043.348030,18.000000,0.000000,4191.922852,4141.025879,4248.846191,4208.589844,4146.922852,4132.179688,4215.641113,4153.589844,4121.794922,4142.051270,4620.256348,4450.256348,4449.102539,4535.128418,0.000000,3.000000,71.000000,,,,0.000000,4.000000,4.000000,4.000000,4.000000,4.000000,4.000000,4.000000,4.000000,4.000000,4.000000,4.000000,4.000000,4.000000,4.000000,100.000000,,,,,,,,,,,,,,,,,,,,,,,,,,,,
1703164043.355352,1703164043.355838,19.000000,0.000000,4180.512695,4133.846191,4239.871582,4206.410156,4110.769043,4116.410156,4210.897461,4143.461426,4106.025879,4138.717773,4604.871582,4442.820313,4429.230957,4538.461426,0.000000,3.000000,71.000000,,,,0.000000,4.000000,4.000000,4.000000,4.000000,4.000000,4.000000,4.000000,4.000000,4.000000,4.000000,4.000000,4.000000,4.000000,4.000000,100.000000,,,,,,,,,,,,,,,,,,,,,,,,,,,,
1703164043.363160,1703164043.363746,20.000000,0.000000,4165.512695,4121.282227,4236.538574,4195.512695,4102.436035,4107.820313,4203.974121,4133.974121,4101.410156,4133.461426,4596.666504,4431.410156,4430.128418,4521.282227,0.000000,3.000000,71.000000,,,,0.000000,4.000000,4.000000,4.000000,4.000000,4.000000,4.000000,4.000000,4.000000,4.000000,4.000000,4.000000,4.000000,4.000000,4.000000,100.000000,,,,,,,,,,,,,,,,,5.000000,0.000000,0.681058,0.106750,-0.687622,0.227905,0.990844,-0.168966,0.042486,-11.855969,-42.618542,64.728386
1703164043.370968,1703164043.371554,21.000000,0.000000,4168.333496,4122.051270,4247.692383,4197.051270,4137.436035,4123.846191,4210.641113,4139.615234,4113.077148,4137.307617,4614.102539,4443.461426,4447.307617,4518.333496,0.000000,3.000000,71.000000,,,,0.000000,4.000000,4.000000,4.000000,4.000000,4.000000,4.000000,4.000000,4.000000,4.000000,4.000000,4.000000,4.000000,4.000000,4.000000,100.000000,,,,,,,,,,,,,,,,,,,,,,,,,,,,
1703164043.378776,1703164043.379462,22.000000,0.000000,4168.974121,4132.820313,4252.563965,4207.307617,4160.641113,4137.051270,4207.692383,4146.282227,4119.102539,4145.512695,4620.512695,4448.974121,4444.743652,4513.717773,0.000000,3.000000,71.000000,,,,0.000000,4.000000,4.000000,4.000000,4.000000,4.000000,4.000000,4.000000,4.000000,4.000000,4.000000,4.000000,4.000000,4.000000,4.000000,100.000000,,,,,,,,,,,,,,,,,,,,,,,,,,,,
1703164043.386584,1703164043.387270,23.000000,0.000000,4156.922852,4124.743652,4245.641113,4199.358887,4151.282227,4127.692383,4199.743652,4138.461426,4108.846191,4134.871582,4604.615234,4438.846191,4432.692383,4503.589844,0.000000,3.000000,71.000000,,,,0.000000,4.000000,4.000000,4.000000,4.000000,4.000000,4.000000,4.000000,4.000000,4.000000,4.000000,4.000000,4.000000,4.000000,4.000000,100.000000,,,,,,,,,,,,,,,,,,,,,,,,,,,,
1703164043.394392,1703164043.394978,24.000000,0.000000,4151.153809,4109.743652,4231.922852,4178.717773,4137.051270,4120.897461,4201.794922,4129.102539,4098.974121,4118.974121,4594.743652,4427.051270,4423.333496,4502.179688,0.000000,3.000000,71.000000,,,,0.000000,4.000000,4.000000,4.000000,4.000000,4.000000,4.000000,4.000000,4.000000,4.000000,4.000000,4.000000,4.000000,4.000000,4.000000,100.000000,,,,,,,,,,,,,,,,,6.000000,0.000000,0.681179,0.106628,-0.687500,0.227966,0.968380,-0.173849,0.053717,-11.837039,-42.840023,64.672211
1703164043.402200,1703164043.402786,25.000000,0.000000,4164.615234,4119.230957,4227.820313,4187.820313,4138.461426,4130.512695,4201.025879,4133.974121,4111.410156,4128.333496,4606.025879,4423.717773,4427.692383,4506.666504,0.000000,3.000000,71.000000,,,,0.000000,4.000000,4.000000,4.000000,4.000000,4.000000,4.000000,4.000000,4.000000,4.000000,4.000000,4.000000,4.000000,4.000000,4.000000,100.000000,1.000000,91.666664,4.000000,4.000000,4.000000,4.000000,4.000000,4.000000,4.000000,4.000000,4.000000,3.000000,4.000000,4.000000,4.000000,4.000000,,,,,,,,,,,,
1703164043.410008,1703164043.410494,26.000000,0.000000,4182.179688,4140.512695,4241.538574,4218.461426,4153.333496,4141.666504,4201.538574,4144.871582,4127.948730,4151.153809,4618.974121,4440.000000,4440.256348,4507.307617,0.000000,3.000000,71.000000,,,,0.000000,4.000000,4.000000,4.000000,4.000000,4.000000,4.000000,4.000000,4.000000,4.000000,4.000000,4.000000,4.000000,4.000000,4.000000,100.000000,,,,,,,,,,,,,,,,,,,,,,,,,,,,
1703164043.417816,1703164043.418302,27.000000,0.000000,4182.179688,4143.205078,4249.358887,4220.897461,4163.077148,4140.256348,4203.846191,4145.641113,4127.563965,4147.820313,4618.846191,4442.051270,4444.743652,4508.077148,0.000000,3.000000,71.000000,,,,0.000000,4.000000,4.000000,4.000000,4.000000,4.000000,4.000000,4.000000,4.000000,4.000000,4.000000,4.000000,4.000000,4.000000,4.000000,100.000000,,,,,,,,,,,,,,,,,,,,,,,,,,,,
1703164043.425624,1703164043.426010,28.000000,0.000000,4163.077148,4128.974121,4243.077148,4202.563965,4146.666504,4127.436035,4201.538574,4139.358887,4118.974121,4126.153809,4610.000000,4427.563965,4435.128418,4509.358887,0.000000,3.000000,71.000000,,,,0.000000,4.000000,4.000000,4.000000,4.000000,4.000000,4.000000,4.000000,4.000000,4.000000,4.000000,4.000000,4.000000,4.000000,4.000000,100.000000,,,,,,,,,,,,,,,,,7.000000,0.000000,0.681318,0.106140,-0.687317,0.228333,0.986937,-0.173361,0.042974,-11.753335,-42.889355,64.721657
1703164043.433432,1703164043.433818,29.000000,0.000000,4157.563965,4128.077148,4244.743652,4199.615234,4131.922852,4125.384766,4201.153809,4140.256348,4118.974121,4126.666504,4608.461426,4427.692383,4429.871582,4509.102539,0.000000,3.000000,71.000000,,,,0.000000,4.000000,4.000000,4.000000,4.000000,4.000000,4.000000,4.000000,4.000000,4.000000,4.000000,4.000000,4.000000,4.000000,4.000000,100.000000,,,,,,,,,,,,,,,,,,,,,,,,,,,,
1703164043.441240,1703164043.441526,30.000000,0.000000,4170.769043,4136.538574,4244.615234,4205.000000,4144.358887,4138.589844,4203.974121,4145.128418,4122.307617,4141.025879,4615.256348,4427.436035,4432.563965,4504.871582,0.000000,3.000000,71.000000,,,,0.000000,4.000000,4.000000,4.000000,4.000000,4.000000,4.000000,4.000000,4.000000,4.000000,4.000000,4.000000,4.000000,4.000000,4.000000,100.000000,,,,,,,,,,,,,,,,,,,,,,,,,,,,
1703164043.449049,1703164043.449334,31.000000,0.000000,4172.948730,4139.358887,4235.000000,4203.974121,4152.820313,4137.948730,4206.794922,4142.948730,4111.666504,4139.358887,4609.871582,4426.153809,4425.897461,4504.743652,0.000000,3.000000,71.000000,,,,0.000000,4.000000,4.000000,4.000000,4.000000,4.000000,4.000000,4.000000,4.000000,4.000000,4.000000,4.000000,4.000000,4.000000,4.000000,100.000000,,,,,,,,,,,,,,,,,,,,,,,,,,,,
1703164043.456857,1703164043.457042,32.000000,0.000000,4168.205078,4133.974121,4239.102539,4202.948730,4146.282227,4132.948730,4205.000000,4141.282227,4108.077148,4132.820313,4606.410156,4433.333496,4428.333496,4513.461426,0.000000,3.000000,71.000000,,,,0.000000,4.000000,4.000000,4.000000,4.000000,4.000000,4.000000,4.000000,4.000000,4.000000,4.000000,4.000000,4.000000,4.000000,4.000000,100.000000,,,,,,,,,,,,,,,,,8.000000,0.000000,0.681285,0.105957,-0.687378,0.228333,0.975705,-0.181663,0.053717,-12.028002,-42.683750,64.882828
1703164043.464665,1703164043.464850,33.000000,0.000000,4163.974121,4120.256348,4246.410156,4198.846191,4132.820313,4132.948730,4204.230957,4145.384766,4118.846191,4135.512695,4615.769043,4439.615234,4432.692383,4502.179688,0.000000,3.000000,71.000000,,,,0.000000,4.000000,4.000000,4.000000,4.000000,4.000000,4.000000,4.000000,4.000000,4.000000,4.000000,4.000000,4.000000,4.000000,4.000000,100.000000,,,,,,,,,,,,,,,,,,,,,,,,,,,,
1703164043.472473,1703164043.472558,34.000000,0.000000,4161.025879,4126.538574,4235.256348,4195.256348,4119.871582,4122.692383,4204.871582,4141.282227,4111.794922,4123.205078,4608.846191,4435.384766,4415.897461,4487.692383,0.000000,3.000000,71.000000,,,,0.000000,4.000000,4.000000,4.000000,4.000000,4.000000,4.000000,4.000000,4.000000,4.000000,4.000000,4.000000,4.000000,4.000000,4.000000,100.000000,,,,,,,,,,,,,,,,,,,,,,,,,,,,
1703164043.480281,1703164043.480466,35.000000,0.000000,4167.692383,4159.102539,4231.922852,4207.692383,4128.846191,4122.436035,4202.179688,4137.051270,4102.307617,4111.538574,4596.282227,4423.077148,4406.410156,4496.153809,0.000000,3.000000,71.000000,,,,0.000000,4.000000,4.000000,4.000000,4.000000,4.000000,4.000000,4.000000,4.000000,4.000000,4.000000,4.000000,4.000000,4.000000,4.000000,100.000000,,,,,,,,,,,,,,,,,,,,,,,,,,,,
1703164043.488089,1703164043.488274,36.000000,0.000000,4167.692383,4177.563965,4246.282227,4219.358887,4150.000000,4137.948730,4201.794922,4142.179688,4109.358887,4122.307617,4601.538574,4427.820313,4408.974121,4496.794922,0.000000,3.000000,71.000000,,,,0.000000,4.000000,4.000000,4.000000,4.000000,4.000000,4.000000,4.000000,4.000000,4.000000,4.000000,4.000000,4.000000,4.000000,4.000000,100.000000,,,,,,,,,,,,,,,,,9.000000,0.000000,0.681182,0.105957,-0.687500,0.228271,0.976682,-0.161152,0.041997,-12.041868,-42.648708,64.727875
1703164043.495897,1703164043.496182,37.000000,0.000000,4160.641113,4178.077148,4248.974121,4217.948730,4153.333496,4139.358887,4203.077148,4142.051270,4109.230957,4125.256348,4601.666504,4436.410156,4403.974121,4488.589844,0.000000,3.000000,71.000000,,,,0.000000,4.000000,4.000000,4.000000,4.000000,4.000000,4.000000,4.000000,4.000000,4.000000,4.000000,4.000000,4.000000,4.000000,4.000000,100.000000,,,,,,,,,,,,,,,,,,,,,,,,,,,,
1703164043.503705,1703164043.503990,38.000000,0.000000,4172.692383,4181.922852,4243.205078,4218.846191,4156.410156,4134.615234,4201.538574,4140.128418,4111.153809,4118.717773,4599.871582,4427.179688,4405.769043,4500.641113,0.000000,3.000000,71.000000,,,,0.000000,4.000000,4.000000,4.000000,4.000000,4.000000,4.000000,4.000000,4.000000,4.000000,4.000000,4.000000,4.000000,4.000000,4.000000,100.000000,,,,,,,,,,,,,,,,,,,,,,,,,,,,
1703164043.511513,1703164043.511898,39.000000,0.000000,4189.871582,4181.025879,4246.794922,4224.743652,4173.717773,4142.948730,4203.205078,4144.358887,4123.461426,4124.871582,4612.179688,4433.717773,4415.769043,4510.000000,0.000000,3.000000,71.000000,,,,0.000000,4.000000,4.000000,4.000000,4.000000,4.000000,4.000000,4.000000,4.000000,4.000000,4.000000,4.000000,4.000000,4.000000,4.000000,100.000000,,,,,,,,,,,,,,,,,,,,,,,,,,,,
1703164043.519321,1703164043.519706,40.000000,0.000000,4182.820313,4179.358887,4251.794922,4228.333496,4169.102539,4146.025879,4203.333496,4142.307617,4123.077148,4139.358887,4617.948730,4442.820313,4417.820313,4499.743652,0.000000,3.000000,71.000000,,,,0.000000,4.000000,4.000000,4.000000,4.000000,4.000000,4.000000,4.000000,4.000000,4.000000,4.000000,4.000000,4.000000,4.000000,4.000000,100.000000,,,,,,,,,,,,,,,,,10.000000,0.000000,0.681266,0.106079,-0.687439,0.228149,0.973752,-0.170431,0.038091,-12.104348,-42.817173,64.621758
1703164043.527129,1703164043.527613,41.000000,0.000000,4179.743652,4185.769043,4257.051270,4229.102539,4150.128418,4137.563965,4200.000000,4140.384766,4117.563965,4141.538574,4615.641113,4435.512695,4421.666504,4508.846191,0.000000,3.000000,71.000000,,,,0.000000,4.000000,4.000000,4.000000,4.000000,4.000000,4.000000,4.000000,4.000000,4.000000,4.000000,4.000000,4.000000,4.000000,4.000000,100.000000,,,,,,,,,,,,,,,,,,,,,,,,,,,,
1703164043.534937,1703164043.535421,42.000000,0.000000,4194.615234,4187.436035,4265.641113,4233.333496,4160.384766,4144.743652,4200.128418,4150.256348,4123.333496,4136.538574,4623.461426,4444.102539,4431.794922,4532.820313,0.000000,3.000000,71.000000,,,,0.000000,4.000000,4.000000,4.000000,4.000000,4.000000,4.000000,4.000000,4.000000,4.000000,4.000000,4.000000,4.000000,4.000000,4.000000,100.000000,,,,,,,,,,,,,,,,,,,,,,,,,,,,
1703164043.542745,1703164043.543329,43.000000,0.000000,4193.717773,4183.077148,4263.461426,4233.846191,4177.563965,4158.974121,4204.230957,4157.307617,4129.102539,4137.820313,4630.256348,4450.128418,4430.641113,4524.487305,0.000000,3.000000,71.000000,,,,0.000000,4.000000,4.000000,4.000000,4.000000,4.000000,4.000000,4.000000,4.000000,4.000000,4.000000,4.000000,4.000000,4.000000,4.000000,100.000000,,,,,,,,,,,,,,,,,,,,,,,,,,,,
1703164043.550553,1703164043.551137,44.000000,0.000000,4169.230957,4168.077148,4249.743652,4220.384766,4162.307617,4146.794922,4207.307617,4148.461426,4119.102539,4127.948730,4614.102539,4440.000000,4410.000000,4498.077148,0.000000,3.000000,71.000000,,,,0.000000,4.000000,4.000000,4.000000,4.000000,4.000000,4.000000,4.000000,4.000000,4.000000,4.000000,4.000000,4.000000,4.000000,4.000000,100.000000,,,,,,,,,,,,,,,,,11.000000,0.000000,0.681360,0.106262,-0.687317,0.228149,0.973752,-0.166524,0.051276,-12.043913,-42.868790,64.509583
1703164043.558361,1703164043.558845,45.000000,0.000000,4159.615234,4156.666504,4242.820313,4211.538574,4143.589844,4133.077148,4204.871582,4140.769043,4112.820313,4115.641113,4598.589844,4434.487305,4395.769043,4495.384766,0.000000,3.000000,71.000000,,,,0.000000,4.000000,4.000000,4.000000,4.000000,4.000000,4.000000,4.000000,4.000000,4.000000,4.000000,4.000000,4.000000,4.000000,4.000000,100.000000,,,,,,,,,,,,,,,,,,,,,,,,,,,,
1703164043.566169,1703164043.566653,46.000000,0.000000,4179.871582,4167.436035,4250.384766,4224.358887,4153.717773,4150.000000,4208.205078,4145.769043,4121.666504,4121.153809,4611.282227,4439.102539,4408.333496,4508.846191,0.000000,3.000000,71.000000,,,,0.000000,4.000000,4.000000,4.000000,4.000000,4.000000,4.000000,4.000000,4.000000,4.000000,4.000000,4.000000,4.000000,4.000000,4.000000,100.000000,,,,,,,,,,,,,,,,,,,,,,,,,,,,
1703164043.573977,1703164043.574361,47.000000,0.000000,4187.436035,4169.102539,4254.487305,4231.025879,4155.256348,4155.384766,4214.487305,4145.000000,4118.333496,4121.794922,4623.846191,4449.487305,4415.641113,4507.307617,0.000000,3.000000,71.000000,,,,0.000000,4.000000,4.000000,4.000000,4.000000,4.000000,4.000000,4.000000,4.000000,4.000000,4.000000,4.000000,4.000000,4.000000,4.000000,100.000000,,,,,,,,,,,,,,,,,,,,,,,,,,,,
1703164043.581785,1703164043.582169,48.000000,0.000000,4169.230957,4154.230957,4247.820313,4211.794922,4139.743652,4136.794922,4206.153809,4137.948730,4109.102539,4114.358887,4617.692383,4443.333496,4406.794922,4500.641113,0.000000,3.000000,71.000000,,,,0.000000,4.000000,4.000000,4.000000,4.000000,4.000000,4.000000,4.000000,4.000000,4.000000,4.000000,4.000000,4.000000,4.000000,4.000000,100.000000,,,,,,,,,,,,,,,,,12.000000,0.000000,0.681526,0.106384,-0.687134,0.228149,0.969845,-0.161152,0.053717,-12.239522,-42.848576,64.508621
1703164043.589594,1703164043.589877,49.000000,0.000000,4163.077148,4151.410156,4246.538574,4200.256348,4137.436035,4133.589844,4199.358887,4141.538574,4114.487305,4119.487305,4611.538574,4432.179688,4406.282227,4505.512695,0.000000,3.000000,71.000000,,,,0.000000,4.000000,4.000000,4.000000,4.000000,4.000000,4.000000,4.000000,4.000000,4.000000,4.000000,4.000000,4.000000,4.000000,4.000000,100.000000,,,,,,,,,,,,,,,,,,,,,,,,,,,,
1703164043.597402,1703164043.597685,50.000000,0.000000,4178.974121,4153.846191,4255.000000,4221.153809,4142.948730,4137.692383,4203.333496,4145.128418,4114.102539,4122.820313,4613.717773,4439.615234,4408.589844,4510.256348,0.000000,3.000000,71.000000,,,,0.000000,4.000000,4.000000,4.000000,4.000000,4.000000,4.000000,4.000000,4.000000,4.000000,4.000000,4.000000,4.000000,4.000000,4.000000,100.000000,,,,,,,,,,,,,,,,,,,,,,,,,,,,
1703164043.605209,1703164043.605393,51.000000,0.000000,4185.769043,4154.102539,4260.512695,4235.641113,4148.589844,4132.436035,4202.692383,4140.128418,4105.897461,4111.410156,4617.179688,4444.615234,4402.436035,4507.307617,0.000000,3.000000,71.000000,,,,0.000000,4.000000,4.000000,4.000000,4.000000,4.000000,4.000000,4.000000,4.000000,4.000000,4.000000,4.000000,4.000000,4.000000,4.000000,100.000000,,,,,,,,,,,,,,,,,,,,,,,,,,,,
1703164043.613018,1703164043.613302,52.000000,0.000000,4173.077148,4158.461426,4256.153809,4217.820313,4155.897461,4128.205078,4198.974121,4137.948730,4107.179688,4105.000000,4609.743652,4444.743652,4396.282227,4506.410156,0.000000,3.000000,71.000000,,,,0.000000,4.000000,4.000000,4.000000,4.000000,4.000000,4.000000,4.000000,4.000000,4.000000,4.000000,4.000000,4.000000,4.000000,4.000000,100.000000,,,,,,,,,,,,,,,,,13.000000,0.000000,0.681680,0.106445,-0.687012,0.228027,0.980100,-0.181663,0.039556,-12.232236,-42.830383,64.641090
1703164043.620826,1703164043.621110,53.000000,0.000000,4164.871582,4155.384766,4249.615234,4214.871582,4154.487305,4129.230957,4195.256348,4137.179688,4108.205078,4112.179688,4601.410156,4443.077148,4393.589844,4505.641113,0.000000,3.000000,71.000000,,,,0.000000,4.000000,4.000000,4.000000,4.000000,4.000000,4.000000,4.000000,4.000000,4.000000,4.000000,4.000000,4.000000,4.000000,4.000000,100.000000,,,,,,,,,,,,,,,,,,,,,,,,,,,,
1703164043.628634,1703164043.629018,54.000000,0.000000,4171.538574,4143.461426,4249.615234,4230.769043,4141.922852,4127.179688,4193.205078,4134.358887,4103.974121,4118.589844,4603.077148,4434.615234,4391.922852,4493.589844,0.000000,3.000000,71.000000,,,,0.000000,4.000000,4.000000,4.000000,4.000000,4.000000,4.000000,4.000000,4.000000,4.000000,4.000000,4.000000,4.000000,4.000000,4.000000,100.000000,,,,,,,,,,,,,,,,,,,,,,,,,,,,
1703164043.636442,1703164043.636826,55.000000,0.000000,4175.256348,4138.846191,4249.487305,4224.358887,4138.974121,4124.230957,4199.102539,4136.153809,4105.769043,4122.179688,4603.333496,4438.205078,4389.743652,4489.230957,0.000000,3.000000,71.000000,,,,0.000000,4.000000,4.000000,4.000000,4.000000,4.000000,4.000000,4.000000,4.000000,4.000000,4.000000,4.000000,4.000000,4.000000,4.000000,100.000000,,,,,,,,,,,,,,,,,,,,,,,,,,,,
1703164043.644250,1703164043.644634,56.000000,0.000000,4172.948730,4139.615234,4250.512695,4218.589844,4151.153809,4130.512695,4201.282227,4142.563965,4115.256348,4118.461426,4609.102539,4446.794922,4394.743652,4501.538574,0.000000,3.000000,71.000000,,,,0.000000,4.000000,4.000000,4.000000,4.000000,4.000000,4.000000,4.000000,4.000000,4.000000,4.000000,4.000000,4.000000,4.000000,4.000000,100.000000,,,,,,,,,,,,,,,,,14.000000,0.000000,0.681762,0.106445,-0.687012,0.227783,0.984495,-0.166524,0.051764,-12.225679,-42.697346,64.676987
1703164043.652058,1703164043.652342,57.000000,0.000000,4173.974121,4138.846191,4252.051270,4227.948730,4160.128418,4138.974121,4200.641113,4146.025879,4118.205078,4108.846191,4617.948730,4448.589844,4399.615234,4501.666504,0.000000,3.000000,71.000000,,,,0.000000,4.000000,4.000000,4.000000,4.000000,4.000000,4.000000,4.000000,4.000000,4.000000,4.000000,4.000000,4.000000,4.000000,4.000000,100.000000,,,,,,,,,,,,,,,,,,,,,,,,,,,,
1703164043.659866,1703164043.660250,58.000000,0.000000,4167.179688,4139.102539,4246.794922,4224.102539,4158.717773,4140.512695,4202.820313,4139.743652,4108.205078,4109.487305,4608.461426,4440.512695,4393.205078,4491.666504,0.000000,3.000000,71.000000,,,,0.000000,4.000000,4.000000,4.000000,4.000000,4.000000,4.000000,4.000000,4.000000,4.000000,4.000000,4.000000,4.000000,4.000000,4.000000,100.000000,,,,,,,,,,,,,,,,,,,,,,,,,,,,
1703164043.667674,1703164043.668058,59.000000,0.000000,4152.563965,4135.384766,4240.512695,4210.128418,4152.436035,4135.384766,4200.897461,4134.358887,4099.487305,4116.794922,4596.922852,4427.820313,4387.051270,4487.948730,0.000000,3.000000,71.000000,,,,0.000000,4.000000,4.000000,4.000000,4.000000,4.000000,4.000000,4.000000,4.000000,4.000000,4.000000,4.000000,4.000000,4.000000,4.000000,100.000000,,,,,,,,,,,,,,,,,,,,,,,,,,,,
1703164043.675482,1703164043.675966,60.000000,0.000000,4143.205078,4125.384766,4237.436035,4207.948730,4146.282227,4129.487305,4199.871582,4135.897461,4095.641113,4107.948730,4596.153809,4431.410156,4383.077148,4477.307617,0.000000,3.000000,71.000000,,,,0.000000,4.000000,4.000000,4.000000,4.000000,4.000000,4.000000,4.000000,4.000000,4.000000,4.000000,4.000000,4.000000,4.000000,4.000000,100.000000,,,,,,,,,,,,,,,,,15.000000,0.000000,0.681965,0.106323,-0.686890,0.227600,0.982053,-0.167989,0.048346,-12.269778,-42.860947,64.625954
1703164043.683290,1703164043.683774,61.000000,0.000000,4142.820313,4122.692383,4234.102539,4208.846191,4131.410156,4122.563965,4201.282227,4133.846191,4091.410156,4098.589844,4592.179688,4426.410156,4375.769043,4465.641113,0.000000,3.000000,71.000000,,,,0.000000,4.000000,4.000000,4.000000,4.000000,4.000000,4.000000,4.000000,4.000000,4.000000,4.000000,4.000000,4.000000,4.000000,4.000000,100.000000,,,,,,,,,,,,,,,,,,,,,,,,,,,,
1703164043.691098,1703164043.691682,62.000000,0.000000,4144.743652,4130.512695,4229.487305,4206.922852,4123.846191,4116.922852,4200.384766,4126.282227,4089.615479,4105.384766,4591.410156,4414.615234,4373.846191,4469.230957,0.000000,3.000000,71.000000,,,,0.000000,4.000000,4.000000,4.000000,4.000000,4.000000,4.000000,4.000000,4.000000,4.000000,4.000000,4.000000,4.000000,4.000000,4.000000,100.000000,,,,,,,,,,,,,,,,,,,,,,,,,,,,
1703164043.698906,1703164043.699490,63.000000,0.000000,4149.871582,4136.794922,4230.256348,4210.512695,4141.794922,4123.717773,4200.641113,4123.974121,4090.512939,4108.974121,4599.487305,4426.025879,4380.512695,4480.256348,0.000000,3.000000,71.000000,,,,0.000000,4.000000,4.000000,4.000000,4.000000,4.000000,4.000000,4.000000,4.000000,4.000000,4.000000,4.000000,4.000000,4.000000,4.000000,100.000000,,,,,,,,,,,,,,,,,,,,,,,,,,,,
1703164043.706714,1703164043.707398,64.000000,0.000000,4159.743652,4140.000000,4238.846191,4216.922852,4161.282227,4134.871582,4200.000000,4130.897461,4096.922852,4112.051270,4604.871582,4431.666504,4389.871582,4487.307617,5464.000000,3.000000,71.000000,,,,0.000000,4.000000,4.000000,4.000000,4.000000,4.000000,4.000000,4.000000,4.000000,4.000000,4.000000,4.000000,4.000000,4.000000,4.000000,100.000000,,,,,,,,,,,,,,,,,16.000000,0.000000,0.681973,0.106140,-0.686890,0.227661,0.979123,-0.182639,0.048834,-12.209467,-42.808186,64.446693
1703164043.714522,1703164043.715206,65.000000,0.000000,4167.307617,4147.179688,4247.563965,4216.922852,4159.102539,4136.410156,4200.128418,4133.461426,4106.794922,4124.871582,4609.743652,4431.282227,4396.025879,4489.230957,5399.000000,3.000000,71.000000,,,,0.000000,4.000000,4.000000,4.000000,4.000000,4.000000,4.000000,4.000000,4.000000,4.000000,4.000000,4.000000,4.000000,4.000000,4.000000,100.000000,,,,,,,,,,,,,,,,,,,,,,,,,,,,
1703164043.722330,1703164043.723114,66.000000,0.000000,4175.769043,4155.641113,4251.282227,4218.846191,4154.871582,4133.205078,4200.256348,4130.512695,4109.487305,4125.897461,4620.512695,4439.358887,4406.666504,4494.743652,5308.000000,3.000000,71.000000,,,,0.000000,4.000000,4.000000,4.000000,4.000000,4.000000,4.000000,4.000000,4.000000,4.000000,4.000000,4.000000,4.000000,4.000000,4.000000,100.000000,,,,,,,,,,,,,,,,,,,,,,,,,,,,
1703164043.730138,1703164043.730922,67.000000,0.000000,4187.692383,4161.538574,4257.307617,4235.384766,4161.666504,4131.666504,4198.461426,4134.358887,4107.307617,4118.333496,4630.769043,4442.307617,4422.051270,4507.436035,5223.000000,3.000000,71.000000,,,,0.000000,4.000000,4.000000,4.000000,4.000000,4.000000,4.000000,4.000000,4.000000,4.000000,4.000000,4.000000,4.000000,4.000000,4.000000,100.000000,,,,,,,,,,,,,,,,,,,,,,,,,,,,
1703164043.737946,1703164043.738730,68.000000,0.000000,4190.769043,4159.487305,4265.000000,4238.077148,4152.436035,4126.153809,4199.230957,4139.871582,4105.769043,4123.974121,4629.487305,4446.282227,4420.128418,4511.025879,5011.000000,3.000000,71.000000,,,,0.000000,4.000000,4.000000,4.000000,4.000000,4.000000,4.000000,4.000000,4.000000,4.000000,4.000000,4.000000,4.000000,4.000000,4.000000,100.000000,,,,,,,,,,,,,,,,,17.000000,0.000000,0.681921,0.106079,-0.686951,0.227661,0.975217,-0.165548,0.039556,-12.138520,-42.860699,64.302025
1703164043.745754,1703164043.746638,69.000000,0.000000,4176.153809,4148.717773,4258.461426,4220.641113,4139.358887,4121.153809,4199.358887,4137.179688,4103.974121,4134.615234,4622.179688,4443.461426,4406.025879,4506.410156,5050.000000,3.000000,71.000000,,,,0.000000,4.000000,4.000000,4.000000,4.000000,4.000000,4.000000,4.000000,4.000000,4.000000,4.000000,4.000000,4.000000,4.000000,4.000000,100.000000,,,,,,,,,,,,,,,,,,,,,,,,,,,,
1703164043.753562,1703164043.754446,70.000000,0.000000,4165.256348,4139.358887,4247.692383,4217.179688,4148.589844,4121.794922,4199.743652,4139.358887,4104.871582,4133.333496,4623.333496,4439.358887,4402.307617,4505.128418,1942.000000,3.000000,71.000000,,,,0.000000,4.000000,4.000000,4.000000,4.000000,4.000000,4.000000,4.000000,4.000000,4.000000,4.000000,4.000000,4.000000,4.000000,4.000000,100.000000,,,,,,,,,,,,,,,,,,,,,,,,,,,,
1703164043.761371,1703164043.762254,71.000000,0.000000,4171.666504,4138.333496,4250.897461,4222.692383,4158.333496,4123.717773,4199.743652,4150.897461,4116.282227,4136.794922,4630.512695,4453.077148,4401.025879,4503.205078,4704.000000,3.000000,71.000000,,,,0.000000,4.000000,4.000000,4.000000,4.000000,4.000000,4.000000,4.000000,4.000000,4.000000,4.000000,4.000000,4.000000,4.000000,4.000000,100.000000,,,,,,,,,,,,,,,,,,,,,,,,,,,,
1703164043.769179,1703164043.769962,72.000000,0.000000,4170.769043,4139.358887,4249.230957,4215.769043,4145.512695,4128.974121,4200.769043,4151.538574,4124.871582,4145.769043,4630.512695,4451.794922,4396.538574,4503.717773,5205.000000,3.000000,71.000000,,,,0.000000,4.000000,4.000000,4.000000,4.000000,4.000000,4.000000,4.000000,4.000000,4.000000,4.000000,4.000000,4.000000,4.000000,4.000000,100.000000,,,,,,,,,,,,,,,,,18.000000,0.000000,0.681830,0.106140,-0.687012,0.227722,0.980100,-0.161641,0.049322,-11.991335,-42.824631,64.421822
1703164043.776986,1703164043.777770,73.000000,0.000000,4157.563965,4133.589844,4236.410156,4204.487305,4143.846191,4130.641113,4204.102539,4142.179688,4110.769043,4126.282227,4621.410156,4435.769043,4397.563965,4495.384766,5345.000000,3.000000,71.000000,,,,0.000000,4.000000,4.000000,4.000000,4.000000,4.000000,4.000000,4.000000,4.000000,4.000000,4.000000,4.000000,4.000000,4.000000,4.000000,100.000000,,,,,,,,,,,,,,,,,,,,,,,,,,,,
1703164043.784795,1703164043.785478,74.000000,0.000000,4150.256348,4126.666504,4228.846191,4200.512695,4147.436035,4123.589844,4201.922852,4135.384766,4095.641113,4109.102539,4613.589844,4426.794922,4395.897461,4476.538574,5709.000000,3.000000,71.000000,,,,0.000000,4.000000,4.000000,4.000000,4.000000,4.000000,4.000000,4.000000,4.000000,4.000000,4.000000,4.000000,4.000000,4.000000,4.000000,100.000000,,,,,,,,,,,,,,,,,,,,,,,,,,,,
1703164043.792603,1703164043.793286,75.000000,0.000000,4152.692383,4126.666504,4228.333496,4200.897461,4120.512695,4118.077148,4204.358887,4134.358887,4103.461426,4127.179688,4611.410156,4420.769043,4391.410156,4474.743652,6075.000000,3.000000,71.000000,,,,0.000000,4.000000,4.000000,4.000000,4.000000,4.000000,4.000000,4.000000,4.000000,4.000000,4.000000,4.000000,4.000000,4.000000,4.000000,100.000000,,,,,,,,,,,,,,,,,,,,,,,,,,,,
1703164043.800411,1703164043.800994,76.000000,0.000000,4160.128418,4135.000000,4229.743652,4206.410156,4120.512695,4122.051270,4210.897461,4135.256348,4110.897461,4138.077148,4614.358887,4429.743652,4398.461426,4491.410156,6441.000000,3.000000,71.000000,,,,0.000000,4.000000,4.000000,4.000000,4.000000,4.000000,4.000000,4.000000,4.000000,4.000000,4.000000,4.000000,4.000000,4.000000,4.000000,100.000000,,,,,,,,,,,,,,,,,19.000000,0.000000,0.681688,0.106262,-0.687073,0.227905,0.986937,-0.177268,0.055183,-12.075535,-42.958832,64.362968
1703164043.808219,1703164043.808802,77.000000,0.000000,4170.897461,4149.615234,4237.436035,4215.384766,4164.230957,4135.641113,4208.974121,4138.333496,4108.589844,4133.974121,4626.666504,4438.846191,4412.820313,4500.000000,6264.000000,3.000000,71.000000,,,,0.000000,4.000000,4.000000,4.000000,4.000000,4.000000,4.000000,4.000000,4.000000,4.000000,4.000000,4.000000,4.000000,4.000000,4.000000,100.000000,,,,,,,,,,,,,,,,,,,,,,,,,,,,
1703164043.816027,1703164043.816510,78.000000,0.000000,4167.820313,4157.307617,4246.922852,4215.128418,4170.384766,4135.897461,4205.128418,4133.846191,4108.846191,4131.794922,4630.128418,4435.512695,4409.871582,4487.692383,5709.000000,3.000000,71.000000,,,,0.000000,4.000000,4.000000,4.000000,4.000000,4.000000,4.000000,4.000000,4.000000,4.000000,4.000000,4.000000,4.000000,4.000000,4.000000,100.000000,,,,,,,,,,,,,,,,,,,,,,,,,,,,
1703164043.823835,1703164043.824318,79.000000,0.000000,4162.436035,4155.897461,4246.282227,4210.641113,4141.282227,4122.307617,4203.461426,4122.563965,4104.358887,4127.948730,4621.794922,4436.922852,4400.512695,4488.333496,6075.000000,3.000000,71.000000,,,,0.000000,4.000000,4.000000,4.000000,4.000000,4.000000,4.000000,4.000000,4.000000,4.000000,4.000000,4.000000,4.000000,4.000000,4.000000,100.000000,,,,,,,,,,,,,,,,,,,,,,,,,,,,
1703164043.831643,1703164043.832026,80.000000,0.000000,4174.358887,4163.077148,4246.153809,4213.974121,4150.384766,4125.897461,4205.128418,4127.051270,4104.743652,4131.666504,4624.358887,4438.205078,4413.589844,4515.769043,6441.000000,3.000000,71.000000,,,,0.000000,4.000000,4.000000,4.000000,4.000000,4.000000,4.000000,4.000000,4.000000,4.000000,4.000000,4.000000,4.000000,4.000000,4.000000,100.000000,,,,,,,,,,,,,,,,,20.000000,0.000000,0.681760,0.106323,-0.687012,0.227844,0.966427,-0.171408,0.047369,-12.034648,-43.146282,64.426674
1703164043.839451,1703164043.839934,81.000000,0.000000,4178.846191,4170.000000,4250.128418,4217.692383,4159.743652,4133.974121,4208.077148,4136.025879,4111.153809,4136.153809,4626.282227,4435.897461,4419.102539,4525.128418,6264.000000,3.000000,71.000000,,,,0.000000,4.000000,4.000000,4.000000,4.000000,4.000000,4.000000,4.000000,4.000000,4.000000,4.000000,4.000000,4.000000,4.000000,4.000000,100.000000,,,,,,,,,,,,,,,,,,,,,,,,,,,,
1703164043.847259,1703164043.847743,82.000000,0.000000,4173.589844,4164.615234,4247.563965,4219.230957,4135.641113,4123.461426,4203.717773,4133.205078,4110.897461,4125.897461,4623.077148,4431.666504,4410.769043,4503.717773,5709.000000,3.000000,71.000000,,,,0.000000,4.000000,4.000000,4.000000,4.000000,4.000000,4.000000,4.000000,4.000000,4.000000,4.000000,4.000000,4.000000,4.000000,4.000000,100.000000,,,,,,,,,,,,,,,,,,,,,,,,,,,,
1703164043.855067,1703164043.855651,83.000000,0.000000,4182.820313,4165.256348,4250.641113,4226.153809,4142.436035,4121.410156,4202.948730,4134.358887,4115.128418,4122.307617,4630.256348,4438.205078,4422.820313,4495.641113,6075.000000,3.000000,71.000000,,,,0.000000,4.000000,4.000000,4.000000,4.000000,4.000000,4.000000,4.000000,4.000000,4.000000,4.000000,4.000000,4.000000,4.000000,4.000000,100.000000,,,,,,,,,,,,,,,,,,,,,,,,,,,,
1703164043.862875,1703164043.863459,84.000000,0.000000,4191.666504,4170.769043,4263.333496,4232.563965,4160.256348,4130.512695,4208.333496,4142.820313,4123.974121,4137.051270,4638.077148,4456.025879,4434.743652,4518.461426,6441.000000,3.000000,71.000000,,,,0.000000,4.000000,4.000000,4.000000,4.000000,4.000000,4.000000,4.000000,4.000000,4.000000,4.000000,4.000000,4.000000,4.000000,4.000000,100.000000,,,,,,,,,,,,,,,,,21.000000,0.000000,0.681924,0.106323,-0.686890,0.227722,0.985960,-0.173361,0.044927,-12.164516,-43.031654,64.417343
1703164043.870683,1703164043.871367,85.000000,0.000000,4189.615234,4162.820313,4265.641113,4229.230957,4144.615234,4126.538574,4206.538574,4144.615234,4125.897461,4146.153809,4639.358887,4455.128418,4428.717773,4535.256348,6264.000000,3.000000,71.000000,,,,0.000000,4.000000,4.000000,4.000000,4.000000,4.000000,4.000000,4.000000,4.000000,4.000000,4.000000,4.000000,4.000000,4.000000,4.000000,100.000000,,,,,,,,,,,,,,,,,,,,,,,,,,,,
1703164043.878491,1703164043.879175,86.000000,0.000000,4186.666504,4150.128418,4255.384766,4216.025879,4130.512695,4118.846191,4206.153809,4142.436035,4119.615234,4138.717773,4638.717773,4447.820313,4423.974121,4527.179688,5709.000000,3.000000,71.000000,,,,0.000000,4.000000,4.000000,4.000000,4.000000,4.000000,4.000000,4.000000,4.000000,4.000000,4.000000,4.000000,4.000000,4.000000,4.000000,100.000000,,,,,,,,,,,,,,,,,,,,,,,,,,,,
1703164043.886299,1703164043.887083,87.000000,0.000000,4180.000000,4146.025879,4249.615234,4203.461426,4135.897461,4117.563965,4208.846191,4141.794922,4111.153809,4127.051270,4631.025879,4446.282227,4413.717773,4516.538574,6075.000000,3.000000,71.000000,,,,0.000000,4.000000,4.000000,4.000000,4.000000,4.000000,4.000000,4.000000,4.000000,4.000000,4.000000,4.000000,4.000000,4.000000,4.000000,100.000000,,,,,,,,,,,,,,,,,,,,,,,,,,,,
1703164043.894107,1703164043.894891,88.000000,0.000000,4171.153809,4140.641113,4248.205078,4201.794922,4128.974121,4115.512695,4206.922852,4137.563965,4103.333496,4122.051270,4622.436035,4435.128418,4394.487305,4507.179688,6441.000000,3.000000,71.000000,,,,0.000000,4.000000,4.000000,4.000000,4.000000,4.000000,4.000000,4.000000,4.000000,4.000000,4.000000,4.000000,4.000000,4.000000,4.000000,100.000000,,,,,,,,,,,,,,,,,22.000000,0.000000,0.681933,0.106262,-0.686951,0.227539,0.974728,-0.161152,0.048834,-12.081398,-42.995155,64.342270
1703164043.901915,1703164043.902798,89.000000,0.000000,4167.820313,4135.128418,4246.410156,4200.897461,4120.641113,4116.538574,4212.436035,4131.922852,4099.230957,4122.563965,4618.333496,4434.743652,4394.487305,4491.538574,6264.000000,3.000000,71.000000,,,,0.000000,4.000000,4.000000,4.000000,4.000000,4.000000,4.000000,4.000000,4.000000,4.000000,4.000000,4.000000,4.000000,4.000000,4.000000,100.000000,1.000000,100.000000,4.000000,4.000000,4.000000,4.000000,4.000000,4.000000,4.000000,4.000000,4.000000,4.000000,4.000000,4.000000,4.000000,4.000000,,,,,,,,,,,,
1703164043.909723,1703164043.910606,90.000000,0.000000,4167.563965,4140.256348,4249.615234,4196.410156,4140.128418,4129.487305,4217.948730,4130.256348,4102.436035,4129.871582,4615.769043,4440.256348,4406.922852,4490.256348,5709.000000,3.000000,71.000000,,,,0.000000,4.000000,4.000000,4.000000,4.000000,4.000000,4.000000,4.000000,4.000000,4.000000,4.000000,4.000000,4.000000,4.000000,4.000000,100.000000,,,,,,,,,,,,,,,,,,,,,,,,,,,,
1703164043.917531,1703164043.918514,91.000000,0.000000,4170.897461,4150.384766,4252.051270,4204.487305,4157.563965,4140.128418,4216.282227,4135.000000,4105.000000,4132.692383,4617.307617,4435.512695,4402.948730,4506.410156,6075.000000,3.000000,71.000000,,,,0.000000,4.000000,4.000000,4.000000,4.000000,4.000000,4.000000,4.000000,4.000000,4.000000,4.000000,4.000000,4.000000,4.000000,4.000000,100.000000,,,,,,,,,,,,,,,,,,,,,,,,,,,,
1703164043.925339,1703164043.926322,92.000000,0.000000,4175.000000,4153.461426,4247.563965,4213.589844,4148.974121,4137.436035,4217.692383,4138.205078,4108.717773,4121.794922,4613.974121,4433.717773,4393.974121,4509.230957,6441.000000,3.000000,71.000000,,,,0.000000,4.000000,4.000000,4.000000,4.000000,4.000000,4.000000,4.000000,4.000000,4.000000,4.000000,4.000000,4.000000,4.000000,4.000000,100.000000,,,,,,,,,,,,,,,,,23.000000,0.000000,0.682026,0.106323,-0.686829,0.227600,0.980100,-0.160664,0.047857,-12.039925,-43.012306,64.274712
1703164043.933148,1703164043.934030,93.000000,0.000000,4175.128418,4148.205078,4248.461426,4208.589844,4143.846191,4137.563965,4218.333496,4139.743652,4118.717773,4124.615234,4611.282227,4430.384766,4402.436035,4509.871582,6264.000000,3.000000,71.000000,,,,0.000000,4.000000,4.000000,4.000000,4.000000,4.000000,4.000000,4.000000,4.000000,4.000000,4.000000,4.000000,4.000000,4.000000,4.000000,100.000000,,,,,,,,,,,,,,,,,,,,,,,,,,,,
1703164043.940956,1703164043.941838,94.000000,0.000000,4168.589844,4141.922852,4248.717773,4201.153809,4143.333496,4133.974121,4215.512695,4139.102539,4116.538574,4131.025879,4613.077148,4427.436035,4401.538574,4506.538574,5709.000000,3.000000,71.000000,,,,0.000000,4.000000,4.000000,4.000000,4.000000,4.000000,4.000000,4.000000,4.000000,4.000000,4.000000,4.000000,4.000000,4.000000,4.000000,100.000000,,,,,,,,,,,,,,,,,,,,,,,,,,,,
1703164043.948763,1703164043.949546,95.000000,0.000000,4160.000000,4135.641113,4236.794922,4202.179688,4127.436035,4119.358887,4211.025879,4133.333496,4105.256348,4117.051270,4607.820313,4424.615234,4384.102539,4487.436035,6075.000000,3.000000,71.000000,,,,0.000000,4.000000,4.000000,4.000000,4.000000,4.000000,4.000000,4.000000,4.000000,4.000000,4.000000,4.000000,4.000000,4.000000,4.000000,100.000000,,,,,,,,,,,,,,,,,,,,,,,,,,,,
1703164043.956572,1703164043.957354,96.000000,0.000000,4166.666504,4136.282227,4236.794922,4201.538574,4122.692383,4121.153809,4209.743652,4141.282227,4114.743652,4124.487305,4609.615234,4426.538574,4388.461426,4493.077148,6441.000000,3.000000,71.000000,,,,0.000000,4.000000,4.000000,4.000000,4.000000,4.000000,4.000000,4.000000,4.000000,4.000000,4.000000,4.000000,4.000000,4.000000,4.000000,100.000000,,,,,,,,,,,,,,,,,24.000000,0.000000,0.681945,0.106323,-0.686890,0.227661,0.981077,-0.167501,0.046881,-11.852599,-43.044411,64.313904
1703164043.964380,1703164043.965062,97.000000,0.000000,4180.256348,4145.128418,4251.282227,4202.692383,4139.615234,4135.000000,4216.666504,4154.871582,4130.256348,4149.615234,4618.077148,4441.666504,4403.333496,4511.410156,6264.000000,3.000000,71.000000,,,,0.000000,4.000000,4.000000,4.000000,4.000000,4.000000,4.000000,4.000000,4.000000,4.000000,4.000000,4.000000,4.000000,4.000000,4.000000,100.000000,,,,,,,,,,,,,,,,,,,,,,,,,,,,
1703164043.972188,1703164043.972870,98.000000,0.000000,4176.410156,4143.461426,4252.692383,4213.205078,4148.461426,4131.538574,4217.051270,4147.436035,4123.205078,4145.384766,4618.589844,4441.282227,4399.487305,4502.179688,5709.000000,3.000000,71.000000,,,,0.000000,4.000000,4.000000,4.000000,4.000000,4.000000,4.000000,4.000000,4.000000,4.000000,4.000000,4.000000,4.000000,4.000000,4.000000,100.000000,,,,,,,,,,,,,,,,,,,,,,,,,,,,
1703164043.979996,1703164043.980578,99.000000,0.000000,4167.692383,4128.461426,4244.102539,4212.948730,4142.820313,4122.436035,4212.820313,4133.461426,4108.333496,4130.384766,4613.077148,4431.538574,4395.384766,4495.769043,6075.000000,3.000000,71.000000,,,,0.000000,4.000000,4.000000,4.000000,4.000000,4.000000,4.000000,4.000000,4.000000,4.000000,4.000000,4.000000,4.000000,4.000000,4.000000,100.000000,,,,,,,,,,,,,,,,,,,,,,,,,,,,
1703164043.987804,1703164043.988386,100.000000,0.000000,4172.436035,4128.589844,4246.025879,4206.922852,4143.077148,4124.487305,4216.025879,4138.077148,4112.692383,4136.922852,4618.589844,4438.589844,4403.974121,4508.077148,6441.000000,3.000000,71.000000,,,,0.000000,4.000000,4.000000,4.000000,4.000000,4.000000,4.000000,4.000000,4.000000,4.000000,4.000000,4.000000,4.000000,4.000000,4.000000,100.000000,,,,,,,,,,,,,,,,,25.000000,0.000000,0.681811,0.106262,-0.686951,0.227905,0.977658,-0.180198,0.055671,-11.800673,-42.973301,64.415848
1703164043.995612,1703164043.996095,101.000000,0.000000,4172.179688,4137.051270,4250.000000,4209.871582,4140.384766,4123.461426,4217.051270,4141.794922,4120.512695,4135.256348,4628.589844,4438.846191,4402.436035,4509.615234,6264.000000,3.000000,71.000000,,,,0.000000,4.000000,4.000000,4.000000,4.000000,4.000000,4.000000,4.000000,4.000000,4.000000,4.000000,4.000000,4.000000,4.000000,4.000000,100.000000,,,,,,,,,,,,,,,,,,,,,,,,,,,,
1703164044.003420,1703164044.003902,102.000000,0.000000,4166.538574,4129.230957,4248.974121,4213.846191,4134.230957,4120.128418,4214.743652,4127.436035,4106.410156,4116.538574,4621.410156,4434.743652,4391.282227,4504.102539,5709.000000,3.000000,71.000000,,,,0.000000,4.000000,4.000000,4.000000,4.000000,4.000000,4.000000,4.000000,4.000000,4.000000,4.000000,4.000000,4.000000,4.000000,4.000000,100.000000,,,,,,,,,,,,,,,,,,,,,,,,,,,,
1703164044.011228,1703164044.011611,103.000000,0.000000,4171.538574,4125.384766,4247.948730,4215.128418,4137.563965,4123.846191,4214.615234,4121.794922,4093.589844,4118.974121,4610.256348,4431.794922,4394.230957,4507.563965,6075.000000,3.000000,71.000000,,,,0.000000,4.000000,4.000000,4.000000,4.000000,4.000000,4.000000,4.000000,4.000000,4.000000,4.000000,4.000000,4.000000,4.000000,4.000000,100.000000,,,,,,,,,,,,,,,,,,,,,,,,,,,,
1703164044.019036,1703164044.019419,104.000000,0.000000,4175.128418,4134.487305,4248.974121,4215.641113,4138.974121,4123.461426,4216.538574,4132.948730,4103.461426,4137.948730,4614.230957,4427.436035,4399.230957,4505.769043,6441.000000,3.000000,71.000000,,,,0.000000,4.000000,4.000000,4.000000,4.000000,4.000000,4.000000,4.000000,4.000000,4.000000,4.000000,4.000000,4.000000,4.000000,4.000000,100.000000,,,,,,,,,,,,,,,,,26.000000,0.000000,0.681758,0.106079,-0.686951,0.228149,0.976682,-0.181174,0.051276,-11.637272,-42.792637,64.524261
1703164044.026844,1703164044.027127,105.000000,0.000000,4172.179688,4134.358887,4256.282227,4213.461426,4141.410156,4125.000000,4217.307617,4138.717773,4115.256348,4138.974121,4621.922852,4438.461426,4393.589844,4503.077148,6264.000000,3.000000,71.000000,,,,0.000000,4.000000,4.000000,4.000000,4.000000,4.000000,4.000000,4.000000,4.000000,4.000000,4.000000,4.000000,4.000000,4.000000,4.000000,100.000000,,,,,,,,,,,,,,,,,,,,,,,,,,,,
1703164044.034652,1703164044.034935,106.000000,0.000000,4181.025879,4133.077148,4261.666504,4213.846191,4150.769043,4136.282227,4216.410156,4135.384766,4118.974121,4134.615234,4625.512695,4441.794922,4400.897461,4513.461426,5709.000000,3.000000,71.000000,,,,0.000000,4.000000,4.000000,4.000000,4.000000,4.000000,4.000000,4.000000,4.000000,4.000000,4.000000,4.000000,4.000000,4.000000,4.000000,100.000000,,,,,,,,,,,,,,,,,,,,,,,,,,,,
1703164044.042460,1703164044.042643,107.000000,0.000000,4192.307617,4146.922852,4258.077148,4215.641113,4156.922852,4140.000000,4221.410156,4137.820313,4118.461426,4140.897461,4631.538574,4437.179688,4417.307617,4520.256348,6075.000000,3.000000,71.000000,,,,0.000000,4.000000,4.000000,4.000000,4.000000,4.000000,4.000000,4.000000,4.000000,4.000000,4.000000,4.000000,4.000000,4.000000,4.000000,100.000000,,,,,,,,,,,,,,,,,,,,,,,,,,,,
1703164044.050268,1703164044.050551,108.000000,0.000000,4182.563965,4143.974121,4248.717773,4207.820313,4142.179688,4127.820313,4221.666504,4138.974121,4113.974121,4139.615234,4632.820313,4432.563965,4411.794922,4511.153809,6441.000000,3.000000,71.000000,,,,0.000000,4.000000,4.000000,4.000000,4.000000,4.000000,4.000000,4.000000,4.000000,4.000000,4.000000,4.000000,4.000000,4.000000,4.000000,100.000000,,,,,,,,,,,,,,,,,27.000000,0.000000,0.681829,0.106018,-0.686890,0.228149,0.972287,-0.176779,0.046392,-11.606878,-42.780041,64.521835
1703164044.058076,1703164044.058358,109.000000,0.000000,4172.563965,4122.307617,4244.615234,4204.743652,4123.461426,4119.358887,4215.769043,4135.000000,4117.563965,4137.179688,4630.128418,4422.563965,4403.333496,4503.589844,6264.000000,3.000000,71.000000,,,,0.000000,4.000000,4.000000,4.000000,4.000000,4.000000,4.000000,4.000000,4.000000,4.000000,4.000000,4.000000,4.000000,4.000000,4.000000,100.000000,,,,,,,,,,,,,,,,,,,,,,,,,,,,
1703164044.065884,1703164044.066266,110.000000,0.000000,4180.512695,4123.974121,4253.461426,4212.179688,4133.333496,4127.692383,4216.025879,4142.051270,4126.025879,4136.922852,4635.769043,4433.205078,4412.179688,4505.641113,5709.000000,3.000000,71.000000,,,,0.000000,4.000000,4.000000,4.000000,4.000000,4.000000,4.000000,4.000000,4.000000,4.000000,4.000000,4.000000,4.000000,4.000000,4.000000,100.000000,,,,,,,,,,,,,,,,,,,,,,,,,,,,
1703164044.073692,1703164044.074074,111.000000,0.000000,4190.128418,4141.153809,4265.897461,4222.948730,4157.563965,4138.974121,4218.974121,4152.563965,4126.538574,4136.794922,4645.769043,4450.384766,4418.846191,4507.051270,6075.000000,3.000000,71.000000,,,,0.000000,4.000000,4.000000,4.000000,4.000000,4.000000,4.000000,4.000000,4.000000,4.000000,4.000000,4.000000,4.000000,4.000000,4.000000,100.000000,,,,,,,,,,,,,,,,,,,,,,,,,,,,
1703164044.081500,1703164044.081982,112.000000,0.000000,4189.487305,4140.128418,4267.307617,4221.794922,4155.256348,4133.717773,4223.846191,4153.846191,4126.025879,4150.128418,4648.974121,4450.384766,4415.897461,4508.461426,6441.000000,3.000000,71.000000,,,,0.000000,4.000000,4.000000,4.000000,4.000000,4.000000,4.000000,4.000000,4.000000,4.000000,4.000000,4.000000,4.000000,4.000000,4.000000,100.000000,,,,,,,,,,,,,,,,,28.000000,0.000000,0.681829,0.106018,-0.686951,0.227966,0.975217,-0.170431,0.048834,-11.712857,-42.735371,64.519653
1703164044.089308,1703164044.089790,113.000000,0.000000,4184.487305,4130.769043,4262.051270,4203.461426,4139.871582,4119.615234,4223.461426,4151.666504,4124.487305,4162.820313,4643.974121,4449.487305,4413.077148,4512.307617,6264.000000,3.000000,71.000000,,,,0.000000,4.000000,4.000000,4.000000,4.000000,4.000000,4.000000,4.000000,4.000000,4.000000,4.000000,4.000000,4.000000,4.000000,4.000000,100.000000,,,,,,,,,,,,,,,,,,,,,,,,,,,,
1703164044.097117,1703164044.097698,114.000000,0.000000,4184.358887,4135.000000,4265.512695,4201.666504,4147.948730,4119.358887,4219.230957,4152.692383,4125.512695,4157.307617,4645.897461,4448.717773,4413.077148,4518.846191,5709.000000,3.000000,71.000000,,,,0.000000,4.000000,4.000000,4.000000,4.000000,4.000000,4.000000,4.000000,4.000000,4.000000,4.000000,4.000000,4.000000,4.000000,4.000000,100.000000,,,,,,,,,,,,,,,,,,,,,,,,,,,,
1703164044.104925,1703164044.105506,115.000000,0.000000,4181.794922,4129.743652,4267.563965,4217.307617,4144.487305,4118.717773,4221.153809,4148.205078,4121.410156,4143.461426,4643.461426,4446.666504,4402.820313,4521.922852,6075.000000,3.000000,71.000000,,,,0.000000,4.000000,4.000000,4.000000,4.000000,4.000000,4.000000,4.000000,4.000000,4.000000,4.000000,4.000000,4.000000,4.000000,4.000000,100.000000,,,,,,,,,,,,,,,,,,,,,,,,,,,,
1703164044.112733,1703164044.113414,116.000000,0.000000,4182.692383,4119.358887,4266.538574,4220.641113,4124.871582,4106.538574,4221.538574,4137.820313,4112.436035,4135.897461,4635.641113,4446.794922,4390.256348,4523.717773,6441.000000,3.000000,71.000000,,,,0.000000,4.000000,4.000000,4.000000,4.000000,4.000000,4.000000,4.000000,4.000000,4.000000,4.000000,4.000000,4.000000,4.000000,4.000000,100.000000,,,,,,,,,,,,,,,,,29.000000,0.000000,0.681860,0.106079,-0.686890,0.228027,0.976682,-0.169454,0.041509,-11.708238,-42.695168,64.601021
1703164044.120541,1703164044.121222,117.000000,0.000000,4191.666504,4126.282227,4270.000000,4213.974121,4128.205078,4103.974121,4216.538574,4137.179688,4113.461426,4132.948730,4641.153809,4446.410156,4396.153809,4524.743652,6264.000000,3.000000,71.000000,,,,0.000000,4.000000,4.000000,4.000000,4.000000,4.000000,4.000000,4.000000,4.000000,4.000000,4.000000,4.000000,4.000000,4.000000,4.000000,100.000000,,,,,,,,,,,,,,,,,,,,,,,,,,,,
1703164044.128349,1703164044.129130,118.000000,0.000000,4192.436035,4131.794922,4267.820313,4209.102539,4140.128418,4111.922852,4216.794922,4138.717773,4113.205078,4135.256348,4642.820313,4450.256348,4403.589844,4518.077148,5709.000000,3.000000,71.000000,,,,0.000000,4.000000,4.000000,4.000000,4.000000,4.000000,4.000000,4.000000,4.000000,4.000000,4.000000,4.000000,4.000000,4.000000,4.000000,100.000000,,,,,,,,,,,,,,,,,,,,,,,,,,,,
1703164044.136157,1703164044.136938,119.000000,0.000000,4183.461426,4126.153809,4261.666504,4206.410156,4148.717773,4120.641113,4220.256348,4135.769043,4113.205078,4141.410156,4638.846191,4444.358887,4397.948730,4510.000000,6075.000000,3.000000,71.000000,,,,0.000000,4.000000,4.000000,4.000000,4.000000,4.000000,4.000000,4.000000,4.000000,4.000000,4.000000,4.000000,4.000000,4.000000,4.000000,100.000000,,,,,,,,,,,,,,,,,,,,,,,,,,,,
1703164044.143965,1703164044.144646,120.000000,0.000000,4182.307617,4125.641113,4262.051270,4211.153809,4153.589844,4120.256348,4222.179688,4135.769043,4116.282227,4135.769043,4639.871582,4434.487305,4393.589844,4504.871582,6441.000000,3.000000,71.000000,,,,0.000000,4.000000,4.000000,4.000000,4.000000,4.000000,4.000000,4.000000,4.000000,4.000000,4.000000,4.000000,4.000000,4.000000,4.000000,100.000000,,,,,,,,,,,,,,,,,30.000000,0.000000,0.681961,0.105957,-0.686707,0.228333,0.976193,-0.178733,0.048346,-11.770747,-42.758984,64.524254
1703164044.151773,1703164044.152454,121.000000,0.000000,4186.794922,4131.282227,4259.871582,4218.205078,4139.871582,4109.487305,4219.615234,4138.461426,4113.461426,4127.692383,4638.846191,4441.410156,4396.922852,4502.307617,6264.000000,3.000000,71.000000,,,,0.000000,4.000000,4.000000,4.000000,4.000000,4.000000,4.000000,4.000000,4.000000,4.000000,4.000000,4.000000,4.000000,4.000000,4.000000,100.000000,,,,,,,,,,,,,,,,,,,,,,,,,,,,
1703164044.159581,1703164044.160162,122.000000,0.000000,4185.769043,4128.846191,4254.487305,4209.871582,4126.794922,4110.128418,4216.666504,4139.358887,4114.743652,4137.692383,4637.051270,4441.666504,4401.282227,4505.641113,5709.000000,3.000000,71.000000,,,,0.000000,4.000000,4.000000,4.000000,4.000000,4.000000,4.000000,4.000000,4.000000,4.000000,4.000000,4.000000,4.000000,4.000000,4.000000,100.000000,,,,,,,,,,,,,,,,,,,,,,,,,,,,
1703164044.167389,1703164044.168070,123.000000,0.000000,4180.897461,4122.436035,4260.384766,4202.692383,4139.871582,4122.820313,4221.153809,4138.205078,4120.641113,4144.230957,4639.487305,4442.692383,4397.692383,4508.846191,6075.000000,3.000000,71.000000,,,,0.000000,4.000000,4.000000,4.000000,4.000000,4.000000,4.000000,4.000000,4.000000,4.000000,4.000000,4.000000,4.000000,4.000000,4.000000,100.000000,,,,,,,,,,,,,,,,,,,,,,,,,,,,
1703164044.175197,1703164044.175878,124.000000,0.000000,4173.205078,4123.717773,4265.512695,4211.025879,4146.794922,4125.384766,4221.922852,4139.871582,4118.461426,4132.307617,4640.897461,4445.897461,4395.256348,4506.153809,6441.000000,3.000000,71.000000,,,,0.000000,4.000000,4.000000,4.000000,4.000000,4.000000,4.000000,4.000000,4.000000,4.000000,4.000000,4.000000,4.000000,4.000000,4.000000,100.000000,,,,,,,,,,,,,,,,,31.000000,0.000000,0.682108,0.105408,-0.686523,0.228699,0.982542,-0.170919,0.050787,-11.827006,-42.649754,64.371826
1703164044.183005,1703164044.183786,125.000000,0.000000,4167.948730,4120.897461,4254.230957,4213.333496,4137.820313,4120.256348,4220.769043,4137.820313,4110.641113,4125.897461,4632.051270,4430.897461,4392.948730,4503.461426,6264.000000,3.000000,71.000000,,,,0.000000,4.000000,4.000000,4.000000,4.000000,4.000000,4.000000,4.000000,4.000000,4.000000,4.000000,4.000000,4.000000,4.000000,4.000000,100.000000,,,,,,,,,,,,,,,,,,,,,,,,,,,,
1703164044.190813,1703164044.191594,126.000000,0.000000,4167.820313,4111.410156,4242.948730,4206.666504,4135.000000,4119.743652,4223.205078,4126.794922,4104.615234,4122.820313,4616.025879,4422.820313,4379.358887,4496.538574,5709.000000,3.000000,71.000000,,,,0.000000,4.000000,4.000000,4.000000,4.000000,4.000000,4.000000,4.000000,4.000000,4.000000,4.000000,4.000000,4.000000,4.000000,4.000000,100.000000,,,,,,,,,,,,,,,,,,,,,,,,,,,,
1703164044.198621,1703164044.199503,127.000000,0.000000,4167.820313,4114.615234,4245.128418,4210.512695,4135.769043,4122.436035,4220.128418,4124.102539,4102.563965,4122.179688,4614.615234,4425.384766,4372.051270,4488.589844,71.000000,3.000000,71.000000,,,,0.000000,4.000000,4.000000,4.000000,4.000000,4.000000,4.000000,4.000000,4.000000,4.000000,4.000000,4.000000,4.000000,4.000000,4.000000,100.000000,,,,,,,,,,,,,,,,,,,,,,,,,,,,
1703164044.206429,1703164044.207311,0.000000,0.000000,4171.153809,4128.589844,4252.051270,4216.153809,4138.717773,4126.538574,4222.948730,4136.794922,4107.179688,4129.871582,4629.230957,4432.820313,4381.410156,4491.666504,5460.000000,3.000000,71.000000,,,,0.000000,4.000000,4.000000,4.000000,4.000000,4.000000,4.000000,4.000000,4.000000,4.000000,4.000000,4.000000,4.000000,4.000000,4.000000,100.000000,,,,,,,,,,,,,,,,,0.000000,0.000000,0.682157,0.105225,-0.686462,0.228821,0.980100,-0.182639,0.045904,-11.810972,-42.734776,64.434647
1703164044.214237,1703164044.215119,1.000000,0.000000,4172.692383,4127.563965,4249.871582,4205.384766,4139.615234,4122.692383,4228.846191,4140.000000,4106.666504,4124.487305,4626.410156,4434.230957,4379.615234,4493.717773,5397.000000,3.000000,71.000000,,,,0.000000,4.000000,4.000000,4.000000,4.000000,4.000000,4.000000,4.000000,4.000000,4.000000,4.000000,4.000000,4.000000,4.000000,4.000000,100.000000,,,,,,,,,,,,,,,,,,,,,,,,,,,,
1703164044.222045,1703164044.222827,2.000000,0.000000,4161.922852,4117.820313,4244.871582,4198.846191,4133.205078,4113.461426,4227.051270,4128.461426,4102.307617,4113.077148,4610.641113,4421.025879,4364.743652,4488.717773,5303.000000,3.000000,71.000000,,,,0.000000,4.000000,4.000000,4.000000,4.000000,4.000000,4.000000,4.000000,4.000000,4.000000,4.000000,4.000000,4.000000,4.000000,4.000000,100.000000,,,,,,,,,,,,,,,,,,,,,,,,,,,,
1703164044.229853,1703164044.230735,3.000000,0.000000,4155.897461,4119.102539,4252.692383,4201.410156,4136.025879,4117.307617,4226.922852,4126.153809,4104.743652,4117.307617,4613.846191,4427.051270,4366.922852,4487.307617,5222.000000,3.000000,71.000000,,,,0.000000,4.000000,4.000000,4.000000,4.000000,4.000000,4.000000,4.000000,4.000000,4.000000,4.000000,4.000000,4.000000,4.000000,4.000000,100.000000,,,,,,,,,,,,,,,,,,,,,,,,,,,,
1703164044.237661,1703164044.238543,4.000000,0.000000,4163.205078,4125.000000,4263.717773,4197.563965,4150.000000,4125.512695,4227.563965,4135.256348,4112.820313,4124.487305,4632.692383,4445.000000,4382.307617,4496.666504,5010.000000,3.000000,71.000000,,,,0.000000,4.000000,4.000000,4.000000,4.000000,4.000000,4.000000,4.000000,4.000000,4.000000,4.000000,4.000000,4.000000,4.000000,4.000000,100.000000,,,,,,,,,,,,,,,,,1.000000,0.000000,0.682125,0.105164,-0.686523,0.228760,0.968868,-0.172873,0.046392,-11.729875,-42.794632,64.374512
1703164044.245469,1703164044.246451,5.000000,0.000000,4175.128418,4125.384766,4265.769043,4203.077148,4151.410156,4126.282227,4227.307617,4144.358887,4122.820313,4125.384766,4641.410156,4449.615234,4387.179688,4507.179688,5038.000000,3.000000,71.000000,,,,0.000000,4.000000,4.000000,4.000000,4.000000,4.000000,4.000000,4.000000,4.000000,4.000000,4.000000,4.000000,4.000000,4.000000,4.000000,100.000000,,,,,,,,,,,,,,,,,,,,,,,,,,,,
1703164044.253277,1703164044.254259,6.000000,0.000000,4179.358887,4123.974121,4262.307617,4213.974121,4136.666504,4123.589844,4231.538574,4142.307617,4122.051270,4126.922852,4634.230957,4448.589844,4376.666504,4507.307617,1942.000000,3.000000,71.000000,,,,0.000000,4.000000,4.000000,4.000000,4.000000,4.000000,4.000000,4.000000,4.000000,4.000000,4.000000,4.000000,4.000000,4.000000,4.000000,100.000000,,,,,,,,,,,,,,,,,,,,,,,,,,,,
1703164044.261085,1703164044.262167,7.000000,0.000000,4171.153809,4126.282227,4263.205078,4215.000000,4131.025879,4123.974121,4230.769043,4135.384766,4114.743652,4127.179688,4635.256348,4444.487305,4374.743652,4507.948730,4704.000000,3.000000,71.000000,,,,0.000000,4.000000,4.000000,4.000000,4.000000,4.000000,4.000000,4.000000,4.000000,4.000000,4.000000,4.000000,4.000000,4.000000,4.000000,100.000000,,,,,,,,,,,,,,,,,,,,,,,,,,,,
1703164044.268894,1703164044.269975,8.000000,0.000000,4176.538574,4137.436035,4272.307617,4222.436035,4150.000000,4128.974121,4229.743652,4145.256348,4121.410156,4138.974121,4648.333496,4453.846191,4392.307617,4521.153809,5205.000000,3.000000,71.000000,,,,0.000000,4.000000,4.000000,4.000000,4.000000,4.000000,4.000000,4.000000,4.000000,4.000000,4.000000,4.000000,4.000000,4.000000,4.000000,100.000000,,,,,,,,,,,,,,,,,2.000000,0.000000,0.682209,0.105286,-0.686462,0.228638,0.975705,-0.169454,0.055183,-11.723554,-42.831837,64.437065
1703164044.276702,1703164044.277882,9.000000,0.000000,4196.794922,4143.333496,4281.153809,4235.000000,4163.077148,4132.436035,4231.666504,4155.384766,4132.179688,4159.102539,4654.615234,4467.051270,4403.333496,4537.692383,5333.000000,3.000000,71.000000,,,,0.000000,4.000000,4.000000,4.000000,4.000000,4.000000,4.000000,4.000000,4.000000,4.000000,4.000000,4.000000,4.000000,4.000000,4.000000,100.000000,,,,,,,,,,,,,,,,,,,,,,,,,,,,
1703164044.284510,1703164044.285690,10.000000,0.000000,4197.179688,4133.205078,4280.641113,4231.538574,4143.846191,4125.000000,4228.333496,4144.871582,4127.179688,4152.307617,4656.538574,4457.436035,4401.922852,4536.025879,5696.000000,3.000000,71.000000,,,,0.000000,4.000000,4.000000,4.000000,4.000000,4.000000,4.000000,4.000000,4.000000,4.000000,4.000000,4.000000,4.000000,4.000000,4.000000,100.000000,,,,,,,,,,,,,,,,,,,,,,,,,,,,
1703164044.292318,1703164044.293598,11.000000,0.000000,4185.000000,4128.974121,4276.666504,4226.794922,4133.461426,4122.692383,4229.102539,4139.871582,4120.769043,4140.384766,4663.846191,4458.077148,4404.102539,4528.589844,6070.000000,3.000000,71.000000,,,,0.000000,4.000000,4.000000,4.000000,4.000000,4.000000,4.000000,4.000000,4.000000,4.000000,4.000000,4.000000,4.000000,4.000000,4.000000,100.000000,,,,,,,,,,,,,,,,,,,,,,,,,,,,
1703164044.300126,1703164044.301406,12.000000,0.000000,4185.641113,4135.641113,4280.384766,4235.000000,4153.077148,4135.769043,4233.077148,4153.717773,4126.282227,4150.769043,4664.358887,4471.410156,4405.769043,4529.102539,6426.000000,3.000000,71.000000,,,,0.000000,4.000000,4.000000,4.000000,4.000000,4.000000,4.000000,4.000000,4.000000,4.000000,4.000000,4.000000,4.000000,4.000000,4.000000,100.000000,,,,,,,,,,,,,,,,,3.000000,0.000000,0.682241,0.105347,-0.686401,0.228699,0.975705,-0.174338,0.042974,-11.684532,-42.815319,64.443359
1703164044.307934,1703164044.309114,13.000000,0.000000,4187.948730,4130.384766,4279.230957,4230.897461,4156.282227,4135.641113,4233.461426,4155.256348,4125.000000,4152.563965,4656.025879,4466.794922,4396.538574,4528.333496,6262.000000,3.000000,71.000000,,,,0.000000,4.000000,4.000000,4.000000,4.000000,4.000000,4.000000,4.000000,4.000000,4.000000,4.000000,4.000000,4.000000,4.000000,4.000000,100.000000,,,,,,,,,,,,,,,,,,,,,,,,,,,,
1703164044.315742,1703164044.316922,14.000000,0.000000,4181.922852,4120.769043,4270.512695,4216.666504,4134.743652,4125.128418,4234.743652,4143.077148,4116.153809,4140.641113,4646.922852,4455.897461,4387.948730,4523.589844,5696.000000,3.000000,71.000000,,,,0.000000,4.000000,4.000000,4.000000,4.000000,4.000000,4.000000,4.000000,4.000000,4.000000,4.000000,4.000000,4.000000,4.000000,4.000000,100.000000,,,,,,,,,,,,,,,,,,,,,,,,,,,,
1703164044.323550,1703164044.324630,15.000000,0.000000,4174.615234,4122.051270,4258.589844,4215.256348,4132.436035,4125.256348,4232.179688,4138.205078,4111.410156,4133.461426,4633.589844,4439.487305,4382.051270,4508.205078,6070.000000,3.000000,71.000000,,,,0.000000,4.000000,4.000000,4.000000,4.000000,4.000000,4.000000,4.000000,4.000000,4.000000,4.000000,4.000000,4.000000,4.000000,4.000000,100.000000,,,,,,,,,,,,,,,,,,,,,,,,,,,,
1703164044.331358,1703164044.332438,16.000000,0.000000,4165.512695,4120.256348,4248.333496,4214.743652,4139.358887,4125.897461,4231.153809,4136.025879,4103.333496,4122.436035,4623.717773,4432.051270,4371.538574,4491.025879,0.000000,3.000000,71.000000,,,,0.000000,4.000000,4.000000,4.000000,4.000000,4.000000,4.000000,4.000000,4.000000,4.000000,4.000000,4.000000,4.000000,4.000000,4.000000,100.000000,,,,,,,,,,,,,,,,,4.000000,0.000000,0.682293,0.105408,-0.686340,0.228699,0.977170,-0.168478,0.046881,-11.799412,-42.733788,64.432358
1703164044.339166,1703164044.340146,17.000000,0.000000,4167.820313,4120.256348,4253.461426,4210.512695,4135.641113,4129.102539,4234.871582,4134.487305,4103.333496,4121.410156,4633.717773,4440.256348,4380.256348,4500.769043,0.000000,3.000000,71.000000,,,,0.000000,4.000000,4.000000,4.000000,4.000000,4.000000,4.000000,4.000000,4.000000,4.000000,4.000000,4.000000,4.000000,4.000000,4.000000,100.000000,,,,,,,,,,,,,,,,,,,,,,,,,,,,
1703164044.346974,1703164044.347954,18.000000,0.000000,4181.410156,4132.563965,4265.512695,4221.282227,4141.666504,4140.128418,4235.256348,4138.589844,4116.666504,4138.205078,4648.461426,4445.641113,4397.436035,4528.589844,0.000000,3.000000,71.000000,,,,0.000000,4.000000,4.000000,4.000000,4.000000,4.000000,4.000000,4.000000,4.000000,4.000000,4.000000,4.000000,4.000000,4.000000,4.000000,100.000000,,,,,,,,,,,,,,,,,,,,,,,,,,,,
1703164044.354782,1703164044.355662,19.000000,0.000000,4182.179688,4137.948730,4267.307617,4233.589844,4154.487305,4140.512695,4231.794922,4139.487305,4118.846191,4135.384766,4642.820313,4448.333496,4383.461426,4529.743652,0.000000,3.000000,71.000000,,,,0.000000,4.000000,4.000000,4.000000,4.000000,4.000000,4.000000,4.000000,4.000000,4.000000,4.000000,4.000000,4.000000,4.000000,4.000000,100.000000,,,,,,,,,,,,,,,,,,,,,,,,,,,,
1703164044.362590,1703164044.363470,20.000000,0.000000,4181.538574,4137.563965,4269.743652,4231.666504,4158.461426,4133.974121,4231.410156,4136.538574,4117.563965,4133.333496,4643.846191,4448.974121,4369.230957,4517.436035,0.000000,3.000000,71.000000,,,,0.000000,4.000000,4.000000,4.000000,4.000000,4.000000,4.000000,4.000000,4.000000,4.000000,4.000000,4.000000,4.000000,4.000000,4.000000,100.000000,,,,,,,,,,,,,,,,,5.000000,0.000000,0.682354,0.105408,-0.686340,0.228516,0.972775,-0.165548,0.058113,-11.836138,-42.727074,64.272453
1703164044.370398,1703164044.371178,21.000000,0.000000,4193.846191,4141.025879,4280.000000,4230.000000,4148.077148,4129.230957,4232.179688,4136.794922,4119.743652,4150.384766,4660.512695,4451.538574,4377.436035,4529.358887,0.000000,3.000000,71.000000,,,,0.000000,4.000000,4.000000,4.000000,4.000000,4.000000,4.000000,4.000000,4.000000,4.000000,4.000000,4.000000,4.000000,4.000000,4.000000,100.000000,,,,,,,,,,,,,,,,,,,,,,,,,,,,
1703164044.378206,1703164044.378986,22.000000,0.000000,4199.615234,4140.512695,4281.794922,4233.333496,4140.128418,4124.102539,4226.410156,4138.205078,4115.641113,4151.153809,4663.589844,4456.025879,4375.384766,4541.153809,0.000000,3.000000,71.000000,,,,0.000000,4.000000,4.000000,4.000000,4.000000,4.000000,4.000000,4.000000,4.000000,4.000000,4.000000,4.000000,4.000000,4.000000,4.000000,100.000000,,,,,,,,,,,,,,,,,,,,,,,,,,,,
1703164044.386014,1703164044.386694,23.000000,0.000000,4187.820313,4135.641113,4279.615234,4234.487305,4147.692383,4129.871582,4224.230957,4145.641113,4120.384766,4147.820313,4665.512695,4460.384766,4372.563965,4527.948730,0.000000,3.000000,71.000000,,,,0.000000,4.000000,4.000000,4.000000,4.000000,4.000000,4.000000,4.000000,4.000000,4.000000,4.000000,4.000000,4.000000,4.000000,4.000000,100.000000,,,,,,,,,,,,,,,,,,,,,,,,,,,,
1703164044.393822,1703164044.394502,24.000000,0.000000,4179.487305,4134.615234,4283.589844,4232.563965,4157.948730,4141.538574,4232.307617,4153.461426,4130.000000,4157.820313,4675.128418,4473.717773,4384.487305,4515.641113,0.000000,3.000000,71.000000,,,,0.000000,4.000000,4.000000,4.000000,4.000000,4.000000,4.000000,4.000000,4.000000,4.000000,4.000000,4.000000,4.000000,4.000000,4.000000,100.000000,,,,,,,,,,,,,,,,,6.000000,0.000000,0.682396,0.105530,-0.686340,0.228333,0.970333,-0.170919,0.053717,-12.019191,-42.821033,64.278542
1703164044.401630,1703164044.402211,25.000000,0.000000,4194.487305,4137.307617,4284.615234,4233.077148,4158.333496,4139.102539,4235.000000,4152.948730,4128.205078,4159.743652,4674.871582,4471.282227,4385.897461,4538.589844,0.000000,3.000000,71.000000,,,,0.000000,4.000000,4.000000,4.000000,4.000000,4.000000,4.000000,4.000000,4.000000,4.000000,4.000000,4.000000,4.000000,4.000000,4.000000,100.000000,1.000000,100.000000,4.000000,4.000000,4.000000,4.000000,4.000000,4.000000,4.000000,4.000000,4.000000,4.000000,4.000000,4.000000,4.000000,4.000000,,,,,,,,,,,,
1703164044.409438,1703164044.410018,26.000000,0.000000,4201.794922,4136.794922,4276.025879,4235.128418,4148.461426,4130.384766,4231.538574,4151.538574,4125.769043,4152.563965,4666.666504,4451.538574,4377.307617,4554.743652,0.000000,3.000000,71.000000,,,,0.000000,4.000000,4.000000,4.000000,4.000000,4.000000,4.000000,4.000000,4.000000,4.000000,4.000000,4.000000,4.000000,4.000000,4.000000,100.000000,,,,,,,,,,,,,,,,,,,,,,,,,,,,
1703164044.417246,1703164044.417727,27.000000,0.000000,4185.641113,4130.256348,4268.205078,4231.153809,4149.102539,4129.358887,4232.179688,4150.000000,4125.384766,4151.666504,4664.487305,4452.563965,4378.077148,4528.846191,0.000000,3.000000,71.000000,,,,0.000000,4.000000,4.000000,4.000000,4.000000,4.000000,4.000000,4.000000,4.000000,4.000000,4.000000,4.000000,4.000000,4.000000,4.000000,100.000000,,,,,,,,,,,,,,,,,,,,,,,,,,,,
1703164044.425054,1703164044.425535,28.000000,0.000000,4178.589844,4122.563965,4264.487305,4221.666504,4156.153809,4130.000000,4232.436035,4144.230957,4122.051270,4155.256348,4663.974121,4454.102539,4376.666504,4519.487305,0.000000,3.000000,71.000000,,,,0.000000,4.000000,4.000000,4.000000,4.000000,4.000000,4.000000,4.000000,4.000000,4.000000,4.000000,4.000000,4.000000,4.000000,4.000000,100.000000,,,,,,,,,,,,,,,,,7.000000,0.000000,0.682396,0.105530,-0.686340,0.228333,0.981565,-0.155781,0.062019,-11.817271,-42.805595,64.267349
1703164044.432863,1703164044.433243,29.000000,0.000000,4180.641113,4121.410156,4256.794922,4216.282227,4145.128418,4125.256348,4232.563965,4140.000000,4118.974121,4150.897461,4654.871582,4445.256348,4361.666504,4528.589844,0.000000,3.000000,71.000000,,,,0.000000,4.000000,4.000000,4.000000,4.000000,4.000000,4.000000,4.000000,4.000000,4.000000,4.000000,4.000000,4.000000,4.000000,4.000000,100.000000,,,,,,,,,,,,,,,,,,,,,,,,,,,,
1703164044.440671,1703164044.441051,30.000000,0.000000,4172.948730,4123.846191,4246.922852,4221.666504,4127.179688,4118.717773,4230.641113,4138.077148,4115.384766,4145.512695,4642.563965,4439.743652,4350.512695,4511.538574,0.000000,3.000000,71.000000,,,,0.000000,4.000000,4.000000,4.000000,4.000000,4.000000,4.000000,4.000000,4.000000,4.000000,4.000000,4.000000,4.000000,4.000000,4.000000,100.000000,,,,,,,,,,,,,,,,,,,,,,,,,,,,
1703164044.448479,1703164044.448759,31.000000,0.000000,4164.615234,4121.282227,4246.538574,4222.948730,4132.820313,4119.615234,4230.256348,4134.230957,4111.153809,4148.205078,4638.077148,4428.846191,4353.333496,4503.461426,0.000000,3.000000,71.000000,,,,0.000000,4.000000,4.000000,4.000000,4.000000,4.000000,4.000000,4.000000,4.000000,4.000000,4.000000,4.000000,4.000000,4.000000,4.000000,100.000000,,,,,,,,,,,,,,,,,,,,,,,,,,,,
1703164044.456287,1703164044.456667,32.000000,0.000000,4166.538574,4120.128418,4254.615234,4219.230957,4151.538574,4128.077148,4231.666504,4135.128418,4114.102539,4151.922852,4643.461426,4433.717773,4358.846191,4522.179688,0.000000,3.000000,71.000000,,,,0.000000,4.000000,4.000000,4.000000,4.000000,4.000000,4.000000,4.000000,4.000000,4.000000,4.000000,4.000000,4.000000,4.000000,4.000000,100.000000,,,,,,,,,,,,,,,,,8.000000,0.000000,0.682436,0.105408,-0.686279,0.228455,0.981077,-0.171896,0.046392,-11.735544,-42.808372,64.273949
1703164044.464095,1703164044.464474,33.000000,0.000000,4173.717773,4130.897461,4261.025879,4224.743652,4154.743652,4130.512695,4223.461426,4138.589844,4121.538574,4152.436035,4651.538574,4444.487305,4358.333496,4524.743652,0.000000,3.000000,71.000000,,,,0.000000,4.000000,4.000000,4.000000,4.000000,4.000000,4.000000,4.000000,4.000000,4.000000,4.000000,4.000000,4.000000,4.000000,4.000000,100.000000,,,,,,,,,,,,,,,,,,,,,,,,,,,,
1703164044.471903,1703164044.472382,34.000000,0.000000,4183.717773,4137.948730,4263.461426,4231.025879,4151.153809,4122.948730,4220.641113,4138.461426,4122.692383,4155.512695,4651.025879,4440.000000,4351.794922,4519.615234,0.000000,3.000000,71.000000,,,,0.000000,4.000000,4.000000,4.000000,4.000000,4.000000,4.000000,4.000000,4.000000,4.000000,4.000000,4.000000,4.000000,4.000000,4.000000,100.000000,,,,,,,,,,,,,,,,,,,,,,,,,,,,
1703164044.479711,1703164044.480190,35.000000,0.000000,4184.871582,4134.230957,4262.436035,4230.000000,4148.974121,4123.589844,4224.871582,4136.410156,4116.025879,4154.743652,4646.666504,4437.307617,4349.615234,4527.563965,0.000000,3.000000,71.000000,,,,0.000000,4.000000,4.000000,4.000000,4.000000,4.000000,4.000000,4.000000,4.000000,4.000000,4.000000,4.000000,4.000000,4.000000,4.000000,100.000000,,,,,,,,,,,,,,,,,,,,,,,,,,,,
1703164044.487519,1703164044.488098,36.000000,0.000000,4179.743652,4130.512695,4261.410156,4233.333496,4146.282227,4135.128418,4226.282227,4135.512695,4115.641113,4149.871582,4654.230957,4439.358887,4352.051270,4524.487305,0.000000,3.000000,71.000000,,,,0.000000,4.000000,4.000000,4.000000,4.000000,4.000000,4.000000,4.000000,4.000000,4.000000,4.000000,4.000000,4.000000,4.000000,4.000000,100.000000,,,,,,,,,,,,,,,,,9.000000,0.000000,0.682177,0.105225,-0.686523,0.228577,0.982053,-0.173361,0.043951,-11.761990,-42.860867,64.313225
1703164044.495327,1703164044.495906,37.000000,0.000000,4184.871582,4130.897461,4264.487305,4235.128418,4146.794922,4136.666504,4230.128418,4138.717773,4123.077148,4153.077148,4657.692383,4445.384766,4348.974121,4515.897461,0.000000,3.000000,71.000000,,,,0.000000,4.000000,4.000000,4.000000,4.000000,4.000000,4.000000,4.000000,4.000000,4.000000,4.000000,4.000000,4.000000,4.000000,4.000000,100.000000,,,,,,,,,,,,,,,,,,,,,,,,,,,,
1703164044.503135,1703164044.503814,38.000000,0.000000,4182.563965,4124.743652,4263.333496,4222.179688,4152.179688,4127.563965,4229.358887,4139.615234,4119.615234,4150.128418,4645.897461,4445.641113,4344.230957,4521.922852,0.000000,3.000000,71.000000,,,,0.000000,4.000000,4.000000,4.000000,4.000000,4.000000,4.000000,4.000000,4.000000,4.000000,4.000000,4.000000,4.000000,4.000000,4.000000,100.000000,,,,,,,,,,,,,,,,,,,,,,,,,,,,
1703164044.510943,1703164044.511622,39.000000,0.000000,4167.051270,4111.410156,4253.974121,4212.948730,4151.153809,4120.769043,4223.846191,4130.897461,4104.871582,4131.538574,4639.358887,4434.102539,4341.025879,4523.974121,0.000000,3.000000,71.000000,,,,0.000000,4.000000,4.000000,4.000000,4.000000,4.000000,4.000000,4.000000,4.000000,4.000000,4.000000,4.000000,4.000000,4.000000,4.000000,100.000000,,,,,,,,,,,,,,,,,,,,,,,,,,,,
1703164044.518751,1703164044.519530,40.000000,0.000000,4165.384766,4111.410156,4248.974121,4218.205078,4142.307617,4126.666504,4229.743652,4127.692383,4099.615234,4125.897461,4642.948730,4436.025879,4336.282227,4518.077148,0.000000,3.000000,71.000000,,,,0.000000,4.000000,4.000000,4.000000,4.000000,4.000000,4.000000,4.000000,4.000000,4.000000,4.000000,4.000000,4.000000,4.000000,4.000000,100.000000,,,,,,,,,,,,,,,,,10.000000,0.000000,0.681991,0.105103,-0.686707,0.228638,0.972287,-0.165059,0.050299,-11.752458,-42.891449,64.165230
1703164044.526559,1703164044.527338,41.000000,0.000000,4173.333496,4119.487305,4250.512695,4219.102539,4143.205078,4135.384766,4235.897461,4137.307617,4111.153809,4140.512695,4647.563965,4440.641113,4341.025879,4521.666504,0.000000,3.000000,71.000000,,,,0.000000,4.000000,4.000000,4.000000,4.000000,4.000000,4.000000,4.000000,4.000000,4.000000,4.000000,4.000000,4.000000,4.000000,4.000000,100.000000,,,,,,,,,,,,,,,,,,,,,,,,,,,,
1703164044.534367,1703164044.535046,42.000000,0.000000,4167.692383,4117.692383,4246.794922,4214.487305,4138.461426,4128.205078,4230.384766,4138.461426,4113.333496,4143.974121,4643.333496,4433.974121,4346.282227,4523.461426,0.000000,3.000000,71.000000,,,,0.000000,4.000000,4.000000,4.000000,4.000000,4.000000,4.000000,4.000000,4.000000,4.000000,4.000000,4.000000,4.000000,4.000000,4.000000,100.000000,,,,,,,,,,,,,,,,,,,,,,,,,,,,
1703164044.542175,1703164044.542854,43.000000,0.000000,4167.948730,4120.897461,4250.128418,4220.512695,4134.487305,4124.102539,4229.871582,4133.077148,4109.102539,4137.307617,4644.487305,4436.794922,4341.025879,4522.307617,0.000000,3.000000,71.000000,,,,0.000000,4.000000,4.000000,4.000000,4.000000,4.000000,4.000000,4.000000,4.000000,4.000000,4.000000,4.000000,4.000000,4.000000,4.000000,100.000000,,,,,,,,,,,,,,,,,,,,,,,,,,,,
1703164044.549983,1703164044.550562,44.000000,0.000000,4183.846191,4139.871582,4266.025879,4233.461426,4152.820313,4138.717773,4233.205078,4139.358887,4127.051270,4150.000000,4661.538574,4447.051270,4350.641113,4533.205078,0.000000,3.000000,71.000000,,,,0.000000,4.000000,4.000000,4.000000,4.000000,4.000000,4.000000,4.000000,4.000000,4.000000,4.000000,4.000000,4.000000,4.000000,4.000000,100.000000,,,,,,,,,,,,,,,,,11.000000,0.000000,0.681777,0.105164,-0.686890,0.228699,0.976193,-0.181663,0.040532,-11.743878,-42.835636,64.248711
1703164044.557791,1703164044.558370,45.000000,0.000000,4189.615234,4144.871582,4270.256348,4234.615234,4157.436035,4141.666504,4232.820313,4140.384766,4131.794922,4160.256348,4659.102539,4451.025879,4360.256348,4541.666504,0.000000,3.000000,71.000000,,,,0.000000,4.000000,4.000000,4.000000,4.000000,4.000000,4.000000,4.000000,4.000000,4.000000,4.000000,4.000000,4.000000,4.000000,4.000000,100.000000,,,,,,,,,,,,,,,,,,,,,,,,,,,,
1703164044.565599,1703164044.566078,46.000000,0.000000,4191.794922,4136.282227,4270.641113,4233.974121,4147.051270,4133.974121,4231.794922,4133.846191,4118.461426,4157.692383,4647.307617,4449.102539,4356.153809,4543.846191,0.000000,3.000000,71.000000,,,,0.000000,4.000000,4.000000,4.000000,4.000000,4.000000,4.000000,4.000000,4.000000,4.000000,4.000000,4.000000,4.000000,4.000000,4.000000,100.000000,,,,,,,,,,,,,,,,,,,,,,,,,,,,
1703164044.573407,1703164044.573886,47.000000,0.000000,4198.974121,4138.077148,4281.282227,4236.410156,4159.358887,4137.436035,4232.692383,4141.025879,4127.436035,4163.974121,4665.641113,4453.717773,4363.205078,4537.948730,0.000000,3.000000,71.000000,,,,0.000000,4.000000,4.000000,4.000000,4.000000,4.000000,4.000000,4.000000,4.000000,4.000000,4.000000,4.000000,4.000000,4.000000,4.000000,100.000000,,,,,,,,,,,,,,,,,,,,,,,,,,,,
1703164044.581216,1703164044.581594,48.000000,0.000000,4189.743652,4130.128418,4275.641113,4226.410156,4160.769043,4130.128418,4230.000000,4144.871582,4134.487305,4164.743652,4674.102539,4458.717773,4363.846191,4522.307617,0.000000,3.000000,71.000000,,,,0.000000,4.000000,4.000000,4.000000,4.000000,4.000000,4.000000,4.000000,4.000000,4.000000,4.000000,4.000000,4.000000,4.000000,4.000000,100.000000,,,,,,,,,,,,,,,,,12.000000,0.000000,0.681637,0.105408,-0.686951,0.228821,0.979612,-0.161641,0.041021,-11.652824,-42.868740,64.323837
1703164044.589023,1703164044.589402,49.000000,0.000000,4177.692383,4117.051270,4261.794922,4220.128418,4136.538574,4118.461426,4223.974121,4137.307617,4122.307617,4153.461426,4657.307617,4447.051270,4353.846191,4526.666504,0.000000,3.000000,71.000000,,,,0.000000,4.000000,4.000000,4.000000,4.000000,4.000000,4.000000,4.000000,4.000000,4.000000,4.000000,4.000000,4.000000,4.000000,4.000000,100.000000,,,,,,,,,,,,,,,,,,,,,,,,,,,,
1703164044.596831,1703164044.597110,50.000000,0.000000,4185.641113,4121.538574,4265.897461,4231.153809,4136.025879,4122.820313,4227.948730,4137.179688,4123.461426,4147.436035,4659.871582,4448.974121,4355.769043,4537.948730,0.000000,3.000000,71.000000,,,,0.000000,4.000000,4.000000,4.000000,4.000000,4.000000,4.000000,4.000000,4.000000,4.000000,4.000000,4.000000,4.000000,4.000000,4.000000,100.000000,,,,,,,,,,,,,,,,,,,,,,,,,,,,
1703164044.604640,1703164044.605018,51.000000,0.000000,4186.922852,4124.102539,4267.948730,4236.153809,4147.692383,4131.282227,4233.846191,4141.538574,4131.666504,4146.922852,4672.307617,4458.205078,4358.333496,4529.102539,0.000000,3.000000,71.000000,,,,0.000000,4.000000,4.000000,4.000000,4.000000,4.000000,4.000000,4.000000,4.000000,4.000000,4.000000,4.000000,4.000000,4.000000,4.000000,100.000000,,,,,,,,,,,,,,,,,,,,,,,,,,,,
1703164044.612448,1703164044.612826,52.000000,0.000000,4173.077148,4113.333496,4262.563965,4225.512695,4142.692383,4135.769043,4233.205078,4139.102539,4127.051270,4142.051270,4663.077148,4446.153809,4348.717773,4518.205078,0.000000,3.000000,71.000000,,,,0.000000,4.000000,4.000000,4.000000,4.000000,4.000000,4.000000,4.000000,4.000000,4.000000,4.000000,4.000000,4.000000,4.000000,4.000000,100.000000,,,,,,,,,,,,,,,,,13.000000,0.000000,0.681575,0.105408,-0.687012,0.228821,0.977170,-0.164083,0.050299,-11.754209,-42.898533,64.391457
1703164044.620256,1703164044.620734,53.000000,0.000000,4167.692383,4110.128418,4261.410156,4217.179688,4150.000000,4132.948730,4232.692383,4134.871582,4121.538574,4142.179688,4648.205078,4443.205078,4337.948730,4515.641113,0.000000,3.000000,71.000000,,,,0.000000,4.000000,4.000000,4.000000,4.000000,4.000000,4.000000,4.000000,4.000000,4.000000,4.000000,4.000000,4.000000,4.000000,4.000000,100.000000,,,,,,,,,,,,,,,,,,,,,,,,,,,,
1703164044.628064,1703164044.628542,54.000000,0.000000,4167.436035,4112.307617,4254.230957,4216.025879,4156.410156,4126.282227,4233.589844,4136.282227,4122.948730,4151.410156,4646.538574,4443.333496,4335.384766,4517.051270,0.000000,3.000000,71.000000,,,,0.000000,4.000000,4.000000,4.000000,4.000000,4.000000,4.000000,4.000000,4.000000,4.000000,4.000000,4.000000,4.000000,4.000000,4.000000,100.000000,,,,,,,,,,,,,,,,,,,,,,,,,,,,
1703164044.635872,1703164044.636450,55.000000,0.000000,4162.051270,4105.512695,4245.641113,4216.025879,4136.153809,4126.538574,4238.589844,4140.512695,4124.615234,4150.641113,4643.589844,4433.974121,4332.436035,4519.487305,0.000000,3.000000,71.000000,,,,0.000000,4.000000,4.000000,4.000000,4.000000,4.000000,4.000000,4.000000,4.000000,4.000000,4.000000,4.000000,4.000000,4.000000,4.000000,100.000000,,,,,,,,,,,,,,,,,,,,,,,,,,,,
1703164044.643680,1703164044.644258,56.000000,0.000000,4161.538574,4105.512695,4249.487305,4217.692383,4128.589844,4129.487305,4241.538574,4140.256348,4118.333496,4139.615234,4636.794922,4438.589844,4332.820313,4511.153809,0.000000,3.000000,71.000000,,,,0.000000,4.000000,4.000000,4.000000,4.000000,4.000000,4.000000,4.000000,4.000000,4.000000,4.000000,4.000000,4.000000,4.000000,4.000000,100.000000,,,,,,,,,,,,,,,,,14.000000,0.000000,0.681637,0.105408,-0.686951,0.228821,0.980100,-0.182151,0.041997,-11.745454,-42.958679,64.368973
1703164044.651488,1703164044.652165,57.000000,0.000000,4162.563965,4110.897461,4251.025879,4210.897461,4142.563965,4124.743652,4234.230957,4135.256348,4108.461426,4133.846191,4641.153809,4435.769043,4338.974121,4500.384766,0.000000,3.000000,71.000000,,,,0.000000,4.000000,4.000000,4.000000,4.000000,4.000000,4.000000,4.000000,4.000000,4.000000,4.000000,4.000000,4.000000,4.000000,4.000000,100.000000,,,,,,,,,,,,,,,,,,,,,,,,,,,,
1703164044.659296,1703164044.659973,58.000000,0.000000,4156.153809,4105.641113,4245.384766,4198.205078,4135.000000,4120.256348,4231.153809,4134.102539,4108.846191,4135.256348,4646.794922,4429.358887,4340.769043,4504.743652,0.000000,3.000000,71.000000,,,,0.000000,4.000000,4.000000,4.000000,4.000000,4.000000,4.000000,4.000000,4.000000,4.000000,4.000000,4.000000,4.000000,4.000000,4.000000,100.000000,,,,,,,,,,,,,,,,,,,,,,,,,,,,
1703164044.667104,1703164044.667881,59.000000,0.000000,4160.128418,4110.000000,4250.641113,4203.846191,4121.666504,4127.436035,4234.230957,4139.102539,4123.717773,4141.025879,4651.282227,4440.769043,4347.179688,4508.589844,0.000000,3.000000,71.000000,,,,0.000000,4.000000,4.000000,4.000000,4.000000,4.000000,4.000000,4.000000,4.000000,4.000000,4.000000,4.000000,4.000000,4.000000,4.000000,100.000000,,,,,,,,,,,,,,,,,,,,,,,,,,,,
1703164044.674912,1703164044.675689,60.000000,0.000000,4171.666504,4121.922852,4262.179688,4221.153809,4136.410156,4133.077148,4233.717773,4143.205078,4137.307617,4153.589844,4662.692383,4448.333496,4360.641113,4503.589844,0.000000,3.000000,71.000000,,,,0.000000,4.000000,4.000000,4.000000,4.000000,4.000000,4.000000,4.000000,4.000000,4.000000,4.000000,4.000000,4.000000,4.000000,4.000000,100.000000,,,,,,,,,,,,,,,,,15.000000,0.000000,0.681585,0.105347,-0.687073,0.228638,0.966427,-0.165548,0.030277,-11.720909,-43.029476,64.398743
1703164044.682720,1703164044.683597,61.000000,0.000000,4170.000000,4115.384766,4260.897461,4222.307617,4145.384766,4127.820313,4232.948730,4139.487305,4131.282227,4157.820313,4660.256348,4443.717773,4359.102539,4510.769043,0.000000,3.000000,71.000000,,,,0.000000,4.000000,4.000000,4.000000,4.000000,4.000000,4.000000,4.000000,4.000000,4.000000,4.000000,4.000000,4.000000,4.000000,4.000000,100.000000,,,,,,,,,,,,,,,,,,,,,,,,,,,,
1703164044.690528,1703164044.691405,62.000000,0.000000,4167.820313,4103.974121,4250.641113,4217.436035,4137.692383,4123.717773,4231.794922,4135.897461,4120.512695,4151.666504,4650.769043,4435.000000,4350.512695,4525.897461,0.000000,3.000000,71.000000,,,,0.000000,4.000000,4.000000,4.000000,4.000000,4.000000,4.000000,4.000000,4.000000,4.000000,4.000000,4.000000,4.000000,4.000000,4.000000,100.000000,,,,,,,,,,,,,,,,,,,,,,,,,,,,
1703164044.698336,1703164044.699313,63.000000,0.000000,4167.948730,4102.179688,4249.615234,4223.205078,4139.743652,4126.025879,4231.153809,4138.974121,4121.922852,4151.153809,4653.333496,4437.179688,4353.333496,4521.794922,0.000000,3.000000,71.000000,,,,0.000000,4.000000,4.000000,4.000000,4.000000,4.000000,4.000000,4.000000,4.000000,4.000000,4.000000,4.000000,4.000000,4.000000,4.000000,100.000000,,,,,,,,,,,,,,,,,,,,,,,,,,,,
1703164044.706144,1703164044.707121,64.000000,0.000000,4154.871582,4092.179443,4249.743652,4217.436035,4134.358887,4125.000000,4233.077148,4132.948730,4120.769043,4140.384766,4645.000000,4439.358887,4348.205078,4503.846191,5459.000000,3.000000,71.000000,,,,0.000000,4.000000,4.000000,4.000000,4.000000,4.000000,4.000000,4.000000,4.000000,4.000000,4.000000,4.000000,4.000000,4.000000,4.000000,100.000000,,,,,,,,,,,,,,,,,16.000000,0.000000,0.681534,0.105408,-0.687134,0.228577,0.970822,-0.168478,0.040532,-11.782151,-42.976528,64.392204
1703164044.713952,1703164044.714829,65.000000,0.000000,4147.820313,4077.820557,4236.025879,4203.461426,4119.871582,4118.974121,4231.282227,4125.512695,4110.769043,4120.769043,4629.102539,4423.333496,4337.563965,4503.333496,5395.000000,3.000000,71.000000,,,,0.000000,4.000000,4.000000,4.000000,4.000000,4.000000,4.000000,4.000000,4.000000,4.000000,4.000000,4.000000,4.000000,4.000000,4.000000,100.000000,,,,,,,,,,,,,,,,,,,,,,,,,,,,
1703164044.721760,1703164044.722637,66.000000,0.000000,4153.461426,4080.641113,4229.487305,4206.153809,4128.589844,4118.589844,4231.410156,4133.333496,4106.282227,4121.025879,4633.974121,4422.563965,4345.897461,4509.358887,5300.000000,3.000000,71.000000,,,,0.000000,4.000000,4.000000,4.000000,4.000000,4.000000,4.000000,4.000000,4.000000,4.000000,4.000000,4.000000,4.000000,4.000000,4.000000,100.000000,,,,,,,,,,,,,,,,,,,,,,,,,,,,
1703164044.729568,1703164044.730345,67.000000,0.000000,4151.666504,4092.307617,4241.282227,4215.769043,4144.102539,4123.846191,4232.820313,4138.333496,4113.205078,4137.692383,4647.307617,4435.769043,4361.410156,4507.563965,5222.000000,3.000000,71.000000,,,,0.000000,4.000000,4.000000,4.000000,4.000000,4.000000,4.000000,4.000000,4.000000,4.000000,4.000000,4.000000,4.000000,4.000000,4.000000,100.000000,,,,,,,,,,,,,,,,,,,,,,,,,,,,
1703164044.737376,1703164044.738153,68.000000,0.000000,4156.794922,4102.692383,4254.743652,4215.256348,4138.077148,4125.512695,4231.153809,4134.230957,4119.102539,4146.025879,4652.692383,4439.743652,4369.358887,4519.743652,5006.000000,3.000000,71.000000,,,,0.000000,4.000000,4.000000,4.000000,4.000000,4.000000,4.000000,4.000000,4.000000,4.000000,4.000000,4.000000,4.000000,4.000000,4.000000,100.000000,,,,,,,,,,,,,,,,,17.000000,0.000000,0.681495,0.105530,-0.687134,0.228638,0.976682,-0.162129,0.039067,-11.687269,-42.745544,64.319649
1703164044.745185,1703164044.745861,69.000000,0.000000,4175.000000,4115.769043,4259.615234,4215.641113,4132.307617,4121.538574,4231.538574,4134.102539,4115.641113,4141.794922,4653.717773,4446.922852,4371.666504,4527.820313,5035.000000,3.000000,71.000000,,,,0.000000,4.000000,4.000000,4.000000,4.000000,4.000000,4.000000,4.000000,4.000000,4.000000,4.000000,4.000000,4.000000,4.000000,4.000000,100.000000,,,,,,,,,,,,,,,,,,,,,,,,,,,,
1703164044.752993,1703164044.753769,70.000000,0.000000,4183.846191,4133.717773,4263.589844,4227.563965,4142.307617,4122.436035,4233.077148,4132.820313,4111.666504,4141.025879,4652.436035,4446.538574,4376.538574,4522.820313,1938.000000,3.000000,71.000000,,,,0.000000,4.000000,4.000000,4.000000,4.000000,4.000000,4.000000,4.000000,4.000000,4.000000,4.000000,4.000000,4.000000,4.000000,4.000000,100.000000,,,,,,,,,,,,,,,,,,,,,,,,,,,,
1703164044.760800,1703164044.761577,71.000000,0.000000,4182.563965,4142.436035,4266.666504,4227.436035,4142.436035,4126.666504,4233.717773,4126.794922,4109.102539,4135.769043,4651.282227,4443.205078,4375.769043,4531.794922,4704.000000,3.000000,71.000000,,,,0.000000,4.000000,4.000000,4.000000,4.000000,4.000000,4.000000,4.000000,4.000000,4.000000,4.000000,4.000000,4.000000,4.000000,4.000000,100.000000,,,,,,,,,,,,,,,,,,,,,,,,,,,,
1703164044.768609,1703164044.769486,72.000000,0.000000,4183.077148,4137.948730,4263.461426,4217.051270,4129.487305,4122.179688,4230.897461,4127.563965,4107.436035,4129.102539,4650.128418,4451.153809,4365.384766,4538.077148,5202.000000,3.000000,71.000000,,,,0.000000,4.000000,4.000000,4.000000,4.000000,4.000000,4.000000,4.000000,4.000000,4.000000,4.000000,4.000000,4.000000,4.000000,4.000000,100.000000,,,,,,,,,,,,,,,,,18.000000,0.000000,0.681475,0.105530,-0.687134,0.228699,0.983518,-0.173849,0.051276,-11.801876,-42.754322,64.271019
1703164044.776417,1703164044.777294,73.000000,0.000000,4189.102539,4146.025879,4265.256348,4223.846191,4127.051270,4119.102539,4231.410156,4136.153809,4118.846191,4143.077148,4657.436035,4453.846191,4375.769043,4541.922852,5345.000000,3.000000,71.000000,,,,0.000000,4.000000,4.000000,4.000000,4.000000,4.000000,4.000000,4.000000,4.000000,4.000000,4.000000,4.000000,4.000000,4.000000,4.000000,100.000000,,,,,,,,,,,,,,,,,,,,,,,,,,,,
1703164044.784225,1703164044.785102,74.000000,0.000000,4200.641113,4161.538574,4277.436035,4238.589844,4139.871582,4124.743652,4233.333496,4143.589844,4139.358887,4156.538574,4673.077148,4458.974121,4397.692383,4565.512695,5698.000000,3.000000,71.000000,,,,0.000000,4.000000,4.000000,4.000000,4.000000,4.000000,4.000000,4.000000,4.000000,4.000000,4.000000,4.000000,4.000000,4.000000,4.000000,100.000000,,,,,,,,,,,,,,,,,,,,,,,,,,,,
1703164044.792033,1703164044.792810,75.000000,0.000000,4206.922852,4157.948730,4281.666504,4245.897461,4152.307617,4128.461426,4226.922852,4142.692383,4142.179688,4152.436035,4679.871582,4461.410156,4400.128418,4572.563965,6060.000000,3.000000,71.000000,,,,0.000000,4.000000,4.000000,4.000000,4.000000,4.000000,4.000000,4.000000,4.000000,4.000000,4.000000,4.000000,4.000000,4.000000,4.000000,100.000000,,,,,,,,,,,,,,,,,,,,,,,,,,,,
1703164044.799841,1703164044.800718,76.000000,0.000000,4194.743652,4141.666504,4269.230957,4242.692383,4145.000000,4123.717773,4225.641113,4136.666504,4127.179688,4148.717773,4668.077148,4449.615234,4388.974121,4545.000000,6416.000000,3.000000,71.000000,,,,0.000000,4.000000,4.000000,4.000000,4.000000,4.000000,4.000000,4.000000,4.000000,4.000000,4.000000,4.000000,4.000000,4.000000,4.000000,100.000000,,,,,,,,,,,,,,,,,19.000000,0.000000,0.681547,0.105591,-0.687073,0.228638,0.971310,-0.168478,0.046392,-11.788355,-42.878891,64.293915
1703164044.807649,1703164044.808526,77.000000,0.000000,4181.025879,4138.333496,4261.282227,4229.487305,4138.974121,4123.589844,4229.358887,4137.820313,4121.538574,4156.922852,4656.538574,4447.436035,4384.871582,4536.666504,6247.000000,3.000000,71.000000,,,,0.000000,4.000000,4.000000,4.000000,4.000000,4.000000,4.000000,4.000000,4.000000,4.000000,4.000000,4.000000,4.000000,4.000000,4.000000,100.000000,,,,,,,,,,,,,,,,,,,,,,,,,,,,
1703164044.815457,1703164044.816434,78.000000,0.000000,4179.487305,4139.230957,4259.615234,4217.563965,4141.922852,4128.333496,4230.128418,4138.333496,4124.102539,4155.769043,4660.897461,4442.307617,4384.358887,4547.179688,5698.000000,3.000000,71.000000,,,,0.000000,4.000000,4.000000,4.000000,4.000000,4.000000,4.000000,4.000000,4.000000,4.000000,4.000000,4.000000,4.000000,4.000000,4.000000,100.000000,,,,,,,,,,,,,,,,,,,,,,,,,,,,
1703164044.823265,1703164044.824242,79.000000,0.000000,4166.025879,4120.128418,4247.307617,4213.846191,4125.128418,4118.461426,4227.179688,4124.743652,4113.333496,4131.538574,4651.153809,4426.794922,4370.000000,4528.333496,6060.000000,3.000000,71.000000,,,,0.000000,4.000000,4.000000,4.000000,4.000000,4.000000,4.000000,4.000000,4.000000,4.000000,4.000000,4.000000,4.000000,4.000000,4.000000,100.000000,,,,,,,,,,,,,,,,,,,,,,,,,,,,
1703164044.831073,1703164044.832150,80.000000,0.000000,4150.128418,4105.384766,4238.461426,4213.333496,4117.307617,4117.820313,4219.487305,4120.384766,4102.820313,4118.461426,4633.461426,4421.538574,4357.692383,4507.436035,6416.000000,3.000000,71.000000,,,,0.000000,4.000000,4.000000,4.000000,4.000000,4.000000,4.000000,4.000000,4.000000,4.000000,4.000000,4.000000,4.000000,4.000000,4.000000,100.000000,,,,,,,,,,,,,,,,,20.000000,0.000000,0.681558,0.105652,-0.687134,0.228394,0.978635,-0.170919,0.045416,-11.842853,-42.841000,64.164528
1703164044.838881,1703164044.839958,81.000000,0.000000,4160.000000,4112.563965,4245.128418,4214.487305,4140.256348,4135.256348,4223.205078,4134.615234,4111.922852,4135.128418,4642.436035,4428.974121,4363.589844,4516.666504,6247.000000,3.000000,71.000000,,,,0.000000,4.000000,4.000000,4.000000,4.000000,4.000000,4.000000,4.000000,4.000000,4.000000,4.000000,4.000000,4.000000,4.000000,4.000000,100.000000,,,,,,,,,,,,,,,,,,,,,,,,,,,,
1703164044.846689,1703164044.847865,82.000000,0.000000,4169.230957,4117.436035,4251.410156,4214.743652,4148.589844,4133.589844,4232.179688,4138.461426,4116.666504,4138.974121,4652.820313,4438.974121,4368.717773,4527.307617,5698.000000,3.000000,71.000000,,,,0.000000,4.000000,4.000000,4.000000,4.000000,4.000000,4.000000,4.000000,4.000000,4.000000,4.000000,4.000000,4.000000,4.000000,4.000000,100.000000,,,,,,,,,,,,,,,,,,,,,,,,,,,,
1703164044.854497,1703164044.855673,83.000000,0.000000,4158.205078,4109.487305,4246.666504,4212.563965,4131.282227,4116.538574,4225.897461,4132.563965,4109.871582,4120.384766,4643.717773,4434.102539,4361.666504,4522.948730,6060.000000,3.000000,71.000000,,,,0.000000,4.000000,4.000000,4.000000,4.000000,4.000000,4.000000,4.000000,4.000000,4.000000,4.000000,4.000000,4.000000,4.000000,4.000000,100.000000,,,,,,,,,,,,,,,,,,,,,,,,,,,,
1703164044.862305,1703164044.863581,84.000000,0.000000,4159.743652,4106.666504,4246.025879,4211.025879,4127.692383,4117.307617,4223.205078,4131.153809,4106.794922,4119.487305,4635.897461,4430.384766,4355.128418,4519.487305,6416.000000,3.000000,71.000000,,,,0.000000,4.000000,4.000000,4.000000,4.000000,4.000000,4.000000,4.000000,4.000000,4.000000,4.000000,4.000000,4.000000,4.000000,4.000000,100.000000,,,,,,,,,,,,,,,,,21.000000,0.000000,0.681580,0.105774,-0.687134,0.228271,0.970333,-0.176779,0.057624,-11.825234,-42.906902,64.248070
1703164044.870113,1703164044.871389,85.000000,0.000000,4172.948730,4114.743652,4256.794922,4214.358887,4137.820313,4129.487305,4228.077148,4128.846191,4106.794922,4131.666504,4638.589844,4439.487305,4358.461426,4527.820313,6247.000000,3.000000,71.000000,,,,0.000000,4.000000,4.000000,4.000000,4.000000,4.000000,4.000000,4.000000,4.000000,4.000000,4.000000,4.000000,4.000000,4.000000,4.000000,100.000000,,,,,,,,,,,,,,,,,,,,,,,,,,,,
1703164044.877921,1703164044.879297,86.000000,0.000000,4171.025879,4121.282227,4263.077148,4223.077148,4138.461426,4128.205078,4220.256348,4128.717773,4111.922852,4138.461426,4648.589844,4438.205078,4369.487305,4540.128418,5698.000000,3.000000,71.000000,,,,0.000000,4.000000,4.000000,4.000000,4.000000,4.000000,4.000000,4.000000,4.000000,4.000000,4.000000,4.000000,4.000000,4.000000,4.000000,100.000000,,,,,,,,,,,,,,,,,,,,,,,,,,,,
1703164044.885729,1703164044.887205,87.000000,0.000000,4171.153809,4124.871582,4266.025879,4233.205078,4135.512695,4122.692383,4218.589844,4135.641113,4120.000000,4146.025879,4659.871582,4444.358887,4380.769043,4534.102539,6060.000000,3.000000,71.000000,,,,0.000000,4.000000,4.000000,4.000000,4.000000,4.000000,4.000000,4.000000,4.000000,4.000000,4.000000,4.000000,4.000000,4.000000,4.000000,100.000000,,,,,,,,,,,,,,,,,,,,,,,,,,,,
1703164044.893537,1703164044.895013,88.000000,0.000000,4182.563965,4132.179688,4277.436035,4244.230957,4143.205078,4129.487305,4224.871582,4138.205078,4126.025879,4152.307617,4665.128418,4458.077148,4387.820313,4528.589844,6416.000000,3.000000,71.000000,,,,0.000000,4.000000,4.000000,4.000000,4.000000,4.000000,4.000000,4.000000,4.000000,4.000000,4.000000,4.000000,4.000000,4.000000,4.000000,100.000000,,,,,,,,,,,,,,,,,22.000000,0.000000,0.681589,0.105713,-0.687134,0.228271,0.970333,-0.156269,0.039067,-11.809378,-42.799545,64.156601
1703164044.901345,1703164044.902822,89.000000,0.000000,4187.692383,4140.897461,4284.487305,4247.948730,4160.256348,4136.282227,4218.333496,4138.717773,4130.128418,4155.384766,4673.461426,4456.282227,4395.256348,4549.358887,6247.000000,3.000000,71.000000,,,,0.000000,4.000000,4.000000,4.000000,4.000000,4.000000,4.000000,4.000000,4.000000,4.000000,4.000000,4.000000,4.000000,4.000000,4.000000,100.000000,1.000000,100.000000,4.000000,4.000000,4.000000,4.000000,4.000000,4.000000,4.000000,4.000000,4.000000,4.000000,4.000000,4.000000,4.000000,4.000000,,,,,,,,,,,,
1703164044.909153,1703164044.910530,90.000000,0.000000,4187.820313,4141.538574,4280.256348,4239.358887,4156.922852,4133.333496,4216.025879,4144.743652,4135.384766,4160.769043,4679.358887,4456.666504,4399.230957,4564.487305,5698.000000,3.000000,71.000000,,,,0.000000,4.000000,4.000000,4.000000,4.000000,4.000000,4.000000,4.000000,4.000000,4.000000,4.000000,4.000000,4.000000,4.000000,4.000000,100.000000,,,,,,,,,,,,,,,,,,,,,,,,,,,,
1703164044.916962,1703164044.918338,91.000000,0.000000,4185.512695,4134.358887,4277.179688,4233.333496,4136.538574,4129.358887,4219.615234,4148.077148,4138.974121,4159.487305,4674.743652,4456.153809,4400.384766,4555.897461,6060.000000,3.000000,71.000000,,,,0.000000,4.000000,4.000000,4.000000,4.000000,4.000000,4.000000,4.000000,4.000000,4.000000,4.000000,4.000000,4.000000,4.000000,4.000000,100.000000,,,,,,,,,,,,,,,,,,,,,,,,,,,,
1703164044.924770,1703164044.926046,92.000000,0.000000,4177.692383,4130.128418,4273.461426,4234.487305,4134.871582,4126.410156,4217.692383,4144.230957,4132.307617,4146.153809,4665.256348,4452.051270,4393.717773,4544.358887,6416.000000,3.000000,71.000000,,,,0.000000,4.000000,4.000000,4.000000,4.000000,4.000000,4.000000,4.000000,4.000000,4.000000,4.000000,4.000000,4.000000,4.000000,4.000000,100.000000,,,,,,,,,,,,,,,,,23.000000,0.000000,0.681755,0.105835,-0.686951,0.228271,0.974728,-0.171896,0.052252,-11.845106,-42.702923,64.240936
1703164044.932577,1703164044.933854,93.000000,0.000000,4167.563965,4121.282227,4263.333496,4226.282227,4144.358887,4123.717773,4217.563965,4137.436035,4123.333496,4142.179688,4654.615234,4448.974121,4377.436035,4536.922852,6247.000000,3.000000,71.000000,,,,0.000000,4.000000,4.000000,4.000000,4.000000,4.000000,4.000000,4.000000,4.000000,4.000000,4.000000,4.000000,4.000000,4.000000,4.000000,100.000000,,,,,,,,,,,,,,,,,,,,,,,,,,,,
1703164044.940386,1703164044.941562,94.000000,0.000000,4157.051270,4109.230957,4257.820313,4209.358887,4138.461426,4125.128418,4219.743652,4136.153809,4123.589844,4147.820313,4651.666504,4439.102539,4374.230957,4527.179688,5698.000000,3.000000,71.000000,,,,0.000000,4.000000,4.000000,4.000000,4.000000,4.000000,4.000000,4.000000,4.000000,4.000000,4.000000,4.000000,4.000000,4.000000,4.000000,100.000000,,,,,,,,,,,,,,,,,,,,,,,,,,,,
1703164044.948194,1703164044.949370,95.000000,0.000000,4153.333496,4113.333496,4259.230957,4206.666504,4127.179688,4126.025879,4218.717773,4140.512695,4125.769043,4147.563965,4658.589844,4445.512695,4384.358887,4520.256348,6060.000000,3.000000,71.000000,,,,0.000000,4.000000,4.000000,4.000000,4.000000,4.000000,4.000000,4.000000,4.000000,4.000000,4.000000,4.000000,4.000000,4.000000,4.000000,100.000000,,,,,,,,,,,,,,,,,,,,,,,,,,,,
1703164044.956002,1703164044.957078,96.000000,0.000000,4164.358887,4127.436035,4262.179688,4216.922852,4133.205078,4129.615234,4217.179688,4145.256348,4127.051270,4147.436035,4661.922852,4456.666504,4384.615234,4529.487305,6416.000000,3.000000,71.000000,,,,0.000000,4.000000,4.000000,4.000000,4.000000,4.000000,4.000000,4.000000,4.000000,4.000000,4.000000,4.000000,4.000000,4.000000,4.000000,100.000000,,,,,,,,,,,,,,,,,24.000000,0.000000,0.682056,0.105347,-0.686646,0.228516,0.977170,-0.166036,0.045904,-11.827262,-42.532631,64.266846
1703164044.963810,1703164044.964886,97.000000,0.000000,4168.717773,4126.538574,4264.230957,4217.948730,4144.487305,4133.846191,4222.563965,4150.256348,4134.358887,4154.743652,4656.282227,4453.461426,4377.820313,4545.384766,6247.000000,3.000000,71.000000,,,,0.000000,4.000000,4.000000,4.000000,4.000000,4.000000,4.000000,4.000000,4.000000,4.000000,4.000000,4.000000,4.000000,4.000000,4.000000,100.000000,,,,,,,,,,,,,,,,,,,,,,,,,,,,
1703164044.971618,1703164044.972594,98.000000,0.000000,4160.512695,4121.282227,4263.974121,4207.820313,4139.615234,4129.487305,4225.641113,4152.436035,4137.948730,4154.871582,4654.230957,4455.000000,4375.897461,4546.794922,5698.000000,3.000000,71.000000,,,,0.000000,4.000000,4.000000,4.000000,4.000000,4.000000,4.000000,4.000000,4.000000,4.000000,4.000000,4.000000,4.000000,4.000000,4.000000,100.000000,,,,,,,,,,,,,,,,,,,,,,,,,,,,
1703164044.979426,1703164044.980502,99.000000,0.000000,4163.461426,4134.743652,4267.179688,4213.846191,4136.025879,4128.205078,4217.948730,4152.692383,4135.000000,4149.871582,4661.922852,4459.358887,4381.538574,4538.333496,6060.000000,3.000000,71.000000,,,,0.000000,4.000000,4.000000,4.000000,4.000000,4.000000,4.000000,4.000000,4.000000,4.000000,4.000000,4.000000,4.000000,4.000000,4.000000,100.000000,,,,,,,,,,,,,,,,,,,,,,,,,,,,
1703164044.987234,1703164044.988310,100.000000,0.000000,4172.307617,4145.897461,4273.205078,4232.179688,4145.769043,4129.615234,4216.666504,4154.615234,4135.641113,4153.333496,4664.102539,4463.333496,4388.333496,4540.384766,6416.000000,3.000000,71.000000,,,,0.000000,4.000000,4.000000,4.000000,4.000000,4.000000,4.000000,4.000000,4.000000,4.000000,4.000000,4.000000,4.000000,4.000000,4.000000,100.000000,,,,,,,,,,,,,,,,,25.000000,0.000000,0.682003,0.105164,-0.686707,0.228577,0.969357,-0.172873,0.050787,-11.711203,-42.479366,64.223495
1703164044.995042,1703164044.996218,101.000000,0.000000,4177.436035,4145.128418,4277.948730,4237.179688,4143.333496,4124.615234,4218.846191,4153.589844,4137.692383,4153.717773,4661.153809,4464.871582,4387.692383,4551.922852,6247.000000,3.000000,71.000000,,,,0.000000,4.000000,4.000000,4.000000,4.000000,4.000000,4.000000,4.000000,4.000000,4.000000,4.000000,4.000000,4.000000,4.000000,4.000000,100.000000,,,,,,,,,,,,,,,,,,,,,,,,,,,,
1703164045.002850,1703164045.004026,102.000000,0.000000,4181.922852,4151.410156,4278.205078,4233.589844,4134.102539,4127.307617,4218.333496,4150.128418,4138.846191,4151.538574,4665.000000,4456.025879,4386.025879,4554.487305,5698.000000,3.000000,71.000000,,,,0.000000,4.000000,4.000000,4.000000,4.000000,4.000000,4.000000,4.000000,4.000000,4.000000,4.000000,4.000000,4.000000,4.000000,4.000000,100.000000,,,,,,,,,,,,,,,,,,,,,,,,,,,,
1703164045.010658,1703164045.011934,103.000000,0.000000,4177.820313,4152.436035,4270.897461,4231.282227,4145.256348,4138.461426,4220.256348,4151.410156,4139.871582,4156.153809,4663.717773,4454.487305,4384.487305,4542.692383,6060.000000,3.000000,71.000000,,,,0.000000,4.000000,4.000000,4.000000,4.000000,4.000000,4.000000,4.000000,4.000000,4.000000,4.000000,4.000000,4.000000,4.000000,4.000000,100.000000,,,,,,,,,,,,,,,,,,,,,,,,,,,,
1703164045.018466,1703164045.019742,104.000000,0.000000,4169.230957,4144.358887,4266.666504,4232.307617,4158.846191,4142.948730,4220.641113,4152.051270,4137.436035,4161.153809,4654.487305,4454.615234,4383.205078,4538.333496,6416.000000,3.000000,71.000000,,,,0.000000,4.000000,4.000000,4.000000,4.000000,4.000000,4.000000,4.000000,4.000000,4.000000,4.000000,4.000000,4.000000,4.000000,4.000000,100.000000,,,,,,,,,,,,,,,,,26.000000,0.000000,0.681939,0.105042,-0.686829,0.228455,0.970333,-0.159199,0.038091,-11.606750,-42.348099,64.184479
1703164045.026274,1703164045.027650,105.000000,0.000000,4164.743652,4142.307617,4265.897461,4230.384766,4157.179688,4141.538574,4221.282227,4146.666504,4132.307617,4152.307617,4648.077148,4444.743652,4379.871582,4550.769043,6247.000000,3.000000,71.000000,,,,0.000000,4.000000,4.000000,4.000000,4.000000,4.000000,4.000000,4.000000,4.000000,4.000000,4.000000,4.000000,4.000000,4.000000,4.000000,100.000000,,,,,,,,,,,,,,,,,,,,,,,,,,,,
1703164045.034082,1703164045.035458,106.000000,0.000000,4163.333496,4142.307617,4256.025879,4221.538574,4151.410156,4140.256348,4220.384766,4142.948730,4129.358887,4139.487305,4643.717773,4440.512695,4370.256348,4552.820313,5698.000000,3.000000,71.000000,,,,0.000000,4.000000,4.000000,4.000000,4.000000,4.000000,4.000000,4.000000,4.000000,4.000000,4.000000,4.000000,4.000000,4.000000,4.000000,100.000000,,,,,,,,,,,,,,,,,,,,,,,,,,,,
1703164045.041890,1703164045.043366,107.000000,0.000000,4161.025879,4137.179688,4245.641113,4213.333496,4145.897461,4138.846191,4219.230957,4143.077148,4128.717773,4135.000000,4642.948730,4438.333496,4364.743652,4543.077148,6060.000000,3.000000,71.000000,,,,0.000000,4.000000,4.000000,4.000000,4.000000,4.000000,4.000000,4.000000,4.000000,4.000000,4.000000,4.000000,4.000000,4.000000,4.000000,100.000000,,,,,,,,,,,,,,,,,,,,,,,,,,,,
1703164045.049698,1703164045.051173,108.000000,0.000000,4154.615234,4135.256348,4248.077148,4210.000000,4136.025879,4132.948730,4223.461426,4139.743652,4123.333496,4131.666504,4640.512695,4441.153809,4366.538574,4548.333496,6416.000000,3.000000,71.000000,,,,0.000000,4.000000,4.000000,4.000000,4.000000,4.000000,4.000000,4.000000,4.000000,4.000000,4.000000,4.000000,4.000000,4.000000,4.000000,100.000000,,,,,,,,,,,,,,,,,27.000000,0.000000,0.681984,0.105286,-0.686768,0.228394,0.980100,-0.171896,0.052252,-11.579408,-42.596622,64.382698
1703164045.057506,1703164045.058882,109.000000,0.000000,4155.384766,4146.538574,4250.641113,4211.666504,4137.692383,4132.820313,4222.820313,4141.666504,4120.384766,4134.358887,4638.205078,4446.282227,4369.487305,4558.846191,6247.000000,3.000000,71.000000,,,,0.000000,4.000000,4.000000,4.000000,4.000000,4.000000,4.000000,4.000000,4.000000,4.000000,4.000000,4.000000,4.000000,4.000000,4.000000,100.000000,,,,,,,,,,,,,,,,,,,,,,,,,,,,
1703164045.065314,1703164045.066690,110.000000,0.000000,4167.563965,4155.000000,4247.948730,4211.922852,4143.205078,4137.692383,4222.948730,4145.641113,4123.717773,4134.102539,4642.563965,4442.948730,4367.820313,4549.358887,5698.000000,3.000000,71.000000,,,,0.000000,4.000000,4.000000,4.000000,4.000000,4.000000,4.000000,4.000000,4.000000,4.000000,4.000000,4.000000,4.000000,4.000000,4.000000,100.000000,,,,,,,,,,,,,,,,,,,,,,,,,,,,
1703164045.073122,1703164045.074597,111.000000,0.000000,4167.692383,4152.948730,4253.461426,4212.563965,4142.436035,4136.282227,4228.717773,4140.641113,4122.692383,4126.922852,4643.717773,4447.692383,4367.051270,4540.897461,6060.000000,3.000000,71.000000,,,,0.000000,4.000000,4.000000,4.000000,4.000000,4.000000,4.000000,4.000000,4.000000,4.000000,4.000000,4.000000,4.000000,4.000000,4.000000,100.000000,,,,,,,,,,,,,,,,,,,,,,,,,,,,
1703164045.080931,1703164045.082405,112.000000,0.000000,4170.128418,4159.102539,4263.333496,4223.717773,4151.410156,4136.794922,4224.102539,4142.179688,4124.102539,4140.897461,4640.897461,4451.538574,4377.307617,4556.538574,6416.000000,3.000000,71.000000,,,,0.000000,4.000000,4.000000,4.000000,4.000000,4.000000,4.000000,4.000000,4.000000,4.000000,4.000000,4.000000,4.000000,4.000000,4.000000,100.000000,,,,,,,,,,,,,,,,,28.000000,0.000000,0.681995,0.105347,-0.686707,0.228516,0.989867,-0.165548,0.048834,-11.638133,-42.603626,64.194427
1703164045.088739,1703164045.090113,113.000000,0.000000,4183.077148,4169.487305,4270.512695,4237.179688,4155.641113,4136.410156,4215.512695,4149.743652,4127.179688,4154.743652,4647.948730,4451.922852,4383.589844,4566.794922,6247.000000,3.000000,71.000000,,,,0.000000,4.000000,4.000000,4.000000,4.000000,4.000000,4.000000,4.000000,4.000000,4.000000,4.000000,4.000000,4.000000,4.000000,4.000000,100.000000,,,,,,,,,,,,,,,,,,,,,,,,,,,,
1703164045.096547,1703164045.097921,114.000000,0.000000,4177.563965,4161.922852,4273.333496,4236.282227,4141.922852,4126.282227,4217.692383,4144.102539,4124.871582,4140.256348,4659.487305,4456.410156,4379.743652,4554.743652,5698.000000,3.000000,71.000000,,,,0.000000,4.000000,4.000000,4.000000,4.000000,4.000000,4.000000,4.000000,4.000000,4.000000,4.000000,4.000000,4.000000,4.000000,4.000000,100.000000,,,,,,,,,,,,,,,,,,,,,,,,,,,,
1703164045.104355,1703164045.105629,115.000000,0.000000,4174.743652,4153.333496,4275.128418,4232.307617,4134.615234,4121.538574,4218.077148,4137.307617,4128.077148,4140.641113,4664.102539,4453.333496,4387.820313,4555.769043,6060.000000,3.000000,71.000000,,,,0.000000,4.000000,4.000000,4.000000,4.000000,4.000000,4.000000,4.000000,4.000000,4.000000,4.000000,4.000000,4.000000,4.000000,4.000000,100.000000,,,,,,,,,,,,,,,,,,,,,,,,,,,,
1703164045.112163,1703164045.113437,116.000000,0.000000,4185.641113,4160.769043,4274.615234,4234.230957,4139.230957,4122.948730,4215.128418,4141.922852,4130.512695,4156.025879,4662.948730,4453.846191,4398.846191,4575.000000,6416.000000,3.000000,71.000000,,,,0.000000,4.000000,4.000000,4.000000,4.000000,4.000000,4.000000,4.000000,4.000000,4.000000,4.000000,4.000000,4.000000,4.000000,4.000000,100.000000,,,,,,,,,,,,,,,,,29.000000,0.000000,0.682058,0.105469,-0.686646,0.228455,0.979612,-0.167013,0.047369,-11.690987,-42.609928,64.274986
1703164045.119971,1703164045.121146,117.000000,0.000000,4180.000000,4162.820313,4270.769043,4234.102539,4147.948730,4122.307617,4216.666504,4143.717773,4128.205078,4148.333496,4661.538574,4454.871582,4389.487305,4574.358887,6247.000000,3.000000,71.000000,,,,0.000000,4.000000,4.000000,4.000000,4.000000,4.000000,4.000000,4.000000,4.000000,4.000000,4.000000,4.000000,4.000000,4.000000,4.000000,100.000000,,,,,,,,,,,,,,,,,,,,,,,,,,,,
1703164045.127779,1703164045.128954,118.000000,0.000000,4170.000000,4156.922852,4266.666504,4229.487305,4156.153809,4128.461426,4224.358887,4142.179688,4125.641113,4135.897461,4658.077148,4446.922852,4377.179688,4553.717773,5698.000000,3.000000,71.000000,,,,0.000000,4.000000,4.000000,4.000000,4.000000,4.000000,4.000000,4.000000,4.000000,4.000000,4.000000,4.000000,4.000000,4.000000,4.000000,100.000000,,,,,,,,,,,,,,,,,,,,,,,,,,,,
1703164045.135587,1703164045.136662,119.000000,0.000000,4173.333496,4150.769043,4257.436035,4218.589844,4147.948730,4136.153809,4226.410156,4144.615234,4123.333496,4135.641113,4649.102539,4440.256348,4376.410156,4546.666504,6060.000000,3.000000,71.000000,,,,0.000000,4.000000,4.000000,4.000000,4.000000,4.000000,4.000000,4.000000,4.000000,4.000000,4.000000,4.000000,4.000000,4.000000,4.000000,100.000000,,,,,,,,,,,,,,,,,,,,,,,,,,,,
1703164045.143395,1703164045.144470,120.000000,0.000000,4170.769043,4148.717773,4249.358887,4214.102539,4143.974121,4138.461426,4220.769043,4145.769043,4130.512695,4137.563965,4646.922852,4435.512695,4376.794922,4558.846191,6416.000000,3.000000,71.000000,,,,0.000000,4.000000,4.000000,4.000000,4.000000,4.000000,4.000000,4.000000,4.000000,4.000000,4.000000,4.000000,4.000000,4.000000,4.000000,100.000000,,,,,,,,,,,,,,,,,30.000000,0.000000,0.682181,0.105469,-0.686523,0.228455,0.970822,-0.171896,0.050299,-11.621888,-42.515602,64.064156
1703164045.151203,1703164045.152178,121.000000,0.000000,4163.333496,4153.589844,4249.358887,4218.077148,4151.794922,4135.000000,4223.461426,4141.666504,4134.102539,4132.436035,4643.461426,4436.282227,4365.769043,4558.846191,6247.000000,3.000000,71.000000,,,,0.000000,4.000000,4.000000,4.000000,4.000000,4.000000,4.000000,4.000000,4.000000,4.000000,4.000000,4.000000,4.000000,4.000000,4.000000,100.000000,,,,,,,,,,,,,,,,,,,,,,,,,,,,
1703164045.159011,1703164045.159986,122.000000,0.000000,4165.128418,4154.871582,4249.743652,4215.384766,4146.410156,4129.230957,4224.358887,4134.358887,4122.563965,4125.512695,4631.666504,4435.641113,4357.692383,4536.410156,5698.000000,3.000000,71.000000,,,,0.000000,4.000000,4.000000,4.000000,4.000000,4.000000,4.000000,4.000000,4.000000,4.000000,4.000000,4.000000,4.000000,4.000000,4.000000,100.000000,,,,,,,,,,,,,,,,,,,,,,,,,,,,
1703164045.166819,1703164045.167694,123.000000,0.000000,4165.641113,4156.153809,4247.436035,4209.743652,4139.230957,4126.922852,4220.897461,4136.153809,4120.256348,4127.179688,4631.794922,4429.358887,4370.256348,4527.692383,6060.000000,3.000000,71.000000,,,,0.000000,4.000000,4.000000,4.000000,4.000000,4.000000,4.000000,4.000000,4.000000,4.000000,4.000000,4.000000,4.000000,4.000000,4.000000,100.000000,,,,,,,,,,,,,,,,,,,,,,,,,,,,
1703164045.174627,1703164045.175502,124.000000,0.000000,4167.948730,4166.410156,4253.717773,4211.794922,4148.589844,4131.538574,4224.102539,4147.307617,4132.692383,4137.692383,4644.230957,4438.974121,4384.358887,4548.077148,6416.000000,3.000000,71.000000,,,,0.000000,4.000000,4.000000,4.000000,4.000000,4.000000,4.000000,4.000000,4.000000,4.000000,4.000000,4.000000,4.000000,4.000000,4.000000,100.000000,,,,,,,,,,,,,,,,,31.000000,0.000000,0.682110,0.105530,-0.686646,0.228271,0.988402,-0.163594,0.057136,-11.759699,-42.614044,64.191071
1703164045.182435,1703164045.183210,125.000000,0.000000,4177.436035,4173.974121,4262.820313,4220.384766,4153.461426,4133.205078,4223.205078,4153.205078,4138.717773,4142.436035,4652.692383,4446.922852,4382.307617,4563.461426,6247.000000,3.000000,71.000000,,,,0.000000,4.000000,4.000000,4.000000,4.000000,4.000000,4.000000,4.000000,4.000000,4.000000,4.000000,4.000000,4.000000,4.000000,4.000000,100.000000,,,,,,,,,,,,,,,,,,,,,,,,,,,,
