title:شاهين حذف, start timestamp:1703488850.248117, stop timestamp:1703488860.976369, headset type:EPOCX, headset serial:E50206EF, headset firmware:720, channels:67, sampling rate:eeg_128;mot_32, samples:1375      , version:2.2, 
Timestamp,OriginalTimestamp,EEG.Counter,EEG.Interpolated,EEG.AF3,EEG.F7,EEG.F3,EEG.FC5,EEG.T7,EEG.P7,EEG.O1,EEG.O2,EEG.P8,EEG.T8,EEG.FC6,EEG.F4,EEG.F8,EEG.AF4,EEG.RawCq,EEG.Battery,EEG.BatteryPercent,MarkerIndex,MarkerType,MarkerValueInt,EEG.MarkerHardware,CQ.AF3,CQ.F7,CQ.F3,CQ.FC5,CQ.T7,CQ.P7,CQ.O1,CQ.O2,CQ.P8,CQ.T8,CQ.FC6,CQ.F4,CQ.F8,CQ.AF4,CQ.Overall,EQ.SampleRateQuality,EQ.OVERALL,EQ.AF3,EQ.F7,EQ.F3,EQ.FC5,EQ.T7,EQ.P7,EQ.O1,EQ.O2,EQ.P8,EQ.T8,EQ.FC6,EQ.F4,EQ.F8,EQ.AF4,MOT.CounterMems,MOT.InterpolatedMems,MOT.Q0,MOT.Q1,MOT.Q2,MOT.Q3,MOT.AccX,MOT.AccY,MOT.AccZ,MOT.MagX,MOT.MagY,MOT.MagZ
1703488850.248117,1703488850.248424,0.000000,0.000000,4318.846191,4280.769043,4330.128418,4342.563965,4260.000000,4253.077148,4215.256348,4278.205078,4233.717773,4319.743652,4526.025879,4501.538574,4385.512695,4462.307617,5450.000000,4.000000,96.000000,,,,0.000000,4.000000,4.000000,4.000000,4.000000,4.000000,4.000000,4.000000,4.000000,4.000000,4.000000,4.000000,4.000000,4.000000,4.000000,100.000000,,,,,,,,,,,,,,,,,0.000000,0.000000,0.718122,-0.121826,-0.672546,0.130920,0.916616,-0.338909,0.050299,-10.779397,-43.211742,61.139874
1703488850.255925,1703488850.256332,1.000000,0.000000,4310.641113,4279.230957,4322.051270,4343.589844,4259.358887,4251.282227,4217.820313,4284.358887,4244.230957,4322.179688,4511.922852,4492.820313,4376.538574,4447.692383,5541.000000,4.000000,96.000000,,,,0.000000,4.000000,4.000000,4.000000,4.000000,4.000000,4.000000,4.000000,4.000000,4.000000,4.000000,4.000000,4.000000,4.000000,4.000000,100.000000,,,,,,,,,,,,,,,,,,,,,,,,,,,,
1703488850.263733,1703488850.264140,2.000000,0.000000,4295.769043,4263.077148,4312.948730,4321.794922,4251.025879,4247.692383,4221.666504,4272.948730,4247.820313,4309.615234,4493.461426,4473.717773,4354.358887,4431.282227,5344.000000,4.000000,96.000000,,,,0.000000,4.000000,4.000000,4.000000,4.000000,4.000000,4.000000,4.000000,4.000000,4.000000,4.000000,4.000000,4.000000,4.000000,4.000000,100.000000,,,,,,,,,,,,,,,,,,,,,,,,,,,,
1703488850.271541,1703488850.271848,3.000000,0.000000,4293.589844,4258.846191,4308.333496,4319.871582,4250.897461,4253.846191,4220.128418,4263.846191,4240.128418,4303.717773,4487.820313,4468.461426,4352.307617,4428.974121,5397.000000,4.000000,96.000000,,,,0.000000,4.000000,4.000000,4.000000,4.000000,4.000000,4.000000,4.000000,4.000000,4.000000,4.000000,4.000000,4.000000,4.000000,4.000000,100.000000,,,,,,,,,,,,,,,,,,,,,,,,,,,,
1703488850.279349,1703488850.279656,4.000000,0.000000,4297.051270,4270.641113,4303.846191,4328.077148,4260.641113,4262.692383,4223.589844,4253.589844,4232.820313,4304.871582,4482.820313,4463.589844,4362.307617,4427.563965,5250.000000,4.000000,96.000000,,,,0.000000,4.000000,4.000000,4.000000,4.000000,4.000000,4.000000,4.000000,4.000000,4.000000,4.000000,4.000000,4.000000,4.000000,4.000000,100.000000,,,,,,,,,,,,,,,,,1.000000,0.000000,0.718236,-0.121765,-0.672424,0.130981,0.921499,-0.341839,0.070321,-10.851458,-43.340569,61.075886
1703488850.287157,1703488850.287364,5.000000,0.000000,4292.948730,4277.051270,4302.563965,4306.922852,4261.025879,4263.589844,4226.922852,4239.871582,4225.641113,4296.410156,4474.230957,4451.153809,4357.307617,4422.436035,5108.000000,4.000000,96.000000,,,,0.000000,4.000000,4.000000,4.000000,4.000000,4.000000,4.000000,4.000000,4.000000,4.000000,4.000000,4.000000,4.000000,4.000000,4.000000,100.000000,,,,,,,,,,,,,,,,,,,,,,,,,,,,
1703488850.294965,1703488850.295172,6.000000,0.000000,4293.589844,4276.410156,4307.820313,4304.615234,4265.256348,4262.307617,4223.589844,4233.333496,4221.282227,4294.615234,4477.692383,4452.820313,4356.410156,4424.871582,1753.000000,4.000000,96.000000,,,,0.000000,4.000000,4.000000,4.000000,4.000000,4.000000,4.000000,4.000000,4.000000,4.000000,4.000000,4.000000,4.000000,4.000000,4.000000,100.000000,,,,,,,,,,,,,,,,,,,,,,,,,,,,
1703488850.302773,1703488850.302880,7.000000,0.000000,4304.358887,4277.436035,4308.717773,4335.384766,4274.487305,4266.410156,4224.487305,4233.461426,4224.230957,4305.897461,4491.282227,4463.974121,4370.128418,4431.666504,5148.000000,4.000000,96.000000,,,,0.000000,4.000000,4.000000,4.000000,4.000000,4.000000,4.000000,4.000000,4.000000,4.000000,4.000000,4.000000,4.000000,4.000000,4.000000,100.000000,,,,,,,,,,,,,,,,,,,,,,,,,,,,
1703488850.310581,1703488850.310688,8.000000,0.000000,4305.000000,4279.230957,4306.025879,4335.897461,4269.487305,4263.846191,4223.974121,4233.589844,4225.897461,4311.666504,4500.769043,4469.487305,4380.000000,4436.794922,5308.000000,4.000000,96.000000,,,,0.000000,4.000000,4.000000,4.000000,4.000000,4.000000,4.000000,4.000000,4.000000,4.000000,4.000000,4.000000,4.000000,4.000000,4.000000,100.000000,,,,,,,,,,,,,,,,,2.000000,0.000000,0.718269,-0.121765,-0.672424,0.130798,0.917592,-0.349164,0.069833,-10.849645,-43.406509,61.084965
1703488850.318389,1703488850.318396,9.000000,0.000000,4296.025879,4277.051270,4313.205078,4315.384766,4260.641113,4254.487305,4219.871582,4238.077148,4222.051270,4315.769043,4507.307617,4480.512695,4377.563965,4441.410156,5315.000000,4.000000,96.000000,,,,0.000000,4.000000,4.000000,4.000000,4.000000,4.000000,4.000000,4.000000,4.000000,4.000000,4.000000,4.000000,4.000000,4.000000,4.000000,100.000000,,,,,,,,,,,,,,,,,,,,,,,,,,,,
1703488850.326197,1703488850.326304,10.000000,0.000000,4300.512695,4277.436035,4317.692383,4323.077148,4266.922852,4252.436035,4222.307617,4248.589844,4219.743652,4316.410156,4511.153809,4490.897461,4376.538574,4444.743652,5843.000000,4.000000,96.000000,,,,0.000000,4.000000,4.000000,4.000000,4.000000,4.000000,4.000000,4.000000,4.000000,4.000000,4.000000,4.000000,4.000000,4.000000,4.000000,100.000000,,,,,,,,,,,,,,,,,,,,,,,,,,,,
1703488850.334005,1703488850.334112,11.000000,0.000000,4305.512695,4279.487305,4314.230957,4328.846191,4269.743652,4252.179688,4224.102539,4259.358887,4220.384766,4304.358887,4510.256348,4488.846191,4382.179688,4445.897461,6270.000000,4.000000,96.000000,,,,0.000000,4.000000,4.000000,4.000000,4.000000,4.000000,4.000000,4.000000,4.000000,4.000000,4.000000,4.000000,4.000000,4.000000,4.000000,100.000000,,,,,,,,,,,,,,,,,,,,,,,,,,,,
1703488850.341813,1703488850.341920,12.000000,0.000000,4295.641113,4271.922852,4320.000000,4301.153809,4254.487305,4246.794922,4213.846191,4271.410156,4224.615234,4301.410156,4508.846191,4489.615234,4381.922852,4445.769043,6766.000000,4.000000,96.000000,,,,0.000000,4.000000,4.000000,4.000000,4.000000,4.000000,4.000000,4.000000,4.000000,4.000000,4.000000,4.000000,4.000000,4.000000,4.000000,100.000000,,,,,,,,,,,,,,,,,3.000000,0.000000,0.718334,-0.121643,-0.672424,0.130554,0.923941,-0.348187,0.061531,-10.864680,-43.349194,61.026466
1703488850.349621,1703488850.349628,13.000000,0.000000,4291.538574,4260.512695,4326.282227,4294.230957,4244.487305,4243.974121,4211.025879,4278.077148,4233.333496,4312.307617,4506.410156,4493.333496,4369.871582,4441.282227,6922.000000,4.000000,96.000000,,,,0.000000,4.000000,4.000000,4.000000,4.000000,4.000000,4.000000,4.000000,4.000000,4.000000,4.000000,4.000000,4.000000,4.000000,4.000000,100.000000,,,,,,,,,,,,,,,,,,,,,,,,,,,,
1703488850.357429,1703488850.357436,14.000000,0.000000,4297.179688,4264.102539,4318.461426,4321.025879,4250.897461,4246.538574,4217.948730,4277.563965,4240.641113,4311.282227,4503.077148,4486.922852,4360.769043,4432.692383,5843.000000,4.000000,96.000000,,,,0.000000,4.000000,4.000000,4.000000,4.000000,4.000000,4.000000,4.000000,4.000000,4.000000,4.000000,4.000000,4.000000,4.000000,4.000000,100.000000,,,,,,,,,,,,,,,,,,,,,,,,,,,,
1703488850.365237,1703488850.365144,15.000000,0.000000,4299.358887,4276.282227,4310.000000,4329.358887,4251.794922,4248.974121,4216.153809,4277.563965,4248.846191,4304.615234,4504.102539,4479.871582,4366.666504,4432.563965,6270.000000,4.000000,96.000000,,,,0.000000,4.000000,4.000000,4.000000,4.000000,4.000000,4.000000,4.000000,4.000000,4.000000,4.000000,4.000000,4.000000,4.000000,4.000000,100.000000,,,,,,,,,,,,,,,,,,,,,,,,,,,,
1703488850.373045,1703488850.372952,16.000000,0.000000,4300.897461,4272.179688,4313.333496,4318.333496,4245.000000,4249.743652,4210.897461,4271.410156,4252.179688,4308.846191,4506.025879,4476.922852,4369.743652,4440.000000,0.000000,4.000000,96.000000,,,,0.000000,4.000000,4.000000,4.000000,4.000000,4.000000,4.000000,4.000000,4.000000,4.000000,4.000000,4.000000,4.000000,4.000000,4.000000,100.000000,,,,,,,,,,,,,,,,,4.000000,0.000000,0.718608,-0.121765,-0.672180,0.130188,0.921499,-0.342327,0.050787,-10.794879,-43.297607,61.057156
1703488850.380853,1703488850.380660,17.000000,0.000000,4298.205078,4263.333496,4312.948730,4315.897461,4253.077148,4249.871582,4211.922852,4253.974121,4247.436035,4311.153809,4497.820313,4469.358887,4359.743652,4434.358887,0.000000,4.000000,96.000000,,,,0.000000,4.000000,4.000000,4.000000,4.000000,4.000000,4.000000,4.000000,4.000000,4.000000,4.000000,4.000000,4.000000,4.000000,4.000000,100.000000,,,,,,,,,,,,,,,,,,,,,,,,,,,,
1703488850.388662,1703488850.388568,18.000000,0.000000,4295.384766,4271.922852,4308.974121,4315.256348,4267.692383,4251.153809,4215.512695,4243.205078,4241.794922,4310.256348,4487.436035,4467.692383,4358.846191,4424.615234,0.000000,4.000000,96.000000,,,,0.000000,4.000000,4.000000,4.000000,4.000000,4.000000,4.000000,4.000000,4.000000,4.000000,4.000000,4.000000,4.000000,4.000000,4.000000,100.000000,,,,,,,,,,,,,,,,,,,,,,,,,,,,
1703488850.396469,1703488850.396376,19.000000,0.000000,4302.436035,4277.820313,4311.922852,4308.717773,4257.051270,4249.871582,4209.230957,4240.384766,4233.333496,4311.922852,4495.256348,4474.358887,4375.128418,4434.487305,0.000000,4.000000,96.000000,,,,0.000000,4.000000,4.000000,4.000000,4.000000,4.000000,4.000000,4.000000,4.000000,4.000000,4.000000,4.000000,4.000000,4.000000,4.000000,100.000000,,,,,,,,,,,,,,,,,,,,,,,,,,,,
1703488850.404277,1703488850.404284,20.000000,0.000000,4305.128418,4265.897461,4315.769043,4307.692383,4244.487305,4245.512695,4200.128418,4237.307617,4229.871582,4310.769043,4508.077148,4477.692383,4381.410156,4446.794922,0.000000,4.000000,96.000000,,,,0.000000,4.000000,4.000000,4.000000,4.000000,4.000000,4.000000,4.000000,4.000000,4.000000,4.000000,4.000000,4.000000,4.000000,4.000000,100.000000,,,,,,,,,,,,,,,,,5.000000,0.000000,0.718756,-0.121826,-0.672058,0.129944,0.934196,-0.348187,0.068856,-10.815392,-43.301178,60.968105
1703488850.412086,1703488850.412092,21.000000,0.000000,4299.487305,4260.641113,4317.436035,4306.025879,4257.563965,4250.769043,4200.641113,4239.743652,4232.436035,4309.743652,4509.358887,4478.974121,4370.384766,4445.000000,0.000000,4.000000,96.000000,,,,0.000000,4.000000,4.000000,4.000000,4.000000,4.000000,4.000000,4.000000,4.000000,4.000000,4.000000,4.000000,4.000000,4.000000,4.000000,100.000000,,,,,,,,,,,,,,,,,,,,,,,,,,,,
1703488850.419894,1703488850.420000,22.000000,0.000000,4304.230957,4273.974121,4317.692383,4307.692383,4270.128418,4259.615234,4204.871582,4245.000000,4230.512695,4309.615234,4508.589844,4482.179688,4373.846191,4442.436035,0.000000,4.000000,96.000000,,,,0.000000,4.000000,4.000000,4.000000,4.000000,4.000000,4.000000,4.000000,4.000000,4.000000,4.000000,4.000000,4.000000,4.000000,4.000000,100.000000,,,,,,,,,,,,,,,,,,,,,,,,,,,,
1703488850.427702,1703488850.427808,23.000000,0.000000,4311.538574,4283.205078,4317.051270,4318.589844,4266.153809,4255.897461,4205.512695,4248.333496,4228.974121,4306.282227,4512.307617,4483.589844,4387.692383,4446.666504,0.000000,4.000000,96.000000,,,,0.000000,4.000000,4.000000,4.000000,4.000000,4.000000,4.000000,4.000000,4.000000,4.000000,4.000000,4.000000,4.000000,4.000000,4.000000,100.000000,1.000000,91.666664,4.000000,4.000000,4.000000,4.000000,4.000000,3.000000,4.000000,4.000000,4.000000,4.000000,4.000000,4.000000,4.000000,4.000000,,,,,,,,,,,,
1703488850.435510,1703488850.435716,24.000000,0.000000,4305.769043,4283.846191,4314.743652,4326.410156,4262.051270,4247.436035,4203.846191,4256.538574,4233.077148,4310.769043,4522.051270,4491.025879,4386.794922,4455.000000,0.000000,4.000000,96.000000,,,,0.000000,4.000000,4.000000,4.000000,4.000000,4.000000,4.000000,4.000000,4.000000,4.000000,4.000000,4.000000,4.000000,4.000000,4.000000,100.000000,,,,,,,,,,,,,,,,,6.000000,0.000000,0.718736,-0.121948,-0.672058,0.129944,0.937126,-0.350629,0.075693,-10.900518,-43.371063,61.121296
1703488850.443318,1703488850.443524,25.000000,0.000000,4303.077148,4283.205078,4309.871582,4315.641113,4261.025879,4247.179688,4201.282227,4265.256348,4235.512695,4315.384766,4527.436035,4494.615234,4381.538574,4461.922852,0.000000,4.000000,96.000000,,,,0.000000,4.000000,4.000000,4.000000,4.000000,4.000000,4.000000,4.000000,4.000000,4.000000,4.000000,4.000000,4.000000,4.000000,4.000000,100.000000,,,,,,,,,,,,,,,,,,,,,,,,,,,,
1703488850.451126,1703488850.451432,26.000000,0.000000,4308.205078,4279.615234,4311.410156,4295.512695,4260.641113,4248.717773,4200.769043,4261.410156,4231.025879,4301.153809,4511.025879,4480.000000,4382.948730,4456.410156,0.000000,4.000000,96.000000,,,,0.000000,4.000000,4.000000,4.000000,4.000000,4.000000,4.000000,4.000000,4.000000,4.000000,4.000000,4.000000,4.000000,4.000000,4.000000,100.000000,,,,,,,,,,,,,,,,,,,,,,,,,,,,
1703488850.458934,1703488850.459240,27.000000,0.000000,4305.256348,4281.153809,4312.051270,4303.461426,4264.743652,4247.563965,4201.025879,4251.538574,4227.051270,4287.692383,4490.128418,4470.897461,4377.563965,4447.179688,0.000000,4.000000,96.000000,,,,0.000000,4.000000,4.000000,4.000000,4.000000,4.000000,4.000000,4.000000,4.000000,4.000000,4.000000,4.000000,4.000000,4.000000,4.000000,100.000000,,,,,,,,,,,,,,,,,,,,,,,,,,,,
1703488850.466742,1703488850.466948,28.000000,0.000000,4297.179688,4285.769043,4299.871582,4325.000000,4267.051270,4246.922852,4198.717773,4247.436035,4228.717773,4297.179688,4492.307617,4471.922852,4363.846191,4440.769043,0.000000,4.000000,96.000000,,,,0.000000,4.000000,4.000000,4.000000,4.000000,4.000000,4.000000,4.000000,4.000000,4.000000,4.000000,4.000000,4.000000,4.000000,4.000000,100.000000,,,,,,,,,,,,,,,,,7.000000,0.000000,0.718619,-0.122375,-0.672058,0.130188,0.937126,-0.340862,0.058113,-10.960466,-43.483955,61.225834
1703488850.474550,1703488850.474756,29.000000,0.000000,4295.000000,4281.538574,4291.794922,4321.025879,4262.563965,4246.025879,4199.743652,4246.538574,4235.512695,4303.589844,4494.358887,4458.461426,4357.307617,4431.282227,0.000000,4.000000,96.000000,,,,0.000000,4.000000,4.000000,4.000000,4.000000,4.000000,4.000000,4.000000,4.000000,4.000000,4.000000,4.000000,4.000000,4.000000,4.000000,100.000000,,,,,,,,,,,,,,,,,,,,,,,,,,,,
1703488850.482358,1703488850.482464,30.000000,0.000000,4293.461426,4277.307617,4297.692383,4307.563965,4260.384766,4244.358887,4201.794922,4245.000000,4241.282227,4292.820313,4481.538574,4443.205078,4358.077148,4425.256348,0.000000,4.000000,96.000000,,,,0.000000,4.000000,4.000000,4.000000,4.000000,4.000000,4.000000,4.000000,4.000000,4.000000,4.000000,4.000000,4.000000,4.000000,4.000000,100.000000,,,,,,,,,,,,,,,,,,,,,,,,,,,,
1703488850.490166,1703488850.490272,31.000000,0.000000,4284.871582,4275.641113,4297.307617,4306.025879,4261.794922,4245.769043,4199.487305,4245.641113,4243.974121,4287.307617,4473.589844,4446.666504,4355.000000,4422.948730,0.000000,4.000000,96.000000,,,,0.000000,4.000000,4.000000,4.000000,4.000000,4.000000,4.000000,4.000000,4.000000,4.000000,4.000000,4.000000,4.000000,4.000000,4.000000,100.000000,,,,,,,,,,,,,,,,,,,,,,,,,,,,
1703488850.497974,1703488850.497980,32.000000,0.000000,4279.487305,4266.410156,4298.205078,4294.615234,4257.563965,4249.615234,4203.333496,4251.410156,4249.743652,4294.102539,4481.025879,4455.769043,4351.153809,4420.512695,0.000000,4.000000,96.000000,,,,0.000000,4.000000,4.000000,4.000000,4.000000,4.000000,4.000000,4.000000,4.000000,4.000000,4.000000,4.000000,4.000000,4.000000,4.000000,100.000000,,,,,,,,,,,,,,,,,8.000000,0.000000,0.718521,-0.122498,-0.672058,0.130615,0.916616,-0.343304,0.071298,-11.131086,-43.318893,61.353249
1703488850.505782,1703488850.505788,33.000000,0.000000,4277.307617,4260.128418,4307.563965,4284.230957,4248.205078,4248.205078,4212.436035,4253.077148,4250.769043,4301.153809,4489.487305,4458.205078,4356.794922,4420.512695,0.000000,4.000000,96.000000,,,,0.000000,4.000000,4.000000,4.000000,4.000000,4.000000,4.000000,4.000000,4.000000,4.000000,4.000000,4.000000,4.000000,4.000000,4.000000,100.000000,,,,,,,,,,,,,,,,,,,,,,,,,,,,
1703488850.513590,1703488850.513496,34.000000,0.000000,4269.743652,4265.769043,4301.794922,4296.282227,4251.666504,4249.102539,4217.307617,4248.077148,4241.025879,4298.077148,4483.461426,4453.717773,4360.000000,4419.743652,0.000000,4.000000,96.000000,,,,0.000000,4.000000,4.000000,4.000000,4.000000,4.000000,4.000000,4.000000,4.000000,4.000000,4.000000,4.000000,4.000000,4.000000,4.000000,100.000000,,,,,,,,,,,,,,,,,,,,,,,,,,,,
1703488850.521398,1703488850.521304,35.000000,0.000000,4261.153809,4266.153809,4290.769043,4295.000000,4264.871582,4259.615234,4223.717773,4251.922852,4231.666504,4282.307617,4475.512695,4450.256348,4348.846191,4412.436035,0.000000,4.000000,96.000000,,,,0.000000,4.000000,4.000000,4.000000,4.000000,4.000000,4.000000,4.000000,4.000000,4.000000,4.000000,4.000000,4.000000,4.000000,4.000000,100.000000,,,,,,,,,,,,,,,,,,,,,,,,,,,,
1703488850.529206,1703488850.529012,36.000000,0.000000,4261.282227,4256.538574,4295.128418,4276.922852,4266.410156,4266.794922,4230.897461,4262.563965,4235.128418,4281.538574,4482.820313,4460.512695,4348.461426,4414.743652,0.000000,4.000000,96.000000,,,,0.000000,4.000000,4.000000,4.000000,4.000000,4.000000,4.000000,4.000000,4.000000,4.000000,4.000000,4.000000,4.000000,4.000000,4.000000,100.000000,,,,,,,,,,,,,,,,,9.000000,0.000000,0.718460,-0.122925,-0.671997,0.130859,0.924429,-0.366744,0.066414,-11.067978,-43.170338,61.467922
1703488850.537014,1703488850.536820,37.000000,0.000000,4266.922852,4254.615234,4302.563965,4276.410156,4261.282227,4260.512695,4234.615234,4264.871582,4240.128418,4299.743652,4496.153809,4474.230957,4360.897461,4428.333496,0.000000,4.000000,96.000000,,,,0.000000,4.000000,4.000000,4.000000,4.000000,4.000000,4.000000,4.000000,4.000000,4.000000,4.000000,4.000000,4.000000,4.000000,4.000000,100.000000,,,,,,,,,,,,,,,,,,,,,,,,,,,,
1703488850.544822,1703488850.544528,38.000000,0.000000,4264.615234,4260.512695,4300.000000,4293.461426,4262.563965,4255.256348,4240.769043,4263.461426,4233.846191,4301.666504,4497.179688,4471.410156,4357.051270,4427.307617,0.000000,4.000000,96.000000,,,,0.000000,4.000000,4.000000,4.000000,4.000000,4.000000,4.000000,4.000000,4.000000,4.000000,4.000000,4.000000,4.000000,4.000000,4.000000,100.000000,,,,,,,,,,,,,,,,,,,,,,,,,,,,
1703488850.552630,1703488850.552436,39.000000,0.000000,4261.025879,4259.743652,4294.743652,4293.205078,4265.128418,4257.948730,4248.333496,4263.717773,4227.820313,4291.282227,4486.538574,4459.230957,4344.102539,4415.641113,0.000000,4.000000,96.000000,,,,0.000000,4.000000,4.000000,4.000000,4.000000,4.000000,4.000000,4.000000,4.000000,4.000000,4.000000,4.000000,4.000000,4.000000,4.000000,100.000000,,,,,,,,,,,,,,,,,,,,,,,,,,,,
1703488850.560438,1703488850.560244,40.000000,0.000000,4269.615234,4258.461426,4301.666504,4279.102539,4263.974121,4256.153809,4254.102539,4263.333496,4227.820313,4303.717773,4486.153809,4462.051270,4351.538574,4420.512695,0.000000,4.000000,96.000000,,,,0.000000,4.000000,4.000000,4.000000,4.000000,4.000000,4.000000,4.000000,4.000000,4.000000,4.000000,4.000000,4.000000,4.000000,4.000000,100.000000,,,,,,,,,,,,,,,,,10.000000,0.000000,0.718432,-0.123291,-0.671936,0.130981,0.928336,-0.359907,0.054206,-11.294514,-43.219971,61.454464
1703488850.568246,1703488850.568152,41.000000,0.000000,4281.025879,4270.256348,4309.487305,4288.974121,4262.820313,4249.615234,4260.384766,4260.512695,4235.769043,4331.410156,4499.615234,4471.282227,4367.179688,4439.615234,0.000000,4.000000,96.000000,,,,0.000000,4.000000,4.000000,4.000000,4.000000,4.000000,4.000000,4.000000,4.000000,4.000000,4.000000,4.000000,4.000000,4.000000,4.000000,100.000000,,,,,,,,,,,,,,,,,,,,,,,,,,,,
1703488850.576054,1703488850.575959,42.000000,0.000000,4282.436035,4283.461426,4303.461426,4305.641113,4262.051270,4246.410156,4266.025879,4252.820313,4240.641113,4341.282227,4503.717773,4466.282227,4368.974121,4445.000000,0.000000,4.000000,96.000000,,,,0.000000,4.000000,4.000000,4.000000,4.000000,4.000000,4.000000,4.000000,4.000000,4.000000,4.000000,4.000000,4.000000,4.000000,4.000000,100.000000,,,,,,,,,,,,,,,,,,,,,,,,,,,,
1703488850.583862,1703488850.583867,43.000000,0.000000,4282.051270,4280.256348,4300.769043,4304.487305,4258.974121,4246.666504,4270.769043,4246.410156,4236.025879,4335.512695,4487.820313,4454.487305,4363.205078,4430.384766,0.000000,4.000000,96.000000,,,,0.000000,4.000000,4.000000,4.000000,4.000000,4.000000,4.000000,4.000000,4.000000,4.000000,4.000000,4.000000,4.000000,4.000000,4.000000,100.000000,,,,,,,,,,,,,,,,,,,,,,,,,,,,
1703488850.591671,1703488850.591675,44.000000,0.000000,4278.846191,4268.077148,4306.794922,4292.436035,4253.333496,4248.589844,4277.307617,4246.282227,4235.769043,4334.487305,4474.358887,4447.307617,4350.512695,4415.128418,0.000000,4.000000,96.000000,,,,0.000000,4.000000,4.000000,4.000000,4.000000,4.000000,4.000000,4.000000,4.000000,4.000000,4.000000,4.000000,4.000000,4.000000,4.000000,100.000000,,,,,,,,,,,,,,,,,11.000000,0.000000,0.718459,-0.123535,-0.671875,0.130920,0.923453,-0.360884,0.059089,-11.231729,-43.181305,61.359020
1703488850.599479,1703488850.599583,45.000000,0.000000,4263.333496,4259.743652,4301.282227,4280.384766,4246.666504,4254.743652,4284.871582,4246.666504,4245.128418,4343.589844,4477.051270,4446.410156,4339.102539,4410.128418,0.000000,4.000000,96.000000,,,,0.000000,4.000000,4.000000,4.000000,4.000000,4.000000,4.000000,4.000000,4.000000,4.000000,4.000000,4.000000,4.000000,4.000000,4.000000,100.000000,,,,,,,,,,,,,,,,,,,,,,,,,,,,
1703488850.607287,1703488850.607391,46.000000,0.000000,4260.769043,4264.743652,4294.871582,4283.846191,4251.922852,4265.769043,4291.410156,4250.897461,4248.974121,4350.256348,4485.256348,4452.307617,4344.102539,4411.410156,0.000000,4.000000,96.000000,,,,0.000000,4.000000,4.000000,4.000000,4.000000,4.000000,4.000000,4.000000,4.000000,4.000000,4.000000,4.000000,4.000000,4.000000,4.000000,100.000000,,,,,,,,,,,,,,,,,,,,,,,,,,,,
1703488850.615095,1703488850.615299,47.000000,0.000000,4275.256348,4272.179688,4304.358887,4296.538574,4271.794922,4275.769043,4297.436035,4259.487305,4248.205078,4346.794922,4491.025879,4463.846191,4352.051270,4415.128418,0.000000,4.000000,96.000000,,,,0.000000,4.000000,4.000000,4.000000,4.000000,4.000000,4.000000,4.000000,4.000000,4.000000,4.000000,4.000000,4.000000,4.000000,4.000000,100.000000,,,,,,,,,,,,,,,,,,,,,,,,,,,,
1703488850.622903,1703488850.623107,48.000000,0.000000,4274.230957,4267.948730,4312.179688,4288.461426,4279.615234,4281.153809,4303.589844,4267.948730,4257.820313,4351.410156,4492.820313,4471.025879,4353.974121,4424.743652,0.000000,4.000000,96.000000,,,,0.000000,4.000000,4.000000,4.000000,4.000000,4.000000,4.000000,4.000000,4.000000,4.000000,4.000000,4.000000,4.000000,4.000000,4.000000,100.000000,,,,,,,,,,,,,,,,,12.000000,0.000000,0.718402,-0.123596,-0.671936,0.130859,0.912221,-0.356489,0.069344,-11.208556,-43.229843,61.323116
1703488850.630711,1703488850.630815,49.000000,0.000000,4262.948730,4263.077148,4307.692383,4276.538574,4266.538574,4277.948730,4309.487305,4274.615234,4261.666504,4367.179688,4492.563965,4467.051270,4355.769043,4428.461426,0.000000,4.000000,96.000000,,,,0.000000,4.000000,4.000000,4.000000,4.000000,4.000000,4.000000,4.000000,4.000000,4.000000,4.000000,4.000000,4.000000,4.000000,4.000000,100.000000,,,,,,,,,,,,,,,,,,,,,,,,,,,,
1703488850.638519,1703488850.638623,50.000000,0.000000,4263.333496,4266.410156,4303.077148,4292.948730,4261.153809,4275.000000,4316.153809,4273.461426,4254.230957,4370.384766,4494.358887,4463.717773,4359.615234,4421.410156,0.000000,4.000000,96.000000,,,,0.000000,4.000000,4.000000,4.000000,4.000000,4.000000,4.000000,4.000000,4.000000,4.000000,4.000000,4.000000,4.000000,4.000000,4.000000,100.000000,,,,,,,,,,,,,,,,,,,,,,,,,,,,
1703488850.646327,1703488850.646331,51.000000,0.000000,4263.717773,4267.436035,4303.461426,4302.051270,4272.563965,4280.256348,4324.487305,4266.410156,4247.307617,4360.897461,4497.436035,4465.384766,4359.871582,4416.794922,0.000000,4.000000,96.000000,,,,0.000000,4.000000,4.000000,4.000000,4.000000,4.000000,4.000000,4.000000,4.000000,4.000000,4.000000,4.000000,4.000000,4.000000,4.000000,100.000000,,,,,,,,,,,,,,,,,,,,,,,,,,,,
1703488850.654135,1703488850.654139,52.000000,0.000000,4258.461426,4265.641113,4303.077148,4292.179688,4273.974121,4278.333496,4329.743652,4261.538574,4238.589844,4349.487305,4487.820313,4464.358887,4354.358887,4417.307617,0.000000,4.000000,96.000000,,,,0.000000,4.000000,4.000000,4.000000,4.000000,4.000000,4.000000,4.000000,4.000000,4.000000,4.000000,4.000000,4.000000,4.000000,4.000000,100.000000,,,,,,,,,,,,,,,,,13.000000,0.000000,0.718446,-0.123535,-0.671936,0.130676,0.931266,-0.360396,0.052741,-11.221034,-43.173527,61.307472
1703488850.661943,1703488850.661847,53.000000,0.000000,4259.615234,4265.512695,4296.666504,4290.769043,4265.128418,4268.461426,4330.641113,4252.692383,4227.307617,4341.410156,4472.436035,4456.538574,4344.102539,4415.000000,0.000000,4.000000,96.000000,,,,0.000000,4.000000,4.000000,4.000000,4.000000,4.000000,4.000000,4.000000,4.000000,4.000000,4.000000,4.000000,4.000000,4.000000,4.000000,100.000000,,,,,,,,,,,,,,,,,,,,,,,,,,,,
1703488850.669751,1703488850.669655,54.000000,0.000000,4260.256348,4261.410156,4293.846191,4279.102539,4257.563965,4262.692383,4331.025879,4241.538574,4224.871582,4350.000000,4478.461426,4451.666504,4336.153809,4409.871582,0.000000,4.000000,96.000000,,,,0.000000,4.000000,4.000000,4.000000,4.000000,4.000000,4.000000,4.000000,4.000000,4.000000,4.000000,4.000000,4.000000,4.000000,4.000000,100.000000,,,,,,,,,,,,,,,,,,,,,,,,,,,,
1703488850.677559,1703488850.677363,55.000000,0.000000,4261.794922,4259.615234,4303.077148,4270.641113,4250.641113,4256.153809,4335.256348,4244.230957,4228.461426,4359.871582,4489.487305,4453.974121,4342.179688,4412.436035,0.000000,4.000000,96.000000,,,,0.000000,4.000000,4.000000,4.000000,4.000000,4.000000,4.000000,4.000000,4.000000,4.000000,4.000000,4.000000,4.000000,4.000000,4.000000,100.000000,,,,,,,,,,,,,,,,,,,,,,,,,,,,
1703488850.685367,1703488850.685171,56.000000,0.000000,4270.897461,4264.871582,4308.461426,4296.282227,4247.692383,4247.051270,4341.922852,4248.974121,4228.974121,4348.589844,4480.641113,4457.692383,4351.794922,4423.461426,0.000000,4.000000,96.000000,,,,0.000000,4.000000,4.000000,4.000000,4.000000,4.000000,4.000000,4.000000,4.000000,4.000000,4.000000,4.000000,4.000000,4.000000,4.000000,100.000000,,,,,,,,,,,,,,,,,14.000000,0.000000,0.718457,-0.123474,-0.671936,0.130676,0.921499,-0.356977,0.053717,-11.182263,-43.256172,61.343391
1703488850.693175,1703488850.692879,57.000000,0.000000,4267.948730,4266.282227,4302.692383,4297.563965,4249.358887,4246.794922,4346.153809,4246.538574,4237.179688,4348.974121,4477.436035,4459.615234,4350.769043,4426.410156,0.000000,4.000000,96.000000,,,,0.000000,4.000000,4.000000,4.000000,4.000000,4.000000,4.000000,4.000000,4.000000,4.000000,4.000000,4.000000,4.000000,4.000000,4.000000,100.000000,,,,,,,,,,,,,,,,,,,,,,,,,,,,
1703488850.700983,1703488850.700687,58.000000,0.000000,4263.205078,4266.666504,4296.666504,4266.922852,4250.000000,4254.615234,4350.897461,4252.436035,4253.846191,4372.051270,4491.794922,4458.974121,4350.769043,4420.384766,0.000000,4.000000,96.000000,,,,0.000000,4.000000,4.000000,4.000000,4.000000,4.000000,4.000000,4.000000,4.000000,4.000000,4.000000,4.000000,4.000000,4.000000,4.000000,100.000000,,,,,,,,,,,,,,,,,,,,,,,,,,,,
1703488850.708791,1703488850.708395,59.000000,0.000000,4271.153809,4276.282227,4292.436035,4277.820313,4255.000000,4265.769043,4358.205078,4261.794922,4262.820313,4379.487305,4490.256348,4454.358887,4354.230957,4415.512695,0.000000,4.000000,96.000000,,,,0.000000,4.000000,4.000000,4.000000,4.000000,4.000000,4.000000,4.000000,4.000000,4.000000,4.000000,4.000000,4.000000,4.000000,4.000000,100.000000,,,,,,,,,,,,,,,,,,,,,,,,,,,,
1703488850.716599,1703488850.716203,60.000000,0.000000,4272.436035,4286.538574,4290.769043,4314.871582,4273.846191,4279.743652,4365.000000,4262.948730,4257.692383,4367.820313,4478.589844,4447.820313,4352.948730,4413.846191,0.000000,4.000000,96.000000,,,,0.000000,4.000000,4.000000,4.000000,4.000000,4.000000,4.000000,4.000000,4.000000,4.000000,4.000000,4.000000,4.000000,4.000000,4.000000,100.000000,,,,,,,,,,,,,,,,,15.000000,0.000000,0.718423,-0.123413,-0.671936,0.130920,0.925894,-0.353070,0.067879,-11.147370,-43.330555,61.409054
1703488850.724407,1703488850.723911,61.000000,0.000000,4266.922852,4285.512695,4296.410156,4312.307617,4281.025879,4284.615234,4368.077148,4259.102539,4252.436035,4359.487305,4478.589844,4442.179688,4351.282227,4411.794922,0.000000,4.000000,96.000000,,,,0.000000,4.000000,4.000000,4.000000,4.000000,4.000000,4.000000,4.000000,4.000000,4.000000,4.000000,4.000000,4.000000,4.000000,4.000000,100.000000,,,,,,,,,,,,,,,,,,,,,,,,,,,,
1703488850.732215,1703488850.731819,62.000000,0.000000,4266.922852,4274.743652,4304.230957,4289.487305,4266.025879,4276.025879,4368.077148,4250.769043,4245.897461,4355.256348,4471.282227,4436.410156,4342.820313,4405.512695,0.000000,4.000000,96.000000,,,,0.000000,4.000000,4.000000,4.000000,4.000000,4.000000,4.000000,4.000000,4.000000,4.000000,4.000000,4.000000,4.000000,4.000000,4.000000,100.000000,,,,,,,,,,,,,,,,,,,,,,,,,,,,
1703488850.740023,1703488850.739627,63.000000,0.000000,4269.230957,4269.230957,4305.897461,4294.230957,4258.717773,4274.615234,4371.410156,4246.282227,4237.051270,4355.256348,4464.743652,4434.615234,4327.948730,4403.333496,0.000000,4.000000,96.000000,,,,0.000000,4.000000,4.000000,4.000000,4.000000,4.000000,4.000000,4.000000,4.000000,4.000000,4.000000,4.000000,4.000000,4.000000,4.000000,100.000000,,,,,,,,,,,,,,,,,,,,,,,,,,,,
1703488850.747831,1703488850.747535,64.000000,0.000000,4270.769043,4274.487305,4307.820313,4304.615234,4267.436035,4279.358887,4377.563965,4247.820313,4232.563965,4349.615234,4468.974121,4440.512695,4329.743652,4407.307617,5435.000000,4.000000,96.000000,,,,0.000000,4.000000,4.000000,4.000000,4.000000,4.000000,4.000000,4.000000,4.000000,4.000000,4.000000,4.000000,4.000000,4.000000,4.000000,100.000000,,,,,,,,,,,,,,,,,16.000000,0.000000,0.718423,-0.123413,-0.671936,0.130920,0.920523,-0.343304,0.073251,-11.165967,-43.347500,61.351479
1703488850.755639,1703488850.755343,65.000000,0.000000,4273.205078,4278.461426,4310.512695,4296.794922,4266.794922,4273.589844,4377.307617,4235.512695,4223.974121,4336.922852,4468.717773,4444.358887,4343.333496,4410.256348,5562.000000,4.000000,96.000000,,,,0.000000,4.000000,4.000000,4.000000,4.000000,4.000000,4.000000,4.000000,4.000000,4.000000,4.000000,4.000000,4.000000,4.000000,4.000000,100.000000,,,,,,,,,,,,,,,,,,,,,,,,,,,,
1703488850.763448,1703488850.763251,66.000000,0.000000,4277.820313,4283.589844,4312.563965,4299.615234,4258.846191,4261.666504,4374.615234,4218.205078,4215.641113,4346.922852,4474.358887,4445.769043,4353.461426,4417.051270,5333.000000,4.000000,96.000000,,,,0.000000,4.000000,4.000000,4.000000,4.000000,4.000000,4.000000,4.000000,4.000000,4.000000,4.000000,4.000000,4.000000,4.000000,4.000000,100.000000,,,,,,,,,,,,,,,,,,,,,,,,,,,,
1703488850.771256,1703488850.771059,67.000000,0.000000,4290.256348,4293.846191,4320.128418,4315.769043,4266.922852,4260.641113,4380.384766,4217.307617,4216.794922,4366.666504,4491.410156,4452.051270,4363.717773,4429.230957,5385.000000,4.000000,96.000000,,,,0.000000,4.000000,4.000000,4.000000,4.000000,4.000000,4.000000,4.000000,4.000000,4.000000,4.000000,4.000000,4.000000,4.000000,4.000000,100.000000,,,,,,,,,,,,,,,,,,,,,,,,,,,,
1703488850.779064,1703488850.778967,68.000000,0.000000,4298.077148,4297.307617,4326.025879,4318.974121,4277.051270,4264.487305,4383.589844,4221.153809,4217.051270,4360.384766,4494.102539,4454.102539,4370.256348,4432.307617,5242.000000,4.000000,96.000000,,,,0.000000,4.000000,4.000000,4.000000,4.000000,4.000000,4.000000,4.000000,4.000000,4.000000,4.000000,4.000000,4.000000,4.000000,4.000000,100.000000,,,,,,,,,,,,,,,,,17.000000,0.000000,0.718434,-0.123413,-0.671936,0.130859,0.922476,-0.355512,0.062508,-11.099370,-43.529415,61.333000
1703488850.786872,1703488850.786775,69.000000,0.000000,4293.461426,4298.077148,4325.512695,4312.820313,4273.717773,4257.692383,4380.000000,4222.307617,4211.922852,4350.384766,4490.000000,4454.743652,4371.666504,4433.461426,5111.000000,4.000000,96.000000,,,,0.000000,4.000000,4.000000,4.000000,4.000000,4.000000,4.000000,4.000000,4.000000,4.000000,4.000000,4.000000,4.000000,4.000000,4.000000,100.000000,,,,,,,,,,,,,,,,,,,,,,,,,,,,
1703488850.794680,1703488850.794683,70.000000,0.000000,4291.794922,4298.333496,4325.641113,4316.025879,4263.846191,4252.563965,4382.179688,4231.410156,4214.358887,4356.025879,4502.948730,4466.282227,4371.282227,4446.666504,1745.000000,4.000000,96.000000,,,,0.000000,4.000000,4.000000,4.000000,4.000000,4.000000,4.000000,4.000000,4.000000,4.000000,4.000000,4.000000,4.000000,4.000000,4.000000,100.000000,,,,,,,,,,,,,,,,,,,,,,,,,,,,
1703488850.802488,1703488850.802491,71.000000,0.000000,4287.692383,4286.666504,4323.589844,4309.871582,4261.922852,4259.102539,4386.922852,4240.641113,4224.487305,4359.871582,4511.025879,4467.563965,4372.307617,4450.769043,5146.000000,4.000000,96.000000,,,,0.000000,4.000000,4.000000,4.000000,4.000000,4.000000,4.000000,4.000000,4.000000,4.000000,4.000000,4.000000,4.000000,4.000000,4.000000,100.000000,,,,,,,,,,,,,,,,,,,,,,,,,,,,
1703488850.810296,1703488850.810398,72.000000,0.000000,4277.051270,4280.512695,4317.692383,4294.487305,4270.384766,4264.358887,4385.384766,4246.794922,4238.461426,4366.410156,4507.179688,4459.230957,4377.692383,4437.820313,5307.000000,4.000000,96.000000,,,,0.000000,4.000000,4.000000,4.000000,4.000000,4.000000,4.000000,4.000000,4.000000,4.000000,4.000000,4.000000,4.000000,4.000000,4.000000,100.000000,,,,,,,,,,,,,,,,,18.000000,0.000000,0.718538,-0.123535,-0.671814,0.130798,0.916616,-0.346722,0.056648,-10.872766,-43.459808,61.166367
1703488850.818104,1703488850.818206,73.000000,0.000000,4275.384766,4286.922852,4314.102539,4292.820313,4277.692383,4264.871582,4382.563965,4260.897461,4252.563965,4377.820313,4507.436035,4467.307617,4381.153809,4431.410156,5302.000000,4.000000,96.000000,,,,0.000000,4.000000,4.000000,4.000000,4.000000,4.000000,4.000000,4.000000,4.000000,4.000000,4.000000,4.000000,4.000000,4.000000,4.000000,100.000000,,,,,,,,,,,,,,,,,,,,,,,,,,,,
1703488850.825912,1703488850.826114,74.000000,0.000000,4279.358887,4282.179688,4314.102539,4298.333496,4275.512695,4271.922852,4385.769043,4265.897461,4254.615234,4371.282227,4509.358887,4476.538574,4375.000000,4435.641113,5845.000000,4.000000,96.000000,,,,0.000000,4.000000,4.000000,4.000000,4.000000,4.000000,4.000000,4.000000,4.000000,4.000000,4.000000,4.000000,4.000000,4.000000,4.000000,100.000000,,,,,,,,,,,,,,,,,,,,,,,,,,,,
1703488850.833720,1703488850.833922,75.000000,0.000000,4269.487305,4271.794922,4303.333496,4293.205078,4266.153809,4278.846191,4384.615234,4255.000000,4250.512695,4355.000000,4504.358887,4466.922852,4366.666504,4431.666504,6269.000000,4.000000,96.000000,,,,0.000000,4.000000,4.000000,4.000000,4.000000,4.000000,4.000000,4.000000,4.000000,4.000000,4.000000,4.000000,4.000000,4.000000,4.000000,100.000000,,,,,,,,,,,,,,,,,,,,,,,,,,,,
1703488850.841528,1703488850.841630,76.000000,0.000000,4258.717773,4271.410156,4291.666504,4282.179688,4259.871582,4271.922852,4377.948730,4246.922852,4243.717773,4348.846191,4492.948730,4457.179688,4357.563965,4417.179688,6758.000000,4.000000,96.000000,,,,0.000000,4.000000,4.000000,4.000000,4.000000,4.000000,4.000000,4.000000,4.000000,4.000000,4.000000,4.000000,4.000000,4.000000,4.000000,100.000000,,,,,,,,,,,,,,,,,19.000000,0.000000,0.718589,-0.123230,-0.671875,0.130493,0.929313,-0.358931,0.063973,-10.885489,-43.480495,61.066395
1703488850.849336,1703488850.849438,77.000000,0.000000,4269.487305,4273.717773,4302.948730,4280.512695,4262.820313,4264.102539,4378.589844,4242.307617,4234.743652,4348.461426,4486.025879,4461.025879,4353.333496,4414.871582,6913.000000,4.000000,96.000000,,,,0.000000,4.000000,4.000000,4.000000,4.000000,4.000000,4.000000,4.000000,4.000000,4.000000,4.000000,4.000000,4.000000,4.000000,4.000000,100.000000,,,,,,,,,,,,,,,,,,,,,,,,,,,,
1703488850.857144,1703488850.857146,78.000000,0.000000,4282.948730,4281.538574,4318.077148,4291.153809,4272.179688,4267.179688,4383.205078,4233.205078,4232.051270,4354.871582,4491.666504,4465.897461,4362.436035,4425.512695,5845.000000,4.000000,96.000000,,,,0.000000,4.000000,4.000000,4.000000,4.000000,4.000000,4.000000,4.000000,4.000000,4.000000,4.000000,4.000000,4.000000,4.000000,4.000000,100.000000,,,,,,,,,,,,,,,,,,,,,,,,,,,,
1703488850.864952,1703488850.865054,79.000000,0.000000,4284.230957,4295.512695,4320.128418,4303.461426,4278.333496,4270.897461,4380.769043,4223.461426,4232.563965,4357.692383,4501.666504,4467.948730,4368.589844,4432.820313,6269.000000,4.000000,96.000000,,,,0.000000,4.000000,4.000000,4.000000,4.000000,4.000000,4.000000,4.000000,4.000000,4.000000,4.000000,4.000000,4.000000,4.000000,4.000000,100.000000,,,,,,,,,,,,,,,,,,,,,,,,,,,,
1703488850.872760,1703488850.872862,80.000000,0.000000,4289.230957,4297.692383,4323.589844,4312.307617,4280.769043,4266.282227,4377.051270,4222.436035,4229.487305,4351.153809,4506.666504,4474.487305,4368.461426,4439.102539,6758.000000,4.000000,96.000000,,,,0.000000,4.000000,4.000000,4.000000,4.000000,4.000000,4.000000,4.000000,4.000000,4.000000,4.000000,4.000000,4.000000,4.000000,4.000000,100.000000,,,,,,,,,,,,,,,,,20.000000,0.000000,0.718860,-0.123108,-0.671631,0.130371,0.916127,-0.339885,0.074716,-10.930274,-43.532444,61.043091
1703488850.880568,1703488850.880770,81.000000,0.000000,4297.820313,4292.948730,4328.717773,4314.358887,4277.563965,4261.282227,4379.102539,4226.025879,4228.205078,4352.563965,4505.128418,4477.307617,4374.871582,4444.871582,6913.000000,4.000000,96.000000,,,,0.000000,4.000000,4.000000,4.000000,4.000000,4.000000,4.000000,4.000000,4.000000,4.000000,4.000000,4.000000,4.000000,4.000000,4.000000,100.000000,,,,,,,,,,,,,,,,,,,,,,,,,,,,
1703488850.888376,1703488850.888578,82.000000,0.000000,4293.077148,4296.410156,4325.384766,4307.307617,4268.205078,4261.282227,4377.179688,4233.333496,4235.512695,4360.384766,4504.615234,4475.384766,4379.230957,4443.846191,5845.000000,4.000000,96.000000,,,,0.000000,4.000000,4.000000,4.000000,4.000000,4.000000,4.000000,4.000000,4.000000,4.000000,4.000000,4.000000,4.000000,4.000000,4.000000,100.000000,,,,,,,,,,,,,,,,,,,,,,,,,,,,
1703488850.896184,1703488850.896486,83.000000,0.000000,4286.794922,4298.589844,4322.948730,4301.282227,4263.077148,4258.974121,4372.948730,4245.384766,4246.538574,4364.230957,4511.922852,4477.692383,4376.922852,4439.871582,6269.000000,4.000000,96.000000,,,,0.000000,4.000000,4.000000,4.000000,4.000000,4.000000,4.000000,4.000000,4.000000,4.000000,4.000000,4.000000,4.000000,4.000000,4.000000,100.000000,,,,,,,,,,,,,,,,,,,,,,,,,,,,
1703488850.903992,1703488850.904294,84.000000,0.000000,4283.333496,4285.897461,4322.179688,4294.102539,4264.102539,4257.563965,4372.436035,4252.179688,4251.666504,4366.153809,4511.666504,4474.615234,4374.487305,4435.000000,6758.000000,4.000000,96.000000,,,,0.000000,4.000000,4.000000,4.000000,4.000000,4.000000,4.000000,4.000000,4.000000,4.000000,4.000000,4.000000,4.000000,4.000000,4.000000,100.000000,,,,,,,,,,,,,,,,,21.000000,0.000000,0.718839,-0.123169,-0.671631,0.130432,0.920523,-0.355024,0.053229,-10.970580,-43.495865,61.105446
1703488850.911800,1703488850.912202,85.000000,0.000000,4271.025879,4270.128418,4308.205078,4284.615234,4263.846191,4262.820313,4370.000000,4253.589844,4251.025879,4362.692383,4497.820313,4463.205078,4370.897461,4422.436035,6913.000000,4.000000,96.000000,,,,0.000000,4.000000,4.000000,4.000000,4.000000,4.000000,4.000000,4.000000,4.000000,4.000000,4.000000,4.000000,4.000000,4.000000,4.000000,100.000000,,,,,,,,,,,,,,,,,,,,,,,,,,,,
1703488850.919608,1703488850.920010,86.000000,0.000000,4261.922852,4260.641113,4297.307617,4271.922852,4259.102539,4265.128418,4364.102539,4258.077148,4250.897461,4350.256348,4486.922852,4455.769043,4358.077148,4407.820313,5845.000000,4.000000,96.000000,,,,0.000000,4.000000,4.000000,4.000000,4.000000,4.000000,4.000000,4.000000,4.000000,4.000000,4.000000,4.000000,4.000000,4.000000,4.000000,100.000000,,,,,,,,,,,,,,,,,,,,,,,,,,,,
1703488850.927416,1703488850.927918,87.000000,0.000000,4258.717773,4256.410156,4301.025879,4257.179688,4260.000000,4264.743652,4361.538574,4266.410156,4249.871582,4338.077148,4481.666504,4457.563965,4343.589844,4400.769043,6269.000000,4.000000,96.000000,,,,0.000000,4.000000,4.000000,4.000000,4.000000,4.000000,4.000000,4.000000,4.000000,4.000000,4.000000,4.000000,4.000000,4.000000,4.000000,100.000000,1.000000,66.666664,4.000000,4.000000,4.000000,4.000000,4.000000,3.000000,1.000000,4.000000,4.000000,4.000000,4.000000,4.000000,4.000000,4.000000,,,,,,,,,,,,
1703488850.935224,1703488850.935725,88.000000,0.000000,4253.974121,4261.282227,4302.179688,4264.230957,4269.487305,4269.615234,4365.769043,4266.025879,4248.846191,4333.589844,4476.922852,4460.000000,4342.307617,4400.769043,6758.000000,4.000000,96.000000,,,,0.000000,4.000000,4.000000,4.000000,4.000000,4.000000,4.000000,4.000000,4.000000,4.000000,4.000000,4.000000,4.000000,4.000000,4.000000,100.000000,,,,,,,,,,,,,,,,,22.000000,0.000000,0.718707,-0.123474,-0.671692,0.130554,0.928336,-0.356000,0.059089,-11.006855,-43.496281,61.078236
1703488850.943033,1703488850.943633,89.000000,0.000000,4251.025879,4261.410156,4296.410156,4278.461426,4267.307617,4268.333496,4364.230957,4253.846191,4246.410156,4333.974121,4473.846191,4458.205078,4340.641113,4400.128418,6913.000000,4.000000,96.000000,,,,0.000000,4.000000,4.000000,4.000000,4.000000,4.000000,4.000000,4.000000,4.000000,4.000000,4.000000,4.000000,4.000000,4.000000,4.000000,100.000000,,,,,,,,,,,,,,,,,,,,,,,,,,,,
1703488850.950841,1703488850.951441,90.000000,0.000000,4259.743652,4255.769043,4300.641113,4278.717773,4259.487305,4262.820313,4357.436035,4241.538574,4234.358887,4328.461426,4476.538574,4456.666504,4333.077148,4401.794922,5845.000000,4.000000,96.000000,,,,0.000000,4.000000,4.000000,4.000000,4.000000,4.000000,4.000000,4.000000,4.000000,4.000000,4.000000,4.000000,4.000000,4.000000,4.000000,100.000000,,,,,,,,,,,,,,,,,,,,,,,,,,,,
1703488850.958649,1703488850.959349,91.000000,0.000000,4275.512695,4269.743652,4314.615234,4287.948730,4271.282227,4267.436035,4358.974121,4238.846191,4228.461426,4321.794922,4482.563965,4464.487305,4345.256348,4416.153809,6269.000000,4.000000,96.000000,,,,0.000000,4.000000,4.000000,4.000000,4.000000,4.000000,4.000000,4.000000,4.000000,4.000000,4.000000,4.000000,4.000000,4.000000,4.000000,100.000000,,,,,,,,,,,,,,,,,,,,,,,,,,,,
1703488850.966457,1703488850.967157,92.000000,0.000000,4283.333496,4286.922852,4320.641113,4305.897461,4287.820313,4270.641113,4364.230957,4244.230957,4238.077148,4333.077148,4488.717773,4475.256348,4363.846191,4429.358887,6758.000000,4.000000,96.000000,,,,0.000000,4.000000,4.000000,4.000000,4.000000,4.000000,4.000000,4.000000,4.000000,4.000000,4.000000,4.000000,4.000000,4.000000,4.000000,100.000000,,,,,,,,,,,,,,,,,23.000000,0.000000,0.718630,-0.123596,-0.671692,0.130859,0.929801,-0.356977,0.062996,-10.972836,-43.479984,61.103745
1703488850.974265,1703488850.975065,93.000000,0.000000,4284.871582,4281.538574,4320.256348,4303.846191,4282.563965,4266.666504,4360.769043,4243.846191,4239.102539,4344.230957,4494.487305,4469.871582,4362.436035,4427.307617,6913.000000,4.000000,96.000000,,,,0.000000,4.000000,4.000000,4.000000,4.000000,4.000000,4.000000,4.000000,4.000000,4.000000,4.000000,4.000000,4.000000,4.000000,4.000000,100.000000,,,,,,,,,,,,,,,,,,,,,,,,,,,,
1703488850.982073,1703488850.982873,94.000000,0.000000,4281.666504,4275.769043,4320.000000,4292.820313,4270.256348,4264.487305,4354.487305,4240.000000,4226.282227,4335.384766,4488.846191,4458.974121,4352.563965,4415.641113,5845.000000,4.000000,96.000000,,,,0.000000,4.000000,4.000000,4.000000,4.000000,4.000000,4.000000,4.000000,4.000000,4.000000,4.000000,4.000000,4.000000,4.000000,4.000000,100.000000,,,,,,,,,,,,,,,,,,,,,,,,,,,,
1703488850.989881,1703488850.990781,95.000000,0.000000,4278.717773,4282.692383,4316.794922,4298.717773,4265.512695,4262.563965,4353.589844,4241.922852,4221.153809,4322.051270,4480.384766,4457.436035,4350.256348,4411.794922,6269.000000,4.000000,96.000000,,,,0.000000,4.000000,4.000000,4.000000,4.000000,4.000000,4.000000,4.000000,4.000000,4.000000,4.000000,4.000000,4.000000,4.000000,4.000000,100.000000,,,,,,,,,,,,,,,,,,,,,,,,,,,,
1703488850.997689,1703488850.998589,96.000000,0.000000,4279.871582,4279.230957,4316.025879,4296.538574,4264.230957,4261.282227,4353.077148,4248.589844,4229.358887,4326.153809,4491.153809,4460.769043,4358.461426,4428.461426,6758.000000,4.000000,96.000000,,,,0.000000,4.000000,4.000000,4.000000,4.000000,4.000000,4.000000,4.000000,4.000000,4.000000,4.000000,4.000000,4.000000,4.000000,4.000000,100.000000,,,,,,,,,,,,,,,,,24.000000,0.000000,0.718654,-0.123596,-0.671631,0.131042,0.914662,-0.360884,0.059089,-11.008886,-43.448654,61.276703
1703488851.005497,1703488851.006297,97.000000,0.000000,4277.563965,4268.974121,4311.410156,4282.948730,4266.153809,4264.230957,4351.794922,4256.666504,4243.846191,4337.051270,4509.871582,4468.846191,4370.384766,4441.153809,6913.000000,4.000000,96.000000,,,,0.000000,4.000000,4.000000,4.000000,4.000000,4.000000,4.000000,4.000000,4.000000,4.000000,4.000000,4.000000,4.000000,4.000000,4.000000,100.000000,,,,,,,,,,,,,,,,,,,,,,,,,,,,
1703488851.013305,1703488851.014205,98.000000,0.000000,4266.794922,4263.205078,4298.077148,4279.102539,4268.333496,4268.846191,4351.025879,4265.897461,4258.333496,4345.384766,4510.128418,4476.025879,4370.128418,4430.897461,5845.000000,4.000000,96.000000,,,,0.000000,4.000000,4.000000,4.000000,4.000000,4.000000,4.000000,4.000000,4.000000,4.000000,4.000000,4.000000,4.000000,4.000000,4.000000,100.000000,,,,,,,,,,,,,,,,,,,,,,,,,,,,
1703488851.021113,1703488851.022013,99.000000,0.000000,4259.871582,4257.436035,4293.205078,4281.410156,4266.922852,4270.512695,4352.436035,4275.512695,4270.000000,4358.461426,4506.153809,4480.641113,4366.794922,4428.077148,6269.000000,4.000000,96.000000,,,,0.000000,4.000000,4.000000,4.000000,4.000000,4.000000,4.000000,4.000000,4.000000,4.000000,4.000000,4.000000,4.000000,4.000000,4.000000,100.000000,,,,,,,,,,,,,,,,,,,,,,,,,,,,
1703488851.028921,1703488851.029821,100.000000,0.000000,4267.692383,4256.282227,4304.487305,4277.692383,4263.333496,4268.333496,4355.000000,4276.794922,4267.820313,4354.615234,4513.589844,4482.948730,4372.948730,4443.589844,6758.000000,4.000000,96.000000,,,,0.000000,4.000000,4.000000,4.000000,4.000000,4.000000,4.000000,4.000000,4.000000,4.000000,4.000000,4.000000,4.000000,4.000000,4.000000,100.000000,,,,,,,,,,,,,,,,,25.000000,0.000000,0.718836,-0.123535,-0.671448,0.131042,0.912221,-0.353559,0.070809,-11.007998,-43.470455,61.165699
1703488851.036729,1703488851.037529,101.000000,0.000000,4274.358887,4261.410156,4312.436035,4274.230957,4265.000000,4267.436035,4355.000000,4266.025879,4256.025879,4330.897461,4513.974121,4482.563965,4373.589844,4448.589844,6913.000000,4.000000,96.000000,,,,0.000000,4.000000,4.000000,4.000000,4.000000,4.000000,4.000000,4.000000,4.000000,4.000000,4.000000,4.000000,4.000000,4.000000,4.000000,100.000000,,,,,,,,,,,,,,,,,,,,,,,,,,,,
1703488851.044537,1703488851.045337,102.000000,0.000000,4275.128418,4256.410156,4310.897461,4275.769043,4265.128418,4266.153809,4353.461426,4251.794922,4247.563965,4324.230957,4501.666504,4479.871582,4365.256348,4439.615234,5845.000000,4.000000,96.000000,,,,0.000000,4.000000,4.000000,4.000000,4.000000,4.000000,4.000000,4.000000,4.000000,4.000000,4.000000,4.000000,4.000000,4.000000,4.000000,100.000000,,,,,,,,,,,,,,,,,,,,,,,,,,,,
1703488851.052345,1703488851.053045,103.000000,0.000000,4279.487305,4246.538574,4316.282227,4273.461426,4252.692383,4255.000000,4352.051270,4242.436035,4238.333496,4333.077148,4497.563965,4478.589844,4369.102539,4441.025879,6269.000000,4.000000,96.000000,,,,0.000000,4.000000,4.000000,4.000000,4.000000,4.000000,4.000000,4.000000,4.000000,4.000000,4.000000,4.000000,4.000000,4.000000,4.000000,100.000000,,,,,,,,,,,,,,,,,,,,,,,,,,,,
1703488851.060153,1703488851.060853,104.000000,0.000000,4290.769043,4255.769043,4326.666504,4273.461426,4250.384766,4246.025879,4353.717773,4241.410156,4232.692383,4335.641113,4511.025879,4483.333496,4380.512695,4453.974121,6758.000000,4.000000,96.000000,,,,0.000000,4.000000,4.000000,4.000000,4.000000,4.000000,4.000000,4.000000,4.000000,4.000000,4.000000,4.000000,4.000000,4.000000,4.000000,100.000000,,,,,,,,,,,,,,,,,26.000000,0.000000,0.718969,-0.123413,-0.671387,0.130737,0.924918,-0.355024,0.066903,-11.007198,-43.456741,61.232464
1703488851.067961,1703488851.068561,105.000000,0.000000,4301.282227,4277.820313,4332.820313,4281.025879,4270.256348,4248.846191,4358.077148,4240.641113,4244.358887,4345.769043,4526.025879,4492.179688,4386.922852,4463.333496,6913.000000,4.000000,96.000000,,,,0.000000,4.000000,4.000000,4.000000,4.000000,4.000000,4.000000,4.000000,4.000000,4.000000,4.000000,4.000000,4.000000,4.000000,4.000000,100.000000,,,,,,,,,,,,,,,,,,,,,,,,,,,,
1703488851.075769,1703488851.076369,106.000000,0.000000,4300.256348,4285.512695,4334.871582,4284.102539,4281.666504,4251.025879,4360.897461,4235.000000,4248.846191,4356.794922,4524.743652,4492.179688,4391.794922,4463.205078,5845.000000,4.000000,96.000000,,,,0.000000,4.000000,4.000000,4.000000,4.000000,4.000000,4.000000,4.000000,4.000000,4.000000,4.000000,4.000000,4.000000,4.000000,4.000000,100.000000,,,,,,,,,,,,,,,,,,,,,,,,,,,,
1703488851.083577,1703488851.084077,107.000000,0.000000,4301.410156,4281.666504,4335.384766,4282.436035,4276.538574,4254.743652,4361.025879,4234.871582,4234.358887,4340.128418,4520.256348,4486.666504,4394.743652,4461.025879,6269.000000,4.000000,96.000000,,,,0.000000,4.000000,4.000000,4.000000,4.000000,4.000000,4.000000,4.000000,4.000000,4.000000,4.000000,4.000000,4.000000,4.000000,4.000000,100.000000,,,,,,,,,,,,,,,,,,,,,,,,,,,,
1703488851.091385,1703488851.091885,108.000000,0.000000,4310.000000,4284.358887,4336.282227,4284.230957,4278.205078,4262.563965,4360.128418,4248.077148,4236.282227,4329.230957,4530.769043,4488.717773,4398.974121,4467.692383,6758.000000,4.000000,96.000000,,,,0.000000,4.000000,4.000000,4.000000,4.000000,4.000000,4.000000,4.000000,4.000000,4.000000,4.000000,4.000000,4.000000,4.000000,4.000000,100.000000,,,,,,,,,,,,,,,,,27.000000,0.000000,0.719053,-0.123047,-0.671448,0.130310,0.931754,-0.352094,0.058601,-10.973145,-43.527737,61.209217
1703488851.099193,1703488851.099593,109.000000,0.000000,4304.871582,4284.871582,4329.487305,4280.128418,4277.948730,4262.179688,4361.025879,4252.563965,4247.051270,4338.974121,4533.717773,4485.897461,4399.743652,4466.538574,6913.000000,4.000000,96.000000,,,,0.000000,4.000000,4.000000,4.000000,4.000000,4.000000,4.000000,4.000000,4.000000,4.000000,4.000000,4.000000,4.000000,4.000000,4.000000,100.000000,,,,,,,,,,,,,,,,,,,,,,,,,,,,
1703488851.107001,1703488851.107501,110.000000,0.000000,4280.769043,4265.128418,4311.922852,4263.205078,4264.743652,4260.384766,4362.051270,4245.000000,4235.641113,4331.025879,4511.666504,4471.282227,4386.153809,4447.820313,5845.000000,4.000000,96.000000,,,,0.000000,4.000000,4.000000,4.000000,4.000000,4.000000,4.000000,4.000000,4.000000,4.000000,4.000000,4.000000,4.000000,4.000000,4.000000,100.000000,,,,,,,,,,,,,,,,,,,,,,,,,,,,
1703488851.114809,1703488851.115309,111.000000,0.000000,4265.897461,4249.358887,4299.102539,4253.717773,4258.846191,4265.384766,4359.102539,4251.922852,4229.102539,4315.256348,4498.974121,4467.692383,4373.205078,4436.153809,6269.000000,4.000000,96.000000,,,,0.000000,4.000000,4.000000,4.000000,4.000000,4.000000,4.000000,4.000000,4.000000,4.000000,4.000000,4.000000,4.000000,4.000000,4.000000,100.000000,,,,,,,,,,,,,,,,,,,,,,,,,,,,
1703488851.122618,1703488851.123217,112.000000,0.000000,4270.769043,4255.128418,4302.307617,4257.820313,4263.846191,4265.641113,4356.282227,4265.897461,4244.102539,4322.692383,4516.410156,4483.077148,4378.077148,4448.589844,6758.000000,4.000000,96.000000,,,,0.000000,4.000000,4.000000,4.000000,4.000000,4.000000,4.000000,4.000000,4.000000,4.000000,4.000000,4.000000,4.000000,4.000000,4.000000,100.000000,,,,,,,,,,,,,,,,,28.000000,0.000000,0.719189,-0.123047,-0.671326,0.130188,0.924918,-0.344280,0.065438,-11.042497,-43.524963,61.288296
1703488851.130426,1703488851.131025,113.000000,0.000000,4273.846191,4254.615234,4309.230957,4257.436035,4263.717773,4266.538574,4358.205078,4266.794922,4251.794922,4331.794922,4527.436035,4491.922852,4385.384766,4460.128418,6913.000000,4.000000,96.000000,,,,0.000000,4.000000,4.000000,4.000000,4.000000,4.000000,4.000000,4.000000,4.000000,4.000000,4.000000,4.000000,4.000000,4.000000,4.000000,100.000000,,,,,,,,,,,,,,,,,,,,,,,,,,,,
1703488851.138234,1703488851.138933,114.000000,0.000000,4272.563965,4243.846191,4308.461426,4253.205078,4259.871582,4270.384766,4360.000000,4260.897461,4246.922852,4322.948730,4519.358887,4486.025879,4383.077148,4454.743652,5845.000000,4.000000,96.000000,,,,0.000000,4.000000,4.000000,4.000000,4.000000,4.000000,4.000000,4.000000,4.000000,4.000000,4.000000,4.000000,4.000000,4.000000,4.000000,100.000000,,,,,,,,,,,,,,,,,,,,,,,,,,,,
1703488851.146042,1703488851.146740,115.000000,0.000000,4275.897461,4252.436035,4307.820313,4259.358887,4262.820313,4266.153809,4357.563965,4254.230957,4245.128418,4316.538574,4519.871582,4483.333496,4380.641113,4454.487305,6269.000000,4.000000,96.000000,,,,0.000000,4.000000,4.000000,4.000000,4.000000,4.000000,4.000000,4.000000,4.000000,4.000000,4.000000,4.000000,4.000000,4.000000,4.000000,100.000000,,,,,,,,,,,,,,,,,,,,,,,,,,,,
1703488851.153850,1703488851.154648,116.000000,0.000000,4278.589844,4263.974121,4308.974121,4262.820313,4259.871582,4260.128418,4353.974121,4241.794922,4238.846191,4317.307617,4512.820313,4478.717773,4373.846191,4454.871582,6758.000000,4.000000,96.000000,,,,0.000000,4.000000,4.000000,4.000000,4.000000,4.000000,4.000000,4.000000,4.000000,4.000000,4.000000,4.000000,4.000000,4.000000,4.000000,100.000000,,,,,,,,,,,,,,,,,29.000000,0.000000,0.719257,-0.123047,-0.671265,0.130127,0.932243,-0.342327,0.060066,-11.004914,-43.539131,61.376133
1703488851.161658,1703488851.162456,117.000000,0.000000,4280.512695,4261.666504,4311.410156,4259.358887,4257.051270,4262.563965,4352.692383,4231.410156,4230.897461,4318.077148,4502.436035,4472.436035,4373.205078,4451.666504,6913.000000,4.000000,96.000000,,,,0.000000,4.000000,4.000000,4.000000,4.000000,4.000000,4.000000,4.000000,4.000000,4.000000,4.000000,4.000000,4.000000,4.000000,4.000000,100.000000,,,,,,,,,,,,,,,,,,,,,,,,,,,,
1703488851.169466,1703488851.170364,118.000000,0.000000,4285.256348,4263.205078,4314.871582,4267.436035,4268.461426,4266.922852,4352.692383,4233.077148,4230.897461,4318.205078,4511.922852,4475.000000,4382.051270,4456.410156,5845.000000,4.000000,96.000000,,,,0.000000,4.000000,4.000000,4.000000,4.000000,4.000000,4.000000,4.000000,4.000000,4.000000,4.000000,4.000000,4.000000,4.000000,4.000000,100.000000,,,,,,,,,,,,,,,,,,,,,,,,,,,,
1703488851.177274,1703488851.178172,119.000000,0.000000,4284.743652,4265.128418,4315.128418,4276.666504,4278.077148,4265.897461,4349.487305,4230.897461,4228.717773,4311.794922,4515.256348,4477.820313,4379.230957,4455.769043,6269.000000,4.000000,96.000000,,,,0.000000,4.000000,4.000000,4.000000,4.000000,4.000000,4.000000,4.000000,4.000000,4.000000,4.000000,4.000000,4.000000,4.000000,4.000000,100.000000,,,,,,,,,,,,,,,,,,,,,,,,,,,,
1703488851.185082,1703488851.185880,120.000000,0.000000,4287.179688,4266.410156,4314.615234,4278.589844,4277.692383,4263.589844,4346.153809,4230.512695,4228.333496,4310.769043,4511.025879,4479.487305,4381.666504,4452.307617,6758.000000,4.000000,96.000000,,,,0.000000,4.000000,4.000000,4.000000,4.000000,4.000000,4.000000,4.000000,4.000000,4.000000,4.000000,4.000000,4.000000,4.000000,4.000000,100.000000,,,,,,,,,,,,,,,,,30.000000,0.000000,0.719212,-0.122986,-0.671265,0.130432,0.926871,-0.358442,0.064949,-10.954423,-43.668552,61.321854
1703488851.192890,1703488851.193688,121.000000,0.000000,4295.512695,4272.820313,4316.282227,4281.794922,4276.025879,4260.641113,4346.922852,4240.897461,4241.153809,4325.128418,4520.256348,4488.077148,4393.589844,4460.384766,6913.000000,4.000000,96.000000,,,,0.000000,4.000000,4.000000,4.000000,4.000000,4.000000,4.000000,4.000000,4.000000,4.000000,4.000000,4.000000,4.000000,4.000000,4.000000,100.000000,,,,,,,,,,,,,,,,,,,,,,,,,,,,
1703488851.200698,1703488851.201396,122.000000,0.000000,4288.333496,4270.512695,4312.563965,4278.846191,4270.897461,4258.846191,4346.282227,4250.128418,4250.512695,4328.846191,4524.615234,4489.102539,4388.589844,4460.000000,5845.000000,4.000000,96.000000,,,,0.000000,4.000000,4.000000,4.000000,4.000000,4.000000,4.000000,4.000000,4.000000,4.000000,4.000000,4.000000,4.000000,4.000000,4.000000,100.000000,,,,,,,,,,,,,,,,,,,,,,,,,,,,
1703488851.208506,1703488851.209204,123.000000,0.000000,4276.794922,4261.794922,4308.077148,4272.820313,4260.128418,4260.641113,4344.487305,4257.179688,4249.615234,4318.077148,4518.461426,4481.794922,4378.461426,4444.487305,6269.000000,4.000000,96.000000,,,,0.000000,4.000000,4.000000,4.000000,4.000000,4.000000,4.000000,4.000000,4.000000,4.000000,4.000000,4.000000,4.000000,4.000000,4.000000,100.000000,,,,,,,,,,,,,,,,,,,,,,,,,,,,
1703488851.216314,1703488851.216912,124.000000,0.000000,4277.051270,4258.589844,4309.871582,4270.384766,4250.512695,4260.641113,4344.487305,4267.307617,4251.794922,4312.179688,4516.666504,4483.846191,4377.563965,4439.743652,6758.000000,4.000000,96.000000,,,,0.000000,4.000000,4.000000,4.000000,4.000000,4.000000,4.000000,4.000000,4.000000,4.000000,4.000000,4.000000,4.000000,4.000000,4.000000,100.000000,,,,,,,,,,,,,,,,,31.000000,0.000000,0.719055,-0.122986,-0.671326,0.130981,0.925894,-0.350140,0.071786,-10.808980,-43.618362,61.356335
1703488851.224122,1703488851.224720,125.000000,0.000000,4276.410156,4252.820313,4309.487305,4268.846191,4248.717773,4260.641113,4342.692383,4268.589844,4251.538574,4302.948730,4513.589844,4482.179688,4370.897461,4442.820313,6913.000000,4.000000,96.000000,,,,0.000000,4.000000,4.000000,4.000000,4.000000,4.000000,4.000000,4.000000,4.000000,4.000000,4.000000,4.000000,4.000000,4.000000,4.000000,100.000000,,,,,,,,,,,,,,,,,,,,,,,,,,,,
1703488851.231930,1703488851.232428,126.000000,0.000000,4275.769043,4247.051270,4306.153809,4269.871582,4254.102539,4264.615234,4345.384766,4259.615234,4244.230957,4292.051270,4504.230957,4475.769043,4365.384766,4442.436035,5845.000000,4.000000,96.000000,,,,0.000000,4.000000,4.000000,4.000000,4.000000,4.000000,4.000000,4.000000,4.000000,4.000000,4.000000,4.000000,4.000000,4.000000,4.000000,100.000000,,,,,,,,,,,,,,,,,,,,,,,,,,,,
1703488851.239738,1703488851.240236,127.000000,0.000000,4280.512695,4252.948730,4312.051270,4275.512695,4255.256348,4265.897461,4348.461426,4261.538574,4249.230957,4303.717773,4505.641113,4483.589844,4375.897461,4448.846191,96.000000,4.000000,96.000000,,,,0.000000,4.000000,4.000000,4.000000,4.000000,4.000000,4.000000,4.000000,4.000000,4.000000,4.000000,4.000000,4.000000,4.000000,4.000000,100.000000,,,,,,,,,,,,,,,,,,,,,,,,,,,,
1703488851.247546,1703488851.247944,0.000000,0.000000,4281.153809,4261.922852,4322.436035,4277.948730,4256.153809,4263.333496,4345.256348,4264.102539,4260.384766,4320.897461,4518.974121,4494.230957,4388.333496,4461.025879,5437.000000,4.000000,96.000000,,,,0.000000,4.000000,4.000000,4.000000,4.000000,4.000000,4.000000,4.000000,4.000000,4.000000,4.000000,4.000000,4.000000,4.000000,4.000000,100.000000,,,,,,,,,,,,,,,,,0.000000,0.000000,0.718920,-0.122986,-0.671387,0.131409,0.927359,-0.356489,0.070321,-10.944749,-43.523193,61.337368
1703488851.255354,1703488851.255752,1.000000,0.000000,4280.384766,4266.922852,4323.846191,4276.538574,4265.000000,4262.948730,4345.384766,4251.153809,4252.436035,4311.538574,4523.974121,4488.846191,4388.974121,4462.948730,5529.000000,4.000000,96.000000,,,,0.000000,4.000000,4.000000,4.000000,4.000000,4.000000,4.000000,4.000000,4.000000,4.000000,4.000000,4.000000,4.000000,4.000000,4.000000,100.000000,,,,,,,,,,,,,,,,,,,,,,,,,,,,
1703488851.263162,1703488851.263460,2.000000,0.000000,4281.282227,4262.948730,4314.230957,4276.282227,4259.230957,4262.948730,4348.717773,4240.128418,4241.282227,4300.384766,4513.589844,4475.000000,4382.179688,4452.307617,5332.000000,4.000000,96.000000,,,,0.000000,4.000000,4.000000,4.000000,4.000000,4.000000,4.000000,4.000000,4.000000,4.000000,4.000000,4.000000,4.000000,4.000000,4.000000,100.000000,,,,,,,,,,,,,,,,,,,,,,,,,,,,
1703488851.270970,1703488851.271268,3.000000,0.000000,4278.717773,4258.974121,4307.436035,4275.769043,4251.666504,4262.436035,4349.102539,4243.974121,4246.025879,4306.538574,4511.794922,4474.358887,4382.948730,4449.487305,5414.000000,4.000000,96.000000,,,,0.000000,4.000000,4.000000,4.000000,4.000000,4.000000,4.000000,4.000000,4.000000,4.000000,4.000000,4.000000,4.000000,4.000000,4.000000,100.000000,,,,,,,,,,,,,,,,,,,,,,,,,,,,
1703488851.278778,1703488851.278976,4.000000,0.000000,4277.436035,4264.743652,4310.641113,4277.179688,4273.077148,4266.922852,4347.436035,4247.307617,4247.436035,4300.256348,4524.230957,4484.615234,4386.794922,4458.846191,5245.000000,4.000000,96.000000,,,,0.000000,4.000000,4.000000,4.000000,4.000000,4.000000,4.000000,4.000000,4.000000,4.000000,4.000000,4.000000,4.000000,4.000000,4.000000,100.000000,,,,,,,,,,,,,,,,,1.000000,0.000000,0.718946,-0.123230,-0.671326,0.131348,0.916616,-0.357466,0.066903,-10.933607,-43.487541,61.286964
1703488851.286586,1703488851.286784,5.000000,0.000000,4282.692383,4266.922852,4317.179688,4280.256348,4286.153809,4269.358887,4348.333496,4247.820313,4242.307617,4296.666504,4525.512695,4489.871582,4386.153809,4463.077148,5111.000000,4.000000,96.000000,,,,0.000000,4.000000,4.000000,4.000000,4.000000,4.000000,4.000000,4.000000,4.000000,4.000000,4.000000,4.000000,4.000000,4.000000,4.000000,100.000000,,,,,,,,,,,,,,,,,,,,,,,,,,,,
1703488851.294395,1703488851.294493,6.000000,0.000000,4289.871582,4266.538574,4320.641113,4286.666504,4267.948730,4263.333496,4350.897461,4254.487305,4251.666504,4315.641113,4521.666504,4489.358887,4388.333496,4461.282227,1743.000000,4.000000,96.000000,,,,0.000000,4.000000,4.000000,4.000000,4.000000,4.000000,4.000000,4.000000,4.000000,4.000000,4.000000,4.000000,4.000000,4.000000,4.000000,100.000000,,,,,,,,,,,,,,,,,,,,,,,,,,,,
1703488851.302203,1703488851.302400,7.000000,0.000000,4293.077148,4275.769043,4321.794922,4292.948730,4261.410156,4261.153809,4350.384766,4262.436035,4260.897461,4317.692383,4521.410156,4491.410156,4383.333496,4461.025879,5146.000000,4.000000,96.000000,,,,0.000000,4.000000,4.000000,4.000000,4.000000,4.000000,4.000000,4.000000,4.000000,4.000000,4.000000,4.000000,4.000000,4.000000,4.000000,100.000000,,,,,,,,,,,,,,,,,,,,,,,,,,,,
1703488851.310011,1703488851.310208,8.000000,0.000000,4290.897461,4281.282227,4323.333496,4292.307617,4270.256348,4264.487305,4348.717773,4271.153809,4258.461426,4300.641113,4523.205078,4494.487305,4376.922852,4460.256348,5300.000000,4.000000,96.000000,,,,0.000000,4.000000,4.000000,4.000000,4.000000,4.000000,4.000000,4.000000,4.000000,4.000000,4.000000,4.000000,4.000000,4.000000,4.000000,100.000000,,,,,,,,,,,,,,,,,2.000000,0.000000,0.718859,-0.123474,-0.671387,0.131287,0.923453,-0.357954,0.053229,-11.006913,-43.372120,61.074936
1703488851.317819,1703488851.318116,9.000000,0.000000,4286.153809,4270.512695,4322.051270,4288.461426,4269.102539,4263.589844,4347.563965,4281.666504,4266.282227,4305.897461,4530.641113,4494.230957,4386.282227,4457.948730,5308.000000,4.000000,96.000000,,,,0.000000,4.000000,4.000000,4.000000,4.000000,4.000000,4.000000,4.000000,4.000000,4.000000,4.000000,4.000000,4.000000,4.000000,4.000000,100.000000,,,,,,,,,,,,,,,,,,,,,,,,,,,,
1703488851.325627,1703488851.325924,10.000000,0.000000,4281.794922,4261.153809,4316.666504,4284.230957,4258.974121,4261.282227,4343.974121,4285.128418,4276.922852,4317.436035,4529.743652,4494.102539,4387.051270,4458.461426,5856.000000,4.000000,96.000000,,,,0.000000,4.000000,4.000000,4.000000,4.000000,4.000000,4.000000,4.000000,4.000000,4.000000,4.000000,4.000000,4.000000,4.000000,4.000000,100.000000,,,,,,,,,,,,,,,,,,,,,,,,,,,,
1703488851.333435,1703488851.333832,11.000000,0.000000,4280.769043,4262.179688,4314.230957,4288.333496,4250.897461,4263.717773,4339.358887,4278.205078,4270.384766,4304.102539,4517.179688,4489.102539,4371.666504,4456.666504,6259.000000,4.000000,96.000000,,,,0.000000,4.000000,4.000000,4.000000,4.000000,4.000000,4.000000,4.000000,4.000000,4.000000,4.000000,4.000000,4.000000,4.000000,4.000000,100.000000,,,,,,,,,,,,,,,,,,,,,,,,,,,,
1703488851.341243,1703488851.341640,12.000000,0.000000,4282.307617,4266.410156,4318.205078,4294.743652,4254.102539,4267.307617,4339.358887,4268.077148,4262.436035,4292.436035,4517.948730,4486.153809,4373.589844,4452.051270,6765.000000,4.000000,96.000000,,,,0.000000,4.000000,4.000000,4.000000,4.000000,4.000000,4.000000,4.000000,4.000000,4.000000,4.000000,4.000000,4.000000,4.000000,4.000000,100.000000,,,,,,,,,,,,,,,,,3.000000,0.000000,0.718815,-0.123657,-0.671448,0.131042,0.934684,-0.356000,0.057624,-10.972889,-43.284908,60.934109
1703488851.349051,1703488851.349548,13.000000,0.000000,4280.769043,4266.922852,4315.512695,4287.307617,4263.077148,4265.769043,4336.538574,4255.769043,4259.487305,4297.948730,4522.436035,4483.333496,4384.487305,4445.769043,6907.000000,4.000000,96.000000,,,,0.000000,4.000000,4.000000,4.000000,4.000000,4.000000,4.000000,4.000000,4.000000,4.000000,4.000000,4.000000,4.000000,4.000000,4.000000,100.000000,,,,,,,,,,,,,,,,,,,,,,,,,,,,
1703488851.356859,1703488851.357356,14.000000,0.000000,4276.794922,4262.820313,4304.487305,4276.025879,4264.102539,4265.897461,4330.641113,4240.000000,4247.307617,4293.717773,4508.974121,4466.922852,4374.358887,4439.871582,5856.000000,4.000000,96.000000,,,,0.000000,4.000000,4.000000,4.000000,4.000000,4.000000,4.000000,4.000000,4.000000,4.000000,4.000000,4.000000,4.000000,4.000000,4.000000,100.000000,,,,,,,,,,,,,,,,,,,,,,,,,,,,
1703488851.364667,1703488851.365264,15.000000,0.000000,4272.820313,4259.743652,4299.102539,4279.358887,4265.256348,4271.025879,4331.666504,4237.692383,4240.641113,4283.205078,4501.538574,4458.333496,4364.871582,4442.051270,6259.000000,4.000000,96.000000,,,,0.000000,4.000000,4.000000,4.000000,4.000000,4.000000,4.000000,4.000000,4.000000,4.000000,4.000000,4.000000,4.000000,4.000000,4.000000,100.000000,,,,,,,,,,,,,,,,,,,,,,,,,,,,
1703488851.372475,1703488851.373072,16.000000,0.000000,4265.256348,4253.717773,4296.282227,4279.487305,4266.538574,4271.794922,4329.871582,4250.641113,4245.384766,4280.384766,4506.538574,4466.025879,4365.897461,4442.436035,0.000000,4.000000,96.000000,,,,0.000000,4.000000,4.000000,4.000000,4.000000,4.000000,4.000000,4.000000,4.000000,4.000000,4.000000,4.000000,4.000000,4.000000,4.000000,100.000000,,,,,,,,,,,,,,,,,4.000000,0.000000,0.718826,-0.123657,-0.671448,0.130981,0.921499,-0.350140,0.061531,-10.958933,-43.306419,60.957363
1703488851.380283,1703488851.380780,17.000000,0.000000,4259.230957,4246.538574,4294.358887,4268.205078,4259.102539,4265.256348,4322.692383,4262.436035,4247.179688,4277.307617,4506.282227,4473.077148,4363.974121,4438.846191,0.000000,4.000000,96.000000,,,,0.000000,4.000000,4.000000,4.000000,4.000000,4.000000,4.000000,4.000000,4.000000,4.000000,4.000000,4.000000,4.000000,4.000000,4.000000,100.000000,,,,,,,,,,,,,,,,,,,,,,,,,,,,
1703488851.388091,1703488851.388588,18.000000,0.000000,4267.820313,4250.897461,4303.846191,4274.615234,4258.974121,4259.743652,4320.897461,4271.410156,4253.589844,4283.077148,4513.461426,4487.692383,4370.384766,4449.871582,0.000000,4.000000,96.000000,,,,0.000000,4.000000,4.000000,4.000000,4.000000,4.000000,4.000000,4.000000,4.000000,4.000000,4.000000,4.000000,4.000000,4.000000,4.000000,100.000000,,,,,,,,,,,,,,,,,,,,,,,,,,,,
1703488851.395899,1703488851.396396,19.000000,0.000000,4279.743652,4263.461426,4314.230957,4291.794922,4268.461426,4262.307617,4322.051270,4283.461426,4268.846191,4295.128418,4526.922852,4504.230957,4380.128418,4459.487305,0.000000,4.000000,96.000000,,,,0.000000,4.000000,4.000000,4.000000,4.000000,4.000000,4.000000,4.000000,4.000000,4.000000,4.000000,4.000000,4.000000,4.000000,4.000000,100.000000,,,,,,,,,,,,,,,,,,,,,,,,,,,,
1703488851.403707,1703488851.404204,20.000000,0.000000,4275.256348,4266.794922,4308.717773,4287.820313,4262.692383,4261.922852,4317.820313,4285.769043,4271.153809,4284.871582,4525.641113,4493.589844,4375.128418,4449.487305,0.000000,4.000000,96.000000,,,,0.000000,4.000000,4.000000,4.000000,4.000000,4.000000,4.000000,4.000000,4.000000,4.000000,4.000000,4.000000,4.000000,4.000000,4.000000,100.000000,,,,,,,,,,,,,,,,,5.000000,0.000000,0.718722,-0.123596,-0.671570,0.130981,0.911732,-0.347699,0.067391,-10.746373,-43.342442,60.961628
1703488851.411515,1703488851.411912,21.000000,0.000000,4265.769043,4259.871582,4303.461426,4273.461426,4249.615234,4254.615234,4312.820313,4280.769043,4265.641113,4273.205078,4517.820313,4480.256348,4371.282227,4447.051270,0.000000,4.000000,96.000000,,,,0.000000,4.000000,4.000000,4.000000,4.000000,4.000000,4.000000,4.000000,4.000000,4.000000,4.000000,4.000000,4.000000,4.000000,4.000000,100.000000,,,,,,,,,,,,,,,,,,,,,,,,,,,,
1703488851.419323,1703488851.419720,22.000000,0.000000,4277.051270,4260.384766,4313.333496,4280.769043,4247.051270,4250.897461,4311.025879,4280.256348,4268.589844,4287.563965,4518.077148,4489.615234,4382.563965,4462.051270,0.000000,4.000000,96.000000,,,,0.000000,4.000000,4.000000,4.000000,4.000000,4.000000,4.000000,4.000000,4.000000,4.000000,4.000000,4.000000,4.000000,4.000000,4.000000,100.000000,,,,,,,,,,,,,,,,,,,,,,,,,,,,
1703488851.427131,1703488851.427428,23.000000,0.000000,4297.692383,4272.563965,4322.436035,4294.615234,4244.102539,4247.820313,4306.538574,4268.846191,4262.563965,4285.128418,4514.615234,4487.436035,4383.589844,4465.128418,0.000000,4.000000,96.000000,,,,0.000000,4.000000,4.000000,4.000000,4.000000,4.000000,4.000000,4.000000,4.000000,4.000000,4.000000,4.000000,4.000000,4.000000,4.000000,100.000000,1.000000,75.000000,4.000000,4.000000,4.000000,4.000000,4.000000,4.000000,1.000000,4.000000,4.000000,4.000000,4.000000,4.000000,4.000000,4.000000,,,,,,,,,,,,
1703488851.434939,1703488851.435236,24.000000,0.000000,4308.974121,4289.230957,4328.717773,4299.102539,4245.897461,4248.333496,4302.948730,4244.487305,4244.102539,4265.769043,4509.358887,4475.769043,4373.717773,4460.512695,0.000000,4.000000,96.000000,,,,0.000000,4.000000,4.000000,4.000000,4.000000,4.000000,4.000000,4.000000,4.000000,4.000000,4.000000,4.000000,4.000000,4.000000,4.000000,100.000000,,,,,,,,,,,,,,,,,6.000000,0.000000,0.718642,-0.123535,-0.671631,0.131165,0.937614,-0.352094,0.075204,-10.738402,-43.258198,60.998798
1703488851.442747,1703488851.442944,25.000000,0.000000,4314.230957,4295.256348,4334.358887,4308.589844,4258.205078,4255.641113,4304.358887,4230.641113,4233.846191,4274.487305,4508.846191,4475.769043,4376.794922,4463.461426,0.000000,4.000000,96.000000,,,,0.000000,4.000000,4.000000,4.000000,4.000000,4.000000,4.000000,4.000000,4.000000,4.000000,4.000000,4.000000,4.000000,4.000000,4.000000,100.000000,,,,,,,,,,,,,,,,,,,,,,,,,,,,
1703488851.450555,1703488851.450852,26.000000,0.000000,4311.794922,4287.692383,4336.410156,4314.358887,4260.512695,4260.128418,4301.794922,4230.769043,4233.077148,4281.025879,4507.948730,4475.641113,4380.256348,4465.000000,0.000000,4.000000,96.000000,,,,0.000000,4.000000,4.000000,4.000000,4.000000,4.000000,4.000000,4.000000,4.000000,4.000000,4.000000,4.000000,4.000000,4.000000,4.000000,100.000000,,,,,,,,,,,,,,,,,,,,,,,,,,,,
1703488851.458363,1703488851.458660,27.000000,0.000000,4297.692383,4283.205078,4328.333496,4304.230957,4255.512695,4257.820313,4296.794922,4229.743652,4230.512695,4265.384766,4506.538574,4469.358887,4373.461426,4460.000000,0.000000,4.000000,96.000000,,,,0.000000,4.000000,4.000000,4.000000,4.000000,4.000000,4.000000,4.000000,4.000000,4.000000,4.000000,4.000000,4.000000,4.000000,4.000000,100.000000,,,,,,,,,,,,,,,,,,,,,,,,,,,,
1703488851.466171,1703488851.466568,28.000000,0.000000,4282.820313,4280.641113,4311.922852,4293.461426,4262.436035,4261.538574,4296.666504,4227.179688,4227.051270,4262.820313,4505.256348,4467.179688,4364.743652,4450.384766,0.000000,4.000000,96.000000,,,,0.000000,4.000000,4.000000,4.000000,4.000000,4.000000,4.000000,4.000000,4.000000,4.000000,4.000000,4.000000,4.000000,4.000000,4.000000,100.000000,,,,,,,,,,,,,,,,,7.000000,0.000000,0.718678,-0.123657,-0.671570,0.131165,0.915639,-0.359419,0.062508,-10.664562,-43.249046,60.982250
1703488851.473980,1703488851.474376,29.000000,0.000000,4273.717773,4272.179688,4304.487305,4293.461426,4266.153809,4269.358887,4296.282227,4237.563965,4230.384766,4272.948730,4504.487305,4473.846191,4359.358887,4440.256348,0.000000,4.000000,96.000000,,,,0.000000,4.000000,4.000000,4.000000,4.000000,4.000000,4.000000,4.000000,4.000000,4.000000,4.000000,4.000000,4.000000,4.000000,4.000000,100.000000,,,,,,,,,,,,,,,,,,,,,,,,,,,,
1703488851.481788,1703488851.482283,30.000000,0.000000,4265.897461,4256.794922,4306.025879,4287.948730,4253.077148,4261.410156,4291.922852,4248.974121,4232.948730,4261.282227,4499.871582,4471.410156,4358.846191,4432.051270,0.000000,4.000000,96.000000,,,,0.000000,4.000000,4.000000,4.000000,4.000000,4.000000,4.000000,4.000000,4.000000,4.000000,4.000000,4.000000,4.000000,4.000000,4.000000,100.000000,,,,,,,,,,,,,,,,,,,,,,,,,,,,
1703488851.489596,1703488851.490091,31.000000,0.000000,4257.692383,4248.461426,4300.641113,4274.871582,4246.538574,4246.666504,4288.846191,4248.461426,4230.256348,4244.871582,4489.615234,4456.153809,4357.436035,4424.230957,0.000000,4.000000,96.000000,,,,0.000000,4.000000,4.000000,4.000000,4.000000,4.000000,4.000000,4.000000,4.000000,4.000000,4.000000,4.000000,4.000000,4.000000,4.000000,100.000000,,,,,,,,,,,,,,,,,,,,,,,,,,,,
1703488851.497404,1703488851.497999,32.000000,0.000000,4259.871582,4255.641113,4299.358887,4278.205078,4256.282227,4249.102539,4288.589844,4252.820313,4237.563965,4253.974121,4496.922852,4462.692383,4355.256348,4429.743652,0.000000,4.000000,96.000000,,,,0.000000,4.000000,4.000000,4.000000,4.000000,4.000000,4.000000,4.000000,4.000000,4.000000,4.000000,4.000000,4.000000,4.000000,4.000000,100.000000,,,,,,,,,,,,,,,,,8.000000,0.000000,0.718625,-0.123901,-0.671570,0.131226,0.927359,-0.350140,0.067391,-10.731440,-43.107475,61.134026
1703488851.505212,1703488851.505807,33.000000,0.000000,4272.307617,4265.256348,4310.512695,4294.743652,4264.615234,4258.077148,4287.179688,4268.077148,4256.666504,4271.538574,4520.000000,4485.384766,4367.948730,4446.410156,0.000000,4.000000,96.000000,,,,0.000000,4.000000,4.000000,4.000000,4.000000,4.000000,4.000000,4.000000,4.000000,4.000000,4.000000,4.000000,4.000000,4.000000,4.000000,100.000000,,,,,,,,,,,,,,,,,,,,,,,,,,,,
1703488851.513020,1703488851.513715,34.000000,0.000000,4281.538574,4271.794922,4315.641113,4300.000000,4262.820313,4252.820313,4286.025879,4269.743652,4265.384766,4276.538574,4521.410156,4485.641113,4379.358887,4453.077148,0.000000,4.000000,96.000000,,,,0.000000,4.000000,4.000000,4.000000,4.000000,4.000000,4.000000,4.000000,4.000000,4.000000,4.000000,4.000000,4.000000,4.000000,4.000000,100.000000,,,,,,,,,,,,,,,,,,,,,,,,,,,,
1703488851.520828,1703488851.521523,35.000000,0.000000,4283.846191,4278.205078,4312.692383,4297.307617,4257.563965,4243.205078,4284.358887,4258.589844,4263.974121,4271.025879,4513.974121,4482.948730,4372.948730,4453.717773,0.000000,4.000000,96.000000,,,,0.000000,4.000000,4.000000,4.000000,4.000000,4.000000,4.000000,4.000000,4.000000,4.000000,4.000000,4.000000,4.000000,4.000000,4.000000,100.000000,,,,,,,,,,,,,,,,,,,,,,,,,,,,
1703488851.528636,1703488851.529431,36.000000,0.000000,4284.743652,4284.358887,4315.000000,4303.333496,4259.358887,4244.871582,4282.179688,4250.512695,4266.025879,4265.384766,4522.307617,4492.948730,4374.871582,4461.666504,0.000000,4.000000,96.000000,,,,0.000000,4.000000,4.000000,4.000000,4.000000,4.000000,4.000000,4.000000,4.000000,4.000000,4.000000,4.000000,4.000000,4.000000,4.000000,100.000000,,,,,,,,,,,,,,,,,9.000000,0.000000,0.718537,-0.124146,-0.671631,0.131165,0.908802,-0.346234,0.059089,-10.791629,-43.196728,61.103958
1703488851.536444,1703488851.537239,37.000000,0.000000,4285.384766,4281.922852,4317.563965,4312.051270,4260.384766,4246.153809,4283.974121,4235.000000,4258.461426,4264.743652,4518.974121,4482.692383,4381.282227,4459.487305,0.000000,4.000000,96.000000,,,,0.000000,4.000000,4.000000,4.000000,4.000000,4.000000,4.000000,4.000000,4.000000,4.000000,4.000000,4.000000,4.000000,4.000000,4.000000,100.000000,,,,,,,,,,,,,,,,,,,,,,,,,,,,
1703488851.544252,1703488851.545147,38.000000,0.000000,4283.589844,4278.589844,4315.769043,4307.948730,4250.000000,4241.410156,4280.641113,4213.077148,4238.077148,4269.358887,4498.205078,4457.820313,4375.512695,4445.769043,0.000000,4.000000,96.000000,,,,0.000000,4.000000,4.000000,4.000000,4.000000,4.000000,4.000000,4.000000,4.000000,4.000000,4.000000,4.000000,4.000000,4.000000,4.000000,100.000000,,,,,,,,,,,,,,,,,,,,,,,,,,,,
1703488851.552060,1703488851.552955,39.000000,0.000000,4284.743652,4282.692383,4308.974121,4299.487305,4247.692383,4242.436035,4271.282227,4195.512695,4220.384766,4265.769043,4492.179688,4442.820313,4372.179688,4444.871582,0.000000,4.000000,96.000000,,,,0.000000,4.000000,4.000000,4.000000,4.000000,4.000000,4.000000,4.000000,4.000000,4.000000,4.000000,4.000000,4.000000,4.000000,4.000000,100.000000,,,,,,,,,,,,,,,,,,,,,,,,,,,,
1703488851.559868,1703488851.560863,40.000000,0.000000,4282.051270,4277.563965,4302.307617,4294.871582,4258.846191,4247.051270,4271.410156,4184.230957,4204.743652,4245.897461,4494.615234,4431.666504,4366.922852,4443.461426,0.000000,4.000000,96.000000,,,,0.000000,4.000000,4.000000,4.000000,4.000000,4.000000,4.000000,4.000000,4.000000,4.000000,4.000000,4.000000,4.000000,4.000000,4.000000,100.000000,,,,,,,,,,,,,,,,,10.000000,0.000000,0.718519,-0.124451,-0.671570,0.131287,0.930289,-0.349652,0.064949,-10.945799,-43.160389,61.043560
1703488851.567676,1703488851.568671,41.000000,0.000000,4268.846191,4267.436035,4300.128418,4294.743652,4262.820313,4248.589844,4275.641113,4184.615234,4193.077148,4231.922852,4484.358887,4430.641113,4355.128418,4430.256348,0.000000,4.000000,96.000000,,,,0.000000,4.000000,4.000000,4.000000,4.000000,4.000000,4.000000,4.000000,4.000000,4.000000,4.000000,4.000000,4.000000,4.000000,4.000000,100.000000,,,,,,,,,,,,,,,,,,,,,,,,,,,,
1703488851.575484,1703488851.576578,42.000000,0.000000,4261.282227,4266.922852,4298.077148,4297.051270,4262.436035,4247.563965,4271.538574,4197.307617,4193.205078,4227.051270,4477.307617,4440.384766,4355.128418,4426.025879,0.000000,4.000000,96.000000,,,,0.000000,4.000000,4.000000,4.000000,4.000000,4.000000,4.000000,4.000000,4.000000,4.000000,4.000000,4.000000,4.000000,4.000000,4.000000,100.000000,,,,,,,,,,,,,,,,,,,,,,,,,,,,
1703488851.583292,1703488851.584386,43.000000,0.000000,4260.769043,4265.641113,4294.102539,4288.974121,4263.974121,4249.230957,4267.820313,4209.358887,4197.179688,4221.794922,4477.820313,4445.256348,4351.794922,4430.000000,0.000000,4.000000,96.000000,,,,0.000000,4.000000,4.000000,4.000000,4.000000,4.000000,4.000000,4.000000,4.000000,4.000000,4.000000,4.000000,4.000000,4.000000,4.000000,100.000000,,,,,,,,,,,,,,,,,,,,,,,,,,,,
1703488851.591100,1703488851.592094,44.000000,0.000000,4261.538574,4259.487305,4293.077148,4279.743652,4258.205078,4249.102539,4269.230957,4215.000000,4198.846191,4218.077148,4477.820313,4446.410156,4339.358887,4427.179688,0.000000,4.000000,96.000000,,,,0.000000,4.000000,4.000000,4.000000,4.000000,4.000000,4.000000,4.000000,4.000000,4.000000,4.000000,4.000000,4.000000,4.000000,4.000000,100.000000,,,,,,,,,,,,,,,,,11.000000,0.000000,0.718644,-0.124451,-0.671448,0.131226,0.908802,-0.349164,0.061043,-10.901219,-43.244347,60.855873
1703488851.598908,1703488851.599902,45.000000,0.000000,4260.897461,4259.871582,4293.205078,4285.384766,4255.128418,4247.179688,4265.256348,4223.333496,4207.307617,4225.128418,4481.282227,4449.871582,4347.179688,4426.922852,0.000000,4.000000,96.000000,,,,0.000000,4.000000,4.000000,4.000000,4.000000,4.000000,4.000000,4.000000,4.000000,4.000000,4.000000,4.000000,4.000000,4.000000,4.000000,100.000000,,,,,,,,,,,,,,,,,,,,,,,,,,,,
1703488851.606716,1703488851.607611,46.000000,0.000000,4261.666504,4266.282227,4295.769043,4296.666504,4263.974121,4250.769043,4261.025879,4234.487305,4221.282227,4231.153809,4486.922852,4455.128418,4360.641113,4433.846191,0.000000,4.000000,96.000000,,,,0.000000,4.000000,4.000000,4.000000,4.000000,4.000000,4.000000,4.000000,4.000000,4.000000,4.000000,4.000000,4.000000,4.000000,4.000000,100.000000,,,,,,,,,,,,,,,,,,,,,,,,,,,,
1703488851.614524,1703488851.615418,47.000000,0.000000,4271.153809,4275.384766,4305.128418,4299.102539,4266.025879,4246.410156,4258.461426,4243.717773,4233.205078,4233.205078,4492.307617,4464.743652,4357.436035,4443.846191,0.000000,4.000000,96.000000,,,,0.000000,4.000000,4.000000,4.000000,4.000000,4.000000,4.000000,4.000000,4.000000,4.000000,4.000000,4.000000,4.000000,4.000000,4.000000,100.000000,,,,,,,,,,,,,,,,,,,,,,,,,,,,
1703488851.622332,1703488851.623127,48.000000,0.000000,4281.538574,4281.025879,4312.692383,4293.589844,4252.051270,4231.666504,4249.743652,4243.205078,4240.256348,4246.282227,4494.487305,4471.153809,4355.897461,4455.384766,0.000000,4.000000,96.000000,,,,0.000000,4.000000,4.000000,4.000000,4.000000,4.000000,4.000000,4.000000,4.000000,4.000000,4.000000,4.000000,4.000000,4.000000,4.000000,100.000000,,,,,,,,,,,,,,,,,12.000000,0.000000,0.718767,-0.124268,-0.671387,0.131042,0.928336,-0.342815,0.056159,-10.911098,-43.253246,60.953617
1703488851.630140,1703488851.630935,49.000000,0.000000,4288.461426,4280.512695,4315.256348,4295.128418,4243.333496,4224.615234,4245.512695,4237.307617,4239.358887,4252.436035,4495.256348,4471.410156,4365.641113,4458.974121,0.000000,4.000000,96.000000,,,,0.000000,4.000000,4.000000,4.000000,4.000000,4.000000,4.000000,4.000000,4.000000,4.000000,4.000000,4.000000,4.000000,4.000000,4.000000,100.000000,,,,,,,,,,,,,,,,,,,,,,,,,,,,
1703488851.637948,1703488851.638643,50.000000,0.000000,4298.077148,4293.205078,4318.461426,4310.897461,4256.410156,4230.000000,4249.615234,4231.922852,4236.922852,4244.743652,4503.333496,4477.820313,4374.102539,4461.282227,0.000000,4.000000,96.000000,,,,0.000000,4.000000,4.000000,4.000000,4.000000,4.000000,4.000000,4.000000,4.000000,4.000000,4.000000,4.000000,4.000000,4.000000,4.000000,100.000000,,,,,,,,,,,,,,,,,,,,,,,,,,,,
1703488851.645756,1703488851.646451,51.000000,0.000000,4304.743652,4310.384766,4318.461426,4317.179688,4272.692383,4233.205078,4248.589844,4222.051270,4234.102539,4243.333496,4509.615234,4474.743652,4372.307617,4466.153809,0.000000,4.000000,96.000000,,,,0.000000,4.000000,4.000000,4.000000,4.000000,4.000000,4.000000,4.000000,4.000000,4.000000,4.000000,4.000000,4.000000,4.000000,4.000000,100.000000,,,,,,,,,,,,,,,,,,,,,,,,,,,,
1703488851.653565,1703488851.654159,52.000000,0.000000,4294.871582,4299.358887,4311.794922,4298.717773,4267.179688,4225.000000,4240.769043,4211.794922,4225.128418,4238.717773,4493.717773,4455.256348,4358.077148,4453.717773,0.000000,4.000000,96.000000,,,,0.000000,4.000000,4.000000,4.000000,4.000000,4.000000,4.000000,4.000000,4.000000,4.000000,4.000000,4.000000,4.000000,4.000000,4.000000,100.000000,,,,,,,,,,,,,,,,,13.000000,0.000000,0.718852,-0.124634,-0.671204,0.131165,0.930289,-0.360884,0.063484,-10.869987,-43.161255,61.058254
1703488851.661373,1703488851.661967,53.000000,0.000000,4282.948730,4279.871582,4304.102539,4283.846191,4251.410156,4216.153809,4234.102539,4206.666504,4213.333496,4219.871582,4472.179688,4442.563965,4345.000000,4431.538574,0.000000,4.000000,96.000000,,,,0.000000,4.000000,4.000000,4.000000,4.000000,4.000000,4.000000,4.000000,4.000000,4.000000,4.000000,4.000000,4.000000,4.000000,4.000000,100.000000,,,,,,,,,,,,,,,,,,,,,,,,,,,,
1703488851.669181,1703488851.669675,54.000000,0.000000,4276.538574,4269.871582,4293.846191,4277.948730,4243.077148,4219.487305,4230.128418,4206.538574,4211.153809,4220.769043,4468.205078,4438.589844,4340.897461,4421.666504,0.000000,4.000000,96.000000,,,,0.000000,4.000000,4.000000,4.000000,4.000000,4.000000,4.000000,4.000000,4.000000,4.000000,4.000000,4.000000,4.000000,4.000000,4.000000,100.000000,,,,,,,,,,,,,,,,,,,,,,,,,,,,
1703488851.676989,1703488851.677583,55.000000,0.000000,4263.461426,4263.461426,4282.307617,4275.256348,4245.256348,4232.820313,4228.717773,4210.897461,4214.230957,4235.512695,4463.077148,4436.282227,4331.025879,4413.589844,0.000000,4.000000,96.000000,,,,0.000000,4.000000,4.000000,4.000000,4.000000,4.000000,4.000000,4.000000,4.000000,4.000000,4.000000,4.000000,4.000000,4.000000,4.000000,100.000000,,,,,,,,,,,,,,,,,,,,,,,,,,,,
1703488851.684797,1703488851.685391,56.000000,0.000000,4258.846191,4268.333496,4283.589844,4278.077148,4258.205078,4244.230957,4231.282227,4224.871582,4212.307617,4222.820313,4460.256348,4437.307617,4323.077148,4409.358887,0.000000,4.000000,96.000000,,,,0.000000,4.000000,4.000000,4.000000,4.000000,4.000000,4.000000,4.000000,4.000000,4.000000,4.000000,4.000000,4.000000,4.000000,4.000000,100.000000,,,,,,,,,,,,,,,,,14.000000,0.000000,0.718731,-0.125000,-0.671265,0.131165,0.918569,-0.350629,0.057136,-10.932989,-43.095131,61.169098
1703488851.692605,1703488851.693198,57.000000,0.000000,4269.487305,4278.333496,4294.871582,4275.000000,4269.358887,4249.487305,4230.384766,4241.538574,4219.102539,4208.974121,4472.692383,4442.948730,4334.871582,4421.794922,0.000000,4.000000,96.000000,,,,0.000000,4.000000,4.000000,4.000000,4.000000,4.000000,4.000000,4.000000,4.000000,4.000000,4.000000,4.000000,4.000000,4.000000,4.000000,100.000000,,,,,,,,,,,,,,,,,,,,,,,,,,,,
1703488851.700413,1703488851.700907,58.000000,0.000000,4276.153809,4277.948730,4296.410156,4286.538574,4265.000000,4245.256348,4226.794922,4252.051270,4231.410156,4224.102539,4477.436035,4449.102539,4343.974121,4432.051270,0.000000,4.000000,96.000000,,,,0.000000,4.000000,4.000000,4.000000,4.000000,4.000000,4.000000,4.000000,4.000000,4.000000,4.000000,4.000000,4.000000,4.000000,4.000000,100.000000,,,,,,,,,,,,,,,,,,,,,,,,,,,,
1703488851.708221,1703488851.708814,59.000000,0.000000,4272.820313,4273.205078,4290.897461,4319.102539,4258.461426,4243.461426,4225.641113,4256.922852,4233.974121,4234.615234,4477.307617,4456.666504,4334.743652,4428.974121,0.000000,4.000000,96.000000,,,,0.000000,4.000000,4.000000,4.000000,4.000000,4.000000,4.000000,4.000000,4.000000,4.000000,4.000000,4.000000,4.000000,4.000000,4.000000,100.000000,,,,,,,,,,,,,,,,,,,,,,,,,,,,
1703488851.716029,1703488851.716622,60.000000,0.000000,4273.333496,4281.666504,4294.358887,4331.922852,4261.794922,4246.794922,4223.589844,4261.922852,4237.051270,4227.948730,4487.692383,4459.615234,4339.358887,4428.077148,0.000000,4.000000,96.000000,,,,0.000000,4.000000,4.000000,4.000000,4.000000,4.000000,4.000000,4.000000,4.000000,4.000000,4.000000,4.000000,4.000000,4.000000,4.000000,100.000000,,,,,,,,,,,,,,,,,15.000000,0.000000,0.718619,-0.125061,-0.671326,0.131409,0.908314,-0.359419,0.053229,-11.056356,-43.302284,61.168854
1703488851.723837,1703488851.724530,61.000000,0.000000,4283.589844,4300.897461,4298.717773,4331.025879,4262.307617,4238.461426,4219.743652,4265.128418,4250.128418,4233.974121,4494.230957,4457.948730,4363.717773,4439.102539,0.000000,4.000000,96.000000,,,,0.000000,4.000000,4.000000,4.000000,4.000000,4.000000,4.000000,4.000000,4.000000,4.000000,4.000000,4.000000,4.000000,4.000000,4.000000,100.000000,,,,,,,,,,,,,,,,,,,,,,,,,,,,
1703488851.731645,1703488851.732338,62.000000,0.000000,4290.897461,4308.461426,4295.000000,4352.692383,4258.589844,4228.077148,4220.128418,4252.436035,4251.922852,4246.282227,4493.333496,4461.410156,4371.025879,4449.487305,0.000000,4.000000,96.000000,,,,0.000000,4.000000,4.000000,4.000000,4.000000,4.000000,4.000000,4.000000,4.000000,4.000000,4.000000,4.000000,4.000000,4.000000,4.000000,100.000000,,,,,,,,,,,,,,,,,,,,,,,,,,,,
1703488851.739453,1703488851.740246,63.000000,0.000000,4291.538574,4299.615234,4295.769043,4373.077148,4263.205078,4227.051270,4220.000000,4235.000000,4243.333496,4246.794922,4498.589844,4467.436035,4363.333496,4451.794922,0.000000,4.000000,96.000000,,,,0.000000,4.000000,4.000000,4.000000,4.000000,4.000000,4.000000,4.000000,4.000000,4.000000,4.000000,4.000000,4.000000,4.000000,4.000000,100.000000,,,,,,,,,,,,,,,,,,,,,,,,,,,,
1703488851.747261,1703488851.748054,64.000000,0.000000,4293.717773,4296.922852,4299.487305,4366.922852,4266.153809,4222.051270,4217.436035,4231.153809,4247.820313,4250.897461,4501.282227,4467.692383,4367.436035,4452.179688,5437.000000,4.000000,96.000000,,,,0.000000,4.000000,4.000000,4.000000,4.000000,4.000000,4.000000,4.000000,4.000000,4.000000,4.000000,4.000000,4.000000,4.000000,4.000000,100.000000,,,,,,,,,,,,,,,,,16.000000,0.000000,0.718632,-0.125122,-0.671265,0.131592,0.920523,-0.357954,0.055671,-11.084054,-43.238724,61.251968
1703488851.755069,1703488851.755762,65.000000,0.000000,4292.563965,4298.846191,4297.436035,4359.230957,4256.282227,4213.461426,4218.589844,4230.384766,4244.358887,4253.333496,4498.461426,4463.589844,4371.538574,4454.230957,5494.000000,4.000000,96.000000,,,,0.000000,4.000000,4.000000,4.000000,4.000000,4.000000,4.000000,4.000000,4.000000,4.000000,4.000000,4.000000,4.000000,4.000000,4.000000,100.000000,,,,,,,,,,,,,,,,,,,,,,,,,,,,
1703488851.762877,1703488851.763570,66.000000,0.000000,4283.589844,4285.384766,4296.922852,4357.307617,4245.897461,4214.102539,4219.358887,4227.692383,4232.436035,4236.922852,4494.615234,4469.487305,4354.871582,4450.769043,5335.000000,4.000000,96.000000,,,,0.000000,4.000000,4.000000,4.000000,4.000000,4.000000,4.000000,4.000000,4.000000,4.000000,4.000000,4.000000,4.000000,4.000000,4.000000,100.000000,,,,,,,,,,,,,,,,,,,,,,,,,,,,
1703488851.770685,1703488851.771278,67.000000,0.000000,4275.384766,4271.922852,4301.666504,4357.179688,4245.128418,4217.307617,4219.743652,4240.512695,4243.077148,4227.692383,4490.512695,4477.948730,4346.794922,4438.205078,5415.000000,4.000000,96.000000,,,,0.000000,4.000000,4.000000,4.000000,4.000000,4.000000,4.000000,4.000000,4.000000,4.000000,4.000000,4.000000,4.000000,4.000000,4.000000,100.000000,,,,,,,,,,,,,,,,,,,,,,,,,,,,
1703488851.778493,1703488851.779086,68.000000,0.000000,4269.102539,4264.487305,4299.743652,4345.256348,4236.794922,4214.358887,4216.538574,4259.615234,4252.948730,4237.692383,4492.436035,4469.615234,4352.563965,4429.230957,5255.000000,4.000000,96.000000,,,,0.000000,4.000000,4.000000,4.000000,4.000000,4.000000,4.000000,4.000000,4.000000,4.000000,4.000000,4.000000,4.000000,4.000000,4.000000,100.000000,,,,,,,,,,,,,,,,,17.000000,0.000000,0.718633,-0.125244,-0.671265,0.131470,0.914174,-0.362837,0.062508,-11.075649,-43.081516,61.226772
1703488851.786301,1703488851.786794,69.000000,0.000000,4257.563965,4249.871582,4291.922852,4321.025879,4219.871582,4214.487305,4212.948730,4260.256348,4240.512695,4232.179688,4490.769043,4458.333496,4341.153809,4424.743652,5120.000000,4.000000,96.000000,,,,0.000000,4.000000,4.000000,4.000000,4.000000,4.000000,4.000000,4.000000,4.000000,4.000000,4.000000,4.000000,4.000000,4.000000,4.000000,100.000000,,,,,,,,,,,,,,,,,,,,,,,,,,,,
1703488851.794109,1703488851.794602,70.000000,0.000000,4254.615234,4244.871582,4288.846191,4321.282227,4222.307617,4224.102539,4216.153809,4261.153809,4237.436035,4220.000000,4480.128418,4460.256348,4331.153809,4420.641113,1751.000000,4.000000,96.000000,,,,0.000000,4.000000,4.000000,4.000000,4.000000,4.000000,4.000000,4.000000,4.000000,4.000000,4.000000,4.000000,4.000000,4.000000,4.000000,100.000000,,,,,,,,,,,,,,,,,,,,,,,,,,,,
1703488851.801917,1703488851.802310,71.000000,0.000000,4263.461426,4254.358887,4291.153809,4324.230957,4233.589844,4227.179688,4217.436035,4268.333496,4245.641113,4216.794922,4473.333496,4463.077148,4335.128418,4417.692383,5150.000000,4.000000,96.000000,,,,0.000000,4.000000,4.000000,4.000000,4.000000,4.000000,4.000000,4.000000,4.000000,4.000000,4.000000,4.000000,4.000000,4.000000,4.000000,100.000000,,,,,,,,,,,,,,,,,,,,,,,,,,,,
1703488851.809725,1703488851.810118,72.000000,0.000000,4263.205078,4258.717773,4293.974121,4300.512695,4228.077148,4219.615234,4214.487305,4255.000000,4232.307617,4207.948730,4474.102539,4456.410156,4331.410156,4416.410156,5310.000000,4.000000,96.000000,,,,0.000000,4.000000,4.000000,4.000000,4.000000,4.000000,4.000000,4.000000,4.000000,4.000000,4.000000,4.000000,4.000000,4.000000,4.000000,100.000000,,,,,,,,,,,,,,,,,18.000000,0.000000,0.718633,-0.125244,-0.671265,0.131470,0.922476,-0.356000,0.061531,-10.984751,-43.106697,61.154095
1703488851.817533,1703488851.817826,73.000000,0.000000,4260.769043,4261.666504,4295.512695,4302.948730,4231.153809,4222.948730,4214.487305,4235.256348,4216.538574,4204.358887,4472.051270,4449.487305,4331.922852,4416.794922,5322.000000,4.000000,96.000000,,,,0.000000,4.000000,4.000000,4.000000,4.000000,4.000000,4.000000,4.000000,4.000000,4.000000,4.000000,4.000000,4.000000,4.000000,4.000000,100.000000,,,,,,,,,,,,,,,,,,,,,,,,,,,,
1703488851.825342,1703488851.825634,74.000000,0.000000,4272.820313,4278.846191,4297.179688,4346.666504,4257.948730,4234.230957,4218.077148,4230.897461,4219.102539,4218.333496,4472.051270,4452.307617,4343.461426,4422.307617,5819.000000,4.000000,96.000000,,,,0.000000,4.000000,4.000000,4.000000,4.000000,4.000000,4.000000,4.000000,4.000000,4.000000,4.000000,4.000000,4.000000,4.000000,4.000000,100.000000,,,,,,,,,,,,,,,,,,,,,,,,,,,,
1703488851.833150,1703488851.833342,75.000000,0.000000,4284.615234,4293.461426,4297.948730,4356.538574,4273.461426,4236.538574,4218.974121,4219.230957,4212.948730,4221.666504,4473.333496,4454.487305,4342.307617,4429.615234,6240.000000,4.000000,96.000000,,,,0.000000,4.000000,4.000000,4.000000,4.000000,4.000000,4.000000,4.000000,4.000000,4.000000,4.000000,4.000000,4.000000,4.000000,4.000000,100.000000,,,,,,,,,,,,,,,,,,,,,,,,,,,,
1703488851.840958,1703488851.841150,76.000000,0.000000,4281.794922,4289.102539,4294.358887,4337.948730,4263.974121,4231.666504,4217.436035,4198.205078,4196.538574,4210.641113,4472.179688,4443.974121,4344.743652,4433.589844,6720.000000,4.000000,96.000000,,,,0.000000,4.000000,4.000000,4.000000,4.000000,4.000000,4.000000,4.000000,4.000000,4.000000,4.000000,4.000000,4.000000,4.000000,4.000000,100.000000,,,,,,,,,,,,,,,,,19.000000,0.000000,0.718710,-0.125122,-0.671265,0.131165,0.926871,-0.342327,0.061531,-10.986276,-42.962696,61.222019
1703488851.848766,1703488851.848858,77.000000,0.000000,4276.282227,4286.794922,4292.307617,4343.974121,4253.461426,4221.922852,4217.563965,4195.384766,4197.692383,4214.230957,4481.794922,4438.461426,4365.641113,4439.230957,6915.000000,4.000000,96.000000,,,,0.000000,4.000000,4.000000,4.000000,4.000000,4.000000,4.000000,4.000000,4.000000,4.000000,4.000000,4.000000,4.000000,4.000000,4.000000,100.000000,,,,,,,,,,,,,,,,,,,,,,,,,,,,
1703488851.856574,1703488851.856766,78.000000,0.000000,4279.358887,4291.025879,4295.769043,4341.025879,4249.615234,4213.205078,4216.666504,4200.769043,4207.179688,4226.025879,4492.948730,4448.717773,4372.436035,4446.794922,5819.000000,4.000000,96.000000,,,,0.000000,4.000000,4.000000,4.000000,4.000000,4.000000,4.000000,4.000000,4.000000,4.000000,4.000000,4.000000,4.000000,4.000000,4.000000,100.000000,,,,,,,,,,,,,,,,,,,,,,,,,,,,
1703488851.864382,1703488851.864574,79.000000,0.000000,4279.102539,4286.538574,4295.128418,4329.615234,4246.282227,4216.153809,4215.512695,4199.871582,4202.179688,4228.461426,4495.897461,4455.769043,4366.282227,4447.948730,6240.000000,4.000000,96.000000,,,,0.000000,4.000000,4.000000,4.000000,4.000000,4.000000,4.000000,4.000000,4.000000,4.000000,4.000000,4.000000,4.000000,4.000000,4.000000,100.000000,,,,,,,,,,,,,,,,,,,,,,,,,,,,
1703488851.872190,1703488851.872482,80.000000,0.000000,4269.487305,4278.461426,4290.512695,4337.948730,4237.307617,4216.153809,4215.769043,4204.487305,4201.922852,4231.538574,4495.384766,4458.333496,4363.974121,4443.589844,6720.000000,4.000000,96.000000,,,,0.000000,4.000000,4.000000,4.000000,4.000000,4.000000,4.000000,4.000000,4.000000,4.000000,4.000000,4.000000,4.000000,4.000000,4.000000,100.000000,,,,,,,,,,,,,,,,,20.000000,0.000000,0.718874,-0.124756,-0.671265,0.130615,0.908802,-0.339397,0.068856,-11.020982,-43.016426,61.183151
1703488851.879998,1703488851.880290,81.000000,0.000000,4265.769043,4275.128418,4291.794922,4339.743652,4228.846191,4213.717773,4216.922852,4214.871582,4216.410156,4235.384766,4496.025879,4463.333496,4361.153809,4444.358887,6915.000000,4.000000,96.000000,,,,0.000000,4.000000,4.000000,4.000000,4.000000,4.000000,4.000000,4.000000,4.000000,4.000000,4.000000,4.000000,4.000000,4.000000,4.000000,100.000000,,,,,,,,,,,,,,,,,,,,,,,,,,,,
1703488851.887806,1703488851.888198,82.000000,0.000000,4270.256348,4269.230957,4296.538574,4325.897461,4230.384766,4217.948730,4216.922852,4225.384766,4219.358887,4226.153809,4496.922852,4461.922852,4363.077148,4445.384766,5819.000000,4.000000,96.000000,,,,0.000000,4.000000,4.000000,4.000000,4.000000,4.000000,4.000000,4.000000,4.000000,4.000000,4.000000,4.000000,4.000000,4.000000,4.000000,100.000000,,,,,,,,,,,,,,,,,,,,,,,,,,,,
1703488851.895614,1703488851.896006,83.000000,0.000000,4267.436035,4259.358887,4298.205078,4320.769043,4229.230957,4218.461426,4214.871582,4233.205078,4218.589844,4215.128418,4491.282227,4461.410156,4358.717773,4431.922852,6240.000000,4.000000,96.000000,,,,0.000000,4.000000,4.000000,4.000000,4.000000,4.000000,4.000000,4.000000,4.000000,4.000000,4.000000,4.000000,4.000000,4.000000,4.000000,100.000000,,,,,,,,,,,,,,,,,,,,,,,,,,,,
1703488851.903422,1703488851.903914,84.000000,0.000000,4257.948730,4255.641113,4295.512695,4312.820313,4229.743652,4221.666504,4214.230957,4235.769043,4228.077148,4216.153809,4476.410156,4465.512695,4344.230957,4416.282227,6720.000000,4.000000,96.000000,,,,0.000000,4.000000,4.000000,4.000000,4.000000,4.000000,4.000000,4.000000,4.000000,4.000000,4.000000,4.000000,4.000000,4.000000,4.000000,100.000000,,,,,,,,,,,,,,,,,21.000000,0.000000,0.719072,-0.124268,-0.671143,0.130615,0.932243,-0.349652,0.063484,-11.018883,-42.881451,61.248169
1703488851.911230,1703488851.911722,85.000000,0.000000,4255.128418,4249.487305,4296.538574,4297.307617,4242.051270,4231.666504,4216.282227,4241.410156,4235.000000,4217.692383,4469.230957,4463.846191,4340.000000,4421.153809,6915.000000,4.000000,96.000000,,,,0.000000,4.000000,4.000000,4.000000,4.000000,4.000000,4.000000,4.000000,4.000000,4.000000,4.000000,4.000000,4.000000,4.000000,4.000000,100.000000,,,,,,,,,,,,,,,,,,,,,,,,,,,,
1703488851.919038,1703488851.919630,86.000000,0.000000,4260.769043,4253.461426,4300.128418,4307.948730,4249.358887,4236.282227,4216.794922,4248.333496,4234.871582,4215.897461,4479.743652,4460.512695,4345.897461,4434.102539,5819.000000,4.000000,96.000000,,,,0.000000,4.000000,4.000000,4.000000,4.000000,4.000000,4.000000,4.000000,4.000000,4.000000,4.000000,4.000000,4.000000,4.000000,4.000000,100.000000,,,,,,,,,,,,,,,,,,,,,,,,,,,,
1703488851.926846,1703488851.927438,87.000000,0.000000,4264.871582,4269.487305,4298.205078,4317.563965,4250.384766,4235.641113,4215.769043,4239.102539,4228.205078,4207.563965,4475.000000,4455.512695,4343.589844,4429.102539,6240.000000,4.000000,96.000000,,,,0.000000,4.000000,4.000000,4.000000,4.000000,4.000000,4.000000,4.000000,4.000000,4.000000,4.000000,4.000000,4.000000,4.000000,4.000000,100.000000,1.000000,75.000000,4.000000,4.000000,4.000000,4.000000,4.000000,4.000000,1.000000,4.000000,4.000000,4.000000,4.000000,4.000000,4.000000,4.000000,,,,,,,,,,,,
1703488851.934654,1703488851.935345,88.000000,0.000000,4258.717773,4269.358887,4285.128418,4306.410156,4251.666504,4231.922852,4216.922852,4220.897461,4218.205078,4199.871582,4454.743652,4440.897461,4337.179688,4415.384766,6720.000000,4.000000,96.000000,,,,0.000000,4.000000,4.000000,4.000000,4.000000,4.000000,4.000000,4.000000,4.000000,4.000000,4.000000,4.000000,4.000000,4.000000,4.000000,100.000000,,,,,,,,,,,,,,,,,22.000000,0.000000,0.719034,-0.123901,-0.671204,0.130859,0.925406,-0.349652,0.072274,-10.833662,-42.859970,61.240017
1703488851.942462,1703488851.943153,89.000000,0.000000,4255.897461,4265.256348,4274.102539,4308.205078,4244.871582,4222.179688,4216.794922,4211.538574,4212.179688,4206.666504,4460.897461,4428.846191,4343.717773,4418.846191,6915.000000,4.000000,96.000000,,,,0.000000,4.000000,4.000000,4.000000,4.000000,4.000000,4.000000,4.000000,4.000000,4.000000,4.000000,4.000000,4.000000,4.000000,4.000000,100.000000,,,,,,,,,,,,,,,,,,,,,,,,,,,,
1703488851.950270,1703488851.950862,90.000000,0.000000,4267.948730,4275.000000,4283.461426,4308.077148,4242.436035,4217.436035,4211.538574,4211.666504,4211.666504,4216.922852,4484.358887,4440.256348,4360.000000,4437.692383,5819.000000,4.000000,96.000000,,,,0.000000,4.000000,4.000000,4.000000,4.000000,4.000000,4.000000,4.000000,4.000000,4.000000,4.000000,4.000000,4.000000,4.000000,4.000000,100.000000,,,,,,,,,,,,,,,,,,,,,,,,,,,,
1703488851.958078,1703488851.958669,91.000000,0.000000,4273.333496,4275.897461,4297.948730,4292.051270,4246.922852,4218.974121,4211.410156,4220.128418,4213.077148,4216.410156,4492.179688,4465.897461,4365.512695,4447.051270,6240.000000,4.000000,96.000000,,,,0.000000,4.000000,4.000000,4.000000,4.000000,4.000000,4.000000,4.000000,4.000000,4.000000,4.000000,4.000000,4.000000,4.000000,4.000000,100.000000,,,,,,,,,,,,,,,,,,,,,,,,,,,,
1703488851.965886,1703488851.966378,92.000000,0.000000,4264.487305,4262.692383,4298.461426,4297.179688,4234.871582,4214.743652,4213.461426,4229.102539,4214.871582,4213.974121,4489.230957,4475.256348,4358.333496,4442.307617,6720.000000,4.000000,96.000000,,,,0.000000,4.000000,4.000000,4.000000,4.000000,4.000000,4.000000,4.000000,4.000000,4.000000,4.000000,4.000000,4.000000,4.000000,4.000000,100.000000,,,,,,,,,,,,,,,,,23.000000,0.000000,0.718865,-0.123962,-0.671326,0.131104,0.922964,-0.344280,0.053717,-10.800296,-42.807308,61.282684
1703488851.973694,1703488851.974186,93.000000,0.000000,4262.307617,4261.922852,4290.897461,4325.256348,4226.153809,4214.743652,4209.615234,4231.282227,4214.358887,4215.256348,4491.666504,4465.897461,4358.846191,4443.846191,6915.000000,4.000000,96.000000,,,,0.000000,4.000000,4.000000,4.000000,4.000000,4.000000,4.000000,4.000000,4.000000,4.000000,4.000000,4.000000,4.000000,4.000000,4.000000,100.000000,,,,,,,,,,,,,,,,,,,,,,,,,,,,
1703488851.981502,1703488851.981894,94.000000,0.000000,4266.410156,4262.179688,4291.666504,4317.179688,4237.563965,4217.307617,4209.743652,4238.717773,4222.563965,4217.179688,4493.205078,4459.743652,4365.256348,4448.717773,5819.000000,4.000000,96.000000,,,,0.000000,4.000000,4.000000,4.000000,4.000000,4.000000,4.000000,4.000000,4.000000,4.000000,4.000000,4.000000,4.000000,4.000000,4.000000,100.000000,,,,,,,,,,,,,,,,,,,,,,,,,,,,
1703488851.989310,1703488851.989702,95.000000,0.000000,4261.153809,4251.410156,4297.820313,4296.666504,4240.384766,4217.436035,4215.512695,4256.794922,4242.051270,4219.615234,4492.179688,4466.922852,4358.846191,4443.077148,6240.000000,4.000000,96.000000,,,,0.000000,4.000000,4.000000,4.000000,4.000000,4.000000,4.000000,4.000000,4.000000,4.000000,4.000000,4.000000,4.000000,4.000000,4.000000,100.000000,,,,,,,,,,,,,,,,,,,,,,,,,,,,
1703488851.997118,1703488851.997410,96.000000,0.000000,4253.333496,4243.974121,4298.974121,4300.897461,4229.871582,4222.563965,4216.410156,4269.230957,4253.077148,4216.666504,4490.897461,4474.615234,4348.461426,4435.641113,6720.000000,4.000000,96.000000,,,,0.000000,4.000000,4.000000,4.000000,4.000000,4.000000,4.000000,4.000000,4.000000,4.000000,4.000000,4.000000,4.000000,4.000000,4.000000,100.000000,,,,,,,,,,,,,,,,,24.000000,0.000000,0.718719,-0.124084,-0.671448,0.131165,0.923941,-0.350629,0.058601,-10.803599,-42.843243,61.271080
1703488852.004927,1703488852.005218,97.000000,0.000000,4258.589844,4247.563965,4298.846191,4307.307617,4228.589844,4227.179688,4214.358887,4272.692383,4256.666504,4217.436035,4492.179688,4481.922852,4352.692383,4442.179688,6915.000000,4.000000,96.000000,,,,0.000000,4.000000,4.000000,4.000000,4.000000,4.000000,4.000000,4.000000,4.000000,4.000000,4.000000,4.000000,4.000000,4.000000,4.000000,100.000000,,,,,,,,,,,,,,,,,,,,,,,,,,,,
1703488852.012735,1703488852.012926,98.000000,0.000000,4266.922852,4258.205078,4296.666504,4306.538574,4237.051270,4229.102539,4216.666504,4268.846191,4259.743652,4222.179688,4495.000000,4478.717773,4361.538574,4450.897461,5819.000000,4.000000,96.000000,,,,0.000000,4.000000,4.000000,4.000000,4.000000,4.000000,4.000000,4.000000,4.000000,4.000000,4.000000,4.000000,4.000000,4.000000,4.000000,100.000000,,,,,,,,,,,,,,,,,,,,,,,,,,,,
1703488852.020543,1703488852.020834,99.000000,0.000000,4263.846191,4262.307617,4296.666504,4303.717773,4243.846191,4234.102539,4218.205078,4254.102539,4247.436035,4211.282227,4483.717773,4456.922852,4356.282227,4443.974121,6240.000000,4.000000,96.000000,,,,0.000000,4.000000,4.000000,4.000000,4.000000,4.000000,4.000000,4.000000,4.000000,4.000000,4.000000,4.000000,4.000000,4.000000,4.000000,100.000000,,,,,,,,,,,,,,,,,,,,,,,,,,,,
1703488852.028351,1703488852.028642,100.000000,0.000000,4260.384766,4261.025879,4294.487305,4315.769043,4247.179688,4235.256348,4215.000000,4232.436035,4225.000000,4195.000000,4463.077148,4440.000000,4344.743652,4433.205078,6720.000000,4.000000,96.000000,,,,0.000000,4.000000,4.000000,4.000000,4.000000,4.000000,4.000000,4.000000,4.000000,4.000000,4.000000,4.000000,4.000000,4.000000,4.000000,100.000000,,,,,,,,,,,,,,,,,25.000000,0.000000,0.718676,-0.124268,-0.671448,0.131226,0.921499,-0.358931,0.067391,-10.806573,-42.958920,61.310638
1703488852.036159,1703488852.036549,101.000000,0.000000,4262.051270,4259.615234,4284.871582,4322.563965,4244.102539,4230.256348,4216.025879,4202.692383,4204.615234,4186.922852,4455.128418,4428.974121,4341.153809,4428.205078,6915.000000,4.000000,96.000000,,,,0.000000,4.000000,4.000000,4.000000,4.000000,4.000000,4.000000,4.000000,4.000000,4.000000,4.000000,4.000000,4.000000,4.000000,4.000000,100.000000,,,,,,,,,,,,,,,,,,,,,,,,,,,,
1703488852.043967,1703488852.044357,102.000000,0.000000,4262.436035,4260.769043,4282.436035,4313.846191,4245.256348,4232.051270,4218.205078,4174.358887,4186.666504,4181.794922,4459.230957,4416.153809,4343.205078,4426.666504,5819.000000,4.000000,96.000000,,,,0.000000,4.000000,4.000000,4.000000,4.000000,4.000000,4.000000,4.000000,4.000000,4.000000,4.000000,4.000000,4.000000,4.000000,4.000000,100.000000,,,,,,,,,,,,,,,,,,,,,,,,,,,,
1703488852.051775,1703488852.052265,103.000000,0.000000,4264.615234,4265.512695,4288.589844,4312.692383,4253.717773,4230.769043,4211.153809,4169.230957,4183.717773,4189.743652,4463.461426,4419.230957,4345.000000,4427.820313,6240.000000,4.000000,96.000000,,,,0.000000,4.000000,4.000000,4.000000,4.000000,4.000000,4.000000,4.000000,4.000000,4.000000,4.000000,4.000000,4.000000,4.000000,4.000000,100.000000,,,,,,,,,,,,,,,,,,,,,,,,,,,,
1703488852.059583,1703488852.060073,104.000000,0.000000,4260.384766,4259.230957,4290.897461,4299.230957,4251.410156,4219.358887,4208.077148,4183.846191,4191.666504,4198.205078,4466.025879,4435.256348,4351.282227,4428.974121,6720.000000,4.000000,96.000000,,,,0.000000,4.000000,4.000000,4.000000,4.000000,4.000000,4.000000,4.000000,4.000000,4.000000,4.000000,4.000000,4.000000,4.000000,4.000000,100.000000,,,,,,,,,,,,,,,,,26.000000,0.000000,0.718666,-0.124329,-0.671448,0.131226,0.931266,-0.364302,0.064461,-10.725915,-42.929695,61.262909
1703488852.067391,1703488852.067981,105.000000,0.000000,4255.128418,4247.436035,4289.102539,4286.666504,4242.307617,4215.512695,4212.436035,4207.307617,4198.717773,4190.384766,4479.871582,4452.179688,4362.948730,4438.846191,6915.000000,4.000000,96.000000,,,,0.000000,4.000000,4.000000,4.000000,4.000000,4.000000,4.000000,4.000000,4.000000,4.000000,4.000000,4.000000,4.000000,4.000000,4.000000,100.000000,,,,,,,,,,,,,,,,,,,,,,,,,,,,
1703488852.075199,1703488852.075789,106.000000,0.000000,4263.077148,4239.358887,4295.000000,4294.615234,4229.871582,4215.769043,4208.846191,4239.871582,4217.179688,4193.717773,4503.974121,4476.538574,4373.077148,4455.384766,5819.000000,4.000000,96.000000,,,,0.000000,4.000000,4.000000,4.000000,4.000000,4.000000,4.000000,4.000000,4.000000,4.000000,4.000000,4.000000,4.000000,4.000000,4.000000,100.000000,,,,,,,,,,,,,,,,,,,,,,,,,,,,
1703488852.083007,1703488852.083697,107.000000,0.000000,4260.897461,4232.307617,4298.974121,4294.615234,4217.307617,4211.282227,4203.846191,4267.692383,4243.333496,4210.641113,4511.153809,4496.666504,4368.077148,4456.538574,6240.000000,4.000000,96.000000,,,,0.000000,4.000000,4.000000,4.000000,4.000000,4.000000,4.000000,4.000000,4.000000,4.000000,4.000000,4.000000,4.000000,4.000000,4.000000,100.000000,,,,,,,,,,,,,,,,,,,,,,,,,,,,
1703488852.090815,1703488852.091505,108.000000,0.000000,4248.077148,4236.025879,4294.487305,4278.589844,4219.743652,4213.205078,4204.615234,4282.820313,4261.538574,4221.666504,4503.846191,4496.666504,4359.230957,4448.333496,6720.000000,4.000000,96.000000,,,,0.000000,4.000000,4.000000,4.000000,4.000000,4.000000,4.000000,4.000000,4.000000,4.000000,4.000000,4.000000,4.000000,4.000000,4.000000,100.000000,,,,,,,,,,,,,,,,,27.000000,0.000000,0.718677,-0.124329,-0.671448,0.131165,0.926383,-0.349164,0.068856,-10.736657,-42.903393,61.253284
1703488852.098623,1703488852.099413,109.000000,0.000000,4256.025879,4246.153809,4295.769043,4280.128418,4230.641113,4223.589844,4207.179688,4295.384766,4275.128418,4228.461426,4511.538574,4491.538574,4369.358887,4457.051270,6915.000000,4.000000,96.000000,,,,0.000000,4.000000,4.000000,4.000000,4.000000,4.000000,4.000000,4.000000,4.000000,4.000000,4.000000,4.000000,4.000000,4.000000,4.000000,100.000000,,,,,,,,,,,,,,,,,,,,,,,,,,,,
1703488852.106431,1703488852.107221,110.000000,0.000000,4264.615234,4238.461426,4298.461426,4284.743652,4233.461426,4235.641113,4206.666504,4299.358887,4286.153809,4233.077148,4518.205078,4495.128418,4376.538574,4461.666504,5819.000000,4.000000,96.000000,,,,0.000000,4.000000,4.000000,4.000000,4.000000,4.000000,4.000000,4.000000,4.000000,4.000000,4.000000,4.000000,4.000000,4.000000,4.000000,100.000000,,,,,,,,,,,,,,,,,,,,,,,,,,,,
1703488852.114239,1703488852.115129,111.000000,0.000000,4264.102539,4233.589844,4298.589844,4272.307617,4235.769043,4243.077148,4206.025879,4288.461426,4284.487305,4235.128418,4507.948730,4497.179688,4368.846191,4457.051270,6240.000000,4.000000,96.000000,,,,0.000000,4.000000,4.000000,4.000000,4.000000,4.000000,4.000000,4.000000,4.000000,4.000000,4.000000,4.000000,4.000000,4.000000,4.000000,100.000000,,,,,,,,,,,,,,,,,,,,,,,,,,,,
1703488852.122047,1703488852.122937,112.000000,0.000000,4274.487305,4246.666504,4299.102539,4268.205078,4239.102539,4240.256348,4205.769043,4266.025879,4264.871582,4226.666504,4496.282227,4480.256348,4364.871582,4457.436035,6720.000000,4.000000,96.000000,,,,0.000000,4.000000,4.000000,4.000000,4.000000,4.000000,4.000000,4.000000,4.000000,4.000000,4.000000,4.000000,4.000000,4.000000,4.000000,100.000000,,,,,,,,,,,,,,,,,28.000000,0.000000,0.718652,-0.124268,-0.671509,0.131042,0.929801,-0.357954,0.075693,-10.679658,-43.029720,61.261292
1703488852.129855,1703488852.130745,113.000000,0.000000,4273.846191,4247.051270,4290.128418,4274.743652,4233.461426,4232.179688,4203.205078,4238.205078,4237.436035,4203.717773,4480.641113,4452.692383,4360.128418,4448.461426,6915.000000,4.000000,96.000000,,,,0.000000,4.000000,4.000000,4.000000,4.000000,4.000000,4.000000,4.000000,4.000000,4.000000,4.000000,4.000000,4.000000,4.000000,4.000000,100.000000,,,,,,,,,,,,,,,,,,,,,,,,,,,,
1703488852.137663,1703488852.138552,114.000000,0.000000,4263.846191,4245.128418,4280.384766,4286.025879,4241.922852,4234.230957,4207.051270,4218.077148,4218.333496,4193.205078,4470.000000,4449.102539,4354.230957,4439.615234,5819.000000,4.000000,96.000000,,,,0.000000,4.000000,4.000000,4.000000,4.000000,4.000000,4.000000,4.000000,4.000000,4.000000,4.000000,4.000000,4.000000,4.000000,4.000000,100.000000,,,,,,,,,,,,,,,,,,,,,,,,,,,,
1703488852.145471,1703488852.146261,115.000000,0.000000,4271.666504,4252.948730,4287.820313,4282.436035,4257.948730,4234.743652,4211.922852,4201.538574,4203.717773,4197.820313,4475.256348,4457.179688,4353.205078,4444.615234,6240.000000,4.000000,96.000000,,,,0.000000,4.000000,4.000000,4.000000,4.000000,4.000000,4.000000,4.000000,4.000000,4.000000,4.000000,4.000000,4.000000,4.000000,4.000000,100.000000,,,,,,,,,,,,,,,,,,,,,,,,,,,,
1703488852.153279,1703488852.154168,116.000000,0.000000,4280.512695,4246.666504,4294.487305,4273.846191,4241.666504,4221.153809,4208.333496,4187.051270,4189.230957,4185.256348,4477.563965,4445.512695,4353.077148,4444.102539,6720.000000,4.000000,96.000000,,,,0.000000,4.000000,4.000000,4.000000,4.000000,4.000000,4.000000,4.000000,4.000000,4.000000,4.000000,4.000000,4.000000,4.000000,4.000000,100.000000,,,,,,,,,,,,,,,,,29.000000,0.000000,0.718718,-0.124146,-0.671509,0.130798,0.928824,-0.345257,0.070321,-10.661693,-42.910080,61.335159
1703488852.161087,1703488852.161976,117.000000,0.000000,4277.179688,4245.769043,4291.666504,4286.153809,4228.205078,4212.051270,4204.871582,4192.948730,4190.128418,4174.743652,4477.948730,4442.307617,4357.179688,4441.538574,6915.000000,4.000000,96.000000,,,,0.000000,4.000000,4.000000,4.000000,4.000000,4.000000,4.000000,4.000000,4.000000,4.000000,4.000000,4.000000,4.000000,4.000000,4.000000,100.000000,,,,,,,,,,,,,,,,,,,,,,,,,,,,
1703488852.168895,1703488852.169784,118.000000,0.000000,4278.846191,4250.384766,4297.692383,4283.461426,4242.948730,4220.384766,4212.436035,4210.256348,4200.000000,4188.846191,4488.974121,4463.974121,4365.000000,4452.948730,5819.000000,4.000000,96.000000,,,,0.000000,4.000000,4.000000,4.000000,4.000000,4.000000,4.000000,4.000000,4.000000,4.000000,4.000000,4.000000,4.000000,4.000000,4.000000,100.000000,,,,,,,,,,,,,,,,,,,,,,,,,,,,
1703488852.176704,1703488852.177492,119.000000,0.000000,4278.589844,4236.794922,4300.769043,4271.922852,4243.974121,4228.717773,4217.051270,4216.282227,4202.307617,4195.384766,4495.000000,4470.897461,4366.666504,4457.436035,6240.000000,4.000000,96.000000,,,,0.000000,4.000000,4.000000,4.000000,4.000000,4.000000,4.000000,4.000000,4.000000,4.000000,4.000000,4.000000,4.000000,4.000000,4.000000,100.000000,,,,,,,,,,,,,,,,,,,,,,,,,,,,
1703488852.184512,1703488852.185300,120.000000,0.000000,4274.743652,4233.589844,4298.077148,4280.256348,4228.717773,4226.153809,4214.230957,4225.897461,4216.282227,4197.179688,4502.179688,4469.871582,4373.333496,4459.871582,6720.000000,4.000000,96.000000,,,,0.000000,4.000000,4.000000,4.000000,4.000000,4.000000,4.000000,4.000000,4.000000,4.000000,4.000000,4.000000,4.000000,4.000000,4.000000,100.000000,,,,,,,,,,,,,,,,,30.000000,0.000000,0.718694,-0.124084,-0.671570,0.130676,0.904407,-0.355512,0.054694,-10.828856,-42.902405,61.301643
1703488852.192320,1703488852.193008,121.000000,0.000000,4280.128418,4247.820313,4307.948730,4270.641113,4227.820313,4226.410156,4216.922852,4245.000000,4240.128418,4212.948730,4517.692383,4484.871582,4383.974121,4476.153809,6915.000000,4.000000,96.000000,,,,0.000000,4.000000,4.000000,4.000000,4.000000,4.000000,4.000000,4.000000,4.000000,4.000000,4.000000,4.000000,4.000000,4.000000,4.000000,100.000000,,,,,,,,,,,,,,,,,,,,,,,,,,,,
1703488852.200127,1703488852.200816,122.000000,0.000000,4282.307617,4243.589844,4308.846191,4255.256348,4230.769043,4228.846191,4221.538574,4252.436035,4250.128418,4223.846191,4516.922852,4489.358887,4378.077148,4477.436035,5819.000000,4.000000,96.000000,,,,0.000000,4.000000,4.000000,4.000000,4.000000,4.000000,4.000000,4.000000,4.000000,4.000000,4.000000,4.000000,4.000000,4.000000,4.000000,100.000000,,,,,,,,,,,,,,,,,,,,,,,,,,,,
1703488852.207936,1703488852.208525,123.000000,0.000000,4275.128418,4232.948730,4292.948730,4270.256348,4226.794922,4225.641113,4223.717773,4253.717773,4256.025879,4220.897461,4504.358887,4476.794922,4368.205078,4462.436035,6240.000000,4.000000,96.000000,,,,0.000000,4.000000,4.000000,4.000000,4.000000,4.000000,4.000000,4.000000,4.000000,4.000000,4.000000,4.000000,4.000000,4.000000,4.000000,100.000000,,,,,,,,,,,,,,,,,,,,,,,,,,,,
1703488852.215744,1703488852.216332,124.000000,0.000000,4266.794922,4235.769043,4283.717773,4273.205078,4231.282227,4228.333496,4225.512695,4256.282227,4261.922852,4211.410156,4498.846191,4464.871582,4369.230957,4454.230957,6720.000000,4.000000,96.000000,,,,0.000000,4.000000,4.000000,4.000000,4.000000,4.000000,4.000000,4.000000,4.000000,4.000000,4.000000,4.000000,4.000000,4.000000,4.000000,100.000000,,,,,,,,,,,,,,,,,31.000000,0.000000,0.718625,-0.124023,-0.671631,0.130798,0.928336,-0.347210,0.066414,-10.829304,-42.962166,61.288147
1703488852.223552,1703488852.224041,125.000000,0.000000,4258.974121,4233.333496,4276.025879,4257.436035,4232.179688,4232.820313,4228.846191,4246.794922,4253.205078,4205.256348,4484.358887,4448.717773,4360.769043,4445.769043,6915.000000,4.000000,96.000000,,,,0.000000,4.000000,4.000000,4.000000,4.000000,4.000000,4.000000,4.000000,4.000000,4.000000,4.000000,4.000000,4.000000,4.000000,4.000000,100.000000,,,,,,,,,,,,,,,,,,,,,,,,,,,,
1703488852.231360,1703488852.231849,126.000000,0.000000,4260.641113,4233.461426,4270.512695,4258.974121,4227.692383,4230.384766,4232.051270,4227.563965,4235.641113,4202.436035,4468.333496,4438.333496,4345.897461,4438.846191,5819.000000,4.000000,96.000000,,,,0.000000,4.000000,4.000000,4.000000,4.000000,4.000000,4.000000,4.000000,4.000000,4.000000,4.000000,4.000000,4.000000,4.000000,4.000000,100.000000,,,,,,,,,,,,,,,,,,,,,,,,,,,,
1703488852.239168,1703488852.239557,127.000000,0.000000,4272.436035,4245.384766,4281.538574,4263.717773,4237.820313,4232.051270,4234.743652,4212.307617,4223.205078,4186.153809,4467.051270,4444.230957,4341.025879,4441.922852,96.000000,4.000000,96.000000,,,,0.000000,4.000000,4.000000,4.000000,4.000000,4.000000,4.000000,4.000000,4.000000,4.000000,4.000000,4.000000,4.000000,4.000000,4.000000,100.000000,,,,,,,,,,,,,,,,,,,,,,,,,,,,
1703488852.246976,1703488852.247365,0.000000,0.000000,4274.615234,4246.666504,4286.410156,4270.897461,4247.820313,4232.179688,4237.051270,4203.717773,4211.410156,4173.717773,4467.179688,4442.948730,4342.563965,4440.384766,5447.000000,4.000000,96.000000,,,,0.000000,4.000000,4.000000,4.000000,4.000000,4.000000,4.000000,4.000000,4.000000,4.000000,4.000000,4.000000,4.000000,4.000000,4.000000,100.000000,,,,,,,,,,,,,,,,,0.000000,0.000000,0.718625,-0.124023,-0.671631,0.130798,0.913686,-0.366256,0.064949,-10.946374,-42.949284,61.259331
1703488852.254784,1703488852.255073,1.000000,0.000000,4264.871582,4243.846191,4278.205078,4276.153809,4243.077148,4217.820313,4237.692383,4197.179688,4199.743652,4181.538574,4460.641113,4434.743652,4342.948730,4430.000000,5492.000000,4.000000,96.000000,,,,0.000000,4.000000,4.000000,4.000000,4.000000,4.000000,4.000000,4.000000,4.000000,4.000000,4.000000,4.000000,4.000000,4.000000,4.000000,100.000000,,,,,,,,,,,,,,,,,,,,,,,,,,,,
1703488852.262592,1703488852.262981,2.000000,0.000000,4263.461426,4246.538574,4284.230957,4262.307617,4243.333496,4213.077148,4238.205078,4194.615234,4198.846191,4181.410156,4463.717773,4446.153809,4349.358887,4427.436035,5327.000000,4.000000,96.000000,,,,0.000000,4.000000,4.000000,4.000000,4.000000,4.000000,4.000000,4.000000,4.000000,4.000000,4.000000,4.000000,4.000000,4.000000,4.000000,100.000000,,,,,,,,,,,,,,,,,,,,,,,,,,,,
1703488852.270400,1703488852.270788,3.000000,0.000000,4268.974121,4239.871582,4294.230957,4261.410156,4247.692383,4227.307617,4238.205078,4201.666504,4198.205078,4167.436035,4472.179688,4457.563965,4350.641113,4436.025879,5415.000000,4.000000,96.000000,,,,0.000000,4.000000,4.000000,4.000000,4.000000,4.000000,4.000000,4.000000,4.000000,4.000000,4.000000,4.000000,4.000000,4.000000,4.000000,100.000000,,,,,,,,,,,,,,,,,,,,,,,,,,,,
