title:منى حذف, start timestamp:1703412025.170845, stop timestamp:1703412036.047462, headset type:EPOCX, headset serial:E50206EF, headset firmware:720, channels:67, sampling rate:eeg_128;mot_32, samples:1394      , version:2.2, 
Timestamp,OriginalTimestamp,EEG.Counter,EEG.Interpolated,EEG.AF3,EEG.F7,EEG.F3,EEG.FC5,EEG.T7,EEG.P7,EEG.O1,EEG.O2,EEG.P8,EEG.T8,EEG.FC6,EEG.F4,EEG.F8,EEG.AF4,EEG.RawCq,EEG.Battery,EEG.BatteryPercent,MarkerIndex,MarkerType,MarkerValueInt,EEG.MarkerHardware,CQ.AF3,CQ.F7,CQ.F3,CQ.FC5,CQ.T7,CQ.P7,CQ.O1,CQ.O2,CQ.P8,CQ.T8,CQ.FC6,CQ.F4,CQ.F8,CQ.AF4,CQ.Overall,EQ.SampleRateQuality,EQ.OVERALL,EQ.AF3,EQ.F7,EQ.F3,EQ.FC5,EQ.T7,EQ.P7,EQ.O1,EQ.O2,EQ.P8,EQ.T8,EQ.FC6,EQ.F4,EQ.F8,EQ.AF4,MOT.CounterMems,MOT.InterpolatedMems,MOT.Q0,MOT.Q1,MOT.Q2,MOT.Q3,MOT.AccX,MOT.AccY,MOT.AccZ,MOT.MagX,MOT.MagY,MOT.MagZ
1703412025.170845,1703412025.170611,98.000000,0.000000,4203.717773,4193.077148,4290.897461,4253.717773,4206.666504,4199.358887,4246.794922,4182.948730,4176.282227,4159.102539,4559.871582,4432.179688,4369.230957,4473.717773,5978.000000,3.000000,62.000000,,,,0.000000,4.000000,4.000000,4.000000,4.000000,4.000000,4.000000,4.000000,4.000000,4.000000,4.000000,4.000000,4.000000,4.000000,4.000000,100.000000,,,,,,,,,,,,,,,,,,,,,,,,,,,,
1703412025.178653,1703412025.178519,99.000000,0.000000,4201.153809,4204.230957,4287.436035,4263.077148,4217.692383,4203.589844,4248.333496,4183.077148,4163.077148,4143.717773,4550.256348,4429.102539,4363.205078,4472.436035,6105.000000,3.000000,62.000000,,,,0.000000,4.000000,4.000000,4.000000,4.000000,4.000000,4.000000,4.000000,4.000000,4.000000,4.000000,4.000000,4.000000,4.000000,4.000000,100.000000,,,,,,,,,,,,,,,,,,,,,,,,,,,,
1703412025.186461,1703412025.186327,100.000000,0.000000,4198.205078,4207.563965,4279.358887,4260.384766,4211.922852,4205.384766,4248.589844,4186.282227,4172.692383,4161.922852,4552.820313,4443.589844,4364.358887,4475.256348,6634.000000,3.000000,62.000000,,,,0.000000,4.000000,4.000000,4.000000,4.000000,4.000000,4.000000,4.000000,4.000000,4.000000,4.000000,4.000000,4.000000,4.000000,4.000000,100.000000,,,,,,,,,,,,,,,,,25.000000,0.000000,0.741202,-0.057678,-0.668762,-0.007080,0.981565,-0.073739,0.098157,-15.555377,-41.926044,67.458549
1703412025.194269,1703412025.194234,101.000000,0.000000,4197.820313,4196.538574,4278.846191,4248.717773,4200.256348,4200.897461,4245.641113,4187.820313,4187.307617,4175.512695,4563.461426,4449.871582,4365.512695,4474.487305,6987.000000,3.000000,62.000000,,,,0.000000,4.000000,4.000000,4.000000,4.000000,4.000000,4.000000,4.000000,4.000000,4.000000,4.000000,4.000000,4.000000,4.000000,4.000000,100.000000,,,,,,,,,,,,,,,,,,,,,,,,,,,,
1703412025.202077,1703412025.202042,102.000000,0.000000,4205.512695,4183.589844,4291.025879,4246.922852,4196.922852,4197.820313,4245.256348,4192.179688,4185.641113,4182.948730,4571.025879,4444.487305,4368.205078,4476.922852,5978.000000,3.000000,62.000000,,,,0.000000,4.000000,4.000000,4.000000,4.000000,4.000000,4.000000,4.000000,4.000000,4.000000,4.000000,4.000000,4.000000,4.000000,4.000000,100.000000,,,,,,,,,,,,,,,,,,,,,,,,,,,,
1703412025.209885,1703412025.209950,103.000000,0.000000,4213.205078,4188.461426,4305.256348,4256.410156,4199.358887,4194.102539,4245.897461,4201.025879,4189.358887,4210.128418,4576.282227,4448.717773,4374.871582,4496.794922,6105.000000,3.000000,62.000000,,,,0.000000,4.000000,4.000000,4.000000,4.000000,4.000000,4.000000,4.000000,4.000000,4.000000,4.000000,4.000000,4.000000,4.000000,4.000000,100.000000,,,,,,,,,,,,,,,,,,,,,,,,,,,,
1703412025.217693,1703412025.217758,104.000000,0.000000,4218.205078,4203.717773,4313.205078,4263.846191,4198.717773,4190.769043,4246.282227,4208.717773,4200.769043,4218.589844,4586.538574,4464.230957,4389.230957,4510.384766,6634.000000,3.000000,62.000000,,,,0.000000,4.000000,4.000000,4.000000,4.000000,4.000000,4.000000,4.000000,4.000000,4.000000,4.000000,4.000000,4.000000,4.000000,4.000000,100.000000,,,,,,,,,,,,,,,,,26.000000,0.000000,0.741152,-0.057617,-0.668823,-0.007080,0.983518,-0.074716,0.084483,-15.549839,-41.983440,67.479362
1703412025.225501,1703412025.225566,105.000000,0.000000,4226.153809,4208.846191,4309.102539,4263.461426,4190.641113,4191.794922,4247.307617,4202.563965,4197.307617,4190.769043,4594.871582,4467.179688,4396.153809,4499.230957,6987.000000,3.000000,62.000000,,,,0.000000,4.000000,4.000000,4.000000,4.000000,4.000000,4.000000,4.000000,4.000000,4.000000,4.000000,4.000000,4.000000,4.000000,4.000000,100.000000,,,,,,,,,,,,,,,,,,,,,,,,,,,,
1703412025.233309,1703412025.233274,106.000000,0.000000,4224.871582,4202.307617,4296.025879,4258.461426,4183.333496,4190.384766,4242.692383,4187.820313,4180.641113,4168.846191,4585.512695,4451.410156,4381.282227,4487.820313,5978.000000,3.000000,62.000000,,,,0.000000,4.000000,4.000000,4.000000,4.000000,4.000000,4.000000,4.000000,4.000000,4.000000,4.000000,4.000000,4.000000,4.000000,4.000000,100.000000,,,,,,,,,,,,,,,,,,,,,,,,,,,,
1703412025.241118,1703412025.241182,107.000000,0.000000,4213.333496,4199.615234,4291.025879,4257.436035,4193.717773,4184.358887,4233.974121,4181.922852,4169.615234,4168.846191,4566.666504,4442.692383,4367.436035,4488.461426,6105.000000,3.000000,62.000000,,,,0.000000,4.000000,4.000000,4.000000,4.000000,4.000000,4.000000,4.000000,4.000000,4.000000,4.000000,4.000000,4.000000,4.000000,4.000000,100.000000,,,,,,,,,,,,,,,,,,,,,,,,,,,,
1703412025.248926,1703412025.248990,108.000000,0.000000,4214.615234,4207.692383,4291.666504,4260.000000,4202.436035,4181.410156,4229.871582,4183.589844,4174.871582,4180.769043,4566.153809,4446.153809,4375.641113,4491.282227,6634.000000,3.000000,62.000000,,,,0.000000,4.000000,4.000000,4.000000,4.000000,4.000000,4.000000,4.000000,4.000000,4.000000,4.000000,4.000000,4.000000,4.000000,4.000000,100.000000,,,,,,,,,,,,,,,,,27.000000,0.000000,0.741109,-0.057434,-0.668884,-0.007202,0.985960,-0.056159,0.096691,-15.444855,-41.818428,67.448090
1703412025.256734,1703412025.256898,109.000000,0.000000,4217.307617,4215.897461,4285.769043,4262.307617,4199.102539,4184.743652,4237.563965,4186.282227,4185.897461,4167.051270,4579.102539,4445.384766,4383.717773,4491.794922,6987.000000,3.000000,62.000000,,,,0.000000,4.000000,4.000000,4.000000,4.000000,4.000000,4.000000,4.000000,4.000000,4.000000,4.000000,4.000000,4.000000,4.000000,4.000000,100.000000,,,,,,,,,,,,,,,,,,,,,,,,,,,,
1703412025.264542,1703412025.264706,110.000000,0.000000,4205.769043,4218.846191,4288.589844,4263.077148,4202.820313,4188.589844,4245.128418,4193.333496,4186.538574,4145.000000,4587.051270,4458.461426,4388.205078,4493.333496,5978.000000,3.000000,62.000000,,,,0.000000,4.000000,4.000000,4.000000,4.000000,4.000000,4.000000,4.000000,4.000000,4.000000,4.000000,4.000000,4.000000,4.000000,4.000000,100.000000,,,,,,,,,,,,,,,,,,,,,,,,,,,,
1703412025.272350,1703412025.272614,111.000000,0.000000,4197.307617,4210.256348,4305.897461,4262.820313,4193.589844,4183.974121,4241.538574,4199.615234,4182.563965,4167.179688,4588.077148,4484.358887,4397.307617,4491.666504,6105.000000,3.000000,62.000000,,,,0.000000,4.000000,4.000000,4.000000,4.000000,4.000000,4.000000,4.000000,4.000000,4.000000,4.000000,4.000000,4.000000,4.000000,4.000000,100.000000,,,,,,,,,,,,,,,,,,,,,,,,,,,,
1703412025.280158,1703412025.280422,112.000000,0.000000,4196.922852,4191.025879,4313.589844,4263.717773,4170.769043,4175.128418,4233.846191,4199.230957,4185.641113,4184.358887,4581.025879,4482.820313,4392.179688,4490.897461,6634.000000,3.000000,62.000000,,,,0.000000,4.000000,4.000000,4.000000,4.000000,4.000000,4.000000,4.000000,4.000000,4.000000,4.000000,4.000000,4.000000,4.000000,4.000000,100.000000,,,,,,,,,,,,,,,,,28.000000,0.000000,0.741068,-0.057251,-0.668945,-0.007263,0.989379,-0.074716,0.088390,-15.533703,-41.836586,67.419952
1703412025.287966,1703412025.288330,113.000000,0.000000,4198.205078,4187.436035,4304.358887,4257.051270,4178.974121,4177.563965,4232.436035,4199.743652,4190.641113,4171.922852,4575.769043,4472.563965,4381.025879,4498.589844,6987.000000,3.000000,62.000000,,,,0.000000,4.000000,4.000000,4.000000,4.000000,4.000000,4.000000,4.000000,4.000000,4.000000,4.000000,4.000000,4.000000,4.000000,4.000000,100.000000,,,,,,,,,,,,,,,,,,,,,,,,,,,,
1703412025.295774,1703412025.296138,114.000000,0.000000,4204.358887,4199.102539,4296.538574,4246.666504,4206.282227,4186.025879,4234.358887,4196.794922,4185.641113,4179.358887,4579.102539,4473.461426,4378.077148,4506.538574,5978.000000,3.000000,62.000000,,,,0.000000,4.000000,4.000000,4.000000,4.000000,4.000000,4.000000,4.000000,4.000000,4.000000,4.000000,4.000000,4.000000,4.000000,4.000000,100.000000,,,,,,,,,,,,,,,,,,,,,,,,,,,,
1703412025.303582,1703412025.304045,115.000000,0.000000,4207.051270,4191.794922,4296.282227,4244.487305,4202.307617,4184.871582,4231.922852,4187.820313,4174.102539,4199.615234,4578.333496,4459.102539,4374.615234,4507.307617,6105.000000,3.000000,62.000000,,,,0.000000,4.000000,4.000000,4.000000,4.000000,4.000000,4.000000,4.000000,4.000000,4.000000,4.000000,4.000000,4.000000,4.000000,4.000000,100.000000,,,,,,,,,,,,,,,,,,,,,,,,,,,,
1703412025.311390,1703412025.311853,116.000000,0.000000,4200.384766,4179.487305,4290.641113,4244.743652,4185.769043,4182.307617,4231.922852,4184.230957,4170.641113,4196.153809,4571.153809,4441.538574,4373.846191,4501.153809,6634.000000,3.000000,62.000000,,,,0.000000,4.000000,4.000000,4.000000,4.000000,4.000000,4.000000,4.000000,4.000000,4.000000,4.000000,4.000000,4.000000,4.000000,4.000000,100.000000,,,,,,,,,,,,,,,,,29.000000,0.000000,0.741180,-0.057251,-0.668823,-0.007019,0.982542,-0.073739,0.092296,-15.497000,-41.752930,67.411285
1703412025.319198,1703412025.319562,117.000000,0.000000,4197.692383,4189.871582,4282.307617,4249.487305,4189.487305,4186.153809,4233.974121,4185.769043,4172.307617,4167.179688,4568.077148,4440.897461,4376.282227,4496.282227,6987.000000,3.000000,62.000000,,,,0.000000,4.000000,4.000000,4.000000,4.000000,4.000000,4.000000,4.000000,4.000000,4.000000,4.000000,4.000000,4.000000,4.000000,4.000000,100.000000,,,,,,,,,,,,,,,,,,,,,,,,,,,,
1703412025.327006,1703412025.327370,118.000000,0.000000,4200.256348,4204.230957,4286.282227,4261.666504,4200.641113,4183.974121,4233.846191,4190.641113,4177.179688,4161.410156,4580.128418,4448.077148,4383.205078,4491.410156,5978.000000,3.000000,62.000000,,,,0.000000,4.000000,4.000000,4.000000,4.000000,4.000000,4.000000,4.000000,4.000000,4.000000,4.000000,4.000000,4.000000,4.000000,4.000000,100.000000,,,,,,,,,,,,,,,,,,,,,,,,,,,,
1703412025.334814,1703412025.335078,119.000000,0.000000,4200.256348,4211.794922,4296.794922,4266.025879,4203.846191,4175.128418,4233.205078,4203.589844,4194.871582,4206.794922,4600.256348,4466.025879,4400.000000,4490.384766,6105.000000,3.000000,62.000000,,,,0.000000,4.000000,4.000000,4.000000,4.000000,4.000000,4.000000,4.000000,4.000000,4.000000,4.000000,4.000000,4.000000,4.000000,4.000000,100.000000,,,,,,,,,,,,,,,,,,,,,,,,,,,,
1703412025.342622,1703412025.342986,120.000000,0.000000,4201.153809,4215.000000,4298.846191,4260.769043,4200.641113,4173.846191,4231.538574,4210.384766,4201.666504,4222.436035,4605.897461,4479.358887,4406.025879,4500.897461,6634.000000,3.000000,62.000000,,,,0.000000,4.000000,4.000000,4.000000,4.000000,4.000000,4.000000,4.000000,4.000000,4.000000,4.000000,4.000000,4.000000,4.000000,4.000000,100.000000,,,,,,,,,,,,,,,,,30.000000,0.000000,0.741237,-0.057251,-0.668762,-0.006897,0.984984,-0.076670,0.091320,-15.563966,-41.810970,67.486824
1703412025.350430,1703412025.350794,121.000000,0.000000,4197.179688,4206.922852,4299.615234,4261.922852,4198.461426,4174.871582,4232.563965,4203.846191,4186.538574,4180.641113,4597.179688,4472.692383,4395.897461,4502.436035,6987.000000,3.000000,62.000000,,,,0.000000,4.000000,4.000000,4.000000,4.000000,4.000000,4.000000,4.000000,4.000000,4.000000,4.000000,4.000000,4.000000,4.000000,4.000000,100.000000,,,,,,,,,,,,,,,,,,,,,,,,,,,,
1703412025.358238,1703412025.358602,122.000000,0.000000,4201.666504,4201.153809,4304.615234,4266.538574,4198.461426,4177.820313,4233.717773,4200.000000,4180.512695,4187.563965,4597.948730,4473.717773,4401.538574,4509.615234,5978.000000,3.000000,62.000000,,,,0.000000,4.000000,4.000000,4.000000,4.000000,4.000000,4.000000,4.000000,4.000000,4.000000,4.000000,4.000000,4.000000,4.000000,4.000000,100.000000,,,,,,,,,,,,,,,,,,,,,,,,,,,,
1703412025.366046,1703412025.366310,123.000000,0.000000,4214.230957,4201.410156,4301.282227,4262.307617,4191.666504,4180.384766,4232.820313,4195.897461,4186.282227,4209.102539,4599.358887,4470.512695,4407.307617,4537.307617,6105.000000,3.000000,62.000000,,,,0.000000,4.000000,4.000000,4.000000,4.000000,4.000000,4.000000,4.000000,4.000000,4.000000,4.000000,4.000000,4.000000,4.000000,4.000000,100.000000,,,,,,,,,,,,,,,,,,,,,,,,,,,,
1703412025.373855,1703412025.374118,124.000000,0.000000,4210.769043,4190.769043,4289.358887,4254.743652,4182.051270,4175.512695,4231.410156,4185.769043,4185.256348,4172.692383,4587.436035,4446.282227,4389.487305,4534.102539,6634.000000,3.000000,62.000000,,,,0.000000,4.000000,4.000000,4.000000,4.000000,4.000000,4.000000,4.000000,4.000000,4.000000,4.000000,4.000000,4.000000,4.000000,4.000000,100.000000,,,,,,,,,,,,,,,,,31.000000,0.000000,0.741292,-0.057251,-0.668701,-0.006897,0.979612,-0.074228,0.089855,-15.590902,-41.713203,67.538147
1703412025.381662,1703412025.381826,125.000000,0.000000,4197.436035,4179.358887,4279.230957,4242.307617,4178.846191,4174.102539,4231.025879,4187.179688,4184.230957,4169.487305,4586.025879,4445.256348,4382.948730,4498.717773,6987.000000,3.000000,62.000000,,,,0.000000,4.000000,4.000000,4.000000,4.000000,4.000000,4.000000,4.000000,4.000000,4.000000,4.000000,4.000000,4.000000,4.000000,4.000000,100.000000,,,,,,,,,,,,,,,,,,,,,,,,,,,,
1703412025.389470,1703412025.389634,126.000000,0.000000,4198.589844,4183.077148,4276.666504,4230.641113,4186.922852,4179.615234,4230.256348,4198.333496,4185.256348,4210.256348,4598.077148,4461.153809,4400.512695,4506.410156,5978.000000,3.000000,62.000000,,,,0.000000,4.000000,4.000000,4.000000,4.000000,4.000000,4.000000,4.000000,4.000000,4.000000,4.000000,4.000000,4.000000,4.000000,4.000000,100.000000,,,,,,,,,,,,,,,,,,,,,,,,,,,,
1703412025.397279,1703412025.397342,127.000000,0.000000,4198.077148,4186.666504,4280.256348,4235.641113,4200.512695,4177.436035,4229.102539,4200.641113,4184.230957,4203.717773,4601.282227,4453.205078,4401.538574,4527.563965,62.000000,3.000000,62.000000,,,,0.000000,4.000000,4.000000,4.000000,4.000000,4.000000,4.000000,4.000000,4.000000,4.000000,4.000000,4.000000,4.000000,4.000000,4.000000,100.000000,,,,,,,,,,,,,,,,,,,,,,,,,,,,
1703412025.405087,1703412025.405150,0.000000,0.000000,4188.077148,4186.538574,4287.563965,4257.179688,4197.563965,4168.461426,4228.333496,4198.205078,4186.025879,4183.589844,4581.410156,4440.256348,4380.256348,4508.077148,5110.000000,3.000000,62.000000,,,,0.000000,4.000000,4.000000,4.000000,4.000000,4.000000,4.000000,4.000000,4.000000,4.000000,4.000000,4.000000,4.000000,4.000000,4.000000,100.000000,,,,,,,,,,,,,,,,,0.000000,0.000000,0.741279,-0.057434,-0.668701,-0.006775,0.988890,-0.059578,0.097180,-15.715146,-41.708549,67.584328
1703412025.412895,1703412025.412858,1.000000,0.000000,4193.974121,4191.025879,4294.230957,4264.871582,4187.820313,4169.102539,4229.102539,4196.538574,4185.769043,4185.512695,4551.794922,4447.179688,4371.025879,4491.025879,5450.000000,3.000000,62.000000,,,,0.000000,4.000000,4.000000,4.000000,4.000000,4.000000,4.000000,4.000000,4.000000,4.000000,4.000000,4.000000,4.000000,4.000000,4.000000,100.000000,,,,,,,,,,,,,,,,,,,,,,,,,,,,
1703412025.420703,1703412025.420766,2.000000,0.000000,4211.282227,4197.307617,4297.948730,4247.948730,4195.000000,4178.846191,4231.025879,4189.743652,4185.000000,4175.641113,4551.153809,4457.692383,4377.436035,4489.615234,5265.000000,3.000000,62.000000,,,,0.000000,4.000000,4.000000,4.000000,4.000000,4.000000,4.000000,4.000000,4.000000,4.000000,4.000000,4.000000,4.000000,4.000000,4.000000,100.000000,,,,,,,,,,,,,,,,,,,,,,,,,,,,
1703412025.428511,1703412025.428574,3.000000,0.000000,4219.102539,4201.922852,4301.410156,4249.743652,4201.410156,4184.358887,4232.051270,4185.384766,4186.410156,4175.256348,4576.666504,4457.820313,4387.051270,4497.948730,5359.000000,3.000000,62.000000,,,,0.000000,4.000000,4.000000,4.000000,4.000000,4.000000,4.000000,4.000000,4.000000,4.000000,4.000000,4.000000,4.000000,4.000000,4.000000,100.000000,,,,,,,,,,,,,,,,,,,,,,,,,,,,
1703412025.436319,1703412025.436482,4.000000,0.000000,4218.974121,4205.384766,4299.487305,4265.384766,4191.153809,4178.717773,4233.461426,4187.948730,4184.230957,4198.717773,4588.974121,4451.538574,4394.230957,4528.205078,5150.000000,3.000000,62.000000,,,,0.000000,4.000000,4.000000,4.000000,4.000000,4.000000,4.000000,4.000000,4.000000,4.000000,4.000000,4.000000,4.000000,4.000000,4.000000,100.000000,,,,,,,,,,,,,,,,,1.000000,0.000000,0.741326,-0.057556,-0.668640,-0.006592,0.995727,-0.077158,0.096203,-15.576964,-41.804363,67.725899
1703412025.444127,1703412025.444290,5.000000,0.000000,4217.820313,4204.358887,4297.436035,4257.563965,4183.717773,4170.897461,4231.666504,4185.769043,4181.282227,4206.538574,4589.487305,4449.871582,4395.384766,4544.871582,3057.000000,3.000000,62.000000,,,,0.000000,4.000000,4.000000,4.000000,4.000000,4.000000,4.000000,4.000000,4.000000,4.000000,4.000000,4.000000,4.000000,4.000000,4.000000,100.000000,,,,,,,,,,,,,,,,,,,,,,,,,,,,
1703412025.451935,1703412025.452198,6.000000,0.000000,4218.846191,4200.769043,4306.666504,4250.512695,4184.743652,4168.077148,4223.077148,4182.563965,4181.410156,4201.153809,4605.256348,4462.436035,4402.436035,4528.333496,2029.000000,3.000000,62.000000,,,,0.000000,4.000000,4.000000,4.000000,4.000000,4.000000,4.000000,4.000000,4.000000,4.000000,4.000000,4.000000,4.000000,4.000000,4.000000,100.000000,,,,,,,,,,,,,,,,,,,,,,,,,,,,
1703412025.459743,1703412025.460006,7.000000,0.000000,4218.974121,4201.153809,4313.717773,4263.077148,4185.128418,4159.871582,4218.461426,4193.077148,4188.461426,4205.256348,4627.692383,4476.666504,4416.410156,4520.769043,5065.000000,3.000000,62.000000,,,,0.000000,4.000000,4.000000,4.000000,4.000000,4.000000,4.000000,4.000000,4.000000,4.000000,4.000000,4.000000,4.000000,4.000000,4.000000,100.000000,,,,,,,,,,,,,,,,,,,,,,,,,,,,
1703412025.467551,1703412025.467914,8.000000,0.000000,4215.641113,4203.846191,4310.897461,4265.256348,4186.410156,4151.922852,4218.846191,4209.487305,4200.641113,4216.794922,4634.102539,4485.256348,4424.358887,4529.102539,4512.000000,3.000000,62.000000,,,,0.000000,4.000000,4.000000,4.000000,4.000000,4.000000,4.000000,4.000000,4.000000,4.000000,4.000000,4.000000,4.000000,4.000000,4.000000,100.000000,,,,,,,,,,,,,,,,,2.000000,0.000000,0.741258,-0.057739,-0.668701,-0.006409,0.985960,-0.066903,0.093761,-15.635935,-41.807259,67.736641
1703412025.475359,1703412025.475722,9.000000,0.000000,4215.256348,4202.820313,4311.025879,4260.256348,4184.102539,4152.820313,4219.230957,4217.563965,4208.333496,4228.333496,4628.846191,4492.563965,4428.717773,4534.230957,5253.000000,3.000000,62.000000,,,,0.000000,4.000000,4.000000,4.000000,4.000000,4.000000,4.000000,4.000000,4.000000,4.000000,4.000000,4.000000,4.000000,4.000000,4.000000,100.000000,,,,,,,,,,,,,,,,,,,,,,,,,,,,
1703412025.483167,1703412025.483630,10.000000,0.000000,4218.974121,4199.230957,4313.717773,4263.717773,4181.922852,4153.974121,4222.179688,4218.461426,4207.692383,4199.230957,4619.743652,4490.769043,4429.871582,4532.692383,5976.000000,3.000000,62.000000,,,,0.000000,4.000000,4.000000,4.000000,4.000000,4.000000,4.000000,4.000000,4.000000,4.000000,4.000000,4.000000,4.000000,4.000000,4.000000,100.000000,1.000000,91.666664,4.000000,4.000000,4.000000,4.000000,4.000000,4.000000,4.000000,4.000000,4.000000,3.000000,4.000000,4.000000,4.000000,4.000000,,,,,,,,,,,,
1703412025.490975,1703412025.491437,11.000000,0.000000,4217.563965,4192.051270,4310.897461,4255.000000,4183.077148,4147.563965,4222.820313,4215.897461,4198.461426,4146.794922,4606.153809,4474.615234,4410.384766,4512.307617,6085.000000,3.000000,62.000000,,,,0.000000,4.000000,4.000000,4.000000,4.000000,4.000000,4.000000,4.000000,4.000000,4.000000,4.000000,4.000000,4.000000,4.000000,4.000000,100.000000,,,,,,,,,,,,,,,,,,,,,,,,,,,,
1703412025.498783,1703412025.499245,12.000000,0.000000,4222.179688,4185.000000,4310.000000,4245.384766,4181.922852,4138.461426,4217.692383,4205.512695,4187.563965,4159.102539,4589.358887,4461.025879,4386.025879,4500.128418,6626.000000,3.000000,62.000000,,,,0.000000,4.000000,4.000000,4.000000,4.000000,4.000000,4.000000,4.000000,4.000000,4.000000,4.000000,4.000000,4.000000,4.000000,4.000000,100.000000,,,,,,,,,,,,,,,,,3.000000,0.000000,0.741114,-0.057434,-0.668884,-0.006714,0.966427,-0.080088,0.099622,-15.755674,-41.743202,67.679642
1703412025.506591,1703412025.507053,13.000000,0.000000,4229.487305,4188.333496,4312.948730,4254.743652,4183.974121,4138.205078,4217.436035,4190.897461,4177.051270,4194.230957,4580.128418,4459.230957,4384.871582,4514.358887,6978.000000,3.000000,62.000000,,,,0.000000,4.000000,4.000000,4.000000,4.000000,4.000000,4.000000,4.000000,4.000000,4.000000,4.000000,4.000000,4.000000,4.000000,4.000000,100.000000,,,,,,,,,,,,,,,,,,,,,,,,,,,,
1703412025.514399,1703412025.514761,14.000000,0.000000,4227.436035,4194.102539,4313.846191,4259.230957,4185.897461,4137.179688,4219.230957,4183.077148,4170.256348,4185.641113,4582.820313,4459.743652,4391.922852,4527.948730,5976.000000,3.000000,62.000000,,,,0.000000,4.000000,4.000000,4.000000,4.000000,4.000000,4.000000,4.000000,4.000000,4.000000,4.000000,4.000000,4.000000,4.000000,4.000000,100.000000,,,,,,,,,,,,,,,,,,,,,,,,,,,,
1703412025.522207,1703412025.522569,15.000000,0.000000,4226.538574,4192.436035,4313.589844,4256.153809,4183.333496,4129.102539,4215.256348,4182.436035,4172.948730,4180.512695,4582.820313,4461.794922,4388.974121,4523.461426,6085.000000,3.000000,62.000000,,,,0.000000,4.000000,4.000000,4.000000,4.000000,4.000000,4.000000,4.000000,4.000000,4.000000,4.000000,4.000000,4.000000,4.000000,4.000000,100.000000,,,,,,,,,,,,,,,,,,,,,,,,,,,,
1703412025.530015,1703412025.530278,16.000000,0.000000,4219.743652,4186.410156,4308.461426,4255.641113,4182.436035,4127.179688,4213.333496,4182.051270,4174.230957,4182.820313,4577.179688,4456.538574,4379.487305,4501.025879,0.000000,3.000000,62.000000,,,,0.000000,4.000000,4.000000,4.000000,4.000000,4.000000,4.000000,4.000000,4.000000,4.000000,4.000000,4.000000,4.000000,4.000000,4.000000,100.000000,,,,,,,,,,,,,,,,,4.000000,0.000000,0.740973,-0.057068,-0.669067,-0.007141,0.985472,-0.064949,0.081553,-15.896774,-41.902214,67.511681
1703412025.537824,1703412025.538086,17.000000,0.000000,4206.922852,4184.358887,4301.282227,4252.563965,4182.436035,4133.461426,4214.871582,4184.487305,4168.333496,4159.871582,4577.820313,4449.615234,4376.282227,4491.666504,0.000000,3.000000,62.000000,,,,0.000000,4.000000,4.000000,4.000000,4.000000,4.000000,4.000000,4.000000,4.000000,4.000000,4.000000,4.000000,4.000000,4.000000,4.000000,100.000000,,,,,,,,,,,,,,,,,,,,,,,,,,,,
1703412025.545632,1703412025.545794,18.000000,0.000000,4212.820313,4191.538574,4299.871582,4253.717773,4183.077148,4136.282227,4214.358887,4187.563965,4173.333496,4151.282227,4587.436035,4454.102539,4381.538574,4508.461426,0.000000,3.000000,62.000000,,,,0.000000,4.000000,4.000000,4.000000,4.000000,4.000000,4.000000,4.000000,4.000000,4.000000,4.000000,4.000000,4.000000,4.000000,4.000000,100.000000,,,,,,,,,,,,,,,,,,,,,,,,,,,,
1703412025.553440,1703412025.553602,19.000000,0.000000,4223.205078,4199.102539,4301.025879,4262.307617,4188.333496,4137.948730,4216.538574,4187.563965,4185.512695,4179.871582,4595.256348,4464.102539,4384.230957,4506.153809,0.000000,3.000000,62.000000,,,,0.000000,4.000000,4.000000,4.000000,4.000000,4.000000,4.000000,4.000000,4.000000,4.000000,4.000000,4.000000,4.000000,4.000000,4.000000,100.000000,,,,,,,,,,,,,,,,,,,,,,,,,,,,
1703412025.561248,1703412025.561310,20.000000,0.000000,4215.641113,4199.230957,4304.230957,4263.974121,4190.769043,4140.897461,4219.230957,4192.051270,4186.025879,4201.538574,4593.461426,4470.256348,4383.461426,4490.128418,0.000000,3.000000,62.000000,,,,0.000000,4.000000,4.000000,4.000000,4.000000,4.000000,4.000000,4.000000,4.000000,4.000000,4.000000,4.000000,4.000000,4.000000,4.000000,100.000000,,,,,,,,,,,,,,,,,5.000000,0.000000,0.740883,-0.056763,-0.669189,-0.007446,0.987914,-0.065926,0.088390,-15.990430,-42.045326,67.560509
1703412025.569056,1703412025.569118,21.000000,0.000000,4222.692383,4197.563965,4309.615234,4262.436035,4182.563965,4141.538574,4217.563965,4200.256348,4183.974121,4189.871582,4593.077148,4474.743652,4389.230957,4509.230957,0.000000,3.000000,62.000000,,,,0.000000,4.000000,4.000000,4.000000,4.000000,4.000000,4.000000,4.000000,4.000000,4.000000,4.000000,4.000000,4.000000,4.000000,4.000000,100.000000,,,,,,,,,,,,,,,,,,,,,,,,,,,,
1703412025.576864,1703412025.576826,22.000000,0.000000,4234.615234,4202.692383,4313.846191,4261.282227,4168.461426,4141.666504,4217.820313,4204.102539,4186.666504,4166.922852,4602.948730,4482.179688,4398.461426,4527.563965,0.000000,3.000000,62.000000,,,,0.000000,4.000000,4.000000,4.000000,4.000000,4.000000,4.000000,4.000000,4.000000,4.000000,4.000000,4.000000,4.000000,4.000000,4.000000,100.000000,,,,,,,,,,,,,,,,,,,,,,,,,,,,
1703412025.584672,1703412025.584634,23.000000,0.000000,4217.692383,4200.897461,4313.461426,4250.000000,4153.461426,4139.487305,4223.077148,4206.025879,4189.487305,4177.436035,4606.153809,4480.641113,4398.589844,4513.077148,0.000000,3.000000,62.000000,,,,0.000000,4.000000,4.000000,4.000000,4.000000,4.000000,4.000000,4.000000,4.000000,4.000000,4.000000,4.000000,4.000000,4.000000,4.000000,100.000000,,,,,,,,,,,,,,,,,,,,,,,,,,,,
1703412025.592480,1703412025.592342,24.000000,0.000000,4210.512695,4182.820313,4306.153809,4239.358887,4148.974121,4137.436035,4223.333496,4201.153809,4191.538574,4194.230957,4594.487305,4465.000000,4391.153809,4499.871582,0.000000,3.000000,62.000000,,,,0.000000,4.000000,4.000000,4.000000,4.000000,4.000000,4.000000,4.000000,4.000000,4.000000,4.000000,4.000000,4.000000,4.000000,4.000000,100.000000,,,,,,,,,,,,,,,,,6.000000,0.000000,0.740848,-0.056458,-0.669250,-0.007751,0.999634,-0.072763,0.091320,-15.941387,-41.957458,67.571129
1703412025.600288,1703412025.600150,25.000000,0.000000,4219.743652,4169.615234,4298.333496,4241.410156,4161.538574,4139.102539,4216.410156,4187.436035,4182.820313,4177.692383,4578.717773,4448.333496,4382.563965,4496.922852,0.000000,3.000000,62.000000,,,,0.000000,4.000000,4.000000,4.000000,4.000000,4.000000,4.000000,4.000000,4.000000,4.000000,4.000000,4.000000,4.000000,4.000000,4.000000,100.000000,,,,,,,,,,,,,,,,,,,,,,,,,,,,
1703412025.608096,1703412025.607858,26.000000,0.000000,4216.538574,4178.205078,4295.128418,4246.538574,4179.487305,4138.974121,4214.230957,4181.282227,4169.743652,4162.563965,4570.256348,4447.436035,4376.410156,4490.128418,0.000000,3.000000,62.000000,,,,0.000000,4.000000,4.000000,4.000000,4.000000,4.000000,4.000000,4.000000,4.000000,4.000000,4.000000,4.000000,4.000000,4.000000,4.000000,100.000000,,,,,,,,,,,,,,,,,,,,,,,,,,,,
1703412025.615904,1703412025.615766,27.000000,0.000000,4220.256348,4193.333496,4298.333496,4253.333496,4193.717773,4139.743652,4220.128418,4185.512695,4169.358887,4152.179688,4568.589844,4451.922852,4377.563965,4480.256348,0.000000,3.000000,62.000000,,,,0.000000,4.000000,4.000000,4.000000,4.000000,4.000000,4.000000,4.000000,4.000000,4.000000,4.000000,4.000000,4.000000,4.000000,4.000000,100.000000,,,,,,,,,,,,,,,,,,,,,,,,,,,,
1703412025.623712,1703412025.623574,28.000000,0.000000,4232.307617,4197.820313,4300.897461,4259.487305,4204.871582,4145.769043,4222.948730,4184.743652,4172.307617,4149.230957,4570.769043,4449.743652,4382.179688,4477.820313,0.000000,3.000000,62.000000,,,,0.000000,4.000000,4.000000,4.000000,4.000000,4.000000,4.000000,4.000000,4.000000,4.000000,4.000000,4.000000,4.000000,4.000000,4.000000,100.000000,,,,,,,,,,,,,,,,,7.000000,0.000000,0.740701,-0.056213,-0.669434,-0.007813,0.987425,-0.065438,0.087413,-15.863914,-41.945045,67.547348
1703412025.631520,1703412025.631481,29.000000,0.000000,4223.077148,4200.128418,4301.025879,4261.282227,4201.153809,4146.538574,4220.128418,4182.948730,4167.436035,4171.410156,4568.589844,4457.563965,4381.025879,4480.000000,0.000000,3.000000,62.000000,,,,0.000000,4.000000,4.000000,4.000000,4.000000,4.000000,4.000000,4.000000,4.000000,4.000000,4.000000,4.000000,4.000000,4.000000,4.000000,100.000000,,,,,,,,,,,,,,,,,,,,,,,,,,,,
1703412025.639328,1703412025.639289,30.000000,0.000000,4207.179688,4197.692383,4305.256348,4254.871582,4187.948730,4141.538574,4219.102539,4182.820313,4167.820313,4180.769043,4566.025879,4464.230957,4377.051270,4472.948730,0.000000,3.000000,62.000000,,,,0.000000,4.000000,4.000000,4.000000,4.000000,4.000000,4.000000,4.000000,4.000000,4.000000,4.000000,4.000000,4.000000,4.000000,4.000000,100.000000,,,,,,,,,,,,,,,,,,,,,,,,,,,,
1703412025.647136,1703412025.647197,31.000000,0.000000,4212.051270,4193.461426,4307.563965,4251.410156,4183.846191,4140.769043,4218.077148,4183.461426,4180.128418,4169.871582,4575.769043,4458.205078,4381.025879,4479.615234,0.000000,3.000000,62.000000,,,,0.000000,4.000000,4.000000,4.000000,4.000000,4.000000,4.000000,4.000000,4.000000,4.000000,4.000000,4.000000,4.000000,4.000000,4.000000,100.000000,,,,,,,,,,,,,,,,,,,,,,,,,,,,
1703412025.654944,1703412025.655005,32.000000,0.000000,4232.692383,4201.282227,4304.871582,4256.282227,4182.948730,4141.410156,4219.230957,4191.282227,4190.000000,4181.794922,4592.436035,4463.205078,4393.846191,4505.641113,0.000000,3.000000,62.000000,,,,0.000000,4.000000,4.000000,4.000000,4.000000,4.000000,4.000000,4.000000,4.000000,4.000000,4.000000,4.000000,4.000000,4.000000,4.000000,100.000000,,,,,,,,,,,,,,,,,8.000000,0.000000,0.740653,-0.056091,-0.669495,-0.007996,0.985472,-0.074228,0.090831,-15.844190,-41.900543,67.742615
1703412025.662752,1703412025.662913,33.000000,0.000000,4243.717773,4204.871582,4305.512695,4255.000000,4171.153809,4142.563965,4223.846191,4202.820313,4188.846191,4196.666504,4605.128418,4482.692383,4401.922852,4508.461426,0.000000,3.000000,62.000000,,,,0.000000,4.000000,4.000000,4.000000,4.000000,4.000000,4.000000,4.000000,4.000000,4.000000,4.000000,4.000000,4.000000,4.000000,4.000000,100.000000,,,,,,,,,,,,,,,,,,,,,,,,,,,,
1703412025.670560,1703412025.670721,34.000000,0.000000,4225.769043,4192.307617,4308.717773,4245.128418,4160.769043,4142.948730,4222.179688,4207.692383,4186.538574,4174.358887,4610.384766,4488.205078,4399.358887,4492.692383,0.000000,3.000000,62.000000,,,,0.000000,4.000000,4.000000,4.000000,4.000000,4.000000,4.000000,4.000000,4.000000,4.000000,4.000000,4.000000,4.000000,4.000000,4.000000,100.000000,,,,,,,,,,,,,,,,,,,,,,,,,,,,
1703412025.678368,1703412025.678629,35.000000,0.000000,4213.333496,4185.128418,4308.461426,4245.256348,4167.307617,4144.487305,4219.102539,4201.794922,4188.461426,4159.358887,4607.051270,4485.769043,4399.743652,4493.717773,0.000000,3.000000,62.000000,,,,0.000000,4.000000,4.000000,4.000000,4.000000,4.000000,4.000000,4.000000,4.000000,4.000000,4.000000,4.000000,4.000000,4.000000,4.000000,100.000000,,,,,,,,,,,,,,,,,,,,,,,,,,,,
1703412025.686176,1703412025.686437,36.000000,0.000000,4221.282227,4185.641113,4306.025879,4247.051270,4166.922852,4147.820313,4222.948730,4191.666504,4184.615234,4181.538574,4591.922852,4478.846191,4395.641113,4491.153809,0.000000,3.000000,62.000000,,,,0.000000,4.000000,4.000000,4.000000,4.000000,4.000000,4.000000,4.000000,4.000000,4.000000,4.000000,4.000000,4.000000,4.000000,4.000000,100.000000,,,,,,,,,,,,,,,,,9.000000,0.000000,0.740667,-0.055908,-0.669495,-0.007996,0.995727,-0.060554,0.085460,-15.676437,-41.960487,67.768349
1703412025.693985,1703412025.694145,37.000000,0.000000,4211.794922,4181.666504,4303.205078,4238.461426,4156.666504,4147.948730,4224.358887,4183.077148,4177.820313,4196.794922,4570.000000,4452.179688,4378.205078,4478.205078,0.000000,3.000000,62.000000,,,,0.000000,4.000000,4.000000,4.000000,4.000000,4.000000,4.000000,4.000000,4.000000,4.000000,4.000000,4.000000,4.000000,4.000000,4.000000,100.000000,,,,,,,,,,,,,,,,,,,,,,,,,,,,
1703412025.701793,1703412025.701953,38.000000,0.000000,4198.846191,4183.717773,4297.948730,4238.461426,4164.615234,4147.436035,4219.102539,4177.307617,4181.922852,4168.846191,4558.974121,4434.358887,4370.769043,4478.077148,0.000000,3.000000,62.000000,,,,0.000000,4.000000,4.000000,4.000000,4.000000,4.000000,4.000000,4.000000,4.000000,4.000000,4.000000,4.000000,4.000000,4.000000,4.000000,100.000000,,,,,,,,,,,,,,,,,,,,,,,,,,,,
1703412025.709601,1703412025.709661,39.000000,0.000000,4212.948730,4186.153809,4290.769043,4245.000000,4177.948730,4146.410156,4216.538574,4172.948730,4183.333496,4133.205078,4555.256348,4440.128418,4374.358887,4473.846191,0.000000,3.000000,62.000000,,,,0.000000,4.000000,4.000000,4.000000,4.000000,4.000000,4.000000,4.000000,4.000000,4.000000,4.000000,4.000000,4.000000,4.000000,4.000000,100.000000,,,,,,,,,,,,,,,,,,,,,,,,,,,,
1703412025.717409,1703412025.717469,40.000000,0.000000,4223.077148,4183.717773,4285.769043,4245.384766,4182.948730,4145.641113,4216.666504,4175.128418,4173.077148,4140.128418,4554.871582,4442.436035,4370.256348,4458.846191,0.000000,3.000000,62.000000,,,,0.000000,4.000000,4.000000,4.000000,4.000000,4.000000,4.000000,4.000000,4.000000,4.000000,4.000000,4.000000,4.000000,4.000000,4.000000,100.000000,,,,,,,,,,,,,,,,,10.000000,0.000000,0.740626,-0.055725,-0.669556,-0.007935,0.983030,-0.072763,0.096203,-15.825460,-41.964439,67.708183
1703412025.725217,1703412025.725177,41.000000,0.000000,4216.666504,4195.256348,4289.230957,4247.820313,4193.333496,4148.974121,4216.794922,4182.436035,4168.974121,4173.461426,4571.025879,4442.307617,4376.410156,4461.025879,0.000000,3.000000,62.000000,,,,0.000000,4.000000,4.000000,4.000000,4.000000,4.000000,4.000000,4.000000,4.000000,4.000000,4.000000,4.000000,4.000000,4.000000,4.000000,100.000000,,,,,,,,,,,,,,,,,,,,,,,,,,,,
1703412025.733025,1703412025.732985,42.000000,0.000000,4215.897461,4200.256348,4294.102539,4249.358887,4196.282227,4152.051270,4219.102539,4181.794922,4173.717773,4186.922852,4590.256348,4454.358887,4396.025879,4476.410156,0.000000,3.000000,62.000000,,,,0.000000,4.000000,4.000000,4.000000,4.000000,4.000000,4.000000,4.000000,4.000000,4.000000,4.000000,4.000000,4.000000,4.000000,4.000000,100.000000,,,,,,,,,,,,,,,,,,,,,,,,,,,,
1703412025.740833,1703412025.740693,43.000000,0.000000,4216.410156,4185.256348,4290.641113,4248.333496,4180.512695,4148.589844,4218.077148,4175.256348,4171.666504,4174.615234,4585.897461,4461.282227,4398.717773,4478.717773,0.000000,3.000000,62.000000,,,,0.000000,4.000000,4.000000,4.000000,4.000000,4.000000,4.000000,4.000000,4.000000,4.000000,4.000000,4.000000,4.000000,4.000000,4.000000,100.000000,,,,,,,,,,,,,,,,,,,,,,,,,,,,
1703412025.748641,1703412025.748501,44.000000,0.000000,4218.205078,4189.102539,4295.256348,4252.436035,4180.769043,4147.948730,4215.384766,4171.666504,4168.974121,4177.051270,4581.025879,4461.282227,4395.256348,4471.666504,0.000000,3.000000,62.000000,,,,0.000000,4.000000,4.000000,4.000000,4.000000,4.000000,4.000000,4.000000,4.000000,4.000000,4.000000,4.000000,4.000000,4.000000,4.000000,100.000000,,,,,,,,,,,,,,,,,11.000000,0.000000,0.740572,-0.055725,-0.669617,-0.007813,0.979123,-0.068856,0.096203,-15.759582,-41.867996,67.670700
1703412025.756449,1703412025.756209,45.000000,0.000000,4222.692383,4207.820313,4307.820313,4257.051270,4186.922852,4154.358887,4218.461426,4171.538574,4171.666504,4185.000000,4587.051270,4467.051270,4397.436035,4479.102539,0.000000,3.000000,62.000000,,,,0.000000,4.000000,4.000000,4.000000,4.000000,4.000000,4.000000,4.000000,4.000000,4.000000,4.000000,4.000000,4.000000,4.000000,4.000000,100.000000,,,,,,,,,,,,,,,,,,,,,,,,,,,,
1703412025.764257,1703412025.764117,46.000000,0.000000,4218.461426,4198.333496,4310.384766,4258.974121,4175.000000,4154.487305,4222.820313,4168.974121,4169.102539,4165.384766,4574.743652,4465.512695,4384.230957,4480.384766,0.000000,3.000000,62.000000,,,,0.000000,4.000000,4.000000,4.000000,4.000000,4.000000,4.000000,4.000000,4.000000,4.000000,4.000000,4.000000,4.000000,4.000000,4.000000,100.000000,,,,,,,,,,,,,,,,,,,,,,,,,,,,
1703412025.772065,1703412025.771925,47.000000,0.000000,4214.743652,4182.948730,4305.641113,4258.589844,4176.410156,4151.794922,4222.179688,4169.358887,4171.666504,4146.538574,4562.563965,4454.487305,4370.384766,4462.179688,0.000000,3.000000,62.000000,,,,0.000000,4.000000,4.000000,4.000000,4.000000,4.000000,4.000000,4.000000,4.000000,4.000000,4.000000,4.000000,4.000000,4.000000,4.000000,100.000000,,,,,,,,,,,,,,,,,,,,,,,,,,,,
1703412025.779873,1703412025.779833,48.000000,0.000000,4218.461426,4192.307617,4299.102539,4253.077148,4189.871582,4150.000000,4218.589844,4180.000000,4182.948730,4153.205078,4566.025879,4446.410156,4371.538574,4460.769043,0.000000,3.000000,62.000000,,,,0.000000,4.000000,4.000000,4.000000,4.000000,4.000000,4.000000,4.000000,4.000000,4.000000,4.000000,4.000000,4.000000,4.000000,4.000000,100.000000,,,,,,,,,,,,,,,,,12.000000,0.000000,0.740549,-0.056030,-0.669617,-0.007813,0.982542,-0.071298,0.089855,-15.700290,-41.947861,67.603630
1703412025.787681,1703412025.787641,49.000000,0.000000,4220.256348,4201.666504,4293.461426,4253.461426,4186.153809,4150.512695,4217.948730,4187.563965,4183.077148,4155.897461,4559.358887,4445.256348,4365.897461,4477.820313,0.000000,3.000000,62.000000,,,,0.000000,4.000000,4.000000,4.000000,4.000000,4.000000,4.000000,4.000000,4.000000,4.000000,4.000000,4.000000,4.000000,4.000000,4.000000,100.000000,,,,,,,,,,,,,,,,,,,,,,,,,,,,
1703412025.795489,1703412025.795549,50.000000,0.000000,4218.846191,4203.077148,4294.871582,4260.256348,4179.358887,4153.974121,4218.333496,4182.179688,4174.487305,4145.256348,4557.436035,4453.974121,4366.410156,4483.974121,0.000000,3.000000,62.000000,,,,0.000000,4.000000,4.000000,4.000000,4.000000,4.000000,4.000000,4.000000,4.000000,4.000000,4.000000,4.000000,4.000000,4.000000,4.000000,100.000000,,,,,,,,,,,,,,,,,,,,,,,,,,,,
1703412025.803297,1703412025.803357,51.000000,0.000000,4217.820313,4200.512695,4296.282227,4260.641113,4182.436035,4153.333496,4216.538574,4172.820313,4167.820313,4156.025879,4567.563965,4461.410156,4378.846191,4477.307617,0.000000,3.000000,62.000000,,,,0.000000,4.000000,4.000000,4.000000,4.000000,4.000000,4.000000,4.000000,4.000000,4.000000,4.000000,4.000000,4.000000,4.000000,4.000000,100.000000,,,,,,,,,,,,,,,,,,,,,,,,,,,,
1703412025.811105,1703412025.811265,52.000000,0.000000,4219.358887,4200.000000,4295.512695,4262.051270,4185.256348,4152.307617,4215.641113,4164.615234,4159.102539,4167.820313,4562.307617,4450.000000,4370.769043,4464.230957,0.000000,3.000000,62.000000,,,,0.000000,4.000000,4.000000,4.000000,4.000000,4.000000,4.000000,4.000000,4.000000,4.000000,4.000000,4.000000,4.000000,4.000000,4.000000,100.000000,,,,,,,,,,,,,,,,,13.000000,0.000000,0.740471,-0.056335,-0.669678,-0.007813,0.981077,-0.062019,0.086436,-15.746927,-42.103077,67.626602
1703412025.818913,1703412025.819073,53.000000,0.000000,4221.922852,4208.077148,4295.000000,4268.589844,4184.743652,4154.615234,4216.153809,4152.820313,4149.743652,4146.538574,4551.025879,4430.000000,4353.205078,4447.692383,0.000000,3.000000,62.000000,,,,0.000000,4.000000,4.000000,4.000000,4.000000,4.000000,4.000000,4.000000,4.000000,4.000000,4.000000,4.000000,4.000000,4.000000,4.000000,100.000000,,,,,,,,,,,,,,,,,,,,,,,,,,,,
1703412025.826721,1703412025.826980,54.000000,0.000000,4219.615234,4207.563965,4291.410156,4264.102539,4185.384766,4155.512695,4214.615234,4146.666504,4155.641113,4134.871582,4547.179688,4425.641113,4354.871582,4439.743652,0.000000,3.000000,62.000000,,,,0.000000,4.000000,4.000000,4.000000,4.000000,4.000000,4.000000,4.000000,4.000000,4.000000,4.000000,4.000000,4.000000,4.000000,4.000000,100.000000,,,,,,,,,,,,,,,,,,,,,,,,,,,,
1703412025.834530,1703412025.834788,55.000000,0.000000,4213.589844,4197.820313,4288.846191,4256.794922,4190.256348,4157.436035,4217.051270,4157.179688,4175.000000,4167.692383,4547.051270,4436.666504,4362.436035,4437.436035,0.000000,3.000000,62.000000,,,,0.000000,4.000000,4.000000,4.000000,4.000000,4.000000,4.000000,4.000000,4.000000,4.000000,4.000000,4.000000,4.000000,4.000000,4.000000,100.000000,,,,,,,,,,,,,,,,,,,,,,,,,,,,
1703412025.842337,1703412025.842696,56.000000,0.000000,4216.025879,4197.179688,4293.333496,4262.051270,4199.487305,4164.743652,4224.487305,4175.512695,4188.846191,4190.512695,4558.974121,4444.230957,4368.974121,4442.563965,0.000000,3.000000,62.000000,,,,0.000000,4.000000,4.000000,4.000000,4.000000,4.000000,4.000000,4.000000,4.000000,4.000000,4.000000,4.000000,4.000000,4.000000,4.000000,100.000000,,,,,,,,,,,,,,,,,14.000000,0.000000,0.740499,-0.056702,-0.669617,-0.007751,0.987914,-0.061531,0.097668,-15.622234,-42.176102,67.580605
1703412025.850146,1703412025.850504,57.000000,0.000000,4222.692383,4202.051270,4296.794922,4261.666504,4201.538574,4165.641113,4225.128418,4185.641113,4186.922852,4174.871582,4573.589844,4440.512695,4379.230957,4462.948730,0.000000,3.000000,62.000000,,,,0.000000,4.000000,4.000000,4.000000,4.000000,4.000000,4.000000,4.000000,4.000000,4.000000,4.000000,4.000000,4.000000,4.000000,4.000000,100.000000,,,,,,,,,,,,,,,,,,,,,,,,,,,,
1703412025.857954,1703412025.858412,58.000000,0.000000,4218.846191,4204.871582,4297.307617,4256.666504,4197.307617,4157.179688,4217.820313,4180.512695,4176.538574,4162.948730,4569.871582,4444.358887,4380.897461,4466.922852,0.000000,3.000000,62.000000,,,,0.000000,4.000000,4.000000,4.000000,4.000000,4.000000,4.000000,4.000000,4.000000,4.000000,4.000000,4.000000,4.000000,4.000000,4.000000,100.000000,,,,,,,,,,,,,,,,,,,,,,,,,,,,
1703412025.865762,1703412025.866220,59.000000,0.000000,4218.333496,4215.897461,4306.282227,4269.487305,4196.282227,4153.717773,4214.358887,4171.794922,4172.563965,4173.205078,4570.769043,4464.615234,4384.102539,4459.358887,0.000000,3.000000,62.000000,,,,0.000000,4.000000,4.000000,4.000000,4.000000,4.000000,4.000000,4.000000,4.000000,4.000000,4.000000,4.000000,4.000000,4.000000,4.000000,100.000000,,,,,,,,,,,,,,,,,,,,,,,,,,,,
1703412025.873570,1703412025.874028,60.000000,0.000000,4237.307617,4227.307617,4313.589844,4283.846191,4200.384766,4156.410156,4214.487305,4170.897461,4170.512695,4180.128418,4582.307617,4470.769043,4397.051270,4477.948730,0.000000,3.000000,62.000000,,,,0.000000,4.000000,4.000000,4.000000,4.000000,4.000000,4.000000,4.000000,4.000000,4.000000,4.000000,4.000000,4.000000,4.000000,4.000000,100.000000,,,,,,,,,,,,,,,,,15.000000,0.000000,0.740515,-0.056519,-0.669617,-0.007507,0.996215,-0.071298,0.087901,-15.760012,-42.108490,67.639214
1703412025.881378,1703412025.881936,61.000000,0.000000,4237.179688,4216.410156,4311.025879,4274.102539,4199.871582,4161.153809,4218.846191,4170.000000,4166.282227,4156.538574,4573.461426,4457.948730,4390.000000,4484.230957,0.000000,3.000000,62.000000,,,,0.000000,4.000000,4.000000,4.000000,4.000000,4.000000,4.000000,4.000000,4.000000,4.000000,4.000000,4.000000,4.000000,4.000000,4.000000,100.000000,,,,,,,,,,,,,,,,,,,,,,,,,,,,
1703412025.889186,1703412025.889744,62.000000,0.000000,4216.538574,4201.282227,4314.615234,4262.179688,4190.256348,4168.333496,4221.666504,4166.794922,4165.769043,4141.538574,4558.974121,4459.743652,4371.794922,4461.282227,0.000000,3.000000,62.000000,,,,0.000000,4.000000,4.000000,4.000000,4.000000,4.000000,4.000000,4.000000,4.000000,4.000000,4.000000,4.000000,4.000000,4.000000,4.000000,100.000000,,,,,,,,,,,,,,,,,,,,,,,,,,,,
1703412025.896994,1703412025.897652,63.000000,0.000000,4224.358887,4205.128418,4316.794922,4267.307617,4188.717773,4172.307617,4223.461426,4173.846191,4169.615234,4171.410156,4565.000000,4472.179688,4376.538574,4455.128418,0.000000,3.000000,62.000000,,,,0.000000,4.000000,4.000000,4.000000,4.000000,4.000000,4.000000,4.000000,4.000000,4.000000,4.000000,4.000000,4.000000,4.000000,4.000000,100.000000,,,,,,,,,,,,,,,,,,,,,,,,,,,,
1703412025.904802,1703412025.905461,64.000000,0.000000,4238.205078,4212.307617,4301.922852,4266.282227,4201.538574,4171.282227,4225.128418,4184.615234,4177.179688,4190.769043,4575.128418,4463.589844,4383.846191,4459.230957,5113.000000,3.000000,62.000000,,,,0.000000,4.000000,4.000000,4.000000,4.000000,4.000000,4.000000,4.000000,4.000000,4.000000,4.000000,4.000000,4.000000,4.000000,4.000000,100.000000,,,,,,,,,,,,,,,,,16.000000,0.000000,0.740522,-0.056458,-0.669617,-0.007263,0.992797,-0.070321,0.094738,-15.584010,-42.214310,67.691956
1703412025.912610,1703412025.913269,65.000000,0.000000,4218.461426,4198.846191,4282.563965,4251.794922,4205.128418,4171.666504,4223.846191,4184.871582,4183.461426,4182.436035,4566.666504,4438.589844,4369.871582,4450.000000,5445.000000,3.000000,62.000000,,,,0.000000,4.000000,4.000000,4.000000,4.000000,4.000000,4.000000,4.000000,4.000000,4.000000,4.000000,4.000000,4.000000,4.000000,4.000000,100.000000,,,,,,,,,,,,,,,,,,,,,,,,,,,,
1703412025.920418,1703412025.920977,66.000000,0.000000,4200.897461,4182.820313,4278.974121,4245.384766,4196.538574,4171.538574,4226.153809,4185.000000,4186.538574,4192.179688,4556.153809,4430.641113,4358.205078,4444.102539,5257.000000,3.000000,62.000000,,,,0.000000,4.000000,4.000000,4.000000,4.000000,4.000000,4.000000,4.000000,4.000000,4.000000,4.000000,4.000000,4.000000,4.000000,4.000000,100.000000,,,,,,,,,,,,,,,,,,,,,,,,,,,,
1703412025.928226,1703412025.928785,67.000000,0.000000,4203.205078,4184.487305,4283.717773,4249.358887,4196.666504,4169.102539,4228.205078,4190.512695,4187.307617,4192.436035,4555.384766,4433.461426,4356.410156,4442.563965,5352.000000,3.000000,62.000000,,,,0.000000,4.000000,4.000000,4.000000,4.000000,4.000000,4.000000,4.000000,4.000000,4.000000,4.000000,4.000000,4.000000,4.000000,4.000000,100.000000,,,,,,,,,,,,,,,,,,,,,,,,,,,,
1703412025.936034,1703412025.936493,68.000000,0.000000,4199.358887,4188.589844,4283.205078,4250.641113,4202.692383,4166.922852,4223.333496,4184.871582,4183.717773,4163.205078,4555.641113,4431.153809,4353.589844,4439.102539,5140.000000,3.000000,62.000000,,,,0.000000,4.000000,4.000000,4.000000,4.000000,4.000000,4.000000,4.000000,4.000000,4.000000,4.000000,4.000000,4.000000,4.000000,4.000000,100.000000,,,,,,,,,,,,,,,,,17.000000,0.000000,0.740419,-0.056396,-0.669739,-0.007019,0.990355,-0.072763,0.076670,-15.458942,-42.142879,67.789429
1703412025.943842,1703412025.944301,69.000000,0.000000,4200.769043,4184.871582,4281.922852,4246.025879,4196.538574,4166.282227,4220.769043,4174.743652,4178.205078,4160.384766,4556.538574,4435.256348,4357.179688,4441.922852,3059.000000,3.000000,62.000000,,,,0.000000,4.000000,4.000000,4.000000,4.000000,4.000000,4.000000,4.000000,4.000000,4.000000,4.000000,4.000000,4.000000,4.000000,4.000000,100.000000,,,,,,,,,,,,,,,,,,,,,,,,,,,,
1703412025.951650,1703412025.952009,70.000000,0.000000,4204.487305,4181.410156,4282.820313,4244.102539,4186.922852,4168.077148,4219.358887,4171.153809,4172.179688,4164.102539,4556.410156,4443.589844,4359.615234,4438.717773,2029.000000,3.000000,62.000000,,,,0.000000,4.000000,4.000000,4.000000,4.000000,4.000000,4.000000,4.000000,4.000000,4.000000,4.000000,4.000000,4.000000,4.000000,4.000000,100.000000,,,,,,,,,,,,,,,,,,,,,,,,,,,,
1703412025.959458,1703412025.959817,71.000000,0.000000,4195.641113,4183.589844,4288.717773,4252.051270,4190.897461,4168.205078,4218.461426,4169.615234,4166.153809,4142.692383,4560.128418,4451.666504,4357.948730,4423.846191,5061.000000,3.000000,62.000000,,,,0.000000,4.000000,4.000000,4.000000,4.000000,4.000000,4.000000,4.000000,4.000000,4.000000,4.000000,4.000000,4.000000,4.000000,4.000000,100.000000,,,,,,,,,,,,,,,,,,,,,,,,,,,,
1703412025.967266,1703412025.967525,72.000000,0.000000,4206.922852,4187.692383,4295.256348,4258.205078,4201.410156,4167.948730,4222.179688,4175.256348,4166.538574,4152.436035,4567.820313,4459.102539,4368.333496,4426.666504,4500.000000,3.000000,62.000000,,,,0.000000,4.000000,4.000000,4.000000,4.000000,4.000000,4.000000,4.000000,4.000000,4.000000,4.000000,4.000000,4.000000,4.000000,4.000000,100.000000,,,,,,,,,,,,,,,,,18.000000,0.000000,0.740308,-0.056396,-0.669861,-0.007019,0.996215,-0.074716,0.092785,-15.463048,-41.961926,67.943817
1703412025.975074,1703412025.975433,73.000000,0.000000,4219.102539,4188.077148,4291.410156,4254.487305,4202.692383,4171.538574,4226.025879,4181.153809,4170.641113,4186.666504,4565.897461,4451.282227,4376.025879,4450.641113,5230.000000,3.000000,62.000000,,,,0.000000,4.000000,4.000000,4.000000,4.000000,4.000000,4.000000,4.000000,4.000000,4.000000,4.000000,4.000000,4.000000,4.000000,4.000000,100.000000,,,,,,,,,,,,,,,,,,,,,,,,,,,,
1703412025.982882,1703412025.983241,74.000000,0.000000,4203.846191,4188.461426,4279.102539,4244.615234,4202.307617,4172.307617,4226.538574,4179.230957,4169.743652,4191.282227,4556.794922,4435.128418,4368.205078,4462.948730,5970.000000,3.000000,62.000000,,,,0.000000,4.000000,4.000000,4.000000,4.000000,4.000000,4.000000,4.000000,4.000000,4.000000,4.000000,4.000000,4.000000,4.000000,4.000000,100.000000,1.000000,91.666664,4.000000,4.000000,4.000000,4.000000,4.000000,4.000000,4.000000,4.000000,4.000000,3.000000,4.000000,4.000000,4.000000,4.000000,,,,,,,,,,,,
1703412025.990691,1703412025.991149,75.000000,0.000000,4191.153809,4182.563965,4273.589844,4236.410156,4203.589844,4168.846191,4225.256348,4179.871582,4169.102539,4176.666504,4554.871582,4433.077148,4364.102539,4448.974121,6087.000000,3.000000,62.000000,,,,0.000000,4.000000,4.000000,4.000000,4.000000,4.000000,4.000000,4.000000,4.000000,4.000000,4.000000,4.000000,4.000000,4.000000,4.000000,100.000000,,,,,,,,,,,,,,,,,,,,,,,,,,,,
1703412025.998499,1703412025.998957,76.000000,0.000000,4189.358887,4170.000000,4277.820313,4235.000000,4194.743652,4167.692383,4221.794922,4184.487305,4173.205078,4162.307617,4551.410156,4432.436035,4360.000000,4428.461426,6624.000000,3.000000,62.000000,,,,0.000000,4.000000,4.000000,4.000000,4.000000,4.000000,4.000000,4.000000,4.000000,4.000000,4.000000,4.000000,4.000000,4.000000,4.000000,100.000000,,,,,,,,,,,,,,,,,19.000000,0.000000,0.740244,-0.056519,-0.669922,-0.007019,0.980588,-0.075693,0.089366,-15.433410,-41.915733,67.799438
1703412026.006307,1703412026.006865,77.000000,0.000000,4188.974121,4173.205078,4276.025879,4239.230957,4191.025879,4168.717773,4220.384766,4184.358887,4175.128418,4159.615234,4546.410156,4426.922852,4351.922852,4425.897461,6978.000000,3.000000,62.000000,,,,0.000000,4.000000,4.000000,4.000000,4.000000,4.000000,4.000000,4.000000,4.000000,4.000000,4.000000,4.000000,4.000000,4.000000,4.000000,100.000000,,,,,,,,,,,,,,,,,,,,,,,,,,,,
1703412026.014115,1703412026.014673,78.000000,0.000000,4195.641113,4185.769043,4270.128418,4238.205078,4204.358887,4169.871582,4222.820313,4187.051270,4183.205078,4192.563965,4560.128418,4435.128418,4360.000000,4441.538574,5970.000000,3.000000,62.000000,,,,0.000000,4.000000,4.000000,4.000000,4.000000,4.000000,4.000000,4.000000,4.000000,4.000000,4.000000,4.000000,4.000000,4.000000,4.000000,100.000000,,,,,,,,,,,,,,,,,,,,,,,,,,,,
1703412026.021923,1703412026.022580,79.000000,0.000000,4202.179688,4178.461426,4272.051270,4231.538574,4203.589844,4172.051270,4225.384766,4192.179688,4189.230957,4212.692383,4574.487305,4445.000000,4373.333496,4441.282227,6087.000000,3.000000,62.000000,,,,0.000000,4.000000,4.000000,4.000000,4.000000,4.000000,4.000000,4.000000,4.000000,4.000000,4.000000,4.000000,4.000000,4.000000,4.000000,100.000000,,,,,,,,,,,,,,,,,,,,,,,,,,,,
1703412026.029731,1703412026.030388,80.000000,0.000000,4205.769043,4167.563965,4276.922852,4232.179688,4188.461426,4173.205078,4225.897461,4189.358887,4175.769043,4181.922852,4570.897461,4446.410156,4371.410156,4430.512695,6624.000000,3.000000,62.000000,,,,0.000000,4.000000,4.000000,4.000000,4.000000,4.000000,4.000000,4.000000,4.000000,4.000000,4.000000,4.000000,4.000000,4.000000,4.000000,100.000000,,,,,,,,,,,,,,,,,20.000000,0.000000,0.740452,-0.056702,-0.669678,-0.006897,0.983030,-0.074716,0.091320,-15.506736,-41.990826,67.886162
1703412026.037539,1703412026.038296,81.000000,0.000000,4216.282227,4176.538574,4280.769043,4239.743652,4190.769043,4173.205078,4225.512695,4187.179688,4166.666504,4170.769043,4565.512695,4448.846191,4367.307617,4450.512695,6978.000000,3.000000,62.000000,,,,0.000000,4.000000,4.000000,4.000000,4.000000,4.000000,4.000000,4.000000,4.000000,4.000000,4.000000,4.000000,4.000000,4.000000,4.000000,100.000000,,,,,,,,,,,,,,,,,,,,,,,,,,,,
1703412026.045347,1703412026.046104,82.000000,0.000000,4220.769043,4187.948730,4289.230957,4246.153809,4197.436035,4173.333496,4226.282227,4187.179688,4171.410156,4194.358887,4571.794922,4454.743652,4378.461426,4482.692383,5970.000000,3.000000,62.000000,,,,0.000000,4.000000,4.000000,4.000000,4.000000,4.000000,4.000000,4.000000,4.000000,4.000000,4.000000,4.000000,4.000000,4.000000,4.000000,100.000000,,,,,,,,,,,,,,,,,,,,,,,,,,,,
1703412026.053155,1703412026.054012,83.000000,0.000000,4222.436035,4188.077148,4294.487305,4248.461426,4194.871582,4172.820313,4232.563965,4185.641113,4171.025879,4181.153809,4575.256348,4460.769043,4385.000000,4477.692383,6087.000000,3.000000,62.000000,,,,0.000000,4.000000,4.000000,4.000000,4.000000,4.000000,4.000000,4.000000,4.000000,4.000000,4.000000,4.000000,4.000000,4.000000,4.000000,100.000000,,,,,,,,,,,,,,,,,,,,,,,,,,,,
1703412026.060963,1703412026.061820,84.000000,0.000000,4233.333496,4187.179688,4290.000000,4247.307617,4198.717773,4175.641113,4233.205078,4185.512695,4167.563965,4153.077148,4568.589844,4458.333496,4375.384766,4468.205078,6624.000000,3.000000,62.000000,,,,0.000000,4.000000,4.000000,4.000000,4.000000,4.000000,4.000000,4.000000,4.000000,4.000000,4.000000,4.000000,4.000000,4.000000,4.000000,100.000000,,,,,,,,,,,,,,,,,21.000000,0.000000,0.740641,-0.057129,-0.669434,-0.006775,0.983518,-0.076670,0.091320,-15.639396,-42.125076,67.814209
1703412026.068771,1703412026.069528,85.000000,0.000000,4233.205078,4189.102539,4290.897461,4247.820313,4203.077148,4178.974121,4226.922852,4186.538574,4171.025879,4162.436035,4566.666504,4458.205078,4374.358887,4484.102539,6978.000000,3.000000,62.000000,,,,0.000000,4.000000,4.000000,4.000000,4.000000,4.000000,4.000000,4.000000,4.000000,4.000000,4.000000,4.000000,4.000000,4.000000,4.000000,100.000000,,,,,,,,,,,,,,,,,,,,,,,,,,,,
1703412026.076579,1703412026.077336,86.000000,0.000000,4228.846191,4189.358887,4298.205078,4248.846191,4199.871582,4176.410156,4229.743652,4187.820313,4174.615234,4169.230957,4569.871582,4463.205078,4382.563965,4485.128418,5970.000000,3.000000,62.000000,,,,0.000000,4.000000,4.000000,4.000000,4.000000,4.000000,4.000000,4.000000,4.000000,4.000000,4.000000,4.000000,4.000000,4.000000,4.000000,100.000000,,,,,,,,,,,,,,,,,,,,,,,,,,,,
1703412026.084387,1703412026.085044,87.000000,0.000000,4234.487305,4186.153809,4297.307617,4246.794922,4196.410156,4171.282227,4230.769043,4189.358887,4175.384766,4163.846191,4570.512695,4461.282227,4380.000000,4480.512695,6087.000000,3.000000,62.000000,,,,0.000000,4.000000,4.000000,4.000000,4.000000,4.000000,4.000000,4.000000,4.000000,4.000000,4.000000,4.000000,4.000000,4.000000,4.000000,100.000000,,,,,,,,,,,,,,,,,,,,,,,,,,,,
1703412026.092195,1703412026.092852,88.000000,0.000000,4234.871582,4182.948730,4289.102539,4245.897461,4191.538574,4170.641113,4222.051270,4189.358887,4176.794922,4163.717773,4573.077148,4459.230957,4376.794922,4489.615234,6624.000000,3.000000,62.000000,,,,0.000000,4.000000,4.000000,4.000000,4.000000,4.000000,4.000000,4.000000,4.000000,4.000000,4.000000,4.000000,4.000000,4.000000,4.000000,100.000000,,,,,,,,,,,,,,,,,22.000000,0.000000,0.740672,-0.057434,-0.669373,-0.006836,0.985960,-0.066414,0.086436,-15.625456,-41.995903,67.749458
1703412026.100003,1703412026.100560,89.000000,0.000000,4227.179688,4184.615234,4286.922852,4245.641113,4184.358887,4172.436035,4221.282227,4187.692383,4172.051270,4159.615234,4575.641113,4464.871582,4382.692383,4491.025879,6978.000000,3.000000,62.000000,,,,0.000000,4.000000,4.000000,4.000000,4.000000,4.000000,4.000000,4.000000,4.000000,4.000000,4.000000,4.000000,4.000000,4.000000,4.000000,100.000000,,,,,,,,,,,,,,,,,,,,,,,,,,,,
1703412026.107811,1703412026.108368,90.000000,0.000000,4230.000000,4182.436035,4287.563965,4246.025879,4186.538574,4169.743652,4227.051270,4187.820313,4170.256348,4158.846191,4577.948730,4465.384766,4385.128418,4494.615234,5970.000000,3.000000,62.000000,,,,0.000000,4.000000,4.000000,4.000000,4.000000,4.000000,4.000000,4.000000,4.000000,4.000000,4.000000,4.000000,4.000000,4.000000,4.000000,100.000000,,,,,,,,,,,,,,,,,,,,,,,,,,,,
1703412026.115619,1703412026.116076,91.000000,0.000000,4235.384766,4173.974121,4287.307617,4243.846191,4190.641113,4168.205078,4224.487305,4188.589844,4172.820313,4172.692383,4581.025879,4460.897461,4387.436035,4499.487305,6087.000000,3.000000,62.000000,,,,0.000000,4.000000,4.000000,4.000000,4.000000,4.000000,4.000000,4.000000,4.000000,4.000000,4.000000,4.000000,4.000000,4.000000,4.000000,100.000000,,,,,,,,,,,,,,,,,,,,,,,,,,,,
1703412026.123428,1703412026.123884,92.000000,0.000000,4209.743652,4167.436035,4285.384766,4237.820313,4189.230957,4174.487305,4222.948730,4185.128418,4170.769043,4174.358887,4576.794922,4455.641113,4385.897461,4482.179688,6624.000000,3.000000,62.000000,,,,0.000000,4.000000,4.000000,4.000000,4.000000,4.000000,4.000000,4.000000,4.000000,4.000000,4.000000,4.000000,4.000000,4.000000,4.000000,100.000000,,,,,,,,,,,,,,,,,23.000000,0.000000,0.740777,-0.057495,-0.669250,-0.006897,0.987425,-0.076181,0.096691,-15.496243,-41.979645,67.791176
1703412026.131235,1703412026.131592,93.000000,0.000000,4181.922852,4166.282227,4280.897461,4232.948730,4194.871582,4178.589844,4227.051270,4181.410156,4168.717773,4157.563965,4567.692383,4446.153809,4374.358887,4469.487305,6978.000000,3.000000,62.000000,,,,0.000000,4.000000,4.000000,4.000000,4.000000,4.000000,4.000000,4.000000,4.000000,4.000000,4.000000,4.000000,4.000000,4.000000,4.000000,100.000000,,,,,,,,,,,,,,,,,,,,,,,,,,,,
1703412026.139043,1703412026.139400,94.000000,0.000000,4202.051270,4166.794922,4275.512695,4231.025879,4203.974121,4178.205078,4229.230957,4184.615234,4170.897461,4168.589844,4568.205078,4446.538574,4374.871582,4479.230957,5970.000000,3.000000,62.000000,,,,0.000000,4.000000,4.000000,4.000000,4.000000,4.000000,4.000000,4.000000,4.000000,4.000000,4.000000,4.000000,4.000000,4.000000,4.000000,100.000000,,,,,,,,,,,,,,,,,,,,,,,,,,,,
1703412026.146852,1703412026.147108,95.000000,0.000000,4218.717773,4164.871582,4273.974121,4231.538574,4199.102539,4178.077148,4227.179688,4188.205078,4171.666504,4167.692383,4569.871582,4451.025879,4378.974121,4478.589844,6087.000000,3.000000,62.000000,,,,0.000000,4.000000,4.000000,4.000000,4.000000,4.000000,4.000000,4.000000,4.000000,4.000000,4.000000,4.000000,4.000000,4.000000,4.000000,100.000000,,,,,,,,,,,,,,,,,,,,,,,,,,,,
1703412026.154660,1703412026.155016,96.000000,0.000000,4196.153809,4166.410156,4278.461426,4233.974121,4193.589844,4175.769043,4223.974121,4185.769043,4170.897461,4133.589844,4564.871582,4447.436035,4373.077148,4475.128418,6624.000000,3.000000,62.000000,,,,0.000000,4.000000,4.000000,4.000000,4.000000,4.000000,4.000000,4.000000,4.000000,4.000000,4.000000,4.000000,4.000000,4.000000,4.000000,100.000000,,,,,,,,,,,,,,,,,24.000000,0.000000,0.740878,-0.057617,-0.669128,-0.006836,0.978635,-0.073739,0.095715,-15.346620,-42.098347,67.745392
1703412026.162468,1703412026.162824,97.000000,0.000000,4200.641113,4172.179688,4280.256348,4235.384766,4198.461426,4173.974121,4222.692383,4186.282227,4172.179688,4142.436035,4564.615234,4448.333496,4373.205078,4482.179688,6978.000000,3.000000,62.000000,,,,0.000000,4.000000,4.000000,4.000000,4.000000,4.000000,4.000000,4.000000,4.000000,4.000000,4.000000,4.000000,4.000000,4.000000,4.000000,100.000000,,,,,,,,,,,,,,,,,,,,,,,,,,,,
1703412026.170276,1703412026.170732,98.000000,0.000000,4228.077148,4173.077148,4277.820313,4230.512695,4195.641113,4173.205078,4223.717773,4187.692383,4170.769043,4166.153809,4558.205078,4442.820313,4366.666504,4482.563965,5970.000000,3.000000,62.000000,,,,0.000000,4.000000,4.000000,4.000000,4.000000,4.000000,4.000000,4.000000,4.000000,4.000000,4.000000,4.000000,4.000000,4.000000,4.000000,100.000000,,,,,,,,,,,,,,,,,,,,,,,,,,,,
1703412026.178084,1703412026.178540,99.000000,0.000000,4211.025879,4166.410156,4277.436035,4226.922852,4186.794922,4172.179688,4226.153809,4185.000000,4170.128418,4139.358887,4547.307617,4429.743652,4349.871582,4474.615234,6087.000000,3.000000,62.000000,,,,0.000000,4.000000,4.000000,4.000000,4.000000,4.000000,4.000000,4.000000,4.000000,4.000000,4.000000,4.000000,4.000000,4.000000,4.000000,100.000000,,,,,,,,,,,,,,,,,,,,,,,,,,,,
1703412026.185892,1703412026.186448,100.000000,0.000000,4192.307617,4165.512695,4283.205078,4230.384766,4186.410156,4173.589844,4227.563965,4190.384766,4173.589844,4136.666504,4554.615234,4437.563965,4354.358887,4470.384766,6624.000000,3.000000,62.000000,,,,0.000000,4.000000,4.000000,4.000000,4.000000,4.000000,4.000000,4.000000,4.000000,4.000000,4.000000,4.000000,4.000000,4.000000,4.000000,100.000000,,,,,,,,,,,,,,,,,25.000000,0.000000,0.740877,-0.057678,-0.669128,-0.006409,0.994750,-0.070321,0.102063,-15.261957,-42.138512,67.770851
1703412026.193700,1703412026.194256,101.000000,0.000000,4221.794922,4171.025879,4291.410156,4233.717773,4185.641113,4176.025879,4226.794922,4196.410156,4171.410156,4185.000000,4572.051270,4452.563965,4371.410156,4480.641113,6978.000000,3.000000,62.000000,,,,0.000000,4.000000,4.000000,4.000000,4.000000,4.000000,4.000000,4.000000,4.000000,4.000000,4.000000,4.000000,4.000000,4.000000,4.000000,100.000000,,,,,,,,,,,,,,,,,,,,,,,,,,,,
1703412026.201508,1703412026.202164,102.000000,0.000000,4236.922852,4172.692383,4294.743652,4233.717773,4189.487305,4179.358887,4226.666504,4189.615234,4165.384766,4184.487305,4572.692383,4450.256348,4369.743652,4479.230957,5970.000000,3.000000,62.000000,,,,0.000000,4.000000,4.000000,4.000000,4.000000,4.000000,4.000000,4.000000,4.000000,4.000000,4.000000,4.000000,4.000000,4.000000,4.000000,100.000000,,,,,,,,,,,,,,,,,,,,,,,,,,,,
1703412026.209316,1703412026.209972,103.000000,0.000000,4210.512695,4172.051270,4291.666504,4235.000000,4203.717773,4180.769043,4227.051270,4179.102539,4166.538574,4145.128418,4560.000000,4444.230957,4359.871582,4460.641113,6087.000000,3.000000,62.000000,,,,0.000000,4.000000,4.000000,4.000000,4.000000,4.000000,4.000000,4.000000,4.000000,4.000000,4.000000,4.000000,4.000000,4.000000,4.000000,100.000000,,,,,,,,,,,,,,,,,,,,,,,,,,,,
1703412026.217124,1703412026.217880,104.000000,0.000000,4201.410156,4170.769043,4284.743652,4239.102539,4206.025879,4178.461426,4225.256348,4176.153809,4170.256348,4140.512695,4553.333496,4438.974121,4355.641113,4466.794922,6624.000000,3.000000,62.000000,,,,0.000000,4.000000,4.000000,4.000000,4.000000,4.000000,4.000000,4.000000,4.000000,4.000000,4.000000,4.000000,4.000000,4.000000,4.000000,100.000000,,,,,,,,,,,,,,,,,26.000000,0.000000,0.740728,-0.057495,-0.669312,-0.006226,0.988890,-0.075693,0.095715,-15.185761,-42.124660,67.760437
1703412026.224932,1703412026.225688,105.000000,0.000000,4219.102539,4174.487305,4286.538574,4243.461426,4197.948730,4178.205078,4223.333496,4178.333496,4168.717773,4150.512695,4555.128418,4438.333496,4353.589844,4476.410156,6978.000000,3.000000,62.000000,,,,0.000000,4.000000,4.000000,4.000000,4.000000,4.000000,4.000000,4.000000,4.000000,4.000000,4.000000,4.000000,4.000000,4.000000,4.000000,100.000000,,,,,,,,,,,,,,,,,,,,,,,,,,,,
1703412026.232740,1703412026.233595,106.000000,0.000000,4225.897461,4186.025879,4295.512695,4248.717773,4203.077148,4180.897461,4225.256348,4187.948730,4173.846191,4158.205078,4566.410156,4455.384766,4365.512695,4466.666504,5970.000000,3.000000,62.000000,,,,0.000000,4.000000,4.000000,4.000000,4.000000,4.000000,4.000000,4.000000,4.000000,4.000000,4.000000,4.000000,4.000000,4.000000,4.000000,100.000000,,,,,,,,,,,,,,,,,,,,,,,,,,,,
1703412026.240548,1703412026.241403,107.000000,0.000000,4213.846191,4186.410156,4300.000000,4245.641113,4203.461426,4180.897461,4225.897461,4200.769043,4187.948730,4174.358887,4578.333496,4471.922852,4379.871582,4473.461426,6087.000000,3.000000,62.000000,,,,0.000000,4.000000,4.000000,4.000000,4.000000,4.000000,4.000000,4.000000,4.000000,4.000000,4.000000,4.000000,4.000000,4.000000,4.000000,100.000000,,,,,,,,,,,,,,,,,,,,,,,,,,,,
1703412026.248356,1703412026.249111,108.000000,0.000000,4202.820313,4170.897461,4296.794922,4235.256348,4187.820313,4178.717773,4226.153809,4198.461426,4181.025879,4168.846191,4567.563965,4458.846191,4369.743652,4484.615234,6624.000000,3.000000,62.000000,,,,0.000000,4.000000,4.000000,4.000000,4.000000,4.000000,4.000000,4.000000,4.000000,4.000000,4.000000,4.000000,4.000000,4.000000,4.000000,100.000000,,,,,,,,,,,,,,,,,27.000000,0.000000,0.740594,-0.057068,-0.669495,-0.006409,0.988890,-0.080576,0.104505,-15.167186,-42.195530,67.667725
1703412026.256164,1703412026.256919,109.000000,0.000000,4211.153809,4165.897461,4287.948730,4229.615234,4187.307617,4180.384766,4229.615234,4189.102539,4163.205078,4148.205078,4555.512695,4439.102539,4361.922852,4479.487305,6978.000000,3.000000,62.000000,,,,0.000000,4.000000,4.000000,4.000000,4.000000,4.000000,4.000000,4.000000,4.000000,4.000000,4.000000,4.000000,4.000000,4.000000,4.000000,100.000000,,,,,,,,,,,,,,,,,,,,,,,,,,,,
1703412026.263972,1703412026.264628,110.000000,0.000000,4220.897461,4167.051270,4280.384766,4225.897461,4201.410156,4182.820313,4229.358887,4189.487305,4170.897461,4170.512695,4564.487305,4441.025879,4374.102539,4475.512695,5970.000000,3.000000,62.000000,,,,0.000000,4.000000,4.000000,4.000000,4.000000,4.000000,4.000000,4.000000,4.000000,4.000000,4.000000,4.000000,4.000000,4.000000,4.000000,100.000000,,,,,,,,,,,,,,,,,,,,,,,,,,,,
1703412026.271780,1703412026.272435,111.000000,0.000000,4202.563965,4154.615234,4276.794922,4224.487305,4197.179688,4182.051270,4225.256348,4189.871582,4180.256348,4187.820313,4568.461426,4440.512695,4369.487305,4461.794922,6087.000000,3.000000,62.000000,,,,0.000000,4.000000,4.000000,4.000000,4.000000,4.000000,4.000000,4.000000,4.000000,4.000000,4.000000,4.000000,4.000000,4.000000,4.000000,100.000000,,,,,,,,,,,,,,,,,,,,,,,,,,,,
1703412026.279588,1703412026.280144,112.000000,0.000000,4190.384766,4144.615234,4279.230957,4227.692383,4178.589844,4177.436035,4222.820313,4181.922852,4166.538574,4150.384766,4557.051270,4431.025879,4350.769043,4451.025879,6624.000000,3.000000,62.000000,,,,0.000000,4.000000,4.000000,4.000000,4.000000,4.000000,4.000000,4.000000,4.000000,4.000000,4.000000,4.000000,4.000000,4.000000,4.000000,100.000000,,,,,,,,,,,,,,,,,28.000000,0.000000,0.740517,-0.056580,-0.669617,-0.006836,0.977658,-0.072763,0.100110,-15.133801,-42.242641,67.634285
1703412026.287397,1703412026.287952,113.000000,0.000000,4211.794922,4154.615234,4290.384766,4223.589844,4186.410156,4177.307617,4228.717773,4182.436035,4163.974121,4138.974121,4563.974121,4440.897461,4359.615234,4475.512695,6978.000000,3.000000,62.000000,,,,0.000000,4.000000,4.000000,4.000000,4.000000,4.000000,4.000000,4.000000,4.000000,4.000000,4.000000,4.000000,4.000000,4.000000,4.000000,100.000000,,,,,,,,,,,,,,,,,,,,,,,,,,,,
1703412026.295205,1703412026.295660,114.000000,0.000000,4217.307617,4164.102539,4293.077148,4215.128418,4211.025879,4187.051270,4234.487305,4187.307617,4173.205078,4170.256348,4574.487305,4453.205078,4372.563965,4482.948730,5970.000000,3.000000,62.000000,,,,0.000000,4.000000,4.000000,4.000000,4.000000,4.000000,4.000000,4.000000,4.000000,4.000000,4.000000,4.000000,4.000000,4.000000,4.000000,100.000000,,,,,,,,,,,,,,,,,,,,,,,,,,,,
1703412026.303012,1703412026.303567,115.000000,0.000000,4203.846191,4158.077148,4281.282227,4222.563965,4213.589844,4187.948730,4229.615234,4182.179688,4170.512695,4181.538574,4557.948730,4438.846191,4361.153809,4457.436035,6087.000000,3.000000,62.000000,,,,0.000000,4.000000,4.000000,4.000000,4.000000,4.000000,4.000000,4.000000,4.000000,4.000000,4.000000,4.000000,4.000000,4.000000,4.000000,100.000000,,,,,,,,,,,,,,,,,,,,,,,,,,,,
1703412026.310821,1703412026.311375,116.000000,0.000000,4207.436035,4154.615234,4281.922852,4233.333496,4196.538574,4179.230957,4227.948730,4186.538574,4176.282227,4162.436035,4553.333496,4436.794922,4357.948730,4457.692383,6624.000000,3.000000,62.000000,,,,0.000000,4.000000,4.000000,4.000000,4.000000,4.000000,4.000000,4.000000,4.000000,4.000000,4.000000,4.000000,4.000000,4.000000,4.000000,100.000000,,,,,,,,,,,,,,,,,29.000000,0.000000,0.740659,-0.056091,-0.669495,-0.007385,0.993285,-0.059089,0.100598,-15.037086,-42.268379,67.587524
1703412026.318629,1703412026.319183,117.000000,0.000000,4221.410156,4162.820313,4298.974121,4230.897461,4187.692383,4179.615234,4233.333496,4202.948730,4187.820313,4141.153809,4576.282227,4460.512695,4374.871582,4480.128418,6978.000000,3.000000,62.000000,,,,0.000000,4.000000,4.000000,4.000000,4.000000,4.000000,4.000000,4.000000,4.000000,4.000000,4.000000,4.000000,4.000000,4.000000,4.000000,100.000000,,,,,,,,,,,,,,,,,,,,,,,,,,,,
1703412026.326437,1703412026.326891,118.000000,0.000000,4227.948730,4169.743652,4298.589844,4226.666504,4189.102539,4185.256348,4231.025879,4206.794922,4187.307617,4148.333496,4584.615234,4466.410156,4377.692383,4486.538574,5970.000000,3.000000,62.000000,,,,0.000000,4.000000,4.000000,4.000000,4.000000,4.000000,4.000000,4.000000,4.000000,4.000000,4.000000,4.000000,4.000000,4.000000,4.000000,100.000000,,,,,,,,,,,,,,,,,,,,,,,,,,,,
1703412026.334245,1703412026.334799,119.000000,0.000000,4223.717773,4166.025879,4282.948730,4229.487305,4184.102539,4181.025879,4222.179688,4193.461426,4179.743652,4182.436035,4564.743652,4449.871582,4360.512695,4471.794922,6087.000000,3.000000,62.000000,,,,0.000000,4.000000,4.000000,4.000000,4.000000,4.000000,4.000000,4.000000,4.000000,4.000000,4.000000,4.000000,4.000000,4.000000,4.000000,100.000000,,,,,,,,,,,,,,,,,,,,,,,,,,,,
1703412026.342053,1703412026.342607,120.000000,0.000000,4209.230957,4168.974121,4285.256348,4237.820313,4181.410156,4173.333496,4224.230957,4183.077148,4172.051270,4194.615234,4551.410156,4446.666504,4352.179688,4455.384766,6624.000000,3.000000,62.000000,,,,0.000000,4.000000,4.000000,4.000000,4.000000,4.000000,4.000000,4.000000,4.000000,4.000000,4.000000,4.000000,4.000000,4.000000,4.000000,100.000000,,,,,,,,,,,,,,,,,30.000000,0.000000,0.740566,-0.055786,-0.669617,-0.007996,0.987914,-0.066414,0.096691,-15.050045,-42.274872,67.478775
1703412026.349861,1703412026.350515,121.000000,0.000000,4207.307617,4182.436035,4299.871582,4242.948730,4190.256348,4171.666504,4227.563965,4191.153809,4176.410156,4165.512695,4558.717773,4457.051270,4358.077148,4459.230957,6978.000000,3.000000,62.000000,,,,0.000000,4.000000,4.000000,4.000000,4.000000,4.000000,4.000000,4.000000,4.000000,4.000000,4.000000,4.000000,4.000000,4.000000,4.000000,100.000000,,,,,,,,,,,,,,,,,,,,,,,,,,,,
1703412026.357669,1703412026.358323,122.000000,0.000000,4231.666504,4187.436035,4302.307617,4245.512695,4196.538574,4168.205078,4220.897461,4200.128418,4182.051270,4149.487305,4564.487305,4455.128418,4362.307617,4477.179688,5970.000000,3.000000,62.000000,,,,0.000000,4.000000,4.000000,4.000000,4.000000,4.000000,4.000000,4.000000,4.000000,4.000000,4.000000,4.000000,4.000000,4.000000,4.000000,100.000000,,,,,,,,,,,,,,,,,,,,,,,,,,,,
1703412026.365477,1703412026.366231,123.000000,0.000000,4235.769043,4185.769043,4293.846191,4249.487305,4193.205078,4167.051270,4220.384766,4192.948730,4174.615234,4158.077148,4567.307617,4453.974121,4369.487305,4483.333496,6087.000000,3.000000,62.000000,,,,0.000000,4.000000,4.000000,4.000000,4.000000,4.000000,4.000000,4.000000,4.000000,4.000000,4.000000,4.000000,4.000000,4.000000,4.000000,100.000000,,,,,,,,,,,,,,,,,,,,,,,,,,,,
1703412026.373285,1703412026.374039,124.000000,0.000000,4210.128418,4187.436035,4288.461426,4247.948730,4190.000000,4168.974121,4223.974121,4182.820313,4171.922852,4172.179688,4569.871582,4462.179688,4378.077148,4471.666504,6624.000000,3.000000,62.000000,,,,0.000000,4.000000,4.000000,4.000000,4.000000,4.000000,4.000000,4.000000,4.000000,4.000000,4.000000,4.000000,4.000000,4.000000,4.000000,100.000000,,,,,,,,,,,,,,,,,31.000000,0.000000,0.740518,-0.055664,-0.669678,-0.008179,0.993285,-0.083018,0.088390,-15.178373,-42.247387,67.530891
1703412026.381093,1703412026.381947,125.000000,0.000000,4206.666504,4182.948730,4282.563965,4237.820313,4192.563965,4165.641113,4219.871582,4183.333496,4176.794922,4168.717773,4573.461426,4454.743652,4376.153809,4474.871582,6978.000000,3.000000,62.000000,,,,0.000000,4.000000,4.000000,4.000000,4.000000,4.000000,4.000000,4.000000,4.000000,4.000000,4.000000,4.000000,4.000000,4.000000,4.000000,100.000000,,,,,,,,,,,,,,,,,,,,,,,,,,,,
1703412026.388901,1703412026.389755,126.000000,0.000000,4222.307617,4171.025879,4275.384766,4230.897461,4191.282227,4158.333496,4215.641113,4184.871582,4168.589844,4155.897461,4576.794922,4438.717773,4372.051270,4493.077148,5970.000000,3.000000,62.000000,,,,0.000000,4.000000,4.000000,4.000000,4.000000,4.000000,4.000000,4.000000,4.000000,4.000000,4.000000,4.000000,4.000000,4.000000,4.000000,100.000000,,,,,,,,,,,,,,,,,,,,,,,,,,,,
1703412026.396709,1703412026.397663,127.000000,0.000000,4221.794922,4169.871582,4281.282227,4232.692383,4188.717773,4155.897461,4220.000000,4186.410156,4171.538574,4178.589844,4580.512695,4448.589844,4381.666504,4495.512695,62.000000,3.000000,62.000000,,,,0.000000,4.000000,4.000000,4.000000,4.000000,4.000000,4.000000,4.000000,4.000000,4.000000,4.000000,4.000000,4.000000,4.000000,4.000000,100.000000,,,,,,,,,,,,,,,,,,,,,,,,,,,,
1703412026.404517,1703412026.405471,0.000000,0.000000,4215.384766,4168.461426,4288.077148,4228.205078,4188.589844,4161.282227,4225.128418,4191.025879,4186.410156,4189.871582,4580.000000,4465.256348,4385.897461,4476.794922,5110.000000,3.000000,62.000000,,,,0.000000,4.000000,4.000000,4.000000,4.000000,4.000000,4.000000,4.000000,4.000000,4.000000,4.000000,4.000000,4.000000,4.000000,4.000000,100.000000,,,,,,,,,,,,,,,,,0.000000,0.000000,0.740561,-0.055786,-0.669617,-0.008423,0.982542,-0.063973,0.099133,-15.293870,-42.272648,67.377808
1703412026.412325,1703412026.413379,1.000000,0.000000,4214.358887,4165.256348,4283.333496,4222.563965,4187.948730,4164.102539,4224.743652,4188.205078,4174.615234,4156.666504,4566.410156,4457.436035,4370.256348,4463.077148,5445.000000,3.000000,62.000000,,,,0.000000,4.000000,4.000000,4.000000,4.000000,4.000000,4.000000,4.000000,4.000000,4.000000,4.000000,4.000000,4.000000,4.000000,4.000000,100.000000,,,,,,,,,,,,,,,,,,,,,,,,,,,,
1703412026.420133,1703412026.421186,2.000000,0.000000,4210.384766,4176.794922,4281.538574,4229.615234,4185.897461,4157.692383,4217.307617,4181.794922,4160.769043,4145.769043,4558.205078,4443.461426,4361.153809,4471.666504,5277.000000,3.000000,62.000000,,,,0.000000,4.000000,4.000000,4.000000,4.000000,4.000000,4.000000,4.000000,4.000000,4.000000,4.000000,4.000000,4.000000,4.000000,4.000000,100.000000,,,,,,,,,,,,,,,,,,,,,,,,,,,,
1703412026.427941,1703412026.428895,3.000000,0.000000,4208.717773,4185.897461,4284.102539,4242.563965,4185.256348,4150.512695,4214.487305,4181.538574,4168.205078,4161.282227,4560.256348,4444.358887,4367.307617,4469.743652,5367.000000,3.000000,62.000000,,,,0.000000,4.000000,4.000000,4.000000,4.000000,4.000000,4.000000,4.000000,4.000000,4.000000,4.000000,4.000000,4.000000,4.000000,4.000000,100.000000,,,,,,,,,,,,,,,,,,,,,,,,,,,,
1703412026.435749,1703412026.436703,4.000000,0.000000,4206.538574,4189.871582,4288.974121,4249.615234,4188.846191,4153.205078,4218.974121,4186.410156,4173.846191,4162.692383,4563.974121,4454.615234,4367.563965,4453.205078,5140.000000,3.000000,62.000000,,,,0.000000,4.000000,4.000000,4.000000,4.000000,4.000000,4.000000,4.000000,4.000000,4.000000,4.000000,4.000000,4.000000,4.000000,4.000000,100.000000,,,,,,,,,,,,,,,,,1.000000,0.000000,0.740542,-0.056030,-0.669617,-0.008423,0.985960,-0.062019,0.084971,-15.031149,-42.228718,67.423355
1703412026.443558,1703412026.444411,5.000000,0.000000,4199.743652,4199.358887,4293.846191,4249.230957,4198.846191,4161.153809,4218.589844,4189.487305,4171.410156,4161.538574,4564.743652,4455.128418,4362.307617,4449.871582,3059.000000,3.000000,62.000000,,,,0.000000,4.000000,4.000000,4.000000,4.000000,4.000000,4.000000,4.000000,4.000000,4.000000,4.000000,4.000000,4.000000,4.000000,4.000000,100.000000,,,,,,,,,,,,,,,,,,,,,,,,,,,,
1703412026.451366,1703412026.452319,6.000000,0.000000,4195.256348,4197.307617,4280.641113,4246.025879,4206.666504,4161.922852,4217.436035,4180.000000,4166.025879,4157.692383,4553.077148,4438.461426,4353.077148,4448.717773,2029.000000,3.000000,62.000000,,,,0.000000,4.000000,4.000000,4.000000,4.000000,4.000000,4.000000,4.000000,4.000000,4.000000,4.000000,4.000000,4.000000,4.000000,4.000000,100.000000,,,,,,,,,,,,,,,,,,,,,,,,,,,,
1703412026.459174,1703412026.460127,7.000000,0.000000,4195.384766,4188.846191,4262.563965,4244.230957,4195.769043,4160.897461,4220.256348,4170.384766,4166.025879,4153.205078,4542.692383,4424.102539,4343.589844,4439.358887,5055.000000,3.000000,62.000000,,,,0.000000,4.000000,4.000000,4.000000,4.000000,4.000000,4.000000,4.000000,4.000000,4.000000,4.000000,4.000000,4.000000,4.000000,4.000000,100.000000,,,,,,,,,,,,,,,,,,,,,,,,,,,,
1703412026.466982,1703412026.468035,8.000000,0.000000,4206.153809,4199.358887,4272.436035,4250.256348,4190.128418,4162.179688,4220.512695,4180.000000,4181.794922,4175.256348,4557.051270,4432.563965,4351.025879,4447.307617,4507.000000,3.000000,62.000000,,,,0.000000,4.000000,4.000000,4.000000,4.000000,4.000000,4.000000,4.000000,4.000000,4.000000,4.000000,4.000000,4.000000,4.000000,4.000000,100.000000,,,,,,,,,,,,,,,,,2.000000,0.000000,0.740530,-0.056213,-0.669617,-0.008301,0.986937,-0.063973,0.086436,-15.044702,-42.322510,67.414352
1703412026.474790,1703412026.475843,9.000000,0.000000,4219.487305,4209.230957,4290.256348,4252.563965,4208.077148,4162.692383,4220.256348,4194.743652,4191.922852,4196.153809,4573.205078,4447.436035,4368.461426,4464.615234,5245.000000,3.000000,62.000000,,,,0.000000,4.000000,4.000000,4.000000,4.000000,4.000000,4.000000,4.000000,4.000000,4.000000,4.000000,4.000000,4.000000,4.000000,4.000000,100.000000,,,,,,,,,,,,,,,,,,,,,,,,,,,,
1703412026.482598,1703412026.483751,10.000000,0.000000,4213.846191,4201.025879,4284.615234,4245.128418,4212.948730,4162.948730,4222.179688,4192.307617,4181.922852,4188.077148,4564.871582,4448.846191,4367.820313,4459.230957,5978.000000,3.000000,62.000000,,,,0.000000,4.000000,4.000000,4.000000,4.000000,4.000000,4.000000,4.000000,4.000000,4.000000,4.000000,4.000000,4.000000,4.000000,4.000000,100.000000,1.000000,83.333336,4.000000,4.000000,4.000000,4.000000,4.000000,3.000000,4.000000,4.000000,4.000000,3.000000,4.000000,4.000000,4.000000,4.000000,,,,,,,,,,,,
1703412026.490406,1703412026.491560,11.000000,0.000000,4207.948730,4198.461426,4279.743652,4244.230957,4199.102539,4167.820313,4221.922852,4187.436035,4180.256348,4184.102539,4569.743652,4448.589844,4367.051270,4454.230957,6087.000000,3.000000,62.000000,,,,0.000000,4.000000,4.000000,4.000000,4.000000,4.000000,4.000000,4.000000,4.000000,4.000000,4.000000,4.000000,4.000000,4.000000,4.000000,100.000000,,,,,,,,,,,,,,,,,,,,,,,,,,,,
1703412026.498214,1703412026.499368,12.000000,0.000000,4218.846191,4205.256348,4292.692383,4248.461426,4197.948730,4169.743652,4219.871582,4190.384766,4186.410156,4182.179688,4591.282227,4453.717773,4381.922852,4465.641113,6616.000000,3.000000,62.000000,,,,0.000000,4.000000,4.000000,4.000000,4.000000,4.000000,4.000000,4.000000,4.000000,4.000000,4.000000,4.000000,4.000000,4.000000,4.000000,100.000000,,,,,,,,,,,,,,,,,3.000000,0.000000,0.740675,-0.056519,-0.669434,-0.008057,0.991820,-0.072274,0.092785,-15.123565,-42.256927,67.356255
1703412026.506022,1703412026.507076,13.000000,0.000000,4220.512695,4203.846191,4297.563965,4249.871582,4199.871582,4165.512695,4218.205078,4187.948730,4177.051270,4157.692383,4583.333496,4452.051270,4381.922852,4461.922852,6978.000000,3.000000,62.000000,,,,0.000000,4.000000,4.000000,4.000000,4.000000,4.000000,4.000000,4.000000,4.000000,4.000000,4.000000,4.000000,4.000000,4.000000,4.000000,100.000000,,,,,,,,,,,,,,,,,,,,,,,,,,,,
1703412026.513830,1703412026.514884,14.000000,0.000000,4209.871582,4198.077148,4288.717773,4256.410156,4193.461426,4166.538574,4216.922852,4182.179688,4169.358887,4151.666504,4556.025879,4441.922852,4366.666504,4444.871582,5978.000000,3.000000,62.000000,,,,0.000000,4.000000,4.000000,4.000000,4.000000,4.000000,4.000000,4.000000,4.000000,4.000000,4.000000,4.000000,4.000000,4.000000,4.000000,100.000000,,,,,,,,,,,,,,,,,,,,,,,,,,,,
1703412026.521638,1703412026.522592,15.000000,0.000000,4211.666504,4207.179688,4288.333496,4264.102539,4199.230957,4169.743652,4221.794922,4184.615234,4173.974121,4169.102539,4551.153809,4445.256348,4362.307617,4445.641113,6087.000000,3.000000,62.000000,,,,0.000000,4.000000,4.000000,4.000000,4.000000,4.000000,4.000000,4.000000,4.000000,4.000000,4.000000,4.000000,4.000000,4.000000,4.000000,100.000000,,,,,,,,,,,,,,,,,,,,,,,,,,,,
1703412026.529446,1703412026.530400,16.000000,0.000000,4221.282227,4218.077148,4292.820313,4256.025879,4208.205078,4171.538574,4225.512695,4191.153809,4174.358887,4172.820313,4565.641113,4459.230957,4367.051270,4460.128418,0.000000,3.000000,62.000000,,,,0.000000,4.000000,4.000000,4.000000,4.000000,4.000000,4.000000,4.000000,4.000000,4.000000,4.000000,4.000000,4.000000,4.000000,4.000000,100.000000,,,,,,,,,,,,,,,,,4.000000,0.000000,0.740672,-0.056580,-0.669434,-0.007874,0.978635,-0.059089,0.088390,-15.177875,-42.264568,67.270630
1703412026.537254,1703412026.538108,17.000000,0.000000,4214.871582,4207.820313,4287.179688,4242.051270,4197.436035,4171.538574,4221.922852,4191.025879,4171.025879,4165.256348,4569.230957,4458.077148,4366.410156,4463.974121,0.000000,3.000000,62.000000,,,,0.000000,4.000000,4.000000,4.000000,4.000000,4.000000,4.000000,4.000000,4.000000,4.000000,4.000000,4.000000,4.000000,4.000000,4.000000,100.000000,,,,,,,,,,,,,,,,,,,,,,,,,,,,
1703412026.545062,1703412026.546016,18.000000,0.000000,4206.794922,4197.051270,4281.153809,4243.333496,4184.871582,4170.256348,4219.615234,4187.179688,4176.666504,4170.256348,4563.974121,4446.153809,4360.641113,4455.769043,0.000000,3.000000,62.000000,,,,0.000000,4.000000,4.000000,4.000000,4.000000,4.000000,4.000000,4.000000,4.000000,4.000000,4.000000,4.000000,4.000000,4.000000,4.000000,100.000000,,,,,,,,,,,,,,,,,,,,,,,,,,,,
1703412026.552870,1703412026.553824,19.000000,0.000000,4211.282227,4202.436035,4282.563965,4248.846191,4189.102539,4171.538574,4222.948730,4186.922852,4183.717773,4180.256348,4568.461426,4444.102539,4362.307617,4451.025879,0.000000,3.000000,62.000000,,,,0.000000,4.000000,4.000000,4.000000,4.000000,4.000000,4.000000,4.000000,4.000000,4.000000,4.000000,4.000000,4.000000,4.000000,4.000000,100.000000,,,,,,,,,,,,,,,,,,,,,,,,,,,,
1703412026.560678,1703412026.561732,20.000000,0.000000,4219.615234,4200.512695,4284.102539,4246.282227,4198.974121,4170.384766,4219.743652,4187.563965,4181.794922,4182.051270,4569.743652,4450.256348,4368.461426,4458.717773,0.000000,3.000000,62.000000,,,,0.000000,4.000000,4.000000,4.000000,4.000000,4.000000,4.000000,4.000000,4.000000,4.000000,4.000000,4.000000,4.000000,4.000000,4.000000,100.000000,,,,,,,,,,,,,,,,,5.000000,0.000000,0.740628,-0.056458,-0.669495,-0.007751,0.996215,-0.081553,0.085948,-15.310087,-42.221443,67.276901
1703412026.568486,1703412026.569540,21.000000,0.000000,4224.358887,4197.948730,4290.641113,4251.282227,4198.077148,4168.846191,4213.846191,4185.769043,4181.922852,4186.025879,4564.615234,4453.974121,4373.461426,4476.538574,0.000000,3.000000,62.000000,,,,0.000000,4.000000,4.000000,4.000000,4.000000,4.000000,4.000000,4.000000,4.000000,4.000000,4.000000,4.000000,4.000000,4.000000,4.000000,100.000000,,,,,,,,,,,,,,,,,,,,,,,,,,,,
1703412026.576295,1703412026.577447,22.000000,0.000000,4222.563965,4210.769043,4302.179688,4262.563965,4198.717773,4170.256348,4214.743652,4186.794922,4183.077148,4188.589844,4575.000000,4463.077148,4379.743652,4484.102539,0.000000,3.000000,62.000000,,,,0.000000,4.000000,4.000000,4.000000,4.000000,4.000000,4.000000,4.000000,4.000000,4.000000,4.000000,4.000000,4.000000,4.000000,4.000000,100.000000,,,,,,,,,,,,,,,,,,,,,,,,,,,,
1703412026.584103,1703412026.585356,23.000000,0.000000,4212.563965,4211.538574,4304.358887,4259.743652,4205.256348,4170.512695,4213.461426,4189.102539,4174.743652,4178.717773,4583.589844,4471.538574,4385.641113,4470.512695,0.000000,3.000000,62.000000,,,,0.000000,4.000000,4.000000,4.000000,4.000000,4.000000,4.000000,4.000000,4.000000,4.000000,4.000000,4.000000,4.000000,4.000000,4.000000,100.000000,,,,,,,,,,,,,,,,,,,,,,,,,,,,
1703412026.591910,1703412026.593164,24.000000,0.000000,4211.922852,4196.538574,4293.333496,4248.461426,4198.205078,4167.820313,4206.794922,4187.179688,4168.846191,4168.846191,4571.922852,4466.282227,4377.692383,4466.282227,0.000000,3.000000,62.000000,,,,0.000000,4.000000,4.000000,4.000000,4.000000,4.000000,4.000000,4.000000,4.000000,4.000000,4.000000,4.000000,4.000000,4.000000,4.000000,100.000000,,,,,,,,,,,,,,,,,6.000000,0.000000,0.740679,-0.056519,-0.669434,-0.007690,0.983030,-0.069344,0.083506,-15.212412,-42.265965,67.449211
1703412026.599719,1703412026.600972,25.000000,0.000000,4225.384766,4194.358887,4283.461426,4244.615234,4190.641113,4169.615234,4201.025879,4183.974121,4172.307617,4169.102539,4565.512695,4456.025879,4367.051270,4476.410156,0.000000,3.000000,62.000000,,,,0.000000,4.000000,4.000000,4.000000,4.000000,4.000000,4.000000,4.000000,4.000000,4.000000,4.000000,4.000000,4.000000,4.000000,4.000000,100.000000,,,,,,,,,,,,,,,,,,,,,,,,,,,,
1703412026.607527,1703412026.608680,26.000000,0.000000,4230.512695,4210.256348,4287.820313,4249.487305,4199.871582,4174.230957,4201.282227,4182.563965,4176.922852,4172.563965,4571.666504,4460.128418,4375.128418,4483.077148,0.000000,3.000000,62.000000,,,,0.000000,4.000000,4.000000,4.000000,4.000000,4.000000,4.000000,4.000000,4.000000,4.000000,4.000000,4.000000,4.000000,4.000000,4.000000,100.000000,,,,,,,,,,,,,,,,,,,,,,,,,,,,
1703412026.615335,1703412026.616488,27.000000,0.000000,4237.820313,4226.922852,4298.205078,4257.692383,4207.307617,4174.743652,4203.077148,4186.025879,4182.820313,4189.487305,4574.871582,4477.563965,4381.922852,4479.358887,0.000000,3.000000,62.000000,,,,0.000000,4.000000,4.000000,4.000000,4.000000,4.000000,4.000000,4.000000,4.000000,4.000000,4.000000,4.000000,4.000000,4.000000,4.000000,100.000000,,,,,,,,,,,,,,,,,,,,,,,,,,,,
1703412026.623143,1703412026.624196,28.000000,0.000000,4247.692383,4230.769043,4301.282227,4264.487305,4203.589844,4171.922852,4200.641113,4188.717773,4185.000000,4203.333496,4568.333496,4478.846191,4371.153809,4471.666504,0.000000,3.000000,62.000000,,,,0.000000,4.000000,4.000000,4.000000,4.000000,4.000000,4.000000,4.000000,4.000000,4.000000,4.000000,4.000000,4.000000,4.000000,4.000000,100.000000,,,,,,,,,,,,,,,,,7.000000,0.000000,0.740675,-0.056580,-0.669434,-0.007568,0.989867,-0.071786,0.089855,-15.274504,-42.206036,67.387619
1703412026.630951,1703412026.632004,29.000000,0.000000,4237.948730,4224.871582,4302.051270,4266.153809,4199.871582,4177.051270,4198.461426,4187.307617,4176.410156,4169.358887,4558.846191,4460.000000,4362.948730,4475.256348,0.000000,3.000000,62.000000,,,,0.000000,4.000000,4.000000,4.000000,4.000000,4.000000,4.000000,4.000000,4.000000,4.000000,4.000000,4.000000,4.000000,4.000000,4.000000,100.000000,,,,,,,,,,,,,,,,,,,,,,,,,,,,
1703412026.638759,1703412026.639712,30.000000,0.000000,4222.051270,4218.333496,4299.230957,4262.692383,4202.820313,4198.333496,4204.102539,4186.025879,4169.230957,4142.307617,4560.512695,4452.820313,4365.769043,4475.384766,0.000000,3.000000,62.000000,,,,0.000000,4.000000,4.000000,4.000000,4.000000,4.000000,4.000000,4.000000,4.000000,4.000000,4.000000,4.000000,4.000000,4.000000,4.000000,100.000000,,,,,,,,,,,,,,,,,,,,,,,,,,,,
1703412026.646567,1703412026.647520,31.000000,0.000000,4216.538574,4217.692383,4290.384766,4258.717773,4204.871582,4218.333496,4207.436035,4180.512695,4170.128418,4180.512695,4567.692383,4456.282227,4367.179688,4462.051270,0.000000,3.000000,62.000000,,,,0.000000,4.000000,4.000000,4.000000,4.000000,4.000000,4.000000,4.000000,4.000000,4.000000,4.000000,4.000000,4.000000,4.000000,4.000000,100.000000,,,,,,,,,,,,,,,,,,,,,,,,,,,,
1703412026.654375,1703412026.655228,32.000000,0.000000,4216.794922,4220.512695,4289.871582,4255.897461,4201.666504,4222.307617,4205.384766,4176.794922,4180.641113,4207.179688,4571.153809,4454.358887,4367.948730,4458.461426,0.000000,3.000000,62.000000,,,,0.000000,4.000000,4.000000,4.000000,4.000000,4.000000,4.000000,4.000000,4.000000,4.000000,4.000000,4.000000,4.000000,4.000000,4.000000,100.000000,,,,,,,,,,,,,,,,,8.000000,0.000000,0.740666,-0.056702,-0.669434,-0.007568,0.993285,-0.068368,0.082530,-15.313720,-42.135433,67.465523
1703412026.662183,1703412026.663036,33.000000,0.000000,4218.077148,4214.743652,4294.230957,4249.230957,4198.205078,4219.615234,4208.846191,4182.051270,4187.179688,4179.615234,4570.512695,4447.948730,4365.256348,4462.051270,0.000000,3.000000,62.000000,,,,0.000000,4.000000,4.000000,4.000000,4.000000,4.000000,4.000000,4.000000,4.000000,4.000000,4.000000,4.000000,4.000000,4.000000,4.000000,100.000000,,,,,,,,,,,,,,,,,,,,,,,,,,,,
1703412026.669991,1703412026.670744,34.000000,0.000000,4217.051270,4199.230957,4288.333496,4241.153809,4199.358887,4218.333496,4209.871582,4185.128418,4174.358887,4178.205078,4564.871582,4442.948730,4357.948730,4452.307617,0.000000,3.000000,62.000000,,,,0.000000,4.000000,4.000000,4.000000,4.000000,4.000000,4.000000,4.000000,4.000000,4.000000,4.000000,4.000000,4.000000,4.000000,4.000000,100.000000,,,,,,,,,,,,,,,,,,,,,,,,,,,,
1703412026.677799,1703412026.678552,35.000000,0.000000,4202.948730,4194.487305,4287.692383,4242.692383,4203.333496,4220.000000,4210.641113,4184.487305,4172.563965,4207.051270,4565.512695,4449.102539,4360.512695,4451.025879,0.000000,3.000000,62.000000,,,,0.000000,4.000000,4.000000,4.000000,4.000000,4.000000,4.000000,4.000000,4.000000,4.000000,4.000000,4.000000,4.000000,4.000000,4.000000,100.000000,,,,,,,,,,,,,,,,,,,,,,,,,,,,
1703412026.685607,1703412026.686260,36.000000,0.000000,4198.589844,4203.461426,4293.333496,4247.179688,4199.871582,4222.820313,4212.692383,4188.077148,4188.077148,4200.641113,4569.487305,4457.179688,4367.563965,4465.897461,0.000000,3.000000,62.000000,,,,0.000000,4.000000,4.000000,4.000000,4.000000,4.000000,4.000000,4.000000,4.000000,4.000000,4.000000,4.000000,4.000000,4.000000,4.000000,100.000000,,,,,,,,,,,,,,,,,9.000000,0.000000,0.740762,-0.056885,-0.669312,-0.007629,0.990844,-0.067391,0.100598,-15.282348,-42.088554,67.485641
1703412026.693415,1703412026.694068,37.000000,0.000000,4214.743652,4202.307617,4286.410156,4245.769043,4188.589844,4221.025879,4208.717773,4187.820313,4180.897461,4167.436035,4556.282227,4442.563965,4357.820313,4457.820313,0.000000,3.000000,62.000000,,,,0.000000,4.000000,4.000000,4.000000,4.000000,4.000000,4.000000,4.000000,4.000000,4.000000,4.000000,4.000000,4.000000,4.000000,4.000000,100.000000,,,,,,,,,,,,,,,,,,,,,,,,,,,,
1703412026.701223,1703412026.701776,38.000000,0.000000,4218.461426,4198.205078,4279.230957,4246.666504,4187.948730,4214.871582,4208.077148,4182.307617,4168.205078,4159.358887,4545.384766,4430.256348,4347.179688,4443.077148,0.000000,3.000000,62.000000,,,,0.000000,4.000000,4.000000,4.000000,4.000000,4.000000,4.000000,4.000000,4.000000,4.000000,4.000000,4.000000,4.000000,4.000000,4.000000,100.000000,,,,,,,,,,,,,,,,,,,,,,,,,,,,
1703412026.709031,1703412026.709684,39.000000,0.000000,4205.000000,4207.948730,4281.794922,4251.666504,4201.538574,4215.897461,4211.410156,4183.333496,4179.230957,4176.666504,4557.563965,4440.384766,4357.820313,4453.333496,0.000000,3.000000,62.000000,,,,0.000000,4.000000,4.000000,4.000000,4.000000,4.000000,4.000000,4.000000,4.000000,4.000000,4.000000,4.000000,4.000000,4.000000,4.000000,100.000000,,,,,,,,,,,,,,,,,,,,,,,,,,,,
1703412026.716839,1703412026.717492,40.000000,0.000000,4203.461426,4217.436035,4284.230957,4254.615234,4205.256348,4218.205078,4212.179688,4185.641113,4186.025879,4175.897461,4561.538574,4447.948730,4368.333496,4453.461426,0.000000,3.000000,62.000000,,,,0.000000,4.000000,4.000000,4.000000,4.000000,4.000000,4.000000,4.000000,4.000000,4.000000,4.000000,4.000000,4.000000,4.000000,4.000000,100.000000,,,,,,,,,,,,,,,,,10.000000,0.000000,0.740917,-0.057007,-0.669128,-0.007751,0.969357,-0.062996,0.088878,-15.187447,-42.029701,67.553741
1703412026.724647,1703412026.725300,41.000000,0.000000,4216.282227,4219.871582,4287.692383,4259.743652,4200.128418,4217.948730,4212.563965,4182.179688,4178.333496,4168.461426,4551.410156,4454.871582,4367.436035,4434.871582,0.000000,3.000000,62.000000,,,,0.000000,4.000000,4.000000,4.000000,4.000000,4.000000,4.000000,4.000000,4.000000,4.000000,4.000000,4.000000,4.000000,4.000000,4.000000,100.000000,,,,,,,,,,,,,,,,,,,,,,,,,,,,
1703412026.732455,1703412026.733008,42.000000,0.000000,4221.153809,4221.922852,4288.974121,4264.743652,4204.230957,4218.461426,4211.025879,4175.384766,4174.487305,4175.384766,4552.051270,4465.256348,4370.000000,4449.230957,0.000000,3.000000,62.000000,,,,0.000000,4.000000,4.000000,4.000000,4.000000,4.000000,4.000000,4.000000,4.000000,4.000000,4.000000,4.000000,4.000000,4.000000,4.000000,100.000000,,,,,,,,,,,,,,,,,,,,,,,,,,,,
1703412026.740264,1703412026.740916,43.000000,0.000000,4216.410156,4217.820313,4285.000000,4259.358887,4201.025879,4216.666504,4208.974121,4171.538574,4169.743652,4164.487305,4554.615234,4453.205078,4367.820313,4480.256348,0.000000,3.000000,62.000000,,,,0.000000,4.000000,4.000000,4.000000,4.000000,4.000000,4.000000,4.000000,4.000000,4.000000,4.000000,4.000000,4.000000,4.000000,4.000000,100.000000,,,,,,,,,,,,,,,,,,,,,,,,,,,,
1703412026.748072,1703412026.748724,44.000000,0.000000,4216.538574,4207.051270,4289.230957,4252.948730,4194.871582,4214.743652,4211.794922,4177.436035,4168.846191,4155.128418,4551.153809,4439.230957,4355.769043,4471.153809,0.000000,3.000000,62.000000,,,,0.000000,4.000000,4.000000,4.000000,4.000000,4.000000,4.000000,4.000000,4.000000,4.000000,4.000000,4.000000,4.000000,4.000000,4.000000,100.000000,,,,,,,,,,,,,,,,,11.000000,0.000000,0.741012,-0.057190,-0.669006,-0.007813,0.990844,-0.067391,0.094738,-15.235369,-42.093395,67.448364
1703412026.755880,1703412026.756632,45.000000,0.000000,4213.205078,4193.333496,4292.051270,4246.410156,4207.692383,4215.512695,4208.846191,4184.487305,4178.333496,4183.589844,4549.487305,4443.333496,4347.820313,4446.025879,0.000000,3.000000,62.000000,,,,0.000000,4.000000,4.000000,4.000000,4.000000,4.000000,4.000000,4.000000,4.000000,4.000000,4.000000,4.000000,4.000000,4.000000,4.000000,100.000000,,,,,,,,,,,,,,,,,,,,,,,,,,,,
1703412026.763688,1703412026.764440,46.000000,0.000000,4199.102539,4185.769043,4279.102539,4234.743652,4215.384766,4214.743652,4205.384766,4183.333496,4182.820313,4186.794922,4553.077148,4443.077148,4347.307617,4440.512695,0.000000,3.000000,62.000000,,,,0.000000,4.000000,4.000000,4.000000,4.000000,4.000000,4.000000,4.000000,4.000000,4.000000,4.000000,4.000000,4.000000,4.000000,4.000000,100.000000,,,,,,,,,,,,,,,,,,,,,,,,,,,,
1703412026.771496,1703412026.772348,47.000000,0.000000,4196.922852,4192.436035,4275.000000,4234.487305,4204.615234,4214.358887,4215.128418,4185.769043,4185.897461,4162.948730,4564.102539,4443.461426,4355.641113,4446.794922,0.000000,3.000000,62.000000,,,,0.000000,4.000000,4.000000,4.000000,4.000000,4.000000,4.000000,4.000000,4.000000,4.000000,4.000000,4.000000,4.000000,4.000000,4.000000,100.000000,,,,,,,,,,,,,,,,,,,,,,,,,,,,
1703412026.779304,1703412026.780156,48.000000,0.000000,4206.410156,4202.692383,4280.128418,4248.717773,4198.589844,4217.563965,4219.102539,4190.256348,4186.025879,4183.974121,4570.769043,4447.820313,4370.641113,4455.641113,0.000000,3.000000,62.000000,,,,0.000000,4.000000,4.000000,4.000000,4.000000,4.000000,4.000000,4.000000,4.000000,4.000000,4.000000,4.000000,4.000000,4.000000,4.000000,100.000000,,,,,,,,,,,,,,,,,12.000000,0.000000,0.740957,-0.057190,-0.669067,-0.007813,1.004517,-0.056159,0.084483,-15.195165,-42.117390,67.486862
1703412026.787112,1703412026.788064,49.000000,0.000000,4203.077148,4200.256348,4275.128418,4248.717773,4199.871582,4213.589844,4212.051270,4180.384766,4176.025879,4202.307617,4565.384766,4443.333496,4370.769043,4445.256348,0.000000,3.000000,62.000000,,,,0.000000,4.000000,4.000000,4.000000,4.000000,4.000000,4.000000,4.000000,4.000000,4.000000,4.000000,4.000000,4.000000,4.000000,4.000000,100.000000,,,,,,,,,,,,,,,,,,,,,,,,,,,,
1703412026.794920,1703412026.795872,50.000000,0.000000,4199.871582,4201.282227,4275.000000,4241.282227,4197.820313,4205.000000,4210.384766,4169.358887,4173.589844,4182.307617,4565.000000,4441.794922,4363.717773,4431.410156,0.000000,3.000000,62.000000,,,,0.000000,4.000000,4.000000,4.000000,4.000000,4.000000,4.000000,4.000000,4.000000,4.000000,4.000000,4.000000,4.000000,4.000000,4.000000,100.000000,,,,,,,,,,,,,,,,,,,,,,,,,,,,
1703412026.802728,1703412026.803680,51.000000,0.000000,4216.538574,4214.615234,4287.948730,4255.641113,4201.025879,4207.179688,4213.077148,4170.128418,4178.589844,4185.641113,4569.615234,4444.743652,4369.871582,4458.077148,0.000000,3.000000,62.000000,,,,0.000000,4.000000,4.000000,4.000000,4.000000,4.000000,4.000000,4.000000,4.000000,4.000000,4.000000,4.000000,4.000000,4.000000,4.000000,100.000000,,,,,,,,,,,,,,,,,,,,,,,,,,,,
1703412026.810536,1703412026.811487,52.000000,0.000000,4222.051270,4218.461426,4298.589844,4268.589844,4203.589844,4212.436035,4213.461426,4172.948730,4174.871582,4187.051270,4561.922852,4444.743652,4373.205078,4481.538574,0.000000,3.000000,62.000000,,,,0.000000,4.000000,4.000000,4.000000,4.000000,4.000000,4.000000,4.000000,4.000000,4.000000,4.000000,4.000000,4.000000,4.000000,4.000000,100.000000,,,,,,,,,,,,,,,,,13.000000,0.000000,0.740907,-0.057129,-0.669128,-0.007751,0.987914,-0.060066,0.091808,-15.325648,-42.005653,67.438179
1703412026.818344,1703412026.819196,53.000000,0.000000,4213.846191,4213.077148,4302.692383,4263.205078,4206.025879,4215.000000,4211.282227,4170.897461,4166.153809,4151.538574,4550.641113,4448.461426,4367.563965,4462.692383,0.000000,3.000000,62.000000,,,,0.000000,4.000000,4.000000,4.000000,4.000000,4.000000,4.000000,4.000000,4.000000,4.000000,4.000000,4.000000,4.000000,4.000000,4.000000,100.000000,,,,,,,,,,,,,,,,,,,,,,,,,,,,
1703412026.826152,1703412026.827004,54.000000,0.000000,4228.717773,4217.436035,4302.563965,4263.205078,4216.153809,4214.871582,4212.692383,4171.282227,4167.820313,4151.410156,4552.051270,4451.153809,4364.615234,4455.769043,0.000000,3.000000,62.000000,,,,0.000000,4.000000,4.000000,4.000000,4.000000,4.000000,4.000000,4.000000,4.000000,4.000000,4.000000,4.000000,4.000000,4.000000,4.000000,100.000000,,,,,,,,,,,,,,,,,,,,,,,,,,,,
1703412026.833960,1703412026.834712,55.000000,0.000000,4234.358887,4216.410156,4295.897461,4266.282227,4210.897461,4208.077148,4217.436035,4173.974121,4170.897461,4178.461426,4555.384766,4447.179688,4360.641113,4465.641113,0.000000,3.000000,62.000000,,,,0.000000,4.000000,4.000000,4.000000,4.000000,4.000000,4.000000,4.000000,4.000000,4.000000,4.000000,4.000000,4.000000,4.000000,4.000000,100.000000,,,,,,,,,,,,,,,,,,,,,,,,,,,,
1703412026.841768,1703412026.842520,56.000000,0.000000,4212.051270,4205.000000,4291.794922,4256.922852,4197.307617,4205.897461,4216.025879,4173.717773,4171.794922,4176.538574,4549.487305,4447.179688,4356.666504,4454.487305,0.000000,3.000000,62.000000,,,,0.000000,4.000000,4.000000,4.000000,4.000000,4.000000,4.000000,4.000000,4.000000,4.000000,4.000000,4.000000,4.000000,4.000000,4.000000,100.000000,,,,,,,,,,,,,,,,,14.000000,0.000000,0.740768,-0.056824,-0.669312,-0.007507,0.985960,-0.078135,0.085460,-15.226418,-42.121754,67.561028
1703412026.849576,1703412026.850228,57.000000,0.000000,4213.974121,4201.538574,4294.615234,4248.846191,4207.436035,4214.743652,4216.666504,4172.179688,4173.974121,4182.820313,4553.077148,4450.512695,4364.230957,4456.794922,0.000000,3.000000,62.000000,,,,0.000000,4.000000,4.000000,4.000000,4.000000,4.000000,4.000000,4.000000,4.000000,4.000000,4.000000,4.000000,4.000000,4.000000,4.000000,100.000000,,,,,,,,,,,,,,,,,,,,,,,,,,,,
1703412026.857384,1703412026.858036,58.000000,0.000000,4235.512695,4203.333496,4294.102539,4250.769043,4215.128418,4216.922852,4218.846191,4170.641113,4174.487305,4203.333496,4568.717773,4446.666504,4372.563965,4486.282227,0.000000,3.000000,62.000000,,,,0.000000,4.000000,4.000000,4.000000,4.000000,4.000000,4.000000,4.000000,4.000000,4.000000,4.000000,4.000000,4.000000,4.000000,4.000000,100.000000,,,,,,,,,,,,,,,,,,,,,,,,,,,,
1703412026.865192,1703412026.865744,59.000000,0.000000,4235.256348,4200.000000,4294.487305,4250.000000,4198.589844,4207.051270,4214.871582,4172.563965,4175.512695,4196.410156,4566.922852,4444.743652,4368.333496,4491.794922,0.000000,3.000000,62.000000,,,,0.000000,4.000000,4.000000,4.000000,4.000000,4.000000,4.000000,4.000000,4.000000,4.000000,4.000000,4.000000,4.000000,4.000000,4.000000,100.000000,,,,,,,,,,,,,,,,,,,,,,,,,,,,
1703412026.873001,1703412026.873552,60.000000,0.000000,4226.922852,4201.153809,4292.051270,4246.025879,4192.948730,4203.846191,4214.743652,4174.230957,4172.563965,4165.000000,4553.077148,4448.333496,4363.589844,4476.282227,0.000000,3.000000,62.000000,,,,0.000000,4.000000,4.000000,4.000000,4.000000,4.000000,4.000000,4.000000,4.000000,4.000000,4.000000,4.000000,4.000000,4.000000,4.000000,100.000000,,,,,,,,,,,,,,,,,15.000000,0.000000,0.740687,-0.056458,-0.669434,-0.007324,0.986937,-0.081553,0.088878,-15.220442,-41.976246,67.504921
1703412026.880808,1703412026.881260,61.000000,0.000000,4222.948730,4201.666504,4283.717773,4247.436035,4195.512695,4203.461426,4217.948730,4171.794922,4169.358887,4152.948730,4555.512695,4446.410156,4363.461426,4470.256348,0.000000,3.000000,62.000000,,,,0.000000,4.000000,4.000000,4.000000,4.000000,4.000000,4.000000,4.000000,4.000000,4.000000,4.000000,4.000000,4.000000,4.000000,4.000000,100.000000,,,,,,,,,,,,,,,,,,,,,,,,,,,,
1703412026.888616,1703412026.889168,62.000000,0.000000,4214.871582,4196.282227,4282.051270,4255.769043,4190.512695,4199.358887,4213.846191,4168.205078,4170.641113,4176.538574,4562.307617,4442.563965,4362.692383,4463.077148,0.000000,3.000000,62.000000,,,,0.000000,4.000000,4.000000,4.000000,4.000000,4.000000,4.000000,4.000000,4.000000,4.000000,4.000000,4.000000,4.000000,4.000000,4.000000,100.000000,,,,,,,,,,,,,,,,,,,,,,,,,,,,
1703412026.896425,1703412026.896976,63.000000,0.000000,4218.461426,4204.615234,4286.794922,4263.205078,4195.897461,4199.102539,4210.000000,4166.922852,4162.436035,4185.128418,4552.436035,4444.743652,4361.538574,4455.897461,0.000000,3.000000,62.000000,,,,0.000000,4.000000,4.000000,4.000000,4.000000,4.000000,4.000000,4.000000,4.000000,4.000000,4.000000,4.000000,4.000000,4.000000,4.000000,100.000000,,,,,,,,,,,,,,,,,,,,,,,,,,,,
1703412026.904233,1703412026.904883,64.000000,0.000000,4234.102539,4214.615234,4287.948730,4263.846191,4206.282227,4201.794922,4214.102539,4169.615234,4154.871582,4159.230957,4550.128418,4446.666504,4363.077148,4469.871582,5110.000000,3.000000,62.000000,,,,0.000000,4.000000,4.000000,4.000000,4.000000,4.000000,4.000000,4.000000,4.000000,4.000000,4.000000,4.000000,4.000000,4.000000,4.000000,100.000000,,,,,,,,,,,,,,,,,16.000000,0.000000,0.740854,-0.056458,-0.669250,-0.007202,0.987425,-0.088390,0.095715,-15.065064,-41.978619,67.554428
1703412026.912041,1703412026.912691,65.000000,0.000000,4237.307617,4207.307617,4292.563965,4262.948730,4200.769043,4201.153809,4217.179688,4169.358887,4164.615234,4158.589844,4566.410156,4449.358887,4370.641113,4481.282227,5450.000000,3.000000,62.000000,,,,0.000000,4.000000,4.000000,4.000000,4.000000,4.000000,4.000000,4.000000,4.000000,4.000000,4.000000,4.000000,4.000000,4.000000,4.000000,100.000000,,,,,,,,,,,,,,,,,,,,,,,,,,,,
1703412026.919849,1703412026.920599,66.000000,0.000000,4230.897461,4207.820313,4307.051270,4266.794922,4195.512695,4199.871582,4215.000000,4168.589844,4173.205078,4186.922852,4574.358887,4457.820313,4380.769043,4476.410156,5267.000000,3.000000,62.000000,,,,0.000000,4.000000,4.000000,4.000000,4.000000,4.000000,4.000000,4.000000,4.000000,4.000000,4.000000,4.000000,4.000000,4.000000,4.000000,100.000000,,,,,,,,,,,,,,,,,,,,,,,,,,,,
1703412026.927657,1703412026.928407,67.000000,0.000000,4235.000000,4215.512695,4311.410156,4266.410156,4200.897461,4202.692383,4214.743652,4176.025879,4171.410156,4186.922852,4568.205078,4463.846191,4386.410156,4482.820313,5365.000000,3.000000,62.000000,,,,0.000000,4.000000,4.000000,4.000000,4.000000,4.000000,4.000000,4.000000,4.000000,4.000000,4.000000,4.000000,4.000000,4.000000,4.000000,100.000000,,,,,,,,,,,,,,,,,,,,,,,,,,,,
1703412026.935465,1703412026.936215,68.000000,0.000000,4243.717773,4209.102539,4305.769043,4263.846191,4202.948730,4204.230957,4217.563965,4186.153809,4179.487305,4180.000000,4569.615234,4463.717773,4387.179688,4496.538574,5140.000000,3.000000,62.000000,,,,0.000000,4.000000,4.000000,4.000000,4.000000,4.000000,4.000000,4.000000,4.000000,4.000000,4.000000,4.000000,4.000000,4.000000,4.000000,100.000000,,,,,,,,,,,,,,,,,17.000000,0.000000,0.740836,-0.056641,-0.669250,-0.007629,0.977658,-0.085460,0.092296,-15.191892,-41.864090,67.515656
1703412026.943273,1703412026.943923,69.000000,0.000000,4235.128418,4202.436035,4306.922852,4262.820313,4195.512695,4200.641113,4217.948730,4187.051270,4187.179688,4191.794922,4579.230957,4462.436035,4388.974121,4497.948730,3057.000000,3.000000,62.000000,,,,0.000000,4.000000,4.000000,4.000000,4.000000,4.000000,4.000000,4.000000,4.000000,4.000000,4.000000,4.000000,4.000000,4.000000,4.000000,100.000000,,,,,,,,,,,,,,,,,,,,,,,,,,,,
1703412026.951081,1703412026.951831,70.000000,0.000000,4224.615234,4197.948730,4306.538574,4255.384766,4188.974121,4199.358887,4217.307617,4178.589844,4176.153809,4187.436035,4566.666504,4456.410156,4380.769043,4492.307617,2029.000000,3.000000,62.000000,,,,0.000000,4.000000,4.000000,4.000000,4.000000,4.000000,4.000000,4.000000,4.000000,4.000000,4.000000,4.000000,4.000000,4.000000,4.000000,100.000000,,,,,,,,,,,,,,,,,,,,,,,,,,,,
1703412026.958889,1703412026.959639,71.000000,0.000000,4233.077148,4187.563965,4299.102539,4244.871582,4190.128418,4202.051270,4218.077148,4176.410156,4165.384766,4181.282227,4554.487305,4447.563965,4372.307617,4493.974121,5055.000000,3.000000,62.000000,,,,0.000000,4.000000,4.000000,4.000000,4.000000,4.000000,4.000000,4.000000,4.000000,4.000000,4.000000,4.000000,4.000000,4.000000,4.000000,100.000000,,,,,,,,,,,,,,,,,,,,,,,,,,,,
1703412026.966697,1703412026.967547,72.000000,0.000000,4234.102539,4179.487305,4291.282227,4240.128418,4190.641113,4202.307617,4217.051270,4177.820313,4167.436035,4184.615234,4563.461426,4442.436035,4372.307617,4491.282227,4520.000000,3.000000,62.000000,,,,0.000000,4.000000,4.000000,4.000000,4.000000,4.000000,4.000000,4.000000,4.000000,4.000000,4.000000,4.000000,4.000000,4.000000,4.000000,100.000000,,,,,,,,,,,,,,,,,18.000000,0.000000,0.740812,-0.056885,-0.669250,-0.008057,0.978635,-0.064949,0.096691,-15.289369,-41.861015,67.414093
1703412026.974505,1703412026.975355,73.000000,0.000000,4220.256348,4181.794922,4288.846191,4244.743652,4191.153809,4200.384766,4213.717773,4171.153809,4170.641113,4173.461426,4564.487305,4441.410156,4363.974121,4481.282227,5230.000000,3.000000,62.000000,,,,0.000000,4.000000,4.000000,4.000000,4.000000,4.000000,4.000000,4.000000,4.000000,4.000000,4.000000,4.000000,4.000000,4.000000,4.000000,100.000000,,,,,,,,,,,,,,,,,,,,,,,,,,,,
1703412026.982313,1703412026.983263,74.000000,0.000000,4215.897461,4191.922852,4289.358887,4250.256348,4194.743652,4200.128418,4213.461426,4163.461426,4164.743652,4160.897461,4550.769043,4441.794922,4352.948730,4483.077148,5958.000000,3.000000,62.000000,,,,0.000000,4.000000,4.000000,4.000000,4.000000,4.000000,4.000000,4.000000,4.000000,4.000000,4.000000,4.000000,4.000000,4.000000,4.000000,100.000000,1.000000,83.333336,4.000000,4.000000,4.000000,4.000000,4.000000,3.000000,4.000000,4.000000,4.000000,3.000000,4.000000,4.000000,4.000000,4.000000,,,,,,,,,,,,
1703412026.990121,1703412026.991071,75.000000,0.000000,4218.589844,4201.410156,4293.461426,4252.179688,4196.410156,4200.512695,4216.025879,4165.641113,4158.589844,4164.102539,4547.820313,4438.461426,4354.615234,4489.743652,6088.000000,3.000000,62.000000,,,,0.000000,4.000000,4.000000,4.000000,4.000000,4.000000,4.000000,4.000000,4.000000,4.000000,4.000000,4.000000,4.000000,4.000000,4.000000,100.000000,,,,,,,,,,,,,,,,,,,,,,,,,,,,
1703412026.997929,1703412026.998979,76.000000,0.000000,4224.487305,4204.102539,4298.077148,4258.077148,4200.128418,4200.000000,4216.410156,4170.897461,4166.025879,4171.538574,4562.179688,4437.436035,4368.846191,4491.666504,6634.000000,3.000000,62.000000,,,,0.000000,4.000000,4.000000,4.000000,4.000000,4.000000,4.000000,4.000000,4.000000,4.000000,4.000000,4.000000,4.000000,4.000000,4.000000,100.000000,,,,,,,,,,,,,,,,,19.000000,0.000000,0.740857,-0.057007,-0.669189,-0.008179,0.993774,-0.064949,0.083995,-15.377099,-41.908249,67.406013
1703412027.005737,1703412027.006787,77.000000,0.000000,4233.589844,4203.333496,4298.333496,4265.256348,4202.820313,4201.282227,4215.384766,4170.512695,4175.000000,4173.461426,4568.461426,4441.666504,4376.666504,4489.743652,6983.000000,3.000000,62.000000,,,,0.000000,4.000000,4.000000,4.000000,4.000000,4.000000,4.000000,4.000000,4.000000,4.000000,4.000000,4.000000,4.000000,4.000000,4.000000,100.000000,,,,,,,,,,,,,,,,,,,,,,,,,,,,
1703412027.013545,1703412027.014495,78.000000,0.000000,4234.743652,4206.153809,4297.051270,4263.589844,4194.230957,4204.102539,4215.384766,4170.641113,4172.948730,4181.282227,4563.077148,4445.128418,4374.102539,4484.358887,5958.000000,3.000000,62.000000,,,,0.000000,4.000000,4.000000,4.000000,4.000000,4.000000,4.000000,4.000000,4.000000,4.000000,4.000000,4.000000,4.000000,4.000000,4.000000,100.000000,,,,,,,,,,,,,,,,,,,,,,,,,,,,
1703412027.021353,1703412027.022303,79.000000,0.000000,4232.179688,4202.436035,4295.512695,4257.179688,4185.000000,4203.077148,4215.512695,4171.922852,4168.846191,4178.077148,4562.179688,4446.922852,4365.512695,4471.282227,6088.000000,3.000000,62.000000,,,,0.000000,4.000000,4.000000,4.000000,4.000000,4.000000,4.000000,4.000000,4.000000,4.000000,4.000000,4.000000,4.000000,4.000000,4.000000,100.000000,,,,,,,,,,,,,,,,,,,,,,,,,,,,
1703412027.029162,1703412027.030011,80.000000,0.000000,4235.256348,4189.230957,4295.512695,4252.820313,4180.769043,4197.948730,4215.000000,4170.769043,4168.461426,4168.461426,4567.820313,4446.538574,4364.487305,4470.384766,6634.000000,3.000000,62.000000,,,,0.000000,4.000000,4.000000,4.000000,4.000000,4.000000,4.000000,4.000000,4.000000,4.000000,4.000000,4.000000,4.000000,4.000000,4.000000,100.000000,,,,,,,,,,,,,,,,,20.000000,0.000000,0.740858,-0.057007,-0.669189,-0.008057,0.985960,-0.061531,0.092296,-15.406055,-41.817421,67.532082
1703412027.036970,1703412027.037819,81.000000,0.000000,4224.358887,4178.589844,4295.512695,4239.102539,4180.384766,4199.230957,4215.384766,4168.461426,4167.436035,4180.512695,4567.436035,4442.307617,4372.179688,4485.256348,6983.000000,3.000000,62.000000,,,,0.000000,4.000000,4.000000,4.000000,4.000000,4.000000,4.000000,4.000000,4.000000,4.000000,4.000000,4.000000,4.000000,4.000000,4.000000,100.000000,,,,,,,,,,,,,,,,,,,,,,,,,,,,
1703412027.044778,1703412027.045527,82.000000,0.000000,4215.512695,4180.128418,4296.538574,4226.922852,4190.769043,4206.153809,4218.333496,4165.512695,4168.589844,4176.666504,4563.846191,4447.307617,4374.230957,4490.897461,5958.000000,3.000000,62.000000,,,,0.000000,4.000000,4.000000,4.000000,4.000000,4.000000,4.000000,4.000000,4.000000,4.000000,4.000000,4.000000,4.000000,4.000000,4.000000,100.000000,,,,,,,,,,,,,,,,,,,,,,,,,,,,
1703412027.052586,1703412027.053335,83.000000,0.000000,4237.692383,4189.615234,4301.666504,4235.384766,4196.666504,4204.487305,4217.563965,4166.282227,4169.743652,4153.333496,4566.794922,4459.358887,4377.820313,4491.538574,6088.000000,3.000000,62.000000,,,,0.000000,4.000000,4.000000,4.000000,4.000000,4.000000,4.000000,4.000000,4.000000,4.000000,4.000000,4.000000,4.000000,4.000000,4.000000,100.000000,,,,,,,,,,,,,,,,,,,,,,,,,,,,
1703412027.060394,1703412027.061043,84.000000,0.000000,4249.743652,4191.153809,4310.897461,4249.487305,4191.153809,4202.692383,4220.769043,4173.333496,4164.871582,4162.307617,4566.922852,4460.897461,4385.384766,4499.871582,6634.000000,3.000000,62.000000,,,,0.000000,4.000000,4.000000,4.000000,4.000000,4.000000,4.000000,4.000000,4.000000,4.000000,4.000000,4.000000,4.000000,4.000000,4.000000,100.000000,,,,,,,,,,,,,,,,,21.000000,0.000000,0.740837,-0.056641,-0.669250,-0.007507,0.987425,-0.081065,0.103040,-15.298783,-41.819016,67.562202
1703412027.068202,1703412027.068851,85.000000,0.000000,4242.179688,4195.641113,4321.282227,4259.102539,4195.000000,4209.102539,4225.769043,4184.102539,4168.974121,4200.769043,4579.230957,4472.563965,4400.256348,4503.974121,6983.000000,3.000000,62.000000,,,,0.000000,4.000000,4.000000,4.000000,4.000000,4.000000,4.000000,4.000000,4.000000,4.000000,4.000000,4.000000,4.000000,4.000000,4.000000,100.000000,,,,,,,,,,,,,,,,,,,,,,,,,,,,
1703412027.076010,1703412027.076559,86.000000,0.000000,4252.436035,4211.025879,4323.077148,4269.358887,4210.897461,4209.615234,4224.487305,4188.846191,4181.922852,4208.717773,4598.974121,4492.436035,4412.051270,4500.769043,5958.000000,3.000000,62.000000,,,,0.000000,4.000000,4.000000,4.000000,4.000000,4.000000,4.000000,4.000000,4.000000,4.000000,4.000000,4.000000,4.000000,4.000000,4.000000,100.000000,,,,,,,,,,,,,,,,,,,,,,,,,,,,
1703412027.083818,1703412027.084467,87.000000,0.000000,4261.025879,4216.922852,4315.641113,4270.769043,4213.717773,4202.307617,4223.333496,4180.641113,4172.948730,4182.948730,4590.769043,4479.615234,4402.692383,4508.717773,6088.000000,3.000000,62.000000,,,,0.000000,4.000000,4.000000,4.000000,4.000000,4.000000,4.000000,4.000000,4.000000,4.000000,4.000000,4.000000,4.000000,4.000000,4.000000,100.000000,,,,,,,,,,,,,,,,,,,,,,,,,,,,
1703412027.091626,1703412027.092275,88.000000,0.000000,4240.641113,4205.897461,4304.743652,4263.205078,4202.820313,4199.358887,4220.897461,4167.179688,4151.538574,4171.794922,4567.563965,4446.794922,4382.307617,4510.769043,6634.000000,3.000000,62.000000,,,,0.000000,4.000000,4.000000,4.000000,4.000000,4.000000,4.000000,4.000000,4.000000,4.000000,4.000000,4.000000,4.000000,4.000000,4.000000,100.000000,,,,,,,,,,,,,,,,,22.000000,0.000000,0.740697,-0.056335,-0.669434,-0.007263,0.977658,-0.078623,0.095715,-15.335571,-41.870445,67.339317
1703412027.099434,1703412027.100083,89.000000,0.000000,4228.077148,4196.794922,4297.051270,4256.282227,4193.974121,4201.538574,4220.256348,4164.487305,4155.128418,4168.333496,4569.615234,4442.948730,4377.563965,4492.436035,6983.000000,3.000000,62.000000,,,,0.000000,4.000000,4.000000,4.000000,4.000000,4.000000,4.000000,4.000000,4.000000,4.000000,4.000000,4.000000,4.000000,4.000000,4.000000,100.000000,,,,,,,,,,,,,,,,,,,,,,,,,,,,
1703412027.107242,1703412027.107791,90.000000,0.000000,4234.871582,4201.153809,4295.512695,4251.282227,4190.384766,4202.436035,4222.307617,4174.871582,4171.922852,4170.256348,4588.333496,4466.153809,4393.077148,4489.230957,5958.000000,3.000000,62.000000,,,,0.000000,4.000000,4.000000,4.000000,4.000000,4.000000,4.000000,4.000000,4.000000,4.000000,4.000000,4.000000,4.000000,4.000000,4.000000,100.000000,,,,,,,,,,,,,,,,,,,,,,,,,,,,
1703412027.115050,1703412027.115599,91.000000,0.000000,4235.000000,4204.487305,4296.410156,4253.461426,4191.410156,4201.922852,4223.077148,4180.384766,4173.461426,4187.692383,4598.589844,4478.205078,4404.230957,4510.000000,6088.000000,3.000000,62.000000,,,,0.000000,4.000000,4.000000,4.000000,4.000000,4.000000,4.000000,4.000000,4.000000,4.000000,4.000000,4.000000,4.000000,4.000000,4.000000,100.000000,,,,,,,,,,,,,,,,,,,,,,,,,,,,
1703412027.122858,1703412027.123307,92.000000,0.000000,4233.333496,4201.410156,4298.717773,4259.102539,4187.563965,4201.153809,4222.948730,4174.487305,4168.461426,4194.615234,4598.589844,4474.102539,4404.743652,4514.230957,6634.000000,3.000000,62.000000,,,,0.000000,4.000000,4.000000,4.000000,4.000000,4.000000,4.000000,4.000000,4.000000,4.000000,4.000000,4.000000,4.000000,4.000000,4.000000,100.000000,,,,,,,,,,,,,,,,,23.000000,0.000000,0.740445,-0.056030,-0.669739,-0.007202,0.975217,-0.065438,0.093761,-15.385347,-41.850067,67.322052
1703412027.130666,1703412027.131115,93.000000,0.000000,4233.077148,4199.102539,4300.512695,4253.461426,4182.948730,4201.153809,4220.769043,4169.358887,4170.256348,4179.487305,4592.692383,4473.461426,4406.153809,4493.461426,6983.000000,3.000000,62.000000,,,,0.000000,4.000000,4.000000,4.000000,4.000000,4.000000,4.000000,4.000000,4.000000,4.000000,4.000000,4.000000,4.000000,4.000000,4.000000,100.000000,,,,,,,,,,,,,,,,,,,,,,,,,,,,
1703412027.138474,1703412027.138823,94.000000,0.000000,4232.307617,4199.743652,4297.948730,4245.769043,4190.256348,4202.436035,4222.307617,4171.025879,4172.692383,4175.256348,4591.538574,4480.769043,4412.051270,4488.461426,5958.000000,3.000000,62.000000,,,,0.000000,4.000000,4.000000,4.000000,4.000000,4.000000,4.000000,4.000000,4.000000,4.000000,4.000000,4.000000,4.000000,4.000000,4.000000,100.000000,,,,,,,,,,,,,,,,,,,,,,,,,,,,
1703412027.146282,1703412027.146731,95.000000,0.000000,4232.948730,4197.307617,4296.153809,4246.410156,4200.897461,4202.436035,4223.846191,4177.948730,4172.692383,4197.436035,4603.333496,4481.666504,4417.307617,4508.461426,6088.000000,3.000000,62.000000,,,,0.000000,4.000000,4.000000,4.000000,4.000000,4.000000,4.000000,4.000000,4.000000,4.000000,4.000000,4.000000,4.000000,4.000000,4.000000,100.000000,,,,,,,,,,,,,,,,,,,,,,,,,,,,
1703412027.154090,1703412027.154539,96.000000,0.000000,4233.333496,4196.153809,4301.666504,4252.307617,4199.230957,4203.077148,4222.820313,4184.871582,4173.717773,4209.230957,4607.307617,4476.666504,4418.205078,4514.102539,6634.000000,3.000000,62.000000,,,,0.000000,4.000000,4.000000,4.000000,4.000000,4.000000,4.000000,4.000000,4.000000,4.000000,4.000000,4.000000,4.000000,4.000000,4.000000,100.000000,,,,,,,,,,,,,,,,,24.000000,0.000000,0.740299,-0.055725,-0.669922,-0.007507,0.989867,-0.062508,0.084971,-15.296813,-41.915062,67.356514
1703412027.161898,1703412027.162447,97.000000,0.000000,4234.487305,4199.230957,4303.333496,4258.589844,4198.974121,4202.820313,4222.051270,4183.077148,4175.512695,4196.025879,4591.794922,4478.461426,4415.000000,4487.307617,6983.000000,3.000000,62.000000,,,,0.000000,4.000000,4.000000,4.000000,4.000000,4.000000,4.000000,4.000000,4.000000,4.000000,4.000000,4.000000,4.000000,4.000000,4.000000,100.000000,,,,,,,,,,,,,,,,,,,,,,,,,,,,
1703412027.169706,1703412027.170255,98.000000,0.000000,4227.051270,4194.230957,4296.282227,4255.128418,4202.179688,4200.769043,4222.948730,4172.307617,4170.384766,4183.589844,4582.436035,4472.948730,4405.000000,4467.307617,5958.000000,3.000000,62.000000,,,,0.000000,4.000000,4.000000,4.000000,4.000000,4.000000,4.000000,4.000000,4.000000,4.000000,4.000000,4.000000,4.000000,4.000000,4.000000,100.000000,,,,,,,,,,,,,,,,,,,,,,,,,,,,
1703412027.177514,1703412027.178162,99.000000,0.000000,4217.820313,4189.230957,4294.230957,4249.102539,4189.487305,4200.000000,4221.666504,4166.410156,4163.205078,4182.051270,4584.358887,4457.820313,4398.846191,4476.922852,6088.000000,3.000000,62.000000,,,,0.000000,4.000000,4.000000,4.000000,4.000000,4.000000,4.000000,4.000000,4.000000,4.000000,4.000000,4.000000,4.000000,4.000000,4.000000,100.000000,,,,,,,,,,,,,,,,,,,,,,,,,,,,
1703412027.185322,1703412027.185970,100.000000,0.000000,4221.282227,4198.461426,4297.179688,4258.077148,4184.230957,4201.153809,4218.333496,4169.358887,4167.948730,4175.897461,4578.974121,4455.897461,4395.384766,4474.358887,6634.000000,3.000000,62.000000,,,,0.000000,4.000000,4.000000,4.000000,4.000000,4.000000,4.000000,4.000000,4.000000,4.000000,4.000000,4.000000,4.000000,4.000000,4.000000,100.000000,,,,,,,,,,,,,,,,,25.000000,0.000000,0.740247,-0.055664,-0.669983,-0.007690,0.988402,-0.064949,0.094738,-15.400465,-41.840221,67.254196
