title:الما حذف, start timestamp:1703405421.069481, stop timestamp:1703405431.907059, headset type:EPOCX, headset serial:E50206EF, headset firmware:720, channels:67, sampling rate:eeg_128;mot_32, samples:1389      , version:2.2, 
Timestamp,OriginalTimestamp,EEG.Counter,EEG.Interpolated,EEG.AF3,EEG.F7,EEG.F3,EEG.FC5,EEG.T7,EEG.P7,EEG.O1,EEG.O2,EEG.P8,EEG.T8,EEG.FC6,EEG.F4,EEG.F8,EEG.AF4,EEG.RawCq,EEG.Battery,EEG.BatteryPercent,MarkerIndex,MarkerType,MarkerValueInt,EEG.MarkerHardware,CQ.AF3,CQ.F7,CQ.F3,CQ.FC5,CQ.T7,CQ.P7,CQ.O1,CQ.O2,CQ.P8,CQ.T8,CQ.FC6,CQ.F4,CQ.F8,CQ.AF4,CQ.Overall,EQ.SampleRateQuality,EQ.OVERALL,EQ.AF3,EQ.F7,EQ.F3,EQ.FC5,EQ.T7,EQ.P7,EQ.O1,EQ.O2,EQ.P8,EQ.T8,EQ.FC6,EQ.F4,EQ.F8,EQ.AF4,MOT.CounterMems,MOT.InterpolatedMems,MOT.Q0,MOT.Q1,MOT.Q2,MOT.Q3,MOT.AccX,MOT.AccY,MOT.AccZ,MOT.MagX,MOT.MagY,MOT.MagZ
1703405421.069481,1703405421.069753,63.000000,0.000000,4222.179688,4164.487305,4289.102539,4245.256348,4183.461426,4140.384766,4277.563965,4159.743652,4157.820313,4153.846191,4647.051270,4467.179688,4430.641113,4541.666504,0.000000,4.000000,81.000000,,,,0.000000,4.000000,4.000000,4.000000,4.000000,4.000000,4.000000,2.000000,4.000000,4.000000,4.000000,4.000000,4.000000,4.000000,4.000000,83.333336,,,,,,,,,,,,,,,,,,,,,,,,,,,,
1703405421.077289,1703405421.077461,64.000000,0.000000,4219.487305,4160.641113,4282.563965,4250.769043,4176.538574,4141.153809,4269.358887,4147.051270,4146.282227,4159.871582,4633.589844,4451.153809,4420.769043,4539.487305,4752.000000,4.000000,81.000000,,,,0.000000,4.000000,4.000000,4.000000,4.000000,4.000000,4.000000,2.000000,4.000000,4.000000,4.000000,4.000000,4.000000,4.000000,4.000000,83.333336,,,,,,,,,,,,,,,,,16.000000,0.000000,0.681801,-0.185364,-0.687988,-0.165710,0.994750,-0.047857,-0.016604,-15.246931,-37.787201,62.676899
1703405421.085097,1703405421.085269,65.000000,0.000000,4206.410156,4155.512695,4272.692383,4246.666504,4185.000000,4136.666504,4266.153809,4148.717773,4153.846191,4170.897461,4622.179688,4438.717773,4415.000000,4526.025879,5333.000000,4.000000,81.000000,,,,0.000000,4.000000,4.000000,4.000000,4.000000,4.000000,4.000000,2.000000,4.000000,4.000000,4.000000,4.000000,4.000000,4.000000,4.000000,83.333336,,,,,,,,,,,,,,,,,,,,,,,,,,,,
1703405421.092905,1703405421.092977,66.000000,0.000000,4200.769043,4154.230957,4269.743652,4236.666504,4197.436035,4141.410156,4272.051270,4177.820313,4176.794922,4174.615234,4631.153809,4449.487305,4423.974121,4525.769043,5118.000000,4.000000,81.000000,,,,0.000000,4.000000,4.000000,4.000000,4.000000,4.000000,4.000000,2.000000,4.000000,4.000000,4.000000,4.000000,4.000000,4.000000,4.000000,83.333336,,,,,,,,,,,,,,,,,,,,,,,,,,,,
1703405421.100713,1703405421.100885,67.000000,0.000000,4204.615234,4156.153809,4271.538574,4236.025879,4197.307617,4148.461426,4273.846191,4187.692383,4171.666504,4166.153809,4636.153809,4458.717773,4421.025879,4534.615234,5300.000000,4.000000,81.000000,,,,0.000000,4.000000,4.000000,4.000000,4.000000,4.000000,4.000000,2.000000,4.000000,4.000000,4.000000,4.000000,4.000000,4.000000,4.000000,83.333336,,,,,,,,,,,,,,,,,,,,,,,,,,,,
1703405421.108521,1703405421.108693,68.000000,0.000000,4205.000000,4155.641113,4276.922852,4239.102539,4188.333496,4141.666504,4269.871582,4172.307617,4163.077148,4161.794922,4631.025879,4459.871582,4412.692383,4538.205078,5080.000000,4.000000,81.000000,,,,0.000000,4.000000,4.000000,4.000000,4.000000,4.000000,4.000000,2.000000,4.000000,4.000000,4.000000,4.000000,4.000000,4.000000,4.000000,83.333336,,,,,,,,,,,,,,,,,17.000000,0.000000,0.681810,-0.185059,-0.687988,-0.166016,1.009889,-0.023929,-0.007813,-15.022238,-37.775146,62.742542
1703405421.116330,1703405421.116601,69.000000,0.000000,4204.358887,4153.974121,4283.974121,4238.333496,4183.846191,4128.205078,4264.871582,4169.615234,4169.102539,4171.025879,4630.256348,4463.205078,4411.794922,4532.692383,4595.000000,4.000000,81.000000,,,,0.000000,4.000000,4.000000,4.000000,4.000000,4.000000,4.000000,2.000000,4.000000,4.000000,4.000000,4.000000,4.000000,4.000000,4.000000,83.333336,,,,,,,,,,,,,,,,,,,,,,,,,,,,
1703405421.124138,1703405421.124409,70.000000,0.000000,4207.948730,4159.743652,4288.846191,4243.077148,4184.743652,4126.282227,4268.333496,4171.538574,4158.461426,4172.820313,4636.282227,4462.820313,4415.000000,4526.922852,1429.000000,4.000000,81.000000,,,,0.000000,4.000000,4.000000,4.000000,4.000000,4.000000,4.000000,2.000000,4.000000,4.000000,4.000000,4.000000,4.000000,4.000000,4.000000,83.333336,,,,,,,,,,,,,,,,,,,,,,,,,,,,
1703405421.131945,1703405421.132317,71.000000,0.000000,4210.128418,4165.256348,4289.871582,4252.692383,4187.948730,4127.436035,4270.128418,4154.102539,4131.410156,4158.974121,4634.743652,4455.897461,4414.230957,4525.897461,5165.000000,4.000000,81.000000,,,,0.000000,4.000000,4.000000,4.000000,4.000000,4.000000,4.000000,2.000000,4.000000,4.000000,4.000000,4.000000,4.000000,4.000000,4.000000,83.333336,,,,,,,,,,,,,,,,,,,,,,,,,,,,
1703405421.139754,1703405421.140125,72.000000,0.000000,4203.717773,4159.358887,4286.794922,4247.436035,4188.205078,4126.666504,4264.102539,4135.000000,4116.922852,4148.846191,4618.461426,4446.282227,4403.974121,4519.871582,5046.000000,4.000000,81.000000,,,,0.000000,4.000000,4.000000,4.000000,4.000000,4.000000,4.000000,2.000000,4.000000,4.000000,4.000000,4.000000,4.000000,4.000000,4.000000,83.333336,,,,,,,,,,,,,,,,,18.000000,0.000000,0.681755,-0.184814,-0.688049,-0.166260,0.974728,-0.025882,-0.010255,-14.953347,-37.797634,62.584957
1703405421.147562,1703405421.148033,73.000000,0.000000,4192.692383,4147.948730,4279.230957,4234.743652,4185.256348,4132.051270,4264.230957,4133.974121,4119.102539,4152.051270,4609.743652,4437.948730,4393.461426,4505.384766,5106.000000,4.000000,81.000000,,,,0.000000,4.000000,4.000000,4.000000,4.000000,4.000000,4.000000,2.000000,4.000000,4.000000,4.000000,4.000000,4.000000,4.000000,4.000000,83.333336,1.000000,66.666664,4.000000,4.000000,4.000000,4.000000,3.000000,4.000000,2.000000,4.000000,3.000000,3.000000,4.000000,4.000000,4.000000,4.000000,,,,,,,,,,,,
1703405421.155370,1703405421.155841,74.000000,0.000000,4183.333496,4143.205078,4272.179688,4231.538574,4185.512695,4135.128418,4265.641113,4143.846191,4125.897461,4157.692383,4613.846191,4436.025879,4393.846191,4497.436035,5913.000000,4.000000,81.000000,,,,0.000000,4.000000,4.000000,4.000000,4.000000,4.000000,4.000000,2.000000,4.000000,4.000000,4.000000,4.000000,4.000000,4.000000,4.000000,83.333336,,,,,,,,,,,,,,,,,,,,,,,,,,,,
1703405421.163178,1703405421.163749,75.000000,0.000000,4188.589844,4148.589844,4276.153809,4237.179688,4189.615234,4134.743652,4263.846191,4160.128418,4135.000000,4166.025879,4621.410156,4448.589844,4403.974121,4510.897461,6158.000000,4.000000,81.000000,,,,0.000000,4.000000,4.000000,4.000000,4.000000,4.000000,4.000000,2.000000,4.000000,4.000000,4.000000,4.000000,4.000000,4.000000,4.000000,83.333336,,,,,,,,,,,,,,,,,,,,,,,,,,,,
1703405421.170986,1703405421.171557,76.000000,0.000000,4202.820313,4155.512695,4283.974121,4237.563965,4189.615234,4138.589844,4264.871582,4173.717773,4164.615234,4177.307617,4634.358887,4461.794922,4411.794922,4524.615234,6646.000000,4.000000,81.000000,,,,0.000000,4.000000,4.000000,4.000000,4.000000,4.000000,4.000000,2.000000,4.000000,4.000000,4.000000,4.000000,4.000000,4.000000,4.000000,83.333336,,,,,,,,,,,,,,,,,19.000000,0.000000,0.681830,-0.184204,-0.688049,-0.166626,0.984007,-0.024905,0.004395,-14.858012,-37.817871,62.743126
1703405421.178794,1703405421.179265,77.000000,0.000000,4202.179688,4155.000000,4280.897461,4233.077148,4183.077148,4140.000000,4268.333496,4181.794922,4198.077148,4162.051270,4642.179688,4462.692383,4413.589844,4523.974121,6591.000000,4.000000,81.000000,,,,0.000000,4.000000,4.000000,4.000000,4.000000,4.000000,4.000000,2.000000,4.000000,4.000000,4.000000,4.000000,4.000000,4.000000,4.000000,83.333336,,,,,,,,,,,,,,,,,,,,,,,,,,,,
1703405421.186602,1703405421.187073,78.000000,0.000000,4195.512695,4151.538574,4274.230957,4236.410156,4180.897461,4139.102539,4269.230957,4189.102539,4193.333496,4138.974121,4638.077148,4461.922852,4412.179688,4522.051270,5913.000000,4.000000,81.000000,,,,0.000000,4.000000,4.000000,4.000000,4.000000,4.000000,4.000000,2.000000,4.000000,4.000000,4.000000,4.000000,4.000000,4.000000,4.000000,83.333336,,,,,,,,,,,,,,,,,,,,,,,,,,,,
1703405421.194410,1703405421.194781,79.000000,0.000000,4197.820313,4153.974121,4276.282227,4238.333496,4186.922852,4142.307617,4269.102539,4185.769043,4172.436035,4153.717773,4640.256348,4462.948730,4412.563965,4525.641113,6158.000000,4.000000,81.000000,,,,0.000000,4.000000,4.000000,4.000000,4.000000,4.000000,4.000000,2.000000,4.000000,4.000000,4.000000,4.000000,4.000000,4.000000,4.000000,83.333336,,,,,,,,,,,,,,,,,,,,,,,,,,,,
1703405421.202218,1703405421.202589,80.000000,0.000000,4199.743652,4155.641113,4280.769043,4238.717773,4191.025879,4140.128418,4268.461426,4168.589844,4167.051270,4185.512695,4648.589844,4460.769043,4416.025879,4525.897461,6646.000000,4.000000,81.000000,,,,0.000000,4.000000,4.000000,4.000000,4.000000,4.000000,4.000000,2.000000,4.000000,4.000000,4.000000,4.000000,4.000000,4.000000,4.000000,83.333336,,,,,,,,,,,,,,,,,20.000000,0.000000,0.681993,-0.183838,-0.687927,-0.166870,0.985472,-0.033207,-0.002442,-14.805545,-37.719418,62.668816
1703405421.210026,1703405421.210297,81.000000,0.000000,4197.051270,4151.410156,4283.846191,4244.487305,4186.922852,4131.153809,4266.666504,4148.333496,4149.102539,4180.384766,4637.692383,4452.179688,4410.897461,4519.102539,6591.000000,4.000000,81.000000,,,,0.000000,4.000000,4.000000,4.000000,4.000000,4.000000,4.000000,2.000000,4.000000,4.000000,4.000000,4.000000,4.000000,4.000000,4.000000,83.333336,,,,,,,,,,,,,,,,,,,,,,,,,,,,
1703405421.217834,1703405421.218205,82.000000,0.000000,4198.461426,4151.282227,4288.589844,4250.897461,4182.948730,4123.846191,4263.205078,4136.410156,4117.692383,4158.846191,4625.769043,4445.256348,4398.974121,4519.871582,5913.000000,4.000000,81.000000,,,,0.000000,4.000000,4.000000,4.000000,4.000000,4.000000,4.000000,2.000000,4.000000,4.000000,4.000000,4.000000,4.000000,4.000000,4.000000,83.333336,,,,,,,,,,,,,,,,,,,,,,,,,,,,
1703405421.225642,1703405421.226013,83.000000,0.000000,4198.205078,4156.922852,4289.615234,4250.000000,4187.692383,4123.717773,4255.641113,4132.436035,4104.743652,4158.846191,4625.897461,4444.743652,4390.769043,4520.384766,6158.000000,4.000000,81.000000,,,,0.000000,4.000000,4.000000,4.000000,4.000000,4.000000,4.000000,2.000000,4.000000,4.000000,4.000000,4.000000,4.000000,4.000000,4.000000,83.333336,,,,,,,,,,,,,,,,,,,,,,,,,,,,
1703405421.233450,1703405421.233920,84.000000,0.000000,4189.487305,4147.948730,4283.589844,4244.102539,4188.333496,4125.512695,4254.487305,4132.051270,4106.282227,4152.307617,4621.153809,4443.717773,4387.179688,4507.948730,6646.000000,4.000000,81.000000,,,,0.000000,4.000000,4.000000,4.000000,4.000000,4.000000,4.000000,2.000000,4.000000,4.000000,4.000000,4.000000,4.000000,4.000000,4.000000,83.333336,,,,,,,,,,,,,,,,,21.000000,0.000000,0.682087,-0.183716,-0.687866,-0.166870,0.984007,-0.020999,-0.002930,-14.874990,-37.564140,62.618599
1703405421.241258,1703405421.241728,85.000000,0.000000,4187.179688,4136.922852,4282.051270,4243.077148,4185.000000,4120.897461,4262.692383,4143.589844,4116.794922,4142.436035,4618.333496,4447.820313,4388.461426,4504.615234,6591.000000,4.000000,81.000000,,,,0.000000,4.000000,4.000000,4.000000,4.000000,4.000000,4.000000,2.000000,4.000000,4.000000,4.000000,4.000000,4.000000,4.000000,4.000000,83.333336,,,,,,,,,,,,,,,,,,,,,,,,,,,,
1703405421.249066,1703405421.249636,86.000000,0.000000,4197.436035,4152.948730,4288.717773,4245.512695,4191.282227,4122.307617,4264.615234,4161.666504,4139.102539,4147.051270,4626.025879,4457.179688,4398.589844,4517.307617,5913.000000,4.000000,81.000000,,,,0.000000,4.000000,4.000000,4.000000,4.000000,4.000000,4.000000,2.000000,4.000000,4.000000,4.000000,4.000000,4.000000,4.000000,4.000000,83.333336,,,,,,,,,,,,,,,,,,,,,,,,,,,,
1703405421.256874,1703405421.257444,87.000000,0.000000,4211.410156,4168.974121,4297.051270,4253.333496,4195.000000,4136.794922,4262.820313,4171.025879,4161.282227,4160.256348,4640.641113,4467.563965,4412.307617,4527.307617,6158.000000,4.000000,81.000000,,,,0.000000,4.000000,4.000000,4.000000,4.000000,4.000000,4.000000,2.000000,4.000000,4.000000,4.000000,4.000000,4.000000,4.000000,4.000000,83.333336,,,,,,,,,,,,,,,,,,,,,,,,,,,,
1703405421.264682,1703405421.265252,88.000000,0.000000,4217.179688,4162.051270,4299.487305,4258.461426,4192.820313,4144.358887,4268.717773,4171.538574,4168.717773,4172.051270,4647.051270,4470.256348,4413.205078,4530.128418,6646.000000,4.000000,81.000000,,,,0.000000,4.000000,4.000000,4.000000,4.000000,4.000000,4.000000,2.000000,4.000000,4.000000,4.000000,4.000000,4.000000,4.000000,4.000000,83.333336,,,,,,,,,,,,,,,,,22.000000,0.000000,0.682054,-0.183777,-0.687927,-0.166687,0.994750,-0.025882,0.002930,-14.870825,-37.574394,62.640072
1703405421.272491,1703405421.272960,89.000000,0.000000,4209.358887,4154.871582,4289.358887,4252.436035,4194.230957,4140.256348,4269.871582,4168.589844,4166.025879,4170.128418,4637.563965,4464.615234,4402.820313,4529.615234,6591.000000,4.000000,81.000000,,,,0.000000,4.000000,4.000000,4.000000,4.000000,4.000000,4.000000,2.000000,4.000000,4.000000,4.000000,4.000000,4.000000,4.000000,4.000000,83.333336,,,,,,,,,,,,,,,,,,,,,,,,,,,,
1703405421.280299,1703405421.280868,90.000000,0.000000,4197.307617,4150.128418,4276.794922,4241.153809,4190.128418,4140.384766,4265.897461,4163.205078,4158.589844,4142.563965,4629.871582,4456.153809,4396.282227,4519.743652,5913.000000,4.000000,81.000000,,,,0.000000,4.000000,4.000000,4.000000,4.000000,4.000000,4.000000,2.000000,4.000000,4.000000,4.000000,4.000000,4.000000,4.000000,4.000000,83.333336,,,,,,,,,,,,,,,,,,,,,,,,,,,,
1703405421.288107,1703405421.288676,91.000000,0.000000,4195.641113,4143.077148,4277.948730,4238.846191,4182.051270,4138.589844,4267.307617,4151.025879,4143.205078,4117.692383,4634.743652,4447.820313,4396.794922,4509.743652,6158.000000,4.000000,81.000000,,,,0.000000,4.000000,4.000000,4.000000,4.000000,4.000000,4.000000,2.000000,4.000000,4.000000,4.000000,4.000000,4.000000,4.000000,4.000000,83.333336,,,,,,,,,,,,,,,,,,,,,,,,,,,,
1703405421.295915,1703405421.296584,92.000000,0.000000,4198.589844,4147.563965,4283.589844,4243.333496,4188.333496,4129.487305,4265.256348,4133.333496,4127.179688,4148.589844,4631.025879,4440.769043,4398.205078,4507.307617,6646.000000,4.000000,81.000000,,,,0.000000,4.000000,4.000000,4.000000,4.000000,4.000000,4.000000,2.000000,4.000000,4.000000,4.000000,4.000000,4.000000,4.000000,4.000000,83.333336,,,,,,,,,,,,,,,,,23.000000,0.000000,0.682052,-0.183777,-0.687988,-0.166443,0.994750,-0.025394,-0.004395,-14.967075,-37.566956,62.592731
1703405421.303723,1703405421.304392,93.000000,0.000000,4198.589844,4155.000000,4284.743652,4246.538574,4191.794922,4118.205078,4258.461426,4116.922852,4101.538574,4184.358887,4617.563965,4437.820313,4400.641113,4508.333496,6591.000000,4.000000,81.000000,,,,0.000000,4.000000,4.000000,4.000000,4.000000,4.000000,4.000000,2.000000,4.000000,4.000000,4.000000,4.000000,4.000000,4.000000,4.000000,83.333336,,,,,,,,,,,,,,,,,,,,,,,,,,,,
1703405421.311531,1703405421.312300,94.000000,0.000000,4203.717773,4153.461426,4288.333496,4248.589844,4183.205078,4114.102539,4260.384766,4110.769043,4072.820557,4164.230957,4617.307617,4445.641113,4395.000000,4514.487305,5913.000000,4.000000,81.000000,,,,0.000000,4.000000,4.000000,4.000000,4.000000,4.000000,4.000000,2.000000,4.000000,4.000000,4.000000,4.000000,4.000000,4.000000,4.000000,83.333336,,,,,,,,,,,,,,,,,,,,,,,,,,,,
1703405421.319339,1703405421.320108,95.000000,0.000000,4202.820313,4152.436035,4291.410156,4248.589844,4189.358887,4126.666504,4261.666504,4113.717773,4079.358887,4135.000000,4617.307617,4451.922852,4376.410156,4517.179688,6158.000000,4.000000,81.000000,,,,0.000000,4.000000,4.000000,4.000000,4.000000,4.000000,4.000000,2.000000,4.000000,4.000000,4.000000,4.000000,4.000000,4.000000,4.000000,83.333336,,,,,,,,,,,,,,,,,,,,,,,,,,,,
1703405421.327147,1703405421.328016,96.000000,0.000000,4202.948730,4160.641113,4295.641113,4254.743652,4203.461426,4139.230957,4255.128418,4127.692383,4120.512695,4144.230957,4617.436035,4455.897461,4376.666504,4518.333496,6646.000000,4.000000,81.000000,,,,0.000000,4.000000,4.000000,4.000000,4.000000,4.000000,4.000000,2.000000,4.000000,4.000000,4.000000,4.000000,4.000000,4.000000,4.000000,83.333336,,,,,,,,,,,,,,,,,24.000000,0.000000,0.682035,-0.183777,-0.688049,-0.166260,0.984984,-0.031254,-0.003907,-15.020368,-37.426926,62.600124
1703405421.334955,1703405421.335824,97.000000,0.000000,4214.230957,4168.717773,4301.410156,4261.666504,4197.948730,4131.666504,4256.282227,4149.487305,4144.871582,4155.128418,4627.948730,4467.563965,4397.307617,4525.000000,6591.000000,4.000000,81.000000,,,,0.000000,4.000000,4.000000,4.000000,4.000000,4.000000,4.000000,2.000000,4.000000,4.000000,4.000000,4.000000,4.000000,4.000000,4.000000,83.333336,,,,,,,,,,,,,,,,,,,,,,,,,,,,
1703405421.342763,1703405421.343731,98.000000,0.000000,4213.077148,4166.410156,4297.179688,4258.846191,4189.230957,4125.000000,4263.717773,4165.769043,4149.743652,4149.871582,4632.692383,4471.794922,4399.102539,4525.128418,5913.000000,4.000000,81.000000,,,,0.000000,4.000000,4.000000,4.000000,4.000000,4.000000,4.000000,2.000000,4.000000,4.000000,4.000000,4.000000,4.000000,4.000000,4.000000,83.333336,,,,,,,,,,,,,,,,,,,,,,,,,,,,
1703405421.350571,1703405421.351539,99.000000,0.000000,4208.974121,4163.589844,4292.436035,4258.846191,4197.436035,4134.487305,4264.230957,4174.615234,4171.025879,4154.230957,4634.615234,4467.307617,4395.384766,4525.256348,6158.000000,4.000000,81.000000,,,,0.000000,4.000000,4.000000,4.000000,4.000000,4.000000,4.000000,2.000000,4.000000,4.000000,4.000000,4.000000,4.000000,4.000000,4.000000,83.333336,,,,,,,,,,,,,,,,,,,,,,,,,,,,
1703405421.358379,1703405421.359247,100.000000,0.000000,4215.512695,4166.410156,4296.794922,4260.641113,4203.589844,4140.256348,4263.461426,4170.769043,4183.717773,4156.282227,4633.461426,4461.538574,4395.256348,4523.461426,6646.000000,4.000000,81.000000,,,,0.000000,4.000000,4.000000,4.000000,4.000000,4.000000,4.000000,2.000000,4.000000,4.000000,4.000000,4.000000,4.000000,4.000000,4.000000,83.333336,,,,,,,,,,,,,,,,,25.000000,0.000000,0.682019,-0.183838,-0.688049,-0.166260,0.994750,-0.022464,-0.010743,-14.968331,-37.467567,62.640114
1703405421.366187,1703405421.367156,101.000000,0.000000,4201.922852,4160.384766,4291.410156,4251.922852,4201.666504,4146.153809,4266.794922,4157.179688,4154.743652,4155.769043,4615.641113,4452.179688,4376.025879,4504.615234,6591.000000,4.000000,81.000000,,,,0.000000,4.000000,4.000000,4.000000,4.000000,4.000000,4.000000,2.000000,4.000000,4.000000,4.000000,4.000000,4.000000,4.000000,4.000000,83.333336,,,,,,,,,,,,,,,,,,,,,,,,,,,,
1703405421.373995,1703405421.374964,102.000000,0.000000,4179.871582,4146.025879,4278.717773,4241.666504,4206.282227,4151.538574,4266.025879,4147.179688,4118.717773,4154.102539,4607.436035,4441.922852,4372.563965,4491.794922,5913.000000,4.000000,81.000000,,,,0.000000,4.000000,4.000000,4.000000,4.000000,4.000000,4.000000,2.000000,4.000000,4.000000,4.000000,4.000000,4.000000,4.000000,4.000000,83.333336,,,,,,,,,,,,,,,,,,,,,,,,,,,,
1703405421.381803,1703405421.382772,103.000000,0.000000,4192.563965,4140.256348,4280.000000,4243.461426,4199.615234,4144.102539,4262.051270,4144.615234,4126.153809,4149.230957,4628.589844,4442.820313,4406.025879,4507.563965,6158.000000,4.000000,81.000000,,,,0.000000,4.000000,4.000000,4.000000,4.000000,4.000000,4.000000,2.000000,4.000000,4.000000,4.000000,4.000000,4.000000,4.000000,4.000000,83.333336,,,,,,,,,,,,,,,,,,,,,,,,,,,,
1703405421.389611,1703405421.390480,104.000000,0.000000,4204.871582,4139.615234,4283.717773,4244.487305,4184.871582,4139.615234,4262.692383,4136.666504,4132.436035,4149.487305,4633.077148,4445.256348,4418.077148,4512.179688,6646.000000,4.000000,81.000000,,,,0.000000,4.000000,4.000000,4.000000,4.000000,4.000000,4.000000,2.000000,4.000000,4.000000,4.000000,4.000000,4.000000,4.000000,4.000000,83.333336,,,,,,,,,,,,,,,,,26.000000,0.000000,0.682034,-0.183838,-0.688049,-0.166199,0.995727,-0.035649,0.005860,-14.904831,-37.437477,62.709435
1703405421.397419,1703405421.398288,105.000000,0.000000,4193.846191,4141.410156,4285.384766,4243.461426,4192.820313,4138.974121,4262.948730,4120.384766,4094.743652,4154.487305,4612.563965,4444.358887,4399.871582,4503.846191,6591.000000,4.000000,81.000000,,,,0.000000,4.000000,4.000000,4.000000,4.000000,4.000000,4.000000,2.000000,4.000000,4.000000,4.000000,4.000000,4.000000,4.000000,4.000000,83.333336,,,,,,,,,,,,,,,,,,,,,,,,,,,,
1703405421.405228,1703405421.405996,106.000000,0.000000,4202.179688,4150.256348,4296.794922,4253.461426,4205.384766,4128.461426,4260.128418,4119.743652,4087.179443,4156.025879,4617.820313,4454.358887,4399.487305,4514.358887,5913.000000,4.000000,81.000000,,,,0.000000,4.000000,4.000000,4.000000,4.000000,4.000000,4.000000,2.000000,4.000000,4.000000,4.000000,4.000000,4.000000,4.000000,4.000000,83.333336,,,,,,,,,,,,,,,,,,,,,,,,,,,,
1703405421.413036,1703405421.413804,107.000000,0.000000,4220.512695,4156.025879,4306.153809,4262.179688,4194.487305,4122.563965,4258.717773,4139.615234,4126.538574,4152.179688,4639.743652,4467.051270,4411.922852,4527.051270,6158.000000,4.000000,81.000000,,,,0.000000,4.000000,4.000000,4.000000,4.000000,4.000000,4.000000,2.000000,4.000000,4.000000,4.000000,4.000000,4.000000,4.000000,4.000000,83.333336,,,,,,,,,,,,,,,,,,,,,,,,,,,,
1703405421.420843,1703405421.421512,108.000000,0.000000,4216.153809,4155.384766,4304.871582,4262.307617,4193.974121,4134.743652,4259.615234,4156.922852,4151.538574,4160.512695,4647.179688,4473.461426,4416.666504,4531.922852,6646.000000,4.000000,81.000000,,,,0.000000,4.000000,4.000000,4.000000,4.000000,4.000000,4.000000,2.000000,4.000000,4.000000,4.000000,4.000000,4.000000,4.000000,4.000000,83.333336,,,,,,,,,,,,,,,,,27.000000,0.000000,0.681969,-0.183960,-0.688110,-0.166077,1.005982,-0.023440,0.000488,-14.914349,-37.477062,62.821823
1703405421.428652,1703405421.429320,109.000000,0.000000,4206.025879,4155.256348,4302.179688,4260.384766,4203.333496,4144.871582,4260.256348,4163.974121,4160.000000,4181.282227,4647.563965,4476.153809,4419.358887,4536.025879,6591.000000,4.000000,81.000000,,,,0.000000,4.000000,4.000000,4.000000,4.000000,4.000000,4.000000,2.000000,4.000000,4.000000,4.000000,4.000000,4.000000,4.000000,4.000000,83.333336,,,,,,,,,,,,,,,,,,,,,,,,,,,,
1703405421.436460,1703405421.437028,110.000000,0.000000,4213.077148,4155.641113,4298.333496,4254.743652,4189.102539,4141.794922,4262.563965,4172.692383,4175.000000,4191.410156,4648.717773,4472.563965,4418.974121,4532.436035,5913.000000,4.000000,81.000000,,,,0.000000,4.000000,4.000000,4.000000,4.000000,4.000000,4.000000,2.000000,4.000000,4.000000,4.000000,4.000000,4.000000,4.000000,4.000000,83.333336,,,,,,,,,,,,,,,,,,,,,,,,,,,,
1703405421.444268,1703405421.444836,111.000000,0.000000,4212.051270,4151.666504,4289.102539,4247.051270,4177.820313,4139.487305,4262.692383,4171.922852,4176.922852,4173.077148,4638.205078,4456.666504,4411.153809,4518.461426,6158.000000,4.000000,81.000000,,,,0.000000,4.000000,4.000000,4.000000,4.000000,4.000000,4.000000,2.000000,4.000000,4.000000,4.000000,4.000000,4.000000,4.000000,4.000000,83.333336,,,,,,,,,,,,,,,,,,,,,,,,,,,,
1703405421.452076,1703405421.452544,112.000000,0.000000,4194.871582,4149.487305,4281.410156,4248.717773,4200.897461,4149.487305,4262.563965,4153.333496,4160.000000,4154.358887,4620.897461,4436.922852,4398.717773,4505.641113,6646.000000,4.000000,81.000000,,,,0.000000,4.000000,4.000000,4.000000,4.000000,4.000000,4.000000,2.000000,4.000000,4.000000,4.000000,4.000000,4.000000,4.000000,4.000000,83.333336,,,,,,,,,,,,,,,,,28.000000,0.000000,0.681916,-0.184204,-0.688171,-0.165771,0.991820,-0.030277,-0.004395,-15.106247,-37.429356,62.806309
1703405421.459884,1703405421.460352,113.000000,0.000000,4187.692383,4151.153809,4278.333496,4249.871582,4219.615234,4155.512695,4261.153809,4139.487305,4145.384766,4158.205078,4615.000000,4429.615234,4394.230957,4500.384766,6591.000000,4.000000,81.000000,,,,0.000000,4.000000,4.000000,4.000000,4.000000,4.000000,4.000000,2.000000,4.000000,4.000000,4.000000,4.000000,4.000000,4.000000,4.000000,83.333336,,,,,,,,,,,,,,,,,,,,,,,,,,,,
1703405421.467692,1703405421.468060,114.000000,0.000000,4199.871582,4152.051270,4284.743652,4245.897461,4209.615234,4142.820313,4255.512695,4132.436035,4132.179688,4151.666504,4615.897461,4439.230957,4405.128418,4507.948730,5913.000000,4.000000,81.000000,,,,0.000000,4.000000,4.000000,4.000000,4.000000,4.000000,4.000000,2.000000,4.000000,4.000000,4.000000,4.000000,4.000000,4.000000,4.000000,83.333336,,,,,,,,,,,,,,,,,,,,,,,,,,,,
1703405421.475500,1703405421.475968,115.000000,0.000000,4218.589844,4153.846191,4299.102539,4256.922852,4201.666504,4135.897461,4254.358887,4126.153809,4123.589844,4143.717773,4618.846191,4455.897461,4408.205078,4523.077148,6158.000000,4.000000,81.000000,,,,0.000000,4.000000,4.000000,4.000000,4.000000,4.000000,4.000000,2.000000,4.000000,4.000000,4.000000,4.000000,4.000000,4.000000,4.000000,83.333336,,,,,,,,,,,,,,,,,,,,,,,,,,,,
1703405421.483308,1703405421.483776,116.000000,0.000000,4219.871582,4155.512695,4297.692383,4262.179688,4201.025879,4141.666504,4257.563965,4118.077148,4111.922852,4147.563965,4617.563965,4455.256348,4392.307617,4517.820313,6646.000000,4.000000,81.000000,,,,0.000000,4.000000,4.000000,4.000000,4.000000,4.000000,4.000000,2.000000,4.000000,4.000000,4.000000,4.000000,4.000000,4.000000,4.000000,83.333336,,,,,,,,,,,,,,,,,29.000000,0.000000,0.681802,-0.184387,-0.688293,-0.165527,0.988890,-0.030765,-0.015627,-15.112288,-37.403088,62.775677
1703405421.491116,1703405421.491684,117.000000,0.000000,4208.333496,4152.692383,4286.794922,4250.128418,4188.461426,4138.846191,4252.179688,4110.641113,4089.487061,4140.256348,4612.051270,4442.436035,4385.384766,4503.461426,6591.000000,4.000000,81.000000,,,,0.000000,4.000000,4.000000,4.000000,4.000000,4.000000,4.000000,2.000000,4.000000,4.000000,4.000000,4.000000,4.000000,4.000000,4.000000,83.333336,,,,,,,,,,,,,,,,,,,,,,,,,,,,
1703405421.498924,1703405421.499492,118.000000,0.000000,4208.589844,4153.846191,4292.307617,4251.153809,4181.538574,4136.025879,4247.179688,4120.384766,4090.384521,4143.205078,4621.538574,4448.846191,4399.230957,4512.179688,5913.000000,4.000000,81.000000,,,,0.000000,4.000000,4.000000,4.000000,4.000000,4.000000,4.000000,2.000000,4.000000,4.000000,4.000000,4.000000,4.000000,4.000000,4.000000,83.333336,,,,,,,,,,,,,,,,,,,,,,,,,,,,
1703405421.506732,1703405421.507400,119.000000,0.000000,4218.077148,4162.563965,4302.179688,4260.512695,4186.410156,4139.615234,4250.897461,4138.717773,4122.307617,4168.077148,4634.230957,4464.358887,4406.410156,4527.436035,6158.000000,4.000000,81.000000,,,,0.000000,4.000000,4.000000,4.000000,4.000000,4.000000,4.000000,2.000000,4.000000,4.000000,4.000000,4.000000,4.000000,4.000000,4.000000,83.333336,,,,,,,,,,,,,,,,,,,,,,,,,,,,
1703405421.514540,1703405421.515208,120.000000,0.000000,4219.487305,4167.179688,4297.820313,4259.871582,4189.230957,4134.743652,4252.307617,4148.589844,4146.666504,4172.563965,4629.871582,4465.256348,4400.769043,4521.922852,6646.000000,4.000000,81.000000,,,,0.000000,4.000000,4.000000,4.000000,4.000000,4.000000,4.000000,2.000000,4.000000,4.000000,4.000000,4.000000,4.000000,4.000000,4.000000,83.333336,,,,,,,,,,,,,,,,,30.000000,0.000000,0.681845,-0.184448,-0.688293,-0.165283,0.988402,-0.042974,-0.009278,-15.084394,-37.462780,62.948109
1703405421.522348,1703405421.523116,121.000000,0.000000,4213.974121,4170.641113,4288.974121,4262.692383,4202.820313,4139.230957,4254.230957,4164.615234,4166.282227,4168.846191,4628.205078,4462.692383,4405.256348,4515.512695,6591.000000,4.000000,81.000000,,,,0.000000,4.000000,4.000000,4.000000,4.000000,4.000000,4.000000,2.000000,4.000000,4.000000,4.000000,4.000000,4.000000,4.000000,4.000000,83.333336,,,,,,,,,,,,,,,,,,,,,,,,,,,,
1703405421.530156,1703405421.530924,122.000000,0.000000,4209.487305,4172.692383,4286.666504,4264.743652,4218.333496,4156.025879,4263.846191,4190.128418,4191.538574,4172.179688,4637.820313,4468.461426,4415.769043,4525.000000,5913.000000,4.000000,81.000000,,,,0.000000,4.000000,4.000000,4.000000,4.000000,4.000000,4.000000,2.000000,4.000000,4.000000,4.000000,4.000000,4.000000,4.000000,4.000000,83.333336,,,,,,,,,,,,,,,,,,,,,,,,,,,,
1703405421.537964,1703405421.538632,123.000000,0.000000,4202.563965,4163.974121,4283.717773,4252.820313,4211.282227,4160.384766,4264.102539,4195.897461,4189.615234,4151.794922,4628.589844,4466.922852,4405.512695,4524.102539,6158.000000,4.000000,81.000000,,,,0.000000,4.000000,4.000000,4.000000,4.000000,4.000000,4.000000,2.000000,4.000000,4.000000,4.000000,4.000000,4.000000,4.000000,4.000000,83.333336,,,,,,,,,,,,,,,,,,,,,,,,,,,,
1703405421.545772,1703405421.546440,124.000000,0.000000,4200.641113,4153.974121,4280.641113,4247.179688,4197.692383,4151.794922,4256.794922,4182.307617,4169.487305,4138.717773,4616.666504,4456.538574,4378.974121,4510.000000,6646.000000,4.000000,81.000000,,,,0.000000,4.000000,4.000000,4.000000,4.000000,4.000000,4.000000,2.000000,4.000000,4.000000,4.000000,4.000000,4.000000,4.000000,4.000000,83.333336,,,,,,,,,,,,,,,,,31.000000,0.000000,0.681811,-0.184509,-0.688354,-0.165100,0.986449,-0.033207,-0.008302,-15.125954,-37.499832,62.953300
1703405421.553580,1703405421.554148,125.000000,0.000000,4200.256348,4152.051270,4282.307617,4248.589844,4190.128418,4146.153809,4256.282227,4171.282227,4164.487305,4163.846191,4623.461426,4452.563965,4372.436035,4504.487305,6591.000000,4.000000,81.000000,,,,0.000000,4.000000,4.000000,4.000000,4.000000,4.000000,4.000000,2.000000,4.000000,4.000000,4.000000,4.000000,4.000000,4.000000,4.000000,83.333336,,,,,,,,,,,,,,,,,,,,,,,,,,,,
1703405421.561389,1703405421.561956,126.000000,0.000000,4196.538574,4153.333496,4285.000000,4248.077148,4185.000000,4143.333496,4256.922852,4159.230957,4157.436035,4182.051270,4623.846191,4455.384766,4390.000000,4508.717773,5913.000000,4.000000,81.000000,,,,0.000000,4.000000,4.000000,4.000000,4.000000,4.000000,4.000000,2.000000,4.000000,4.000000,4.000000,4.000000,4.000000,4.000000,4.000000,83.333336,,,,,,,,,,,,,,,,,,,,,,,,,,,,
1703405421.569197,1703405421.569664,127.000000,0.000000,4205.000000,4156.538574,4288.077148,4254.743652,4191.153809,4139.871582,4251.922852,4142.307617,4129.487305,4169.358887,4619.102539,4457.051270,4397.051270,4510.769043,81.000000,4.000000,81.000000,,,,0.000000,4.000000,4.000000,4.000000,4.000000,4.000000,4.000000,2.000000,4.000000,4.000000,4.000000,4.000000,4.000000,4.000000,4.000000,83.333336,,,,,,,,,,,,,,,,,,,,,,,,,,,,
1703405421.577005,1703405421.577472,0.000000,0.000000,4216.025879,4160.897461,4292.307617,4259.230957,4203.461426,4138.077148,4248.974121,4121.025879,4095.769287,4152.563965,4614.871582,4454.358887,4393.205078,4508.717773,4754.000000,4.000000,81.000000,,,,0.000000,4.000000,4.000000,4.000000,4.000000,4.000000,4.000000,2.000000,4.000000,4.000000,4.000000,4.000000,4.000000,4.000000,4.000000,83.333336,,,,,,,,,,,,,,,,,0.000000,0.000000,0.681703,-0.184509,-0.688477,-0.165039,0.992309,-0.033207,-0.013185,-15.163359,-37.533184,62.841301
1703405421.584813,1703405421.585180,1.000000,0.000000,4209.358887,4159.615234,4294.871582,4256.794922,4201.922852,4139.871582,4249.743652,4103.974121,4077.179443,4149.871582,4606.282227,4449.871582,4391.282227,4507.179688,5347.000000,4.000000,81.000000,,,,0.000000,4.000000,4.000000,4.000000,4.000000,4.000000,4.000000,2.000000,4.000000,4.000000,4.000000,4.000000,4.000000,4.000000,4.000000,83.333336,,,,,,,,,,,,,,,,,,,,,,,,,,,,
1703405421.592621,1703405421.592988,2.000000,0.000000,4200.128418,4156.666504,4290.641113,4256.922852,4190.512695,4142.692383,4247.051270,4109.102539,4089.487061,4154.871582,4605.897461,4448.205078,4382.051270,4508.461426,5116.000000,4.000000,81.000000,,,,0.000000,4.000000,4.000000,4.000000,4.000000,4.000000,4.000000,2.000000,4.000000,4.000000,4.000000,4.000000,4.000000,4.000000,4.000000,83.333336,,,,,,,,,,,,,,,,,,,,,,,,,,,,
1703405421.600429,1703405421.600696,3.000000,0.000000,4203.205078,4155.000000,4283.846191,4252.563965,4180.384766,4135.641113,4244.871582,4128.846191,4123.461426,4156.153809,4608.974121,4446.282227,4369.615234,4509.487305,5308.000000,4.000000,81.000000,,,,0.000000,4.000000,4.000000,4.000000,4.000000,4.000000,4.000000,2.000000,4.000000,4.000000,4.000000,4.000000,4.000000,4.000000,4.000000,83.333336,,,,,,,,,,,,,,,,,,,,,,,,,,,,
1703405421.608237,1703405421.608504,4.000000,0.000000,4200.641113,4151.282227,4281.025879,4242.436035,4186.794922,4133.717773,4249.102539,4148.717773,4157.692383,4147.820313,4606.794922,4449.102539,4373.974121,4505.897461,5040.000000,4.000000,81.000000,,,,0.000000,4.000000,4.000000,4.000000,4.000000,4.000000,4.000000,2.000000,4.000000,4.000000,4.000000,4.000000,4.000000,4.000000,4.000000,83.333336,,,,,,,,,,,,,,,,,1.000000,0.000000,0.681641,-0.184509,-0.688538,-0.165039,0.997680,-0.033207,-0.006837,-15.163690,-37.629864,62.840508
1703405421.616045,1703405421.616212,5.000000,0.000000,4194.487305,4151.025879,4282.179688,4244.358887,4201.794922,4150.128418,4254.102539,4167.563965,4181.538574,4140.512695,4608.974121,4456.666504,4380.384766,4504.230957,4604.000000,4.000000,81.000000,,,,0.000000,4.000000,4.000000,4.000000,4.000000,4.000000,4.000000,2.000000,4.000000,4.000000,4.000000,4.000000,4.000000,4.000000,4.000000,83.333336,,,,,,,,,,,,,,,,,,,,,,,,,,,,
1703405421.623853,1703405421.624020,6.000000,0.000000,4192.948730,4152.692383,4278.205078,4245.000000,4195.256348,4154.615234,4254.487305,4170.897461,4174.743652,4145.000000,4608.077148,4450.897461,4374.102539,4501.922852,1431.000000,4.000000,81.000000,,,,0.000000,4.000000,4.000000,4.000000,4.000000,4.000000,4.000000,2.000000,4.000000,4.000000,4.000000,4.000000,4.000000,4.000000,4.000000,83.333336,,,,,,,,,,,,,,,,,,,,,,,,,,,,
1703405421.631661,1703405421.631728,7.000000,0.000000,4192.563965,4147.563965,4270.000000,4233.333496,4183.461426,4140.128418,4249.358887,4156.025879,4152.051270,4153.717773,4596.282227,4435.641113,4372.692383,4496.922852,5171.000000,4.000000,81.000000,,,,0.000000,4.000000,4.000000,4.000000,4.000000,4.000000,4.000000,2.000000,4.000000,4.000000,4.000000,4.000000,4.000000,4.000000,4.000000,83.333336,,,,,,,,,,,,,,,,,,,,,,,,,,,,
1703405421.639469,1703405421.639536,8.000000,0.000000,4201.282227,4148.717773,4274.358887,4236.538574,4182.948730,4130.128418,4246.282227,4150.512695,4154.230957,4152.820313,4600.256348,4436.666504,4377.179688,4501.282227,5065.000000,4.000000,81.000000,,,,0.000000,4.000000,4.000000,4.000000,4.000000,4.000000,4.000000,2.000000,4.000000,4.000000,4.000000,4.000000,4.000000,4.000000,4.000000,83.333336,,,,,,,,,,,,,,,,,2.000000,0.000000,0.681569,-0.184265,-0.688660,-0.165100,0.987425,-0.030765,-0.010255,-15.130653,-37.583546,62.839790
1703405421.647277,1703405421.647244,9.000000,0.000000,4208.717773,4162.436035,4285.897461,4250.769043,4186.410156,4134.102539,4249.487305,4156.794922,4162.820313,4158.589844,4617.307617,4449.487305,4373.333496,4510.128418,5131.000000,4.000000,81.000000,,,,0.000000,4.000000,4.000000,4.000000,4.000000,4.000000,4.000000,2.000000,4.000000,4.000000,4.000000,4.000000,4.000000,4.000000,4.000000,83.333336,1.000000,66.666664,4.000000,4.000000,4.000000,4.000000,4.000000,4.000000,2.000000,4.000000,3.000000,3.000000,4.000000,4.000000,4.000000,4.000000,,,,,,,,,,,,
1703405421.655085,1703405421.655152,10.000000,0.000000,4205.897461,4170.128418,4287.692383,4253.077148,4193.461426,4144.871582,4252.692383,4145.769043,4141.538574,4168.589844,4616.282227,4452.948730,4369.102539,4508.589844,5921.000000,4.000000,81.000000,,,,0.000000,4.000000,4.000000,4.000000,4.000000,4.000000,4.000000,2.000000,4.000000,4.000000,4.000000,4.000000,4.000000,4.000000,4.000000,83.333336,,,,,,,,,,,,,,,,,,,,,,,,,,,,
1703405421.662893,1703405421.662960,11.000000,0.000000,4209.743652,4168.333496,4288.461426,4254.230957,4202.307617,4151.666504,4252.436035,4125.512695,4125.641113,4167.051270,4611.025879,4453.461426,4376.666504,4509.230957,6155.000000,4.000000,81.000000,,,,0.000000,4.000000,4.000000,4.000000,4.000000,4.000000,4.000000,2.000000,4.000000,4.000000,4.000000,4.000000,4.000000,4.000000,4.000000,83.333336,,,,,,,,,,,,,,,,,,,,,,,,,,,,
1703405421.670701,1703405421.670868,12.000000,0.000000,4222.051270,4167.820313,4298.974121,4264.102539,4203.589844,4155.000000,4251.282227,4131.282227,4129.358887,4173.846191,4620.128418,4462.051270,4390.128418,4522.820313,6646.000000,4.000000,81.000000,,,,0.000000,4.000000,4.000000,4.000000,4.000000,4.000000,4.000000,2.000000,4.000000,4.000000,4.000000,4.000000,4.000000,4.000000,4.000000,83.333336,,,,,,,,,,,,,,,,,3.000000,0.000000,0.681710,-0.184082,-0.688599,-0.164978,0.993774,-0.029789,0.000977,-15.100922,-37.625191,62.922478
1703405421.678509,1703405421.678676,13.000000,0.000000,4228.077148,4172.692383,4308.205078,4266.666504,4205.128418,4154.615234,4250.256348,4158.589844,4128.846191,4181.410156,4631.538574,4473.461426,4399.871582,4534.615234,6589.000000,4.000000,81.000000,,,,0.000000,4.000000,4.000000,4.000000,4.000000,4.000000,4.000000,2.000000,4.000000,4.000000,4.000000,4.000000,4.000000,4.000000,4.000000,83.333336,,,,,,,,,,,,,,,,,,,,,,,,,,,,
1703405421.686317,1703405421.686584,14.000000,0.000000,4225.769043,4173.077148,4302.948730,4258.077148,4205.256348,4146.025879,4249.487305,4174.743652,4143.717773,4165.769043,4631.794922,4478.589844,4400.256348,4538.461426,5921.000000,4.000000,81.000000,,,,0.000000,4.000000,4.000000,4.000000,4.000000,4.000000,4.000000,2.000000,4.000000,4.000000,4.000000,4.000000,4.000000,4.000000,4.000000,83.333336,,,,,,,,,,,,,,,,,,,,,,,,,,,,
1703405421.694126,1703405421.694392,15.000000,0.000000,4211.922852,4159.230957,4285.897461,4246.666504,4192.179688,4136.794922,4249.487305,4173.077148,4173.077148,4157.948730,4622.692383,4468.974121,4386.410156,4528.461426,6155.000000,4.000000,81.000000,,,,0.000000,4.000000,4.000000,4.000000,4.000000,4.000000,4.000000,2.000000,4.000000,4.000000,4.000000,4.000000,4.000000,4.000000,4.000000,83.333336,,,,,,,,,,,,,,,,,,,,,,,,,,,,
1703405421.701934,1703405421.702299,16.000000,0.000000,4193.077148,4145.128418,4272.436035,4236.666504,4189.871582,4140.769043,4248.717773,4170.897461,4178.461426,4177.051270,4616.794922,4450.769043,4371.922852,4506.153809,0.000000,4.000000,81.000000,,,,0.000000,4.000000,4.000000,4.000000,4.000000,4.000000,4.000000,2.000000,4.000000,4.000000,4.000000,4.000000,4.000000,4.000000,4.000000,83.333336,,,,,,,,,,,,,,,,,4.000000,0.000000,0.681754,-0.184082,-0.688599,-0.164795,1.000122,-0.033696,-0.013185,-15.040830,-37.612671,63.146896
1703405421.709741,1703405421.710107,17.000000,0.000000,4194.615234,4146.410156,4276.922852,4233.461426,4196.794922,4145.384766,4250.384766,4174.102539,4165.128418,4190.641113,4618.333496,4448.846191,4378.333496,4505.897461,0.000000,4.000000,81.000000,,,,0.000000,4.000000,4.000000,4.000000,4.000000,4.000000,4.000000,2.000000,4.000000,4.000000,4.000000,4.000000,4.000000,4.000000,4.000000,83.333336,,,,,,,,,,,,,,,,,,,,,,,,,,,,
1703405421.717550,1703405421.718015,18.000000,0.000000,4204.102539,4152.179688,4286.410156,4232.948730,4188.717773,4141.794922,4254.102539,4168.333496,4160.256348,4182.692383,4616.410156,4457.436035,4386.666504,4519.487305,0.000000,4.000000,81.000000,,,,0.000000,4.000000,4.000000,4.000000,4.000000,4.000000,4.000000,2.000000,4.000000,4.000000,4.000000,4.000000,4.000000,4.000000,4.000000,83.333336,,,,,,,,,,,,,,,,,,,,,,,,,,,,
1703405421.725358,1703405421.725823,19.000000,0.000000,4200.384766,4150.256348,4283.717773,4235.641113,4186.666504,4142.436035,4253.717773,4157.820313,4157.051270,4169.358887,4611.025879,4452.948730,4376.538574,4512.820313,0.000000,4.000000,81.000000,,,,0.000000,4.000000,4.000000,4.000000,4.000000,4.000000,4.000000,2.000000,4.000000,4.000000,4.000000,4.000000,4.000000,4.000000,4.000000,83.333336,,,,,,,,,,,,,,,,,,,,,,,,,,,,
1703405421.733166,1703405421.733731,20.000000,0.000000,4198.717773,4151.922852,4281.410156,4245.256348,4200.384766,4143.846191,4249.615234,4154.102539,4146.153809,4169.102539,4615.000000,4447.820313,4372.692383,4507.692383,0.000000,4.000000,81.000000,,,,0.000000,4.000000,4.000000,4.000000,4.000000,4.000000,4.000000,2.000000,4.000000,4.000000,4.000000,4.000000,4.000000,4.000000,4.000000,83.333336,,,,,,,,,,,,,,,,,5.000000,0.000000,0.681692,-0.184082,-0.688660,-0.164795,0.986449,-0.029789,-0.003907,-15.036747,-37.684738,63.182205
1703405421.740974,1703405421.741539,21.000000,0.000000,4209.230957,4160.384766,4289.871582,4249.102539,4204.358887,4144.230957,4249.102539,4141.794922,4130.256348,4176.153809,4620.512695,4456.153809,4383.846191,4520.384766,0.000000,4.000000,81.000000,,,,0.000000,4.000000,4.000000,4.000000,4.000000,4.000000,4.000000,2.000000,4.000000,4.000000,4.000000,4.000000,4.000000,4.000000,4.000000,83.333336,,,,,,,,,,,,,,,,,,,,,,,,,,,,
1703405421.748782,1703405421.749247,22.000000,0.000000,4221.538574,4168.589844,4299.487305,4248.974121,4196.538574,4143.717773,4250.128418,4120.256348,4110.641113,4169.615234,4613.974121,4459.743652,4387.820313,4526.666504,0.000000,4.000000,81.000000,,,,0.000000,4.000000,4.000000,4.000000,4.000000,4.000000,4.000000,2.000000,4.000000,4.000000,4.000000,4.000000,4.000000,4.000000,4.000000,83.333336,,,,,,,,,,,,,,,,,,,,,,,,,,,,
1703405421.756590,1703405421.757055,23.000000,0.000000,4231.025879,4172.948730,4306.025879,4259.102539,4197.563965,4138.205078,4248.077148,4121.153809,4101.153809,4164.615234,4618.077148,4462.307617,4391.025879,4530.128418,0.000000,4.000000,81.000000,,,,0.000000,4.000000,4.000000,4.000000,4.000000,4.000000,4.000000,2.000000,4.000000,4.000000,4.000000,4.000000,4.000000,4.000000,4.000000,83.333336,,,,,,,,,,,,,,,,,,,,,,,,,,,,
1703405421.764398,1703405421.764763,24.000000,0.000000,4236.410156,4174.102539,4310.256348,4268.846191,4201.922852,4137.307617,4248.589844,4143.589844,4111.153809,4177.436035,4632.051270,4475.384766,4405.641113,4544.871582,0.000000,4.000000,81.000000,,,,0.000000,4.000000,4.000000,4.000000,4.000000,4.000000,4.000000,2.000000,4.000000,4.000000,4.000000,4.000000,4.000000,4.000000,4.000000,83.333336,,,,,,,,,,,,,,,,,6.000000,0.000000,0.681658,-0.184143,-0.688721,-0.164612,0.991332,-0.032230,-0.007813,-15.049739,-37.716263,63.063984
1703405421.772206,1703405421.772571,25.000000,0.000000,4227.948730,4171.922852,4302.436035,4260.641113,4197.563965,4142.563965,4251.153809,4156.922852,4141.025879,4175.769043,4626.410156,4474.230957,4403.589844,4542.948730,0.000000,4.000000,81.000000,,,,0.000000,4.000000,4.000000,4.000000,4.000000,4.000000,4.000000,2.000000,4.000000,4.000000,4.000000,4.000000,4.000000,4.000000,4.000000,83.333336,,,,,,,,,,,,,,,,,,,,,,,,,,,,
1703405421.780014,1703405421.780279,26.000000,0.000000,4212.436035,4161.153809,4285.897461,4246.282227,4187.307617,4143.589844,4250.897461,4164.743652,4169.871582,4151.025879,4610.897461,4455.769043,4378.846191,4519.487305,0.000000,4.000000,81.000000,,,,0.000000,4.000000,4.000000,4.000000,4.000000,4.000000,4.000000,2.000000,4.000000,4.000000,4.000000,4.000000,4.000000,4.000000,4.000000,83.333336,,,,,,,,,,,,,,,,,,,,,,,,,,,,
1703405421.787822,1703405421.788187,27.000000,0.000000,4201.282227,4149.230957,4276.922852,4241.538574,4179.743652,4139.102539,4250.384766,4168.846191,4170.512695,4146.794922,4602.948730,4445.769043,4361.153809,4505.769043,0.000000,4.000000,81.000000,,,,0.000000,4.000000,4.000000,4.000000,4.000000,4.000000,4.000000,2.000000,4.000000,4.000000,4.000000,4.000000,4.000000,4.000000,4.000000,83.333336,,,,,,,,,,,,,,,,,,,,,,,,,,,,
1703405421.795630,1703405421.795995,28.000000,0.000000,4198.717773,4151.153809,4278.589844,4244.102539,4188.717773,4142.307617,4250.512695,4165.769043,4167.820313,4170.128418,4601.666504,4443.333496,4365.000000,4505.769043,0.000000,4.000000,81.000000,,,,0.000000,4.000000,4.000000,4.000000,4.000000,4.000000,4.000000,2.000000,4.000000,4.000000,4.000000,4.000000,4.000000,4.000000,4.000000,83.333336,,,,,,,,,,,,,,,,,7.000000,0.000000,0.681627,-0.184021,-0.688843,-0.164368,0.989379,-0.013185,-0.009767,-15.094765,-37.644638,63.057587
1703405421.803438,1703405421.803903,29.000000,0.000000,4206.666504,4157.563965,4285.384766,4247.307617,4203.717773,4149.102539,4250.769043,4167.820313,4183.846191,4180.512695,4601.538574,4440.641113,4378.846191,4510.384766,0.000000,4.000000,81.000000,,,,0.000000,4.000000,4.000000,4.000000,4.000000,4.000000,4.000000,2.000000,4.000000,4.000000,4.000000,4.000000,4.000000,4.000000,4.000000,83.333336,,,,,,,,,,,,,,,,,,,,,,,,,,,,
1703405421.811246,1703405421.811711,30.000000,0.000000,4214.487305,4158.077148,4288.205078,4246.538574,4202.948730,4142.436035,4250.000000,4163.461426,4179.358887,4170.128418,4601.794922,4442.436035,4381.025879,4514.871582,0.000000,4.000000,81.000000,,,,0.000000,4.000000,4.000000,4.000000,4.000000,4.000000,4.000000,2.000000,4.000000,4.000000,4.000000,4.000000,4.000000,4.000000,4.000000,83.333336,,,,,,,,,,,,,,,,,,,,,,,,,,,,
1703405421.819054,1703405421.819619,31.000000,0.000000,4214.487305,4160.641113,4290.897461,4245.769043,4193.717773,4140.512695,4250.256348,4146.282227,4150.000000,4165.897461,4606.538574,4450.128418,4374.743652,4519.615234,0.000000,4.000000,81.000000,,,,0.000000,4.000000,4.000000,4.000000,4.000000,4.000000,4.000000,2.000000,4.000000,4.000000,4.000000,4.000000,4.000000,4.000000,4.000000,83.333336,,,,,,,,,,,,,,,,,,,,,,,,,,,,
1703405421.826862,1703405421.827427,32.000000,0.000000,4225.897461,4171.282227,4305.128418,4253.077148,4192.692383,4153.717773,4250.769043,4134.230957,4129.871582,4171.538574,4619.358887,4461.922852,4378.974121,4528.846191,0.000000,4.000000,81.000000,,,,0.000000,4.000000,4.000000,4.000000,4.000000,4.000000,4.000000,2.000000,4.000000,4.000000,4.000000,4.000000,4.000000,4.000000,4.000000,83.333336,,,,,,,,,,,,,,,,,8.000000,0.000000,0.681569,-0.183899,-0.688904,-0.164490,0.977658,-0.026859,-0.012209,-15.201955,-37.680176,63.168495
1703405421.834670,1703405421.835335,33.000000,0.000000,4249.743652,4185.897461,4321.666504,4266.282227,4200.384766,4156.538574,4250.000000,4129.487305,4123.974121,4175.641113,4632.051270,4476.153809,4399.230957,4543.077148,0.000000,4.000000,81.000000,,,,0.000000,4.000000,4.000000,4.000000,4.000000,4.000000,4.000000,2.000000,4.000000,4.000000,4.000000,4.000000,4.000000,4.000000,4.000000,83.333336,,,,,,,,,,,,,,,,,,,,,,,,,,,,
1703405421.842478,1703405421.843143,34.000000,0.000000,4249.358887,4191.666504,4319.102539,4270.384766,4203.461426,4148.461426,4248.461426,4129.358887,4119.487305,4167.307617,4629.871582,4477.307617,4406.538574,4546.410156,0.000000,4.000000,81.000000,,,,0.000000,4.000000,4.000000,4.000000,4.000000,4.000000,4.000000,2.000000,4.000000,4.000000,4.000000,4.000000,4.000000,4.000000,4.000000,83.333336,,,,,,,,,,,,,,,,,,,,,,,,,,,,
1703405421.850287,1703405421.851050,35.000000,0.000000,4226.410156,4182.179688,4299.743652,4260.128418,4192.820313,4150.000000,4249.743652,4142.692383,4120.000000,4148.846191,4616.025879,4463.205078,4384.871582,4531.794922,0.000000,4.000000,81.000000,,,,0.000000,4.000000,4.000000,4.000000,4.000000,4.000000,4.000000,2.000000,4.000000,4.000000,4.000000,4.000000,4.000000,4.000000,4.000000,83.333336,,,,,,,,,,,,,,,,,,,,,,,,,,,,
1703405421.858095,1703405421.858858,36.000000,0.000000,4209.871582,4165.769043,4283.461426,4246.794922,4182.051270,4156.282227,4253.846191,4158.461426,4129.230957,4142.436035,4602.436035,4450.641113,4365.128418,4517.563965,0.000000,4.000000,81.000000,,,,0.000000,4.000000,4.000000,4.000000,4.000000,4.000000,4.000000,2.000000,4.000000,4.000000,4.000000,4.000000,4.000000,4.000000,4.000000,83.333336,,,,,,,,,,,,,,,,,9.000000,0.000000,0.681368,-0.183289,-0.689148,-0.164978,0.995727,-0.029300,-0.001953,-15.181760,-37.612156,63.151646
1703405421.865903,1703405421.866766,37.000000,0.000000,4204.743652,4159.871582,4275.384766,4240.897461,4185.000000,4154.230957,4253.333496,4164.102539,4148.589844,4152.051270,4598.717773,4442.948730,4367.436035,4508.461426,0.000000,4.000000,81.000000,,,,0.000000,4.000000,4.000000,4.000000,4.000000,4.000000,4.000000,2.000000,4.000000,4.000000,4.000000,4.000000,4.000000,4.000000,4.000000,83.333336,,,,,,,,,,,,,,,,,,,,,,,,,,,,
1703405421.873711,1703405421.874574,38.000000,0.000000,4207.692383,4164.743652,4275.256348,4241.922852,4187.051270,4150.512695,4249.615234,4171.666504,4173.717773,4166.794922,4605.384766,4440.000000,4377.948730,4502.692383,0.000000,4.000000,81.000000,,,,0.000000,4.000000,4.000000,4.000000,4.000000,4.000000,4.000000,2.000000,4.000000,4.000000,4.000000,4.000000,4.000000,4.000000,4.000000,83.333336,,,,,,,,,,,,,,,,,,,,,,,,,,,,
1703405421.881519,1703405421.882482,39.000000,0.000000,4211.666504,4165.897461,4278.846191,4243.333496,4183.589844,4150.512695,4249.102539,4185.641113,4186.153809,4178.974121,4618.333496,4450.641113,4384.871582,4510.769043,0.000000,4.000000,81.000000,,,,0.000000,4.000000,4.000000,4.000000,4.000000,4.000000,4.000000,2.000000,4.000000,4.000000,4.000000,4.000000,4.000000,4.000000,4.000000,83.333336,,,,,,,,,,,,,,,,,,,,,,,,,,,,
1703405421.889327,1703405421.890290,40.000000,0.000000,4211.794922,4166.794922,4282.307617,4247.179688,4194.615234,4150.769043,4250.000000,4189.615234,4187.307617,4185.641113,4632.563965,4459.615234,4388.717773,4520.769043,0.000000,4.000000,81.000000,,,,0.000000,4.000000,4.000000,4.000000,4.000000,4.000000,4.000000,2.000000,4.000000,4.000000,4.000000,4.000000,4.000000,4.000000,4.000000,83.333336,,,,,,,,,,,,,,,,,10.000000,0.000000,0.681136,-0.182739,-0.689392,-0.165527,0.989379,-0.028812,-0.009767,-15.096917,-37.567608,63.036480
1703405421.897135,1703405421.898198,41.000000,0.000000,4214.487305,4171.922852,4284.615234,4250.256348,4207.692383,4145.384766,4248.077148,4169.615234,4175.897461,4171.538574,4622.820313,4448.461426,4382.179688,4513.333496,0.000000,4.000000,81.000000,,,,0.000000,4.000000,4.000000,4.000000,4.000000,4.000000,4.000000,2.000000,4.000000,4.000000,4.000000,4.000000,4.000000,4.000000,4.000000,83.333336,,,,,,,,,,,,,,,,,,,,,,,,,,,,
1703405421.904943,1703405421.906006,42.000000,0.000000,4216.922852,4173.077148,4285.000000,4248.717773,4202.436035,4139.871582,4245.512695,4135.512695,4148.717773,4141.282227,4588.589844,4432.692383,4367.692383,4499.230957,0.000000,4.000000,81.000000,,,,0.000000,4.000000,4.000000,4.000000,4.000000,4.000000,4.000000,2.000000,4.000000,4.000000,4.000000,4.000000,4.000000,4.000000,4.000000,83.333336,,,,,,,,,,,,,,,,,,,,,,,,,,,,
1703405421.912751,1703405421.913914,43.000000,0.000000,4210.000000,4168.846191,4283.974121,4251.282227,4195.256348,4147.307617,4245.512695,4116.922852,4131.666504,4132.307617,4574.230957,4428.589844,4356.538574,4496.666504,0.000000,4.000000,81.000000,,,,0.000000,4.000000,4.000000,4.000000,4.000000,4.000000,4.000000,2.000000,4.000000,4.000000,4.000000,4.000000,4.000000,4.000000,4.000000,83.333336,,,,,,,,,,,,,,,,,,,,,,,,,,,,
1703405421.920559,1703405421.921722,44.000000,0.000000,4207.692383,4172.179688,4285.384766,4258.717773,4201.025879,4155.897461,4247.563965,4118.461426,4124.102539,4149.487305,4591.794922,4435.384766,4360.384766,4503.205078,0.000000,4.000000,81.000000,,,,0.000000,4.000000,4.000000,4.000000,4.000000,4.000000,4.000000,2.000000,4.000000,4.000000,4.000000,4.000000,4.000000,4.000000,4.000000,83.333336,,,,,,,,,,,,,,,,,11.000000,0.000000,0.680987,-0.182556,-0.689514,-0.165833,0.981565,-0.025394,-0.016604,-15.153892,-37.610847,63.066166
1703405421.928367,1703405421.929630,45.000000,0.000000,4218.846191,4182.307617,4294.102539,4260.000000,4209.230957,4156.538574,4249.615234,4117.436035,4105.641113,4165.769043,4607.948730,4444.743652,4377.820313,4510.128418,0.000000,4.000000,81.000000,,,,0.000000,4.000000,4.000000,4.000000,4.000000,4.000000,4.000000,2.000000,4.000000,4.000000,4.000000,4.000000,4.000000,4.000000,4.000000,83.333336,,,,,,,,,,,,,,,,,,,,,,,,,,,,
1703405421.936175,1703405421.937438,46.000000,0.000000,4222.563965,4181.794922,4295.769043,4254.487305,4206.922852,4156.282227,4248.974121,4118.461426,4092.820557,4166.410156,4610.384766,4444.615234,4384.102539,4513.717773,0.000000,4.000000,81.000000,,,,0.000000,4.000000,4.000000,4.000000,4.000000,4.000000,4.000000,2.000000,4.000000,4.000000,4.000000,4.000000,4.000000,4.000000,4.000000,83.333336,,,,,,,,,,,,,,,,,,,,,,,,,,,,
1703405421.943983,1703405421.945146,47.000000,0.000000,4208.205078,4166.025879,4280.256348,4246.922852,4196.282227,4156.666504,4249.743652,4136.538574,4106.282227,4160.384766,4611.282227,4438.589844,4377.307617,4508.461426,0.000000,4.000000,81.000000,,,,0.000000,4.000000,4.000000,4.000000,4.000000,4.000000,4.000000,2.000000,4.000000,4.000000,4.000000,4.000000,4.000000,4.000000,4.000000,83.333336,,,,,,,,,,,,,,,,,,,,,,,,,,,,
1703405421.951791,1703405421.952954,48.000000,0.000000,4190.641113,4151.538574,4266.025879,4237.436035,4188.461426,4154.743652,4251.025879,4161.922852,4137.307617,4148.974121,4605.384766,4432.692383,4369.230957,4497.179688,0.000000,4.000000,81.000000,,,,0.000000,4.000000,4.000000,4.000000,4.000000,4.000000,4.000000,2.000000,4.000000,4.000000,4.000000,4.000000,4.000000,4.000000,4.000000,83.333336,,,,,,,,,,,,,,,,,12.000000,0.000000,0.680909,-0.182617,-0.689575,-0.165833,0.990844,-0.023440,-0.017092,-15.121836,-37.533096,63.126217
1703405421.959599,1703405421.960662,49.000000,0.000000,4181.922852,4149.102539,4265.000000,4229.743652,4183.717773,4152.051270,4249.743652,4173.205078,4164.487305,4138.461426,4594.102539,4426.153809,4360.128418,4486.794922,0.000000,4.000000,81.000000,,,,0.000000,4.000000,4.000000,4.000000,4.000000,4.000000,4.000000,2.000000,4.000000,4.000000,4.000000,4.000000,4.000000,4.000000,4.000000,83.333336,,,,,,,,,,,,,,,,,,,,,,,,,,,,
1703405421.967407,1703405421.968470,50.000000,0.000000,4185.384766,4151.666504,4265.384766,4231.282227,4181.666504,4151.666504,4247.948730,4171.153809,4164.230957,4135.256348,4588.077148,4425.897461,4350.128418,4485.769043,0.000000,4.000000,81.000000,,,,0.000000,4.000000,4.000000,4.000000,4.000000,4.000000,4.000000,2.000000,4.000000,4.000000,4.000000,4.000000,4.000000,4.000000,4.000000,83.333336,,,,,,,,,,,,,,,,,,,,,,,,,,,,
1703405421.975215,1703405421.976178,51.000000,0.000000,4200.384766,4158.846191,4269.358887,4240.641113,4190.897461,4152.051270,4250.000000,4170.641113,4155.769043,4132.692383,4584.102539,4435.256348,4352.563965,4496.282227,0.000000,4.000000,81.000000,,,,0.000000,4.000000,4.000000,4.000000,4.000000,4.000000,4.000000,2.000000,4.000000,4.000000,4.000000,4.000000,4.000000,4.000000,4.000000,83.333336,,,,,,,,,,,,,,,,,,,,,,,,,,,,
1703405421.983023,1703405421.983986,52.000000,0.000000,4213.974121,4170.897461,4284.487305,4250.256348,4203.077148,4152.820313,4251.025879,4175.641113,4175.128418,4143.717773,4591.538574,4447.948730,4365.000000,4507.948730,0.000000,4.000000,81.000000,,,,0.000000,4.000000,4.000000,4.000000,4.000000,4.000000,4.000000,2.000000,4.000000,4.000000,4.000000,4.000000,4.000000,4.000000,4.000000,83.333336,,,,,,,,,,,,,,,,,13.000000,0.000000,0.680827,-0.182800,-0.689636,-0.165710,0.990355,-0.025882,-0.013185,-15.092986,-37.579784,63.063595
1703405421.990832,1703405421.991694,53.000000,0.000000,4212.948730,4175.000000,4292.563965,4252.820313,4200.384766,4152.820313,4247.692383,4168.846191,4194.102539,4160.897461,4612.179688,4454.230957,4375.256348,4515.128418,0.000000,4.000000,81.000000,,,,0.000000,4.000000,4.000000,4.000000,4.000000,4.000000,4.000000,2.000000,4.000000,4.000000,4.000000,4.000000,4.000000,4.000000,4.000000,83.333336,,,,,,,,,,,,,,,,,,,,,,,,,,,,
1703405421.998639,1703405421.999502,54.000000,0.000000,4212.692383,4172.820313,4288.974121,4251.538574,4197.820313,4151.538574,4247.436035,4149.358887,4173.974121,4165.769043,4622.692383,4453.077148,4384.230957,4520.384766,0.000000,4.000000,81.000000,,,,0.000000,4.000000,4.000000,4.000000,4.000000,4.000000,4.000000,2.000000,4.000000,4.000000,4.000000,4.000000,4.000000,4.000000,4.000000,83.333336,,,,,,,,,,,,,,,,,,,,,,,,,,,,
1703405422.006448,1703405422.007210,55.000000,0.000000,4218.333496,4171.025879,4286.666504,4250.641113,4205.384766,4154.871582,4250.256348,4133.077148,4132.179688,4157.051270,4612.820313,4444.871582,4385.897461,4518.461426,0.000000,4.000000,81.000000,,,,0.000000,4.000000,4.000000,4.000000,4.000000,4.000000,4.000000,2.000000,4.000000,4.000000,4.000000,4.000000,4.000000,4.000000,4.000000,83.333336,,,,,,,,,,,,,,,,,,,,,,,,,,,,
1703405422.014256,1703405422.015018,56.000000,0.000000,4209.615234,4169.487305,4281.794922,4250.128418,4203.846191,4159.230957,4248.717773,4120.384766,4102.179688,4139.615234,4599.487305,4432.692383,4377.307617,4510.769043,0.000000,4.000000,81.000000,,,,0.000000,4.000000,4.000000,4.000000,4.000000,4.000000,4.000000,2.000000,4.000000,4.000000,4.000000,4.000000,4.000000,4.000000,4.000000,83.333336,,,,,,,,,,,,,,,,,14.000000,0.000000,0.680913,-0.183044,-0.689575,-0.165344,0.992797,-0.024905,0.004883,-15.067020,-37.505142,63.207233
1703405422.022064,1703405422.022726,57.000000,0.000000,4201.282227,4166.666504,4272.563965,4245.128418,4188.077148,4157.436035,4246.666504,4116.922852,4103.846191,4134.102539,4599.487305,4427.692383,4368.717773,4506.282227,0.000000,4.000000,81.000000,,,,0.000000,4.000000,4.000000,4.000000,4.000000,4.000000,4.000000,2.000000,4.000000,4.000000,4.000000,4.000000,4.000000,4.000000,4.000000,83.333336,,,,,,,,,,,,,,,,,,,,,,,,,,,,
1703405422.029872,1703405422.030534,58.000000,0.000000,4198.846191,4159.615234,4266.153809,4234.102539,4180.512695,4156.153809,4248.333496,4135.128418,4123.333496,4147.948730,4600.641113,4430.128418,4367.820313,4499.743652,0.000000,4.000000,81.000000,,,,0.000000,4.000000,4.000000,4.000000,4.000000,4.000000,4.000000,2.000000,4.000000,4.000000,4.000000,4.000000,4.000000,4.000000,4.000000,83.333336,,,,,,,,,,,,,,,,,,,,,,,,,,,,
1703405422.037680,1703405422.038242,59.000000,0.000000,4188.589844,4147.436035,4264.615234,4227.436035,4188.846191,4157.179688,4250.384766,4160.000000,4140.000000,4150.128418,4594.743652,4430.128418,4367.307617,4489.743652,0.000000,4.000000,81.000000,,,,0.000000,4.000000,4.000000,4.000000,4.000000,4.000000,4.000000,2.000000,4.000000,4.000000,4.000000,4.000000,4.000000,4.000000,4.000000,83.333336,,,,,,,,,,,,,,,,,,,,,,,,,,,,
1703405422.045488,1703405422.046150,60.000000,0.000000,4179.615234,4143.589844,4263.589844,4230.641113,4187.436035,4149.615234,4250.641113,4172.948730,4160.512695,4135.384766,4585.769043,4426.922852,4353.846191,4486.666504,0.000000,4.000000,81.000000,,,,0.000000,4.000000,4.000000,4.000000,4.000000,4.000000,4.000000,2.000000,4.000000,4.000000,4.000000,4.000000,4.000000,4.000000,4.000000,83.333336,,,,,,,,,,,,,,,,,15.000000,0.000000,0.680896,-0.183105,-0.689575,-0.165344,0.991820,-0.030765,-0.002930,-15.060318,-37.504627,63.069843
1703405422.053296,1703405422.053958,61.000000,0.000000,4186.153809,4151.153809,4264.487305,4231.025879,4170.000000,4143.333496,4251.282227,4177.436035,4173.974121,4137.820313,4582.179688,4430.897461,4336.153809,4486.922852,0.000000,4.000000,81.000000,,,,0.000000,4.000000,4.000000,4.000000,4.000000,4.000000,4.000000,2.000000,4.000000,4.000000,4.000000,4.000000,4.000000,4.000000,4.000000,83.333336,,,,,,,,,,,,,,,,,,,,,,,,,,,,
1703405422.061104,1703405422.061766,62.000000,0.000000,4198.589844,4154.230957,4274.358887,4231.025879,4168.077148,4150.512695,4251.282227,4177.051270,4168.461426,4146.153809,4592.307617,4439.743652,4340.512695,4494.358887,0.000000,4.000000,81.000000,,,,0.000000,4.000000,4.000000,4.000000,4.000000,4.000000,4.000000,2.000000,4.000000,4.000000,4.000000,4.000000,4.000000,4.000000,4.000000,83.333336,,,,,,,,,,,,,,,,,,,,,,,,,,,,
1703405422.068912,1703405422.069474,63.000000,0.000000,4201.922852,4152.436035,4285.384766,4240.641113,4182.948730,4150.512695,4250.897461,4170.256348,4156.153809,4140.128418,4600.128418,4446.794922,4368.717773,4509.358887,0.000000,4.000000,81.000000,,,,0.000000,4.000000,4.000000,4.000000,4.000000,4.000000,4.000000,2.000000,4.000000,4.000000,4.000000,4.000000,4.000000,4.000000,4.000000,83.333336,,,,,,,,,,,,,,,,,,,,,,,,,,,,
1703405422.076720,1703405422.077382,64.000000,0.000000,4201.153809,4159.615234,4284.358887,4247.436035,4183.333496,4143.077148,4252.051270,4157.307617,4143.205078,4138.077148,4591.922852,4446.025879,4384.102539,4512.563965,4756.000000,4.000000,81.000000,,,,0.000000,4.000000,4.000000,4.000000,4.000000,4.000000,4.000000,2.000000,4.000000,4.000000,4.000000,4.000000,4.000000,4.000000,4.000000,83.333336,,,,,,,,,,,,,,,,,16.000000,0.000000,0.681054,-0.183044,-0.689392,-0.165527,0.995727,-0.032719,-0.015139,-15.137620,-37.504166,63.062859
1703405422.084528,1703405422.085190,65.000000,0.000000,4207.436035,4169.871582,4279.615234,4247.307617,4181.025879,4148.589844,4252.563965,4142.563965,4135.769043,4140.000000,4590.000000,4436.282227,4371.794922,4506.153809,5354.000000,4.000000,81.000000,,,,0.000000,4.000000,4.000000,4.000000,4.000000,4.000000,4.000000,2.000000,4.000000,4.000000,4.000000,4.000000,4.000000,4.000000,4.000000,83.333336,,,,,,,,,,,,,,,,,,,,,,,,,,,,
1703405422.092336,1703405422.093097,66.000000,0.000000,4220.384766,4170.128418,4284.871582,4250.897461,4194.358887,4156.666504,4251.410156,4132.692383,4134.102539,4139.615234,4600.256348,4434.615234,4364.615234,4508.589844,5111.000000,4.000000,81.000000,,,,0.000000,4.000000,4.000000,4.000000,4.000000,4.000000,4.000000,2.000000,4.000000,4.000000,4.000000,4.000000,4.000000,4.000000,4.000000,83.333336,,,,,,,,,,,,,,,,,,,,,,,,,,,,
1703405422.100144,1703405422.100905,67.000000,0.000000,4217.692383,4166.666504,4288.846191,4252.948730,4196.794922,4153.846191,4248.333496,4129.615234,4122.820313,4148.205078,4600.897461,4440.641113,4375.897461,4510.384766,5330.000000,4.000000,81.000000,,,,0.000000,4.000000,4.000000,4.000000,4.000000,4.000000,4.000000,2.000000,4.000000,4.000000,4.000000,4.000000,4.000000,4.000000,4.000000,83.333336,,,,,,,,,,,,,,,,,,,,,,,,,,,,
1703405422.107952,1703405422.108813,68.000000,0.000000,4204.230957,4167.051270,4282.051270,4247.820313,4181.282227,4151.153809,4247.563965,4144.487305,4119.358887,4157.948730,4603.846191,4443.589844,4382.692383,4510.512695,5073.000000,4.000000,81.000000,,,,0.000000,4.000000,4.000000,4.000000,4.000000,4.000000,4.000000,2.000000,4.000000,4.000000,4.000000,4.000000,4.000000,4.000000,4.000000,83.333336,,,,,,,,,,,,,,,,,17.000000,0.000000,0.681052,-0.183105,-0.689392,-0.165466,0.995239,-0.035649,-0.008302,-15.057191,-37.637081,63.206573
1703405422.115760,1703405422.116621,69.000000,0.000000,4209.102539,4170.256348,4282.179688,4245.128418,4179.743652,4153.461426,4253.717773,4169.871582,4146.666504,4156.153809,4620.769043,4450.128418,4382.692383,4519.487305,4605.000000,4.000000,81.000000,,,,0.000000,4.000000,4.000000,4.000000,4.000000,4.000000,4.000000,2.000000,4.000000,4.000000,4.000000,4.000000,4.000000,4.000000,4.000000,83.333336,,,,,,,,,,,,,,,,,,,,,,,,,,,,
1703405422.123568,1703405422.124329,70.000000,0.000000,4216.794922,4169.871582,4288.333496,4248.717773,4189.487305,4155.128418,4257.051270,4178.205078,4172.179688,4156.666504,4622.307617,4460.128418,4386.025879,4527.307617,1431.000000,4.000000,81.000000,,,,0.000000,4.000000,4.000000,4.000000,4.000000,4.000000,4.000000,2.000000,4.000000,4.000000,4.000000,4.000000,4.000000,4.000000,4.000000,83.333336,,,,,,,,,,,,,,,,,,,,,,,,,,,,
1703405422.131376,1703405422.132137,71.000000,0.000000,4206.922852,4161.410156,4288.974121,4247.692383,4185.897461,4156.282227,4251.922852,4172.692383,4176.794922,4159.487305,4615.512695,4461.410156,4389.102539,4521.922852,5173.000000,4.000000,81.000000,,,,0.000000,4.000000,4.000000,4.000000,4.000000,4.000000,4.000000,2.000000,4.000000,4.000000,4.000000,4.000000,4.000000,4.000000,4.000000,83.333336,,,,,,,,,,,,,,,,,,,,,,,,,,,,
1703405422.139184,1703405422.139845,72.000000,0.000000,4196.153809,4150.384766,4284.487305,4240.256348,4180.512695,4156.794922,4248.077148,4172.051270,4168.205078,4143.717773,4617.563965,4451.410156,4382.563965,4509.743652,5038.000000,4.000000,81.000000,,,,0.000000,4.000000,4.000000,4.000000,4.000000,4.000000,4.000000,2.000000,4.000000,4.000000,4.000000,4.000000,4.000000,4.000000,4.000000,83.333336,,,,,,,,,,,,,,,,,18.000000,0.000000,0.681141,-0.183289,-0.689270,-0.165405,0.998657,-0.027835,-0.007325,-15.101472,-37.656708,63.352585
1703405422.146993,1703405422.147653,73.000000,0.000000,4200.256348,4151.025879,4281.922852,4239.230957,4184.871582,4150.641113,4251.025879,4172.051270,4160.000000,4136.410156,4613.846191,4441.666504,4372.692383,4503.974121,5136.000000,4.000000,81.000000,,,,0.000000,4.000000,4.000000,4.000000,4.000000,4.000000,4.000000,2.000000,4.000000,4.000000,4.000000,4.000000,4.000000,4.000000,4.000000,83.333336,1.000000,66.666664,4.000000,4.000000,4.000000,4.000000,4.000000,4.000000,2.000000,3.000000,3.000000,3.000000,4.000000,4.000000,4.000000,4.000000,,,,,,,,,,,,
1703405422.154801,1703405422.155361,74.000000,0.000000,4201.410156,4156.666504,4277.436035,4245.384766,4184.743652,4141.025879,4251.282227,4171.025879,4162.051270,4150.897461,4603.589844,4439.102539,4369.487305,4505.128418,5931.000000,4.000000,81.000000,,,,0.000000,4.000000,4.000000,4.000000,4.000000,4.000000,4.000000,2.000000,4.000000,4.000000,4.000000,4.000000,4.000000,4.000000,4.000000,83.333336,,,,,,,,,,,,,,,,,,,,,,,,,,,,
1703405422.162609,1703405422.163169,75.000000,0.000000,4199.358887,4155.897461,4272.948730,4247.436035,4179.358887,4141.410156,4248.846191,4168.333496,4159.102539,4147.820313,4593.205078,4439.743652,4364.743652,4504.230957,6163.000000,4.000000,81.000000,,,,0.000000,4.000000,4.000000,4.000000,4.000000,4.000000,4.000000,2.000000,4.000000,4.000000,4.000000,4.000000,4.000000,4.000000,4.000000,83.333336,,,,,,,,,,,,,,,,,,,,,,,,,,,,
1703405422.170417,1703405422.170878,76.000000,0.000000,4212.436035,4161.794922,4282.179688,4247.179688,4180.641113,4151.538574,4249.102539,4157.436035,4148.205078,4134.615234,4596.025879,4446.666504,4367.692383,4510.384766,6654.000000,4.000000,81.000000,,,,0.000000,4.000000,4.000000,4.000000,4.000000,4.000000,4.000000,2.000000,4.000000,4.000000,4.000000,4.000000,4.000000,4.000000,4.000000,83.333336,,,,,,,,,,,,,,,,,19.000000,0.000000,0.681200,-0.183411,-0.689209,-0.165283,0.992797,-0.030277,-0.007813,-14.957992,-37.724369,63.200657
1703405422.178225,1703405422.178685,77.000000,0.000000,4221.538574,4169.743652,4292.563965,4249.230957,4186.666504,4155.256348,4249.230957,4147.307617,4139.615234,4142.051270,4609.487305,4456.282227,4382.307617,4522.820313,6589.000000,4.000000,81.000000,,,,0.000000,4.000000,4.000000,4.000000,4.000000,4.000000,4.000000,2.000000,4.000000,4.000000,4.000000,4.000000,4.000000,4.000000,4.000000,83.333336,,,,,,,,,,,,,,,,,,,,,,,,,,,,
1703405422.186033,1703405422.186394,78.000000,0.000000,4216.922852,4172.948730,4293.077148,4255.769043,4193.077148,4153.589844,4248.205078,4138.333496,4129.230957,4148.974121,4612.179688,4454.615234,4387.563965,4522.563965,5931.000000,4.000000,81.000000,,,,0.000000,4.000000,4.000000,4.000000,4.000000,4.000000,4.000000,2.000000,4.000000,4.000000,4.000000,4.000000,4.000000,4.000000,4.000000,83.333336,,,,,,,,,,,,,,,,,,,,,,,,,,,,
1703405422.193841,1703405422.194202,79.000000,0.000000,4216.153809,4176.794922,4292.948730,4262.692383,4203.717773,4156.025879,4246.153809,4127.307617,4104.871582,4148.333496,4604.102539,4445.000000,4382.692383,4514.358887,6163.000000,4.000000,81.000000,,,,0.000000,4.000000,4.000000,4.000000,4.000000,4.000000,4.000000,2.000000,4.000000,4.000000,4.000000,4.000000,4.000000,4.000000,4.000000,83.333336,,,,,,,,,,,,,,,,,,,,,,,,,,,,
1703405422.201649,1703405422.201910,80.000000,0.000000,4216.666504,4176.922852,4293.589844,4259.615234,4206.410156,4154.615234,4246.282227,4135.000000,4098.461426,4154.871582,4596.153809,4442.563965,4378.717773,4510.641113,6654.000000,4.000000,81.000000,,,,0.000000,4.000000,4.000000,4.000000,4.000000,4.000000,4.000000,2.000000,4.000000,4.000000,4.000000,4.000000,4.000000,4.000000,4.000000,83.333336,,,,,,,,,,,,,,,,,20.000000,0.000000,0.681318,-0.183594,-0.689087,-0.165100,0.989867,-0.020022,-0.008790,-15.045526,-37.735264,63.230591
1703405422.209457,1703405422.209718,81.000000,0.000000,4208.077148,4171.153809,4287.436035,4249.358887,4196.538574,4151.922852,4248.717773,4161.666504,4136.282227,4149.358887,4592.051270,4445.897461,4367.820313,4506.922852,6589.000000,4.000000,81.000000,,,,0.000000,4.000000,4.000000,4.000000,4.000000,4.000000,4.000000,2.000000,4.000000,4.000000,4.000000,4.000000,4.000000,4.000000,4.000000,83.333336,,,,,,,,,,,,,,,,,,,,,,,,,,,,
1703405422.217265,1703405422.217426,82.000000,0.000000,4203.205078,4167.692383,4280.512695,4248.589844,4189.487305,4156.794922,4250.000000,4179.230957,4173.077148,4131.922852,4597.179688,4450.641113,4359.102539,4505.512695,5931.000000,4.000000,81.000000,,,,0.000000,4.000000,4.000000,4.000000,4.000000,4.000000,4.000000,2.000000,4.000000,4.000000,4.000000,4.000000,4.000000,4.000000,4.000000,83.333336,,,,,,,,,,,,,,,,,,,,,,,,,,,,
1703405422.225073,1703405422.225334,83.000000,0.000000,4204.743652,4168.077148,4281.794922,4251.025879,4182.820313,4152.692383,4248.717773,4179.743652,4172.563965,4132.307617,4609.358887,4455.256348,4371.410156,4506.922852,6163.000000,4.000000,81.000000,,,,0.000000,4.000000,4.000000,4.000000,4.000000,4.000000,4.000000,2.000000,4.000000,4.000000,4.000000,4.000000,4.000000,4.000000,4.000000,83.333336,,,,,,,,,,,,,,,,,,,,,,,,,,,,
1703405422.232881,1703405422.233141,84.000000,0.000000,4202.436035,4165.769043,4280.512695,4246.410156,4173.333496,4138.717773,4250.000000,4174.743652,4162.563965,4145.256348,4612.307617,4454.230957,4380.897461,4506.538574,6654.000000,4.000000,81.000000,,,,0.000000,4.000000,4.000000,4.000000,4.000000,4.000000,4.000000,2.000000,4.000000,4.000000,4.000000,4.000000,4.000000,4.000000,4.000000,83.333336,,,,,,,,,,,,,,,,,21.000000,0.000000,0.681513,-0.183777,-0.688904,-0.164856,0.984007,-0.037114,-0.007325,-15.057640,-37.595074,63.107533
1703405422.240689,1703405422.241049,85.000000,0.000000,4208.333496,4169.358887,4277.692383,4246.538574,4178.589844,4142.692383,4249.615234,4170.000000,4169.615234,4155.641113,4613.589844,4454.615234,4383.974121,4516.282227,6589.000000,4.000000,81.000000,,,,0.000000,4.000000,4.000000,4.000000,4.000000,4.000000,4.000000,2.000000,4.000000,4.000000,4.000000,4.000000,4.000000,4.000000,4.000000,83.333336,,,,,,,,,,,,,,,,,,,,,,,,,,,,
1703405422.248497,1703405422.248857,86.000000,0.000000,4216.410156,4171.922852,4280.000000,4249.487305,4196.794922,4156.153809,4241.538574,4160.641113,4171.410156,4162.307617,4621.666504,4457.563965,4396.538574,4528.333496,5931.000000,4.000000,81.000000,,,,0.000000,4.000000,4.000000,4.000000,4.000000,4.000000,4.000000,2.000000,4.000000,4.000000,4.000000,4.000000,4.000000,4.000000,4.000000,83.333336,,,,,,,,,,,,,,,,,,,,,,,,,,,,
1703405422.256305,1703405422.256765,87.000000,0.000000,4215.512695,4168.846191,4284.743652,4249.743652,4202.179688,4151.410156,4239.102539,4145.128418,4155.512695,4162.307617,4617.820313,4454.102539,4400.000000,4525.641113,6163.000000,4.000000,81.000000,,,,0.000000,4.000000,4.000000,4.000000,4.000000,4.000000,4.000000,2.000000,4.000000,4.000000,4.000000,4.000000,4.000000,4.000000,4.000000,83.333336,,,,,,,,,,,,,,,,,,,,,,,,,,,,
1703405422.264113,1703405422.264573,88.000000,0.000000,4224.743652,4176.794922,4287.692383,4257.948730,4197.563965,4144.871582,4242.051270,4135.128418,4138.589844,4164.487305,4610.512695,4455.512695,4394.230957,4528.077148,6654.000000,4.000000,81.000000,,,,0.000000,4.000000,4.000000,4.000000,4.000000,4.000000,4.000000,2.000000,4.000000,4.000000,4.000000,4.000000,4.000000,4.000000,4.000000,83.333336,,,,,,,,,,,,,,,,,22.000000,0.000000,0.681588,-0.183838,-0.688843,-0.164734,0.983030,-0.028812,-0.005860,-15.235209,-37.452232,63.096779
1703405422.271921,1703405422.272481,89.000000,0.000000,4240.512695,4189.358887,4288.589844,4265.256348,4197.563965,4151.666504,4241.922852,4138.461426,4134.743652,4175.897461,4619.871582,4461.282227,4397.948730,4536.666504,6589.000000,4.000000,81.000000,,,,0.000000,4.000000,4.000000,4.000000,4.000000,4.000000,4.000000,2.000000,4.000000,4.000000,4.000000,4.000000,4.000000,4.000000,4.000000,83.333336,,,,,,,,,,,,,,,,,,,,,,,,,,,,
1703405422.279729,1703405422.280289,90.000000,0.000000,4231.666504,4185.000000,4284.487305,4256.153809,4191.794922,4155.256348,4244.230957,4150.512695,4148.205078,4166.025879,4628.205078,4456.538574,4393.974121,4528.974121,5931.000000,4.000000,81.000000,,,,0.000000,4.000000,4.000000,4.000000,4.000000,4.000000,4.000000,2.000000,4.000000,4.000000,4.000000,4.000000,4.000000,4.000000,4.000000,83.333336,,,,,,,,,,,,,,,,,,,,,,,,,,,,
1703405422.287537,1703405422.288197,91.000000,0.000000,4213.717773,4171.025879,4279.102539,4245.512695,4183.461426,4149.743652,4250.769043,4163.461426,4158.846191,4140.512695,4620.256348,4454.871582,4385.256348,4518.717773,6163.000000,4.000000,81.000000,,,,0.000000,4.000000,4.000000,4.000000,4.000000,4.000000,4.000000,2.000000,4.000000,4.000000,4.000000,4.000000,4.000000,4.000000,4.000000,83.333336,,,,,,,,,,,,,,,,,,,,,,,,,,,,
1703405422.295345,1703405422.296005,92.000000,0.000000,4215.128418,4170.512695,4279.615234,4246.666504,4183.077148,4144.615234,4251.922852,4174.230957,4159.358887,4148.846191,4617.436035,4463.717773,4392.692383,4523.717773,6654.000000,4.000000,81.000000,,,,0.000000,4.000000,4.000000,4.000000,4.000000,4.000000,4.000000,2.000000,4.000000,4.000000,4.000000,4.000000,4.000000,4.000000,4.000000,83.333336,,,,,,,,,,,,,,,,,23.000000,0.000000,0.681706,-0.184021,-0.688721,-0.164551,0.998657,-0.027347,-0.000488,-15.045022,-37.373676,63.053768
1703405422.303154,1703405422.303913,93.000000,0.000000,4214.871582,4175.256348,4275.897461,4246.282227,4183.717773,4145.769043,4249.102539,4182.948730,4163.589844,4173.205078,4627.051270,4461.153809,4395.512695,4525.000000,6589.000000,4.000000,81.000000,,,,0.000000,4.000000,4.000000,4.000000,4.000000,4.000000,4.000000,2.000000,4.000000,4.000000,4.000000,4.000000,4.000000,4.000000,4.000000,83.333336,,,,,,,,,,,,,,,,,,,,,,,,,,,,
1703405422.310962,1703405422.311721,94.000000,0.000000,4204.358887,4172.692383,4267.436035,4243.205078,4183.333496,4152.563965,4249.615234,4189.743652,4173.333496,4165.256348,4627.179688,4452.179688,4390.128418,4519.487305,5931.000000,4.000000,81.000000,,,,0.000000,4.000000,4.000000,4.000000,4.000000,4.000000,4.000000,2.000000,4.000000,4.000000,4.000000,4.000000,4.000000,4.000000,4.000000,83.333336,,,,,,,,,,,,,,,,,,,,,,,,,,,,
1703405422.318770,1703405422.319429,95.000000,0.000000,4199.615234,4170.897461,4267.948730,4243.205078,4188.077148,4157.051270,4249.230957,4185.128418,4175.769043,4150.000000,4620.128418,4455.769043,4395.512695,4518.717773,6163.000000,4.000000,81.000000,,,,0.000000,4.000000,4.000000,4.000000,4.000000,4.000000,4.000000,2.000000,4.000000,4.000000,4.000000,4.000000,4.000000,4.000000,4.000000,83.333336,,,,,,,,,,,,,,,,,,,,,,,,,,,,
1703405422.326578,1703405422.327237,96.000000,0.000000,4202.307617,4170.128418,4273.333496,4243.846191,4188.205078,4154.102539,4249.615234,4168.717773,4163.846191,4150.897461,4616.538574,4459.487305,4392.692383,4520.000000,6654.000000,4.000000,81.000000,,,,0.000000,4.000000,4.000000,4.000000,4.000000,4.000000,4.000000,2.000000,4.000000,4.000000,4.000000,4.000000,4.000000,4.000000,4.000000,83.333336,,,,,,,,,,,,,,,,,24.000000,0.000000,0.681860,-0.184082,-0.688538,-0.164612,0.994750,-0.023440,0.000000,-14.907187,-37.502975,63.131725
1703405422.334386,1703405422.334945,97.000000,0.000000,4211.025879,4169.487305,4277.563965,4245.384766,4184.871582,4153.333496,4248.077148,4153.846191,4143.461426,4152.948730,4612.307617,4452.563965,4379.743652,4522.307617,6589.000000,4.000000,81.000000,,,,0.000000,4.000000,4.000000,4.000000,4.000000,4.000000,4.000000,2.000000,4.000000,4.000000,4.000000,4.000000,4.000000,4.000000,4.000000,83.333336,,,,,,,,,,,,,,,,,,,,,,,,,,,,
1703405422.342194,1703405422.342753,98.000000,0.000000,4218.077148,4175.769043,4286.025879,4249.615234,4191.922852,4151.666504,4245.384766,4147.692383,4137.692383,4158.333496,4614.102539,4452.948730,4386.666504,4523.077148,5931.000000,4.000000,81.000000,,,,0.000000,4.000000,4.000000,4.000000,4.000000,4.000000,4.000000,2.000000,4.000000,4.000000,4.000000,4.000000,4.000000,4.000000,4.000000,83.333336,,,,,,,,,,,,,,,,,,,,,,,,,,,,
1703405422.350002,1703405422.350461,99.000000,0.000000,4216.025879,4185.128418,4293.333496,4256.922852,4194.743652,4149.487305,4246.666504,4152.307617,4152.692383,4171.410156,4632.051270,4463.846191,4402.563965,4524.102539,6163.000000,4.000000,81.000000,,,,0.000000,4.000000,4.000000,4.000000,4.000000,4.000000,4.000000,2.000000,4.000000,4.000000,4.000000,4.000000,4.000000,4.000000,4.000000,83.333336,,,,,,,,,,,,,,,,,,,,,,,,,,,,
1703405422.357810,1703405422.358269,100.000000,0.000000,4220.512695,4188.205078,4293.846191,4264.871582,4188.846191,4154.615234,4247.436035,4155.256348,4149.230957,4174.102539,4639.743652,4466.922852,4401.538574,4529.230957,6654.000000,4.000000,81.000000,,,,0.000000,4.000000,4.000000,4.000000,4.000000,4.000000,4.000000,2.000000,4.000000,4.000000,4.000000,4.000000,4.000000,4.000000,4.000000,83.333336,,,,,,,,,,,,,,,,,25.000000,0.000000,0.681878,-0.183960,-0.688538,-0.164673,0.988890,-0.035161,0.001953,-14.966468,-37.452679,63.201885
1703405422.365618,1703405422.365977,101.000000,0.000000,4231.922852,4187.563965,4290.897461,4263.333496,4186.538574,4152.179688,4244.743652,4152.948730,4127.820313,4164.743652,4616.794922,4461.025879,4391.282227,4528.717773,6589.000000,4.000000,81.000000,,,,0.000000,4.000000,4.000000,4.000000,4.000000,4.000000,4.000000,2.000000,4.000000,4.000000,4.000000,4.000000,4.000000,4.000000,4.000000,83.333336,,,,,,,,,,,,,,,,,,,,,,,,,,,,
1703405422.373426,1703405422.373885,102.000000,0.000000,4227.563965,4185.512695,4287.179688,4252.563965,4186.025879,4144.871582,4245.000000,4161.410156,4135.256348,4154.615234,4601.410156,4459.230957,4382.307617,4522.563965,5931.000000,4.000000,81.000000,,,,0.000000,4.000000,4.000000,4.000000,4.000000,4.000000,4.000000,2.000000,4.000000,4.000000,4.000000,4.000000,4.000000,4.000000,4.000000,83.333336,,,,,,,,,,,,,,,,,,,,,,,,,,,,
1703405422.381234,1703405422.381693,103.000000,0.000000,4215.512695,4183.077148,4288.589844,4248.589844,4184.871582,4150.512695,4247.307617,4170.000000,4157.307617,4145.897461,4612.307617,4458.846191,4380.128418,4522.820313,6163.000000,4.000000,81.000000,,,,0.000000,4.000000,4.000000,4.000000,4.000000,4.000000,4.000000,2.000000,4.000000,4.000000,4.000000,4.000000,4.000000,4.000000,4.000000,83.333336,,,,,,,,,,,,,,,,,,,,,,,,,,,,
1703405422.389042,1703405422.389601,104.000000,0.000000,4215.897461,4184.230957,4285.641113,4251.794922,4188.077148,4159.871582,4249.102539,4161.666504,4157.179688,4143.974121,4613.974121,4449.743652,4385.769043,4520.384766,6654.000000,4.000000,81.000000,,,,0.000000,4.000000,4.000000,4.000000,4.000000,4.000000,4.000000,2.000000,4.000000,4.000000,4.000000,4.000000,4.000000,4.000000,4.000000,83.333336,,,,,,,,,,,,,,,,,26.000000,0.000000,0.682117,-0.184204,-0.688293,-0.164429,0.996215,-0.021487,-0.006837,-14.903154,-37.474075,63.248363
1703405422.396850,1703405422.397409,105.000000,0.000000,4217.307617,4181.794922,4267.692383,4249.102539,4190.384766,4154.102539,4249.230957,4144.487305,4145.769043,4138.589844,4595.000000,4434.102539,4383.461426,4507.563965,6589.000000,4.000000,81.000000,,,,0.000000,4.000000,4.000000,4.000000,4.000000,4.000000,4.000000,2.000000,4.000000,4.000000,4.000000,4.000000,4.000000,4.000000,4.000000,83.333336,,,,,,,,,,,,,,,,,,,,,,,,,,,,
1703405422.404658,1703405422.405217,106.000000,0.000000,4211.666504,4173.205078,4256.153809,4242.692383,4185.641113,4143.846191,4241.794922,4139.358887,4145.897461,4127.179688,4588.589844,4425.000000,4369.487305,4503.205078,5931.000000,4.000000,81.000000,,,,0.000000,4.000000,4.000000,4.000000,4.000000,4.000000,4.000000,2.000000,4.000000,4.000000,4.000000,4.000000,4.000000,4.000000,4.000000,83.333336,,,,,,,,,,,,,,,,,,,,,,,,,,,,
1703405422.412466,1703405422.412925,107.000000,0.000000,4200.128418,4166.025879,4262.563965,4241.922852,4181.410156,4142.820313,4239.615234,4145.384766,4154.487305,4133.974121,4597.563965,4427.051270,4362.563965,4505.512695,6163.000000,4.000000,81.000000,,,,0.000000,4.000000,4.000000,4.000000,4.000000,4.000000,4.000000,2.000000,4.000000,4.000000,4.000000,4.000000,4.000000,4.000000,4.000000,83.333336,,,,,,,,,,,,,,,,,,,,,,,,,,,,
1703405422.420274,1703405422.420733,108.000000,0.000000,4196.922852,4167.051270,4269.230957,4245.512695,4188.333496,4144.358887,4242.948730,4152.307617,4157.948730,4152.307617,4599.871582,4435.897461,4369.487305,4504.487305,6654.000000,4.000000,81.000000,,,,0.000000,4.000000,4.000000,4.000000,4.000000,4.000000,4.000000,2.000000,4.000000,4.000000,4.000000,4.000000,4.000000,4.000000,4.000000,83.333336,,,,,,,,,,,,,,,,,27.000000,0.000000,0.682047,-0.184509,-0.688354,-0.164124,0.978635,-0.017092,-0.009278,-15.029506,-37.526669,63.423527
1703405422.428082,1703405422.428441,109.000000,0.000000,4207.307617,4176.794922,4272.948730,4249.871582,4197.436035,4144.743652,4240.641113,4161.794922,4154.615234,4158.589844,4608.333496,4448.974121,4383.846191,4512.436035,6589.000000,4.000000,81.000000,,,,0.000000,4.000000,4.000000,4.000000,4.000000,4.000000,4.000000,2.000000,4.000000,4.000000,4.000000,4.000000,4.000000,4.000000,4.000000,83.333336,,,,,,,,,,,,,,,,,,,,,,,,,,,,
1703405422.435891,1703405422.436348,110.000000,0.000000,4218.205078,4183.589844,4280.769043,4250.897461,4186.282227,4142.051270,4240.769043,4167.436035,4156.666504,4157.692383,4620.769043,4457.179688,4390.384766,4524.615234,5931.000000,4.000000,81.000000,,,,0.000000,4.000000,4.000000,4.000000,4.000000,4.000000,4.000000,2.000000,4.000000,4.000000,4.000000,4.000000,4.000000,4.000000,4.000000,83.333336,,,,,,,,,,,,,,,,,,,,,,,,,,,,
1703405422.443699,1703405422.444156,111.000000,0.000000,4224.230957,4183.589844,4288.589844,4248.846191,4171.922852,4140.000000,4243.333496,4162.563965,4153.717773,4156.666504,4621.666504,4457.948730,4389.871582,4529.230957,6163.000000,4.000000,81.000000,,,,0.000000,4.000000,4.000000,4.000000,4.000000,4.000000,4.000000,2.000000,4.000000,4.000000,4.000000,4.000000,4.000000,4.000000,4.000000,83.333336,,,,,,,,,,,,,,,,,,,,,,,,,,,,
1703405422.451507,1703405422.452064,112.000000,0.000000,4224.743652,4185.641113,4293.589844,4255.000000,4182.436035,4140.128418,4244.487305,4146.666504,4135.000000,4146.025879,4618.717773,4461.282227,4388.974121,4528.717773,6654.000000,4.000000,81.000000,,,,0.000000,4.000000,4.000000,4.000000,4.000000,4.000000,4.000000,2.000000,4.000000,4.000000,4.000000,4.000000,4.000000,4.000000,4.000000,83.333336,,,,,,,,,,,,,,,,,28.000000,0.000000,0.682045,-0.184387,-0.688477,-0.163757,0.990355,-0.021487,-0.005860,-15.143222,-37.540668,63.331177
1703405422.459315,1703405422.459872,113.000000,0.000000,4215.128418,4186.282227,4290.769043,4260.512695,4191.153809,4139.615234,4242.820313,4136.794922,4126.153809,4139.230957,4612.179688,4457.820313,4382.436035,4522.820313,6589.000000,4.000000,81.000000,,,,0.000000,4.000000,4.000000,4.000000,4.000000,4.000000,4.000000,2.000000,4.000000,4.000000,4.000000,4.000000,4.000000,4.000000,4.000000,83.333336,,,,,,,,,,,,,,,,,,,,,,,,,,,,
1703405422.467123,1703405422.467780,114.000000,0.000000,4204.102539,4176.282227,4284.102539,4252.692383,4183.589844,4144.615234,4238.717773,4150.512695,4143.333496,4147.307617,4605.000000,4446.666504,4381.025879,4517.051270,5931.000000,4.000000,81.000000,,,,0.000000,4.000000,4.000000,4.000000,4.000000,4.000000,4.000000,2.000000,4.000000,4.000000,4.000000,4.000000,4.000000,4.000000,4.000000,83.333336,,,,,,,,,,,,,,,,,,,,,,,,,,,,
1703405422.474931,1703405422.475688,115.000000,0.000000,4203.333496,4170.000000,4280.769043,4246.282227,4184.230957,4155.897461,4239.871582,4175.128418,4166.538574,4155.000000,4609.102539,4446.666504,4390.128418,4519.871582,6163.000000,4.000000,81.000000,,,,0.000000,4.000000,4.000000,4.000000,4.000000,4.000000,4.000000,2.000000,4.000000,4.000000,4.000000,4.000000,4.000000,4.000000,4.000000,83.333336,,,,,,,,,,,,,,,,,,,,,,,,,,,,
1703405422.482739,1703405422.483496,116.000000,0.000000,4199.871582,4171.025879,4274.871582,4247.948730,4186.282227,4155.641113,4243.846191,4173.974121,4169.487305,4148.589844,4611.538574,4446.025879,4382.436035,4513.589844,6654.000000,4.000000,81.000000,,,,0.000000,4.000000,4.000000,4.000000,4.000000,4.000000,4.000000,2.000000,4.000000,4.000000,4.000000,4.000000,4.000000,4.000000,4.000000,83.333336,,,,,,,,,,,,,,,,,29.000000,0.000000,0.682071,-0.184387,-0.688538,-0.163391,1.002075,-0.022952,-0.005372,-15.195566,-37.669933,63.198059
1703405422.490547,1703405422.491305,117.000000,0.000000,4192.436035,4167.948730,4274.230957,4245.512695,4184.487305,4143.333496,4243.333496,4152.948730,4154.615234,4135.256348,4597.179688,4436.538574,4364.871582,4498.974121,6589.000000,4.000000,81.000000,,,,0.000000,4.000000,4.000000,4.000000,4.000000,4.000000,4.000000,2.000000,4.000000,4.000000,4.000000,4.000000,4.000000,4.000000,4.000000,83.333336,,,,,,,,,,,,,,,,,,,,,,,,,,,,
1703405422.498355,1703405422.499113,118.000000,0.000000,4204.230957,4170.256348,4288.974121,4247.692383,4185.641113,4140.512695,4241.410156,4149.743652,4143.589844,4141.153809,4594.230957,4444.871582,4373.974121,4512.948730,5931.000000,4.000000,81.000000,,,,0.000000,4.000000,4.000000,4.000000,4.000000,4.000000,4.000000,2.000000,4.000000,4.000000,4.000000,4.000000,4.000000,4.000000,4.000000,83.333336,,,,,,,,,,,,,,,,,,,,,,,,,,,,
1703405422.506163,1703405422.507021,119.000000,0.000000,4224.871582,4181.666504,4301.153809,4262.307617,4184.102539,4143.974121,4243.333496,4153.077148,4140.512695,4153.205078,4610.512695,4461.666504,4389.230957,4535.128418,6163.000000,4.000000,81.000000,,,,0.000000,4.000000,4.000000,4.000000,4.000000,4.000000,4.000000,2.000000,4.000000,4.000000,4.000000,4.000000,4.000000,4.000000,4.000000,83.333336,,,,,,,,,,,,,,,,,,,,,,,,,,,,
1703405422.513971,1703405422.514829,120.000000,0.000000,4230.512695,4189.487305,4300.769043,4268.333496,4184.230957,4137.307617,4241.922852,4144.102539,4138.589844,4145.641113,4613.205078,4458.717773,4381.538574,4531.153809,6654.000000,4.000000,81.000000,,,,0.000000,4.000000,4.000000,4.000000,4.000000,4.000000,4.000000,2.000000,4.000000,4.000000,4.000000,4.000000,4.000000,4.000000,4.000000,83.333336,,,,,,,,,,,,,,,,,30.000000,0.000000,0.682098,-0.184448,-0.688538,-0.163208,0.992797,-0.043462,-0.003907,-15.259343,-37.652943,63.178253
1703405422.521779,1703405422.522637,121.000000,0.000000,4228.205078,4190.256348,4300.769043,4262.948730,4186.922852,4133.717773,4237.820313,4137.948730,4141.282227,4144.615234,4607.820313,4453.077148,4380.512695,4528.077148,6589.000000,4.000000,81.000000,,,,0.000000,4.000000,4.000000,4.000000,4.000000,4.000000,4.000000,2.000000,4.000000,4.000000,4.000000,4.000000,4.000000,4.000000,4.000000,83.333336,,,,,,,,,,,,,,,,,,,,,,,,,,,,
1703405422.529587,1703405422.530345,122.000000,0.000000,4232.179688,4189.743652,4304.102539,4263.077148,4190.256348,4146.538574,4240.128418,4143.717773,4152.179688,4159.743652,4613.461426,4461.410156,4395.000000,4540.384766,5931.000000,4.000000,81.000000,,,,0.000000,4.000000,4.000000,4.000000,4.000000,4.000000,4.000000,2.000000,4.000000,4.000000,4.000000,4.000000,4.000000,4.000000,4.000000,83.333336,,,,,,,,,,,,,,,,,,,,,,,,,,,,
1703405422.537395,1703405422.538153,123.000000,0.000000,4231.666504,4189.487305,4304.871582,4265.641113,4196.794922,4158.846191,4244.230957,4153.717773,4159.871582,4153.333496,4617.948730,4469.743652,4401.410156,4546.922852,6163.000000,4.000000,81.000000,,,,0.000000,4.000000,4.000000,4.000000,4.000000,4.000000,4.000000,2.000000,4.000000,4.000000,4.000000,4.000000,4.000000,4.000000,4.000000,83.333336,,,,,,,,,,,,,,,,,,,,,,,,,,,,
1703405422.545203,1703405422.545861,124.000000,0.000000,4220.384766,4186.666504,4297.179688,4257.563965,4193.461426,4152.563965,4241.538574,4158.077148,4147.179688,4133.846191,4607.820313,4458.846191,4391.666504,4535.000000,6654.000000,4.000000,81.000000,,,,0.000000,4.000000,4.000000,4.000000,4.000000,4.000000,4.000000,2.000000,4.000000,4.000000,4.000000,4.000000,4.000000,4.000000,4.000000,83.333336,,,,,,,,,,,,,,,,,31.000000,0.000000,0.682111,-0.184509,-0.688538,-0.163086,0.998657,-0.045904,-0.010743,-15.283408,-37.637646,63.077095
1703405422.553011,1703405422.553669,125.000000,0.000000,4213.717773,4179.358887,4286.153809,4248.077148,4172.692383,4139.102539,4236.794922,4154.615234,4130.256348,4132.179688,4591.153809,4438.974121,4373.717773,4517.820313,6589.000000,4.000000,81.000000,,,,0.000000,4.000000,4.000000,4.000000,4.000000,4.000000,4.000000,2.000000,4.000000,4.000000,4.000000,4.000000,4.000000,4.000000,4.000000,83.333336,,,,,,,,,,,,,,,,,,,,,,,,,,,,
1703405422.560819,1703405422.561377,126.000000,0.000000,4217.692383,4169.487305,4286.025879,4247.179688,4164.615234,4135.897461,4238.077148,4152.820313,4136.410156,4135.769043,4586.538574,4439.358887,4363.974121,4514.487305,5931.000000,4.000000,81.000000,,,,0.000000,4.000000,4.000000,4.000000,4.000000,4.000000,4.000000,2.000000,4.000000,4.000000,4.000000,4.000000,4.000000,4.000000,4.000000,83.333336,,,,,,,,,,,,,,,,,,,,,,,,,,,,
1703405422.568627,1703405422.569185,127.000000,0.000000,4211.538574,4166.538574,4285.000000,4245.512695,4169.743652,4140.641113,4240.256348,4155.769043,4146.538574,4130.512695,4585.256348,4444.743652,4357.820313,4514.102539,81.000000,4.000000,81.000000,,,,0.000000,4.000000,4.000000,4.000000,4.000000,4.000000,4.000000,2.000000,4.000000,4.000000,4.000000,4.000000,4.000000,4.000000,4.000000,83.333336,,,,,,,,,,,,,,,,,,,,,,,,,,,,
1703405422.576435,1703405422.576893,0.000000,0.000000,4195.769043,4168.077148,4276.666504,4240.769043,4171.794922,4140.512695,4238.205078,4155.256348,4139.871582,4122.179688,4581.153809,4437.563965,4350.641113,4503.461426,4762.000000,4.000000,81.000000,,,,0.000000,4.000000,4.000000,4.000000,4.000000,4.000000,4.000000,2.000000,4.000000,4.000000,4.000000,4.000000,4.000000,4.000000,4.000000,83.333336,,,,,,,,,,,,,,,,,0.000000,0.000000,0.681991,-0.184387,-0.688660,-0.163208,0.987914,-0.053229,-0.003907,-15.338401,-37.707214,63.069386
1703405422.584243,1703405422.584801,1.000000,0.000000,4201.794922,4167.436035,4282.307617,4243.717773,4175.641113,4139.230957,4237.948730,4150.384766,4139.487305,4126.538574,4590.000000,4443.846191,4360.512695,4504.871582,5349.000000,4.000000,81.000000,,,,0.000000,4.000000,4.000000,4.000000,4.000000,4.000000,4.000000,2.000000,4.000000,4.000000,4.000000,4.000000,4.000000,4.000000,4.000000,83.333336,,,,,,,,,,,,,,,,,,,,,,,,,,,,
1703405422.592052,1703405422.592609,2.000000,0.000000,4224.358887,4173.846191,4299.487305,4255.512695,4175.641113,4141.153809,4236.282227,4142.179688,4145.641113,4146.794922,4607.692383,4462.307617,4385.000000,4529.230957,5126.000000,4.000000,81.000000,,,,0.000000,4.000000,4.000000,4.000000,4.000000,4.000000,4.000000,2.000000,4.000000,4.000000,4.000000,4.000000,4.000000,4.000000,4.000000,83.333336,,,,,,,,,,,,,,,,,,,,,,,,,,,,
1703405422.599860,1703405422.600517,3.000000,0.000000,4233.717773,4184.358887,4307.692383,4262.436035,4178.974121,4140.897461,4236.025879,4136.025879,4134.230957,4160.769043,4611.410156,4469.487305,4393.974121,4543.589844,5327.000000,4.000000,81.000000,,,,0.000000,4.000000,4.000000,4.000000,4.000000,4.000000,4.000000,2.000000,4.000000,4.000000,4.000000,4.000000,4.000000,4.000000,4.000000,83.333336,,,,,,,,,,,,,,,,,,,,,,,,,,,,
1703405422.607668,1703405422.608325,4.000000,0.000000,4234.871582,4187.692383,4313.461426,4262.820313,4184.871582,4140.000000,4236.538574,4142.051270,4125.384766,4149.358887,4613.717773,4474.102539,4385.512695,4541.666504,5081.000000,4.000000,81.000000,,,,0.000000,4.000000,4.000000,4.000000,4.000000,4.000000,4.000000,2.000000,4.000000,4.000000,4.000000,4.000000,4.000000,4.000000,4.000000,83.333336,,,,,,,,,,,,,,,,,1.000000,0.000000,0.682127,-0.184570,-0.688477,-0.163208,0.973263,-0.043462,-0.021487,-15.354561,-37.719826,63.062447
1703405422.615476,1703405422.616133,5.000000,0.000000,4233.846191,4187.820313,4317.563965,4266.025879,4174.358887,4138.333496,4233.205078,4154.615234,4134.487305,4135.256348,4627.948730,4481.922852,4386.922852,4543.077148,4605.000000,4.000000,81.000000,,,,0.000000,4.000000,4.000000,4.000000,4.000000,4.000000,4.000000,2.000000,4.000000,4.000000,4.000000,4.000000,4.000000,4.000000,4.000000,83.333336,,,,,,,,,,,,,,,,,,,,,,,,,,,,
1703405422.623284,1703405422.623841,6.000000,0.000000,4223.205078,4182.307617,4303.077148,4262.563965,4169.102539,4137.692383,4231.153809,4157.436035,4140.384766,4138.205078,4624.487305,4472.948730,4386.410156,4538.333496,1437.000000,4.000000,81.000000,,,,0.000000,4.000000,4.000000,4.000000,4.000000,4.000000,4.000000,2.000000,4.000000,4.000000,4.000000,4.000000,4.000000,4.000000,4.000000,83.333336,,,,,,,,,,,,,,,,,,,,,,,,,,,,
1703405422.631092,1703405422.631749,7.000000,0.000000,4214.487305,4172.692383,4285.256348,4250.000000,4188.077148,4146.538574,4234.743652,4152.820313,4137.051270,4139.743652,4600.769043,4455.256348,4376.794922,4525.256348,5178.000000,4.000000,81.000000,,,,0.000000,4.000000,4.000000,4.000000,4.000000,4.000000,4.000000,2.000000,4.000000,4.000000,4.000000,4.000000,4.000000,4.000000,4.000000,83.333336,,,,,,,,,,,,,,,,,,,,,,,,,,,,
1703405422.638900,1703405422.639557,8.000000,0.000000,4214.743652,4169.743652,4281.666504,4243.589844,4186.922852,4155.000000,4238.974121,4153.589844,4145.512695,4134.358887,4591.410156,4449.487305,4373.333496,4521.922852,5060.000000,4.000000,81.000000,,,,0.000000,4.000000,4.000000,4.000000,4.000000,4.000000,4.000000,2.000000,4.000000,4.000000,4.000000,4.000000,4.000000,4.000000,4.000000,83.333336,,,,,,,,,,,,,,,,,2.000000,0.000000,0.682377,-0.184631,-0.688110,-0.163635,0.987425,-0.042974,-0.015627,-15.302438,-37.664513,62.922867
1703405422.646708,1703405422.647465,9.000000,0.000000,4216.538574,4171.794922,4281.794922,4246.538574,4165.897461,4150.897461,4240.769043,4157.563965,4158.205078,4134.615234,4597.820313,4449.102539,4372.563965,4522.307617,5133.000000,4.000000,81.000000,,,,0.000000,4.000000,4.000000,4.000000,4.000000,4.000000,4.000000,2.000000,4.000000,4.000000,4.000000,4.000000,4.000000,4.000000,4.000000,83.333336,1.000000,75.000000,4.000000,4.000000,4.000000,4.000000,4.000000,4.000000,2.000000,4.000000,3.000000,4.000000,4.000000,4.000000,4.000000,4.000000,,,,,,,,,,,,
1703405422.654516,1703405422.655273,10.000000,0.000000,4213.846191,4171.666504,4280.641113,4248.589844,4171.410156,4150.512695,4242.051270,4152.436035,4153.717773,4138.589844,4599.487305,4448.205078,4367.307617,4512.820313,5928.000000,4.000000,81.000000,,,,0.000000,4.000000,4.000000,4.000000,4.000000,4.000000,4.000000,2.000000,4.000000,4.000000,4.000000,4.000000,4.000000,4.000000,4.000000,83.333336,,,,,,,,,,,,,,,,,,,,,,,,,,,,
1703405422.662324,1703405422.663181,11.000000,0.000000,4210.641113,4172.179688,4284.871582,4249.743652,4183.077148,4152.948730,4243.589844,4147.436035,4149.230957,4141.666504,4598.077148,4449.102539,4363.205078,4508.974121,6170.000000,4.000000,81.000000,,,,0.000000,4.000000,4.000000,4.000000,4.000000,4.000000,4.000000,2.000000,4.000000,4.000000,4.000000,4.000000,4.000000,4.000000,4.000000,83.333336,,,,,,,,,,,,,,,,,,,,,,,,,,,,
1703405422.670132,1703405422.670989,12.000000,0.000000,4215.128418,4176.538574,4289.615234,4253.846191,4179.487305,4143.589844,4245.641113,4159.230957,4151.922852,4140.512695,4600.641113,4456.794922,4368.205078,4521.153809,6656.000000,4.000000,81.000000,,,,0.000000,4.000000,4.000000,4.000000,4.000000,4.000000,4.000000,2.000000,4.000000,4.000000,4.000000,4.000000,4.000000,4.000000,4.000000,83.333336,,,,,,,,,,,,,,,,,3.000000,0.000000,0.682556,-0.184631,-0.687744,-0.164429,0.989379,-0.031742,-0.013185,-15.188861,-37.598061,62.763916
1703405422.677940,1703405422.678896,13.000000,0.000000,4221.282227,4176.922852,4289.230957,4250.641113,4180.128418,4141.794922,4245.897461,4167.820313,4146.153809,4138.077148,4605.000000,4460.641113,4373.717773,4528.717773,6591.000000,4.000000,81.000000,,,,0.000000,4.000000,4.000000,4.000000,4.000000,4.000000,4.000000,2.000000,4.000000,4.000000,4.000000,4.000000,4.000000,4.000000,4.000000,83.333336,,,,,,,,,,,,,,,,,,,,,,,,,,,,
1703405422.685748,1703405422.686704,14.000000,0.000000,4217.948730,4174.358887,4288.974121,4247.563965,4181.410156,4152.436035,4242.436035,4160.000000,4135.128418,4139.358887,4601.922852,4454.615234,4366.666504,4518.846191,5928.000000,4.000000,81.000000,,,,0.000000,4.000000,4.000000,4.000000,4.000000,4.000000,4.000000,2.000000,4.000000,4.000000,4.000000,4.000000,4.000000,4.000000,4.000000,83.333336,,,,,,,,,,,,,,,,,,,,,,,,,,,,
1703405422.693556,1703405422.694413,15.000000,0.000000,4217.436035,4177.692383,4296.538574,4258.717773,4174.102539,4153.846191,4243.077148,4159.871582,4140.384766,4135.769043,4596.025879,4457.051270,4357.436035,4515.000000,6170.000000,4.000000,81.000000,,,,0.000000,4.000000,4.000000,4.000000,4.000000,4.000000,4.000000,2.000000,4.000000,4.000000,4.000000,4.000000,4.000000,4.000000,4.000000,83.333336,,,,,,,,,,,,,,,,,,,,,,,,,,,,
1703405422.701364,1703405422.702220,16.000000,0.000000,4226.410156,4183.589844,4306.922852,4265.769043,4177.692383,4150.641113,4242.307617,4175.384766,4165.897461,4137.436035,4609.230957,4471.666504,4369.743652,4527.563965,0.000000,4.000000,81.000000,,,,0.000000,4.000000,4.000000,4.000000,4.000000,4.000000,4.000000,2.000000,4.000000,4.000000,4.000000,4.000000,4.000000,4.000000,4.000000,83.333336,,,,,,,,,,,,,,,,,4.000000,0.000000,0.682763,-0.184631,-0.687378,-0.165100,1.003052,-0.031254,-0.005372,-15.386642,-37.671589,62.837524
1703405422.709172,1703405422.709929,17.000000,0.000000,4223.846191,4178.333496,4299.487305,4252.179688,4188.974121,4153.974121,4238.205078,4179.871582,4175.384766,4154.743652,4623.846191,4475.000000,4386.666504,4534.230957,0.000000,4.000000,81.000000,,,,0.000000,4.000000,4.000000,4.000000,4.000000,4.000000,4.000000,2.000000,4.000000,4.000000,4.000000,4.000000,4.000000,4.000000,4.000000,83.333336,,,,,,,,,,,,,,,,,,,,,,,,,,,,
1703405422.716980,1703405422.717737,18.000000,0.000000,4211.153809,4164.102539,4278.717773,4239.358887,4178.717773,4155.128418,4236.922852,4163.717773,4147.436035,4148.077148,4604.102539,4454.871582,4374.487305,4519.358887,0.000000,4.000000,81.000000,,,,0.000000,4.000000,4.000000,4.000000,4.000000,4.000000,4.000000,2.000000,4.000000,4.000000,4.000000,4.000000,4.000000,4.000000,4.000000,83.333336,,,,,,,,,,,,,,,,,,,,,,,,,,,,
1703405422.724789,1703405422.725445,19.000000,0.000000,4212.820313,4166.538574,4275.769043,4246.794922,4165.512695,4149.487305,4237.692383,4151.666504,4129.871582,4120.512695,4579.615234,4439.743652,4355.897461,4506.025879,0.000000,4.000000,81.000000,,,,0.000000,4.000000,4.000000,4.000000,4.000000,4.000000,4.000000,2.000000,4.000000,4.000000,4.000000,4.000000,4.000000,4.000000,4.000000,83.333336,,,,,,,,,,,,,,,,,,,,,,,,,,,,
1703405422.732597,1703405422.733253,20.000000,0.000000,4220.384766,4180.000000,4285.769043,4253.589844,4171.922852,4143.717773,4239.487305,4154.230957,4152.307617,4127.692383,4590.641113,4448.974121,4358.846191,4508.205078,0.000000,4.000000,81.000000,,,,0.000000,4.000000,4.000000,4.000000,4.000000,4.000000,4.000000,2.000000,4.000000,4.000000,4.000000,4.000000,4.000000,4.000000,4.000000,83.333336,,,,,,,,,,,,,,,,,5.000000,0.000000,0.682843,-0.184570,-0.687256,-0.165344,0.995239,-0.025394,-0.003418,-15.481311,-37.654430,62.820438
1703405422.740404,1703405422.740961,21.000000,0.000000,4208.974121,4176.794922,4278.974121,4246.666504,4174.487305,4142.948730,4241.282227,4159.358887,4166.025879,4149.871582,4607.307617,4456.666504,4366.410156,4505.512695,0.000000,4.000000,81.000000,,,,0.000000,4.000000,4.000000,4.000000,4.000000,4.000000,4.000000,2.000000,4.000000,4.000000,4.000000,4.000000,4.000000,4.000000,4.000000,83.333336,,,,,,,,,,,,,,,,,,,,,,,,,,,,
1703405422.748213,1703405422.748769,22.000000,0.000000,4196.538574,4164.743652,4267.436035,4241.794922,4168.974121,4146.666504,4240.384766,4160.769043,4153.461426,4142.563965,4599.871582,4448.717773,4358.974121,4499.358887,0.000000,4.000000,81.000000,,,,0.000000,4.000000,4.000000,4.000000,4.000000,4.000000,4.000000,2.000000,4.000000,4.000000,4.000000,4.000000,4.000000,4.000000,4.000000,83.333336,,,,,,,,,,,,,,,,,,,,,,,,,,,,
1703405422.756021,1703405422.756477,23.000000,0.000000,4205.000000,4164.230957,4275.384766,4244.871582,4167.436035,4144.871582,4238.077148,4165.000000,4153.205078,4133.589844,4590.897461,4446.666504,4347.692383,4500.256348,0.000000,4.000000,81.000000,,,,0.000000,4.000000,4.000000,4.000000,4.000000,4.000000,4.000000,2.000000,4.000000,4.000000,4.000000,4.000000,4.000000,4.000000,4.000000,83.333336,,,,,,,,,,,,,,,,,,,,,,,,,,,,
1703405422.763829,1703405422.764285,24.000000,0.000000,4218.846191,4173.846191,4286.538574,4248.077148,4166.153809,4142.948730,4238.717773,4167.179688,4157.820313,4142.179688,4596.666504,4459.102539,4355.512695,4508.077148,0.000000,4.000000,81.000000,,,,0.000000,4.000000,4.000000,4.000000,4.000000,4.000000,4.000000,2.000000,4.000000,4.000000,4.000000,4.000000,4.000000,4.000000,4.000000,83.333336,,,,,,,,,,,,,,,,,6.000000,0.000000,0.683071,-0.184143,-0.687012,-0.165894,0.987914,-0.020999,-0.001465,-15.483180,-37.588985,62.838394
1703405422.771637,1703405422.771993,25.000000,0.000000,4222.179688,4182.179688,4288.333496,4248.589844,4172.563965,4151.922852,4236.666504,4160.128418,4147.563965,4146.153809,4606.153809,4464.615234,4374.615234,4517.307617,0.000000,4.000000,81.000000,,,,0.000000,4.000000,4.000000,4.000000,4.000000,4.000000,4.000000,2.000000,4.000000,4.000000,4.000000,4.000000,4.000000,4.000000,4.000000,83.333336,,,,,,,,,,,,,,,,,,,,,,,,,,,,
1703405422.779445,1703405422.779801,26.000000,0.000000,4218.846191,4181.922852,4288.077148,4249.230957,4186.666504,4156.794922,4230.512695,4152.948730,4136.153809,4140.769043,4602.179688,4460.769043,4374.615234,4519.102539,0.000000,4.000000,81.000000,,,,0.000000,4.000000,4.000000,4.000000,4.000000,4.000000,4.000000,2.000000,4.000000,4.000000,4.000000,4.000000,4.000000,4.000000,4.000000,83.333336,,,,,,,,,,,,,,,,,,,,,,,,,,,,
1703405422.787253,1703405422.787509,27.000000,0.000000,4216.666504,4180.128418,4288.589844,4249.358887,4189.615234,4144.487305,4225.256348,4150.000000,4132.948730,4136.922852,4591.922852,4463.461426,4365.000000,4517.179688,0.000000,4.000000,81.000000,,,,0.000000,4.000000,4.000000,4.000000,4.000000,4.000000,4.000000,2.000000,4.000000,4.000000,4.000000,4.000000,4.000000,4.000000,4.000000,83.333336,,,,,,,,,,,,,,,,,,,,,,,,,,,,
1703405422.795061,1703405422.795317,28.000000,0.000000,4221.025879,4181.538574,4288.974121,4248.974121,4179.230957,4135.384766,4223.333496,4155.128418,4141.922852,4138.461426,4604.615234,4475.769043,4375.769043,4522.820313,0.000000,4.000000,81.000000,,,,0.000000,4.000000,4.000000,4.000000,4.000000,4.000000,4.000000,2.000000,4.000000,4.000000,4.000000,4.000000,4.000000,4.000000,4.000000,83.333336,,,,,,,,,,,,,,,,,7.000000,0.000000,0.683190,-0.183716,-0.686890,-0.166382,0.994262,-0.034672,0.000977,-15.351528,-37.663422,62.854553
1703405422.802869,1703405422.803025,29.000000,0.000000,4221.538574,4178.077148,4288.717773,4249.615234,4173.077148,4144.102539,4231.922852,4168.974121,4157.563965,4148.205078,4625.512695,4478.333496,4384.230957,4528.461426,0.000000,4.000000,81.000000,,,,0.000000,4.000000,4.000000,4.000000,4.000000,4.000000,4.000000,2.000000,4.000000,4.000000,4.000000,4.000000,4.000000,4.000000,4.000000,83.333336,,,,,,,,,,,,,,,,,,,,,,,,,,,,
1703405422.810677,1703405422.810933,30.000000,0.000000,4206.538574,4170.256348,4281.025879,4246.666504,4171.025879,4148.974121,4236.025879,4174.230957,4155.769043,4144.871582,4609.230957,4461.538574,4363.205078,4511.794922,0.000000,4.000000,81.000000,,,,0.000000,4.000000,4.000000,4.000000,4.000000,4.000000,4.000000,2.000000,4.000000,4.000000,4.000000,4.000000,4.000000,4.000000,4.000000,83.333336,,,,,,,,,,,,,,,,,,,,,,,,,,,,
1703405422.818485,1703405422.818741,31.000000,0.000000,4196.410156,4167.051270,4275.384766,4242.179688,4167.051270,4141.538574,4228.974121,4164.230957,4145.512695,4117.307617,4578.205078,4451.410156,4343.846191,4493.974121,0.000000,4.000000,81.000000,,,,0.000000,4.000000,4.000000,4.000000,4.000000,4.000000,4.000000,2.000000,4.000000,4.000000,4.000000,4.000000,4.000000,4.000000,4.000000,83.333336,,,,,,,,,,,,,,,,,,,,,,,,,,,,
1703405422.826293,1703405422.826649,32.000000,0.000000,4196.922852,4164.358887,4278.461426,4243.333496,4166.025879,4143.846191,4232.563965,4163.589844,4154.487305,4115.897461,4586.410156,4457.436035,4349.871582,4498.205078,0.000000,4.000000,81.000000,,,,0.000000,4.000000,4.000000,4.000000,4.000000,4.000000,4.000000,2.000000,4.000000,4.000000,4.000000,4.000000,4.000000,4.000000,4.000000,83.333336,,,,,,,,,,,,,,,,,8.000000,0.000000,0.683245,-0.183350,-0.686829,-0.166809,0.994262,-0.024905,-0.015627,-15.316376,-37.680412,62.919098
1703405422.834101,1703405422.834456,33.000000,0.000000,4192.948730,4155.256348,4272.563965,4241.025879,4169.615234,4153.333496,4241.282227,4169.615234,4162.948730,4149.102539,4601.025879,4453.333496,4352.820313,4497.948730,0.000000,4.000000,81.000000,,,,0.000000,4.000000,4.000000,4.000000,4.000000,4.000000,4.000000,2.000000,4.000000,4.000000,4.000000,4.000000,4.000000,4.000000,4.000000,83.333336,,,,,,,,,,,,,,,,,,,,,,,,,,,,
1703405422.841909,1703405422.842364,34.000000,0.000000,4190.897461,4153.974121,4265.897461,4235.769043,4170.897461,4146.153809,4237.436035,4160.384766,4152.179688,4159.230957,4589.230957,4444.358887,4343.461426,4491.153809,0.000000,4.000000,81.000000,,,,0.000000,4.000000,4.000000,4.000000,4.000000,4.000000,4.000000,2.000000,4.000000,4.000000,4.000000,4.000000,4.000000,4.000000,4.000000,83.333336,,,,,,,,,,,,,,,,,,,,,,,,,,,,
1703405422.849717,1703405422.850172,35.000000,0.000000,4201.538574,4170.641113,4275.769043,4242.179688,4166.025879,4135.512695,4233.077148,4151.282227,4150.128418,4146.282227,4588.205078,4452.051270,4356.410156,4505.512695,0.000000,4.000000,81.000000,,,,0.000000,4.000000,4.000000,4.000000,4.000000,4.000000,4.000000,2.000000,4.000000,4.000000,4.000000,4.000000,4.000000,4.000000,4.000000,83.333336,,,,,,,,,,,,,,,,,,,,,,,,,,,,
1703405422.857525,1703405422.858080,36.000000,0.000000,4213.846191,4187.820313,4285.769043,4256.922852,4169.743652,4142.948730,4236.794922,4157.563965,4156.153809,4149.871582,4606.410156,4465.641113,4385.256348,4524.230957,0.000000,4.000000,81.000000,,,,0.000000,4.000000,4.000000,4.000000,4.000000,4.000000,4.000000,2.000000,4.000000,4.000000,4.000000,4.000000,4.000000,4.000000,4.000000,83.333336,,,,,,,,,,,,,,,,,9.000000,0.000000,0.683206,-0.183105,-0.686829,-0.167236,0.987425,-0.019045,-0.002442,-15.351404,-37.762371,62.910522
1703405422.865333,1703405422.865888,37.000000,0.000000,4215.512695,4187.948730,4283.589844,4262.948730,4184.230957,4151.922852,4237.692383,4154.358887,4146.282227,4156.794922,4608.717773,4461.922852,4384.102539,4515.384766,0.000000,4.000000,81.000000,,,,0.000000,4.000000,4.000000,4.000000,4.000000,4.000000,4.000000,2.000000,4.000000,4.000000,4.000000,4.000000,4.000000,4.000000,4.000000,83.333336,,,,,,,,,,,,,,,,,,,,,,,,,,,,
1703405422.873141,1703405422.873796,38.000000,0.000000,4215.256348,4188.974121,4281.666504,4262.820313,4193.974121,4152.051270,4232.948730,4136.282227,4131.666504,4151.025879,4597.436035,4447.563965,4362.563965,4504.102539,0.000000,4.000000,81.000000,,,,0.000000,4.000000,4.000000,4.000000,4.000000,4.000000,4.000000,2.000000,4.000000,4.000000,4.000000,4.000000,4.000000,4.000000,4.000000,83.333336,,,,,,,,,,,,,,,,,,,,,,,,,,,,
1703405422.880950,1703405422.881604,39.000000,0.000000,4220.641113,4202.051270,4284.871582,4263.846191,4195.769043,4151.538574,4230.641113,4131.666504,4135.641113,4152.436035,4604.102539,4446.666504,4365.512695,4513.205078,0.000000,4.000000,81.000000,,,,0.000000,4.000000,4.000000,4.000000,4.000000,4.000000,4.000000,2.000000,4.000000,4.000000,4.000000,4.000000,4.000000,4.000000,4.000000,83.333336,,,,,,,,,,,,,,,,,,,,,,,,,,,,
1703405422.888758,1703405422.889312,40.000000,0.000000,4220.641113,4196.794922,4283.205078,4258.333496,4186.538574,4149.102539,4232.563965,4142.820313,4147.179688,4154.871582,4615.384766,4454.230957,4377.820313,4517.436035,0.000000,4.000000,81.000000,,,,0.000000,4.000000,4.000000,4.000000,4.000000,4.000000,4.000000,2.000000,4.000000,4.000000,4.000000,4.000000,4.000000,4.000000,4.000000,83.333336,,,,,,,,,,,,,,,,,10.000000,0.000000,0.683269,-0.183044,-0.686768,-0.167297,0.989379,-0.031254,0.002930,-15.399597,-37.819466,62.886135
1703405422.896566,1703405422.897120,41.000000,0.000000,4205.128418,4174.102539,4276.410156,4248.461426,4173.333496,4144.487305,4235.512695,4158.333496,4152.692383,4142.051270,4607.563965,4453.205078,4369.102539,4506.153809,0.000000,4.000000,81.000000,,,,0.000000,4.000000,4.000000,4.000000,4.000000,4.000000,4.000000,2.000000,4.000000,4.000000,4.000000,4.000000,4.000000,4.000000,4.000000,83.333336,,,,,,,,,,,,,,,,,,,,,,,,,,,,
1703405422.904374,1703405422.904828,42.000000,0.000000,4188.974121,4161.538574,4270.897461,4239.358887,4167.436035,4140.641113,4235.384766,4168.077148,4158.846191,4134.615234,4595.000000,4449.615234,4355.256348,4495.512695,0.000000,4.000000,81.000000,,,,0.000000,4.000000,4.000000,4.000000,4.000000,4.000000,4.000000,2.000000,4.000000,4.000000,4.000000,4.000000,4.000000,4.000000,4.000000,83.333336,,,,,,,,,,,,,,,,,,,,,,,,,,,,
1703405422.912182,1703405422.912636,43.000000,0.000000,4188.205078,4157.820313,4266.538574,4232.820313,4165.897461,4144.743652,4240.897461,4173.717773,4169.102539,4150.897461,4601.025879,4450.512695,4352.179688,4493.589844,0.000000,4.000000,81.000000,,,,0.000000,4.000000,4.000000,4.000000,4.000000,4.000000,4.000000,2.000000,4.000000,4.000000,4.000000,4.000000,4.000000,4.000000,4.000000,83.333336,,,,,,,,,,,,,,,,,,,,,,,,,,,,
1703405422.919990,1703405422.920344,44.000000,0.000000,4184.102539,4150.512695,4259.871582,4228.589844,4158.589844,4152.820313,4248.846191,4180.641113,4174.102539,4157.436035,4603.589844,4446.153809,4350.769043,4491.282227,0.000000,4.000000,81.000000,,,,0.000000,4.000000,4.000000,4.000000,4.000000,4.000000,4.000000,2.000000,4.000000,4.000000,4.000000,4.000000,4.000000,4.000000,4.000000,83.333336,,,,,,,,,,,,,,,,,11.000000,0.000000,0.683173,-0.183167,-0.686890,-0.167053,0.991820,-0.017580,-0.001465,-15.409637,-37.787521,62.897522
1703405422.927798,1703405422.928252,45.000000,0.000000,4175.512695,4146.922852,4257.051270,4227.436035,4146.922852,4149.871582,4244.230957,4174.358887,4169.615234,4147.051270,4590.256348,4438.974121,4346.538574,4484.358887,0.000000,4.000000,81.000000,,,,0.000000,4.000000,4.000000,4.000000,4.000000,4.000000,4.000000,2.000000,4.000000,4.000000,4.000000,4.000000,4.000000,4.000000,4.000000,83.333336,,,,,,,,,,,,,,,,,,,,,,,,,,,,
1703405422.935606,1703405422.936060,46.000000,0.000000,4192.051270,4164.615234,4271.922852,4240.897461,4159.743652,4145.000000,4238.846191,4162.051270,4152.692383,4158.974121,4603.717773,4453.077148,4359.871582,4496.538574,0.000000,4.000000,81.000000,,,,0.000000,4.000000,4.000000,4.000000,4.000000,4.000000,4.000000,2.000000,4.000000,4.000000,4.000000,4.000000,4.000000,4.000000,4.000000,83.333336,,,,,,,,,,,,,,,,,,,,,,,,,,,,
1703405422.943414,1703405422.943968,47.000000,0.000000,4221.666504,4188.717773,4290.256348,4262.820313,4194.102539,4149.102539,4239.102539,4155.897461,4130.384766,4149.230957,4625.384766,4474.743652,4388.077148,4525.000000,0.000000,4.000000,81.000000,,,,0.000000,4.000000,4.000000,4.000000,4.000000,4.000000,4.000000,2.000000,4.000000,4.000000,4.000000,4.000000,4.000000,4.000000,4.000000,83.333336,,,,,,,,,,,,,,,,,,,,,,,,,,,,
1703405422.951222,1703405422.951776,48.000000,0.000000,4221.153809,4190.769043,4291.538574,4264.358887,4197.051270,4149.871582,4237.436035,4139.102539,4127.820313,4113.205078,4610.128418,4470.384766,4384.871582,4525.641113,0.000000,4.000000,81.000000,,,,0.000000,4.000000,4.000000,4.000000,4.000000,4.000000,4.000000,2.000000,4.000000,4.000000,4.000000,4.000000,4.000000,4.000000,4.000000,83.333336,,,,,,,,,,,,,,,,,12.000000,0.000000,0.683123,-0.183350,-0.686951,-0.166809,1.000610,-0.026859,0.001465,-15.485341,-37.775436,62.891106
1703405422.959030,1703405422.959684,49.000000,0.000000,4207.307617,4180.769043,4285.128418,4251.025879,4172.436035,4141.153809,4235.897461,4120.128418,4137.948730,4130.128418,4591.153809,4449.871582,4358.333496,4503.589844,0.000000,4.000000,81.000000,,,,0.000000,4.000000,4.000000,4.000000,4.000000,4.000000,4.000000,2.000000,4.000000,4.000000,4.000000,4.000000,4.000000,4.000000,4.000000,83.333336,,,,,,,,,,,,,,,,,,,,,,,,,,,,
1703405422.966838,1703405422.967492,50.000000,0.000000,4212.563965,4185.384766,4288.205078,4257.563965,4173.077148,4137.307617,4236.410156,4127.563965,4131.538574,4169.743652,4602.436035,4449.871582,4361.666504,4506.025879,0.000000,4.000000,81.000000,,,,0.000000,4.000000,4.000000,4.000000,4.000000,4.000000,4.000000,2.000000,4.000000,4.000000,4.000000,4.000000,4.000000,4.000000,4.000000,83.333336,,,,,,,,,,,,,,,,,,,,,,,,,,,,
1703405422.974646,1703405422.975300,51.000000,0.000000,4214.230957,4188.589844,4283.717773,4265.512695,4185.641113,4142.563965,4237.820313,4138.974121,4124.230957,4157.179688,4603.461426,4449.102539,4374.871582,4510.128418,0.000000,4.000000,81.000000,,,,0.000000,4.000000,4.000000,4.000000,4.000000,4.000000,4.000000,2.000000,4.000000,4.000000,4.000000,4.000000,4.000000,4.000000,4.000000,83.333336,,,,,,,,,,,,,,,,,,,,,,,,,,,,
1703405422.982454,1703405422.983008,52.000000,0.000000,4195.384766,4174.871582,4264.871582,4249.871582,4175.384766,4145.256348,4241.282227,4138.717773,4140.128418,4132.948730,4582.692383,4426.666504,4359.487305,4485.897461,0.000000,4.000000,81.000000,,,,0.000000,4.000000,4.000000,4.000000,4.000000,4.000000,4.000000,2.000000,4.000000,4.000000,4.000000,4.000000,4.000000,4.000000,4.000000,83.333336,,,,,,,,,,,,,,,,,13.000000,0.000000,0.683038,-0.183533,-0.687134,-0.166199,0.998169,-0.017092,-0.005860,-15.453473,-37.714558,62.935326
1703405422.990262,1703405422.990916,53.000000,0.000000,4183.461426,4163.846191,4259.743652,4238.717773,4164.615234,4141.282227,4243.461426,4147.692383,4149.743652,4139.487305,4583.077148,4418.846191,4351.794922,4474.871582,0.000000,4.000000,81.000000,,,,0.000000,4.000000,4.000000,4.000000,4.000000,4.000000,4.000000,2.000000,4.000000,4.000000,4.000000,4.000000,4.000000,4.000000,4.000000,83.333336,,,,,,,,,,,,,,,,,,,,,,,,,,,,
1703405422.998070,1703405422.998724,54.000000,0.000000,4193.717773,4165.897461,4270.256348,4243.589844,4166.794922,4142.179688,4243.077148,4157.051270,4144.871582,4146.922852,4594.871582,4438.974121,4369.615234,4491.794922,0.000000,4.000000,81.000000,,,,0.000000,4.000000,4.000000,4.000000,4.000000,4.000000,4.000000,2.000000,4.000000,4.000000,4.000000,4.000000,4.000000,4.000000,4.000000,83.333336,,,,,,,,,,,,,,,,,,,,,,,,,,,,
1703405423.005878,1703405423.006631,55.000000,0.000000,4199.743652,4171.666504,4271.410156,4244.487305,4168.589844,4152.307617,4246.282227,4158.077148,4155.512695,4145.256348,4591.282227,4449.615234,4370.128418,4498.205078,0.000000,4.000000,81.000000,,,,0.000000,4.000000,4.000000,4.000000,4.000000,4.000000,4.000000,2.000000,4.000000,4.000000,4.000000,4.000000,4.000000,4.000000,4.000000,83.333336,,,,,,,,,,,,,,,,,,,,,,,,,,,,
1703405423.013687,1703405423.014439,56.000000,0.000000,4192.179688,4167.948730,4264.871582,4242.563965,4167.307617,4154.230957,4248.077148,4153.717773,4160.512695,4133.589844,4578.846191,4437.820313,4347.692383,4487.436035,0.000000,4.000000,81.000000,,,,0.000000,4.000000,4.000000,4.000000,4.000000,4.000000,4.000000,2.000000,4.000000,4.000000,4.000000,4.000000,4.000000,4.000000,4.000000,83.333336,,,,,,,,,,,,,,,,,14.000000,0.000000,0.682938,-0.183716,-0.687317,-0.165649,0.987914,-0.038579,-0.010255,-15.324793,-37.776436,62.858459
1703405423.021495,1703405423.022347,57.000000,0.000000,4194.615234,4166.410156,4270.641113,4248.846191,4167.948730,4150.128418,4244.230957,4143.205078,4136.666504,4116.410156,4580.769043,4441.282227,4341.922852,4489.743652,0.000000,4.000000,81.000000,,,,0.000000,4.000000,4.000000,4.000000,4.000000,4.000000,4.000000,2.000000,4.000000,4.000000,4.000000,4.000000,4.000000,4.000000,4.000000,83.333336,,,,,,,,,,,,,,,,,,,,,,,,,,,,
1703405423.029302,1703405423.030155,58.000000,0.000000,4209.230957,4179.743652,4281.666504,4252.948730,4171.794922,4152.948730,4240.128418,4134.102539,4119.615234,4124.615234,4597.948730,4460.512695,4363.077148,4507.051270,0.000000,4.000000,81.000000,,,,0.000000,4.000000,4.000000,4.000000,4.000000,4.000000,4.000000,2.000000,4.000000,4.000000,4.000000,4.000000,4.000000,4.000000,4.000000,83.333336,,,,,,,,,,,,,,,,,,,,,,,,,,,,
1703405423.037111,1703405423.038063,59.000000,0.000000,4216.025879,4188.846191,4282.563965,4252.436035,4178.461426,4157.563965,4239.871582,4133.974121,4136.538574,4149.102539,4612.563965,4462.051270,4379.102539,4515.128418,0.000000,4.000000,81.000000,,,,0.000000,4.000000,4.000000,4.000000,4.000000,4.000000,4.000000,2.000000,4.000000,4.000000,4.000000,4.000000,4.000000,4.000000,4.000000,83.333336,,,,,,,,,,,,,,,,,,,,,,,,,,,,
1703405423.044919,1703405423.045871,60.000000,0.000000,4203.717773,4177.563965,4274.358887,4248.589844,4172.436035,4156.922852,4238.846191,4133.717773,4148.974121,4148.589844,4604.358887,4440.128418,4373.205078,4499.102539,0.000000,4.000000,81.000000,,,,0.000000,4.000000,4.000000,4.000000,4.000000,4.000000,4.000000,2.000000,4.000000,4.000000,4.000000,4.000000,4.000000,4.000000,4.000000,83.333336,,,,,,,,,,,,,,,,,15.000000,0.000000,0.682931,-0.184509,-0.687317,-0.164795,0.984007,-0.037114,-0.008302,-15.308980,-37.882126,62.822617
1703405423.052727,1703405423.053779,61.000000,0.000000,4186.666504,4165.641113,4262.179688,4242.307617,4156.666504,4153.461426,4234.102539,4130.769043,4131.282227,4130.641113,4581.794922,4419.871582,4363.589844,4479.230957,0.000000,4.000000,81.000000,,,,0.000000,4.000000,4.000000,4.000000,4.000000,4.000000,4.000000,2.000000,4.000000,4.000000,4.000000,4.000000,4.000000,4.000000,4.000000,83.333336,,,,,,,,,,,,,,,,,,,,,,,,,,,,
1703405423.060535,1703405423.061587,62.000000,0.000000,4185.512695,4169.358887,4259.615234,4243.333496,4157.692383,4152.179688,4233.333496,4148.461426,4137.307617,4136.538574,4585.256348,4429.743652,4365.000000,4484.871582,0.000000,4.000000,81.000000,,,,0.000000,4.000000,4.000000,4.000000,4.000000,4.000000,4.000000,2.000000,4.000000,4.000000,4.000000,4.000000,4.000000,4.000000,4.000000,83.333336,,,,,,,,,,,,,,,,,,,,,,,,,,,,
1703405423.068343,1703405423.069295,63.000000,0.000000,4200.000000,4174.102539,4274.743652,4248.846191,4169.487305,4148.717773,4239.230957,4182.051270,4176.922852,4160.128418,4617.948730,4459.102539,4377.051270,4506.538574,0.000000,4.000000,81.000000,,,,0.000000,4.000000,4.000000,4.000000,4.000000,4.000000,4.000000,2.000000,4.000000,4.000000,4.000000,4.000000,4.000000,4.000000,4.000000,83.333336,,,,,,,,,,,,,,,,,,,,,,,,,,,,
1703405423.076151,1703405423.077103,64.000000,0.000000,4208.077148,4173.974121,4286.025879,4250.128418,4168.974121,4148.461426,4243.461426,4191.666504,4187.820313,4161.794922,4634.615234,4472.436035,4385.000000,4516.666504,4762.000000,4.000000,81.000000,,,,0.000000,4.000000,4.000000,4.000000,4.000000,4.000000,4.000000,2.000000,4.000000,4.000000,4.000000,4.000000,4.000000,4.000000,4.000000,83.333336,,,,,,,,,,,,,,,,,16.000000,0.000000,0.682925,-0.185364,-0.687195,-0.164368,0.986449,-0.037602,-0.018557,-15.361415,-37.793911,62.840355
1703405423.083959,1703405423.084811,65.000000,0.000000,4199.102539,4167.563965,4273.589844,4246.153809,4162.820313,4154.358887,4240.769043,4167.307617,4157.948730,4139.230957,4611.025879,4457.307617,4373.589844,4503.077148,5349.000000,4.000000,81.000000,,,,0.000000,4.000000,4.000000,4.000000,4.000000,4.000000,4.000000,2.000000,4.000000,4.000000,4.000000,4.000000,4.000000,4.000000,4.000000,83.333336,,,,,,,,,,,,,,,,,,,,,,,,,,,,
1703405423.091767,1703405423.092619,66.000000,0.000000,4195.256348,4165.897461,4266.538574,4244.358887,4166.025879,4150.641113,4241.025879,4153.205078,4145.256348,4136.025879,4594.358887,4450.641113,4365.256348,4496.922852,5130.000000,4.000000,81.000000,,,,0.000000,4.000000,4.000000,4.000000,4.000000,4.000000,4.000000,2.000000,4.000000,4.000000,4.000000,4.000000,4.000000,4.000000,4.000000,83.333336,,,,,,,,,,,,,,,,,,,,,,,,,,,,
