title:فارس حذف, start timestamp:1703505248.560492, stop timestamp:1703505259.163830, headset type:EPOCX, headset serial:E50206EF, headset firmware:720, channels:67, sampling rate:eeg_128;mot_32, samples:1359      , version:2.2, 
Timestamp,OriginalTimestamp,EEG.Counter,EEG.Interpolated,EEG.AF3,EEG.F7,EEG.F3,EEG.FC5,EEG.T7,EEG.P7,EEG.O1,EEG.O2,EEG.P8,EEG.T8,EEG.FC6,EEG.F4,EEG.F8,EEG.AF4,EEG.RawCq,EEG.Battery,EEG.BatteryPercent,MarkerIndex,MarkerType,MarkerValueInt,EEG.MarkerHardware,CQ.AF3,CQ.F7,CQ.F3,CQ.FC5,CQ.T7,CQ.P7,CQ.O1,CQ.O2,CQ.P8,CQ.T8,CQ.FC6,CQ.F4,CQ.F8,CQ.AF4,CQ.Overall,EQ.SampleRateQuality,EQ.OVERALL,EQ.AF3,EQ.F7,EQ.F3,EQ.FC5,EQ.T7,EQ.P7,EQ.O1,EQ.O2,EQ.P8,EQ.T8,EQ.FC6,EQ.F4,EQ.F8,EQ.AF4,MOT.CounterMems,MOT.InterpolatedMems,MOT.Q0,MOT.Q1,MOT.Q2,MOT.Q3,MOT.AccX,MOT.AccY,MOT.AccZ,MOT.MagX,MOT.MagY,MOT.MagZ
1703505248.560492,1703505248.560516,17.000000,0.000000,4223.461426,4218.205078,4260.641113,4246.922852,4160.512695,4243.974121,4265.256348,4215.769043,4198.333496,4184.358887,4416.538574,4369.358887,4328.846191,4323.461426,0.000000,3.000000,56.000000,,,,0.000000,4.000000,4.000000,4.000000,4.000000,4.000000,4.000000,4.000000,4.000000,4.000000,4.000000,4.000000,4.000000,4.000000,4.000000,100.000000,,,,,,,,,,,,,,,,,,,,,,,,,,,,
1703505248.568300,1703505248.568424,18.000000,0.000000,4229.615234,4221.153809,4262.948730,4248.846191,4170.512695,4245.769043,4267.563965,4222.692383,4200.128418,4183.846191,4423.077148,4377.179688,4327.820313,4324.358887,0.000000,3.000000,56.000000,,,,0.000000,4.000000,4.000000,4.000000,4.000000,4.000000,4.000000,4.000000,4.000000,4.000000,4.000000,4.000000,4.000000,4.000000,4.000000,100.000000,,,,,,,,,,,,,,,,,,,,,,,,,,,,
1703505248.576108,1703505248.576232,19.000000,0.000000,4232.307617,4222.692383,4271.153809,4248.077148,4164.871582,4244.743652,4265.512695,4230.769043,4200.384766,4186.025879,4428.717773,4385.256348,4333.717773,4332.692383,0.000000,3.000000,56.000000,,,,0.000000,4.000000,4.000000,4.000000,4.000000,4.000000,4.000000,4.000000,4.000000,4.000000,4.000000,4.000000,4.000000,4.000000,4.000000,100.000000,,,,,,,,,,,,,,,,,,,,,,,,,,,,
1703505248.583916,1703505248.584140,20.000000,0.000000,4230.256348,4221.153809,4276.153809,4251.153809,4161.666504,4244.871582,4266.410156,4233.717773,4208.077148,4195.384766,4432.563965,4387.820313,4337.179688,4329.615234,0.000000,3.000000,56.000000,,,,0.000000,4.000000,4.000000,4.000000,4.000000,4.000000,4.000000,4.000000,4.000000,4.000000,4.000000,4.000000,4.000000,4.000000,4.000000,100.000000,,,,,,,,,,,,,,,,,5.000000,0.000000,0.305451,-0.721069,-0.062866,-0.618713,0.917104,-0.373581,-0.038091,-5.460606,-49.235905,61.095135
1703505248.591725,1703505248.591948,21.000000,0.000000,4229.487305,4216.410156,4269.743652,4249.615234,4167.692383,4246.538574,4266.666504,4233.461426,4217.820313,4206.922852,4441.666504,4391.922852,4341.025879,4325.897461,0.000000,3.000000,56.000000,,,,0.000000,4.000000,4.000000,4.000000,4.000000,4.000000,4.000000,4.000000,4.000000,4.000000,4.000000,4.000000,4.000000,4.000000,4.000000,100.000000,,,,,,,,,,,,,,,,,,,,,,,,,,,,
1703505248.599532,1703505248.599855,22.000000,0.000000,4230.000000,4214.487305,4271.410156,4248.333496,4173.333496,4247.051270,4267.563965,4235.128418,4216.794922,4208.974121,4444.102539,4395.769043,4348.461426,4332.051270,0.000000,3.000000,56.000000,,,,0.000000,4.000000,4.000000,4.000000,4.000000,4.000000,4.000000,4.000000,4.000000,4.000000,4.000000,4.000000,4.000000,4.000000,4.000000,100.000000,,,,,,,,,,,,,,,,,,,,,,,,,,,,
1703505248.607340,1703505248.607763,23.000000,0.000000,4223.333496,4218.589844,4272.692383,4251.025879,4169.102539,4247.436035,4268.717773,4234.230957,4207.563965,4200.384766,4433.333496,4387.051270,4343.077148,4328.846191,0.000000,3.000000,56.000000,,,,0.000000,4.000000,4.000000,4.000000,4.000000,4.000000,4.000000,4.000000,4.000000,4.000000,4.000000,4.000000,4.000000,4.000000,4.000000,100.000000,,,,,,,,,,,,,,,,,,,,,,,,,,,,
1703505248.615149,1703505248.615571,24.000000,0.000000,4215.769043,4216.794922,4263.205078,4247.179688,4159.871582,4247.436035,4265.128418,4223.846191,4195.256348,4189.615234,4420.897461,4376.282227,4326.282227,4314.871582,0.000000,3.000000,56.000000,,,,0.000000,4.000000,4.000000,4.000000,4.000000,4.000000,4.000000,4.000000,4.000000,4.000000,4.000000,4.000000,4.000000,4.000000,4.000000,100.000000,,,,,,,,,,,,,,,,,6.000000,0.000000,0.305621,-0.721008,-0.062744,-0.618713,0.927848,-0.361861,-0.037114,-5.631212,-49.445648,61.085621
1703505248.622957,1703505248.623379,25.000000,0.000000,4221.666504,4215.128418,4262.820313,4247.563965,4163.461426,4246.794922,4264.487305,4217.948730,4191.666504,4183.205078,4417.563965,4379.230957,4318.974121,4312.820313,0.000000,3.000000,56.000000,,,,0.000000,4.000000,4.000000,4.000000,4.000000,4.000000,4.000000,4.000000,4.000000,4.000000,4.000000,4.000000,4.000000,4.000000,4.000000,100.000000,,,,,,,,,,,,,,,,,,,,,,,,,,,,
1703505248.630765,1703505248.631087,26.000000,0.000000,4226.538574,4218.717773,4268.333496,4258.333496,4168.205078,4247.563965,4267.436035,4222.820313,4199.358887,4188.974121,4424.358887,4384.743652,4323.974121,4322.307617,0.000000,3.000000,56.000000,,,,0.000000,4.000000,4.000000,4.000000,4.000000,4.000000,4.000000,4.000000,4.000000,4.000000,4.000000,4.000000,4.000000,4.000000,4.000000,100.000000,,,,,,,,,,,,,,,,,,,,,,,,,,,,
1703505248.638573,1703505248.638895,27.000000,0.000000,4223.974121,4218.205078,4271.666504,4263.974121,4156.794922,4246.025879,4266.922852,4222.563965,4199.487305,4193.333496,4428.589844,4382.692383,4324.487305,4320.000000,0.000000,3.000000,56.000000,,,,0.000000,4.000000,4.000000,4.000000,4.000000,4.000000,4.000000,4.000000,4.000000,4.000000,4.000000,4.000000,4.000000,4.000000,4.000000,100.000000,,,,,,,,,,,,,,,,,,,,,,,,,,,,
1703505248.646381,1703505248.646603,28.000000,0.000000,4230.256348,4221.666504,4277.307617,4267.563965,4151.410156,4245.769043,4265.256348,4215.000000,4191.538574,4187.436035,4426.153809,4381.410156,4325.256348,4316.538574,0.000000,3.000000,56.000000,,,,0.000000,4.000000,4.000000,4.000000,4.000000,4.000000,4.000000,4.000000,4.000000,4.000000,4.000000,4.000000,4.000000,4.000000,4.000000,100.000000,,,,,,,,,,,,,,,,,7.000000,0.000000,0.305353,-0.720886,-0.062439,-0.619019,0.927359,-0.364302,-0.040532,-5.668091,-49.351082,61.093727
1703505248.654189,1703505248.654411,29.000000,0.000000,4231.794922,4226.025879,4279.102539,4273.205078,4160.384766,4249.230957,4271.025879,4216.794922,4192.051270,4183.846191,4424.871582,4384.102539,4327.051270,4320.897461,0.000000,3.000000,56.000000,,,,0.000000,4.000000,4.000000,4.000000,4.000000,4.000000,4.000000,4.000000,4.000000,4.000000,4.000000,4.000000,4.000000,4.000000,4.000000,100.000000,,,,,,,,,,,,,,,,,,,,,,,,,,,,
1703505248.661997,1703505248.662119,30.000000,0.000000,4219.230957,4214.615234,4278.974121,4268.461426,4153.846191,4250.384766,4275.384766,4221.025879,4197.563965,4185.641113,4425.256348,4387.436035,4312.692383,4315.384766,0.000000,3.000000,56.000000,,,,0.000000,4.000000,4.000000,4.000000,4.000000,4.000000,4.000000,4.000000,4.000000,4.000000,4.000000,4.000000,4.000000,4.000000,4.000000,100.000000,,,,,,,,,,,,,,,,,,,,,,,,,,,,
1703505248.669805,1703505248.669927,31.000000,0.000000,4214.871582,4203.846191,4279.358887,4263.974121,4137.692383,4245.000000,4269.230957,4222.692383,4201.153809,4194.615234,4427.307617,4393.077148,4310.769043,4310.512695,0.000000,3.000000,56.000000,,,,0.000000,4.000000,4.000000,4.000000,4.000000,4.000000,4.000000,4.000000,4.000000,4.000000,4.000000,4.000000,4.000000,4.000000,4.000000,100.000000,,,,,,,,,,,,,,,,,,,,,,,,,,,,
1703505248.677613,1703505248.677635,32.000000,0.000000,4219.358887,4212.436035,4280.128418,4273.461426,4136.153809,4236.666504,4263.846191,4230.000000,4205.384766,4204.615234,4432.436035,4397.820313,4327.307617,4316.666504,0.000000,3.000000,56.000000,,,,0.000000,4.000000,4.000000,4.000000,4.000000,4.000000,4.000000,4.000000,4.000000,4.000000,4.000000,4.000000,4.000000,4.000000,4.000000,100.000000,,,,,,,,,,,,,,,,,8.000000,0.000000,0.305242,-0.720886,-0.061768,-0.619141,0.927848,-0.377976,-0.037602,-5.684615,-49.632641,61.001019
1703505248.685421,1703505248.685443,33.000000,0.000000,4217.179688,4218.846191,4277.307617,4280.641113,4137.692383,4237.179688,4264.743652,4228.717773,4206.025879,4203.205078,4432.436035,4392.436035,4322.820313,4315.384766,0.000000,3.000000,56.000000,,,,0.000000,4.000000,4.000000,4.000000,4.000000,4.000000,4.000000,4.000000,4.000000,4.000000,4.000000,4.000000,4.000000,4.000000,4.000000,100.000000,,,,,,,,,,,,,,,,,,,,,,,,,,,,
1703505248.693229,1703505248.693152,34.000000,0.000000,4214.871582,4213.974121,4271.666504,4277.563965,4130.256348,4242.820313,4265.000000,4220.256348,4200.128418,4198.589844,4427.179688,4384.743652,4310.512695,4307.307617,0.000000,3.000000,56.000000,,,,0.000000,4.000000,4.000000,4.000000,4.000000,4.000000,4.000000,4.000000,4.000000,4.000000,4.000000,4.000000,4.000000,4.000000,4.000000,100.000000,,,,,,,,,,,,,,,,,,,,,,,,,,,,
1703505248.701037,1703505248.700959,35.000000,0.000000,4217.436035,4216.025879,4269.743652,4274.230957,4119.743652,4239.102539,4264.230957,4214.615234,4191.794922,4191.666504,4419.871582,4380.641113,4309.358887,4302.051270,0.000000,3.000000,56.000000,,,,0.000000,4.000000,4.000000,4.000000,4.000000,4.000000,4.000000,4.000000,4.000000,4.000000,4.000000,4.000000,4.000000,4.000000,4.000000,100.000000,,,,,,,,,,,,,,,,,,,,,,,,,,,,
1703505248.708845,1703505248.708668,36.000000,0.000000,4212.820313,4217.436035,4265.384766,4270.641113,4114.615234,4231.794922,4262.563965,4207.436035,4181.282227,4176.922852,4411.025879,4368.974121,4303.333496,4294.358887,0.000000,3.000000,56.000000,,,,0.000000,4.000000,4.000000,4.000000,4.000000,4.000000,4.000000,4.000000,4.000000,4.000000,4.000000,4.000000,4.000000,4.000000,4.000000,100.000000,,,,,,,,,,,,,,,,,9.000000,0.000000,0.304660,-0.721069,-0.061279,-0.619263,0.916616,-0.350140,-0.041021,-5.699487,-49.502708,61.117584
1703505248.716653,1703505248.716476,37.000000,0.000000,4202.307617,4207.179688,4254.871582,4263.589844,4108.846191,4230.769043,4261.922852,4201.922852,4174.358887,4168.846191,4405.000000,4357.051270,4291.922852,4286.922852,0.000000,3.000000,56.000000,,,,0.000000,4.000000,4.000000,4.000000,4.000000,4.000000,4.000000,4.000000,4.000000,4.000000,4.000000,4.000000,4.000000,4.000000,4.000000,100.000000,,,,,,,,,,,,,,,,,,,,,,,,,,,,
1703505248.724461,1703505248.724184,38.000000,0.000000,4198.205078,4200.769043,4250.384766,4257.436035,4097.692383,4230.384766,4261.025879,4197.436035,4168.974121,4166.282227,4395.769043,4354.487305,4284.615234,4281.922852,0.000000,3.000000,56.000000,,,,0.000000,4.000000,4.000000,4.000000,4.000000,4.000000,4.000000,4.000000,4.000000,4.000000,4.000000,4.000000,4.000000,4.000000,4.000000,100.000000,,,,,,,,,,,,,,,,,,,,,,,,,,,,
1703505248.732269,1703505248.732091,39.000000,0.000000,4203.589844,4201.538574,4249.487305,4257.820313,4092.179443,4224.615234,4253.717773,4188.589844,4161.794922,4157.948730,4388.974121,4349.487305,4278.974121,4277.820313,0.000000,3.000000,56.000000,,,,0.000000,4.000000,4.000000,4.000000,4.000000,4.000000,4.000000,4.000000,4.000000,4.000000,4.000000,4.000000,4.000000,4.000000,4.000000,100.000000,,,,,,,,,,,,,,,,,,,,,,,,,,,,
1703505248.740077,1703505248.739899,40.000000,0.000000,4209.743652,4203.205078,4247.307617,4260.641113,4093.461426,4217.051270,4247.436035,4182.563965,4154.487305,4151.025879,4387.820313,4343.333496,4277.179688,4279.487305,0.000000,3.000000,56.000000,,,,0.000000,4.000000,4.000000,4.000000,4.000000,4.000000,4.000000,4.000000,4.000000,4.000000,4.000000,4.000000,4.000000,4.000000,4.000000,100.000000,,,,,,,,,,,,,,,,,10.000000,0.000000,0.303918,-0.721130,-0.061157,-0.619568,0.915639,-0.371139,-0.036626,-5.796205,-49.519108,61.139160
1703505248.747886,1703505248.747807,41.000000,0.000000,4213.205078,4209.230957,4248.974121,4261.922852,4095.000000,4215.128418,4247.436035,4183.589844,4156.538574,4156.410156,4386.666504,4345.128418,4278.846191,4286.282227,0.000000,3.000000,56.000000,,,,0.000000,4.000000,4.000000,4.000000,4.000000,4.000000,4.000000,4.000000,4.000000,4.000000,4.000000,4.000000,4.000000,4.000000,4.000000,100.000000,,,,,,,,,,,,,,,,,,,,,,,,,,,,
1703505248.755694,1703505248.755615,42.000000,0.000000,4215.769043,4210.128418,4248.974121,4260.897461,4090.512939,4217.948730,4247.563965,4183.205078,4166.666504,4163.461426,4391.922852,4350.384766,4278.974121,4294.102539,0.000000,3.000000,56.000000,,,,0.000000,4.000000,4.000000,4.000000,4.000000,4.000000,4.000000,4.000000,4.000000,4.000000,4.000000,4.000000,4.000000,4.000000,4.000000,100.000000,,,,,,,,,,,,,,,,,,,,,,,,,,,,
1703505248.763502,1703505248.763523,43.000000,0.000000,4217.179688,4208.333496,4248.717773,4263.077148,4083.718018,4216.794922,4248.333496,4182.563965,4169.358887,4158.333496,4397.692383,4350.769043,4277.820313,4297.307617,0.000000,3.000000,56.000000,,,,0.000000,4.000000,4.000000,4.000000,4.000000,4.000000,4.000000,4.000000,4.000000,4.000000,4.000000,4.000000,4.000000,4.000000,4.000000,100.000000,,,,,,,,,,,,,,,,,,,,,,,,,,,,
1703505248.771310,1703505248.771331,44.000000,0.000000,4217.948730,4213.077148,4251.025879,4268.205078,4085.128174,4215.641113,4250.000000,4184.615234,4171.025879,4157.692383,4398.077148,4349.102539,4286.025879,4300.897461,0.000000,3.000000,56.000000,,,,0.000000,4.000000,4.000000,4.000000,4.000000,4.000000,4.000000,4.000000,4.000000,4.000000,4.000000,4.000000,4.000000,4.000000,4.000000,100.000000,,,,,,,,,,,,,,,,,11.000000,0.000000,0.303090,-0.720886,-0.061340,-0.620239,0.902454,-0.359907,-0.038091,-6.033251,-49.550529,61.141911
1703505248.779118,1703505248.779239,45.000000,0.000000,4218.461426,4213.205078,4250.512695,4271.282227,4090.384521,4218.974121,4249.102539,4186.153809,4175.000000,4169.615234,4399.358887,4351.282227,4293.333496,4303.717773,0.000000,3.000000,56.000000,,,,0.000000,4.000000,4.000000,4.000000,4.000000,4.000000,4.000000,4.000000,4.000000,4.000000,4.000000,4.000000,4.000000,4.000000,4.000000,100.000000,,,,,,,,,,,,,,,,,,,,,,,,,,,,
1703505248.786926,1703505248.787047,46.000000,0.000000,4220.128418,4210.512695,4250.128418,4275.897461,4091.153809,4224.102539,4249.743652,4187.692383,4174.102539,4172.820313,4400.769043,4350.384766,4287.692383,4301.153809,0.000000,3.000000,56.000000,,,,0.000000,4.000000,4.000000,4.000000,4.000000,4.000000,4.000000,4.000000,4.000000,4.000000,4.000000,4.000000,4.000000,4.000000,4.000000,100.000000,,,,,,,,,,,,,,,,,,,,,,,,,,,,
1703505248.794734,1703505248.794955,47.000000,0.000000,4220.000000,4214.487305,4249.230957,4280.512695,4091.666748,4231.025879,4252.179688,4187.307617,4175.512695,4168.205078,4399.871582,4349.871582,4285.128418,4303.461426,0.000000,3.000000,56.000000,,,,0.000000,4.000000,4.000000,4.000000,4.000000,4.000000,4.000000,4.000000,4.000000,4.000000,4.000000,4.000000,4.000000,4.000000,4.000000,100.000000,,,,,,,,,,,,,,,,,,,,,,,,,,,,
1703505248.802542,1703505248.802763,48.000000,0.000000,4217.563965,4213.077148,4248.589844,4278.846191,4092.692383,4233.717773,4252.436035,4186.666504,4175.384766,4170.000000,4395.000000,4350.512695,4286.538574,4303.077148,0.000000,3.000000,56.000000,,,,0.000000,4.000000,4.000000,4.000000,4.000000,4.000000,4.000000,4.000000,4.000000,4.000000,4.000000,4.000000,4.000000,4.000000,4.000000,100.000000,,,,,,,,,,,,,,,,,12.000000,0.000000,0.302385,-0.720520,-0.061096,-0.621033,0.930289,-0.356489,-0.038579,-5.829926,-49.562141,61.161053
1703505248.810350,1703505248.810571,49.000000,0.000000,4216.410156,4205.384766,4247.051270,4275.769043,4090.384521,4232.307617,4251.153809,4188.461426,4168.717773,4172.820313,4389.615234,4345.000000,4283.077148,4296.538574,0.000000,3.000000,56.000000,,,,0.000000,4.000000,4.000000,4.000000,4.000000,4.000000,4.000000,4.000000,4.000000,4.000000,4.000000,4.000000,4.000000,4.000000,4.000000,100.000000,,,,,,,,,,,,,,,,,,,,,,,,,,,,
1703505248.818158,1703505248.818379,50.000000,0.000000,4215.512695,4204.871582,4246.922852,4275.769043,4087.307617,4234.230957,4252.051270,4186.794922,4163.205078,4168.846191,4388.846191,4343.974121,4279.487305,4297.820313,0.000000,3.000000,56.000000,,,,0.000000,4.000000,4.000000,4.000000,4.000000,4.000000,4.000000,4.000000,4.000000,4.000000,4.000000,4.000000,4.000000,4.000000,4.000000,100.000000,,,,,,,,,,,,,,,,,,,,,,,,,,,,
1703505248.825966,1703505248.826287,51.000000,0.000000,4215.769043,4204.743652,4247.692383,4270.128418,4085.000000,4230.000000,4251.794922,4177.563965,4152.436035,4161.410156,4381.794922,4343.717773,4274.102539,4296.538574,0.000000,3.000000,56.000000,,,,0.000000,4.000000,4.000000,4.000000,4.000000,4.000000,4.000000,4.000000,4.000000,4.000000,4.000000,4.000000,4.000000,4.000000,4.000000,100.000000,,,,,,,,,,,,,,,,,,,,,,,,,,,,
1703505248.833774,1703505248.834095,52.000000,0.000000,4212.051270,4202.436035,4240.512695,4263.589844,4077.948730,4220.641113,4248.205078,4167.948730,4138.589844,4151.282227,4366.794922,4335.641113,4264.615234,4287.307617,0.000000,3.000000,56.000000,,,,0.000000,4.000000,4.000000,4.000000,4.000000,4.000000,4.000000,4.000000,4.000000,4.000000,4.000000,4.000000,4.000000,4.000000,4.000000,100.000000,,,,,,,,,,,,,,,,,13.000000,0.000000,0.301960,-0.720398,-0.060913,-0.621399,0.919057,-0.356977,-0.035161,-5.913600,-49.489262,61.061615
1703505248.841582,1703505248.841803,53.000000,0.000000,4203.333496,4202.563965,4232.820313,4262.307617,4067.307617,4214.230957,4246.794922,4162.820313,4131.025879,4142.692383,4356.538574,4326.538574,4257.563965,4281.794922,0.000000,3.000000,56.000000,,,,0.000000,4.000000,4.000000,4.000000,4.000000,4.000000,4.000000,4.000000,4.000000,4.000000,4.000000,4.000000,4.000000,4.000000,4.000000,100.000000,,,,,,,,,,,,,,,,,,,,,,,,,,,,
1703505248.849390,1703505248.849611,54.000000,0.000000,4201.025879,4200.641113,4232.307617,4255.897461,4062.051270,4206.153809,4241.666504,4155.128418,4123.461426,4136.922852,4348.077148,4317.563965,4247.692383,4272.948730,0.000000,3.000000,56.000000,,,,0.000000,4.000000,4.000000,4.000000,4.000000,4.000000,4.000000,4.000000,4.000000,4.000000,4.000000,4.000000,4.000000,4.000000,4.000000,100.000000,,,,,,,,,,,,,,,,,,,,,,,,,,,,
1703505248.857198,1703505248.857319,55.000000,0.000000,4199.358887,4192.563965,4229.615234,4246.666504,4058.076904,4198.717773,4232.820313,4150.256348,4120.512695,4136.538574,4341.153809,4312.051270,4239.230957,4263.717773,0.000000,3.000000,56.000000,,,,0.000000,4.000000,4.000000,4.000000,4.000000,4.000000,4.000000,4.000000,4.000000,4.000000,4.000000,4.000000,4.000000,4.000000,4.000000,100.000000,,,,,,,,,,,,,,,,,,,,,,,,,,,,
1703505248.865006,1703505248.865127,56.000000,0.000000,4192.307617,4184.871582,4224.102539,4245.128418,4051.666748,4197.051270,4230.128418,4158.077148,4126.410156,4138.205078,4341.666504,4314.487305,4243.974121,4263.077148,0.000000,3.000000,56.000000,,,,0.000000,4.000000,4.000000,4.000000,4.000000,4.000000,4.000000,4.000000,4.000000,4.000000,4.000000,4.000000,4.000000,4.000000,4.000000,100.000000,,,,,,,,,,,,,,,,,14.000000,0.000000,0.301842,-0.720215,-0.060547,-0.621704,0.905384,-0.378464,-0.028812,-5.988907,-49.540337,60.972118
1703505248.872814,1703505248.872835,57.000000,0.000000,4191.025879,4185.256348,4220.256348,4244.230957,4052.564209,4197.307617,4232.179688,4166.922852,4131.922852,4137.948730,4343.589844,4315.000000,4245.128418,4266.410156,0.000000,3.000000,56.000000,,,,0.000000,4.000000,4.000000,4.000000,4.000000,4.000000,4.000000,4.000000,4.000000,4.000000,4.000000,4.000000,4.000000,4.000000,4.000000,100.000000,,,,,,,,,,,,,,,,,,,,,,,,,,,,
1703505248.880623,1703505248.880643,58.000000,0.000000,4191.153809,4180.000000,4216.025879,4234.487305,4056.538574,4196.794922,4233.205078,4166.666504,4130.512695,4134.615234,4337.948730,4309.615234,4236.410156,4263.077148,0.000000,3.000000,56.000000,,,,0.000000,4.000000,4.000000,4.000000,4.000000,4.000000,4.000000,4.000000,4.000000,4.000000,4.000000,4.000000,4.000000,4.000000,4.000000,100.000000,,,,,,,,,,,,,,,,,,,,,,,,,,,,
1703505248.888430,1703505248.888351,59.000000,0.000000,4185.128418,4168.974121,4213.717773,4227.692383,4054.102539,4199.743652,4232.948730,4164.743652,4127.307617,4127.563965,4329.487305,4307.051270,4227.307617,4252.692383,0.000000,3.000000,56.000000,,,,0.000000,4.000000,4.000000,4.000000,4.000000,4.000000,4.000000,4.000000,4.000000,4.000000,4.000000,4.000000,4.000000,4.000000,4.000000,100.000000,,,,,,,,,,,,,,,,,,,,,,,,,,,,
1703505248.896238,1703505248.896159,60.000000,0.000000,4182.948730,4169.871582,4214.615234,4236.153809,4059.230713,4200.769043,4231.922852,4167.692383,4131.666504,4129.743652,4331.025879,4311.410156,4228.461426,4254.230957,0.000000,3.000000,56.000000,,,,0.000000,4.000000,4.000000,4.000000,4.000000,4.000000,4.000000,4.000000,4.000000,4.000000,4.000000,4.000000,4.000000,4.000000,4.000000,100.000000,,,,,,,,,,,,,,,,,15.000000,0.000000,0.301807,-0.719849,-0.060059,-0.622192,0.922964,-0.360396,-0.028812,-6.123349,-49.519634,61.074905
1703505248.904047,1703505248.903867,61.000000,0.000000,4187.820313,4174.230957,4220.769043,4245.128418,4073.974365,4200.769043,4233.589844,4171.025879,4137.563965,4136.922852,4338.846191,4316.794922,4230.256348,4261.538574,0.000000,3.000000,56.000000,,,,0.000000,4.000000,4.000000,4.000000,4.000000,4.000000,4.000000,4.000000,4.000000,4.000000,4.000000,4.000000,4.000000,4.000000,4.000000,100.000000,,,,,,,,,,,,,,,,,,,,,,,,,,,,
1703505248.911855,1703505248.911775,62.000000,0.000000,4194.615234,4175.641113,4230.384766,4246.410156,4082.435791,4209.615234,4236.410156,4171.153809,4138.205078,4138.846191,4345.641113,4323.333496,4229.615234,4263.589844,0.000000,3.000000,56.000000,,,,0.000000,4.000000,4.000000,4.000000,4.000000,4.000000,4.000000,4.000000,4.000000,4.000000,4.000000,4.000000,4.000000,4.000000,4.000000,100.000000,,,,,,,,,,,,,,,,,,,,,,,,,,,,
1703505248.919663,1703505248.919583,63.000000,0.000000,4203.205078,4183.205078,4234.743652,4252.820313,4083.333252,4213.589844,4236.025879,4171.282227,4140.897461,4147.563965,4356.666504,4333.461426,4239.743652,4273.717773,0.000000,3.000000,56.000000,,,,0.000000,4.000000,4.000000,4.000000,4.000000,4.000000,4.000000,4.000000,4.000000,4.000000,4.000000,4.000000,4.000000,4.000000,4.000000,100.000000,1.000000,41.666668,4.000000,3.000000,3.000000,4.000000,1.000000,1.000000,3.000000,4.000000,4.000000,3.000000,4.000000,4.000000,4.000000,3.000000,,,,,,,,,,,,
1703505248.927471,1703505248.927491,64.000000,0.000000,4205.512695,4187.948730,4233.717773,4262.051270,4084.358887,4203.461426,4234.871582,4170.000000,4140.897461,4149.871582,4358.846191,4336.794922,4239.871582,4279.615234,5198.000000,3.000000,56.000000,,,,0.000000,4.000000,4.000000,4.000000,4.000000,4.000000,4.000000,4.000000,4.000000,4.000000,4.000000,4.000000,4.000000,4.000000,4.000000,100.000000,,,,,,,,,,,,,,,,,16.000000,0.000000,0.301688,-0.719421,-0.059448,-0.622803,0.923941,-0.357466,-0.030765,-6.311015,-49.484337,61.150749
1703505248.935279,1703505248.935298,65.000000,0.000000,4202.436035,4184.615234,4234.102539,4262.436035,4087.564209,4197.820313,4233.589844,4167.051270,4135.769043,4144.358887,4353.589844,4329.358887,4233.077148,4274.487305,5557.000000,3.000000,56.000000,,,,0.000000,4.000000,4.000000,4.000000,4.000000,4.000000,4.000000,4.000000,4.000000,4.000000,4.000000,4.000000,4.000000,4.000000,4.000000,100.000000,,,,,,,,,,,,,,,,,,,,,,,,,,,,
1703505248.943087,1703505248.943206,66.000000,0.000000,4202.948730,4184.743652,4234.871582,4255.000000,4090.897461,4201.410156,4232.820313,4166.282227,4136.922852,4146.666504,4357.179688,4327.307617,4237.051270,4275.641113,5392.000000,3.000000,56.000000,,,,0.000000,4.000000,4.000000,4.000000,4.000000,4.000000,4.000000,4.000000,4.000000,4.000000,4.000000,4.000000,4.000000,4.000000,4.000000,100.000000,,,,,,,,,,,,,,,,,,,,,,,,,,,,
1703505248.950895,1703505248.951014,67.000000,0.000000,4203.974121,4185.897461,4231.410156,4251.025879,4090.384521,4195.769043,4230.769043,4165.512695,4137.948730,4148.589844,4355.384766,4328.846191,4238.205078,4278.461426,5477.000000,3.000000,56.000000,,,,0.000000,4.000000,4.000000,4.000000,4.000000,4.000000,4.000000,4.000000,4.000000,4.000000,4.000000,4.000000,4.000000,4.000000,4.000000,100.000000,,,,,,,,,,,,,,,,,,,,,,,,,,,,
1703505248.958703,1703505248.958922,68.000000,0.000000,4205.384766,4185.256348,4228.589844,4251.410156,4091.153809,4191.282227,4228.461426,4166.794922,4141.538574,4148.077148,4353.205078,4328.846191,4240.000000,4280.641113,5320.000000,3.000000,56.000000,,,,0.000000,4.000000,4.000000,4.000000,4.000000,4.000000,4.000000,4.000000,4.000000,4.000000,4.000000,4.000000,4.000000,4.000000,4.000000,100.000000,,,,,,,,,,,,,,,,,17.000000,0.000000,0.301260,-0.718933,-0.059204,-0.623596,0.935173,-0.358931,-0.025882,-6.279913,-49.519238,61.202343
1703505248.966511,1703505248.966730,69.000000,0.000000,4205.128418,4185.897461,4231.922852,4251.025879,4093.589844,4196.153809,4232.051270,4170.384766,4152.179688,4156.410156,4363.846191,4332.692383,4244.487305,4283.589844,5158.000000,3.000000,56.000000,,,,0.000000,4.000000,4.000000,4.000000,4.000000,4.000000,4.000000,4.000000,4.000000,4.000000,4.000000,4.000000,4.000000,4.000000,4.000000,100.000000,,,,,,,,,,,,,,,,,,,,,,,,,,,,
1703505248.974319,1703505248.974638,70.000000,0.000000,4203.461426,4186.538574,4230.128418,4251.666504,4093.718018,4192.948730,4228.333496,4170.384766,4156.410156,4161.153809,4366.282227,4330.384766,4238.974121,4280.000000,3757.000000,3.000000,56.000000,,,,0.000000,4.000000,4.000000,4.000000,4.000000,4.000000,4.000000,4.000000,4.000000,4.000000,4.000000,4.000000,4.000000,4.000000,4.000000,100.000000,,,,,,,,,,,,,,,,,,,,,,,,,,,,
1703505248.982127,1703505248.982446,71.000000,0.000000,4203.077148,4185.641113,4220.897461,4246.282227,4090.384521,4185.256348,4217.820313,4168.333496,4148.333496,4148.461426,4354.230957,4318.205078,4227.307617,4273.846191,5168.000000,3.000000,56.000000,,,,0.000000,4.000000,4.000000,4.000000,4.000000,4.000000,4.000000,4.000000,4.000000,4.000000,4.000000,4.000000,4.000000,4.000000,4.000000,100.000000,,,,,,,,,,,,,,,,,,,,,,,,,,,,
1703505248.989935,1703505248.990354,72.000000,0.000000,4200.769043,4182.179688,4215.000000,4237.692383,4090.128174,4186.538574,4220.512695,4166.794922,4138.846191,4137.563965,4343.205078,4310.512695,4220.256348,4266.794922,5429.000000,3.000000,56.000000,,,,0.000000,4.000000,4.000000,4.000000,4.000000,4.000000,4.000000,4.000000,4.000000,4.000000,4.000000,4.000000,4.000000,4.000000,4.000000,100.000000,,,,,,,,,,,,,,,,,18.000000,0.000000,0.300762,-0.718506,-0.059204,-0.624329,0.936149,-0.356489,-0.028812,-6.501922,-49.533981,61.215439
1703505248.997743,1703505248.998162,73.000000,0.000000,4197.436035,4180.256348,4213.717773,4242.436035,4098.717773,4192.563965,4228.717773,4169.615234,4144.487305,4143.333496,4347.307617,4313.974121,4222.051270,4264.102539,5507.000000,3.000000,56.000000,,,,0.000000,4.000000,4.000000,4.000000,4.000000,4.000000,4.000000,4.000000,4.000000,4.000000,4.000000,4.000000,4.000000,4.000000,4.000000,100.000000,,,,,,,,,,,,,,,,,,,,,,,,,,,,
1703505249.005551,1703505249.006070,74.000000,0.000000,4205.128418,4185.128418,4226.410156,4260.384766,4109.102539,4196.282227,4230.128418,4177.948730,4156.922852,4155.000000,4367.820313,4332.051270,4237.692383,4279.358887,6072.000000,3.000000,56.000000,,,,0.000000,4.000000,4.000000,4.000000,4.000000,4.000000,4.000000,4.000000,4.000000,4.000000,4.000000,4.000000,4.000000,4.000000,4.000000,100.000000,,,,,,,,,,,,,,,,,,,,,,,,,,,,
1703505249.013359,1703505249.013878,75.000000,0.000000,4218.974121,4190.512695,4243.589844,4266.410156,4112.051270,4199.102539,4231.538574,4182.820313,4158.589844,4162.307617,4384.615234,4349.358887,4252.692383,4294.743652,6401.000000,3.000000,56.000000,,,,0.000000,4.000000,4.000000,4.000000,4.000000,4.000000,4.000000,4.000000,4.000000,4.000000,4.000000,4.000000,4.000000,4.000000,4.000000,100.000000,,,,,,,,,,,,,,,,,,,,,,,,,,,,
1703505249.021167,1703505249.021786,76.000000,0.000000,4217.692383,4190.769043,4242.563965,4262.307617,4111.282227,4197.307617,4232.436035,4181.666504,4160.256348,4167.051270,4390.256348,4353.205078,4255.641113,4296.538574,6885.000000,3.000000,56.000000,,,,0.000000,4.000000,4.000000,4.000000,4.000000,4.000000,4.000000,4.000000,4.000000,4.000000,4.000000,4.000000,4.000000,4.000000,4.000000,100.000000,,,,,,,,,,,,,,,,,19.000000,0.000000,0.300029,-0.718262,-0.059448,-0.624939,0.920523,-0.361372,-0.035161,-6.435063,-49.580582,61.143898
1703505249.028975,1703505249.029594,77.000000,0.000000,4215.000000,4194.102539,4239.487305,4265.512695,4108.461426,4192.436035,4232.051270,4184.102539,4169.615234,4172.307617,4396.410156,4356.410156,4262.051270,4303.461426,7216.000000,3.000000,56.000000,,,,0.000000,4.000000,4.000000,4.000000,4.000000,4.000000,4.000000,4.000000,4.000000,4.000000,4.000000,4.000000,4.000000,4.000000,4.000000,100.000000,,,,,,,,,,,,,,,,,,,,,,,,,,,,
1703505249.036784,1703505249.037302,78.000000,0.000000,4225.512695,4201.410156,4245.641113,4266.153809,4110.256348,4188.333496,4234.102539,4187.820313,4174.358887,4176.794922,4400.897461,4360.384766,4265.897461,4311.153809,6072.000000,3.000000,56.000000,,,,0.000000,4.000000,4.000000,4.000000,4.000000,4.000000,4.000000,4.000000,4.000000,4.000000,4.000000,4.000000,4.000000,4.000000,4.000000,100.000000,,,,,,,,,,,,,,,,,,,,,,,,,,,,
1703505249.044592,1703505249.045209,79.000000,0.000000,4232.051270,4203.461426,4249.487305,4267.051270,4119.871582,4188.846191,4235.256348,4186.922852,4174.615234,4184.230957,4405.512695,4361.410156,4262.820313,4311.025879,6401.000000,3.000000,56.000000,,,,0.000000,4.000000,4.000000,4.000000,4.000000,4.000000,4.000000,4.000000,4.000000,4.000000,4.000000,4.000000,4.000000,4.000000,4.000000,100.000000,,,,,,,,,,,,,,,,,,,,,,,,,,,,
1703505249.052400,1703505249.053017,80.000000,0.000000,4232.563965,4203.205078,4253.974121,4275.000000,4124.487305,4195.512695,4234.230957,4189.358887,4180.384766,4187.436035,4414.615234,4366.538574,4268.974121,4313.974121,6885.000000,3.000000,56.000000,,,,0.000000,4.000000,4.000000,4.000000,4.000000,4.000000,4.000000,4.000000,4.000000,4.000000,4.000000,4.000000,4.000000,4.000000,4.000000,100.000000,,,,,,,,,,,,,,,,,20.000000,0.000000,0.299752,-0.718140,-0.059753,-0.625183,0.927359,-0.343304,-0.031254,-6.541556,-49.589191,61.079506
1703505249.060208,1703505249.060925,81.000000,0.000000,4234.487305,4203.589844,4255.897461,4274.487305,4120.384766,4200.256348,4234.615234,4198.333496,4186.666504,4185.128418,4418.846191,4368.717773,4282.692383,4323.717773,7216.000000,3.000000,56.000000,,,,0.000000,4.000000,4.000000,4.000000,4.000000,4.000000,4.000000,4.000000,4.000000,4.000000,4.000000,4.000000,4.000000,4.000000,4.000000,100.000000,,,,,,,,,,,,,,,,,,,,,,,,,,,,
1703505249.068016,1703505249.068733,82.000000,0.000000,4232.820313,4199.615234,4248.205078,4262.948730,4120.000000,4198.974121,4240.000000,4198.846191,4181.666504,4186.538574,4414.743652,4364.615234,4280.000000,4325.512695,6072.000000,3.000000,56.000000,,,,0.000000,4.000000,4.000000,4.000000,4.000000,4.000000,4.000000,4.000000,4.000000,4.000000,4.000000,4.000000,4.000000,4.000000,4.000000,100.000000,,,,,,,,,,,,,,,,,,,,,,,,,,,,
1703505249.075824,1703505249.076541,83.000000,0.000000,4229.230957,4198.846191,4245.769043,4260.384766,4122.948730,4199.102539,4245.769043,4191.794922,4175.256348,4186.025879,4411.794922,4364.230957,4267.563965,4316.282227,6401.000000,3.000000,56.000000,,,,0.000000,4.000000,4.000000,4.000000,4.000000,4.000000,4.000000,4.000000,4.000000,4.000000,4.000000,4.000000,4.000000,4.000000,4.000000,100.000000,,,,,,,,,,,,,,,,,,,,,,,,,,,,
1703505249.083632,1703505249.084249,84.000000,0.000000,4225.512695,4202.307617,4250.128418,4265.897461,4125.769043,4206.538574,4247.051270,4192.948730,4178.974121,4186.282227,4413.589844,4368.974121,4268.846191,4315.128418,6885.000000,3.000000,56.000000,,,,0.000000,4.000000,4.000000,4.000000,4.000000,4.000000,4.000000,4.000000,4.000000,4.000000,4.000000,4.000000,4.000000,4.000000,4.000000,100.000000,,,,,,,,,,,,,,,,,21.000000,0.000000,0.299073,-0.717957,-0.060242,-0.625671,0.927359,-0.344769,-0.019045,-6.470734,-49.630272,61.071556
1703505249.091440,1703505249.092057,85.000000,0.000000,4224.358887,4200.512695,4251.153809,4263.717773,4128.333496,4212.820313,4248.077148,4192.692383,4175.769043,4185.384766,4407.692383,4362.948730,4265.769043,4313.333496,7216.000000,3.000000,56.000000,,,,0.000000,4.000000,4.000000,4.000000,4.000000,4.000000,4.000000,4.000000,4.000000,4.000000,4.000000,4.000000,4.000000,4.000000,4.000000,100.000000,,,,,,,,,,,,,,,,,,,,,,,,,,,,
1703505249.099248,1703505249.099765,86.000000,0.000000,4229.358887,4206.025879,4247.563965,4261.666504,4129.358887,4213.974121,4248.077148,4184.743652,4171.794922,4183.205078,4401.538574,4354.871582,4260.512695,4309.743652,6072.000000,3.000000,56.000000,,,,0.000000,4.000000,4.000000,4.000000,4.000000,4.000000,4.000000,4.000000,4.000000,4.000000,4.000000,4.000000,4.000000,4.000000,4.000000,100.000000,,,,,,,,,,,,,,,,,,,,,,,,,,,,
1703505249.107056,1703505249.107673,87.000000,0.000000,4236.153809,4217.563965,4247.948730,4265.000000,4127.563965,4209.230957,4245.769043,4187.436035,4180.897461,4185.256348,4409.487305,4362.436035,4268.846191,4320.256348,6401.000000,3.000000,56.000000,,,,0.000000,4.000000,4.000000,4.000000,4.000000,4.000000,4.000000,4.000000,4.000000,4.000000,4.000000,4.000000,4.000000,4.000000,4.000000,100.000000,,,,,,,,,,,,,,,,,,,,,,,,,,,,
1703505249.114864,1703505249.115481,88.000000,0.000000,4241.025879,4219.358887,4257.051270,4269.358887,4128.974121,4205.128418,4247.948730,4195.128418,4181.025879,4184.102539,4413.846191,4368.589844,4270.512695,4328.333496,6885.000000,3.000000,56.000000,,,,0.000000,4.000000,4.000000,4.000000,4.000000,4.000000,4.000000,4.000000,4.000000,4.000000,4.000000,4.000000,4.000000,4.000000,4.000000,100.000000,,,,,,,,,,,,,,,,,22.000000,0.000000,0.298407,-0.717896,-0.061096,-0.625977,0.930289,-0.331095,-0.029300,-6.556994,-49.517246,60.964401
1703505249.122672,1703505249.123389,89.000000,0.000000,4245.769043,4221.410156,4260.897461,4274.230957,4134.487305,4211.666504,4252.051270,4195.512695,4177.307617,4188.333496,4411.922852,4371.153809,4271.025879,4329.358887,7216.000000,3.000000,56.000000,,,,0.000000,4.000000,4.000000,4.000000,4.000000,4.000000,4.000000,4.000000,4.000000,4.000000,4.000000,4.000000,4.000000,4.000000,4.000000,100.000000,,,,,,,,,,,,,,,,,,,,,,,,,,,,
1703505249.130480,1703505249.131197,90.000000,0.000000,4246.538574,4230.384766,4256.922852,4277.436035,4138.717773,4216.282227,4249.871582,4193.461426,4185.769043,4199.230957,4414.871582,4374.615234,4279.102539,4328.589844,6072.000000,3.000000,56.000000,,,,0.000000,4.000000,4.000000,4.000000,4.000000,4.000000,4.000000,4.000000,4.000000,4.000000,4.000000,4.000000,4.000000,4.000000,4.000000,100.000000,,,,,,,,,,,,,,,,,,,,,,,,,,,,
1703505249.138288,1703505249.139105,91.000000,0.000000,4243.333496,4231.794922,4255.769043,4278.717773,4141.410156,4216.025879,4248.589844,4194.358887,4189.358887,4200.128418,4417.948730,4372.563965,4279.487305,4327.692383,6401.000000,3.000000,56.000000,,,,0.000000,4.000000,4.000000,4.000000,4.000000,4.000000,4.000000,4.000000,4.000000,4.000000,4.000000,4.000000,4.000000,4.000000,4.000000,100.000000,,,,,,,,,,,,,,,,,,,,,,,,,,,,
1703505249.146096,1703505249.146913,92.000000,0.000000,4249.230957,4232.948730,4260.256348,4280.769043,4142.948730,4223.974121,4255.641113,4198.589844,4192.563965,4199.487305,4426.538574,4381.410156,4285.897461,4339.102539,6885.000000,3.000000,56.000000,,,,0.000000,4.000000,4.000000,4.000000,4.000000,4.000000,4.000000,4.000000,4.000000,4.000000,4.000000,4.000000,4.000000,4.000000,4.000000,100.000000,,,,,,,,,,,,,,,,,23.000000,0.000000,0.297558,-0.717957,-0.062012,-0.626221,0.929801,-0.339885,-0.018069,-6.334628,-49.498852,61.117962
1703505249.153904,1703505249.154821,93.000000,0.000000,4257.692383,4240.769043,4267.820313,4283.589844,4145.897461,4233.846191,4265.000000,4204.615234,4202.436035,4206.666504,4437.563965,4395.000000,4297.948730,4349.743652,7216.000000,3.000000,56.000000,,,,0.000000,4.000000,4.000000,4.000000,4.000000,4.000000,4.000000,4.000000,4.000000,4.000000,4.000000,4.000000,4.000000,4.000000,4.000000,100.000000,,,,,,,,,,,,,,,,,,,,,,,,,,,,
1703505249.161712,1703505249.162629,94.000000,0.000000,4256.282227,4240.000000,4268.205078,4282.820313,4151.666504,4234.615234,4268.461426,4203.077148,4201.538574,4205.897461,4432.307617,4387.692383,4293.974121,4343.717773,6072.000000,3.000000,56.000000,,,,0.000000,4.000000,4.000000,4.000000,4.000000,4.000000,4.000000,4.000000,4.000000,4.000000,4.000000,4.000000,4.000000,4.000000,4.000000,100.000000,,,,,,,,,,,,,,,,,,,,,,,,,,,,
1703505249.169521,1703505249.170537,95.000000,0.000000,4250.000000,4234.743652,4262.307617,4281.025879,4153.589844,4233.077148,4267.307617,4199.743652,4197.436035,4199.487305,4425.512695,4378.974121,4288.333496,4337.307617,6401.000000,3.000000,56.000000,,,,0.000000,4.000000,4.000000,4.000000,4.000000,4.000000,4.000000,4.000000,4.000000,4.000000,4.000000,4.000000,4.000000,4.000000,4.000000,100.000000,,,,,,,,,,,,,,,,,,,,,,,,,,,,
1703505249.177328,1703505249.178444,96.000000,0.000000,4248.077148,4235.128418,4262.436035,4281.025879,4151.922852,4234.358887,4266.922852,4200.897461,4198.461426,4200.897461,4428.077148,4385.384766,4288.717773,4334.743652,6885.000000,3.000000,56.000000,,,,0.000000,4.000000,4.000000,4.000000,4.000000,4.000000,4.000000,4.000000,4.000000,4.000000,4.000000,4.000000,4.000000,4.000000,4.000000,100.000000,,,,,,,,,,,,,,,,,24.000000,0.000000,0.296497,-0.718018,-0.062683,-0.626587,0.921499,-0.344769,-0.028324,-6.451165,-49.598969,61.106163
1703505249.185136,1703505249.186252,97.000000,0.000000,4247.563965,4235.000000,4263.846191,4281.410156,4151.282227,4234.358887,4266.922852,4200.641113,4199.743652,4201.410156,4428.461426,4388.846191,4287.051270,4332.948730,7216.000000,3.000000,56.000000,,,,0.000000,4.000000,4.000000,4.000000,4.000000,4.000000,4.000000,4.000000,4.000000,4.000000,4.000000,4.000000,4.000000,4.000000,4.000000,100.000000,,,,,,,,,,,,,,,,,,,,,,,,,,,,
1703505249.192945,1703505249.194060,98.000000,0.000000,4245.256348,4232.948730,4266.025879,4281.282227,4149.743652,4236.666504,4266.794922,4206.666504,4208.205078,4202.307617,4432.051270,4391.666504,4291.922852,4339.487305,6072.000000,3.000000,56.000000,,,,0.000000,4.000000,4.000000,4.000000,4.000000,4.000000,4.000000,4.000000,4.000000,4.000000,4.000000,4.000000,4.000000,4.000000,4.000000,100.000000,,,,,,,,,,,,,,,,,,,,,,,,,,,,
1703505249.200753,1703505249.201768,99.000000,0.000000,4249.487305,4235.384766,4268.077148,4282.563965,4150.641113,4240.000000,4267.692383,4215.512695,4218.589844,4206.794922,4441.282227,4399.615234,4300.769043,4345.641113,6401.000000,3.000000,56.000000,,,,0.000000,4.000000,4.000000,4.000000,4.000000,4.000000,4.000000,4.000000,4.000000,4.000000,4.000000,4.000000,4.000000,4.000000,4.000000,100.000000,,,,,,,,,,,,,,,,,,,,,,,,,,,,
1703505249.208561,1703505249.209576,100.000000,0.000000,4246.794922,4235.512695,4267.563965,4281.410156,4150.128418,4236.666504,4266.666504,4215.512695,4220.384766,4207.307617,4442.563965,4401.025879,4297.563965,4340.769043,6885.000000,3.000000,56.000000,,,,0.000000,4.000000,4.000000,4.000000,4.000000,4.000000,4.000000,4.000000,4.000000,4.000000,4.000000,4.000000,4.000000,4.000000,4.000000,100.000000,,,,,,,,,,,,,,,,,25.000000,0.000000,0.295346,-0.718018,-0.063232,-0.627075,0.927359,-0.344280,-0.037602,-6.389382,-49.472404,61.178883
1703505249.216369,1703505249.217284,101.000000,0.000000,4236.025879,4235.000000,4268.974121,4279.615234,4142.307617,4228.589844,4263.717773,4210.128418,4216.410156,4200.128418,4429.615234,4391.025879,4286.025879,4330.897461,7216.000000,3.000000,56.000000,,,,0.000000,4.000000,4.000000,4.000000,4.000000,4.000000,4.000000,4.000000,4.000000,4.000000,4.000000,4.000000,4.000000,4.000000,4.000000,100.000000,,,,,,,,,,,,,,,,,,,,,,,,,,,,
1703505249.224177,1703505249.225092,102.000000,0.000000,4239.487305,4242.692383,4268.974121,4285.769043,4144.102539,4229.871582,4262.820313,4211.153809,4213.717773,4197.179688,4422.179688,4384.230957,4286.794922,4330.512695,6072.000000,3.000000,56.000000,,,,0.000000,4.000000,4.000000,4.000000,4.000000,4.000000,4.000000,4.000000,4.000000,4.000000,4.000000,4.000000,4.000000,4.000000,4.000000,100.000000,,,,,,,,,,,,,,,,,,,,,,,,,,,,
1703505249.231985,1703505249.232801,103.000000,0.000000,4249.487305,4249.615234,4272.563965,4294.102539,4153.974121,4242.307617,4271.410156,4217.820313,4214.615234,4207.179688,4436.025879,4395.384766,4298.333496,4345.641113,6401.000000,3.000000,56.000000,,,,0.000000,4.000000,4.000000,4.000000,4.000000,4.000000,4.000000,4.000000,4.000000,4.000000,4.000000,4.000000,4.000000,4.000000,4.000000,100.000000,,,,,,,,,,,,,,,,,,,,,,,,,,,,
1703505249.239793,1703505249.240609,104.000000,0.000000,4249.102539,4248.461426,4278.077148,4294.615234,4157.692383,4250.384766,4278.974121,4217.307617,4215.769043,4217.563965,4449.102539,4405.769043,4300.641113,4352.436035,6885.000000,3.000000,56.000000,,,,0.000000,4.000000,4.000000,4.000000,4.000000,4.000000,4.000000,4.000000,4.000000,4.000000,4.000000,4.000000,4.000000,4.000000,4.000000,100.000000,,,,,,,,,,,,,,,,,26.000000,0.000000,0.294528,-0.718018,-0.063416,-0.627441,0.930778,-0.339397,-0.028324,-6.333777,-49.408497,61.160992
1703505249.247601,1703505249.248317,105.000000,0.000000,4244.102539,4247.179688,4269.358887,4291.410156,4158.589844,4249.743652,4276.538574,4213.077148,4212.179688,4215.256348,4440.897461,4398.077148,4296.153809,4341.153809,7216.000000,3.000000,56.000000,,,,0.000000,4.000000,4.000000,4.000000,4.000000,4.000000,4.000000,4.000000,4.000000,4.000000,4.000000,4.000000,4.000000,4.000000,4.000000,100.000000,,,,,,,,,,,,,,,,,,,,,,,,,,,,
1703505249.255409,1703505249.256125,106.000000,0.000000,4245.769043,4250.512695,4263.461426,4296.153809,4158.461426,4250.384766,4277.179688,4210.897461,4205.128418,4205.256348,4428.589844,4388.846191,4292.307617,4332.436035,6072.000000,3.000000,56.000000,,,,0.000000,4.000000,4.000000,4.000000,4.000000,4.000000,4.000000,4.000000,4.000000,4.000000,4.000000,4.000000,4.000000,4.000000,4.000000,100.000000,,,,,,,,,,,,,,,,,,,,,,,,,,,,
1703505249.263217,1703505249.263833,107.000000,0.000000,4246.538574,4250.000000,4269.615234,4301.538574,4155.384766,4254.102539,4281.922852,4208.589844,4200.897461,4200.512695,4426.282227,4386.410156,4285.897461,4330.897461,6401.000000,3.000000,56.000000,,,,0.000000,4.000000,4.000000,4.000000,4.000000,4.000000,4.000000,4.000000,4.000000,4.000000,4.000000,4.000000,4.000000,4.000000,4.000000,100.000000,,,,,,,,,,,,,,,,,,,,,,,,,,,,
1703505249.271025,1703505249.271641,108.000000,0.000000,4243.333496,4245.512695,4270.128418,4297.948730,4154.102539,4253.974121,4281.666504,4204.871582,4201.410156,4200.897461,4426.666504,4388.974121,4287.563965,4332.692383,6885.000000,3.000000,56.000000,,,,0.000000,4.000000,4.000000,4.000000,4.000000,4.000000,4.000000,4.000000,4.000000,4.000000,4.000000,4.000000,4.000000,4.000000,4.000000,100.000000,,,,,,,,,,,,,,,,,27.000000,0.000000,0.294074,-0.718140,-0.062927,-0.627563,0.938591,-0.337932,-0.018069,-6.450399,-49.550980,61.144894
1703505249.278833,1703505249.279349,109.000000,0.000000,4244.615234,4245.000000,4266.153809,4295.128418,4154.615234,4251.282227,4279.358887,4200.000000,4200.641113,4200.897461,4427.563965,4394.230957,4293.205078,4336.410156,7216.000000,3.000000,56.000000,,,,0.000000,4.000000,4.000000,4.000000,4.000000,4.000000,4.000000,4.000000,4.000000,4.000000,4.000000,4.000000,4.000000,4.000000,4.000000,100.000000,,,,,,,,,,,,,,,,,,,,,,,,,,,,
1703505249.286641,1703505249.287157,110.000000,0.000000,4247.692383,4248.717773,4268.461426,4295.512695,4148.974121,4249.358887,4279.487305,4201.410156,4200.256348,4207.948730,4431.794922,4396.794922,4294.358887,4341.794922,6072.000000,3.000000,56.000000,,,,0.000000,4.000000,4.000000,4.000000,4.000000,4.000000,4.000000,4.000000,4.000000,4.000000,4.000000,4.000000,4.000000,4.000000,4.000000,100.000000,,,,,,,,,,,,,,,,,,,,,,,,,,,,
1703505249.294449,1703505249.294865,111.000000,0.000000,4248.846191,4250.512695,4275.384766,4296.538574,4139.615234,4247.436035,4281.282227,4208.717773,4203.205078,4215.512695,4436.282227,4400.769043,4301.153809,4351.153809,6401.000000,3.000000,56.000000,,,,0.000000,4.000000,4.000000,4.000000,4.000000,4.000000,4.000000,4.000000,4.000000,4.000000,4.000000,4.000000,4.000000,4.000000,4.000000,100.000000,,,,,,,,,,,,,,,,,,,,,,,,,,,,
1703505249.302257,1703505249.302673,112.000000,0.000000,4249.615234,4250.512695,4277.179688,4301.410156,4136.922852,4248.077148,4281.666504,4207.563965,4204.615234,4214.230957,4436.666504,4397.948730,4307.692383,4352.179688,6885.000000,3.000000,56.000000,,,,0.000000,4.000000,4.000000,4.000000,4.000000,4.000000,4.000000,4.000000,4.000000,4.000000,4.000000,4.000000,4.000000,4.000000,4.000000,100.000000,,,,,,,,,,,,,,,,,28.000000,0.000000,0.293998,-0.718262,-0.062500,-0.627502,0.941033,-0.344280,-0.030765,-6.555359,-49.479218,60.997070
1703505249.310065,1703505249.310381,113.000000,0.000000,4248.461426,4253.589844,4267.692383,4303.333496,4140.769043,4249.102539,4280.384766,4200.256348,4203.846191,4209.743652,4435.897461,4389.487305,4305.512695,4346.025879,7216.000000,3.000000,56.000000,,,,0.000000,4.000000,4.000000,4.000000,4.000000,4.000000,4.000000,4.000000,4.000000,4.000000,4.000000,4.000000,4.000000,4.000000,4.000000,100.000000,,,,,,,,,,,,,,,,,,,,,,,,,,,,
1703505249.317873,1703505249.318289,114.000000,0.000000,4240.256348,4248.333496,4262.563965,4296.538574,4140.641113,4246.666504,4280.256348,4200.897461,4202.820313,4205.000000,4432.051270,4387.948730,4295.897461,4340.384766,6072.000000,3.000000,56.000000,,,,0.000000,4.000000,4.000000,4.000000,4.000000,4.000000,4.000000,4.000000,4.000000,4.000000,4.000000,4.000000,4.000000,4.000000,4.000000,100.000000,,,,,,,,,,,,,,,,,,,,,,,,,,,,
1703505249.325682,1703505249.326097,115.000000,0.000000,4227.307617,4235.641113,4262.051270,4292.948730,4135.000000,4245.512695,4279.487305,4206.153809,4207.563965,4200.769043,4421.410156,4383.846191,4283.589844,4330.128418,6401.000000,3.000000,56.000000,,,,0.000000,4.000000,4.000000,4.000000,4.000000,4.000000,4.000000,4.000000,4.000000,4.000000,4.000000,4.000000,4.000000,4.000000,4.000000,100.000000,,,,,,,,,,,,,,,,,,,,,,,,,,,,
1703505249.333490,1703505249.334004,116.000000,0.000000,4224.487305,4226.153809,4253.846191,4291.153809,4131.538574,4250.128418,4280.128418,4206.025879,4213.974121,4202.948730,4414.102539,4376.922852,4277.692383,4316.410156,6885.000000,3.000000,56.000000,,,,0.000000,4.000000,4.000000,4.000000,4.000000,4.000000,4.000000,4.000000,4.000000,4.000000,4.000000,4.000000,4.000000,4.000000,4.000000,100.000000,,,,,,,,,,,,,,,,,29.000000,0.000000,0.294204,-0.718506,-0.061157,-0.627258,0.933708,-0.330118,-0.039067,-6.533157,-49.364628,60.997364
1703505249.341298,1703505249.341812,117.000000,0.000000,4229.615234,4220.512695,4248.333496,4283.333496,4125.000000,4246.538574,4279.487305,4201.538574,4208.461426,4204.102539,4415.641113,4373.077148,4280.128418,4310.256348,7216.000000,3.000000,56.000000,,,,0.000000,4.000000,4.000000,4.000000,4.000000,4.000000,4.000000,4.000000,4.000000,4.000000,4.000000,4.000000,4.000000,4.000000,4.000000,100.000000,,,,,,,,,,,,,,,,,,,,,,,,,,,,
1703505249.349106,1703505249.349720,118.000000,0.000000,4223.846191,4217.051270,4246.922852,4277.948730,4114.743652,4234.743652,4270.512695,4198.461426,4202.051270,4202.436035,4421.794922,4368.589844,4286.794922,4315.512695,6072.000000,3.000000,56.000000,,,,0.000000,4.000000,4.000000,4.000000,4.000000,4.000000,4.000000,4.000000,4.000000,4.000000,4.000000,4.000000,4.000000,4.000000,4.000000,100.000000,,,,,,,,,,,,,,,,,,,,,,,,,,,,
1703505249.356914,1703505249.357528,119.000000,0.000000,4215.384766,4216.538574,4246.025879,4275.897461,4106.794922,4229.358887,4265.384766,4196.025879,4200.897461,4201.153809,4423.461426,4366.666504,4285.641113,4318.333496,6401.000000,3.000000,56.000000,,,,0.000000,4.000000,4.000000,4.000000,4.000000,4.000000,4.000000,4.000000,4.000000,4.000000,4.000000,4.000000,4.000000,4.000000,4.000000,100.000000,,,,,,,,,,,,,,,,,,,,,,,,,,,,
1703505249.364722,1703505249.365436,120.000000,0.000000,4222.820313,4218.717773,4244.358887,4274.487305,4106.153809,4233.077148,4269.358887,4190.769043,4193.461426,4190.000000,4411.794922,4366.153809,4273.333496,4312.820313,6885.000000,3.000000,56.000000,,,,0.000000,4.000000,4.000000,4.000000,4.000000,4.000000,4.000000,4.000000,4.000000,4.000000,4.000000,4.000000,4.000000,4.000000,4.000000,100.000000,,,,,,,,,,,,,,,,,30.000000,0.000000,0.294509,-0.718750,-0.059937,-0.626953,0.928336,-0.346722,-0.033696,-6.579841,-49.078167,60.930962
1703505249.372530,1703505249.373244,121.000000,0.000000,4226.410156,4218.461426,4238.077148,4272.307617,4108.077148,4230.897461,4267.179688,4183.461426,4181.922852,4173.333496,4398.589844,4361.153809,4263.974121,4305.256348,7216.000000,3.000000,56.000000,,,,0.000000,4.000000,4.000000,4.000000,4.000000,4.000000,4.000000,4.000000,4.000000,4.000000,4.000000,4.000000,4.000000,4.000000,4.000000,100.000000,,,,,,,,,,,,,,,,,,,,,,,,,,,,
1703505249.380338,1703505249.381152,122.000000,0.000000,4216.666504,4217.051270,4237.820313,4264.487305,4099.102539,4217.820313,4255.256348,4177.051270,4177.820313,4167.820313,4392.820313,4353.717773,4260.256348,4297.563965,6072.000000,3.000000,56.000000,,,,0.000000,4.000000,4.000000,4.000000,4.000000,4.000000,4.000000,4.000000,4.000000,4.000000,4.000000,4.000000,4.000000,4.000000,4.000000,100.000000,,,,,,,,,,,,,,,,,,,,,,,,,,,,
1703505249.388146,1703505249.388960,123.000000,0.000000,4214.615234,4213.077148,4241.282227,4259.102539,4088.076904,4207.436035,4247.051270,4171.538574,4181.153809,4171.410156,4391.922852,4349.230957,4258.461426,4300.128418,6401.000000,3.000000,56.000000,,,,0.000000,4.000000,4.000000,4.000000,4.000000,4.000000,4.000000,4.000000,4.000000,4.000000,4.000000,4.000000,4.000000,4.000000,4.000000,100.000000,,,,,,,,,,,,,,,,,,,,,,,,,,,,
1703505249.395954,1703505249.396668,124.000000,0.000000,4217.307617,4211.282227,4236.538574,4262.179688,4087.307617,4208.205078,4246.410156,4172.179688,4182.051270,4169.871582,4390.128418,4348.846191,4256.922852,4308.333496,6885.000000,3.000000,56.000000,,,,0.000000,4.000000,4.000000,4.000000,4.000000,4.000000,4.000000,4.000000,4.000000,4.000000,4.000000,4.000000,4.000000,4.000000,4.000000,100.000000,,,,,,,,,,,,,,,,,31.000000,0.000000,0.294822,-0.719055,-0.059204,-0.626526,0.926871,-0.345745,-0.033207,-6.638524,-48.970348,61.021198
1703505249.403762,1703505249.404476,125.000000,0.000000,4214.487305,4215.384766,4232.051270,4264.230957,4091.410156,4214.487305,4244.487305,4170.384766,4174.487305,4159.230957,4379.358887,4341.282227,4250.512695,4301.410156,7216.000000,3.000000,56.000000,,,,0.000000,4.000000,4.000000,4.000000,4.000000,4.000000,4.000000,4.000000,4.000000,4.000000,4.000000,4.000000,4.000000,4.000000,4.000000,100.000000,,,,,,,,,,,,,,,,,,,,,,,,,,,,
1703505249.411570,1703505249.412184,126.000000,0.000000,4213.717773,4213.974121,4231.666504,4262.563965,4092.948730,4214.102539,4242.692383,4159.615234,4166.538574,4150.641113,4368.846191,4327.051270,4240.512695,4290.000000,6072.000000,3.000000,56.000000,,,,0.000000,4.000000,4.000000,4.000000,4.000000,4.000000,4.000000,4.000000,4.000000,4.000000,4.000000,4.000000,4.000000,4.000000,4.000000,100.000000,,,,,,,,,,,,,,,,,,,,,,,,,,,,
1703505249.419378,1703505249.419992,127.000000,0.000000,4216.538574,4211.282227,4231.922852,4262.692383,4090.641113,4206.922852,4243.333496,4155.000000,4164.230957,4151.922852,4368.589844,4326.153809,4236.025879,4293.077148,56.000000,3.000000,56.000000,,,,0.000000,4.000000,4.000000,4.000000,4.000000,4.000000,4.000000,4.000000,4.000000,4.000000,4.000000,4.000000,4.000000,4.000000,4.000000,100.000000,1.000000,75.000000,4.000000,4.000000,3.000000,4.000000,3.000000,3.000000,4.000000,4.000000,3.000000,3.000000,3.000000,4.000000,3.000000,3.000000,,,,,,,,,,,,
1703505249.427186,1703505249.427700,0.000000,0.000000,4217.948730,4213.205078,4230.769043,4263.205078,4090.384521,4202.436035,4237.948730,4155.897461,4160.256348,4151.922852,4368.974121,4330.641113,4233.333496,4294.358887,5198.000000,3.000000,56.000000,,,,0.000000,4.000000,4.000000,4.000000,4.000000,4.000000,4.000000,4.000000,4.000000,4.000000,4.000000,4.000000,4.000000,4.000000,4.000000,100.000000,,,,,,,,,,,,,,,,,0.000000,0.000000,0.294911,-0.719299,-0.059021,-0.626221,0.916127,-0.356977,-0.032719,-6.674671,-48.973312,61.002411
1703505249.434994,1703505249.435508,1.000000,0.000000,4215.000000,4212.692383,4227.692383,4263.205078,4089.871826,4204.871582,4234.102539,4153.717773,4155.641113,4144.230957,4364.230957,4327.051270,4230.641113,4289.487305,5557.000000,3.000000,56.000000,,,,0.000000,4.000000,4.000000,4.000000,4.000000,4.000000,4.000000,4.000000,4.000000,4.000000,4.000000,4.000000,4.000000,4.000000,4.000000,100.000000,,,,,,,,,,,,,,,,,,,,,,,,,,,,
1703505249.442802,1703505249.443216,2.000000,0.000000,4216.666504,4207.692383,4228.077148,4263.589844,4085.641113,4204.871582,4241.025879,4151.025879,4152.820313,4136.666504,4362.051270,4326.538574,4228.589844,4288.717773,5392.000000,3.000000,56.000000,,,,0.000000,4.000000,4.000000,4.000000,4.000000,4.000000,4.000000,4.000000,4.000000,4.000000,4.000000,4.000000,4.000000,4.000000,4.000000,100.000000,,,,,,,,,,,,,,,,,,,,,,,,,,,,
1703505249.450610,1703505249.451024,3.000000,0.000000,4226.153809,4209.743652,4233.333496,4267.051270,4084.743652,4203.974121,4243.205078,4152.051270,4155.769043,4142.948730,4368.205078,4336.538574,4231.922852,4294.230957,5477.000000,3.000000,56.000000,,,,0.000000,4.000000,4.000000,4.000000,4.000000,4.000000,4.000000,4.000000,4.000000,4.000000,4.000000,4.000000,4.000000,4.000000,4.000000,100.000000,,,,,,,,,,,,,,,,,,,,,,,,,,,,
1703505249.458418,1703505249.458732,4.000000,0.000000,4233.205078,4216.922852,4240.512695,4275.256348,4092.051270,4209.743652,4241.922852,4160.128418,4168.589844,4158.717773,4381.025879,4350.000000,4245.128418,4306.282227,5317.000000,3.000000,56.000000,,,,0.000000,4.000000,4.000000,4.000000,4.000000,4.000000,4.000000,4.000000,4.000000,4.000000,4.000000,4.000000,4.000000,4.000000,4.000000,100.000000,,,,,,,,,,,,,,,,,1.000000,0.000000,0.294844,-0.719177,-0.058899,-0.626404,0.923941,-0.364302,-0.022464,-6.657204,-48.975983,61.018837
1703505249.466226,1703505249.466540,5.000000,0.000000,4234.615234,4219.102539,4244.615234,4282.820313,4103.205078,4215.000000,4245.897461,4168.461426,4175.769043,4162.436035,4387.692383,4354.871582,4251.794922,4314.230957,5158.000000,3.000000,56.000000,,,,0.000000,4.000000,4.000000,4.000000,4.000000,4.000000,4.000000,4.000000,4.000000,4.000000,4.000000,4.000000,4.000000,4.000000,4.000000,100.000000,,,,,,,,,,,,,,,,,,,,,,,,,,,,
1703505249.474035,1703505249.474248,6.000000,0.000000,4231.666504,4218.461426,4238.589844,4282.179688,4107.563965,4211.666504,4244.487305,4170.769043,4172.307617,4157.692383,4380.000000,4350.384766,4246.922852,4310.128418,3757.000000,3.000000,56.000000,,,,0.000000,4.000000,4.000000,4.000000,4.000000,4.000000,4.000000,4.000000,4.000000,4.000000,4.000000,4.000000,4.000000,4.000000,4.000000,100.000000,,,,,,,,,,,,,,,,,,,,,,,,,,,,
1703505249.481843,1703505249.482156,7.000000,0.000000,4230.256348,4216.922852,4234.871582,4280.256348,4100.769043,4204.230957,4238.846191,4168.077148,4171.282227,4157.563965,4371.410156,4348.589844,4241.282227,4301.410156,5168.000000,3.000000,56.000000,,,,0.000000,4.000000,4.000000,4.000000,4.000000,4.000000,4.000000,4.000000,4.000000,4.000000,4.000000,4.000000,4.000000,4.000000,4.000000,100.000000,,,,,,,,,,,,,,,,,,,,,,,,,,,,
1703505249.489651,1703505249.489964,8.000000,0.000000,4230.256348,4212.051270,4236.410156,4278.333496,4092.179443,4197.563965,4234.743652,4163.205078,4171.410156,4157.692383,4368.077148,4342.307617,4239.358887,4296.666504,5429.000000,3.000000,56.000000,,,,0.000000,4.000000,4.000000,4.000000,4.000000,4.000000,4.000000,4.000000,4.000000,4.000000,4.000000,4.000000,4.000000,4.000000,4.000000,100.000000,,,,,,,,,,,,,,,,,2.000000,0.000000,0.294843,-0.719299,-0.058716,-0.626282,0.925894,-0.354047,-0.051764,-6.524817,-49.045052,60.933620
1703505249.497459,1703505249.497872,9.000000,0.000000,4223.461426,4205.769043,4231.025879,4270.256348,4086.410156,4188.461426,4231.538574,4157.436035,4162.948730,4152.563965,4360.641113,4330.000000,4235.000000,4293.846191,5511.000000,3.000000,56.000000,,,,0.000000,4.000000,4.000000,4.000000,4.000000,4.000000,4.000000,4.000000,4.000000,4.000000,4.000000,4.000000,4.000000,4.000000,4.000000,100.000000,,,,,,,,,,,,,,,,,,,,,,,,,,,,
1703505249.505267,1703505249.505680,10.000000,0.000000,4215.897461,4202.820313,4225.256348,4262.948730,4079.871826,4187.820313,4230.769043,4149.615234,4149.871582,4146.410156,4346.538574,4324.358887,4224.358887,4285.000000,6073.000000,3.000000,56.000000,,,,0.000000,4.000000,4.000000,4.000000,4.000000,4.000000,4.000000,4.000000,4.000000,4.000000,4.000000,4.000000,4.000000,4.000000,4.000000,100.000000,,,,,,,,,,,,,,,,,,,,,,,,,,,,
1703505249.513075,1703505249.513588,11.000000,0.000000,4215.512695,4203.333496,4219.358887,4261.794922,4075.128174,4194.230957,4228.589844,4140.641113,4139.487305,4137.820313,4332.692383,4317.307617,4216.410156,4278.846191,6404.000000,3.000000,56.000000,,,,0.000000,4.000000,4.000000,4.000000,4.000000,4.000000,4.000000,4.000000,4.000000,4.000000,4.000000,4.000000,4.000000,4.000000,4.000000,100.000000,,,,,,,,,,,,,,,,,,,,,,,,,,,,
1703505249.520883,1703505249.521396,12.000000,0.000000,4215.384766,4201.153809,4212.179688,4261.538574,4075.384521,4192.051270,4226.410156,4136.410156,4128.461426,4124.743652,4323.846191,4307.692383,4209.743652,4275.897461,6902.000000,3.000000,56.000000,,,,0.000000,4.000000,4.000000,4.000000,4.000000,4.000000,4.000000,4.000000,4.000000,4.000000,4.000000,4.000000,4.000000,4.000000,4.000000,100.000000,,,,,,,,,,,,,,,,,3.000000,0.000000,0.294921,-0.719421,-0.058777,-0.626099,0.917104,-0.361372,-0.026370,-6.672336,-49.223881,60.890259
1703505249.528691,1703505249.529304,13.000000,0.000000,4213.077148,4200.769043,4215.512695,4261.153809,4077.820557,4189.487305,4225.641113,4137.436035,4124.615234,4122.948730,4322.179688,4310.641113,4201.922852,4269.358887,7216.000000,3.000000,56.000000,,,,0.000000,4.000000,4.000000,4.000000,4.000000,4.000000,4.000000,4.000000,4.000000,4.000000,4.000000,4.000000,4.000000,4.000000,4.000000,100.000000,,,,,,,,,,,,,,,,,,,,,,,,,,,,
1703505249.536499,1703505249.537112,14.000000,0.000000,4208.077148,4201.282227,4216.410156,4261.794922,4078.589844,4189.743652,4225.000000,4136.922852,4130.128418,4131.025879,4327.307617,4313.461426,4205.384766,4266.666504,6073.000000,3.000000,56.000000,,,,0.000000,4.000000,4.000000,4.000000,4.000000,4.000000,4.000000,4.000000,4.000000,4.000000,4.000000,4.000000,4.000000,4.000000,4.000000,100.000000,,,,,,,,,,,,,,,,,,,,,,,,,,,,
1703505249.544307,1703505249.545019,15.000000,0.000000,4203.974121,4198.589844,4210.769043,4261.922852,4078.461426,4186.922852,4227.692383,4136.666504,4139.358887,4128.846191,4331.410156,4308.589844,4215.384766,4272.692383,6404.000000,3.000000,56.000000,,,,0.000000,4.000000,4.000000,4.000000,4.000000,4.000000,4.000000,4.000000,4.000000,4.000000,4.000000,4.000000,4.000000,4.000000,4.000000,100.000000,,,,,,,,,,,,,,,,,,,,,,,,,,,,
1703505249.552115,1703505249.552827,16.000000,0.000000,4209.102539,4198.205078,4213.077148,4260.769043,4085.512939,4191.666504,4230.512695,4137.948730,4156.282227,4119.487305,4336.025879,4313.846191,4217.179688,4278.846191,0.000000,3.000000,56.000000,,,,0.000000,4.000000,4.000000,4.000000,4.000000,4.000000,4.000000,4.000000,4.000000,4.000000,4.000000,4.000000,4.000000,4.000000,4.000000,100.000000,,,,,,,,,,,,,,,,,4.000000,0.000000,0.295212,-0.719360,-0.058716,-0.626038,0.912709,-0.353070,-0.036626,-6.655102,-49.068157,61.051231
1703505249.559923,1703505249.560735,17.000000,0.000000,4214.615234,4198.974121,4216.922852,4263.205078,4091.538574,4197.307617,4229.615234,4136.666504,4180.256348,4116.922852,4343.717773,4324.871582,4221.153809,4283.461426,0.000000,3.000000,56.000000,,,,0.000000,4.000000,4.000000,4.000000,4.000000,4.000000,4.000000,4.000000,4.000000,4.000000,4.000000,4.000000,4.000000,4.000000,4.000000,100.000000,,,,,,,,,,,,,,,,,,,,,,,,,,,,
1703505249.567731,1703505249.568543,18.000000,0.000000,4217.820313,4201.410156,4218.333496,4266.153809,4085.641113,4190.128418,4229.230957,4141.410156,4207.563965,4119.871582,4350.512695,4326.410156,4229.743652,4290.000000,0.000000,3.000000,56.000000,,,,0.000000,4.000000,4.000000,4.000000,4.000000,4.000000,4.000000,4.000000,4.000000,4.000000,4.000000,4.000000,4.000000,4.000000,4.000000,100.000000,,,,,,,,,,,,,,,,,,,,,,,,,,,,
1703505249.575539,1703505249.576351,19.000000,0.000000,4221.666504,4204.871582,4218.461426,4266.794922,4084.358887,4185.384766,4229.230957,4152.948730,4222.948730,4127.436035,4354.102539,4328.589844,4231.666504,4295.769043,0.000000,3.000000,56.000000,,,,0.000000,4.000000,4.000000,4.000000,4.000000,4.000000,4.000000,4.000000,4.000000,4.000000,4.000000,4.000000,4.000000,4.000000,4.000000,100.000000,,,,,,,,,,,,,,,,,,,,,,,,,,,,
1703505249.583347,1703505249.584159,20.000000,0.000000,4222.179688,4203.589844,4218.589844,4271.153809,4091.025635,4187.179688,4228.205078,4158.205078,4204.615234,4139.871582,4354.743652,4335.512695,4231.282227,4296.282227,0.000000,3.000000,56.000000,,,,0.000000,4.000000,4.000000,4.000000,4.000000,4.000000,4.000000,4.000000,4.000000,4.000000,4.000000,4.000000,4.000000,4.000000,4.000000,100.000000,,,,,,,,,,,,,,,,,5.000000,0.000000,0.295409,-0.719299,-0.058472,-0.626038,0.925406,-0.358931,-0.034672,-6.422925,-49.061340,61.112774
1703505249.591155,1703505249.591867,21.000000,0.000000,4223.717773,4207.179688,4220.256348,4281.410156,4093.333252,4190.897461,4231.922852,4157.179688,4175.384766,4149.230957,4355.000000,4337.692383,4231.922852,4294.230957,0.000000,3.000000,56.000000,,,,0.000000,4.000000,4.000000,4.000000,4.000000,4.000000,4.000000,4.000000,4.000000,4.000000,4.000000,4.000000,4.000000,4.000000,4.000000,100.000000,,,,,,,,,,,,,,,,,,,,,,,,,,,,
1703505249.598963,1703505249.599675,22.000000,0.000000,4225.256348,4212.692383,4221.153809,4283.717773,4093.205078,4194.358887,4233.974121,4158.333496,4169.615234,4154.102539,4358.461426,4336.794922,4231.282227,4296.025879,0.000000,3.000000,56.000000,,,,0.000000,4.000000,4.000000,4.000000,4.000000,4.000000,4.000000,4.000000,4.000000,4.000000,4.000000,4.000000,4.000000,4.000000,4.000000,100.000000,,,,,,,,,,,,,,,,,,,,,,,,,,,,
1703505249.606772,1703505249.607383,23.000000,0.000000,4219.743652,4206.922852,4220.384766,4272.820313,4092.692383,4189.871582,4229.358887,4157.051270,4164.743652,4153.846191,4357.436035,4333.205078,4230.512695,4295.000000,0.000000,3.000000,56.000000,,,,0.000000,4.000000,4.000000,4.000000,4.000000,4.000000,4.000000,4.000000,4.000000,4.000000,4.000000,4.000000,4.000000,4.000000,4.000000,100.000000,,,,,,,,,,,,,,,,,,,,,,,,,,,,
1703505249.614580,1703505249.615191,24.000000,0.000000,4215.641113,4202.436035,4213.077148,4266.922852,4092.692383,4189.615234,4225.641113,4154.102539,4152.436035,4152.436035,4356.794922,4329.615234,4233.205078,4288.077148,0.000000,3.000000,56.000000,,,,0.000000,4.000000,4.000000,4.000000,4.000000,4.000000,4.000000,4.000000,4.000000,4.000000,4.000000,4.000000,4.000000,4.000000,4.000000,100.000000,,,,,,,,,,,,,,,,,6.000000,0.000000,0.295723,-0.719238,-0.058289,-0.625977,0.931754,-0.350140,-0.039556,-6.363966,-48.905209,61.018166
1703505249.622388,1703505249.622899,25.000000,0.000000,4212.179688,4201.025879,4207.179688,4268.461426,4094.230713,4198.589844,4230.897461,4154.615234,4149.230957,4151.794922,4357.307617,4327.179688,4231.410156,4285.128418,0.000000,3.000000,56.000000,,,,0.000000,4.000000,4.000000,4.000000,4.000000,4.000000,4.000000,4.000000,4.000000,4.000000,4.000000,4.000000,4.000000,4.000000,4.000000,100.000000,,,,,,,,,,,,,,,,,,,,,,,,,,,,
1703505249.630196,1703505249.630807,26.000000,0.000000,4201.538574,4189.102539,4206.153809,4263.205078,4090.128174,4194.230957,4230.128418,4150.512695,4141.153809,4141.282227,4346.922852,4316.794922,4219.358887,4274.230957,0.000000,3.000000,56.000000,,,,0.000000,4.000000,4.000000,4.000000,4.000000,4.000000,4.000000,4.000000,4.000000,4.000000,4.000000,4.000000,4.000000,4.000000,4.000000,100.000000,,,,,,,,,,,,,,,,,,,,,,,,,,,,
1703505249.638004,1703505249.638615,27.000000,0.000000,4196.025879,4181.410156,4204.230957,4257.436035,4087.820557,4184.358887,4220.769043,4147.179688,4138.333496,4135.128418,4339.615234,4312.563965,4213.974121,4262.563965,0.000000,3.000000,56.000000,,,,0.000000,4.000000,4.000000,4.000000,4.000000,4.000000,4.000000,4.000000,4.000000,4.000000,4.000000,4.000000,4.000000,4.000000,4.000000,100.000000,,,,,,,,,,,,,,,,,,,,,,,,,,,,
1703505249.645812,1703505249.646423,28.000000,0.000000,4199.487305,4188.717773,4205.769043,4260.641113,4092.820557,4189.487305,4225.000000,4154.358887,4150.256348,4141.794922,4345.128418,4325.897461,4219.487305,4264.487305,0.000000,3.000000,56.000000,,,,0.000000,4.000000,4.000000,4.000000,4.000000,4.000000,4.000000,4.000000,4.000000,4.000000,4.000000,4.000000,4.000000,4.000000,4.000000,100.000000,,,,,,,,,,,,,,,,,7.000000,0.000000,0.295668,-0.719116,-0.058105,-0.626160,0.939568,-0.351605,-0.040532,-6.177569,-48.848019,60.966347
1703505249.653620,1703505249.654131,29.000000,0.000000,4200.000000,4192.179688,4209.615234,4262.692383,4092.692383,4192.051270,4230.769043,4157.948730,4155.384766,4139.487305,4344.871582,4328.974121,4220.000000,4266.794922,0.000000,3.000000,56.000000,,,,0.000000,4.000000,4.000000,4.000000,4.000000,4.000000,4.000000,4.000000,4.000000,4.000000,4.000000,4.000000,4.000000,4.000000,4.000000,100.000000,,,,,,,,,,,,,,,,,,,,,,,,,,,,
1703505249.661428,1703505249.661939,30.000000,0.000000,4200.000000,4187.179688,4209.871582,4259.102539,4090.384521,4187.436035,4225.256348,4153.717773,4151.794922,4139.230957,4343.589844,4323.717773,4216.153809,4264.615234,0.000000,3.000000,56.000000,,,,0.000000,4.000000,4.000000,4.000000,4.000000,4.000000,4.000000,4.000000,4.000000,4.000000,4.000000,4.000000,4.000000,4.000000,4.000000,100.000000,,,,,,,,,,,,,,,,,,,,,,,,,,,,
1703505249.669236,1703505249.669647,31.000000,0.000000,4203.846191,4191.282227,4212.307617,4261.153809,4096.025879,4193.461426,4226.922852,4154.102539,4152.307617,4151.922852,4350.897461,4330.000000,4218.974121,4265.128418,0.000000,3.000000,56.000000,,,,0.000000,4.000000,4.000000,4.000000,4.000000,4.000000,4.000000,4.000000,4.000000,4.000000,4.000000,4.000000,4.000000,4.000000,4.000000,100.000000,,,,,,,,,,,,,,,,,,,,,,,,,,,,
1703505249.677044,1703505249.677455,32.000000,0.000000,4205.512695,4199.743652,4216.282227,4266.794922,4096.410156,4199.230957,4232.436035,4158.717773,4158.717773,4156.410156,4352.948730,4331.410156,4227.179688,4270.897461,0.000000,3.000000,56.000000,,,,0.000000,4.000000,4.000000,4.000000,4.000000,4.000000,4.000000,4.000000,4.000000,4.000000,4.000000,4.000000,4.000000,4.000000,4.000000,100.000000,,,,,,,,,,,,,,,,,8.000000,0.000000,0.295544,-0.719177,-0.057983,-0.626160,0.913686,-0.345257,-0.030765,-6.259812,-48.863220,61.069714
1703505249.684852,1703505249.685163,33.000000,0.000000,4202.051270,4195.769043,4216.153809,4265.128418,4083.333252,4190.769043,4232.179688,4160.897461,4163.846191,4152.948730,4350.897461,4327.051270,4228.333496,4274.102539,0.000000,3.000000,56.000000,,,,0.000000,4.000000,4.000000,4.000000,4.000000,4.000000,4.000000,4.000000,4.000000,4.000000,4.000000,4.000000,4.000000,4.000000,4.000000,100.000000,,,,,,,,,,,,,,,,,,,,,,,,,,,,
1703505249.692660,1703505249.692971,34.000000,0.000000,4199.102539,4186.282227,4210.512695,4255.641113,4077.051270,4183.077148,4226.282227,4157.307617,4159.230957,4153.077148,4349.615234,4323.333496,4217.051270,4267.179688,0.000000,3.000000,56.000000,,,,0.000000,4.000000,4.000000,4.000000,4.000000,4.000000,4.000000,4.000000,4.000000,4.000000,4.000000,4.000000,4.000000,4.000000,4.000000,100.000000,,,,,,,,,,,,,,,,,,,,,,,,,,,,
1703505249.700468,1703505249.700679,35.000000,0.000000,4197.820313,4183.589844,4203.589844,4247.692383,4085.769287,4191.025879,4220.128418,4154.102539,4152.948730,4152.179688,4347.692383,4320.897461,4212.179688,4261.538574,0.000000,3.000000,56.000000,,,,0.000000,4.000000,4.000000,4.000000,4.000000,4.000000,4.000000,4.000000,4.000000,4.000000,4.000000,4.000000,4.000000,4.000000,4.000000,100.000000,,,,,,,,,,,,,,,,,,,,,,,,,,,,
1703505249.708276,1703505249.708587,36.000000,0.000000,4200.769043,4187.820313,4206.410156,4254.102539,4093.076904,4198.974121,4224.615234,4158.717773,4156.410156,4152.563965,4350.769043,4327.436035,4217.820313,4266.025879,0.000000,3.000000,56.000000,,,,0.000000,4.000000,4.000000,4.000000,4.000000,4.000000,4.000000,4.000000,4.000000,4.000000,4.000000,4.000000,4.000000,4.000000,4.000000,100.000000,,,,,,,,,,,,,,,,,9.000000,0.000000,0.295558,-0.719055,-0.058105,-0.626282,0.921499,-0.349164,-0.024905,-6.450498,-49.160229,61.129410
1703505249.716084,1703505249.716395,37.000000,0.000000,4205.897461,4193.846191,4213.333496,4267.307617,4094.230713,4198.205078,4232.436035,4160.512695,4158.077148,4156.153809,4355.897461,4332.948730,4220.000000,4268.846191,0.000000,3.000000,56.000000,,,,0.000000,4.000000,4.000000,4.000000,4.000000,4.000000,4.000000,4.000000,4.000000,4.000000,4.000000,4.000000,4.000000,4.000000,4.000000,100.000000,,,,,,,,,,,,,,,,,,,,,,,,,,,,
1703505249.723892,1703505249.724303,38.000000,0.000000,4205.897461,4193.461426,4211.922852,4268.589844,4092.692383,4195.512695,4229.743652,4155.128418,4153.333496,4154.102539,4355.256348,4333.333496,4212.692383,4265.897461,0.000000,3.000000,56.000000,,,,0.000000,4.000000,4.000000,4.000000,4.000000,4.000000,4.000000,4.000000,4.000000,4.000000,4.000000,4.000000,4.000000,4.000000,4.000000,100.000000,,,,,,,,,,,,,,,,,,,,,,,,,,,,
1703505249.731700,1703505249.732111,39.000000,0.000000,4203.461426,4188.205078,4215.641113,4263.717773,4095.384521,4196.538574,4228.589844,4153.461426,4150.897461,4148.846191,4350.128418,4337.307617,4204.487305,4263.461426,0.000000,3.000000,56.000000,,,,0.000000,4.000000,4.000000,4.000000,4.000000,4.000000,4.000000,4.000000,4.000000,4.000000,4.000000,4.000000,4.000000,4.000000,4.000000,100.000000,,,,,,,,,,,,,,,,,,,,,,,,,,,,
1703505249.739509,1703505249.740019,40.000000,0.000000,4204.102539,4181.282227,4219.871582,4264.358887,4103.717773,4199.743652,4231.922852,4155.897461,4156.538574,4154.102539,4354.615234,4340.512695,4209.102539,4263.589844,0.000000,3.000000,56.000000,,,,0.000000,4.000000,4.000000,4.000000,4.000000,4.000000,4.000000,4.000000,4.000000,4.000000,4.000000,4.000000,4.000000,4.000000,4.000000,100.000000,,,,,,,,,,,,,,,,,10.000000,0.000000,0.295431,-0.718933,-0.058289,-0.626465,0.933219,-0.350629,-0.020510,-6.505448,-49.177540,61.099800
1703505249.747316,1703505249.747927,41.000000,0.000000,4202.820313,4173.205078,4215.769043,4263.974121,4102.179688,4194.615234,4231.410156,4154.102539,4153.717773,4158.589844,4359.487305,4335.769043,4218.205078,4263.333496,0.000000,3.000000,56.000000,,,,0.000000,4.000000,4.000000,4.000000,4.000000,4.000000,4.000000,4.000000,4.000000,4.000000,4.000000,4.000000,4.000000,4.000000,4.000000,100.000000,,,,,,,,,,,,,,,,,,,,,,,,,,,,
1703505249.755124,1703505249.755735,42.000000,0.000000,4201.282227,4176.410156,4215.769043,4263.974121,4096.666504,4186.538574,4230.641113,4151.794922,4141.282227,4150.897461,4353.333496,4330.256348,4216.666504,4260.128418,0.000000,3.000000,56.000000,,,,0.000000,4.000000,4.000000,4.000000,4.000000,4.000000,4.000000,4.000000,4.000000,4.000000,4.000000,4.000000,4.000000,4.000000,4.000000,100.000000,,,,,,,,,,,,,,,,,,,,,,,,,,,,
1703505249.762933,1703505249.763543,43.000000,0.000000,4200.641113,4182.307617,4215.641113,4265.641113,4097.692383,4185.641113,4229.615234,4155.897461,4147.563965,4150.128418,4349.615234,4330.769043,4214.102539,4259.487305,0.000000,3.000000,56.000000,,,,0.000000,4.000000,4.000000,4.000000,4.000000,4.000000,4.000000,4.000000,4.000000,4.000000,4.000000,4.000000,4.000000,4.000000,4.000000,100.000000,,,,,,,,,,,,,,,,,,,,,,,,,,,,
1703505249.770741,1703505249.771451,44.000000,0.000000,4197.307617,4171.538574,4209.102539,4260.897461,4094.230713,4185.769043,4228.077148,4155.641113,4153.974121,4154.743652,4347.436035,4327.307617,4211.282227,4254.358887,0.000000,3.000000,56.000000,,,,0.000000,4.000000,4.000000,4.000000,4.000000,4.000000,4.000000,4.000000,4.000000,4.000000,4.000000,4.000000,4.000000,4.000000,4.000000,100.000000,,,,,,,,,,,,,,,,,11.000000,0.000000,0.295034,-0.718689,-0.058716,-0.626892,0.924918,-0.356000,-0.022464,-6.554903,-49.026451,60.989822
1703505249.778549,1703505249.779259,45.000000,0.000000,4198.846191,4170.000000,4204.230957,4257.307617,4092.820557,4186.410156,4229.487305,4150.769043,4141.794922,4151.666504,4341.410156,4319.358887,4204.102539,4248.077148,0.000000,3.000000,56.000000,,,,0.000000,4.000000,4.000000,4.000000,4.000000,4.000000,4.000000,4.000000,4.000000,4.000000,4.000000,4.000000,4.000000,4.000000,4.000000,100.000000,,,,,,,,,,,,,,,,,,,,,,,,,,,,
1703505249.786357,1703505249.786967,46.000000,0.000000,4197.692383,4183.717773,4201.282227,4262.307617,4102.948730,4194.743652,4231.282227,4152.307617,4138.974121,4148.974121,4340.128418,4319.743652,4201.922852,4250.128418,0.000000,3.000000,56.000000,,,,0.000000,4.000000,4.000000,4.000000,4.000000,4.000000,4.000000,4.000000,4.000000,4.000000,4.000000,4.000000,4.000000,4.000000,4.000000,100.000000,,,,,,,,,,,,,,,,,,,,,,,,,,,,
1703505249.794165,1703505249.794775,47.000000,0.000000,4190.512695,4181.666504,4200.256348,4264.358887,4108.077148,4200.256348,4232.436035,4150.641113,4141.794922,4150.769043,4342.179688,4323.333496,4201.794922,4248.077148,0.000000,3.000000,56.000000,,,,0.000000,4.000000,4.000000,4.000000,4.000000,4.000000,4.000000,4.000000,4.000000,4.000000,4.000000,4.000000,4.000000,4.000000,4.000000,100.000000,,,,,,,,,,,,,,,,,,,,,,,,,,,,
1703505249.801973,1703505249.802483,48.000000,0.000000,4193.589844,4172.948730,4202.179688,4253.846191,4101.794922,4199.102539,4231.282227,4148.589844,4139.102539,4154.487305,4344.871582,4323.205078,4202.563965,4249.615234,0.000000,3.000000,56.000000,,,,0.000000,4.000000,4.000000,4.000000,4.000000,4.000000,4.000000,4.000000,4.000000,4.000000,4.000000,4.000000,4.000000,4.000000,4.000000,100.000000,,,,,,,,,,,,,,,,,12.000000,0.000000,0.294924,-0.718506,-0.058899,-0.627136,0.922476,-0.354047,-0.031742,-6.416080,-49.140472,60.924171
1703505249.809781,1703505249.810291,49.000000,0.000000,4199.871582,4173.077148,4204.230957,4243.974121,4095.897461,4196.282227,4231.410156,4149.102539,4139.615234,4149.102539,4345.512695,4319.358887,4205.256348,4260.256348,0.000000,3.000000,56.000000,,,,0.000000,4.000000,4.000000,4.000000,4.000000,4.000000,4.000000,4.000000,4.000000,4.000000,4.000000,4.000000,4.000000,4.000000,4.000000,100.000000,,,,,,,,,,,,,,,,,,,,,,,,,,,,
1703505249.817589,1703505249.817999,50.000000,0.000000,4199.615234,4179.615234,4201.922852,4253.077148,4096.794922,4191.282227,4232.563965,4143.333496,4137.307617,4138.846191,4339.615234,4312.948730,4201.922852,4263.717773,0.000000,3.000000,56.000000,,,,0.000000,4.000000,4.000000,4.000000,4.000000,4.000000,4.000000,4.000000,4.000000,4.000000,4.000000,4.000000,4.000000,4.000000,4.000000,100.000000,,,,,,,,,,,,,,,,,,,,,,,,,,,,
1703505249.825397,1703505249.825807,51.000000,0.000000,4200.384766,4183.717773,4202.179688,4262.948730,4100.769043,4187.820313,4231.153809,4143.717773,4131.794922,4142.948730,4340.641113,4313.846191,4200.256348,4262.563965,0.000000,3.000000,56.000000,,,,0.000000,4.000000,4.000000,4.000000,4.000000,4.000000,4.000000,4.000000,4.000000,4.000000,4.000000,4.000000,4.000000,4.000000,4.000000,100.000000,,,,,,,,,,,,,,,,,,,,,,,,,,,,
1703505249.833205,1703505249.833515,52.000000,0.000000,4202.563965,4178.077148,4207.051270,4253.589844,4096.922852,4185.897461,4228.974121,4149.743652,4132.179688,4155.128418,4348.205078,4322.436035,4201.666504,4264.743652,0.000000,3.000000,56.000000,,,,0.000000,4.000000,4.000000,4.000000,4.000000,4.000000,4.000000,4.000000,4.000000,4.000000,4.000000,4.000000,4.000000,4.000000,4.000000,100.000000,,,,,,,,,,,,,,,,,13.000000,0.000000,0.294801,-0.718445,-0.058960,-0.627258,0.932731,-0.346722,-0.028324,-6.357805,-49.193092,60.965088
1703505249.841013,1703505249.841323,53.000000,0.000000,4206.922852,4177.179688,4207.051270,4246.794922,4094.102539,4183.589844,4228.333496,4145.000000,4130.769043,4154.102539,4348.077148,4323.846191,4203.077148,4267.948730,0.000000,3.000000,56.000000,,,,0.000000,4.000000,4.000000,4.000000,4.000000,4.000000,4.000000,4.000000,4.000000,4.000000,4.000000,4.000000,4.000000,4.000000,4.000000,100.000000,,,,,,,,,,,,,,,,,,,,,,,,,,,,
1703505249.848821,1703505249.849031,54.000000,0.000000,4216.282227,4182.948730,4206.794922,4252.179688,4097.307617,4182.563965,4227.436035,4137.051270,4124.743652,4149.358887,4348.077148,4321.282227,4205.769043,4275.128418,0.000000,3.000000,56.000000,,,,0.000000,4.000000,4.000000,4.000000,4.000000,4.000000,4.000000,4.000000,4.000000,4.000000,4.000000,4.000000,4.000000,4.000000,4.000000,100.000000,,,,,,,,,,,,,,,,,,,,,,,,,,,,
1703505249.856629,1703505249.856839,55.000000,0.000000,4220.256348,4181.666504,4215.769043,4251.538574,4097.436035,4183.846191,4225.256348,4140.512695,4125.256348,4154.230957,4354.615234,4326.538574,4209.743652,4283.589844,0.000000,3.000000,56.000000,,,,0.000000,4.000000,4.000000,4.000000,4.000000,4.000000,4.000000,4.000000,4.000000,4.000000,4.000000,4.000000,4.000000,4.000000,4.000000,100.000000,,,,,,,,,,,,,,,,,,,,,,,,,,,,
1703505249.864437,1703505249.864547,56.000000,0.000000,4215.769043,4180.128418,4218.589844,4246.922852,4098.974121,4184.615234,4226.922852,4145.256348,4129.871582,4156.922852,4358.846191,4329.487305,4215.769043,4281.666504,0.000000,3.000000,56.000000,,,,0.000000,4.000000,4.000000,4.000000,4.000000,4.000000,4.000000,4.000000,4.000000,4.000000,4.000000,4.000000,4.000000,4.000000,4.000000,100.000000,,,,,,,,,,,,,,,,,14.000000,0.000000,0.294684,-0.718445,-0.058899,-0.627319,0.922476,-0.342327,-0.022952,-6.238691,-49.090450,61.035248
1703505249.872245,1703505249.872455,57.000000,0.000000,4215.000000,4184.615234,4212.179688,4250.128418,4100.256348,4184.230957,4232.051270,4140.641113,4128.717773,4150.769043,4355.384766,4323.461426,4217.436035,4275.512695,0.000000,3.000000,56.000000,,,,0.000000,4.000000,4.000000,4.000000,4.000000,4.000000,4.000000,4.000000,4.000000,4.000000,4.000000,4.000000,4.000000,4.000000,4.000000,100.000000,,,,,,,,,,,,,,,,,,,,,,,,,,,,
1703505249.880053,1703505249.880263,58.000000,0.000000,4216.666504,4185.128418,4213.333496,4250.512695,4096.153809,4184.102539,4227.436035,4130.128418,4122.563965,4143.461426,4346.282227,4316.410156,4206.282227,4273.846191,0.000000,3.000000,56.000000,,,,0.000000,4.000000,4.000000,4.000000,4.000000,4.000000,4.000000,4.000000,4.000000,4.000000,4.000000,4.000000,4.000000,4.000000,4.000000,100.000000,,,,,,,,,,,,,,,,,,,,,,,,,,,,
1703505249.887861,1703505249.888171,59.000000,0.000000,4214.743652,4179.487305,4216.410156,4245.384766,4093.718018,4182.820313,4221.922852,4126.922852,4118.717773,4140.897461,4339.615234,4319.358887,4195.256348,4271.025879,0.000000,3.000000,56.000000,,,,0.000000,4.000000,4.000000,4.000000,4.000000,4.000000,4.000000,4.000000,4.000000,4.000000,4.000000,4.000000,4.000000,4.000000,4.000000,100.000000,,,,,,,,,,,,,,,,,,,,,,,,,,,,
1703505249.895670,1703505249.895978,60.000000,0.000000,4213.333496,4176.282227,4215.128418,4243.333496,4096.794922,4182.948730,4226.922852,4133.717773,4120.128418,4138.589844,4340.000000,4326.410156,4196.794922,4269.615234,0.000000,3.000000,56.000000,,,,0.000000,4.000000,4.000000,4.000000,4.000000,4.000000,4.000000,4.000000,4.000000,4.000000,4.000000,4.000000,4.000000,4.000000,4.000000,100.000000,,,,,,,,,,,,,,,,,15.000000,0.000000,0.294826,-0.718445,-0.058838,-0.627258,0.929801,-0.335002,-0.035649,-6.248155,-49.148071,60.981720
1703505249.903478,1703505249.903886,61.000000,0.000000,4215.256348,4180.384766,4215.000000,4244.358887,4102.179688,4184.743652,4230.384766,4138.333496,4126.410156,4142.692383,4348.077148,4326.666504,4203.461426,4277.436035,0.000000,3.000000,56.000000,,,,0.000000,4.000000,4.000000,4.000000,4.000000,4.000000,4.000000,4.000000,4.000000,4.000000,4.000000,4.000000,4.000000,4.000000,4.000000,100.000000,,,,,,,,,,,,,,,,,,,,,,,,,,,,
1703505249.911286,1703505249.911694,62.000000,0.000000,4224.358887,4186.922852,4222.820313,4249.487305,4105.128418,4184.871582,4228.333496,4141.282227,4137.436035,4162.051270,4361.922852,4337.436035,4215.897461,4291.153809,0.000000,3.000000,56.000000,,,,0.000000,4.000000,4.000000,4.000000,4.000000,4.000000,4.000000,4.000000,4.000000,4.000000,4.000000,4.000000,4.000000,4.000000,4.000000,100.000000,,,,,,,,,,,,,,,,,,,,,,,,,,,,
1703505249.919094,1703505249.919602,63.000000,0.000000,4234.230957,4188.077148,4232.179688,4257.563965,4107.692383,4185.769043,4230.897461,4143.717773,4142.307617,4172.179688,4372.820313,4349.358887,4227.948730,4299.358887,0.000000,3.000000,56.000000,,,,0.000000,4.000000,4.000000,4.000000,4.000000,4.000000,4.000000,4.000000,4.000000,4.000000,4.000000,4.000000,4.000000,4.000000,4.000000,100.000000,1.000000,58.333332,4.000000,4.000000,3.000000,4.000000,1.000000,3.000000,4.000000,3.000000,4.000000,3.000000,3.000000,3.000000,3.000000,4.000000,,,,,,,,,,,,
1703505249.926902,1703505249.927410,64.000000,0.000000,4234.743652,4187.563965,4228.974121,4260.897461,4111.153809,4187.563965,4232.563965,4145.384766,4141.538574,4163.589844,4379.230957,4348.333496,4233.974121,4304.743652,5198.000000,3.000000,56.000000,,,,0.000000,4.000000,4.000000,4.000000,4.000000,4.000000,4.000000,4.000000,4.000000,4.000000,4.000000,4.000000,4.000000,4.000000,4.000000,100.000000,,,,,,,,,,,,,,,,,16.000000,0.000000,0.295147,-0.718323,-0.058716,-0.627258,0.919546,-0.336467,-0.032719,-6.123340,-49.149933,60.850216
1703505249.934710,1703505249.935318,65.000000,0.000000,4231.282227,4186.666504,4225.897461,4260.128418,4109.487305,4187.179688,4230.256348,4150.512695,4143.461426,4156.410156,4378.717773,4348.077148,4233.077148,4304.230957,5562.000000,3.000000,56.000000,,,,0.000000,4.000000,4.000000,4.000000,4.000000,4.000000,4.000000,4.000000,4.000000,4.000000,4.000000,4.000000,4.000000,4.000000,4.000000,100.000000,,,,,,,,,,,,,,,,,,,,,,,,,,,,
1703505249.942518,1703505249.943126,66.000000,0.000000,4232.563965,4191.794922,4225.897461,4260.641113,4111.153809,4191.666504,4230.128418,4154.615234,4146.666504,4157.820313,4369.102539,4348.077148,4226.794922,4297.051270,5394.000000,3.000000,56.000000,,,,0.000000,4.000000,4.000000,4.000000,4.000000,4.000000,4.000000,4.000000,4.000000,4.000000,4.000000,4.000000,4.000000,4.000000,4.000000,100.000000,,,,,,,,,,,,,,,,,,,,,,,,,,,,
1703505249.950326,1703505249.951034,67.000000,0.000000,4230.769043,4195.769043,4221.794922,4260.769043,4119.743652,4195.512695,4230.769043,4155.641113,4151.922852,4157.436035,4362.563965,4345.256348,4219.871582,4295.000000,5477.000000,3.000000,56.000000,,,,0.000000,4.000000,4.000000,4.000000,4.000000,4.000000,4.000000,4.000000,4.000000,4.000000,4.000000,4.000000,4.000000,4.000000,4.000000,100.000000,,,,,,,,,,,,,,,,,,,,,,,,,,,,
1703505249.958134,1703505249.958842,68.000000,0.000000,4226.025879,4190.000000,4220.769043,4262.563965,4119.743652,4191.794922,4231.410156,4155.641113,4153.333496,4154.358887,4363.974121,4346.410156,4214.102539,4293.846191,5313.000000,3.000000,56.000000,,,,0.000000,4.000000,4.000000,4.000000,4.000000,4.000000,4.000000,4.000000,4.000000,4.000000,4.000000,4.000000,4.000000,4.000000,4.000000,100.000000,,,,,,,,,,,,,,,,,17.000000,0.000000,0.295202,-0.718262,-0.058533,-0.627319,0.924918,-0.343792,-0.032230,-6.144339,-49.118271,60.815193
1703505249.965942,1703505249.966550,69.000000,0.000000,4228.589844,4192.948730,4221.794922,4262.307617,4116.538574,4193.589844,4231.410156,4154.743652,4151.922852,4159.615234,4370.128418,4350.128418,4220.000000,4297.179688,5158.000000,3.000000,56.000000,,,,0.000000,4.000000,4.000000,4.000000,4.000000,4.000000,4.000000,4.000000,4.000000,4.000000,4.000000,4.000000,4.000000,4.000000,4.000000,100.000000,,,,,,,,,,,,,,,,,,,,,,,,,,,,
1703505249.973750,1703505249.974358,70.000000,0.000000,4231.282227,4199.615234,4223.077148,4248.974121,4122.307617,4200.256348,4232.051270,4155.641113,4152.692383,4166.922852,4371.922852,4350.769043,4229.487305,4299.487305,3757.000000,3.000000,56.000000,,,,0.000000,4.000000,4.000000,4.000000,4.000000,4.000000,4.000000,4.000000,4.000000,4.000000,4.000000,4.000000,4.000000,4.000000,4.000000,100.000000,,,,,,,,,,,,,,,,,,,,,,,,,,,,
1703505249.981558,1703505249.982066,71.000000,0.000000,4230.512695,4196.025879,4223.461426,4234.615234,4125.897461,4199.230957,4234.487305,4153.974121,4154.487305,4167.179688,4370.641113,4349.358887,4229.615234,4295.384766,5168.000000,3.000000,56.000000,,,,0.000000,4.000000,4.000000,4.000000,4.000000,4.000000,4.000000,4.000000,4.000000,4.000000,4.000000,4.000000,4.000000,4.000000,4.000000,100.000000,,,,,,,,,,,,,,,,,,,,,,,,,,,,
1703505249.989366,1703505249.989874,72.000000,0.000000,4232.179688,4196.153809,4221.282227,4234.102539,4124.102539,4198.461426,4234.102539,4152.307617,4156.538574,4164.102539,4376.538574,4350.512695,4233.333496,4301.794922,5425.000000,3.000000,56.000000,,,,0.000000,4.000000,4.000000,4.000000,4.000000,4.000000,4.000000,4.000000,4.000000,4.000000,4.000000,4.000000,4.000000,4.000000,4.000000,100.000000,,,,,,,,,,,,,,,,,18.000000,0.000000,0.295220,-0.718323,-0.058350,-0.627258,0.930778,-0.349652,-0.024905,-6.279905,-49.256443,60.783676
1703505249.997174,1703505249.997582,73.000000,0.000000,4232.307617,4199.358887,4223.974121,4234.102539,4125.512695,4201.538574,4233.333496,4153.461426,4155.128418,4158.974121,4376.410156,4352.820313,4232.948730,4305.256348,5512.000000,3.000000,56.000000,,,,0.000000,4.000000,4.000000,4.000000,4.000000,4.000000,4.000000,4.000000,4.000000,4.000000,4.000000,4.000000,4.000000,4.000000,4.000000,100.000000,,,,,,,,,,,,,,,,,,,,,,,,,,,,
1703505250.004982,1703505250.005390,74.000000,0.000000,4233.974121,4200.897461,4230.769043,4231.794922,4130.769043,4199.743652,4232.948730,4153.461426,4153.974121,4154.102539,4371.025879,4353.077148,4228.205078,4301.025879,6090.000000,3.000000,56.000000,,,,0.000000,4.000000,4.000000,4.000000,4.000000,4.000000,4.000000,4.000000,4.000000,4.000000,4.000000,4.000000,4.000000,4.000000,4.000000,100.000000,,,,,,,,,,,,,,,,,,,,,,,,,,,,
1703505250.012790,1703505250.013098,75.000000,0.000000,4235.384766,4202.436035,4226.153809,4234.102539,4137.307617,4198.589844,4234.358887,4157.692383,4159.102539,4156.666504,4375.000000,4351.794922,4229.743652,4305.897461,6407.000000,3.000000,56.000000,,,,0.000000,4.000000,4.000000,4.000000,4.000000,4.000000,4.000000,4.000000,4.000000,4.000000,4.000000,4.000000,4.000000,4.000000,4.000000,100.000000,,,,,,,,,,,,,,,,,,,,,,,,,,,,
1703505250.020598,1703505250.020906,76.000000,0.000000,4227.820313,4191.410156,4216.410156,4231.410156,4138.717773,4199.358887,4234.871582,4164.871582,4163.333496,4160.000000,4375.384766,4348.461426,4224.871582,4302.179688,6905.000000,3.000000,56.000000,,,,0.000000,4.000000,4.000000,4.000000,4.000000,4.000000,4.000000,4.000000,4.000000,4.000000,4.000000,4.000000,4.000000,4.000000,4.000000,100.000000,,,,,,,,,,,,,,,,,19.000000,0.000000,0.295534,-0.718262,-0.058167,-0.627197,0.920034,-0.342327,-0.031742,-6.168581,-49.264133,61.038639
1703505250.028407,1703505250.028614,77.000000,0.000000,4222.051270,4179.871582,4218.461426,4226.410156,4136.538574,4201.538574,4233.589844,4173.461426,4174.358887,4167.692383,4373.589844,4352.051270,4222.307617,4293.974121,7216.000000,3.000000,56.000000,,,,0.000000,4.000000,4.000000,4.000000,4.000000,4.000000,4.000000,4.000000,4.000000,4.000000,4.000000,4.000000,4.000000,4.000000,4.000000,100.000000,,,,,,,,,,,,,,,,,,,,,,,,,,,,
1703505250.036214,1703505250.036422,78.000000,0.000000,4234.487305,4193.205078,4230.897461,4229.358887,4137.948730,4205.641113,4237.563965,4183.077148,4193.333496,4185.128418,4390.000000,4372.179688,4243.077148,4310.256348,6090.000000,3.000000,56.000000,,,,0.000000,4.000000,4.000000,4.000000,4.000000,4.000000,4.000000,4.000000,4.000000,4.000000,4.000000,4.000000,4.000000,4.000000,4.000000,100.000000,,,,,,,,,,,,,,,,,,,,,,,,,,,,
1703505250.044022,1703505250.044130,79.000000,0.000000,4245.512695,4205.641113,4240.256348,4233.974121,4140.512695,4207.307617,4240.256348,4186.922852,4197.179688,4190.256348,4405.512695,4387.179688,4255.897461,4328.589844,6407.000000,3.000000,56.000000,,,,0.000000,4.000000,4.000000,4.000000,4.000000,4.000000,4.000000,4.000000,4.000000,4.000000,4.000000,4.000000,4.000000,4.000000,4.000000,100.000000,,,,,,,,,,,,,,,,,,,,,,,,,,,,
1703505250.051831,1703505250.052038,80.000000,0.000000,4238.205078,4200.769043,4235.384766,4234.230957,4140.897461,4204.230957,4235.256348,4182.692383,4190.128418,4185.256348,4404.230957,4383.077148,4246.794922,4325.384766,6905.000000,3.000000,56.000000,,,,0.000000,4.000000,4.000000,4.000000,4.000000,4.000000,4.000000,4.000000,4.000000,4.000000,4.000000,4.000000,4.000000,4.000000,4.000000,100.000000,,,,,,,,,,,,,,,,,20.000000,0.000000,0.295570,-0.718262,-0.057983,-0.627197,0.926871,-0.354535,-0.021975,-6.185057,-49.221054,60.951443
1703505250.059639,1703505250.059846,81.000000,0.000000,4230.769043,4197.948730,4229.487305,4232.051270,4139.358887,4202.179688,4232.692383,4176.538574,4183.333496,4181.025879,4397.820313,4374.615234,4243.333496,4315.641113,7216.000000,3.000000,56.000000,,,,0.000000,4.000000,4.000000,4.000000,4.000000,4.000000,4.000000,4.000000,4.000000,4.000000,4.000000,4.000000,4.000000,4.000000,4.000000,100.000000,,,,,,,,,,,,,,,,,,,,,,,,,,,,
1703505250.067447,1703505250.067754,82.000000,0.000000,4231.538574,4202.051270,4229.230957,4232.307617,4139.230957,4210.128418,4235.000000,4172.436035,4176.025879,4173.589844,4393.846191,4367.820313,4247.051270,4309.871582,6090.000000,3.000000,56.000000,,,,0.000000,4.000000,4.000000,4.000000,4.000000,4.000000,4.000000,4.000000,4.000000,4.000000,4.000000,4.000000,4.000000,4.000000,4.000000,100.000000,,,,,,,,,,,,,,,,,,,,,,,,,,,,
1703505250.075255,1703505250.075562,83.000000,0.000000,4230.384766,4200.384766,4228.461426,4231.538574,4141.666504,4212.307617,4236.025879,4170.384766,4172.436035,4168.717773,4395.256348,4364.743652,4242.820313,4310.897461,6407.000000,3.000000,56.000000,,,,0.000000,4.000000,4.000000,4.000000,4.000000,4.000000,4.000000,4.000000,4.000000,4.000000,4.000000,4.000000,4.000000,4.000000,4.000000,100.000000,,,,,,,,,,,,,,,,,,,,,,,,,,,,
1703505250.083063,1703505250.083470,84.000000,0.000000,4228.461426,4201.410156,4230.384766,4231.538574,4147.179688,4203.333496,4233.974121,4169.230957,4172.436035,4168.205078,4391.666504,4364.871582,4234.487305,4310.256348,6905.000000,3.000000,56.000000,,,,0.000000,4.000000,4.000000,4.000000,4.000000,4.000000,4.000000,4.000000,4.000000,4.000000,4.000000,4.000000,4.000000,4.000000,4.000000,100.000000,,,,,,,,,,,,,,,,,21.000000,0.000000,0.295428,-0.718262,-0.058044,-0.627258,0.923453,-0.354047,-0.035161,-6.133218,-49.282280,61.022964
1703505250.090871,1703505250.091278,85.000000,0.000000,4232.179688,4212.307617,4230.512695,4239.358887,4153.717773,4205.384766,4233.205078,4166.666504,4175.512695,4172.948730,4389.102539,4366.282227,4239.230957,4308.461426,7216.000000,3.000000,56.000000,,,,0.000000,4.000000,4.000000,4.000000,4.000000,4.000000,4.000000,4.000000,4.000000,4.000000,4.000000,4.000000,4.000000,4.000000,4.000000,100.000000,,,,,,,,,,,,,,,,,,,,,,,,,,,,
1703505250.098679,1703505250.099186,86.000000,0.000000,4238.846191,4219.358887,4232.563965,4246.666504,4160.000000,4215.897461,4238.077148,4167.820313,4180.897461,4182.179688,4401.794922,4373.333496,4254.743652,4316.282227,6090.000000,3.000000,56.000000,,,,0.000000,4.000000,4.000000,4.000000,4.000000,4.000000,4.000000,4.000000,4.000000,4.000000,4.000000,4.000000,4.000000,4.000000,4.000000,100.000000,,,,,,,,,,,,,,,,,,,,,,,,,,,,
1703505250.106487,1703505250.106993,87.000000,0.000000,4244.615234,4223.846191,4239.743652,4249.102539,4166.794922,4216.282227,4242.692383,4175.256348,4189.743652,4189.230957,4416.410156,4382.820313,4264.102539,4325.897461,6407.000000,3.000000,56.000000,,,,0.000000,4.000000,4.000000,4.000000,4.000000,4.000000,4.000000,4.000000,4.000000,4.000000,4.000000,4.000000,4.000000,4.000000,4.000000,100.000000,,,,,,,,,,,,,,,,,,,,,,,,,,,,
1703505250.114295,1703505250.114901,88.000000,0.000000,4245.384766,4228.846191,4240.000000,4248.205078,4170.512695,4212.436035,4242.307617,4185.128418,4200.897461,4190.384766,4419.615234,4387.820313,4264.358887,4328.205078,6905.000000,3.000000,56.000000,,,,0.000000,4.000000,4.000000,4.000000,4.000000,4.000000,4.000000,4.000000,4.000000,4.000000,4.000000,4.000000,4.000000,4.000000,4.000000,100.000000,,,,,,,,,,,,,,,,,22.000000,0.000000,0.295102,-0.718323,-0.058289,-0.627319,0.902454,-0.345257,-0.030277,-6.086563,-49.287388,61.087337
1703505250.122103,1703505250.122709,89.000000,0.000000,4240.769043,4227.051270,4232.692383,4247.051270,4170.384766,4215.128418,4242.948730,4187.051270,4203.461426,4185.641113,4410.256348,4382.948730,4256.922852,4320.769043,7216.000000,3.000000,56.000000,,,,0.000000,4.000000,4.000000,4.000000,4.000000,4.000000,4.000000,4.000000,4.000000,4.000000,4.000000,4.000000,4.000000,4.000000,4.000000,100.000000,,,,,,,,,,,,,,,,,,,,,,,,,,,,
1703505250.129911,1703505250.130617,90.000000,0.000000,4242.436035,4226.282227,4232.436035,4251.922852,4169.743652,4218.589844,4244.615234,4183.461426,4200.641113,4181.410156,4403.589844,4373.589844,4252.692383,4315.000000,6090.000000,3.000000,56.000000,,,,0.000000,4.000000,4.000000,4.000000,4.000000,4.000000,4.000000,4.000000,4.000000,4.000000,4.000000,4.000000,4.000000,4.000000,4.000000,100.000000,,,,,,,,,,,,,,,,,,,,,,,,,,,,
1703505250.137719,1703505250.138425,91.000000,0.000000,4250.769043,4232.563965,4242.179688,4261.666504,4171.922852,4220.000000,4246.153809,4186.025879,4206.153809,4183.077148,4411.666504,4381.153809,4261.282227,4326.922852,6407.000000,3.000000,56.000000,,,,0.000000,4.000000,4.000000,4.000000,4.000000,4.000000,4.000000,4.000000,4.000000,4.000000,4.000000,4.000000,4.000000,4.000000,4.000000,100.000000,,,,,,,,,,,,,,,,,,,,,,,,,,,,
1703505250.145527,1703505250.146133,92.000000,0.000000,4252.436035,4234.871582,4250.384766,4266.282227,4179.102539,4218.974121,4246.538574,4189.102539,4214.102539,4184.615234,4418.974121,4396.666504,4268.333496,4338.333496,6905.000000,3.000000,56.000000,,,,0.000000,4.000000,4.000000,4.000000,4.000000,4.000000,4.000000,4.000000,4.000000,4.000000,4.000000,4.000000,4.000000,4.000000,4.000000,100.000000,,,,,,,,,,,,,,,,,23.000000,0.000000,0.294238,-0.718201,-0.058899,-0.627808,0.942498,-0.354535,-0.025394,-6.011240,-49.241982,61.161934
1703505250.153335,1703505250.153941,93.000000,0.000000,4246.794922,4231.025879,4248.589844,4261.538574,4187.948730,4216.666504,4246.666504,4193.205078,4216.153809,4186.282227,4416.282227,4398.846191,4263.461426,4336.794922,7216.000000,3.000000,56.000000,,,,0.000000,4.000000,4.000000,4.000000,4.000000,4.000000,4.000000,4.000000,4.000000,4.000000,4.000000,4.000000,4.000000,4.000000,4.000000,100.000000,,,,,,,,,,,,,,,,,,,,,,,,,,,,
1703505250.161143,1703505250.161649,94.000000,0.000000,4247.820313,4229.743652,4246.538574,4260.128418,4188.589844,4215.256348,4245.897461,4196.282227,4215.256348,4194.230957,4415.000000,4396.282227,4252.563965,4335.384766,6090.000000,3.000000,56.000000,,,,0.000000,4.000000,4.000000,4.000000,4.000000,4.000000,4.000000,4.000000,4.000000,4.000000,4.000000,4.000000,4.000000,4.000000,4.000000,100.000000,,,,,,,,,,,,,,,,,,,,,,,,,,,,
1703505250.168951,1703505250.169457,95.000000,0.000000,4252.436035,4231.410156,4247.820313,4263.717773,4183.077148,4214.230957,4241.025879,4190.641113,4210.641113,4202.436035,4415.384766,4396.025879,4238.717773,4340.000000,6407.000000,3.000000,56.000000,,,,0.000000,4.000000,4.000000,4.000000,4.000000,4.000000,4.000000,4.000000,4.000000,4.000000,4.000000,4.000000,4.000000,4.000000,4.000000,100.000000,,,,,,,,,,,,,,,,,,,,,,,,,,,,
1703505250.176759,1703505250.177165,96.000000,0.000000,4250.769043,4234.102539,4246.794922,4260.897461,4172.948730,4215.000000,4240.384766,4185.769043,4203.333496,4201.410156,4409.615234,4390.897461,4229.871582,4342.692383,6905.000000,3.000000,56.000000,,,,0.000000,4.000000,4.000000,4.000000,4.000000,4.000000,4.000000,4.000000,4.000000,4.000000,4.000000,4.000000,4.000000,4.000000,4.000000,100.000000,,,,,,,,,,,,,,,,,24.000000,0.000000,0.292515,-0.718506,-0.060486,-0.628113,0.933219,-0.341839,-0.024417,-5.793449,-49.217785,61.212410
1703505250.184568,1703505250.185073,97.000000,0.000000,4247.563965,4234.615234,4242.692383,4251.538574,4155.897461,4213.974121,4242.307617,4182.179688,4193.461426,4189.615234,4397.051270,4382.307617,4228.846191,4334.871582,7216.000000,3.000000,56.000000,,,,0.000000,4.000000,4.000000,4.000000,4.000000,4.000000,4.000000,4.000000,4.000000,4.000000,4.000000,4.000000,4.000000,4.000000,4.000000,100.000000,,,,,,,,,,,,,,,,,,,,,,,,,,,,
1703505250.192376,1703505250.192881,98.000000,0.000000,4242.563965,4229.487305,4234.743652,4243.205078,4147.436035,4213.589844,4236.025879,4175.000000,4183.846191,4180.897461,4385.128418,4375.769043,4225.128418,4322.563965,6090.000000,3.000000,56.000000,,,,0.000000,4.000000,4.000000,4.000000,4.000000,4.000000,4.000000,4.000000,4.000000,4.000000,4.000000,4.000000,4.000000,4.000000,4.000000,100.000000,,,,,,,,,,,,,,,,,,,,,,,,,,,,
1703505250.200184,1703505250.200789,99.000000,0.000000,4239.102539,4227.179688,4233.589844,4246.410156,4153.974121,4214.487305,4235.256348,4175.000000,4185.256348,4190.897461,4386.922852,4377.179688,4225.384766,4321.153809,6407.000000,3.000000,56.000000,,,,0.000000,4.000000,4.000000,4.000000,4.000000,4.000000,4.000000,4.000000,4.000000,4.000000,4.000000,4.000000,4.000000,4.000000,4.000000,100.000000,,,,,,,,,,,,,,,,,,,,,,,,,,,,
1703505250.207992,1703505250.208597,100.000000,0.000000,4247.820313,4238.461426,4244.358887,4256.538574,4166.025879,4217.307617,4247.051270,4185.128418,4192.179688,4201.025879,4397.051270,4387.179688,4234.871582,4334.358887,6905.000000,3.000000,56.000000,,,,0.000000,4.000000,4.000000,4.000000,4.000000,4.000000,4.000000,4.000000,4.000000,4.000000,4.000000,4.000000,4.000000,4.000000,4.000000,100.000000,,,,,,,,,,,,,,,,,25.000000,0.000000,0.291492,-0.718689,-0.061340,-0.628296,0.929313,-0.343304,-0.028812,-5.847437,-49.179337,61.224503
1703505250.215800,1703505250.216405,101.000000,0.000000,4259.358887,4250.000000,4251.153809,4264.743652,4178.717773,4225.000000,4253.974121,4193.974121,4198.461426,4198.077148,4404.615234,4401.410156,4247.692383,4348.077148,7216.000000,3.000000,56.000000,,,,0.000000,4.000000,4.000000,4.000000,4.000000,4.000000,4.000000,4.000000,4.000000,4.000000,4.000000,4.000000,4.000000,4.000000,4.000000,100.000000,,,,,,,,,,,,,,,,,,,,,,,,,,,,
1703505250.223608,1703505250.224113,102.000000,0.000000,4261.794922,4246.666504,4254.615234,4270.128418,4193.333496,4232.820313,4257.051270,4200.512695,4207.948730,4202.692383,4411.538574,4412.051270,4255.000000,4352.563965,6090.000000,3.000000,56.000000,,,,0.000000,4.000000,4.000000,4.000000,4.000000,4.000000,4.000000,4.000000,4.000000,4.000000,4.000000,4.000000,4.000000,4.000000,4.000000,100.000000,,,,,,,,,,,,,,,,,,,,,,,,,,,,
1703505250.231416,1703505250.231921,103.000000,0.000000,4263.717773,4244.871582,4262.179688,4280.000000,4209.358887,4234.871582,4264.102539,4211.282227,4216.666504,4218.717773,4424.358887,4418.333496,4261.922852,4359.871582,6407.000000,3.000000,56.000000,,,,0.000000,4.000000,4.000000,4.000000,4.000000,4.000000,4.000000,4.000000,4.000000,4.000000,4.000000,4.000000,4.000000,4.000000,4.000000,100.000000,,,,,,,,,,,,,,,,,,,,,,,,,,,,
1703505250.239224,1703505250.239629,104.000000,0.000000,4264.102539,4251.410156,4264.615234,4291.794922,4217.436035,4233.333496,4264.871582,4215.769043,4216.153809,4223.461426,4430.769043,4419.358887,4268.333496,4366.025879,6905.000000,3.000000,56.000000,,,,0.000000,4.000000,4.000000,4.000000,4.000000,4.000000,4.000000,4.000000,4.000000,4.000000,4.000000,4.000000,4.000000,4.000000,4.000000,100.000000,,,,,,,,,,,,,,,,,26.000000,0.000000,0.290660,-0.718750,-0.062683,-0.628479,0.921988,-0.333048,-0.027835,-5.862694,-49.161404,61.352051
1703505250.247032,1703505250.247437,105.000000,0.000000,4259.487305,4248.974121,4261.666504,4293.077148,4217.436035,4233.717773,4263.077148,4209.358887,4211.025879,4215.641113,4418.846191,4414.743652,4263.333496,4355.769043,7216.000000,3.000000,56.000000,,,,0.000000,4.000000,4.000000,4.000000,4.000000,4.000000,4.000000,4.000000,4.000000,4.000000,4.000000,4.000000,4.000000,4.000000,4.000000,100.000000,,,,,,,,,,,,,,,,,,,,,,,,,,,,
1703505250.254840,1703505250.255145,106.000000,0.000000,4260.512695,4245.256348,4261.666504,4291.794922,4215.897461,4239.743652,4264.871582,4207.563965,4214.102539,4219.358887,4417.948730,4416.153809,4264.230957,4355.897461,6090.000000,3.000000,56.000000,,,,0.000000,4.000000,4.000000,4.000000,4.000000,4.000000,4.000000,4.000000,4.000000,4.000000,4.000000,4.000000,4.000000,4.000000,4.000000,100.000000,,,,,,,,,,,,,,,,,,,,,,,,,,,,
1703505250.262648,1703505250.263053,107.000000,0.000000,4265.256348,4256.025879,4269.743652,4295.256348,4216.922852,4243.846191,4266.922852,4217.692383,4220.256348,4233.589844,4437.948730,4429.230957,4279.743652,4377.436035,6407.000000,3.000000,56.000000,,,,0.000000,4.000000,4.000000,4.000000,4.000000,4.000000,4.000000,4.000000,4.000000,4.000000,4.000000,4.000000,4.000000,4.000000,4.000000,100.000000,,,,,,,,,,,,,,,,,,,,,,,,,,,,
1703505250.270456,1703505250.270861,108.000000,0.000000,4266.538574,4265.256348,4276.666504,4298.717773,4223.717773,4244.871582,4267.692383,4220.769043,4217.948730,4236.922852,4443.717773,4435.256348,4284.102539,4382.179688,6905.000000,3.000000,56.000000,,,,0.000000,4.000000,4.000000,4.000000,4.000000,4.000000,4.000000,4.000000,4.000000,4.000000,4.000000,4.000000,4.000000,4.000000,4.000000,100.000000,,,,,,,,,,,,,,,,,27.000000,0.000000,0.290315,-0.718628,-0.063232,-0.628723,0.933708,-0.338420,-0.029789,-5.943091,-49.161930,61.350178
1703505250.278264,1703505250.278669,109.000000,0.000000,4263.333496,4258.333496,4270.000000,4298.717773,4226.153809,4245.641113,4266.538574,4215.256348,4215.769043,4224.743652,4431.025879,4430.000000,4276.410156,4370.128418,7216.000000,3.000000,56.000000,,,,0.000000,4.000000,4.000000,4.000000,4.000000,4.000000,4.000000,4.000000,4.000000,4.000000,4.000000,4.000000,4.000000,4.000000,4.000000,100.000000,,,,,,,,,,,,,,,,,,,,,,,,,,,,
1703505250.286072,1703505250.286377,110.000000,0.000000,4259.615234,4246.538574,4263.974121,4293.717773,4217.563965,4240.769043,4264.230957,4215.641113,4211.922852,4214.743652,4426.282227,4427.436035,4275.384766,4367.179688,6090.000000,3.000000,56.000000,,,,0.000000,4.000000,4.000000,4.000000,4.000000,4.000000,4.000000,4.000000,4.000000,4.000000,4.000000,4.000000,4.000000,4.000000,4.000000,100.000000,,,,,,,,,,,,,,,,,,,,,,,,,,,,
1703505250.293880,1703505250.294285,111.000000,0.000000,4261.666504,4248.846191,4267.436035,4295.384766,4217.179688,4233.077148,4262.563965,4215.641113,4211.538574,4224.487305,4430.897461,4428.077148,4281.922852,4373.077148,6407.000000,3.000000,56.000000,,,,0.000000,4.000000,4.000000,4.000000,4.000000,4.000000,4.000000,4.000000,4.000000,4.000000,4.000000,4.000000,4.000000,4.000000,4.000000,100.000000,,,,,,,,,,,,,,,,,,,,,,,,,,,,
1703505250.301688,1703505250.302093,112.000000,0.000000,4264.102539,4257.692383,4268.846191,4305.512695,4228.974121,4233.846191,4263.205078,4210.769043,4215.512695,4232.436035,4434.102539,4429.615234,4285.128418,4379.871582,6905.000000,3.000000,56.000000,,,,0.000000,4.000000,4.000000,4.000000,4.000000,4.000000,4.000000,4.000000,4.000000,4.000000,4.000000,4.000000,4.000000,4.000000,4.000000,100.000000,,,,,,,,,,,,,,,,,28.000000,0.000000,0.290366,-0.718506,-0.063171,-0.628845,0.939568,-0.338420,-0.025394,-5.998782,-49.229073,61.298496
1703505250.309496,1703505250.310001,113.000000,0.000000,4265.641113,4262.692383,4267.307617,4311.794922,4230.384766,4236.153809,4264.102539,4205.641113,4208.077148,4220.769043,4433.077148,4431.153809,4283.589844,4383.205078,7216.000000,3.000000,56.000000,,,,0.000000,4.000000,4.000000,4.000000,4.000000,4.000000,4.000000,4.000000,4.000000,4.000000,4.000000,4.000000,4.000000,4.000000,4.000000,100.000000,,,,,,,,,,,,,,,,,,,,,,,,,,,,
1703505250.317304,1703505250.317809,114.000000,0.000000,4266.794922,4260.000000,4267.179688,4309.743652,4227.692383,4233.077148,4262.563965,4203.333496,4202.051270,4217.436035,4430.128418,4429.487305,4280.769043,4382.948730,6090.000000,3.000000,56.000000,,,,0.000000,4.000000,4.000000,4.000000,4.000000,4.000000,4.000000,4.000000,4.000000,4.000000,4.000000,4.000000,4.000000,4.000000,4.000000,100.000000,,,,,,,,,,,,,,,,,,,,,,,,,,,,
1703505250.325112,1703505250.325717,115.000000,0.000000,4263.205078,4252.692383,4270.512695,4308.717773,4232.563965,4233.717773,4263.717773,4203.333496,4212.563965,4228.205078,4428.974121,4430.384766,4277.436035,4375.384766,6407.000000,3.000000,56.000000,,,,0.000000,4.000000,4.000000,4.000000,4.000000,4.000000,4.000000,4.000000,4.000000,4.000000,4.000000,4.000000,4.000000,4.000000,4.000000,100.000000,,,,,,,,,,,,,,,,,,,,,,,,,,,,
1703505250.332920,1703505250.333525,116.000000,0.000000,4260.000000,4254.358887,4271.538574,4311.153809,4233.974121,4235.000000,4265.769043,4203.974121,4217.692383,4223.461426,4428.205078,4428.333496,4277.948730,4367.051270,6905.000000,3.000000,56.000000,,,,0.000000,4.000000,4.000000,4.000000,4.000000,4.000000,4.000000,4.000000,4.000000,4.000000,4.000000,4.000000,4.000000,4.000000,4.000000,100.000000,,,,,,,,,,,,,,,,,29.000000,0.000000,0.290576,-0.718384,-0.062988,-0.628906,0.954218,-0.343304,-0.035161,-6.215570,-49.206165,61.335312
1703505250.340729,1703505250.341432,117.000000,0.000000,4256.538574,4258.077148,4267.563965,4309.102539,4231.794922,4233.717773,4264.487305,4206.922852,4215.641113,4214.358887,4430.000000,4422.563965,4279.358887,4366.922852,7216.000000,3.000000,56.000000,,,,0.000000,4.000000,4.000000,4.000000,4.000000,4.000000,4.000000,4.000000,4.000000,4.000000,4.000000,4.000000,4.000000,4.000000,4.000000,100.000000,,,,,,,,,,,,,,,,,,,,,,,,,,,,
1703505250.348537,1703505250.349240,118.000000,0.000000,4247.563965,4248.589844,4262.436035,4305.000000,4231.538574,4233.846191,4262.820313,4207.307617,4214.487305,4216.794922,4425.512695,4414.615234,4270.897461,4357.307617,6090.000000,3.000000,56.000000,,,,0.000000,4.000000,4.000000,4.000000,4.000000,4.000000,4.000000,4.000000,4.000000,4.000000,4.000000,4.000000,4.000000,4.000000,4.000000,100.000000,,,,,,,,,,,,,,,,,,,,,,,,,,,,
1703505250.356345,1703505250.356948,119.000000,0.000000,4243.205078,4242.563965,4257.692383,4306.794922,4232.436035,4233.333496,4261.794922,4201.282227,4207.307617,4215.384766,4414.358887,4406.666504,4261.282227,4342.436035,6407.000000,3.000000,56.000000,,,,0.000000,4.000000,4.000000,4.000000,4.000000,4.000000,4.000000,4.000000,4.000000,4.000000,4.000000,4.000000,4.000000,4.000000,4.000000,100.000000,,,,,,,,,,,,,,,,,,,,,,,,,,,,
1703505250.364153,1703505250.364756,120.000000,0.000000,4248.333496,4250.769043,4255.897461,4311.025879,4234.102539,4232.179688,4262.179688,4200.000000,4204.102539,4210.128418,4414.230957,4406.538574,4263.205078,4345.769043,6905.000000,3.000000,56.000000,,,,0.000000,4.000000,4.000000,4.000000,4.000000,4.000000,4.000000,4.000000,4.000000,4.000000,4.000000,4.000000,4.000000,4.000000,4.000000,100.000000,,,,,,,,,,,,,,,,,30.000000,0.000000,0.290642,-0.718384,-0.062683,-0.628906,0.937126,-0.335002,-0.033696,-6.410680,-49.052216,61.368446
1703505250.371961,1703505250.372464,121.000000,0.000000,4254.487305,4252.692383,4261.538574,4311.666504,4235.641113,4233.205078,4264.615234,4208.846191,4215.641113,4213.846191,4424.871582,4416.282227,4269.871582,4357.820313,7216.000000,3.000000,56.000000,,,,0.000000,4.000000,4.000000,4.000000,4.000000,4.000000,4.000000,4.000000,4.000000,4.000000,4.000000,4.000000,4.000000,4.000000,4.000000,100.000000,,,,,,,,,,,,,,,,,,,,,,,,,,,,
1703505250.379769,1703505250.380272,122.000000,0.000000,4256.410156,4247.692383,4265.128418,4309.487305,4232.436035,4235.384766,4264.871582,4216.794922,4224.871582,4223.589844,4436.922852,4427.051270,4276.922852,4366.794922,6090.000000,3.000000,56.000000,,,,0.000000,4.000000,4.000000,4.000000,4.000000,4.000000,4.000000,4.000000,4.000000,4.000000,4.000000,4.000000,4.000000,4.000000,4.000000,100.000000,,,,,,,,,,,,,,,,,,,,,,,,,,,,
1703505250.387577,1703505250.387981,123.000000,0.000000,4257.692383,4253.333496,4263.974121,4308.846191,4226.922852,4232.948730,4263.846191,4215.769043,4221.025879,4225.641113,4440.897461,4431.025879,4282.179688,4372.563965,6407.000000,3.000000,56.000000,,,,0.000000,4.000000,4.000000,4.000000,4.000000,4.000000,4.000000,4.000000,4.000000,4.000000,4.000000,4.000000,4.000000,4.000000,4.000000,100.000000,,,,,,,,,,,,,,,,,,,,,,,,,,,,
1703505250.395385,1703505250.395788,124.000000,0.000000,4258.205078,4259.487305,4265.897461,4309.358887,4229.102539,4235.641113,4264.743652,4213.717773,4217.692383,4219.743652,4439.871582,4430.000000,4281.794922,4374.358887,6905.000000,3.000000,56.000000,,,,0.000000,4.000000,4.000000,4.000000,4.000000,4.000000,4.000000,4.000000,4.000000,4.000000,4.000000,4.000000,4.000000,4.000000,4.000000,100.000000,,,,,,,,,,,,,,,,,31.000000,0.000000,0.291007,-0.718567,-0.062561,-0.628540,0.957148,-0.310585,-0.036137,-6.336278,-49.130325,61.481602
1703505250.403193,1703505250.403497,125.000000,0.000000,4257.307617,4255.384766,4267.692383,4306.794922,4234.743652,4242.307617,4264.743652,4216.153809,4220.000000,4218.846191,4439.871582,4431.538574,4279.487305,4376.282227,7216.000000,3.000000,56.000000,,,,0.000000,4.000000,4.000000,4.000000,4.000000,4.000000,4.000000,4.000000,4.000000,4.000000,4.000000,4.000000,4.000000,4.000000,4.000000,100.000000,,,,,,,,,,,,,,,,,,,,,,,,,,,,
1703505250.411001,1703505250.411305,126.000000,0.000000,4252.563965,4247.307617,4266.666504,4300.641113,4233.077148,4237.692383,4261.794922,4212.563965,4219.102539,4216.666504,4436.538574,4430.897461,4273.461426,4372.563965,6090.000000,3.000000,56.000000,,,,0.000000,4.000000,4.000000,4.000000,4.000000,4.000000,4.000000,4.000000,4.000000,4.000000,4.000000,4.000000,4.000000,4.000000,4.000000,100.000000,,,,,,,,,,,,,,,,,,,,,,,,,,,,
1703505250.418809,1703505250.419013,127.000000,0.000000,4244.230957,4243.205078,4261.282227,4293.974121,4225.897461,4231.666504,4262.692383,4205.769043,4213.974121,4207.563965,4427.563965,4423.461426,4262.179688,4357.820313,56.000000,3.000000,56.000000,,,,0.000000,4.000000,4.000000,4.000000,4.000000,4.000000,4.000000,4.000000,4.000000,4.000000,4.000000,4.000000,4.000000,4.000000,4.000000,100.000000,1.000000,58.333332,4.000000,4.000000,4.000000,4.000000,1.000000,3.000000,3.000000,3.000000,4.000000,3.000000,4.000000,4.000000,4.000000,4.000000,,,,,,,,,,,,
1703505250.426617,1703505250.426821,0.000000,0.000000,4244.358887,4245.512695,4260.000000,4292.563965,4221.153809,4232.436035,4262.692383,4198.717773,4207.563965,4197.051270,4416.666504,4415.000000,4253.974121,4348.077148,5198.000000,3.000000,56.000000,,,,0.000000,4.000000,4.000000,4.000000,4.000000,4.000000,4.000000,4.000000,4.000000,4.000000,4.000000,4.000000,4.000000,4.000000,4.000000,100.000000,,,,,,,,,,,,,,,,,0.000000,0.000000,0.291425,-0.718750,-0.062805,-0.628113,0.940056,-0.321817,-0.030765,-6.269318,-49.150627,61.416775
1703505250.434425,1703505250.434529,1.000000,0.000000,4249.487305,4255.256348,4261.538574,4295.512695,4218.589844,4227.179688,4252.563965,4187.563965,4201.922852,4189.615234,4407.179688,4405.512695,4246.538574,4346.025879,5559.000000,3.000000,56.000000,,,,0.000000,4.000000,4.000000,4.000000,4.000000,4.000000,4.000000,4.000000,4.000000,4.000000,4.000000,4.000000,4.000000,4.000000,4.000000,100.000000,,,,,,,,,,,,,,,,,,,,,,,,,,,,
1703505250.442233,1703505250.442437,2.000000,0.000000,4240.897461,4256.153809,4251.794922,4292.179688,4215.897461,4221.410156,4245.384766,4188.589844,4199.102539,4190.128418,4403.205078,4397.820313,4240.128418,4340.769043,5392.000000,3.000000,56.000000,,,,0.000000,4.000000,4.000000,4.000000,4.000000,4.000000,4.000000,4.000000,4.000000,4.000000,4.000000,4.000000,4.000000,4.000000,4.000000,100.000000,,,,,,,,,,,,,,,,,,,,,,,,,,,,
1703505250.450041,1703505250.450244,3.000000,0.000000,4227.692383,4247.563965,4247.820313,4286.538574,4219.743652,4226.538574,4250.769043,4198.333496,4200.000000,4194.358887,4407.436035,4397.820313,4239.102539,4337.692383,5477.000000,3.000000,56.000000,,,,0.000000,4.000000,4.000000,4.000000,4.000000,4.000000,4.000000,4.000000,4.000000,4.000000,4.000000,4.000000,4.000000,4.000000,4.000000,100.000000,,,,,,,,,,,,,,,,,,,,,,,,,,,,
1703505250.457849,1703505250.458152,4.000000,0.000000,4231.282227,4254.615234,4256.538574,4289.871582,4235.384766,4232.307617,4256.153809,4199.102539,4210.512695,4198.717773,4413.717773,4403.461426,4247.692383,4342.948730,5303.000000,3.000000,56.000000,,,,0.000000,4.000000,4.000000,4.000000,4.000000,4.000000,4.000000,4.000000,4.000000,4.000000,4.000000,4.000000,4.000000,4.000000,4.000000,100.000000,,,,,,,,,,,,,,,,,1.000000,0.000000,0.293023,-0.718872,-0.063721,-0.627136,0.926383,-0.297400,-0.041509,-6.175719,-49.235565,61.458431
1703505250.465657,1703505250.465960,5.000000,0.000000,4239.615234,4265.641113,4262.436035,4295.384766,4247.692383,4231.666504,4259.871582,4201.922852,4225.897461,4204.358887,4420.384766,4415.641113,4258.589844,4351.282227,5156.000000,3.000000,56.000000,,,,0.000000,4.000000,4.000000,4.000000,4.000000,4.000000,4.000000,4.000000,4.000000,4.000000,4.000000,4.000000,4.000000,4.000000,4.000000,100.000000,,,,,,,,,,,,,,,,,,,,,,,,,,,,
1703505250.473466,1703505250.473868,6.000000,0.000000,4238.333496,4259.871582,4263.461426,4300.256348,4250.641113,4232.563965,4263.846191,4213.205078,4232.436035,4211.025879,4428.077148,4426.538574,4261.282227,4353.589844,3757.000000,3.000000,56.000000,,,,0.000000,4.000000,4.000000,4.000000,4.000000,4.000000,4.000000,4.000000,4.000000,4.000000,4.000000,4.000000,4.000000,4.000000,4.000000,100.000000,,,,,,,,,,,,,,,,,,,,,,,,,,,,
1703505250.481274,1703505250.481676,7.000000,0.000000,4246.794922,4261.025879,4265.641113,4311.410156,4258.717773,4238.974121,4265.384766,4218.846191,4239.358887,4222.948730,4442.948730,4435.000000,4275.384766,4364.102539,5168.000000,3.000000,56.000000,,,,0.000000,4.000000,4.000000,4.000000,4.000000,4.000000,4.000000,4.000000,4.000000,4.000000,4.000000,4.000000,4.000000,4.000000,4.000000,100.000000,,,,,,,,,,,,,,,,,,,,,,,,,,,,
1703505250.489082,1703505250.489584,8.000000,0.000000,4263.333496,4277.820313,4272.692383,4321.153809,4268.589844,4247.436035,4273.589844,4221.666504,4250.256348,4233.589844,4458.461426,4446.538574,4294.487305,4384.615234,5425.000000,3.000000,56.000000,,,,0.000000,4.000000,4.000000,4.000000,4.000000,4.000000,4.000000,4.000000,4.000000,4.000000,4.000000,4.000000,4.000000,4.000000,4.000000,100.000000,,,,,,,,,,,,,,,,,2.000000,0.000000,0.295146,-0.718689,-0.064392,-0.626282,0.926383,-0.337444,-0.027347,-6.258147,-49.378674,61.312588
1703505250.496890,1703505250.497392,9.000000,0.000000,4265.641113,4282.051270,4279.230957,4322.307617,4267.692383,4251.025879,4279.871582,4224.615234,4248.333496,4230.897461,4456.538574,4452.051270,4290.128418,4386.538574,5511.000000,3.000000,56.000000,,,,0.000000,4.000000,4.000000,4.000000,4.000000,4.000000,4.000000,4.000000,4.000000,4.000000,4.000000,4.000000,4.000000,4.000000,4.000000,100.000000,,,,,,,,,,,,,,,,,,,,,,,,,,,,
1703505250.504698,1703505250.505300,10.000000,0.000000,4259.102539,4271.282227,4279.487305,4322.563965,4263.717773,4252.051270,4276.666504,4223.205078,4247.948730,4228.846191,4454.871582,4452.051270,4284.615234,4382.563965,6078.000000,3.000000,56.000000,,,,0.000000,4.000000,4.000000,4.000000,4.000000,4.000000,4.000000,4.000000,4.000000,4.000000,4.000000,4.000000,4.000000,4.000000,4.000000,100.000000,,,,,,,,,,,,,,,,,,,,,,,,,,,,
1703505250.512506,1703505250.513108,11.000000,0.000000,4263.461426,4272.307617,4285.641113,4326.153809,4266.922852,4258.461426,4279.743652,4225.769043,4258.077148,4237.051270,4465.512695,4460.256348,4294.743652,4390.512695,6401.000000,3.000000,56.000000,,,,0.000000,4.000000,4.000000,4.000000,4.000000,4.000000,4.000000,4.000000,4.000000,4.000000,4.000000,4.000000,4.000000,4.000000,4.000000,100.000000,,,,,,,,,,,,,,,,,,,,,,,,,,,,
1703505250.520314,1703505250.521016,12.000000,0.000000,4271.666504,4280.641113,4295.897461,4327.436035,4271.538574,4265.128418,4285.000000,4231.025879,4261.922852,4238.589844,4473.846191,4468.717773,4304.743652,4397.820313,6900.000000,3.000000,56.000000,,,,0.000000,4.000000,4.000000,4.000000,4.000000,4.000000,4.000000,4.000000,4.000000,4.000000,4.000000,4.000000,4.000000,4.000000,4.000000,100.000000,,,,,,,,,,,,,,,,,3.000000,0.000000,0.297157,-0.718445,-0.064392,-0.625610,0.912221,-0.353559,-0.026370,-6.232332,-49.457474,61.214664
1703505250.528122,1703505250.528824,13.000000,0.000000,4265.128418,4273.205078,4294.358887,4325.897461,4269.358887,4264.615234,4283.205078,4230.256348,4262.692383,4231.153809,4472.820313,4463.717773,4302.051270,4393.461426,7214.000000,3.000000,56.000000,,,,0.000000,4.000000,4.000000,4.000000,4.000000,4.000000,4.000000,4.000000,4.000000,4.000000,4.000000,4.000000,4.000000,4.000000,4.000000,100.000000,,,,,,,,,,,,,,,,,,,,,,,,,,,,
1703505250.535930,1703505250.536532,14.000000,0.000000,4262.563965,4266.922852,4290.512695,4328.717773,4269.358887,4262.436035,4281.025879,4227.692383,4267.692383,4229.230957,4470.769043,4459.487305,4298.461426,4388.461426,6078.000000,3.000000,56.000000,,,,0.000000,4.000000,4.000000,4.000000,4.000000,4.000000,4.000000,4.000000,4.000000,4.000000,4.000000,4.000000,4.000000,4.000000,4.000000,100.000000,,,,,,,,,,,,,,,,,,,,,,,,,,,,
1703505250.543738,1703505250.544340,15.000000,0.000000,4275.641113,4276.282227,4295.256348,4336.794922,4274.871582,4263.717773,4281.153809,4230.769043,4269.615234,4240.128418,4474.743652,4469.615234,4308.589844,4398.461426,6401.000000,3.000000,56.000000,,,,0.000000,4.000000,4.000000,4.000000,4.000000,4.000000,4.000000,4.000000,4.000000,4.000000,4.000000,4.000000,4.000000,4.000000,4.000000,100.000000,,,,,,,,,,,,,,,,,,,,,,,,,,,,
1703505250.551546,1703505250.552048,16.000000,0.000000,4284.487305,4281.538574,4302.563965,4341.025879,4272.692383,4266.153809,4284.615234,4235.384766,4266.025879,4251.794922,4480.897461,4478.846191,4319.230957,4406.794922,0.000000,3.000000,56.000000,,,,0.000000,4.000000,4.000000,4.000000,4.000000,4.000000,4.000000,4.000000,4.000000,4.000000,4.000000,4.000000,4.000000,4.000000,4.000000,100.000000,,,,,,,,,,,,,,,,,4.000000,0.000000,0.298199,-0.718445,-0.063721,-0.625183,0.916127,-0.372116,-0.025394,-6.425766,-49.411728,61.293198
1703505250.559354,1703505250.559856,17.000000,0.000000,4284.871582,4283.205078,4303.461426,4341.538574,4265.000000,4267.179688,4287.436035,4234.487305,4264.102539,4252.051270,4481.794922,4477.436035,4318.333496,4408.077148,0.000000,3.000000,56.000000,,,,0.000000,4.000000,4.000000,4.000000,4.000000,4.000000,4.000000,4.000000,4.000000,4.000000,4.000000,4.000000,4.000000,4.000000,4.000000,100.000000,,,,,,,,,,,,,,,,,,,,,,,,,,,,
1703505250.567162,1703505250.567564,18.000000,0.000000,4283.589844,4286.153809,4297.563965,4337.692383,4259.615234,4265.769043,4283.846191,4234.487305,4264.615234,4250.641113,4480.000000,4474.102539,4316.410156,4409.358887,0.000000,3.000000,56.000000,,,,0.000000,4.000000,4.000000,4.000000,4.000000,4.000000,4.000000,4.000000,4.000000,4.000000,4.000000,4.000000,4.000000,4.000000,4.000000,100.000000,,,,,,,,,,,,,,,,,,,,,,,,,,,,
1703505250.574970,1703505250.575372,19.000000,0.000000,4280.512695,4281.794922,4291.666504,4329.615234,4249.230957,4262.307617,4279.102539,4232.436035,4257.179688,4245.769043,4474.358887,4467.948730,4314.487305,4402.948730,0.000000,3.000000,56.000000,,,,0.000000,4.000000,4.000000,4.000000,4.000000,4.000000,4.000000,4.000000,4.000000,4.000000,4.000000,4.000000,4.000000,4.000000,4.000000,100.000000,,,,,,,,,,,,,,,,,,,,,,,,,,,,
