title:محمد حذف, start timestamp:1703415897.873064, stop timestamp:1703415908.734064, headset type:EPOCX, headset serial:E50206EF, headset firmware:720, channels:67, sampling rate:eeg_128;mot_32, samples:1392      , version:2.2, 
Timestamp,OriginalTimestamp,EEG.Counter,EEG.Interpolated,EEG.AF3,EEG.F7,EEG.F3,EEG.FC5,EEG.T7,EEG.P7,EEG.O1,EEG.O2,EEG.P8,EEG.T8,EEG.FC6,EEG.F4,EEG.F8,EEG.AF4,EEG.RawCq,EEG.Battery,EEG.BatteryPercent,MarkerIndex,MarkerType,MarkerValueInt,EEG.MarkerHardware,CQ.AF3,CQ.F7,CQ.F3,CQ.FC5,CQ.T7,CQ.P7,CQ.O1,CQ.O2,CQ.P8,CQ.T8,CQ.FC6,CQ.F4,CQ.F8,CQ.AF4,CQ.Overall,EQ.SampleRateQuality,EQ.OVERALL,EQ.AF3,EQ.F7,EQ.F3,EQ.FC5,EQ.T7,EQ.P7,EQ.O1,EQ.O2,EQ.P8,EQ.T8,EQ.FC6,EQ.F4,EQ.F8,EQ.AF4,MOT.CounterMems,MOT.InterpolatedMems,MOT.Q0,MOT.Q1,MOT.Q2,MOT.Q3,MOT.AccX,MOT.AccY,MOT.AccZ,MOT.MagX,MOT.MagY,MOT.MagZ
1703415897.873064,1703415897.873609,118.000000,0.000000,4260.897461,4231.282227,4326.922852,4334.230957,4229.358887,4182.436035,4199.743652,4249.743652,4221.025879,4256.666504,4570.384766,4485.641113,4462.436035,4582.179688,5925.000000,2.000000,52.000000,,,,0.000000,4.000000,4.000000,4.000000,4.000000,4.000000,4.000000,4.000000,4.000000,4.000000,4.000000,4.000000,4.000000,4.000000,4.000000,100.000000,,,,,,,,,,,,,,,,,,,,,,,,,,,,
1703415897.880872,1703415897.881517,119.000000,0.000000,4288.333496,4233.846191,4326.794922,4340.641113,4228.461426,4180.769043,4197.820313,4240.256348,4215.512695,4249.102539,4560.769043,4486.922852,4463.461426,4596.922852,6244.000000,2.000000,52.000000,,,,0.000000,4.000000,4.000000,4.000000,4.000000,4.000000,4.000000,4.000000,4.000000,4.000000,4.000000,4.000000,4.000000,4.000000,4.000000,100.000000,,,,,,,,,,,,,,,,,,,,,,,,,,,,
1703415897.888680,1703415897.889325,120.000000,0.000000,4306.025879,4229.615234,4326.794922,4341.794922,4229.615234,4169.102539,4195.641113,4232.820313,4204.743652,4242.436035,4561.922852,4493.717773,4461.025879,4614.102539,6790.000000,2.000000,52.000000,,,,0.000000,4.000000,4.000000,4.000000,4.000000,4.000000,4.000000,4.000000,4.000000,4.000000,4.000000,4.000000,4.000000,4.000000,4.000000,100.000000,,,,,,,,,,,,,,,,,30.000000,0.000000,0.675506,0.224609,-0.654358,0.255066,0.994750,-0.037602,0.042486,-15.463012,-41.228935,65.380096
1703415897.896488,1703415897.897233,121.000000,0.000000,4315.256348,4235.000000,4326.025879,4340.000000,4222.307617,4166.282227,4196.922852,4234.358887,4198.974121,4254.871582,4572.051270,4492.307617,4467.948730,4621.282227,7302.000000,2.000000,52.000000,,,,0.000000,4.000000,4.000000,4.000000,4.000000,4.000000,4.000000,4.000000,4.000000,4.000000,4.000000,4.000000,4.000000,4.000000,4.000000,100.000000,,,,,,,,,,,,,,,,,,,,,,,,,,,,
1703415897.904296,1703415897.905041,122.000000,0.000000,4330.256348,4248.717773,4331.794922,4343.077148,4219.487305,4172.436035,4200.641113,4235.512695,4202.563965,4260.897461,4569.615234,4493.461426,4477.436035,4624.871582,5925.000000,2.000000,52.000000,,,,0.000000,4.000000,4.000000,4.000000,4.000000,4.000000,4.000000,4.000000,4.000000,4.000000,4.000000,4.000000,4.000000,4.000000,4.000000,100.000000,,,,,,,,,,,,,,,,,,,,,,,,,,,,
1703415897.912104,1703415897.912949,123.000000,0.000000,4353.589844,4258.333496,4347.820313,4354.615234,4232.051270,4176.410156,4202.436035,4240.256348,4211.666504,4252.563965,4575.769043,4510.897461,4483.974121,4640.256348,6244.000000,2.000000,52.000000,,,,0.000000,4.000000,4.000000,4.000000,4.000000,4.000000,4.000000,4.000000,4.000000,4.000000,4.000000,4.000000,4.000000,4.000000,4.000000,100.000000,,,,,,,,,,,,,,,,,,,,,,,,,,,,
1703415897.919912,1703415897.920757,124.000000,0.000000,4364.615234,4257.307617,4352.436035,4354.743652,4239.487305,4181.410156,4200.641113,4249.102539,4215.641113,4255.641113,4591.794922,4515.897461,4488.717773,4653.077148,6790.000000,2.000000,52.000000,,,,0.000000,4.000000,4.000000,4.000000,4.000000,4.000000,4.000000,4.000000,4.000000,4.000000,4.000000,4.000000,4.000000,4.000000,4.000000,100.000000,,,,,,,,,,,,,,,,,31.000000,0.000000,0.675480,0.224548,-0.654358,0.255188,0.990355,-0.033207,0.047369,-15.566710,-41.256042,65.492088
1703415897.927720,1703415897.928665,125.000000,0.000000,4345.769043,4249.487305,4338.461426,4342.051270,4233.077148,4185.128418,4200.769043,4247.307617,4209.230957,4260.128418,4576.282227,4497.948730,4481.410156,4637.179688,7302.000000,2.000000,52.000000,,,,0.000000,4.000000,4.000000,4.000000,4.000000,4.000000,4.000000,4.000000,4.000000,4.000000,4.000000,4.000000,4.000000,4.000000,4.000000,100.000000,,,,,,,,,,,,,,,,,,,,,,,,,,,,
1703415897.935528,1703415897.936473,126.000000,0.000000,4326.922852,4239.871582,4325.769043,4335.384766,4231.538574,4186.666504,4202.307617,4241.922852,4206.282227,4247.948730,4550.641113,4494.487305,4463.333496,4618.333496,5925.000000,2.000000,52.000000,,,,0.000000,4.000000,4.000000,4.000000,4.000000,4.000000,4.000000,4.000000,4.000000,4.000000,4.000000,4.000000,4.000000,4.000000,4.000000,100.000000,,,,,,,,,,,,,,,,,,,,,,,,,,,,
1703415897.943336,1703415897.944181,127.000000,0.000000,4330.641113,4235.000000,4328.589844,4336.538574,4229.102539,4185.000000,4201.282227,4251.538574,4218.205078,4241.025879,4564.102539,4503.974121,4458.205078,4627.051270,52.000000,2.000000,52.000000,,,,0.000000,4.000000,4.000000,4.000000,4.000000,4.000000,4.000000,4.000000,4.000000,4.000000,4.000000,4.000000,4.000000,4.000000,4.000000,100.000000,,,,,,,,,,,,,,,,,,,,,,,,,,,,
1703415897.951144,1703415897.951989,0.000000,0.000000,4324.230957,4231.922852,4337.051270,4336.666504,4217.692383,4173.717773,4199.615234,4257.051270,4223.589844,4250.641113,4578.589844,4500.256348,4469.615234,4626.922852,5524.000000,2.000000,52.000000,,,,0.000000,4.000000,4.000000,4.000000,4.000000,4.000000,4.000000,4.000000,4.000000,4.000000,4.000000,4.000000,4.000000,4.000000,4.000000,100.000000,,,,,,,,,,,,,,,,,0.000000,0.000000,0.675565,0.224609,-0.654297,0.255066,0.992309,-0.045904,0.050299,-15.460039,-41.213772,65.542877
1703415897.958952,1703415897.959697,1.000000,0.000000,4301.922852,4228.974121,4331.666504,4332.820313,4216.922852,4165.897461,4198.589844,4251.025879,4213.077148,4255.128418,4567.051270,4498.205078,4475.000000,4605.897461,5505.000000,2.000000,52.000000,,,,0.000000,4.000000,4.000000,4.000000,4.000000,4.000000,4.000000,4.000000,4.000000,4.000000,4.000000,4.000000,4.000000,4.000000,4.000000,100.000000,,,,,,,,,,,,,,,,,,,,,,,,,,,,
1703415897.966760,1703415897.967505,2.000000,0.000000,4300.897461,4237.307617,4323.589844,4336.410156,4230.128418,4179.102539,4200.641113,4254.102539,4216.666504,4262.820313,4567.948730,4505.256348,4475.512695,4603.333496,5385.000000,2.000000,52.000000,,,,0.000000,4.000000,4.000000,4.000000,4.000000,4.000000,4.000000,4.000000,4.000000,4.000000,4.000000,4.000000,4.000000,4.000000,4.000000,100.000000,,,,,,,,,,,,,,,,,,,,,,,,,,,,
1703415897.974568,1703415897.975213,3.000000,0.000000,4306.794922,4251.025879,4334.615234,4348.717773,4238.717773,4187.692383,4210.897461,4264.358887,4233.205078,4278.205078,4585.256348,4511.794922,4476.922852,4613.333496,5335.000000,2.000000,52.000000,,,,0.000000,4.000000,4.000000,4.000000,4.000000,4.000000,4.000000,4.000000,4.000000,4.000000,4.000000,4.000000,4.000000,4.000000,4.000000,100.000000,,,,,,,,,,,,,,,,,,,,,,,,,,,,
1703415897.982376,1703415897.983121,4.000000,0.000000,4287.692383,4248.717773,4344.743652,4352.820313,4234.871582,4175.000000,4217.436035,4270.512695,4236.153809,4282.692383,4591.538574,4519.487305,4479.615234,4608.461426,5258.000000,2.000000,52.000000,,,,0.000000,4.000000,4.000000,4.000000,4.000000,4.000000,4.000000,4.000000,4.000000,4.000000,4.000000,4.000000,4.000000,4.000000,4.000000,100.000000,,,,,,,,,,,,,,,,,1.000000,0.000000,0.675650,0.224670,-0.654236,0.254944,1.001587,-0.029789,0.058601,-15.397368,-41.109058,65.688591
1703415897.990184,1703415897.990929,5.000000,0.000000,4269.615234,4234.871582,4334.230957,4338.846191,4223.077148,4168.205078,4207.692383,4260.512695,4222.051270,4276.922852,4579.743652,4511.410156,4477.948730,4591.538574,4876.000000,2.000000,52.000000,,,,0.000000,4.000000,4.000000,4.000000,4.000000,4.000000,4.000000,4.000000,4.000000,4.000000,4.000000,4.000000,4.000000,4.000000,4.000000,100.000000,,,,,,,,,,,,,,,,,,,,,,,,,,,,
1703415897.997992,1703415897.998838,6.000000,0.000000,4261.794922,4225.128418,4322.692383,4326.025879,4217.436035,4173.205078,4200.769043,4247.692383,4214.230957,4264.743652,4563.846191,4489.230957,4463.205078,4575.641113,3747.000000,2.000000,52.000000,,,,0.000000,4.000000,4.000000,4.000000,4.000000,4.000000,4.000000,4.000000,4.000000,4.000000,4.000000,4.000000,4.000000,4.000000,4.000000,100.000000,,,,,,,,,,,,,,,,,,,,,,,,,,,,
1703415898.005800,1703415898.006646,7.000000,0.000000,4246.922852,4218.717773,4317.307617,4323.077148,4224.487305,4172.563965,4206.794922,4245.000000,4217.436035,4251.794922,4555.128418,4484.358887,4445.897461,4561.153809,5267.000000,2.000000,52.000000,,,,0.000000,4.000000,4.000000,4.000000,4.000000,4.000000,4.000000,4.000000,4.000000,4.000000,4.000000,4.000000,4.000000,4.000000,4.000000,100.000000,,,,,,,,,,,,,,,,,,,,,,,,,,,,
1703415898.013609,1703415898.014454,8.000000,0.000000,4237.948730,4218.077148,4310.384766,4323.461426,4228.846191,4169.743652,4205.641113,4241.025879,4213.974121,4247.179688,4550.897461,4481.282227,4440.512695,4550.000000,5377.000000,2.000000,52.000000,,,,0.000000,4.000000,4.000000,4.000000,4.000000,4.000000,4.000000,4.000000,4.000000,4.000000,4.000000,4.000000,4.000000,4.000000,4.000000,100.000000,,,,,,,,,,,,,,,,,2.000000,0.000000,0.675596,0.224792,-0.654297,0.254822,0.998657,-0.024905,0.049811,-15.424298,-41.098156,65.569733
1703415898.021417,1703415898.022162,9.000000,0.000000,4235.384766,4218.205078,4306.538574,4323.974121,4223.717773,4164.743652,4199.743652,4234.743652,4206.538574,4249.102539,4548.846191,4465.000000,4445.000000,4548.846191,5360.000000,2.000000,52.000000,,,,0.000000,4.000000,4.000000,4.000000,4.000000,4.000000,4.000000,4.000000,4.000000,4.000000,4.000000,4.000000,4.000000,4.000000,4.000000,100.000000,,,,,,,,,,,,,,,,,,,,,,,,,,,,
1703415898.029225,1703415898.029970,10.000000,0.000000,4232.692383,4219.358887,4307.948730,4322.692383,4228.461426,4161.538574,4207.179688,4238.205078,4207.692383,4248.846191,4545.769043,4472.179688,4443.589844,4551.922852,5921.000000,2.000000,52.000000,,,,0.000000,4.000000,4.000000,4.000000,4.000000,4.000000,4.000000,4.000000,4.000000,4.000000,4.000000,4.000000,4.000000,4.000000,4.000000,100.000000,,,,,,,,,,,,,,,,,,,,,,,,,,,,
1703415898.037033,1703415898.037678,11.000000,0.000000,4237.179688,4230.769043,4313.205078,4330.000000,4243.974121,4176.410156,4220.000000,4251.410156,4220.769043,4250.256348,4550.769043,4494.102539,4441.410156,4552.692383,6255.000000,2.000000,52.000000,,,,0.000000,4.000000,4.000000,4.000000,4.000000,4.000000,4.000000,4.000000,4.000000,4.000000,4.000000,4.000000,4.000000,4.000000,4.000000,100.000000,,,,,,,,,,,,,,,,,,,,,,,,,,,,
1703415898.044841,1703415898.045486,12.000000,0.000000,4239.358887,4238.846191,4322.820313,4336.538574,4246.282227,4185.000000,4221.410156,4254.615234,4231.025879,4260.769043,4567.436035,4493.974121,4453.333496,4555.384766,6795.000000,2.000000,52.000000,,,,0.000000,4.000000,4.000000,4.000000,4.000000,4.000000,4.000000,4.000000,4.000000,4.000000,4.000000,4.000000,4.000000,4.000000,4.000000,100.000000,,,,,,,,,,,,,,,,,3.000000,0.000000,0.675535,0.224976,-0.654297,0.254822,0.983518,-0.028812,0.050787,-15.565202,-41.188339,65.612762
1703415898.052649,1703415898.053194,13.000000,0.000000,4230.641113,4233.077148,4328.461426,4332.051270,4232.179688,4171.666504,4215.256348,4246.922852,4227.307617,4265.000000,4565.769043,4485.128418,4458.974121,4557.563965,7327.000000,2.000000,52.000000,,,,0.000000,4.000000,4.000000,4.000000,4.000000,4.000000,4.000000,4.000000,4.000000,4.000000,4.000000,4.000000,4.000000,4.000000,4.000000,100.000000,,,,,,,,,,,,,,,,,,,,,,,,,,,,
1703415898.060457,1703415898.061102,14.000000,0.000000,4230.000000,4230.769043,4328.589844,4336.794922,4222.948730,4166.666504,4214.871582,4250.512695,4229.358887,4261.666504,4552.179688,4489.102539,4448.974121,4554.102539,5921.000000,2.000000,52.000000,,,,0.000000,4.000000,4.000000,4.000000,4.000000,4.000000,4.000000,4.000000,4.000000,4.000000,4.000000,4.000000,4.000000,4.000000,4.000000,100.000000,,,,,,,,,,,,,,,,,,,,,,,,,,,,
1703415898.068265,1703415898.068910,15.000000,0.000000,4235.256348,4236.666504,4331.538574,4343.333496,4230.769043,4173.717773,4218.846191,4260.512695,4239.102539,4264.487305,4559.358887,4494.487305,4445.128418,4555.256348,6255.000000,2.000000,52.000000,,,,0.000000,4.000000,4.000000,4.000000,4.000000,4.000000,4.000000,4.000000,4.000000,4.000000,4.000000,4.000000,4.000000,4.000000,4.000000,100.000000,,,,,,,,,,,,,,,,,,,,,,,,,,,,
1703415898.076073,1703415898.076819,16.000000,0.000000,4231.666504,4231.666504,4334.743652,4332.179688,4230.769043,4170.769043,4217.692383,4255.000000,4233.589844,4267.692383,4566.922852,4492.563965,4444.615234,4555.256348,0.000000,2.000000,52.000000,,,,0.000000,4.000000,4.000000,4.000000,4.000000,4.000000,4.000000,4.000000,4.000000,4.000000,4.000000,4.000000,4.000000,4.000000,4.000000,100.000000,,,,,,,,,,,,,,,,,4.000000,0.000000,0.675610,0.225037,-0.654175,0.254883,1.001099,-0.039556,0.048834,-15.342015,-41.236172,65.651482
1703415898.083881,1703415898.084627,17.000000,0.000000,4231.025879,4223.846191,4330.769043,4321.025879,4215.256348,4163.461426,4212.563965,4246.922852,4227.051270,4263.589844,4555.769043,4492.948730,4437.307617,4545.769043,0.000000,2.000000,52.000000,,,,0.000000,4.000000,4.000000,4.000000,4.000000,4.000000,4.000000,4.000000,4.000000,4.000000,4.000000,4.000000,4.000000,4.000000,4.000000,100.000000,,,,,,,,,,,,,,,,,,,,,,,,,,,,
1703415898.091689,1703415898.092535,18.000000,0.000000,4228.077148,4218.333496,4316.794922,4318.974121,4217.436035,4156.025879,4210.512695,4246.410156,4228.205078,4253.205078,4542.563965,4481.794922,4426.666504,4534.487305,0.000000,2.000000,52.000000,,,,0.000000,4.000000,4.000000,4.000000,4.000000,4.000000,4.000000,4.000000,4.000000,4.000000,4.000000,4.000000,4.000000,4.000000,4.000000,100.000000,,,,,,,,,,,,,,,,,,,,,,,,,,,,
1703415898.099497,1703415898.100343,19.000000,0.000000,4216.538574,4213.205078,4305.000000,4321.282227,4233.077148,4151.410156,4212.436035,4239.102539,4219.102539,4246.666504,4539.487305,4464.743652,4416.794922,4530.000000,0.000000,2.000000,52.000000,,,,0.000000,4.000000,4.000000,4.000000,4.000000,4.000000,4.000000,4.000000,4.000000,4.000000,4.000000,4.000000,4.000000,4.000000,4.000000,100.000000,,,,,,,,,,,,,,,,,,,,,,,,,,,,
1703415898.107305,1703415898.108251,20.000000,0.000000,4212.692383,4222.948730,4312.051270,4328.589844,4235.769043,4160.641113,4214.358887,4232.948730,4211.282227,4247.051270,4538.461426,4468.077148,4414.358887,4531.794922,0.000000,2.000000,52.000000,,,,0.000000,4.000000,4.000000,4.000000,4.000000,4.000000,4.000000,4.000000,4.000000,4.000000,4.000000,4.000000,4.000000,4.000000,4.000000,100.000000,1.000000,91.666664,4.000000,4.000000,4.000000,4.000000,4.000000,3.000000,4.000000,4.000000,4.000000,4.000000,4.000000,4.000000,4.000000,4.000000,5.000000,0.000000,0.675626,0.225098,-0.654114,0.254944,1.006471,-0.038579,0.043462,-15.241147,-41.179222,65.669670
1703415898.115113,1703415898.116059,21.000000,0.000000,4217.436035,4231.794922,4321.666504,4330.000000,4231.153809,4169.487305,4215.256348,4233.589844,4215.128418,4245.641113,4537.051270,4477.307617,4423.205078,4535.769043,0.000000,2.000000,52.000000,,,,0.000000,4.000000,4.000000,4.000000,4.000000,4.000000,4.000000,4.000000,4.000000,4.000000,4.000000,4.000000,4.000000,4.000000,4.000000,100.000000,,,,,,,,,,,,,,,,,,,,,,,,,,,,
1703415898.122921,1703415898.123967,22.000000,0.000000,4216.666504,4223.205078,4314.102539,4327.051270,4232.820313,4166.922852,4214.487305,4233.205078,4216.410156,4242.563965,4540.256348,4473.461426,4428.974121,4537.820313,0.000000,2.000000,52.000000,,,,0.000000,4.000000,4.000000,4.000000,4.000000,4.000000,4.000000,4.000000,4.000000,4.000000,4.000000,4.000000,4.000000,4.000000,4.000000,100.000000,,,,,,,,,,,,,,,,,,,,,,,,,,,,
1703415898.130729,1703415898.131775,23.000000,0.000000,4213.846191,4217.307617,4306.410156,4323.333496,4235.384766,4166.025879,4213.974121,4238.974121,4215.384766,4238.461426,4550.128418,4470.512695,4425.897461,4534.230957,0.000000,2.000000,52.000000,,,,0.000000,4.000000,4.000000,4.000000,4.000000,4.000000,4.000000,4.000000,4.000000,4.000000,4.000000,4.000000,4.000000,4.000000,4.000000,100.000000,,,,,,,,,,,,,,,,,,,,,,,,,,,,
1703415898.138537,1703415898.139483,24.000000,0.000000,4217.820313,4220.641113,4314.102539,4317.307617,4234.102539,4170.897461,4214.487305,4247.948730,4218.461426,4244.871582,4556.025879,4479.871582,4426.666504,4535.512695,0.000000,2.000000,52.000000,,,,0.000000,4.000000,4.000000,4.000000,4.000000,4.000000,4.000000,4.000000,4.000000,4.000000,4.000000,4.000000,4.000000,4.000000,4.000000,100.000000,,,,,,,,,,,,,,,,,6.000000,0.000000,0.675630,0.224915,-0.654053,0.255249,0.985960,-0.041509,0.035649,-15.400366,-41.261299,65.569366
1703415898.146346,1703415898.147291,25.000000,0.000000,4218.205078,4216.538574,4321.025879,4317.307617,4227.307617,4170.384766,4214.358887,4250.897461,4222.948730,4256.282227,4549.358887,4489.615234,4435.128418,4547.948730,0.000000,2.000000,52.000000,,,,0.000000,4.000000,4.000000,4.000000,4.000000,4.000000,4.000000,4.000000,4.000000,4.000000,4.000000,4.000000,4.000000,4.000000,4.000000,100.000000,,,,,,,,,,,,,,,,,,,,,,,,,,,,
1703415898.154153,1703415898.154999,26.000000,0.000000,4217.563965,4215.897461,4324.743652,4325.512695,4219.615234,4173.205078,4215.128418,4258.846191,4233.205078,4261.410156,4557.692383,4496.025879,4444.743652,4560.512695,0.000000,2.000000,52.000000,,,,0.000000,4.000000,4.000000,4.000000,4.000000,4.000000,4.000000,4.000000,4.000000,4.000000,4.000000,4.000000,4.000000,4.000000,4.000000,100.000000,,,,,,,,,,,,,,,,,,,,,,,,,,,,
1703415898.161961,1703415898.162807,27.000000,0.000000,4219.743652,4221.538574,4328.589844,4324.743652,4217.179688,4181.153809,4216.922852,4267.563965,4238.333496,4264.743652,4577.948730,4500.897461,4448.333496,4560.897461,0.000000,2.000000,52.000000,,,,0.000000,4.000000,4.000000,4.000000,4.000000,4.000000,4.000000,4.000000,4.000000,4.000000,4.000000,4.000000,4.000000,4.000000,4.000000,100.000000,,,,,,,,,,,,,,,,,,,,,,,,,,,,
1703415898.169770,1703415898.170515,28.000000,0.000000,4215.512695,4214.102539,4325.897461,4311.794922,4214.358887,4176.282227,4216.153809,4262.820313,4231.153809,4266.538574,4570.897461,4502.307617,4441.538574,4553.974121,0.000000,2.000000,52.000000,,,,0.000000,4.000000,4.000000,4.000000,4.000000,4.000000,4.000000,4.000000,4.000000,4.000000,4.000000,4.000000,4.000000,4.000000,4.000000,100.000000,,,,,,,,,,,,,,,,,7.000000,0.000000,0.675599,0.224731,-0.654053,0.255493,0.985960,-0.034184,0.046392,-15.293662,-41.201836,65.829102
1703415898.177578,1703415898.178323,29.000000,0.000000,4212.051270,4211.922852,4326.025879,4307.948730,4216.666504,4171.282227,4216.538574,4260.512695,4237.436035,4260.897461,4561.153809,4505.128418,4442.436035,4559.743652,0.000000,2.000000,52.000000,,,,0.000000,4.000000,4.000000,4.000000,4.000000,4.000000,4.000000,4.000000,4.000000,4.000000,4.000000,4.000000,4.000000,4.000000,4.000000,100.000000,,,,,,,,,,,,,,,,,,,,,,,,,,,,
1703415898.185386,1703415898.186031,30.000000,0.000000,4216.794922,4219.615234,4332.436035,4316.410156,4222.563965,4175.384766,4218.077148,4268.589844,4250.128418,4262.563965,4582.307617,4511.282227,4455.512695,4573.461426,0.000000,2.000000,52.000000,,,,0.000000,4.000000,4.000000,4.000000,4.000000,4.000000,4.000000,4.000000,4.000000,4.000000,4.000000,4.000000,4.000000,4.000000,4.000000,100.000000,,,,,,,,,,,,,,,,,,,,,,,,,,,,
1703415898.193194,1703415898.193839,31.000000,0.000000,4220.641113,4219.743652,4333.846191,4316.922852,4221.922852,4174.871582,4215.897461,4264.615234,4242.692383,4266.794922,4592.436035,4507.179688,4455.897461,4570.769043,0.000000,2.000000,52.000000,,,,0.000000,4.000000,4.000000,4.000000,4.000000,4.000000,4.000000,4.000000,4.000000,4.000000,4.000000,4.000000,4.000000,4.000000,4.000000,100.000000,,,,,,,,,,,,,,,,,,,,,,,,,,,,
1703415898.201002,1703415898.201547,32.000000,0.000000,4212.179688,4214.487305,4323.846191,4307.307617,4217.307617,4176.282227,4214.871582,4252.436035,4231.794922,4252.563965,4564.871582,4495.256348,4441.153809,4556.410156,0.000000,2.000000,52.000000,,,,0.000000,4.000000,4.000000,4.000000,4.000000,4.000000,4.000000,4.000000,4.000000,4.000000,4.000000,4.000000,4.000000,4.000000,4.000000,100.000000,,,,,,,,,,,,,,,,,8.000000,0.000000,0.675494,0.224670,-0.653992,0.255981,0.990844,-0.027347,0.043462,-15.530963,-41.248318,65.796188
1703415898.208810,1703415898.209355,33.000000,0.000000,4201.538574,4214.358887,4314.615234,4306.410156,4217.307617,4184.743652,4216.282227,4247.307617,4228.205078,4243.077148,4548.461426,4491.025879,4431.282227,4552.307617,0.000000,2.000000,52.000000,,,,0.000000,4.000000,4.000000,4.000000,4.000000,4.000000,4.000000,4.000000,4.000000,4.000000,4.000000,4.000000,4.000000,4.000000,4.000000,100.000000,,,,,,,,,,,,,,,,,,,,,,,,,,,,
1703415898.216618,1703415898.217063,34.000000,0.000000,4203.589844,4224.743652,4316.282227,4312.179688,4224.358887,4188.077148,4214.615234,4246.410156,4223.974121,4247.179688,4556.922852,4485.000000,4431.282227,4552.820313,0.000000,2.000000,52.000000,,,,0.000000,4.000000,4.000000,4.000000,4.000000,4.000000,4.000000,4.000000,4.000000,4.000000,4.000000,4.000000,4.000000,4.000000,4.000000,100.000000,,,,,,,,,,,,,,,,,,,,,,,,,,,,
1703415898.224426,1703415898.224871,35.000000,0.000000,4214.102539,4232.179688,4317.051270,4311.025879,4233.461426,4193.205078,4215.256348,4246.153809,4225.897461,4244.487305,4556.025879,4479.615234,4432.179688,4552.563965,0.000000,2.000000,52.000000,,,,0.000000,4.000000,4.000000,4.000000,4.000000,4.000000,4.000000,4.000000,4.000000,4.000000,4.000000,4.000000,4.000000,4.000000,4.000000,100.000000,,,,,,,,,,,,,,,,,,,,,,,,,,,,
1703415898.232234,1703415898.232579,36.000000,0.000000,4218.077148,4225.000000,4316.410156,4309.230957,4234.230957,4204.487305,4218.589844,4242.563965,4226.922852,4242.436035,4547.948730,4481.794922,4426.282227,4554.358887,0.000000,2.000000,52.000000,,,,0.000000,4.000000,4.000000,4.000000,4.000000,4.000000,4.000000,4.000000,4.000000,4.000000,4.000000,4.000000,4.000000,4.000000,4.000000,100.000000,,,,,,,,,,,,,,,,,9.000000,0.000000,0.675529,0.224792,-0.653625,0.256714,0.988890,-0.023929,0.050299,-15.344533,-41.240154,65.816566
1703415898.240042,1703415898.240387,37.000000,0.000000,4209.358887,4213.333496,4314.743652,4304.487305,4229.230957,4203.717773,4215.256348,4232.179688,4215.897461,4246.666504,4546.025879,4478.846191,4419.230957,4545.769043,0.000000,2.000000,52.000000,,,,0.000000,4.000000,4.000000,4.000000,4.000000,4.000000,4.000000,4.000000,4.000000,4.000000,4.000000,4.000000,4.000000,4.000000,4.000000,100.000000,,,,,,,,,,,,,,,,,,,,,,,,,,,,
1703415898.247850,1703415898.248095,38.000000,0.000000,4205.384766,4217.436035,4312.563965,4304.487305,4232.563965,4199.615234,4213.846191,4227.820313,4212.820313,4244.743652,4548.333496,4477.307617,4419.358887,4538.205078,0.000000,2.000000,52.000000,,,,0.000000,4.000000,4.000000,4.000000,4.000000,4.000000,4.000000,4.000000,4.000000,4.000000,4.000000,4.000000,4.000000,4.000000,4.000000,100.000000,,,,,,,,,,,,,,,,,,,,,,,,,,,,
1703415898.255658,1703415898.256003,39.000000,0.000000,4216.410156,4227.563965,4317.692383,4310.897461,4236.666504,4207.307617,4219.102539,4235.128418,4218.974121,4236.794922,4554.102539,4484.358887,4420.512695,4548.461426,0.000000,2.000000,52.000000,,,,0.000000,4.000000,4.000000,4.000000,4.000000,4.000000,4.000000,4.000000,4.000000,4.000000,4.000000,4.000000,4.000000,4.000000,4.000000,100.000000,,,,,,,,,,,,,,,,,,,,,,,,,,,,
1703415898.263466,1703415898.263811,40.000000,0.000000,4221.410156,4224.743652,4320.128418,4306.922852,4232.307617,4216.922852,4220.128418,4236.538574,4215.769043,4234.615234,4554.615234,4480.897461,4415.641113,4554.102539,0.000000,2.000000,52.000000,,,,0.000000,4.000000,4.000000,4.000000,4.000000,4.000000,4.000000,4.000000,4.000000,4.000000,4.000000,4.000000,4.000000,4.000000,4.000000,100.000000,,,,,,,,,,,,,,,,,10.000000,0.000000,0.675449,0.224976,-0.653381,0.257385,0.993774,-0.031254,0.051764,-15.526747,-41.199471,65.701576
1703415898.271274,1703415898.271720,41.000000,0.000000,4205.000000,4216.282227,4310.000000,4292.948730,4227.948730,4213.974121,4216.410156,4231.666504,4212.436035,4234.615234,4546.153809,4466.025879,4410.384766,4542.692383,0.000000,2.000000,52.000000,,,,0.000000,4.000000,4.000000,4.000000,4.000000,4.000000,4.000000,4.000000,4.000000,4.000000,4.000000,4.000000,4.000000,4.000000,4.000000,100.000000,,,,,,,,,,,,,,,,,,,,,,,,,,,,
1703415898.279082,1703415898.279528,42.000000,0.000000,4197.948730,4213.205078,4304.743652,4281.025879,4220.641113,4206.153809,4215.128418,4229.102539,4214.358887,4229.358887,4534.487305,4465.128418,4404.743652,4534.230957,0.000000,2.000000,52.000000,,,,0.000000,4.000000,4.000000,4.000000,4.000000,4.000000,4.000000,4.000000,4.000000,4.000000,4.000000,4.000000,4.000000,4.000000,4.000000,100.000000,,,,,,,,,,,,,,,,,,,,,,,,,,,,
1703415898.286890,1703415898.287436,43.000000,0.000000,4216.922852,4216.794922,4314.358887,4286.538574,4216.282227,4208.077148,4215.128418,4231.282227,4217.436035,4232.948730,4537.307617,4476.153809,4407.051270,4540.256348,0.000000,2.000000,52.000000,,,,0.000000,4.000000,4.000000,4.000000,4.000000,4.000000,4.000000,4.000000,4.000000,4.000000,4.000000,4.000000,4.000000,4.000000,4.000000,100.000000,,,,,,,,,,,,,,,,,,,,,,,,,,,,
1703415898.294698,1703415898.295244,44.000000,0.000000,4217.692383,4214.230957,4312.307617,4295.000000,4216.922852,4208.589844,4215.256348,4236.153809,4220.641113,4233.205078,4544.358887,4474.615234,4410.641113,4540.000000,0.000000,2.000000,52.000000,,,,0.000000,4.000000,4.000000,4.000000,4.000000,4.000000,4.000000,4.000000,4.000000,4.000000,4.000000,4.000000,4.000000,4.000000,4.000000,100.000000,,,,,,,,,,,,,,,,,11.000000,0.000000,0.675396,0.225281,-0.653259,0.257568,1.007447,-0.051276,0.047369,-15.540738,-41.346191,65.664757
1703415898.302507,1703415898.303151,45.000000,0.000000,4196.153809,4204.230957,4300.512695,4283.974121,4214.358887,4200.128418,4215.256348,4233.333496,4216.922852,4220.384766,4535.769043,4467.307617,4405.128418,4529.102539,0.000000,2.000000,52.000000,,,,0.000000,4.000000,4.000000,4.000000,4.000000,4.000000,4.000000,4.000000,4.000000,4.000000,4.000000,4.000000,4.000000,4.000000,4.000000,100.000000,,,,,,,,,,,,,,,,,,,,,,,,,,,,
1703415898.310315,1703415898.310959,46.000000,0.000000,4200.641113,4203.717773,4303.205078,4275.256348,4220.000000,4205.128418,4216.410156,4231.282227,4215.641113,4225.000000,4537.179688,4474.358887,4408.077148,4533.077148,0.000000,2.000000,52.000000,,,,0.000000,4.000000,4.000000,4.000000,4.000000,4.000000,4.000000,4.000000,4.000000,4.000000,4.000000,4.000000,4.000000,4.000000,4.000000,100.000000,,,,,,,,,,,,,,,,,,,,,,,,,,,,
1703415898.318123,1703415898.318867,47.000000,0.000000,4221.922852,4213.589844,4314.743652,4285.128418,4231.025879,4219.358887,4219.358887,4237.563965,4219.358887,4231.794922,4548.846191,4484.230957,4410.384766,4546.025879,0.000000,2.000000,52.000000,,,,0.000000,4.000000,4.000000,4.000000,4.000000,4.000000,4.000000,4.000000,4.000000,4.000000,4.000000,4.000000,4.000000,4.000000,4.000000,100.000000,,,,,,,,,,,,,,,,,,,,,,,,,,,,
1703415898.325931,1703415898.326675,48.000000,0.000000,4213.846191,4216.922852,4312.051270,4291.538574,4223.589844,4219.743652,4218.205078,4238.461426,4216.666504,4217.692383,4545.769043,4472.563965,4397.307617,4539.230957,0.000000,2.000000,52.000000,,,,0.000000,4.000000,4.000000,4.000000,4.000000,4.000000,4.000000,4.000000,4.000000,4.000000,4.000000,4.000000,4.000000,4.000000,4.000000,100.000000,,,,,,,,,,,,,,,,,12.000000,0.000000,0.675316,0.225342,-0.653320,0.257568,0.984495,-0.040532,0.052252,-15.469998,-41.444904,65.631615
1703415898.333739,1703415898.334383,49.000000,0.000000,4202.563965,4211.666504,4301.538574,4292.179688,4213.461426,4216.025879,4216.153809,4231.922852,4213.205078,4218.974121,4535.128418,4467.820313,4393.974121,4531.666504,0.000000,2.000000,52.000000,,,,0.000000,4.000000,4.000000,4.000000,4.000000,4.000000,4.000000,4.000000,4.000000,4.000000,4.000000,4.000000,4.000000,4.000000,4.000000,100.000000,,,,,,,,,,,,,,,,,,,,,,,,,,,,
1703415898.341547,1703415898.342191,50.000000,0.000000,4212.948730,4213.205078,4307.307617,4295.000000,4222.436035,4220.897461,4218.077148,4233.333496,4216.794922,4234.230957,4535.384766,4483.846191,4402.563965,4539.871582,0.000000,2.000000,52.000000,,,,0.000000,4.000000,4.000000,4.000000,4.000000,4.000000,4.000000,4.000000,4.000000,4.000000,4.000000,4.000000,4.000000,4.000000,4.000000,100.000000,,,,,,,,,,,,,,,,,,,,,,,,,,,,
1703415898.349355,1703415898.349899,51.000000,0.000000,4219.230957,4216.282227,4310.769043,4285.897461,4220.256348,4220.641113,4216.794922,4235.384766,4217.692383,4231.025879,4541.282227,4483.974121,4400.256348,4536.794922,0.000000,2.000000,52.000000,,,,0.000000,4.000000,4.000000,4.000000,4.000000,4.000000,4.000000,4.000000,4.000000,4.000000,4.000000,4.000000,4.000000,4.000000,4.000000,100.000000,,,,,,,,,,,,,,,,,,,,,,,,,,,,
1703415898.357163,1703415898.357707,52.000000,0.000000,4214.615234,4215.512695,4301.794922,4279.102539,4210.512695,4216.794922,4212.051270,4222.692383,4213.461426,4227.179688,4542.051270,4465.384766,4395.256348,4522.948730,0.000000,2.000000,52.000000,,,,0.000000,4.000000,4.000000,4.000000,4.000000,4.000000,4.000000,4.000000,4.000000,4.000000,4.000000,4.000000,4.000000,4.000000,4.000000,100.000000,,,,,,,,,,,,,,,,,13.000000,0.000000,0.675448,0.225403,-0.653259,0.257324,0.986937,-0.033207,0.046392,-15.606332,-41.333748,65.668449
1703415898.364971,1703415898.365415,53.000000,0.000000,4209.358887,4215.897461,4300.769043,4282.307617,4225.128418,4222.436035,4215.128418,4213.205078,4211.666504,4224.487305,4540.256348,4456.666504,4396.282227,4518.205078,0.000000,2.000000,52.000000,,,,0.000000,4.000000,4.000000,4.000000,4.000000,4.000000,4.000000,4.000000,4.000000,4.000000,4.000000,4.000000,4.000000,4.000000,4.000000,100.000000,,,,,,,,,,,,,,,,,,,,,,,,,,,,
1703415898.372779,1703415898.373223,54.000000,0.000000,4209.358887,4219.230957,4308.846191,4281.153809,4236.282227,4228.205078,4221.282227,4222.948730,4215.384766,4213.717773,4535.256348,4470.512695,4399.743652,4525.000000,0.000000,2.000000,52.000000,,,,0.000000,4.000000,4.000000,4.000000,4.000000,4.000000,4.000000,4.000000,4.000000,4.000000,4.000000,4.000000,4.000000,4.000000,4.000000,100.000000,,,,,,,,,,,,,,,,,,,,,,,,,,,,
1703415898.380587,1703415898.380931,55.000000,0.000000,4215.384766,4222.179688,4311.666504,4280.641113,4225.128418,4223.589844,4220.128418,4234.358887,4219.487305,4221.282227,4538.077148,4481.410156,4398.974121,4532.692383,0.000000,2.000000,52.000000,,,,0.000000,4.000000,4.000000,4.000000,4.000000,4.000000,4.000000,4.000000,4.000000,4.000000,4.000000,4.000000,4.000000,4.000000,4.000000,100.000000,,,,,,,,,,,,,,,,,,,,,,,,,,,,
1703415898.388395,1703415898.388739,56.000000,0.000000,4217.563965,4215.512695,4308.589844,4281.025879,4217.307617,4215.256348,4217.820313,4230.641113,4214.358887,4227.820313,4540.384766,4470.769043,4392.436035,4530.512695,0.000000,2.000000,52.000000,,,,0.000000,4.000000,4.000000,4.000000,4.000000,4.000000,4.000000,4.000000,4.000000,4.000000,4.000000,4.000000,4.000000,4.000000,4.000000,100.000000,,,,,,,,,,,,,,,,,14.000000,0.000000,0.675521,0.225464,-0.653259,0.257080,0.994750,-0.023440,0.045416,-15.662365,-41.467041,65.718269
1703415898.396203,1703415898.396447,57.000000,0.000000,4214.487305,4208.589844,4307.820313,4279.743652,4216.538574,4213.974121,4219.358887,4223.846191,4208.589844,4214.743652,4528.589844,4464.615234,4387.436035,4522.692383,0.000000,2.000000,52.000000,,,,0.000000,4.000000,4.000000,4.000000,4.000000,4.000000,4.000000,4.000000,4.000000,4.000000,4.000000,4.000000,4.000000,4.000000,4.000000,100.000000,,,,,,,,,,,,,,,,,,,,,,,,,,,,
1703415898.404011,1703415898.404255,58.000000,0.000000,4210.128418,4215.384766,4304.743652,4279.230957,4216.666504,4223.205078,4220.256348,4228.077148,4213.589844,4218.717773,4526.410156,4470.384766,4390.512695,4521.153809,0.000000,2.000000,52.000000,,,,0.000000,4.000000,4.000000,4.000000,4.000000,4.000000,4.000000,4.000000,4.000000,4.000000,4.000000,4.000000,4.000000,4.000000,4.000000,100.000000,,,,,,,,,,,,,,,,,,,,,,,,,,,,
1703415898.411819,1703415898.411964,59.000000,0.000000,4203.717773,4217.820313,4299.230957,4273.589844,4221.025879,4231.666504,4220.641113,4232.436035,4219.615234,4238.717773,4541.538574,4472.820313,4397.563965,4527.692383,0.000000,2.000000,52.000000,,,,0.000000,4.000000,4.000000,4.000000,4.000000,4.000000,4.000000,4.000000,4.000000,4.000000,4.000000,4.000000,4.000000,4.000000,4.000000,100.000000,,,,,,,,,,,,,,,,,,,,,,,,,,,,
1703415898.419627,1703415898.419872,60.000000,0.000000,4201.538574,4204.615234,4292.692383,4262.179688,4214.615234,4223.974121,4219.487305,4222.692383,4209.871582,4230.128418,4539.230957,4459.615234,4388.077148,4522.820313,0.000000,2.000000,52.000000,,,,0.000000,4.000000,4.000000,4.000000,4.000000,4.000000,4.000000,4.000000,4.000000,4.000000,4.000000,4.000000,4.000000,4.000000,4.000000,100.000000,,,,,,,,,,,,,,,,,15.000000,0.000000,0.675485,0.225464,-0.653320,0.257019,0.994262,-0.040532,0.050299,-15.646129,-41.353668,65.663109
1703415898.427435,1703415898.427680,61.000000,0.000000,4210.000000,4202.820313,4294.230957,4265.256348,4205.769043,4212.948730,4216.025879,4214.102539,4201.794922,4205.897461,4525.384766,4453.205078,4379.871582,4516.666504,0.000000,2.000000,52.000000,,,,0.000000,4.000000,4.000000,4.000000,4.000000,4.000000,4.000000,4.000000,4.000000,4.000000,4.000000,4.000000,4.000000,4.000000,4.000000,100.000000,,,,,,,,,,,,,,,,,,,,,,,,,,,,
1703415898.435243,1703415898.435588,62.000000,0.000000,4223.077148,4217.436035,4305.512695,4280.128418,4216.153809,4221.025879,4220.641113,4216.922852,4209.487305,4205.641113,4530.897461,4466.025879,4389.871582,4527.307617,0.000000,2.000000,52.000000,,,,0.000000,4.000000,4.000000,4.000000,4.000000,4.000000,4.000000,4.000000,4.000000,4.000000,4.000000,4.000000,4.000000,4.000000,4.000000,100.000000,,,,,,,,,,,,,,,,,,,,,,,,,,,,
1703415898.443051,1703415898.443396,63.000000,0.000000,4234.102539,4223.589844,4313.589844,4283.717773,4224.743652,4228.461426,4227.820313,4219.358887,4215.641113,4214.487305,4540.128418,4478.717773,4395.128418,4541.410156,0.000000,2.000000,52.000000,,,,0.000000,4.000000,4.000000,4.000000,4.000000,4.000000,4.000000,4.000000,4.000000,4.000000,4.000000,4.000000,4.000000,4.000000,4.000000,100.000000,,,,,,,,,,,,,,,,,,,,,,,,,,,,
1703415898.450859,1703415898.451304,64.000000,0.000000,4236.282227,4219.615234,4310.384766,4278.974121,4218.077148,4219.615234,4223.717773,4221.794922,4216.410156,4217.692383,4537.179688,4480.641113,4389.102539,4540.256348,5529.000000,2.000000,52.000000,,,,0.000000,4.000000,4.000000,4.000000,4.000000,4.000000,4.000000,4.000000,4.000000,4.000000,4.000000,4.000000,4.000000,4.000000,4.000000,100.000000,,,,,,,,,,,,,,,,,16.000000,0.000000,0.675518,0.225403,-0.653259,0.257141,0.989867,-0.019534,0.051764,-15.631516,-41.551636,65.563469
1703415898.458667,1703415898.459112,65.000000,0.000000,4234.487305,4216.794922,4300.897461,4280.000000,4213.974121,4214.487305,4217.820313,4223.589844,4211.538574,4211.666504,4530.769043,4469.230957,4383.333496,4528.077148,5472.000000,2.000000,52.000000,,,,0.000000,4.000000,4.000000,4.000000,4.000000,4.000000,4.000000,4.000000,4.000000,4.000000,4.000000,4.000000,4.000000,4.000000,4.000000,100.000000,,,,,,,,,,,,,,,,,,,,,,,,,,,,
1703415898.466476,1703415898.467021,66.000000,0.000000,4231.794922,4216.666504,4294.230957,4279.230957,4216.282227,4219.102539,4218.974121,4216.153809,4203.205078,4200.256348,4523.846191,4456.538574,4376.794922,4520.641113,5362.000000,2.000000,52.000000,,,,0.000000,4.000000,4.000000,4.000000,4.000000,4.000000,4.000000,4.000000,4.000000,4.000000,4.000000,4.000000,4.000000,4.000000,4.000000,100.000000,,,,,,,,,,,,,,,,,,,,,,,,,,,,
1703415898.474284,1703415898.474829,67.000000,0.000000,4219.102539,4216.666504,4290.128418,4274.102539,4217.563965,4219.615234,4219.358887,4212.307617,4204.743652,4204.230957,4526.410156,4454.358887,4373.077148,4519.743652,5303.000000,2.000000,52.000000,,,,0.000000,4.000000,4.000000,4.000000,4.000000,4.000000,4.000000,4.000000,4.000000,4.000000,4.000000,4.000000,4.000000,4.000000,4.000000,100.000000,,,,,,,,,,,,,,,,,,,,,,,,,,,,
1703415898.482092,1703415898.482737,68.000000,0.000000,4215.897461,4217.179688,4294.358887,4275.641113,4216.025879,4216.922852,4221.025879,4218.333496,4214.230957,4213.077148,4533.205078,4459.871582,4381.538574,4523.974121,5257.000000,2.000000,52.000000,,,,0.000000,4.000000,4.000000,4.000000,4.000000,4.000000,4.000000,4.000000,4.000000,4.000000,4.000000,4.000000,4.000000,4.000000,4.000000,100.000000,,,,,,,,,,,,,,,,,17.000000,0.000000,0.675451,0.225464,-0.653259,0.257263,0.986449,-0.030277,0.053717,-15.568364,-41.479805,65.523788
1703415898.489900,1703415898.490545,69.000000,0.000000,4231.153809,4216.922852,4306.410156,4279.743652,4212.820313,4217.179688,4228.077148,4219.102539,4213.974121,4208.974121,4531.025879,4466.538574,4384.102539,4526.538574,4848.000000,2.000000,52.000000,,,,0.000000,4.000000,4.000000,4.000000,4.000000,4.000000,4.000000,4.000000,4.000000,4.000000,4.000000,4.000000,4.000000,4.000000,4.000000,100.000000,,,,,,,,,,,,,,,,,,,,,,,,,,,,
1703415898.497708,1703415898.498452,70.000000,0.000000,4233.205078,4216.666504,4310.000000,4279.102539,4215.897461,4219.102539,4231.025879,4219.871582,4212.820313,4209.487305,4532.563965,4471.410156,4379.871582,4524.487305,3739.000000,2.000000,52.000000,,,,0.000000,4.000000,4.000000,4.000000,4.000000,4.000000,4.000000,4.000000,4.000000,4.000000,4.000000,4.000000,4.000000,4.000000,4.000000,100.000000,,,,,,,,,,,,,,,,,,,,,,,,,,,,
1703415898.505516,1703415898.506260,71.000000,0.000000,4223.717773,4218.589844,4305.256348,4278.461426,4220.256348,4222.307617,4231.025879,4229.487305,4224.230957,4221.538574,4541.025879,4475.769043,4381.922852,4524.487305,5258.000000,2.000000,52.000000,,,,0.000000,4.000000,4.000000,4.000000,4.000000,4.000000,4.000000,4.000000,4.000000,4.000000,4.000000,4.000000,4.000000,4.000000,4.000000,100.000000,,,,,,,,,,,,,,,,,,,,,,,,,,,,
1703415898.513324,1703415898.513969,72.000000,0.000000,4223.077148,4221.025879,4303.846191,4279.358887,4218.205078,4224.102539,4232.820313,4235.256348,4231.410156,4216.922852,4540.512695,4477.179688,4385.769043,4524.102539,5370.000000,2.000000,52.000000,,,,0.000000,4.000000,4.000000,4.000000,4.000000,4.000000,4.000000,4.000000,4.000000,4.000000,4.000000,4.000000,4.000000,4.000000,4.000000,100.000000,,,,,,,,,,,,,,,,,18.000000,0.000000,0.675412,0.225403,-0.653320,0.257263,0.989379,-0.035161,0.057136,-15.511528,-41.498493,65.604744
1703415898.521132,1703415898.521776,73.000000,0.000000,4226.538574,4220.000000,4307.179688,4275.128418,4216.282227,4221.282227,4232.436035,4228.589844,4227.820313,4201.922852,4532.436035,4479.102539,4385.512695,4522.563965,5325.000000,2.000000,52.000000,,,,0.000000,4.000000,4.000000,4.000000,4.000000,4.000000,4.000000,4.000000,4.000000,4.000000,4.000000,4.000000,4.000000,4.000000,4.000000,100.000000,,,,,,,,,,,,,,,,,,,,,,,,,,,,
1703415898.528940,1703415898.529485,74.000000,0.000000,4232.820313,4218.333496,4310.512695,4265.384766,4215.512695,4216.410156,4229.871582,4221.922852,4221.282227,4204.230957,4539.358887,4476.666504,4385.000000,4529.102539,5910.000000,2.000000,52.000000,,,,0.000000,4.000000,4.000000,4.000000,4.000000,4.000000,4.000000,4.000000,4.000000,4.000000,4.000000,4.000000,4.000000,4.000000,4.000000,100.000000,,,,,,,,,,,,,,,,,,,,,,,,,,,,
1703415898.536748,1703415898.537293,75.000000,0.000000,4255.384766,4223.461426,4314.743652,4266.794922,4215.128418,4215.128418,4229.487305,4222.820313,4217.820313,4211.538574,4551.410156,4475.000000,4391.666504,4547.948730,6242.000000,2.000000,52.000000,,,,0.000000,4.000000,4.000000,4.000000,4.000000,4.000000,4.000000,4.000000,4.000000,4.000000,4.000000,4.000000,4.000000,4.000000,4.000000,100.000000,,,,,,,,,,,,,,,,,,,,,,,,,,,,
1703415898.544556,1703415898.545001,76.000000,0.000000,4293.205078,4239.102539,4320.897461,4286.538574,4219.871582,4217.820313,4231.666504,4222.692383,4217.436035,4213.717773,4545.897461,4485.384766,4397.948730,4565.128418,6775.000000,2.000000,52.000000,,,,0.000000,4.000000,4.000000,4.000000,4.000000,4.000000,4.000000,4.000000,4.000000,4.000000,4.000000,4.000000,4.000000,4.000000,4.000000,100.000000,,,,,,,,,,,,,,,,,19.000000,0.000000,0.675471,0.225403,-0.653259,0.257263,0.980100,-0.027835,0.047369,-15.510375,-41.431976,65.560936
1703415898.552364,1703415898.552909,77.000000,0.000000,4322.563965,4252.307617,4326.922852,4300.256348,4217.179688,4218.974121,4232.948730,4219.615234,4216.538574,4211.922852,4543.846191,4495.512695,4405.000000,4580.897461,7331.000000,2.000000,52.000000,,,,0.000000,4.000000,4.000000,4.000000,4.000000,4.000000,4.000000,4.000000,4.000000,4.000000,4.000000,4.000000,4.000000,4.000000,4.000000,100.000000,,,,,,,,,,,,,,,,,,,,,,,,,,,,
1703415898.560172,1703415898.560717,78.000000,0.000000,4337.563965,4250.512695,4335.897461,4294.871582,4206.538574,4216.538574,4230.641113,4219.102539,4216.538574,4208.589844,4554.230957,4498.846191,4413.846191,4598.717773,5910.000000,2.000000,52.000000,,,,0.000000,4.000000,4.000000,4.000000,4.000000,4.000000,4.000000,4.000000,4.000000,4.000000,4.000000,4.000000,4.000000,4.000000,4.000000,100.000000,,,,,,,,,,,,,,,,,,,,,,,,,,,,
1703415898.567980,1703415898.568625,79.000000,0.000000,4346.025879,4246.794922,4341.666504,4288.589844,4210.000000,4217.563965,4228.461426,4220.256348,4217.692383,4203.846191,4554.487305,4508.333496,4410.769043,4606.025879,6242.000000,2.000000,52.000000,,,,0.000000,4.000000,4.000000,4.000000,4.000000,4.000000,4.000000,4.000000,4.000000,4.000000,4.000000,4.000000,4.000000,4.000000,4.000000,100.000000,,,,,,,,,,,,,,,,,,,,,,,,,,,,
1703415898.575788,1703415898.576433,80.000000,0.000000,4348.461426,4251.538574,4332.692383,4285.769043,4220.512695,4221.282227,4230.769043,4218.974121,4217.692383,4202.563965,4553.974121,4513.205078,4405.000000,4603.974121,6775.000000,2.000000,52.000000,,,,0.000000,4.000000,4.000000,4.000000,4.000000,4.000000,4.000000,4.000000,4.000000,4.000000,4.000000,4.000000,4.000000,4.000000,4.000000,100.000000,,,,,,,,,,,,,,,,,20.000000,0.000000,0.675466,0.225281,-0.653259,0.257385,0.984007,-0.042974,0.047369,-15.659337,-41.555447,65.504845
1703415898.583596,1703415898.584241,81.000000,0.000000,4348.974121,4251.025879,4324.102539,4281.025879,4212.692383,4216.025879,4230.384766,4216.666504,4215.256348,4204.487305,4560.897461,4499.358887,4409.102539,4603.077148,7331.000000,2.000000,52.000000,,,,0.000000,4.000000,4.000000,4.000000,4.000000,4.000000,4.000000,4.000000,4.000000,4.000000,4.000000,4.000000,4.000000,4.000000,4.000000,100.000000,,,,,,,,,,,,,,,,,,,,,,,,,,,,
1703415898.591404,1703415898.591950,82.000000,0.000000,4351.282227,4243.205078,4326.153809,4279.487305,4205.512695,4211.025879,4227.179688,4215.641113,4215.256348,4200.128418,4555.384766,4492.563965,4411.666504,4601.666504,5910.000000,2.000000,52.000000,,,,0.000000,4.000000,4.000000,4.000000,4.000000,4.000000,4.000000,4.000000,4.000000,4.000000,4.000000,4.000000,4.000000,4.000000,4.000000,100.000000,,,,,,,,,,,,,,,,,,,,,,,,,,,,
1703415898.599213,1703415898.599757,83.000000,0.000000,4346.666504,4248.205078,4326.794922,4283.717773,4215.897461,4218.974121,4230.128418,4217.436035,4216.538574,4199.487305,4554.230957,4498.974121,4406.153809,4592.563965,6242.000000,2.000000,52.000000,,,,0.000000,4.000000,4.000000,4.000000,4.000000,4.000000,4.000000,4.000000,4.000000,4.000000,4.000000,4.000000,4.000000,4.000000,4.000000,100.000000,,,,,,,,,,,,,,,,,,,,,,,,,,,,
1703415898.607021,1703415898.607466,84.000000,0.000000,4331.153809,4253.077148,4326.282227,4281.922852,4214.102539,4216.794922,4232.307617,4218.461426,4210.769043,4194.358887,4554.743652,4496.153809,4401.282227,4578.461426,6775.000000,2.000000,52.000000,,,,0.000000,4.000000,4.000000,4.000000,4.000000,4.000000,4.000000,4.000000,4.000000,4.000000,4.000000,4.000000,4.000000,4.000000,4.000000,100.000000,1.000000,100.000000,4.000000,4.000000,4.000000,4.000000,4.000000,4.000000,4.000000,4.000000,4.000000,4.000000,4.000000,4.000000,4.000000,4.000000,21.000000,0.000000,0.675402,0.225403,-0.653259,0.257446,0.995239,-0.044439,0.031254,-15.510071,-41.483234,65.504356
1703415898.614828,1703415898.615274,85.000000,0.000000,4310.256348,4240.256348,4322.820313,4275.000000,4206.025879,4201.025879,4229.102539,4216.025879,4207.948730,4188.333496,4541.410156,4492.307617,4397.820313,4566.794922,7331.000000,2.000000,52.000000,,,,0.000000,4.000000,4.000000,4.000000,4.000000,4.000000,4.000000,4.000000,4.000000,4.000000,4.000000,4.000000,4.000000,4.000000,4.000000,100.000000,,,,,,,,,,,,,,,,,,,,,,,,,,,,
1703415898.622637,1703415898.622982,86.000000,0.000000,4290.384766,4231.025879,4313.333496,4279.358887,4214.230957,4204.871582,4230.128418,4213.974121,4214.743652,4199.102539,4545.769043,4487.820313,4392.436035,4556.153809,5910.000000,2.000000,52.000000,,,,0.000000,4.000000,4.000000,4.000000,4.000000,4.000000,4.000000,4.000000,4.000000,4.000000,4.000000,4.000000,4.000000,4.000000,4.000000,100.000000,,,,,,,,,,,,,,,,,,,,,,,,,,,,
1703415898.630445,1703415898.630890,87.000000,0.000000,4277.307617,4233.333496,4307.307617,4287.563965,4219.230957,4219.102539,4233.717773,4213.589844,4216.025879,4203.589844,4557.307617,4475.641113,4382.563965,4542.948730,6242.000000,2.000000,52.000000,,,,0.000000,4.000000,4.000000,4.000000,4.000000,4.000000,4.000000,4.000000,4.000000,4.000000,4.000000,4.000000,4.000000,4.000000,4.000000,100.000000,,,,,,,,,,,,,,,,,,,,,,,,,,,,
1703415898.638253,1703415898.638698,88.000000,0.000000,4262.307617,4228.974121,4304.615234,4282.820313,4212.563965,4209.743652,4231.666504,4215.512695,4211.666504,4189.871582,4543.333496,4472.179688,4378.333496,4532.051270,6775.000000,2.000000,52.000000,,,,0.000000,4.000000,4.000000,4.000000,4.000000,4.000000,4.000000,4.000000,4.000000,4.000000,4.000000,4.000000,4.000000,4.000000,4.000000,100.000000,,,,,,,,,,,,,,,,,22.000000,0.000000,0.675343,0.225403,-0.653320,0.257446,0.986449,-0.031254,0.052741,-15.442397,-41.434910,65.287254
1703415898.646061,1703415898.646606,89.000000,0.000000,4248.205078,4225.384766,4297.820313,4275.769043,4215.128418,4194.743652,4229.743652,4218.333496,4212.948730,4190.128418,4531.922852,4472.948730,4381.794922,4523.717773,7331.000000,2.000000,52.000000,,,,0.000000,4.000000,4.000000,4.000000,4.000000,4.000000,4.000000,4.000000,4.000000,4.000000,4.000000,4.000000,4.000000,4.000000,4.000000,100.000000,,,,,,,,,,,,,,,,,,,,,,,,,,,,
1703415898.653869,1703415898.654414,90.000000,0.000000,4246.282227,4228.589844,4295.000000,4279.871582,4221.025879,4204.487305,4231.410156,4218.974121,4215.128418,4205.641113,4539.487305,4469.743652,4379.230957,4513.205078,5910.000000,2.000000,52.000000,,,,0.000000,4.000000,4.000000,4.000000,4.000000,4.000000,4.000000,4.000000,4.000000,4.000000,4.000000,4.000000,4.000000,4.000000,4.000000,100.000000,,,,,,,,,,,,,,,,,,,,,,,,,,,,
1703415898.661677,1703415898.662322,91.000000,0.000000,4239.871582,4223.717773,4296.153809,4280.000000,4217.179688,4215.256348,4232.179688,4218.717773,4213.589844,4202.820313,4542.179688,4469.743652,4371.794922,4505.641113,6242.000000,2.000000,52.000000,,,,0.000000,4.000000,4.000000,4.000000,4.000000,4.000000,4.000000,4.000000,4.000000,4.000000,4.000000,4.000000,4.000000,4.000000,4.000000,100.000000,,,,,,,,,,,,,,,,,,,,,,,,,,,,
1703415898.669485,1703415898.670130,92.000000,0.000000,4228.077148,4216.153809,4294.487305,4273.205078,4217.051270,4207.051270,4231.282227,4219.871582,4215.000000,4192.307617,4536.282227,4467.179688,4369.230957,4504.743652,6775.000000,2.000000,52.000000,,,,0.000000,4.000000,4.000000,4.000000,4.000000,4.000000,4.000000,4.000000,4.000000,4.000000,4.000000,4.000000,4.000000,4.000000,4.000000,100.000000,,,,,,,,,,,,,,,,,23.000000,0.000000,0.675345,0.225464,-0.653320,0.257385,0.993774,-0.034672,0.045416,-15.464824,-41.441418,65.341866
1703415898.677293,1703415898.678038,93.000000,0.000000,4225.384766,4217.692383,4292.051270,4273.205078,4216.666504,4200.000000,4230.256348,4219.102539,4214.487305,4187.948730,4531.794922,4464.358887,4368.205078,4500.512695,7331.000000,2.000000,52.000000,,,,0.000000,4.000000,4.000000,4.000000,4.000000,4.000000,4.000000,4.000000,4.000000,4.000000,4.000000,4.000000,4.000000,4.000000,4.000000,100.000000,,,,,,,,,,,,,,,,,,,,,,,,,,,,
1703415898.685101,1703415898.685846,94.000000,0.000000,4226.794922,4220.128418,4294.358887,4281.666504,4214.230957,4203.717773,4231.025879,4217.179688,4212.692383,4183.077148,4530.769043,4470.897461,4366.794922,4493.589844,5910.000000,2.000000,52.000000,,,,0.000000,4.000000,4.000000,4.000000,4.000000,4.000000,4.000000,4.000000,4.000000,4.000000,4.000000,4.000000,4.000000,4.000000,4.000000,100.000000,,,,,,,,,,,,,,,,,,,,,,,,,,,,
1703415898.692909,1703415898.693754,95.000000,0.000000,4223.205078,4218.717773,4299.615234,4286.666504,4214.230957,4204.358887,4232.436035,4218.974121,4215.128418,4190.000000,4537.948730,4471.410156,4366.538574,4494.358887,6242.000000,2.000000,52.000000,,,,0.000000,4.000000,4.000000,4.000000,4.000000,4.000000,4.000000,4.000000,4.000000,4.000000,4.000000,4.000000,4.000000,4.000000,4.000000,100.000000,,,,,,,,,,,,,,,,,,,,,,,,,,,,
1703415898.700717,1703415898.701562,96.000000,0.000000,4210.256348,4218.077148,4293.205078,4272.692383,4211.666504,4197.307617,4232.051270,4220.000000,4216.922852,4198.846191,4537.820313,4461.922852,4364.102539,4489.871582,6775.000000,2.000000,52.000000,,,,0.000000,4.000000,4.000000,4.000000,4.000000,4.000000,4.000000,4.000000,4.000000,4.000000,4.000000,4.000000,4.000000,4.000000,4.000000,100.000000,,,,,,,,,,,,,,,,,24.000000,0.000000,0.675404,0.225464,-0.653259,0.257385,0.992797,-0.032230,0.049811,-15.535008,-41.180611,65.424339
1703415898.708525,1703415898.709270,97.000000,0.000000,4195.256348,4214.102539,4279.102539,4261.025879,4213.333496,4198.461426,4233.077148,4217.563965,4212.692383,4190.641113,4528.974121,4453.717773,4357.436035,4474.743652,7331.000000,2.000000,52.000000,,,,0.000000,4.000000,4.000000,4.000000,4.000000,4.000000,4.000000,4.000000,4.000000,4.000000,4.000000,4.000000,4.000000,4.000000,4.000000,100.000000,,,,,,,,,,,,,,,,,,,,,,,,,,,,
1703415898.716333,1703415898.717078,98.000000,0.000000,4197.948730,4207.692383,4276.922852,4271.153809,4218.077148,4205.000000,4234.743652,4218.077148,4206.922852,4175.256348,4523.077148,4453.846191,4349.487305,4473.589844,5910.000000,2.000000,52.000000,,,,0.000000,4.000000,4.000000,4.000000,4.000000,4.000000,4.000000,4.000000,4.000000,4.000000,4.000000,4.000000,4.000000,4.000000,4.000000,100.000000,,,,,,,,,,,,,,,,,,,,,,,,,,,,
1703415898.724141,1703415898.724786,99.000000,0.000000,4205.384766,4205.256348,4279.871582,4278.077148,4214.615234,4202.948730,4233.846191,4213.717773,4202.436035,4170.384766,4512.948730,4453.205078,4341.922852,4474.743652,6242.000000,2.000000,52.000000,,,,0.000000,4.000000,4.000000,4.000000,4.000000,4.000000,4.000000,4.000000,4.000000,4.000000,4.000000,4.000000,4.000000,4.000000,4.000000,100.000000,,,,,,,,,,,,,,,,,,,,,,,,,,,,
1703415898.731949,1703415898.732594,100.000000,0.000000,4189.871582,4204.615234,4275.897461,4269.871582,4212.307617,4201.282227,4232.820313,4207.051270,4200.641113,4173.461426,4503.205078,4442.563965,4337.051270,4461.153809,6775.000000,2.000000,52.000000,,,,0.000000,4.000000,4.000000,4.000000,4.000000,4.000000,4.000000,4.000000,4.000000,4.000000,4.000000,4.000000,4.000000,4.000000,4.000000,100.000000,,,,,,,,,,,,,,,,,25.000000,0.000000,0.675443,0.225525,-0.653198,0.257385,0.990844,-0.031254,0.036137,-15.564840,-41.179214,65.515244
1703415898.739757,1703415898.740302,101.000000,0.000000,4176.922852,4199.615234,4275.384766,4262.307617,4216.282227,4207.563965,4234.615234,4217.436035,4213.333496,4181.794922,4514.615234,4442.179688,4339.871582,4460.769043,7331.000000,2.000000,52.000000,,,,0.000000,4.000000,4.000000,4.000000,4.000000,4.000000,4.000000,4.000000,4.000000,4.000000,4.000000,4.000000,4.000000,4.000000,4.000000,100.000000,,,,,,,,,,,,,,,,,,,,,,,,,,,,
1703415898.747565,1703415898.748110,102.000000,0.000000,4190.256348,4205.769043,4278.589844,4266.666504,4217.051270,4208.205078,4235.897461,4232.307617,4232.179688,4197.051270,4533.589844,4459.102539,4352.820313,4475.897461,5910.000000,2.000000,52.000000,,,,0.000000,4.000000,4.000000,4.000000,4.000000,4.000000,4.000000,4.000000,4.000000,4.000000,4.000000,4.000000,4.000000,4.000000,4.000000,100.000000,,,,,,,,,,,,,,,,,,,,,,,,,,,,
1703415898.755373,1703415898.755818,103.000000,0.000000,4201.538574,4218.333496,4280.512695,4272.563965,4213.077148,4200.256348,4235.128418,4232.563965,4232.563965,4202.179688,4537.307617,4470.769043,4362.820313,4481.922852,6242.000000,2.000000,52.000000,,,,0.000000,4.000000,4.000000,4.000000,4.000000,4.000000,4.000000,4.000000,4.000000,4.000000,4.000000,4.000000,4.000000,4.000000,4.000000,100.000000,,,,,,,,,,,,,,,,,,,,,,,,,,,,
1703415898.763182,1703415898.763626,104.000000,0.000000,4201.025879,4215.769043,4287.179688,4269.358887,4207.051270,4200.128418,4234.743652,4226.794922,4221.538574,4200.256348,4539.102539,4475.000000,4365.897461,4486.025879,6775.000000,2.000000,52.000000,,,,0.000000,4.000000,4.000000,4.000000,4.000000,4.000000,4.000000,4.000000,4.000000,4.000000,4.000000,4.000000,4.000000,4.000000,4.000000,100.000000,,,,,,,,,,,,,,,,,26.000000,0.000000,0.675541,0.225586,-0.653076,0.257385,0.989867,-0.031254,0.052252,-15.791690,-41.294628,65.547050
1703415898.770990,1703415898.771334,105.000000,0.000000,4197.179688,4207.436035,4287.948730,4260.256348,4202.307617,4201.922852,4235.256348,4221.666504,4217.692383,4198.077148,4542.307617,4467.692383,4363.589844,4485.769043,7331.000000,2.000000,52.000000,,,,0.000000,4.000000,4.000000,4.000000,4.000000,4.000000,4.000000,4.000000,4.000000,4.000000,4.000000,4.000000,4.000000,4.000000,4.000000,100.000000,,,,,,,,,,,,,,,,,,,,,,,,,,,,
1703415898.778798,1703415898.779142,106.000000,0.000000,4189.358887,4203.846191,4275.256348,4260.384766,4199.743652,4197.051270,4233.205078,4216.282227,4217.692383,4188.974121,4527.436035,4446.410156,4351.282227,4471.922852,5910.000000,2.000000,52.000000,,,,0.000000,4.000000,4.000000,4.000000,4.000000,4.000000,4.000000,4.000000,4.000000,4.000000,4.000000,4.000000,4.000000,4.000000,4.000000,100.000000,,,,,,,,,,,,,,,,,,,,,,,,,,,,
1703415898.786606,1703415898.786850,107.000000,0.000000,4190.641113,4207.179688,4271.794922,4267.179688,4199.487305,4198.461426,4232.307617,4216.153809,4213.077148,4181.282227,4515.769043,4446.410156,4343.205078,4468.717773,6242.000000,2.000000,52.000000,,,,0.000000,4.000000,4.000000,4.000000,4.000000,4.000000,4.000000,4.000000,4.000000,4.000000,4.000000,4.000000,4.000000,4.000000,4.000000,100.000000,,,,,,,,,,,,,,,,,,,,,,,,,,,,
1703415898.794414,1703415898.794658,108.000000,0.000000,4202.307617,4215.384766,4279.743652,4264.871582,4206.282227,4204.487305,4234.487305,4218.589844,4212.948730,4182.563965,4529.358887,4462.436035,4351.025879,4477.692383,6775.000000,2.000000,52.000000,,,,0.000000,4.000000,4.000000,4.000000,4.000000,4.000000,4.000000,4.000000,4.000000,4.000000,4.000000,4.000000,4.000000,4.000000,4.000000,100.000000,,,,,,,,,,,,,,,,,27.000000,0.000000,0.675643,0.225525,-0.653015,0.257324,0.987914,-0.027835,0.057136,-15.662520,-41.365166,65.459015
1703415898.802222,1703415898.802366,109.000000,0.000000,4205.512695,4219.743652,4281.153809,4269.871582,4218.205078,4203.333496,4234.102539,4217.820313,4214.358887,4184.102539,4536.410156,4459.102539,4360.128418,4480.128418,7331.000000,2.000000,52.000000,,,,0.000000,4.000000,4.000000,4.000000,4.000000,4.000000,4.000000,4.000000,4.000000,4.000000,4.000000,4.000000,4.000000,4.000000,4.000000,100.000000,,,,,,,,,,,,,,,,,,,,,,,,,,,,
1703415898.810030,1703415898.810174,110.000000,0.000000,4201.410156,4217.307617,4276.666504,4276.794922,4216.282227,4200.641113,4233.589844,4213.077148,4204.102539,4182.692383,4522.307617,4450.128418,4357.820313,4475.256348,5910.000000,2.000000,52.000000,,,,0.000000,4.000000,4.000000,4.000000,4.000000,4.000000,4.000000,4.000000,4.000000,4.000000,4.000000,4.000000,4.000000,4.000000,4.000000,100.000000,,,,,,,,,,,,,,,,,,,,,,,,,,,,
1703415898.817838,1703415898.817882,111.000000,0.000000,4202.948730,4218.846191,4277.563965,4268.846191,4208.846191,4201.410156,4234.487305,4208.846191,4194.871582,4187.692383,4523.589844,4453.461426,4355.769043,4475.256348,6242.000000,2.000000,52.000000,,,,0.000000,4.000000,4.000000,4.000000,4.000000,4.000000,4.000000,4.000000,4.000000,4.000000,4.000000,4.000000,4.000000,4.000000,4.000000,100.000000,,,,,,,,,,,,,,,,,,,,,,,,,,,,
1703415898.825646,1703415898.825690,112.000000,0.000000,4211.922852,4228.333496,4286.153809,4271.538574,4218.205078,4203.589844,4235.512695,4212.307617,4205.128418,4188.077148,4537.692383,4460.512695,4359.487305,4483.461426,6775.000000,2.000000,52.000000,,,,0.000000,4.000000,4.000000,4.000000,4.000000,4.000000,4.000000,4.000000,4.000000,4.000000,4.000000,4.000000,4.000000,4.000000,4.000000,100.000000,,,,,,,,,,,,,,,,,28.000000,0.000000,0.675710,0.225464,-0.653015,0.257202,0.996215,-0.029789,0.053229,-15.662935,-41.461983,65.529778
1703415898.833454,1703415898.833398,113.000000,0.000000,4216.410156,4228.974121,4292.179688,4281.666504,4217.051270,4203.717773,4239.358887,4218.846191,4218.333496,4182.307617,4536.025879,4461.538574,4357.436035,4483.717773,7331.000000,2.000000,52.000000,,,,0.000000,4.000000,4.000000,4.000000,4.000000,4.000000,4.000000,4.000000,4.000000,4.000000,4.000000,4.000000,4.000000,4.000000,4.000000,100.000000,,,,,,,,,,,,,,,,,,,,,,,,,,,,
1703415898.841262,1703415898.841306,114.000000,0.000000,4207.820313,4220.897461,4285.000000,4268.461426,4199.230957,4201.666504,4244.230957,4218.333496,4216.538574,4185.897461,4533.717773,4459.871582,4358.846191,4477.307617,5910.000000,2.000000,52.000000,,,,0.000000,4.000000,4.000000,4.000000,4.000000,4.000000,4.000000,4.000000,4.000000,4.000000,4.000000,4.000000,4.000000,4.000000,4.000000,100.000000,,,,,,,,,,,,,,,,,,,,,,,,,,,,
1703415898.849070,1703415898.849114,115.000000,0.000000,4200.256348,4214.743652,4275.512695,4256.794922,4200.769043,4198.974121,4244.358887,4217.307617,4213.717773,4191.025879,4539.487305,4453.589844,4361.794922,4474.871582,6242.000000,2.000000,52.000000,,,,0.000000,4.000000,4.000000,4.000000,4.000000,4.000000,4.000000,4.000000,4.000000,4.000000,4.000000,4.000000,4.000000,4.000000,4.000000,100.000000,,,,,,,,,,,,,,,,,,,,,,,,,,,,
1703415898.856878,1703415898.857022,116.000000,0.000000,4203.205078,4218.974121,4277.948730,4274.102539,4217.563965,4198.974121,4243.077148,4225.769043,4218.846191,4186.922852,4537.820313,4451.538574,4357.307617,4473.589844,6775.000000,2.000000,52.000000,,,,0.000000,4.000000,4.000000,4.000000,4.000000,4.000000,4.000000,4.000000,4.000000,4.000000,4.000000,4.000000,4.000000,4.000000,4.000000,100.000000,,,,,,,,,,,,,,,,,29.000000,0.000000,0.675707,0.225403,-0.653015,0.257263,0.994262,-0.038579,0.056159,-15.713308,-41.499119,65.510132
1703415898.864686,1703415898.864830,117.000000,0.000000,4201.666504,4221.153809,4283.717773,4275.897461,4219.487305,4201.666504,4245.128418,4233.077148,4220.769043,4186.538574,4533.205078,4458.077148,4357.563965,4472.692383,7331.000000,2.000000,52.000000,,,,0.000000,4.000000,4.000000,4.000000,4.000000,4.000000,4.000000,4.000000,4.000000,4.000000,4.000000,4.000000,4.000000,4.000000,4.000000,100.000000,,,,,,,,,,,,,,,,,,,,,,,,,,,,
1703415898.872494,1703415898.872738,118.000000,0.000000,4198.589844,4214.230957,4285.384766,4262.051270,4211.025879,4201.153809,4245.641113,4231.922852,4225.000000,4192.948730,4534.871582,4461.922852,4366.282227,4474.871582,5910.000000,2.000000,52.000000,,,,0.000000,4.000000,4.000000,4.000000,4.000000,4.000000,4.000000,4.000000,4.000000,4.000000,4.000000,4.000000,4.000000,4.000000,4.000000,100.000000,,,,,,,,,,,,,,,,,,,,,,,,,,,,
1703415898.880302,1703415898.880546,119.000000,0.000000,4201.666504,4218.333496,4287.820313,4273.077148,4213.077148,4198.717773,4245.000000,4230.897461,4231.666504,4200.512695,4538.205078,4463.974121,4369.487305,4477.051270,6242.000000,2.000000,52.000000,,,,0.000000,4.000000,4.000000,4.000000,4.000000,4.000000,4.000000,4.000000,4.000000,4.000000,4.000000,4.000000,4.000000,4.000000,4.000000,100.000000,,,,,,,,,,,,,,,,,,,,,,,,,,,,
1703415898.888110,1703415898.888454,120.000000,0.000000,4204.230957,4229.230957,4293.589844,4282.307617,4220.128418,4202.051270,4245.641113,4232.563965,4225.512695,4203.205078,4541.153809,4465.256348,4361.282227,4477.692383,6775.000000,2.000000,52.000000,,,,0.000000,4.000000,4.000000,4.000000,4.000000,4.000000,4.000000,4.000000,4.000000,4.000000,4.000000,4.000000,4.000000,4.000000,4.000000,100.000000,,,,,,,,,,,,,,,,,30.000000,0.000000,0.675763,0.225342,-0.652954,0.257324,0.995239,-0.038091,0.054206,-15.658645,-41.365871,65.459122
1703415898.895918,1703415898.896262,121.000000,0.000000,4204.615234,4225.384766,4297.179688,4269.358887,4213.205078,4204.230957,4246.282227,4231.025879,4216.282227,4192.179688,4541.153809,4461.538574,4356.025879,4477.820313,7331.000000,2.000000,52.000000,,,,0.000000,4.000000,4.000000,4.000000,4.000000,4.000000,4.000000,4.000000,4.000000,4.000000,4.000000,4.000000,4.000000,4.000000,4.000000,100.000000,,,,,,,,,,,,,,,,,,,,,,,,,,,,
1703415898.903726,1703415898.903970,122.000000,0.000000,4201.153809,4215.256348,4287.692383,4261.538574,4201.025879,4202.051270,4245.769043,4230.769043,4222.563965,4184.102539,4537.563965,4456.666504,4356.153809,4472.948730,5910.000000,2.000000,52.000000,,,,0.000000,4.000000,4.000000,4.000000,4.000000,4.000000,4.000000,4.000000,4.000000,4.000000,4.000000,4.000000,4.000000,4.000000,4.000000,100.000000,,,,,,,,,,,,,,,,,,,,,,,,,,,,
1703415898.911534,1703415898.911778,123.000000,0.000000,4204.102539,4221.025879,4279.615234,4271.922852,4208.333496,4209.487305,4246.025879,4233.846191,4231.282227,4197.563965,4537.563965,4455.897461,4358.333496,4471.922852,6242.000000,2.000000,52.000000,,,,0.000000,4.000000,4.000000,4.000000,4.000000,4.000000,4.000000,4.000000,4.000000,4.000000,4.000000,4.000000,4.000000,4.000000,4.000000,100.000000,,,,,,,,,,,,,,,,,,,,,,,,,,,,
1703415898.919343,1703415898.919486,124.000000,0.000000,4212.948730,4230.128418,4285.769043,4279.102539,4221.538574,4221.538574,4248.205078,4236.153809,4232.563965,4199.487305,4539.487305,4459.230957,4362.948730,4480.769043,6775.000000,2.000000,52.000000,,,,0.000000,4.000000,4.000000,4.000000,4.000000,4.000000,4.000000,4.000000,4.000000,4.000000,4.000000,4.000000,4.000000,4.000000,4.000000,100.000000,,,,,,,,,,,,,,,,,31.000000,0.000000,0.675876,0.225220,-0.652832,0.257446,0.992309,-0.038091,0.051276,-15.576114,-41.545952,65.529877
1703415898.927151,1703415898.927294,125.000000,0.000000,4214.615234,4229.102539,4294.487305,4280.256348,4217.563965,4220.769043,4248.333496,4234.487305,4231.538574,4187.051270,4540.897461,4468.333496,4365.512695,4489.487305,7331.000000,2.000000,52.000000,,,,0.000000,4.000000,4.000000,4.000000,4.000000,4.000000,4.000000,4.000000,4.000000,4.000000,4.000000,4.000000,4.000000,4.000000,4.000000,100.000000,,,,,,,,,,,,,,,,,,,,,,,,,,,,
1703415898.934959,1703415898.935002,126.000000,0.000000,4213.589844,4226.922852,4297.051270,4277.563965,4214.102539,4216.153809,4248.461426,4224.615234,4223.077148,4193.717773,4543.077148,4468.333496,4360.641113,4488.589844,5910.000000,2.000000,52.000000,,,,0.000000,4.000000,4.000000,4.000000,4.000000,4.000000,4.000000,4.000000,4.000000,4.000000,4.000000,4.000000,4.000000,4.000000,4.000000,100.000000,,,,,,,,,,,,,,,,,,,,,,,,,,,,
1703415898.942767,1703415898.942910,127.000000,0.000000,4207.307617,4219.230957,4287.436035,4267.820313,4214.230957,4216.153809,4248.717773,4214.871582,4214.230957,4199.487305,4540.897461,4450.128418,4353.077148,4479.358887,52.000000,2.000000,52.000000,,,,0.000000,4.000000,4.000000,4.000000,4.000000,4.000000,4.000000,4.000000,4.000000,4.000000,4.000000,4.000000,4.000000,4.000000,4.000000,100.000000,,,,,,,,,,,,,,,,,,,,,,,,,,,,
1703415898.950575,1703415898.950718,0.000000,0.000000,4197.563965,4211.025879,4276.282227,4261.410156,4209.102539,4213.461426,4245.384766,4216.666504,4214.358887,4180.641113,4533.077148,4443.717773,4350.384766,4471.922852,5516.000000,2.000000,52.000000,,,,0.000000,4.000000,4.000000,4.000000,4.000000,4.000000,4.000000,4.000000,4.000000,4.000000,4.000000,4.000000,4.000000,4.000000,4.000000,100.000000,,,,,,,,,,,,,,,,,0.000000,0.000000,0.675793,0.225220,-0.652893,0.257507,0.999145,-0.033696,0.056159,-15.635169,-41.491356,65.560219
1703415898.958383,1703415898.958527,1.000000,0.000000,4208.589844,4222.692383,4287.436035,4263.589844,4214.230957,4214.615234,4245.641113,4225.769043,4219.230957,4180.256348,4535.000000,4458.589844,4356.282227,4481.922852,5477.000000,2.000000,52.000000,,,,0.000000,4.000000,4.000000,4.000000,4.000000,4.000000,4.000000,4.000000,4.000000,4.000000,4.000000,4.000000,4.000000,4.000000,4.000000,100.000000,,,,,,,,,,,,,,,,,,,,,,,,,,,,
1703415898.966191,1703415898.966235,2.000000,0.000000,4218.717773,4231.538574,4297.436035,4265.641113,4218.077148,4219.358887,4250.769043,4232.563965,4228.717773,4202.692383,4541.794922,4471.538574,4366.282227,4500.897461,5360.000000,2.000000,52.000000,,,,0.000000,4.000000,4.000000,4.000000,4.000000,4.000000,4.000000,4.000000,4.000000,4.000000,4.000000,4.000000,4.000000,4.000000,4.000000,100.000000,,,,,,,,,,,,,,,,,,,,,,,,,,,,
1703415898.973999,1703415898.974043,3.000000,0.000000,4204.743652,4220.769043,4284.230957,4263.077148,4205.641113,4216.666504,4249.487305,4232.563965,4232.820313,4201.282227,4536.153809,4466.025879,4361.153809,4500.000000,5310.000000,2.000000,52.000000,,,,0.000000,4.000000,4.000000,4.000000,4.000000,4.000000,4.000000,4.000000,4.000000,4.000000,4.000000,4.000000,4.000000,4.000000,4.000000,100.000000,,,,,,,,,,,,,,,,,,,,,,,,,,,,
1703415898.981807,1703415898.981751,4.000000,0.000000,4200.128418,4210.384766,4280.000000,4258.589844,4196.025879,4213.589844,4243.846191,4228.717773,4224.615234,4182.692383,4529.358887,4454.487305,4350.384766,4486.538574,5245.000000,2.000000,52.000000,,,,0.000000,4.000000,4.000000,4.000000,4.000000,4.000000,4.000000,4.000000,4.000000,4.000000,4.000000,4.000000,4.000000,4.000000,4.000000,100.000000,,,,,,,,,,,,,,,,,1.000000,0.000000,0.675691,0.225281,-0.652954,0.257568,0.980588,-0.027347,0.042974,-15.521651,-41.508888,65.554199
1703415898.989615,1703415898.989659,5.000000,0.000000,4214.615234,4212.948730,4292.436035,4257.563965,4201.538574,4216.282227,4243.974121,4227.820313,4215.384766,4177.563965,4531.794922,4457.820313,4353.974121,4491.282227,4848.000000,2.000000,52.000000,,,,0.000000,4.000000,4.000000,4.000000,4.000000,4.000000,4.000000,4.000000,4.000000,4.000000,4.000000,4.000000,4.000000,4.000000,4.000000,100.000000,,,,,,,,,,,,,,,,,,,,,,,,,,,,
1703415898.997423,1703415898.997467,6.000000,0.000000,4231.666504,4225.000000,4297.179688,4267.563965,4212.307617,4221.153809,4247.948730,4230.641113,4218.205078,4192.820313,4544.615234,4472.179688,4369.358887,4513.077148,3732.000000,2.000000,52.000000,,,,0.000000,4.000000,4.000000,4.000000,4.000000,4.000000,4.000000,4.000000,4.000000,4.000000,4.000000,4.000000,4.000000,4.000000,4.000000,100.000000,,,,,,,,,,,,,,,,,,,,,,,,,,,,
1703415899.005231,1703415899.005375,7.000000,0.000000,4245.256348,4233.461426,4294.487305,4278.077148,4216.025879,4222.820313,4248.461426,4232.948730,4228.589844,4208.205078,4559.358887,4478.717773,4382.307617,4525.000000,5253.000000,2.000000,52.000000,,,,0.000000,4.000000,4.000000,4.000000,4.000000,4.000000,4.000000,4.000000,4.000000,4.000000,4.000000,4.000000,4.000000,4.000000,4.000000,100.000000,,,,,,,,,,,,,,,,,,,,,,,,,,,,
1703415899.013039,1703415899.013183,8.000000,0.000000,4251.794922,4228.717773,4296.153809,4276.025879,4211.153809,4216.282227,4243.589844,4232.436035,4230.641113,4195.897461,4554.358887,4472.307617,4376.025879,4521.922852,5370.000000,2.000000,52.000000,,,,0.000000,4.000000,4.000000,4.000000,4.000000,4.000000,4.000000,4.000000,4.000000,4.000000,4.000000,4.000000,4.000000,4.000000,4.000000,100.000000,,,,,,,,,,,,,,,,,2.000000,0.000000,0.675665,0.225220,-0.652954,0.257690,0.990355,-0.032230,0.049811,-15.402820,-41.507999,65.532112
1703415899.020847,1703415899.021092,9.000000,0.000000,4259.615234,4227.948730,4304.230957,4277.692383,4213.717773,4216.410156,4242.692383,4239.615234,4227.436035,4186.538574,4553.846191,4478.589844,4374.871582,4529.743652,5303.000000,2.000000,52.000000,,,,0.000000,4.000000,4.000000,4.000000,4.000000,4.000000,4.000000,4.000000,4.000000,4.000000,4.000000,4.000000,4.000000,4.000000,4.000000,100.000000,,,,,,,,,,,,,,,,,,,,,,,,,,,,
1703415899.028655,1703415899.028900,10.000000,0.000000,4267.179688,4238.333496,4312.051270,4282.436035,4215.769043,4226.538574,4247.948730,4253.205078,4234.230957,4206.153809,4570.512695,4500.897461,4393.333496,4543.717773,5885.000000,2.000000,52.000000,,,,0.000000,4.000000,4.000000,4.000000,4.000000,4.000000,4.000000,4.000000,4.000000,4.000000,4.000000,4.000000,4.000000,4.000000,4.000000,100.000000,,,,,,,,,,,,,,,,,,,,,,,,,,,,
1703415899.036463,1703415899.036808,11.000000,0.000000,4258.974121,4232.563965,4314.358887,4272.051270,4205.769043,4223.205078,4248.717773,4248.205078,4235.897461,4213.589844,4564.230957,4504.358887,4390.128418,4535.641113,6240.000000,2.000000,52.000000,,,,0.000000,4.000000,4.000000,4.000000,4.000000,4.000000,4.000000,4.000000,4.000000,4.000000,4.000000,4.000000,4.000000,4.000000,4.000000,100.000000,,,,,,,,,,,,,,,,,,,,,,,,,,,,
1703415899.044271,1703415899.044616,12.000000,0.000000,4241.794922,4216.666504,4307.051270,4259.102539,4206.666504,4212.692383,4245.256348,4232.948730,4223.077148,4189.102539,4546.153809,4483.717773,4363.205078,4520.128418,6765.000000,2.000000,52.000000,,,,0.000000,4.000000,4.000000,4.000000,4.000000,4.000000,4.000000,4.000000,4.000000,4.000000,4.000000,4.000000,4.000000,4.000000,4.000000,100.000000,,,,,,,,,,,,,,,,,3.000000,0.000000,0.675774,0.225037,-0.652832,0.257874,0.987914,-0.033207,0.048346,-15.362538,-41.523865,65.578903
1703415899.052079,1703415899.052523,13.000000,0.000000,4238.589844,4217.563965,4302.436035,4265.769043,4220.000000,4214.230957,4247.307617,4230.641113,4217.692383,4182.563965,4551.153809,4473.333496,4356.922852,4517.436035,7311.000000,2.000000,52.000000,,,,0.000000,4.000000,4.000000,4.000000,4.000000,4.000000,4.000000,4.000000,4.000000,4.000000,4.000000,4.000000,4.000000,4.000000,4.000000,100.000000,,,,,,,,,,,,,,,,,,,,,,,,,,,,
1703415899.059888,1703415899.060331,14.000000,0.000000,4232.563965,4218.589844,4302.948730,4267.051270,4216.666504,4220.256348,4249.358887,4233.077148,4220.769043,4190.512695,4548.846191,4477.948730,4362.948730,4511.666504,5885.000000,2.000000,52.000000,,,,0.000000,4.000000,4.000000,4.000000,4.000000,4.000000,4.000000,4.000000,4.000000,4.000000,4.000000,4.000000,4.000000,4.000000,4.000000,100.000000,,,,,,,,,,,,,,,,,,,,,,,,,,,,
1703415899.067696,1703415899.068239,15.000000,0.000000,4218.717773,4209.871582,4301.282227,4251.410156,4207.307617,4224.743652,4246.025879,4229.615234,4220.512695,4183.461426,4536.410156,4477.051270,4361.282227,4501.794922,6240.000000,2.000000,52.000000,,,,0.000000,4.000000,4.000000,4.000000,4.000000,4.000000,4.000000,4.000000,4.000000,4.000000,4.000000,4.000000,4.000000,4.000000,4.000000,100.000000,,,,,,,,,,,,,,,,,,,,,,,,,,,,
1703415899.075503,1703415899.076047,16.000000,0.000000,4221.538574,4215.256348,4296.794922,4256.666504,4213.333496,4231.666504,4246.538574,4232.307617,4218.589844,4188.461426,4543.846191,4476.153809,4366.282227,4502.692383,0.000000,2.000000,52.000000,,,,0.000000,4.000000,4.000000,4.000000,4.000000,4.000000,4.000000,4.000000,4.000000,4.000000,4.000000,4.000000,4.000000,4.000000,4.000000,100.000000,,,,,,,,,,,,,,,,,4.000000,0.000000,0.675765,0.224854,-0.652832,0.258057,0.998169,-0.031742,0.044927,-15.376284,-41.538147,65.621010
1703415899.083312,1703415899.083755,17.000000,0.000000,4234.487305,4226.025879,4295.256348,4272.307617,4221.922852,4232.179688,4249.871582,4239.230957,4218.589844,4201.153809,4548.974121,4480.384766,4366.410156,4508.077148,0.000000,2.000000,52.000000,,,,0.000000,4.000000,4.000000,4.000000,4.000000,4.000000,4.000000,4.000000,4.000000,4.000000,4.000000,4.000000,4.000000,4.000000,4.000000,100.000000,,,,,,,,,,,,,,,,,,,,,,,,,,,,
1703415899.091120,1703415899.091563,18.000000,0.000000,4229.487305,4220.641113,4293.589844,4267.563965,4215.256348,4229.358887,4249.358887,4238.077148,4221.282227,4191.666504,4545.384766,4476.922852,4362.820313,4503.333496,0.000000,2.000000,52.000000,,,,0.000000,4.000000,4.000000,4.000000,4.000000,4.000000,4.000000,4.000000,4.000000,4.000000,4.000000,4.000000,4.000000,4.000000,4.000000,100.000000,,,,,,,,,,,,,,,,,,,,,,,,,,,,
1703415899.098928,1703415899.099271,19.000000,0.000000,4221.538574,4216.025879,4292.179688,4258.846191,4204.871582,4233.077148,4247.820313,4231.538574,4220.641113,4180.128418,4553.461426,4466.922852,4365.641113,4493.717773,0.000000,2.000000,52.000000,,,,0.000000,4.000000,4.000000,4.000000,4.000000,4.000000,4.000000,4.000000,4.000000,4.000000,4.000000,4.000000,4.000000,4.000000,4.000000,100.000000,,,,,,,,,,,,,,,,,,,,,,,,,,,,
1703415899.106736,1703415899.107179,20.000000,0.000000,4228.461426,4221.153809,4289.743652,4253.846191,4209.358887,4235.128418,4249.358887,4230.512695,4217.820313,4183.846191,4555.641113,4463.461426,4363.077148,4492.692383,0.000000,2.000000,52.000000,,,,0.000000,4.000000,4.000000,4.000000,4.000000,4.000000,4.000000,4.000000,4.000000,4.000000,4.000000,4.000000,4.000000,4.000000,4.000000,100.000000,1.000000,91.666664,4.000000,4.000000,4.000000,4.000000,4.000000,3.000000,4.000000,4.000000,4.000000,4.000000,4.000000,4.000000,4.000000,4.000000,5.000000,0.000000,0.675594,0.224731,-0.652954,0.258301,0.990355,-0.029789,0.050787,-15.421989,-41.500999,65.692245
1703415899.114544,1703415899.114988,21.000000,0.000000,4223.205078,4216.794922,4281.538574,4246.922852,4218.974121,4233.974121,4249.358887,4226.538574,4213.846191,4179.102539,4537.692383,4461.922852,4351.025879,4487.051270,0.000000,2.000000,52.000000,,,,0.000000,4.000000,4.000000,4.000000,4.000000,4.000000,4.000000,4.000000,4.000000,4.000000,4.000000,4.000000,4.000000,4.000000,4.000000,100.000000,,,,,,,,,,,,,,,,,,,,,,,,,,,,
1703415899.122352,1703415899.122896,22.000000,0.000000,4212.179688,4212.692383,4281.538574,4253.589844,4216.025879,4231.794922,4246.666504,4214.615234,4207.179688,4166.922852,4524.871582,4453.205078,4345.384766,4473.974121,0.000000,2.000000,52.000000,,,,0.000000,4.000000,4.000000,4.000000,4.000000,4.000000,4.000000,4.000000,4.000000,4.000000,4.000000,4.000000,4.000000,4.000000,4.000000,100.000000,,,,,,,,,,,,,,,,,,,,,,,,,,,,
1703415899.130160,1703415899.130704,23.000000,0.000000,4226.666504,4224.615234,4295.384766,4268.461426,4211.153809,4230.384766,4247.179688,4219.871582,4209.358887,4179.230957,4540.512695,4460.384766,4360.384766,4483.589844,0.000000,2.000000,52.000000,,,,0.000000,4.000000,4.000000,4.000000,4.000000,4.000000,4.000000,4.000000,4.000000,4.000000,4.000000,4.000000,4.000000,4.000000,4.000000,100.000000,,,,,,,,,,,,,,,,,,,,,,,,,,,,
1703415899.137968,1703415899.138512,24.000000,0.000000,4231.794922,4227.436035,4299.230957,4261.666504,4215.384766,4230.128418,4248.974121,4233.333496,4216.922852,4196.922852,4547.820313,4477.563965,4370.897461,4497.051270,0.000000,2.000000,52.000000,,,,0.000000,4.000000,4.000000,4.000000,4.000000,4.000000,4.000000,4.000000,4.000000,4.000000,4.000000,4.000000,4.000000,4.000000,4.000000,100.000000,,,,,,,,,,,,,,,,,6.000000,0.000000,0.675709,0.224670,-0.652832,0.258362,1.004517,-0.033696,0.054206,-15.396457,-41.500896,65.706352
1703415899.145776,1703415899.146220,25.000000,0.000000,4216.153809,4217.692383,4291.666504,4258.717773,4218.846191,4229.102539,4248.333496,4229.230957,4214.615234,4195.128418,4536.666504,4475.512695,4360.512695,4490.128418,0.000000,2.000000,52.000000,,,,0.000000,4.000000,4.000000,4.000000,4.000000,4.000000,4.000000,4.000000,4.000000,4.000000,4.000000,4.000000,4.000000,4.000000,4.000000,100.000000,,,,,,,,,,,,,,,,,,,,,,,,,,,,
1703415899.153584,1703415899.154028,26.000000,0.000000,4220.384766,4225.000000,4294.487305,4277.179688,4218.589844,4230.512695,4248.461426,4226.666504,4213.589844,4199.102539,4543.205078,4470.128418,4359.487305,4491.794922,0.000000,2.000000,52.000000,,,,0.000000,4.000000,4.000000,4.000000,4.000000,4.000000,4.000000,4.000000,4.000000,4.000000,4.000000,4.000000,4.000000,4.000000,4.000000,100.000000,,,,,,,,,,,,,,,,,,,,,,,,,,,,
1703415899.161392,1703415899.161736,27.000000,0.000000,4235.128418,4236.794922,4303.846191,4282.436035,4218.333496,4228.974121,4250.128418,4235.769043,4224.487305,4207.179688,4560.897461,4477.051270,4373.333496,4500.128418,0.000000,2.000000,52.000000,,,,0.000000,4.000000,4.000000,4.000000,4.000000,4.000000,4.000000,4.000000,4.000000,4.000000,4.000000,4.000000,4.000000,4.000000,4.000000,100.000000,,,,,,,,,,,,,,,,,,,,,,,,,,,,
1703415899.169200,1703415899.169544,28.000000,0.000000,4226.282227,4222.820313,4301.282227,4267.692383,4212.307617,4220.897461,4248.589844,4237.051270,4230.256348,4193.077148,4560.256348,4482.820313,4376.153809,4495.512695,0.000000,2.000000,52.000000,,,,0.000000,4.000000,4.000000,4.000000,4.000000,4.000000,4.000000,4.000000,4.000000,4.000000,4.000000,4.000000,4.000000,4.000000,4.000000,100.000000,,,,,,,,,,,,,,,,,7.000000,0.000000,0.675959,0.224487,-0.652588,0.258484,1.007447,-0.041509,0.063484,-15.273478,-41.434143,65.602386
1703415899.177008,1703415899.177252,29.000000,0.000000,4212.948730,4209.487305,4292.692383,4260.256348,4207.692383,4214.871582,4247.179688,4227.179688,4217.051270,4182.436035,4546.153809,4474.487305,4362.179688,4487.436035,0.000000,2.000000,52.000000,,,,0.000000,4.000000,4.000000,4.000000,4.000000,4.000000,4.000000,4.000000,4.000000,4.000000,4.000000,4.000000,4.000000,4.000000,4.000000,100.000000,,,,,,,,,,,,,,,,,,,,,,,,,,,,
1703415899.184816,1703415899.185160,30.000000,0.000000,4216.025879,4225.128418,4292.820313,4264.743652,4214.615234,4216.282227,4248.974121,4226.025879,4207.307617,4191.410156,4538.589844,4462.436035,4356.282227,4478.717773,0.000000,2.000000,52.000000,,,,0.000000,4.000000,4.000000,4.000000,4.000000,4.000000,4.000000,4.000000,4.000000,4.000000,4.000000,4.000000,4.000000,4.000000,4.000000,100.000000,,,,,,,,,,,,,,,,,,,,,,,,,,,,
1703415899.192624,1703415899.192969,31.000000,0.000000,4218.589844,4230.000000,4296.410156,4262.307617,4219.487305,4213.717773,4248.333496,4231.025879,4212.948730,4190.128418,4537.692383,4462.179688,4364.230957,4472.179688,0.000000,2.000000,52.000000,,,,0.000000,4.000000,4.000000,4.000000,4.000000,4.000000,4.000000,4.000000,4.000000,4.000000,4.000000,4.000000,4.000000,4.000000,4.000000,100.000000,,,,,,,,,,,,,,,,,,,,,,,,,,,,
1703415899.200432,1703415899.200877,32.000000,0.000000,4216.153809,4217.436035,4292.692383,4262.307617,4217.051270,4204.871582,4245.384766,4227.307617,4212.820313,4180.256348,4535.256348,4463.461426,4362.692383,4473.589844,0.000000,2.000000,52.000000,,,,0.000000,4.000000,4.000000,4.000000,4.000000,4.000000,4.000000,4.000000,4.000000,4.000000,4.000000,4.000000,4.000000,4.000000,4.000000,100.000000,,,,,,,,,,,,,,,,,8.000000,0.000000,0.675905,0.224365,-0.652710,0.258423,0.981565,-0.033696,0.049322,-15.246130,-41.457394,65.592148
1703415899.208240,1703415899.208685,33.000000,0.000000,4214.230957,4218.846191,4291.282227,4267.948730,4217.820313,4202.179688,4246.282227,4222.051270,4205.769043,4186.282227,4532.051270,4459.487305,4355.769043,4475.512695,0.000000,2.000000,52.000000,,,,0.000000,4.000000,4.000000,4.000000,4.000000,4.000000,4.000000,4.000000,4.000000,4.000000,4.000000,4.000000,4.000000,4.000000,4.000000,100.000000,,,,,,,,,,,,,,,,,,,,,,,,,,,,
1703415899.216049,1703415899.216593,34.000000,0.000000,4213.717773,4226.538574,4294.871582,4263.589844,4213.846191,4209.230957,4248.589844,4227.948730,4210.384766,4191.666504,4537.692383,4460.897461,4364.487305,4475.512695,0.000000,2.000000,52.000000,,,,0.000000,4.000000,4.000000,4.000000,4.000000,4.000000,4.000000,4.000000,4.000000,4.000000,4.000000,4.000000,4.000000,4.000000,4.000000,100.000000,,,,,,,,,,,,,,,,,,,,,,,,,,,,
1703415899.223857,1703415899.224401,35.000000,0.000000,4217.436035,4220.512695,4296.794922,4261.922852,4207.563965,4215.000000,4247.051270,4230.128418,4216.153809,4180.641113,4542.820313,4462.948730,4369.102539,4477.179688,0.000000,2.000000,52.000000,,,,0.000000,4.000000,4.000000,4.000000,4.000000,4.000000,4.000000,4.000000,4.000000,4.000000,4.000000,4.000000,4.000000,4.000000,4.000000,100.000000,,,,,,,,,,,,,,,,,,,,,,,,,,,,
1703415899.231665,1703415899.232309,36.000000,0.000000,4220.000000,4216.025879,4295.128418,4273.205078,4213.717773,4211.922852,4245.769043,4221.153809,4212.051270,4177.563965,4537.692383,4462.051270,4359.615234,4478.717773,0.000000,2.000000,52.000000,,,,0.000000,4.000000,4.000000,4.000000,4.000000,4.000000,4.000000,4.000000,4.000000,4.000000,4.000000,4.000000,4.000000,4.000000,4.000000,100.000000,,,,,,,,,,,,,,,,,9.000000,0.000000,0.675969,0.224243,-0.652710,0.258362,0.996215,-0.041021,0.055183,-15.304851,-41.394989,65.382927
1703415899.239473,1703415899.240118,37.000000,0.000000,4215.256348,4220.769043,4292.179688,4276.666504,4219.615234,4202.179688,4246.153809,4215.128418,4211.153809,4184.615234,4532.692383,4463.589844,4360.000000,4475.641113,0.000000,2.000000,52.000000,,,,0.000000,4.000000,4.000000,4.000000,4.000000,4.000000,4.000000,4.000000,4.000000,4.000000,4.000000,4.000000,4.000000,4.000000,4.000000,100.000000,,,,,,,,,,,,,,,,,,,,,,,,,,,,
1703415899.247281,1703415899.248025,38.000000,0.000000,4211.794922,4226.666504,4292.436035,4267.692383,4217.307617,4200.897461,4247.307617,4214.487305,4213.589844,4187.820313,4538.205078,4461.666504,4371.282227,4475.897461,0.000000,2.000000,52.000000,,,,0.000000,4.000000,4.000000,4.000000,4.000000,4.000000,4.000000,4.000000,4.000000,4.000000,4.000000,4.000000,4.000000,4.000000,4.000000,100.000000,,,,,,,,,,,,,,,,,,,,,,,,,,,,
1703415899.255089,1703415899.255833,39.000000,0.000000,4217.051270,4230.641113,4295.641113,4268.205078,4219.743652,4211.282227,4249.102539,4220.897461,4215.512695,4188.333496,4548.461426,4464.871582,4377.307617,4486.794922,0.000000,2.000000,52.000000,,,,0.000000,4.000000,4.000000,4.000000,4.000000,4.000000,4.000000,4.000000,4.000000,4.000000,4.000000,4.000000,4.000000,4.000000,4.000000,100.000000,,,,,,,,,,,,,,,,,,,,,,,,,,,,
1703415899.262897,1703415899.263741,40.000000,0.000000,4220.769043,4224.358887,4297.179688,4276.410156,4221.666504,4213.333496,4249.743652,4228.589844,4218.333496,4188.717773,4545.256348,4475.128418,4373.717773,4490.128418,0.000000,2.000000,52.000000,,,,0.000000,4.000000,4.000000,4.000000,4.000000,4.000000,4.000000,4.000000,4.000000,4.000000,4.000000,4.000000,4.000000,4.000000,4.000000,100.000000,,,,,,,,,,,,,,,,,10.000000,0.000000,0.676025,0.224182,-0.652649,0.258423,0.990355,-0.034672,0.061531,-15.274365,-41.422157,65.394638
1703415899.270705,1703415899.271549,41.000000,0.000000,4215.384766,4219.230957,4294.743652,4277.948730,4217.051270,4209.487305,4249.358887,4228.589844,4217.436035,4193.461426,4539.743652,4471.538574,4369.102539,4484.615234,0.000000,2.000000,52.000000,,,,0.000000,4.000000,4.000000,4.000000,4.000000,4.000000,4.000000,4.000000,4.000000,4.000000,4.000000,4.000000,4.000000,4.000000,4.000000,100.000000,,,,,,,,,,,,,,,,,,,,,,,,,,,,
1703415899.278513,1703415899.279457,42.000000,0.000000,4213.589844,4227.820313,4293.077148,4277.307617,4218.333496,4214.230957,4249.102539,4227.051270,4215.256348,4200.641113,4544.871582,4458.974121,4371.666504,4481.666504,0.000000,2.000000,52.000000,,,,0.000000,4.000000,4.000000,4.000000,4.000000,4.000000,4.000000,4.000000,4.000000,4.000000,4.000000,4.000000,4.000000,4.000000,4.000000,100.000000,,,,,,,,,,,,,,,,,,,,,,,,,,,,
1703415899.286321,1703415899.287265,43.000000,0.000000,4224.615234,4232.307617,4296.153809,4278.974121,4217.179688,4214.615234,4248.846191,4227.820313,4213.333496,4192.563965,4543.077148,4462.436035,4373.974121,4480.769043,0.000000,2.000000,52.000000,,,,0.000000,4.000000,4.000000,4.000000,4.000000,4.000000,4.000000,4.000000,4.000000,4.000000,4.000000,4.000000,4.000000,4.000000,4.000000,100.000000,,,,,,,,,,,,,,,,,,,,,,,,,,,,
1703415899.294129,1703415899.294973,44.000000,0.000000,4233.974121,4229.487305,4297.436035,4281.153809,4213.333496,4205.512695,4248.589844,4231.025879,4217.179688,4181.922852,4541.282227,4476.282227,4374.102539,4486.410156,0.000000,2.000000,52.000000,,,,0.000000,4.000000,4.000000,4.000000,4.000000,4.000000,4.000000,4.000000,4.000000,4.000000,4.000000,4.000000,4.000000,4.000000,4.000000,100.000000,,,,,,,,,,,,,,,,,11.000000,0.000000,0.676076,0.224243,-0.652527,0.258545,0.998169,-0.033696,0.049322,-15.430263,-41.446606,65.371841
1703415899.301937,1703415899.302781,45.000000,0.000000,4228.077148,4229.871582,4294.615234,4280.641113,4215.128418,4201.538574,4247.436035,4233.589844,4220.769043,4193.333496,4552.307617,4477.692383,4380.000000,4491.153809,0.000000,2.000000,52.000000,,,,0.000000,4.000000,4.000000,4.000000,4.000000,4.000000,4.000000,4.000000,4.000000,4.000000,4.000000,4.000000,4.000000,4.000000,4.000000,100.000000,,,,,,,,,,,,,,,,,,,,,,,,,,,,
1703415899.309745,1703415899.310489,46.000000,0.000000,4223.077148,4232.563965,4295.256348,4279.871582,4218.846191,4202.948730,4246.922852,4229.615234,4215.128418,4201.922852,4556.153809,4473.333496,4382.051270,4485.897461,0.000000,2.000000,52.000000,,,,0.000000,4.000000,4.000000,4.000000,4.000000,4.000000,4.000000,4.000000,4.000000,4.000000,4.000000,4.000000,4.000000,4.000000,4.000000,100.000000,,,,,,,,,,,,,,,,,,,,,,,,,,,,
1703415899.317553,1703415899.318297,47.000000,0.000000,4231.666504,4235.000000,4305.384766,4282.307617,4226.922852,4201.282227,4249.487305,4227.051270,4212.692383,4188.333496,4550.256348,4475.384766,4375.769043,4486.282227,0.000000,2.000000,52.000000,,,,0.000000,4.000000,4.000000,4.000000,4.000000,4.000000,4.000000,4.000000,4.000000,4.000000,4.000000,4.000000,4.000000,4.000000,4.000000,100.000000,,,,,,,,,,,,,,,,,,,,,,,,,,,,
1703415899.325361,1703415899.326005,48.000000,0.000000,4237.563965,4233.974121,4310.897461,4282.307617,4230.769043,4205.256348,4251.922852,4229.102539,4214.615234,4180.512695,4545.512695,4475.769043,4368.077148,4490.256348,0.000000,2.000000,52.000000,,,,0.000000,4.000000,4.000000,4.000000,4.000000,4.000000,4.000000,4.000000,4.000000,4.000000,4.000000,4.000000,4.000000,4.000000,4.000000,100.000000,,,,,,,,,,,,,,,,,12.000000,0.000000,0.675990,0.224182,-0.652588,0.258667,0.995727,-0.035161,0.066414,-15.603903,-41.551945,65.434654
1703415899.333169,1703415899.333813,49.000000,0.000000,4232.307617,4227.051270,4303.461426,4282.179688,4222.436035,4212.051270,4251.153809,4228.589844,4213.461426,4193.461426,4541.538574,4475.128418,4370.000000,4485.769043,0.000000,2.000000,52.000000,,,,0.000000,4.000000,4.000000,4.000000,4.000000,4.000000,4.000000,4.000000,4.000000,4.000000,4.000000,4.000000,4.000000,4.000000,4.000000,100.000000,,,,,,,,,,,,,,,,,,,,,,,,,,,,
1703415899.340977,1703415899.341521,50.000000,0.000000,4229.487305,4225.256348,4295.512695,4286.538574,4216.282227,4209.615234,4250.256348,4228.974121,4212.179688,4199.615234,4542.307617,4473.333496,4375.000000,4482.692383,0.000000,2.000000,52.000000,,,,0.000000,4.000000,4.000000,4.000000,4.000000,4.000000,4.000000,4.000000,4.000000,4.000000,4.000000,4.000000,4.000000,4.000000,4.000000,100.000000,,,,,,,,,,,,,,,,,,,,,,,,,,,,
1703415899.348785,1703415899.349329,51.000000,0.000000,4229.358887,4229.615234,4292.436035,4281.538574,4218.846191,4203.589844,4249.358887,4231.410156,4213.717773,4188.846191,4544.230957,4466.666504,4371.025879,4481.794922,0.000000,2.000000,52.000000,,,,0.000000,4.000000,4.000000,4.000000,4.000000,4.000000,4.000000,4.000000,4.000000,4.000000,4.000000,4.000000,4.000000,4.000000,4.000000,100.000000,,,,,,,,,,,,,,,,,,,,,,,,,,,,
1703415899.356593,1703415899.357037,52.000000,0.000000,4228.717773,4230.256348,4295.128418,4280.256348,4218.717773,4197.820313,4247.179688,4231.410156,4214.358887,4185.512695,4542.051270,4474.487305,4367.820313,4478.077148,0.000000,2.000000,52.000000,,,,0.000000,4.000000,4.000000,4.000000,4.000000,4.000000,4.000000,4.000000,4.000000,4.000000,4.000000,4.000000,4.000000,4.000000,4.000000,100.000000,,,,,,,,,,,,,,,,,13.000000,0.000000,0.675841,0.224243,-0.652649,0.258850,0.990844,-0.024905,0.058113,-15.526846,-41.580086,65.424522
1703415899.364401,1703415899.364845,53.000000,0.000000,4235.256348,4233.077148,4305.384766,4300.384766,4223.333496,4189.487305,4246.025879,4232.307617,4215.128418,4191.794922,4544.102539,4490.512695,4371.282227,4485.128418,0.000000,2.000000,52.000000,,,,0.000000,4.000000,4.000000,4.000000,4.000000,4.000000,4.000000,4.000000,4.000000,4.000000,4.000000,4.000000,4.000000,4.000000,4.000000,100.000000,,,,,,,,,,,,,,,,,,,,,,,,,,,,
1703415899.372209,1703415899.372553,54.000000,0.000000,4235.769043,4236.922852,4308.205078,4306.538574,4230.512695,4187.051270,4243.589844,4233.846191,4216.794922,4189.743652,4549.230957,4483.205078,4371.025879,4491.025879,0.000000,2.000000,52.000000,,,,0.000000,4.000000,4.000000,4.000000,4.000000,4.000000,4.000000,4.000000,4.000000,4.000000,4.000000,4.000000,4.000000,4.000000,4.000000,100.000000,,,,,,,,,,,,,,,,,,,,,,,,,,,,
1703415899.380018,1703415899.380462,55.000000,0.000000,4230.128418,4230.897461,4303.333496,4296.282227,4227.820313,4194.743652,4237.692383,4232.820313,4211.153809,4183.333496,4548.333496,4473.077148,4367.948730,4485.641113,0.000000,2.000000,52.000000,,,,0.000000,4.000000,4.000000,4.000000,4.000000,4.000000,4.000000,4.000000,4.000000,4.000000,4.000000,4.000000,4.000000,4.000000,4.000000,100.000000,,,,,,,,,,,,,,,,,,,,,,,,,,,,
1703415899.387826,1703415899.388270,56.000000,0.000000,4238.717773,4231.538574,4308.974121,4301.922852,4230.128418,4197.307617,4234.871582,4231.410156,4204.487305,4186.666504,4545.512695,4479.230957,4368.846191,4488.077148,0.000000,2.000000,52.000000,,,,0.000000,4.000000,4.000000,4.000000,4.000000,4.000000,4.000000,4.000000,4.000000,4.000000,4.000000,4.000000,4.000000,4.000000,4.000000,100.000000,,,,,,,,,,,,,,,,,14.000000,0.000000,0.675631,0.224487,-0.652710,0.259033,0.980100,-0.039556,0.039067,-15.540828,-41.572075,65.382072
1703415899.395634,1703415899.396178,57.000000,0.000000,4244.487305,4236.794922,4309.230957,4303.333496,4228.974121,4189.102539,4233.205078,4230.897461,4209.230957,4187.436035,4542.051270,4480.000000,4369.230957,4493.205078,0.000000,2.000000,52.000000,,,,0.000000,4.000000,4.000000,4.000000,4.000000,4.000000,4.000000,4.000000,4.000000,4.000000,4.000000,4.000000,4.000000,4.000000,4.000000,100.000000,,,,,,,,,,,,,,,,,,,,,,,,,,,,
1703415899.403442,1703415899.403986,58.000000,0.000000,4234.743652,4230.512695,4295.769043,4291.282227,4223.589844,4189.487305,4230.769043,4230.000000,4216.794922,4183.717773,4535.128418,4469.615234,4365.641113,4482.051270,0.000000,2.000000,52.000000,,,,0.000000,4.000000,4.000000,4.000000,4.000000,4.000000,4.000000,4.000000,4.000000,4.000000,4.000000,4.000000,4.000000,4.000000,4.000000,100.000000,,,,,,,,,,,,,,,,,,,,,,,,,,,,
1703415899.411250,1703415899.411894,59.000000,0.000000,4242.948730,4235.128418,4299.102539,4294.615234,4231.282227,4200.256348,4239.230957,4231.922852,4217.436035,4194.230957,4538.461426,4469.487305,4371.794922,4481.922852,0.000000,2.000000,52.000000,,,,0.000000,4.000000,4.000000,4.000000,4.000000,4.000000,4.000000,4.000000,4.000000,4.000000,4.000000,4.000000,4.000000,4.000000,4.000000,100.000000,,,,,,,,,,,,,,,,,,,,,,,,,,,,
1703415899.419058,1703415899.419702,60.000000,0.000000,4275.000000,4249.871582,4317.820313,4308.205078,4228.717773,4204.358887,4245.641113,4235.897461,4216.794922,4202.948730,4555.897461,4484.102539,4387.563965,4508.974121,0.000000,2.000000,52.000000,,,,0.000000,4.000000,4.000000,4.000000,4.000000,4.000000,4.000000,4.000000,4.000000,4.000000,4.000000,4.000000,4.000000,4.000000,4.000000,100.000000,,,,,,,,,,,,,,,,,15.000000,0.000000,0.675488,0.224670,-0.652649,0.259399,0.989867,-0.056648,0.053717,-15.470078,-41.598202,65.460533
1703415899.426866,1703415899.427610,61.000000,0.000000,4305.000000,4252.820313,4325.512695,4315.512695,4213.077148,4200.256348,4236.794922,4230.512695,4212.179688,4191.153809,4559.230957,4493.077148,4394.871582,4527.948730,0.000000,2.000000,52.000000,,,,0.000000,4.000000,4.000000,4.000000,4.000000,4.000000,4.000000,4.000000,4.000000,4.000000,4.000000,4.000000,4.000000,4.000000,4.000000,100.000000,,,,,,,,,,,,,,,,,,,,,,,,,,,,
1703415899.434674,1703415899.435419,62.000000,0.000000,4330.897461,4258.205078,4324.102539,4319.230957,4220.384766,4198.205078,4230.512695,4218.589844,4201.282227,4186.794922,4549.743652,4491.153809,4391.153809,4535.897461,0.000000,2.000000,52.000000,,,,0.000000,4.000000,4.000000,4.000000,4.000000,4.000000,4.000000,4.000000,4.000000,4.000000,4.000000,4.000000,4.000000,4.000000,4.000000,100.000000,,,,,,,,,,,,,,,,,,,,,,,,,,,,
1703415899.442482,1703415899.443327,63.000000,0.000000,4354.487305,4270.769043,4330.769043,4314.871582,4230.641113,4200.128418,4235.384766,4216.922852,4199.871582,4204.230957,4561.025879,4497.051270,4400.769043,4555.641113,0.000000,2.000000,52.000000,,,,0.000000,4.000000,4.000000,4.000000,4.000000,4.000000,4.000000,4.000000,4.000000,4.000000,4.000000,4.000000,4.000000,4.000000,4.000000,100.000000,,,,,,,,,,,,,,,,,,,,,,,,,,,,
1703415899.450290,1703415899.451134,64.000000,0.000000,4360.897461,4267.820313,4335.384766,4305.512695,4216.666504,4199.230957,4234.358887,4220.897461,4201.282227,4206.538574,4571.410156,4506.794922,4414.358887,4563.077148,5522.000000,2.000000,52.000000,,,,0.000000,4.000000,4.000000,4.000000,4.000000,4.000000,4.000000,4.000000,4.000000,4.000000,4.000000,4.000000,4.000000,4.000000,4.000000,100.000000,,,,,,,,,,,,,,,,,16.000000,0.000000,0.675519,0.224792,-0.652527,0.259521,0.983518,-0.055183,0.051276,-15.473070,-41.605049,65.514481
1703415899.458098,1703415899.459042,65.000000,0.000000,4357.051270,4267.436035,4333.333496,4312.179688,4218.205078,4198.461426,4232.179688,4219.487305,4201.153809,4200.384766,4568.846191,4508.461426,4415.769043,4556.025879,5469.000000,2.000000,52.000000,,,,0.000000,4.000000,4.000000,4.000000,4.000000,4.000000,4.000000,4.000000,4.000000,4.000000,4.000000,4.000000,4.000000,4.000000,4.000000,100.000000,,,,,,,,,,,,,,,,,,,,,,,,,,,,
1703415899.465906,1703415899.466850,66.000000,0.000000,4356.153809,4280.256348,4336.922852,4323.846191,4237.820313,4200.897461,4234.358887,4217.179688,4204.230957,4208.205078,4572.820313,4506.410156,4414.102539,4556.666504,5354.000000,2.000000,52.000000,,,,0.000000,4.000000,4.000000,4.000000,4.000000,4.000000,4.000000,4.000000,4.000000,4.000000,4.000000,4.000000,4.000000,4.000000,4.000000,100.000000,,,,,,,,,,,,,,,,,,,,,,,,,,,,
1703415899.473714,1703415899.474558,67.000000,0.000000,4348.974121,4276.025879,4339.615234,4316.153809,4233.333496,4201.153809,4232.948730,4215.128418,4199.358887,4206.666504,4567.692383,4496.410156,4408.205078,4546.666504,5303.000000,2.000000,52.000000,,,,0.000000,4.000000,4.000000,4.000000,4.000000,4.000000,4.000000,4.000000,4.000000,4.000000,4.000000,4.000000,4.000000,4.000000,4.000000,100.000000,,,,,,,,,,,,,,,,,,,,,,,,,,,,
1703415899.481522,1703415899.482366,68.000000,0.000000,4334.102539,4263.717773,4331.025879,4304.358887,4220.384766,4198.974121,4238.077148,4212.563965,4192.948730,4197.307617,4551.922852,4488.077148,4400.641113,4527.179688,5245.000000,2.000000,52.000000,,,,0.000000,4.000000,4.000000,4.000000,4.000000,4.000000,4.000000,4.000000,4.000000,4.000000,4.000000,4.000000,4.000000,4.000000,4.000000,100.000000,,,,,,,,,,,,,,,,,17.000000,0.000000,0.675519,0.224792,-0.652527,0.259521,0.999145,-0.045904,0.056159,-15.675763,-41.594543,65.546364
1703415899.489330,1703415899.490074,69.000000,0.000000,4318.461426,4264.871582,4325.256348,4311.282227,4225.256348,4201.410156,4247.307617,4216.410156,4198.077148,4199.615234,4553.974121,4491.538574,4396.538574,4521.922852,4848.000000,2.000000,52.000000,,,,0.000000,4.000000,4.000000,4.000000,4.000000,4.000000,4.000000,4.000000,4.000000,4.000000,4.000000,4.000000,4.000000,4.000000,4.000000,100.000000,,,,,,,,,,,,,,,,,,,,,,,,,,,,
1703415899.497138,1703415899.497882,70.000000,0.000000,4305.128418,4263.846191,4326.025879,4315.641113,4235.256348,4210.897461,4249.102539,4225.384766,4201.282227,4202.563965,4561.025879,4491.794922,4392.436035,4519.230957,3729.000000,2.000000,52.000000,,,,0.000000,4.000000,4.000000,4.000000,4.000000,4.000000,4.000000,4.000000,4.000000,4.000000,4.000000,4.000000,4.000000,4.000000,4.000000,100.000000,,,,,,,,,,,,,,,,,,,,,,,,,,,,
1703415899.504946,1703415899.505590,71.000000,0.000000,4291.922852,4253.077148,4319.615234,4302.051270,4235.512695,4218.589844,4247.563965,4227.307617,4198.717773,4199.615234,4550.000000,4485.641113,4383.846191,4503.717773,5273.000000,2.000000,52.000000,,,,0.000000,4.000000,4.000000,4.000000,4.000000,4.000000,4.000000,4.000000,4.000000,4.000000,4.000000,4.000000,4.000000,4.000000,4.000000,100.000000,,,,,,,,,,,,,,,,,,,,,,,,,,,,
1703415899.512755,1703415899.513398,72.000000,0.000000,4280.384766,4246.538574,4317.051270,4293.846191,4232.820313,4217.820313,4246.922852,4232.563965,4211.666504,4200.769043,4551.410156,4488.974121,4382.051270,4495.512695,5377.000000,2.000000,52.000000,,,,0.000000,4.000000,4.000000,4.000000,4.000000,4.000000,4.000000,4.000000,4.000000,4.000000,4.000000,4.000000,4.000000,4.000000,4.000000,100.000000,,,,,,,,,,,,,,,,,18.000000,0.000000,0.675500,0.224670,-0.652588,0.259521,0.994750,-0.050299,0.044439,-15.508187,-41.535088,65.575058
1703415899.520563,1703415899.521107,73.000000,0.000000,4277.051270,4246.410156,4325.000000,4296.666504,4229.615234,4212.692383,4247.820313,4245.512695,4227.563965,4211.282227,4572.692383,4503.077148,4396.025879,4506.410156,5317.000000,2.000000,52.000000,,,,0.000000,4.000000,4.000000,4.000000,4.000000,4.000000,4.000000,4.000000,4.000000,4.000000,4.000000,4.000000,4.000000,4.000000,4.000000,100.000000,,,,,,,,,,,,,,,,,,,,,,,,,,,,
1703415899.528371,1703415899.528915,74.000000,0.000000,4280.641113,4248.846191,4329.743652,4299.615234,4225.256348,4210.000000,4245.384766,4244.102539,4223.205078,4220.641113,4574.102539,4503.974121,4400.000000,4511.153809,5916.000000,2.000000,52.000000,,,,0.000000,4.000000,4.000000,4.000000,4.000000,4.000000,4.000000,4.000000,4.000000,4.000000,4.000000,4.000000,4.000000,4.000000,4.000000,100.000000,,,,,,,,,,,,,,,,,,,,,,,,,,,,
1703415899.536179,1703415899.536623,75.000000,0.000000,4279.230957,4248.717773,4324.871582,4302.436035,4231.025879,4212.179688,4236.666504,4232.820313,4215.897461,4221.153809,4559.487305,4490.128418,4388.333496,4500.000000,6255.000000,2.000000,52.000000,,,,0.000000,4.000000,4.000000,4.000000,4.000000,4.000000,4.000000,4.000000,4.000000,4.000000,4.000000,4.000000,4.000000,4.000000,4.000000,100.000000,,,,,,,,,,,,,,,,,,,,,,,,,,,,
1703415899.543987,1703415899.544431,76.000000,0.000000,4260.897461,4235.769043,4314.743652,4296.153809,4230.512695,4212.948730,4230.512695,4228.461426,4214.871582,4210.384766,4550.256348,4473.589844,4380.769043,4485.000000,6786.000000,2.000000,52.000000,,,,0.000000,4.000000,4.000000,4.000000,4.000000,4.000000,4.000000,4.000000,4.000000,4.000000,4.000000,4.000000,4.000000,4.000000,4.000000,100.000000,,,,,,,,,,,,,,,,,19.000000,0.000000,0.675670,0.224548,-0.652527,0.259338,0.996215,-0.031254,0.067879,-15.440701,-41.564915,65.550888
1703415899.551795,1703415899.552139,77.000000,0.000000,4245.128418,4227.820313,4303.846191,4281.794922,4218.717773,4211.666504,4239.487305,4223.589844,4205.000000,4192.820313,4540.000000,4459.871582,4375.256348,4469.358887,7351.000000,2.000000,52.000000,,,,0.000000,4.000000,4.000000,4.000000,4.000000,4.000000,4.000000,4.000000,4.000000,4.000000,4.000000,4.000000,4.000000,4.000000,4.000000,100.000000,,,,,,,,,,,,,,,,,,,,,,,,,,,,
1703415899.559603,1703415899.560047,78.000000,0.000000,4243.974121,4241.794922,4297.307617,4282.179688,4221.153809,4212.692383,4249.615234,4217.820313,4195.128418,4189.102539,4534.358887,4459.358887,4369.102539,4463.717773,5916.000000,2.000000,52.000000,,,,0.000000,4.000000,4.000000,4.000000,4.000000,4.000000,4.000000,4.000000,4.000000,4.000000,4.000000,4.000000,4.000000,4.000000,4.000000,100.000000,,,,,,,,,,,,,,,,,,,,,,,,,,,,
1703415899.567411,1703415899.567855,79.000000,0.000000,4247.307617,4250.000000,4302.948730,4296.794922,4236.410156,4217.051270,4248.974121,4228.589844,4207.820313,4202.948730,4552.051270,4472.179688,4377.692383,4477.051270,6255.000000,2.000000,52.000000,,,,0.000000,4.000000,4.000000,4.000000,4.000000,4.000000,4.000000,4.000000,4.000000,4.000000,4.000000,4.000000,4.000000,4.000000,4.000000,100.000000,,,,,,,,,,,,,,,,,,,,,,,,,,,,
1703415899.575219,1703415899.575763,80.000000,0.000000,4255.897461,4239.615234,4317.692383,4300.897461,4235.384766,4218.461426,4248.461426,4244.358887,4228.333496,4215.128418,4570.897461,4483.846191,4391.538574,4490.769043,6786.000000,2.000000,52.000000,,,,0.000000,4.000000,4.000000,4.000000,4.000000,4.000000,4.000000,4.000000,4.000000,4.000000,4.000000,4.000000,4.000000,4.000000,4.000000,100.000000,,,,,,,,,,,,,,,,,20.000000,0.000000,0.675782,0.224670,-0.652466,0.259094,1.005494,-0.047369,0.049811,-15.396631,-41.608421,65.679131
1703415899.583027,1703415899.583571,81.000000,0.000000,4262.436035,4237.051270,4327.051270,4295.256348,4223.717773,4215.384766,4251.666504,4246.410156,4230.384766,4218.717773,4566.666504,4490.000000,4390.256348,4489.743652,7351.000000,2.000000,52.000000,,,,0.000000,4.000000,4.000000,4.000000,4.000000,4.000000,4.000000,4.000000,4.000000,4.000000,4.000000,4.000000,4.000000,4.000000,4.000000,100.000000,,,,,,,,,,,,,,,,,,,,,,,,,,,,
1703415899.590835,1703415899.591479,82.000000,0.000000,4255.256348,4242.307617,4323.846191,4291.794922,4227.179688,4212.179688,4252.179688,4239.871582,4220.128418,4218.589844,4556.025879,4490.128418,4383.077148,4480.512695,5916.000000,2.000000,52.000000,,,,0.000000,4.000000,4.000000,4.000000,4.000000,4.000000,4.000000,4.000000,4.000000,4.000000,4.000000,4.000000,4.000000,4.000000,4.000000,100.000000,,,,,,,,,,,,,,,,,,,,,,,,,,,,
1703415899.598643,1703415899.599288,83.000000,0.000000,4247.948730,4237.563965,4314.871582,4295.128418,4231.666504,4214.102539,4249.230957,4238.846191,4216.538574,4213.974121,4558.205078,4483.205078,4382.179688,4475.128418,6255.000000,2.000000,52.000000,,,,0.000000,4.000000,4.000000,4.000000,4.000000,4.000000,4.000000,4.000000,4.000000,4.000000,4.000000,4.000000,4.000000,4.000000,4.000000,100.000000,,,,,,,,,,,,,,,,,,,,,,,,,,,,
1703415899.606451,1703415899.607196,84.000000,0.000000,4247.436035,4232.051270,4310.512695,4293.461426,4219.743652,4213.333496,4247.948730,4241.794922,4218.333496,4210.128418,4555.897461,4479.871582,4380.769043,4472.948730,6786.000000,2.000000,52.000000,,,,0.000000,4.000000,4.000000,4.000000,4.000000,4.000000,4.000000,4.000000,4.000000,4.000000,4.000000,4.000000,4.000000,4.000000,4.000000,100.000000,1.000000,91.666664,4.000000,4.000000,4.000000,4.000000,4.000000,3.000000,4.000000,4.000000,4.000000,4.000000,4.000000,4.000000,4.000000,4.000000,21.000000,0.000000,0.675613,0.225037,-0.652588,0.258911,0.987425,-0.034184,0.062019,-15.290301,-41.514248,65.694550
1703415899.614259,1703415899.615004,85.000000,0.000000,4240.128418,4231.922852,4311.538574,4283.717773,4210.641113,4205.769043,4247.563965,4236.025879,4216.025879,4207.179688,4542.436035,4480.897461,4371.794922,4464.487305,7351.000000,2.000000,52.000000,,,,0.000000,4.000000,4.000000,4.000000,4.000000,4.000000,4.000000,4.000000,4.000000,4.000000,4.000000,4.000000,4.000000,4.000000,4.000000,100.000000,,,,,,,,,,,,,,,,,,,,,,,,,,,,
1703415899.622067,1703415899.622912,86.000000,0.000000,4232.820313,4232.692383,4309.230957,4283.333496,4222.820313,4206.922852,4247.051270,4232.179688,4218.077148,4196.666504,4545.512695,4477.692383,4366.666504,4456.025879,5916.000000,2.000000,52.000000,,,,0.000000,4.000000,4.000000,4.000000,4.000000,4.000000,4.000000,4.000000,4.000000,4.000000,4.000000,4.000000,4.000000,4.000000,4.000000,100.000000,,,,,,,,,,,,,,,,,,,,,,,,,,,,
1703415899.629875,1703415899.630720,87.000000,0.000000,4234.743652,4227.948730,4303.717773,4290.512695,4230.641113,4215.512695,4248.205078,4235.128418,4219.358887,4188.589844,4550.769043,4468.974121,4365.769043,4456.025879,6255.000000,2.000000,52.000000,,,,0.000000,4.000000,4.000000,4.000000,4.000000,4.000000,4.000000,4.000000,4.000000,4.000000,4.000000,4.000000,4.000000,4.000000,4.000000,100.000000,,,,,,,,,,,,,,,,,,,,,,,,,,,,
1703415899.637683,1703415899.638628,88.000000,0.000000,4231.666504,4219.871582,4305.769043,4282.692383,4218.077148,4216.666504,4248.717773,4233.974121,4215.256348,4197.051270,4542.051270,4462.179688,4362.436035,4457.563965,6786.000000,2.000000,52.000000,,,,0.000000,4.000000,4.000000,4.000000,4.000000,4.000000,4.000000,4.000000,4.000000,4.000000,4.000000,4.000000,4.000000,4.000000,4.000000,100.000000,,,,,,,,,,,,,,,,,22.000000,0.000000,0.675716,0.225220,-0.652466,0.258789,0.987425,-0.034672,0.044439,-15.211271,-41.396156,65.675095
1703415899.645491,1703415899.646436,89.000000,0.000000,4230.384766,4221.922852,4311.666504,4276.666504,4212.436035,4214.871582,4248.589844,4237.692383,4215.769043,4212.051270,4549.230957,4469.743652,4370.512695,4459.871582,7351.000000,2.000000,52.000000,,,,0.000000,4.000000,4.000000,4.000000,4.000000,4.000000,4.000000,4.000000,4.000000,4.000000,4.000000,4.000000,4.000000,4.000000,4.000000,100.000000,,,,,,,,,,,,,,,,,,,,,,,,,,,,
1703415899.653299,1703415899.654144,90.000000,0.000000,4238.333496,4226.282227,4313.589844,4290.512695,4216.794922,4216.025879,4249.487305,4244.102539,4215.128418,4210.769043,4556.282227,4482.692383,4379.743652,4463.077148,5916.000000,2.000000,52.000000,,,,0.000000,4.000000,4.000000,4.000000,4.000000,4.000000,4.000000,4.000000,4.000000,4.000000,4.000000,4.000000,4.000000,4.000000,4.000000,100.000000,,,,,,,,,,,,,,,,,,,,,,,,,,,,
1703415899.661107,1703415899.661952,91.000000,0.000000,4236.794922,4219.358887,4311.538574,4297.692383,4214.615234,4215.000000,4247.179688,4237.820313,4212.051270,4198.717773,4550.000000,4480.128418,4374.615234,4460.000000,6255.000000,2.000000,52.000000,,,,0.000000,4.000000,4.000000,4.000000,4.000000,4.000000,4.000000,4.000000,4.000000,4.000000,4.000000,4.000000,4.000000,4.000000,4.000000,100.000000,,,,,,,,,,,,,,,,,,,,,,,,,,,,
1703415899.668915,1703415899.669660,92.000000,0.000000,4228.974121,4221.282227,4310.128418,4294.102539,4210.384766,4213.717773,4241.538574,4229.102539,4214.230957,4199.615234,4549.615234,4469.615234,4368.717773,4455.769043,6786.000000,2.000000,52.000000,,,,0.000000,4.000000,4.000000,4.000000,4.000000,4.000000,4.000000,4.000000,4.000000,4.000000,4.000000,4.000000,4.000000,4.000000,4.000000,100.000000,,,,,,,,,,,,,,,,,23.000000,0.000000,0.675699,0.225342,-0.652466,0.258728,0.997192,-0.036626,0.048346,-15.123478,-41.273205,65.474251
1703415899.676724,1703415899.677568,93.000000,0.000000,4232.179688,4233.589844,4307.307617,4296.025879,4212.948730,4216.282227,4241.666504,4231.410156,4215.641113,4204.102539,4547.179688,4465.000000,4365.641113,4456.666504,7351.000000,2.000000,52.000000,,,,0.000000,4.000000,4.000000,4.000000,4.000000,4.000000,4.000000,4.000000,4.000000,4.000000,4.000000,4.000000,4.000000,4.000000,4.000000,100.000000,,,,,,,,,,,,,,,,,,,,,,,,,,,,
1703415899.684532,1703415899.685376,94.000000,0.000000,4234.358887,4228.077148,4300.000000,4294.358887,4222.179688,4216.538574,4246.922852,4233.846191,4215.384766,4196.153809,4541.410156,4462.820313,4364.230957,4456.794922,5916.000000,2.000000,52.000000,,,,0.000000,4.000000,4.000000,4.000000,4.000000,4.000000,4.000000,4.000000,4.000000,4.000000,4.000000,4.000000,4.000000,4.000000,4.000000,100.000000,,,,,,,,,,,,,,,,,,,,,,,,,,,,
1703415899.692340,1703415899.693284,95.000000,0.000000,4228.333496,4222.563965,4300.256348,4293.461426,4228.333496,4215.641113,4245.769043,4231.666504,4214.871582,4192.436035,4546.666504,4461.282227,4367.563965,4456.410156,6255.000000,2.000000,52.000000,,,,0.000000,4.000000,4.000000,4.000000,4.000000,4.000000,4.000000,4.000000,4.000000,4.000000,4.000000,4.000000,4.000000,4.000000,4.000000,100.000000,,,,,,,,,,,,,,,,,,,,,,,,,,,,
1703415899.700148,1703415899.701092,96.000000,0.000000,4227.692383,4232.563965,4309.230957,4304.743652,4222.948730,4215.769043,4240.897461,4231.794922,4207.179688,4198.846191,4540.384766,4467.436035,4370.641113,4456.282227,6786.000000,2.000000,52.000000,,,,0.000000,4.000000,4.000000,4.000000,4.000000,4.000000,4.000000,4.000000,4.000000,4.000000,4.000000,4.000000,4.000000,4.000000,4.000000,100.000000,,,,,,,,,,,,,,,,,24.000000,0.000000,0.675738,0.225403,-0.652405,0.258728,0.993285,-0.046392,0.057624,-15.227797,-41.245888,65.626831
1703415899.707956,1703415899.708901,97.000000,0.000000,4230.769043,4230.256348,4312.563965,4308.205078,4221.153809,4217.051270,4243.077148,4234.358887,4201.922852,4204.871582,4534.743652,4479.230957,4371.282227,4458.205078,7351.000000,2.000000,52.000000,,,,0.000000,4.000000,4.000000,4.000000,4.000000,4.000000,4.000000,4.000000,4.000000,4.000000,4.000000,4.000000,4.000000,4.000000,4.000000,100.000000,,,,,,,,,,,,,,,,,,,,,,,,,,,,
1703415899.715764,1703415899.716609,98.000000,0.000000,4227.051270,4223.846191,4310.256348,4301.922852,4231.538574,4216.153809,4248.461426,4234.871582,4205.897461,4206.666504,4551.666504,4476.794922,4373.205078,4462.307617,5916.000000,2.000000,52.000000,,,,0.000000,4.000000,4.000000,4.000000,4.000000,4.000000,4.000000,4.000000,4.000000,4.000000,4.000000,4.000000,4.000000,4.000000,4.000000,100.000000,,,,,,,,,,,,,,,,,,,,,,,,,,,,
1703415899.723572,1703415899.724417,99.000000,0.000000,4217.948730,4230.641113,4305.128418,4303.205078,4232.948730,4215.000000,4242.692383,4229.102539,4203.589844,4197.820313,4549.743652,4461.794922,4369.487305,4461.538574,6255.000000,2.000000,52.000000,,,,0.000000,4.000000,4.000000,4.000000,4.000000,4.000000,4.000000,4.000000,4.000000,4.000000,4.000000,4.000000,4.000000,4.000000,4.000000,100.000000,,,,,,,,,,,,,,,,,,,,,,,,,,,,
1703415899.731380,1703415899.732125,100.000000,0.000000,4210.384766,4230.128418,4295.769043,4307.563965,4222.692383,4219.358887,4236.153809,4222.948730,4196.922852,4180.256348,4531.153809,4455.769043,4361.025879,4456.666504,6786.000000,2.000000,52.000000,,,,0.000000,4.000000,4.000000,4.000000,4.000000,4.000000,4.000000,4.000000,4.000000,4.000000,4.000000,4.000000,4.000000,4.000000,4.000000,100.000000,,,,,,,,,,,,,,,,,25.000000,0.000000,0.675687,0.225342,-0.652527,0.258606,0.982542,-0.046881,0.054694,-15.321684,-41.437965,65.430809
1703415899.739188,1703415899.739933,101.000000,0.000000,4214.871582,4219.230957,4293.077148,4311.153809,4217.948730,4223.333496,4241.025879,4228.846191,4201.282227,4178.846191,4536.410156,4459.871582,4362.563965,4457.051270,7351.000000,2.000000,52.000000,,,,0.000000,4.000000,4.000000,4.000000,4.000000,4.000000,4.000000,4.000000,4.000000,4.000000,4.000000,4.000000,4.000000,4.000000,4.000000,100.000000,,,,,,,,,,,,,,,,,,,,,,,,,,,,
1703415899.746996,1703415899.747641,102.000000,0.000000,4216.922852,4218.461426,4293.846191,4308.205078,4217.307617,4217.436035,4240.512695,4231.282227,4204.230957,4193.589844,4537.563965,4461.666504,4365.641113,4461.922852,5916.000000,2.000000,52.000000,,,,0.000000,4.000000,4.000000,4.000000,4.000000,4.000000,4.000000,4.000000,4.000000,4.000000,4.000000,4.000000,4.000000,4.000000,4.000000,100.000000,,,,,,,,,,,,,,,,,,,,,,,,,,,,
1703415899.754804,1703415899.755449,103.000000,0.000000,4207.820313,4220.384766,4288.461426,4299.615234,4217.692383,4211.794922,4232.051270,4219.743652,4193.077148,4191.153809,4521.538574,4453.205078,4359.743652,4459.358887,6255.000000,2.000000,52.000000,,,,0.000000,4.000000,4.000000,4.000000,4.000000,4.000000,4.000000,4.000000,4.000000,4.000000,4.000000,4.000000,4.000000,4.000000,4.000000,100.000000,,,,,,,,,,,,,,,,,,,,,,,,,,,,
1703415899.762612,1703415899.763157,104.000000,0.000000,4206.282227,4217.051270,4289.487305,4298.461426,4225.000000,4216.538574,4236.410156,4217.820313,4190.128418,4192.179688,4528.333496,4446.282227,4362.820313,4457.563965,6786.000000,2.000000,52.000000,,,,0.000000,4.000000,4.000000,4.000000,4.000000,4.000000,4.000000,4.000000,4.000000,4.000000,4.000000,4.000000,4.000000,4.000000,4.000000,100.000000,,,,,,,,,,,,,,,,,26.000000,0.000000,0.675616,0.225342,-0.652649,0.258484,0.997192,-0.031742,0.055671,-15.489515,-41.360836,65.421066
1703415899.770420,1703415899.771065,105.000000,0.000000,4215.000000,4222.820313,4296.794922,4308.717773,4231.410156,4221.153809,4247.820313,4231.282227,4206.282227,4212.051270,4553.205078,4457.692383,4378.717773,4466.538574,7351.000000,2.000000,52.000000,,,,0.000000,4.000000,4.000000,4.000000,4.000000,4.000000,4.000000,4.000000,4.000000,4.000000,4.000000,4.000000,4.000000,4.000000,4.000000,100.000000,,,,,,,,,,,,,,,,,,,,,,,,,,,,
1703415899.778228,1703415899.778873,106.000000,0.000000,4219.743652,4233.461426,4296.794922,4319.230957,4232.436035,4223.205078,4248.077148,4235.384766,4216.922852,4211.410156,4556.153809,4466.538574,4383.461426,4470.256348,5916.000000,2.000000,52.000000,,,,0.000000,4.000000,4.000000,4.000000,4.000000,4.000000,4.000000,4.000000,4.000000,4.000000,4.000000,4.000000,4.000000,4.000000,4.000000,100.000000,,,,,,,,,,,,,,,,,,,,,,,,,,,,
1703415899.786036,1703415899.786781,107.000000,0.000000,4217.820313,4233.205078,4294.358887,4318.077148,4232.692383,4227.307617,4244.102539,4228.846191,4208.846191,4198.717773,4541.538574,4458.205078,4377.051270,4466.025879,6255.000000,2.000000,52.000000,,,,0.000000,4.000000,4.000000,4.000000,4.000000,4.000000,4.000000,4.000000,4.000000,4.000000,4.000000,4.000000,4.000000,4.000000,4.000000,100.000000,,,,,,,,,,,,,,,,,,,,,,,,,,,,
1703415899.793844,1703415899.794589,108.000000,0.000000,4218.717773,4231.410156,4302.563965,4312.563965,4235.128418,4230.384766,4244.615234,4226.794922,4201.282227,4202.307617,4534.487305,4457.436035,4377.563965,4464.230957,6786.000000,2.000000,52.000000,,,,0.000000,4.000000,4.000000,4.000000,4.000000,4.000000,4.000000,4.000000,4.000000,4.000000,4.000000,4.000000,4.000000,4.000000,4.000000,100.000000,,,,,,,,,,,,,,,,,27.000000,0.000000,0.675845,0.225464,-0.652466,0.258240,0.992797,-0.025394,0.066903,-15.573897,-41.258083,65.395622
1703415899.801652,1703415899.802497,109.000000,0.000000,4224.871582,4237.307617,4306.794922,4315.128418,4233.717773,4228.589844,4246.025879,4230.769043,4210.641113,4205.512695,4544.487305,4464.358887,4381.666504,4469.871582,7351.000000,2.000000,52.000000,,,,0.000000,4.000000,4.000000,4.000000,4.000000,4.000000,4.000000,4.000000,4.000000,4.000000,4.000000,4.000000,4.000000,4.000000,4.000000,100.000000,,,,,,,,,,,,,,,,,,,,,,,,,,,,
1703415899.809461,1703415899.810306,110.000000,0.000000,4232.948730,4231.153809,4302.179688,4320.769043,4228.717773,4223.461426,4244.615234,4235.384766,4219.871582,4200.384766,4554.230957,4465.000000,4382.692383,4477.692383,5916.000000,2.000000,52.000000,,,,0.000000,4.000000,4.000000,4.000000,4.000000,4.000000,4.000000,4.000000,4.000000,4.000000,4.000000,4.000000,4.000000,4.000000,4.000000,100.000000,,,,,,,,,,,,,,,,,,,,,,,,,,,,
1703415899.817268,1703415899.818214,111.000000,0.000000,4230.128418,4220.512695,4303.461426,4314.487305,4229.102539,4218.846191,4237.307617,4230.256348,4210.000000,4203.717773,4543.461426,4460.897461,4376.922852,4471.666504,6255.000000,2.000000,52.000000,,,,0.000000,4.000000,4.000000,4.000000,4.000000,4.000000,4.000000,4.000000,4.000000,4.000000,4.000000,4.000000,4.000000,4.000000,4.000000,100.000000,,,,,,,,,,,,,,,,,,,,,,,,,,,,
1703415899.825076,1703415899.826021,112.000000,0.000000,4218.974121,4226.666504,4301.794922,4305.897461,4226.794922,4217.179688,4232.692383,4224.743652,4204.615234,4201.794922,4533.205078,4458.461426,4371.538574,4461.794922,6786.000000,2.000000,52.000000,,,,0.000000,4.000000,4.000000,4.000000,4.000000,4.000000,4.000000,4.000000,4.000000,4.000000,4.000000,4.000000,4.000000,4.000000,4.000000,100.000000,,,,,,,,,,,,,,,,,28.000000,0.000000,0.675810,0.225708,-0.652466,0.258118,0.998657,-0.028812,0.050787,-15.649840,-41.298943,65.372726
1703415899.832885,1703415899.833929,113.000000,0.000000,4222.436035,4235.000000,4296.153809,4311.922852,4219.487305,4218.717773,4238.333496,4231.282227,4211.410156,4194.230957,4543.974121,4461.666504,4377.948730,4468.077148,7351.000000,2.000000,52.000000,,,,0.000000,4.000000,4.000000,4.000000,4.000000,4.000000,4.000000,4.000000,4.000000,4.000000,4.000000,4.000000,4.000000,4.000000,4.000000,100.000000,,,,,,,,,,,,,,,,,,,,,,,,,,,,
1703415899.840693,1703415899.841737,114.000000,0.000000,4234.871582,4233.589844,4300.512695,4314.230957,4223.077148,4218.974121,4246.794922,4236.025879,4211.410156,4205.641113,4553.205078,4464.871582,4383.846191,4479.358887,5916.000000,2.000000,52.000000,,,,0.000000,4.000000,4.000000,4.000000,4.000000,4.000000,4.000000,4.000000,4.000000,4.000000,4.000000,4.000000,4.000000,4.000000,4.000000,100.000000,,,,,,,,,,,,,,,,,,,,,,,,,,,,
1703415899.848501,1703415899.849445,115.000000,0.000000,4236.282227,4230.641113,4308.717773,4302.436035,4233.333496,4218.846191,4247.307617,4232.948730,4208.461426,4220.769043,4555.641113,4462.436035,4383.846191,4478.846191,6255.000000,2.000000,52.000000,,,,0.000000,4.000000,4.000000,4.000000,4.000000,4.000000,4.000000,4.000000,4.000000,4.000000,4.000000,4.000000,4.000000,4.000000,4.000000,100.000000,,,,,,,,,,,,,,,,,,,,,,,,,,,,
1703415899.856309,1703415899.857253,116.000000,0.000000,4228.205078,4229.487305,4305.128418,4299.615234,4231.922852,4218.974121,4241.794922,4226.538574,4207.307617,4209.487305,4553.333496,4457.436035,4384.230957,4469.871582,6786.000000,2.000000,52.000000,,,,0.000000,4.000000,4.000000,4.000000,4.000000,4.000000,4.000000,4.000000,4.000000,4.000000,4.000000,4.000000,4.000000,4.000000,4.000000,100.000000,,,,,,,,,,,,,,,,,29.000000,0.000000,0.675729,0.225952,-0.652466,0.258118,0.993774,-0.027835,0.046881,-15.584857,-41.335716,65.352119
1703415899.864117,1703415899.864961,117.000000,0.000000,4227.179688,4228.717773,4300.384766,4306.282227,4223.974121,4218.974121,4244.743652,4220.128418,4203.205078,4199.102539,4543.589844,4459.102539,4380.000000,4468.974121,7351.000000,2.000000,52.000000,,,,0.000000,4.000000,4.000000,4.000000,4.000000,4.000000,4.000000,4.000000,4.000000,4.000000,4.000000,4.000000,4.000000,4.000000,4.000000,100.000000,,,,,,,,,,,,,,,,,,,,,,,,,,,,
1703415899.871925,1703415899.872769,118.000000,0.000000,4231.025879,4226.410156,4297.948730,4300.128418,4219.230957,4219.230957,4246.153809,4216.922852,4203.846191,4207.692383,4538.461426,4458.974121,4374.743652,4474.743652,5916.000000,2.000000,52.000000,,,,0.000000,4.000000,4.000000,4.000000,4.000000,4.000000,4.000000,4.000000,4.000000,4.000000,4.000000,4.000000,4.000000,4.000000,4.000000,100.000000,,,,,,,,,,,,,,,,,,,,,,,,,,,,
1703415899.879733,1703415899.880477,119.000000,0.000000,4229.230957,4221.282227,4293.717773,4291.922852,4216.794922,4218.717773,4238.717773,4215.897461,4201.666504,4205.000000,4539.230957,4449.102539,4369.358887,4467.948730,6255.000000,2.000000,52.000000,,,,0.000000,4.000000,4.000000,4.000000,4.000000,4.000000,4.000000,4.000000,4.000000,4.000000,4.000000,4.000000,4.000000,4.000000,4.000000,100.000000,,,,,,,,,,,,,,,,,,,,,,,,,,,,
1703415899.887541,1703415899.888285,120.000000,0.000000,4224.358887,4218.205078,4294.230957,4299.358887,4221.666504,4219.743652,4239.230957,4215.769043,4199.102539,4196.282227,4538.077148,4441.410156,4366.282227,4455.384766,6786.000000,2.000000,52.000000,,,,0.000000,4.000000,4.000000,4.000000,4.000000,4.000000,4.000000,4.000000,4.000000,4.000000,4.000000,4.000000,4.000000,4.000000,4.000000,100.000000,,,,,,,,,,,,,,,,,30.000000,0.000000,0.675642,0.226318,-0.652405,0.258179,0.984495,-0.043462,0.049322,-15.659704,-41.368809,65.416908
1703415899.895349,1703415899.895994,121.000000,0.000000,4220.000000,4218.077148,4291.538574,4300.128418,4230.000000,4220.384766,4240.769043,4217.051270,4207.307617,4199.871582,4535.128418,4444.871582,4368.589844,4458.589844,7351.000000,2.000000,52.000000,,,,0.000000,4.000000,4.000000,4.000000,4.000000,4.000000,4.000000,4.000000,4.000000,4.000000,4.000000,4.000000,4.000000,4.000000,4.000000,100.000000,,,,,,,,,,,,,,,,,,,,,,,,,,,,
