title:فاكهاني تشغيل, start timestamp:1703490892.479555, stop timestamp:1703490903.239053, headset type:EPOCX, headset serial:E50206EF, headset firmware:720, channels:67, sampling rate:eeg_128;mot_32, samples:1379      , version:2.2, 
Timestamp,OriginalTimestamp,EEG.Counter,EEG.Interpolated,EEG.AF3,EEG.F7,EEG.F3,EEG.FC5,EEG.T7,EEG.P7,EEG.O1,EEG.O2,EEG.P8,EEG.T8,EEG.FC6,EEG.F4,EEG.F8,EEG.AF4,EEG.RawCq,EEG.Battery,EEG.BatteryPercent,MarkerIndex,MarkerType,MarkerValueInt,EEG.MarkerHardware,CQ.AF3,CQ.F7,CQ.F3,CQ.FC5,CQ.T7,CQ.P7,CQ.O1,CQ.O2,CQ.P8,CQ.T8,CQ.FC6,CQ.F4,CQ.F8,CQ.AF4,CQ.Overall,EQ.SampleRateQuality,EQ.OVERALL,EQ.AF3,EQ.F7,EQ.F3,EQ.FC5,EQ.T7,EQ.P7,EQ.O1,EQ.O2,EQ.P8,EQ.T8,EQ.FC6,EQ.F4,EQ.F8,EQ.AF4,MOT.CounterMems,MOT.InterpolatedMems,MOT.Q0,MOT.Q1,MOT.Q2,MOT.Q3,MOT.AccX,MOT.AccY,MOT.AccZ,MOT.MagX,MOT.MagY,MOT.MagZ
1703490892.479555,1703490892.480190,76.000000,0.000000,4327.563965,4337.307617,4342.820313,4323.589844,4303.589844,4292.307617,4300.641113,4295.000000,4283.589844,4283.077148,4517.179688,4478.974121,4381.410156,4446.025879,5920.000000,4.000000,89.000000,,,,0.000000,4.000000,4.000000,4.000000,4.000000,4.000000,4.000000,4.000000,4.000000,4.000000,4.000000,4.000000,4.000000,4.000000,4.000000,100.000000,,,,,,,,,,,,,,,,,19.000000,0.000000,0.674456,-0.111755,-0.686890,-0.246582,0.978635,0.174338,0.043462,-19.654459,-32.367573,64.135056
1703490892.487363,1703490892.488098,77.000000,0.000000,4332.179688,4334.743652,4345.256348,4326.410156,4303.974121,4295.128418,4300.000000,4295.128418,4288.717773,4286.282227,4528.461426,4482.436035,4394.230957,4449.102539,3051.000000,4.000000,89.000000,,,,0.000000,4.000000,4.000000,4.000000,4.000000,4.000000,4.000000,4.000000,4.000000,4.000000,4.000000,4.000000,4.000000,4.000000,4.000000,100.000000,,,,,,,,,,,,,,,,,,,,,,,,,,,,
1703490892.495171,1703490892.495906,78.000000,0.000000,4329.358887,4338.846191,4347.436035,4327.436035,4311.025879,4297.563965,4297.051270,4295.256348,4290.512695,4291.025879,4525.769043,4482.179688,4395.512695,4441.666504,5995.000000,4.000000,89.000000,,,,0.000000,4.000000,4.000000,4.000000,4.000000,4.000000,4.000000,4.000000,4.000000,4.000000,4.000000,4.000000,4.000000,4.000000,4.000000,100.000000,,,,,,,,,,,,,,,,,,,,,,,,,,,,
1703490892.502980,1703490892.503814,79.000000,0.000000,4330.128418,4347.948730,4353.205078,4332.179688,4315.769043,4297.436035,4301.153809,4294.358887,4297.563965,4295.128418,4518.846191,4484.358887,4389.615234,4446.538574,5629.000000,4.000000,89.000000,,,,0.000000,4.000000,4.000000,4.000000,4.000000,4.000000,4.000000,4.000000,4.000000,4.000000,4.000000,4.000000,4.000000,4.000000,4.000000,100.000000,,,,,,,,,,,,,,,,,,,,,,,,,,,,
1703490892.510788,1703490892.511622,80.000000,0.000000,4341.025879,4355.512695,4359.871582,4339.615234,4318.974121,4302.179688,4306.922852,4293.717773,4305.128418,4304.615234,4531.922852,4488.846191,4405.000000,4463.589844,5920.000000,4.000000,89.000000,,,,0.000000,4.000000,4.000000,4.000000,4.000000,4.000000,4.000000,4.000000,4.000000,4.000000,4.000000,4.000000,4.000000,4.000000,4.000000,100.000000,,,,,,,,,,,,,,,,,20.000000,0.000000,0.674389,-0.111755,-0.686890,-0.246765,0.978635,0.189476,0.029789,-19.472347,-32.430817,64.171547
1703490892.518596,1703490892.519529,81.000000,0.000000,4342.563965,4355.128418,4356.025879,4340.384766,4324.358887,4304.615234,4306.410156,4296.025879,4302.563965,4307.820313,4538.205078,4488.846191,4412.179688,4465.384766,3051.000000,4.000000,89.000000,,,,0.000000,4.000000,4.000000,4.000000,4.000000,4.000000,4.000000,4.000000,4.000000,4.000000,4.000000,4.000000,4.000000,4.000000,4.000000,100.000000,,,,,,,,,,,,,,,,,,,,,,,,,,,,
1703490892.526404,1703490892.527337,82.000000,0.000000,4332.307617,4351.794922,4345.000000,4336.410156,4329.487305,4301.666504,4306.538574,4293.717773,4290.897461,4296.538574,4524.358887,4480.256348,4397.051270,4447.692383,5995.000000,4.000000,89.000000,,,,0.000000,4.000000,4.000000,4.000000,4.000000,4.000000,4.000000,4.000000,4.000000,4.000000,4.000000,4.000000,4.000000,4.000000,4.000000,100.000000,,,,,,,,,,,,,,,,,,,,,,,,,,,,
1703490892.534212,1703490892.535245,83.000000,0.000000,4329.743652,4355.897461,4344.358887,4337.563965,4329.871582,4308.077148,4312.436035,4291.025879,4278.974121,4288.589844,4517.436035,4475.641113,4392.563965,4432.563965,5629.000000,4.000000,89.000000,,,,0.000000,4.000000,4.000000,4.000000,4.000000,4.000000,4.000000,4.000000,4.000000,4.000000,4.000000,4.000000,4.000000,4.000000,4.000000,100.000000,,,,,,,,,,,,,,,,,,,,,,,,,,,,
1703490892.542020,1703490892.543053,84.000000,0.000000,4330.512695,4358.333496,4348.333496,4338.846191,4327.051270,4315.128418,4317.820313,4292.563965,4275.512695,4292.307617,4522.436035,4477.692383,4395.256348,4433.333496,5920.000000,4.000000,89.000000,,,,0.000000,4.000000,4.000000,4.000000,4.000000,4.000000,4.000000,4.000000,4.000000,4.000000,4.000000,4.000000,4.000000,4.000000,4.000000,100.000000,,,,,,,,,,,,,,,,,21.000000,0.000000,0.674352,-0.111572,-0.686890,-0.246948,0.986937,0.189965,0.042974,-19.508446,-32.421066,64.221062
1703490892.549828,1703490892.550961,85.000000,0.000000,4330.512695,4355.512695,4347.436035,4338.589844,4330.384766,4316.538574,4323.077148,4294.358887,4278.589844,4298.717773,4525.384766,4476.025879,4397.692383,4446.025879,3051.000000,4.000000,89.000000,,,,0.000000,4.000000,4.000000,4.000000,4.000000,4.000000,4.000000,4.000000,4.000000,4.000000,4.000000,4.000000,4.000000,4.000000,4.000000,100.000000,,,,,,,,,,,,,,,,,,,,,,,,,,,,
1703490892.557636,1703490892.558769,86.000000,0.000000,4337.692383,4359.230957,4352.051270,4344.102539,4336.282227,4323.077148,4329.743652,4293.846191,4283.974121,4303.589844,4531.410156,4475.641113,4406.282227,4459.871582,5995.000000,4.000000,89.000000,,,,0.000000,4.000000,4.000000,4.000000,4.000000,4.000000,4.000000,4.000000,4.000000,4.000000,4.000000,4.000000,4.000000,4.000000,4.000000,100.000000,,,,,,,,,,,,,,,,,,,,,,,,,,,,
1703490892.565444,1703490892.566677,87.000000,0.000000,4341.025879,4366.153809,4360.897461,4345.512695,4339.615234,4329.743652,4337.436035,4299.487305,4293.974121,4309.358887,4538.717773,4482.563965,4411.538574,4463.205078,5629.000000,4.000000,89.000000,,,,0.000000,4.000000,4.000000,4.000000,4.000000,4.000000,4.000000,4.000000,4.000000,4.000000,4.000000,4.000000,4.000000,4.000000,4.000000,100.000000,,,,,,,,,,,,,,,,,,,,,,,,,,,,
1703490892.573252,1703490892.574485,88.000000,0.000000,4336.922852,4362.436035,4358.589844,4339.358887,4338.717773,4331.025879,4344.102539,4308.077148,4304.615234,4316.025879,4542.948730,4490.256348,4413.846191,4460.000000,5920.000000,4.000000,89.000000,,,,0.000000,4.000000,4.000000,4.000000,4.000000,4.000000,4.000000,4.000000,4.000000,4.000000,4.000000,4.000000,4.000000,4.000000,4.000000,100.000000,,,,,,,,,,,,,,,,,22.000000,0.000000,0.674315,-0.111389,-0.686890,-0.247131,0.976682,0.184105,0.036137,-19.590935,-32.328960,64.182289
1703490892.581060,1703490892.582193,89.000000,0.000000,4338.974121,4356.922852,4355.128418,4339.743652,4330.256348,4329.358887,4349.102539,4312.436035,4315.256348,4319.871582,4544.487305,4489.871582,4416.282227,4457.820313,3051.000000,4.000000,89.000000,,,,0.000000,4.000000,4.000000,4.000000,4.000000,4.000000,4.000000,4.000000,4.000000,4.000000,4.000000,4.000000,4.000000,4.000000,4.000000,100.000000,,,,,,,,,,,,,,,,,,,,,,,,,,,,
1703490892.588868,1703490892.590101,90.000000,0.000000,4343.717773,4361.025879,4362.820313,4345.641113,4324.102539,4325.512695,4351.410156,4315.000000,4325.128418,4322.307617,4542.692383,4487.307617,4414.871582,4459.871582,5995.000000,4.000000,89.000000,,,,0.000000,4.000000,4.000000,4.000000,4.000000,4.000000,4.000000,4.000000,4.000000,4.000000,4.000000,4.000000,4.000000,4.000000,4.000000,100.000000,,,,,,,,,,,,,,,,,,,,,,,,,,,,
1703490892.596676,1703490892.597909,91.000000,0.000000,4351.282227,4365.000000,4370.769043,4345.641113,4328.205078,4318.205078,4352.307617,4316.025879,4327.051270,4326.282227,4545.769043,4492.179688,4420.641113,4471.153809,5629.000000,4.000000,89.000000,,,,0.000000,4.000000,4.000000,4.000000,4.000000,4.000000,4.000000,4.000000,4.000000,4.000000,4.000000,4.000000,4.000000,4.000000,4.000000,100.000000,,,,,,,,,,,,,,,,,,,,,,,,,,,,
1703490892.604484,1703490892.605717,92.000000,0.000000,4368.461426,4368.461426,4377.179688,4351.538574,4331.666504,4314.358887,4356.922852,4316.922852,4325.769043,4333.333496,4555.769043,4500.000000,4437.563965,4482.307617,5920.000000,4.000000,89.000000,,,,0.000000,4.000000,4.000000,4.000000,4.000000,4.000000,4.000000,4.000000,4.000000,4.000000,4.000000,4.000000,4.000000,4.000000,4.000000,100.000000,,,,,,,,,,,,,,,,,23.000000,0.000000,0.674333,-0.111145,-0.686890,-0.247192,0.979123,0.181663,0.043951,-19.598507,-32.312733,64.097389
1703490892.612292,1703490892.613425,93.000000,0.000000,4373.589844,4373.717773,4382.436035,4361.538574,4331.410156,4315.256348,4358.589844,4314.743652,4325.256348,4335.000000,4558.333496,4502.051270,4438.333496,4480.384766,3051.000000,4.000000,89.000000,,,,0.000000,4.000000,4.000000,4.000000,4.000000,4.000000,4.000000,4.000000,4.000000,4.000000,4.000000,4.000000,4.000000,4.000000,4.000000,100.000000,,,,,,,,,,,,,,,,,,,,,,,,,,,,
1703490892.620100,1703490892.621233,94.000000,0.000000,4364.358887,4376.282227,4380.384766,4360.641113,4338.974121,4319.487305,4357.051270,4311.666504,4317.692383,4329.102539,4551.538574,4497.051270,4426.794922,4477.563965,5995.000000,4.000000,89.000000,,,,0.000000,4.000000,4.000000,4.000000,4.000000,4.000000,4.000000,4.000000,4.000000,4.000000,4.000000,4.000000,4.000000,4.000000,4.000000,100.000000,,,,,,,,,,,,,,,,,,,,,,,,,,,,
1703490892.627908,1703490892.628941,95.000000,0.000000,4360.512695,4375.000000,4370.512695,4359.102539,4351.538574,4323.205078,4357.820313,4307.563965,4302.948730,4321.922852,4544.358887,4490.384766,4422.179688,4478.589844,5629.000000,4.000000,89.000000,,,,0.000000,4.000000,4.000000,4.000000,4.000000,4.000000,4.000000,4.000000,4.000000,4.000000,4.000000,4.000000,4.000000,4.000000,4.000000,100.000000,,,,,,,,,,,,,,,,,,,,,,,,,,,,
1703490892.635717,1703490892.636749,96.000000,0.000000,4358.589844,4375.512695,4364.102539,4359.487305,4352.179688,4328.589844,4358.077148,4299.871582,4291.410156,4313.077148,4535.769043,4486.538574,4414.487305,4470.256348,5920.000000,4.000000,89.000000,,,,0.000000,4.000000,4.000000,4.000000,4.000000,4.000000,4.000000,4.000000,4.000000,4.000000,4.000000,4.000000,4.000000,4.000000,4.000000,100.000000,,,,,,,,,,,,,,,,,24.000000,0.000000,0.674261,-0.111206,-0.686951,-0.247192,0.982053,0.165059,0.037602,-19.555323,-32.381458,64.054321
1703490892.643525,1703490892.644457,97.000000,0.000000,4357.948730,4378.205078,4368.077148,4355.384766,4348.205078,4339.230957,4363.333496,4297.307617,4291.282227,4308.974121,4530.641113,4490.000000,4411.794922,4462.436035,3051.000000,4.000000,89.000000,,,,0.000000,4.000000,4.000000,4.000000,4.000000,4.000000,4.000000,4.000000,4.000000,4.000000,4.000000,4.000000,4.000000,4.000000,4.000000,100.000000,,,,,,,,,,,,,,,,,,,,,,,,,,,,
1703490892.651333,1703490892.652265,98.000000,0.000000,4357.307617,4377.820313,4366.538574,4353.717773,4351.282227,4345.384766,4374.487305,4299.102539,4295.641113,4306.666504,4532.436035,4490.769043,4415.769043,4462.692383,5995.000000,4.000000,89.000000,,,,0.000000,4.000000,4.000000,4.000000,4.000000,4.000000,4.000000,4.000000,4.000000,4.000000,4.000000,4.000000,4.000000,4.000000,4.000000,100.000000,,,,,,,,,,,,,,,,,,,,,,,,,,,,
1703490892.659141,1703490892.659973,99.000000,0.000000,4346.666504,4371.794922,4357.436035,4354.358887,4354.487305,4345.769043,4380.384766,4303.205078,4298.846191,4300.000000,4527.307617,4487.692383,4408.974121,4457.179688,5629.000000,4.000000,89.000000,,,,0.000000,4.000000,4.000000,4.000000,4.000000,4.000000,4.000000,4.000000,4.000000,4.000000,4.000000,4.000000,4.000000,4.000000,4.000000,100.000000,,,,,,,,,,,,,,,,,,,,,,,,,,,,
1703490892.666949,1703490892.667781,100.000000,0.000000,4339.102539,4365.641113,4360.256348,4352.692383,4350.256348,4351.025879,4385.769043,4309.615234,4308.333496,4305.000000,4526.025879,4489.358887,4404.743652,4462.948730,5920.000000,4.000000,89.000000,,,,0.000000,4.000000,4.000000,4.000000,4.000000,4.000000,4.000000,4.000000,4.000000,4.000000,4.000000,4.000000,4.000000,4.000000,4.000000,100.000000,,,,,,,,,,,,,,,,,25.000000,0.000000,0.674124,-0.111145,-0.687073,-0.247253,0.988402,0.189965,0.018557,-19.566458,-32.409977,64.098885
1703490892.674757,1703490892.675489,101.000000,0.000000,4351.153809,4369.487305,4375.384766,4354.487305,4352.436035,4353.846191,4398.974121,4316.538574,4323.461426,4324.230957,4545.512695,4496.666504,4423.461426,4480.897461,3051.000000,4.000000,89.000000,,,,0.000000,4.000000,4.000000,4.000000,4.000000,4.000000,4.000000,4.000000,4.000000,4.000000,4.000000,4.000000,4.000000,4.000000,4.000000,100.000000,,,,,,,,,,,,,,,,,,,,,,,,,,,,
1703490892.682565,1703490892.683297,102.000000,0.000000,4362.692383,4377.692383,4383.333496,4360.512695,4357.820313,4347.692383,4406.794922,4321.153809,4333.333496,4337.692383,4562.692383,4504.230957,4443.846191,4484.743652,5995.000000,4.000000,89.000000,,,,0.000000,4.000000,4.000000,4.000000,4.000000,4.000000,4.000000,4.000000,4.000000,4.000000,4.000000,4.000000,4.000000,4.000000,4.000000,100.000000,,,,,,,,,,,,,,,,,,,,,,,,,,,,
1703490892.690373,1703490892.691005,103.000000,0.000000,4363.205078,4380.000000,4382.179688,4363.974121,4351.538574,4341.666504,4405.897461,4326.025879,4340.128418,4342.820313,4564.102539,4505.256348,4442.436035,4484.358887,5629.000000,4.000000,89.000000,,,,0.000000,4.000000,4.000000,4.000000,4.000000,4.000000,4.000000,4.000000,4.000000,4.000000,4.000000,4.000000,4.000000,4.000000,4.000000,100.000000,,,,,,,,,,,,,,,,,,,,,,,,,,,,
1703490892.698181,1703490892.698913,104.000000,0.000000,4364.615234,4381.922852,4382.179688,4365.384766,4345.256348,4337.436035,4408.461426,4331.153809,4347.436035,4350.641113,4566.282227,4505.000000,4440.769043,4493.333496,5920.000000,4.000000,89.000000,,,,0.000000,4.000000,4.000000,4.000000,4.000000,4.000000,4.000000,4.000000,4.000000,4.000000,4.000000,4.000000,4.000000,4.000000,4.000000,100.000000,,,,,,,,,,,,,,,,,26.000000,0.000000,0.674124,-0.111145,-0.687073,-0.247253,0.979123,0.176779,0.032719,-19.726479,-32.452312,64.122330
1703490892.705989,1703490892.706721,105.000000,0.000000,4366.410156,4388.077148,4384.230957,4366.153809,4348.077148,4332.692383,4407.692383,4330.512695,4349.615234,4355.256348,4569.743652,4509.358887,4447.436035,4497.179688,3051.000000,4.000000,89.000000,,,,0.000000,4.000000,4.000000,4.000000,4.000000,4.000000,4.000000,4.000000,4.000000,4.000000,4.000000,4.000000,4.000000,4.000000,4.000000,100.000000,,,,,,,,,,,,,,,,,,,,,,,,,,,,
1703490892.713797,1703490892.714629,106.000000,0.000000,4367.051270,4392.307617,4384.615234,4368.461426,4350.384766,4328.077148,4399.102539,4326.153809,4342.179688,4347.563965,4563.077148,4507.692383,4445.512695,4491.282227,5995.000000,4.000000,89.000000,,,,0.000000,4.000000,4.000000,4.000000,4.000000,4.000000,4.000000,4.000000,4.000000,4.000000,4.000000,4.000000,4.000000,4.000000,4.000000,100.000000,,,,,,,,,,,,,,,,,,,,,,,,,,,,
1703490892.721605,1703490892.722437,107.000000,0.000000,4364.358887,4389.743652,4378.717773,4368.846191,4352.563965,4321.025879,4393.846191,4317.948730,4321.794922,4331.794922,4551.153809,4499.743652,4435.128418,4483.205078,5629.000000,4.000000,89.000000,,,,0.000000,4.000000,4.000000,4.000000,4.000000,4.000000,4.000000,4.000000,4.000000,4.000000,4.000000,4.000000,4.000000,4.000000,4.000000,100.000000,,,,,,,,,,,,,,,,,,,,,,,,,,,,
1703490892.729413,1703490892.730345,108.000000,0.000000,4358.974121,4388.205078,4371.666504,4366.153809,4358.974121,4319.230957,4392.179688,4307.307617,4299.230957,4316.794922,4542.051270,4495.256348,4428.333496,4473.205078,5920.000000,4.000000,89.000000,,,,0.000000,4.000000,4.000000,4.000000,4.000000,4.000000,4.000000,4.000000,4.000000,4.000000,4.000000,4.000000,4.000000,4.000000,4.000000,100.000000,,,,,,,,,,,,,,,,,27.000000,0.000000,0.674074,-0.111206,-0.687134,-0.247192,0.968380,0.184105,0.030765,-19.687164,-32.407082,64.010101
1703490892.737221,1703490892.738153,109.000000,0.000000,4354.743652,4388.077148,4368.589844,4361.922852,4361.538574,4324.615234,4388.205078,4297.692383,4284.871582,4303.461426,4531.025879,4492.179688,4417.436035,4471.025879,3051.000000,4.000000,89.000000,,,,0.000000,4.000000,4.000000,4.000000,4.000000,4.000000,4.000000,4.000000,4.000000,4.000000,4.000000,4.000000,4.000000,4.000000,4.000000,100.000000,,,,,,,,,,,,,,,,,,,,,,,,,,,,
1703490892.745029,1703490892.746060,110.000000,0.000000,4357.436035,4387.563965,4370.384766,4361.410156,4361.794922,4332.563965,4390.512695,4293.974121,4278.974121,4296.666504,4524.871582,4491.538574,4410.000000,4478.077148,5995.000000,4.000000,89.000000,,,,0.000000,4.000000,4.000000,4.000000,4.000000,4.000000,4.000000,4.000000,4.000000,4.000000,4.000000,4.000000,4.000000,4.000000,4.000000,100.000000,,,,,,,,,,,,,,,,,,,,,,,,,,,,
1703490892.752837,1703490892.753868,111.000000,0.000000,4361.922852,4388.461426,4377.307617,4367.692383,4362.179688,4344.615234,4403.205078,4300.128418,4283.077148,4303.974121,4532.436035,4496.282227,4425.641113,4477.692383,5629.000000,4.000000,89.000000,,,,0.000000,4.000000,4.000000,4.000000,4.000000,4.000000,4.000000,4.000000,4.000000,4.000000,4.000000,4.000000,4.000000,4.000000,4.000000,100.000000,,,,,,,,,,,,,,,,,,,,,,,,,,,,
1703490892.760645,1703490892.761576,112.000000,0.000000,4358.589844,4388.461426,4380.512695,4370.512695,4360.000000,4353.846191,4412.179688,4308.974121,4296.410156,4314.487305,4538.333496,4498.589844,4431.666504,4472.436035,5920.000000,4.000000,89.000000,,,,0.000000,4.000000,4.000000,4.000000,4.000000,4.000000,4.000000,4.000000,4.000000,4.000000,4.000000,4.000000,4.000000,4.000000,4.000000,100.000000,,,,,,,,,,,,,,,,,28.000000,0.000000,0.674035,-0.111206,-0.687195,-0.247131,0.975705,0.184593,0.038091,-19.835114,-32.616375,63.992420
1703490892.768453,1703490892.769384,113.000000,0.000000,4357.948730,4388.974121,4378.461426,4364.487305,4359.615234,4354.358887,4417.051270,4314.743652,4316.025879,4325.769043,4544.743652,4498.589844,4426.538574,4479.102539,3051.000000,4.000000,89.000000,,,,0.000000,4.000000,4.000000,4.000000,4.000000,4.000000,4.000000,4.000000,4.000000,4.000000,4.000000,4.000000,4.000000,4.000000,4.000000,100.000000,,,,,,,,,,,,,,,,,,,,,,,,,,,,
1703490892.776261,1703490892.777093,114.000000,0.000000,4364.358887,4387.307617,4378.717773,4361.666504,4357.563965,4350.384766,4425.512695,4318.461426,4336.410156,4341.666504,4558.589844,4504.358887,4438.717773,4490.256348,5995.000000,4.000000,89.000000,,,,0.000000,4.000000,4.000000,4.000000,4.000000,4.000000,4.000000,4.000000,4.000000,4.000000,4.000000,4.000000,4.000000,4.000000,4.000000,100.000000,,,,,,,,,,,,,,,,,,,,,,,,,,,,
1703490892.784069,1703490892.784900,115.000000,0.000000,4367.307617,4383.717773,4383.333496,4364.487305,4352.692383,4342.563965,4429.487305,4326.282227,4351.025879,4351.666504,4564.743652,4510.512695,4449.615234,4488.717773,5629.000000,4.000000,89.000000,,,,0.000000,4.000000,4.000000,4.000000,4.000000,4.000000,4.000000,4.000000,4.000000,4.000000,4.000000,4.000000,4.000000,4.000000,4.000000,100.000000,,,,,,,,,,,,,,,,,,,,,,,,,,,,
1703490892.791878,1703490892.792609,116.000000,0.000000,4366.538574,4384.743652,4384.615234,4362.436035,4348.333496,4335.000000,4426.025879,4334.230957,4357.820313,4356.282227,4565.384766,4510.256348,4444.487305,4486.922852,5920.000000,4.000000,89.000000,,,,0.000000,4.000000,4.000000,4.000000,4.000000,4.000000,4.000000,4.000000,4.000000,4.000000,4.000000,4.000000,4.000000,4.000000,4.000000,100.000000,,,,,,,,,,,,,,,,,29.000000,0.000000,0.674029,-0.111267,-0.687256,-0.246948,0.992797,0.168478,0.031742,-19.851603,-32.571404,64.093178
1703490892.799686,1703490892.800417,117.000000,0.000000,4365.384766,4384.743652,4384.615234,4357.436035,4344.615234,4328.205078,4418.077148,4335.256348,4355.128418,4352.948730,4566.538574,4508.974121,4440.000000,4494.487305,3051.000000,4.000000,89.000000,,,,0.000000,4.000000,4.000000,4.000000,4.000000,4.000000,4.000000,4.000000,4.000000,4.000000,4.000000,4.000000,4.000000,4.000000,4.000000,100.000000,,,,,,,,,,,,,,,,,,,,,,,,,,,,
1703490892.807494,1703490892.808125,118.000000,0.000000,4360.512695,4378.205078,4384.230957,4355.769043,4342.051270,4318.589844,4403.846191,4328.205078,4342.436035,4332.820313,4554.230957,4506.538574,4436.666504,4497.820313,5995.000000,4.000000,89.000000,,,,0.000000,4.000000,4.000000,4.000000,4.000000,4.000000,4.000000,4.000000,4.000000,4.000000,4.000000,4.000000,4.000000,4.000000,4.000000,100.000000,,,,,,,,,,,,,,,,,,,,,,,,,,,,
1703490892.815302,1703490892.815933,119.000000,0.000000,4353.846191,4376.153809,4377.436035,4355.384766,4344.102539,4313.461426,4391.794922,4318.461426,4325.128418,4316.025879,4535.897461,4498.333496,4426.410156,4492.948730,5629.000000,4.000000,89.000000,,,,0.000000,4.000000,4.000000,4.000000,4.000000,4.000000,4.000000,4.000000,4.000000,4.000000,4.000000,4.000000,4.000000,4.000000,4.000000,100.000000,,,,,,,,,,,,,,,,,,,,,,,,,,,,
1703490892.823110,1703490892.823641,120.000000,0.000000,4351.538574,4377.820313,4370.641113,4354.871582,4346.794922,4317.307617,4382.563965,4312.307617,4307.563965,4312.307617,4527.563965,4490.384766,4415.897461,4482.179688,5920.000000,4.000000,89.000000,,,,0.000000,4.000000,4.000000,4.000000,4.000000,4.000000,4.000000,4.000000,4.000000,4.000000,4.000000,4.000000,4.000000,4.000000,4.000000,100.000000,,,,,,,,,,,,,,,,,30.000000,0.000000,0.674044,-0.111450,-0.687256,-0.246826,0.970333,0.184105,0.023440,-19.866442,-32.530930,64.100525
1703490892.830918,1703490892.831449,121.000000,0.000000,4353.461426,4374.743652,4368.717773,4353.461426,4346.794922,4323.974121,4375.512695,4307.307617,4294.487305,4303.461426,4521.282227,4486.922852,4410.000000,4474.358887,3051.000000,4.000000,89.000000,,,,0.000000,4.000000,4.000000,4.000000,4.000000,4.000000,4.000000,4.000000,4.000000,4.000000,4.000000,4.000000,4.000000,4.000000,4.000000,100.000000,,,,,,,,,,,,,,,,,,,,,,,,,,,,
1703490892.838726,1703490892.839157,122.000000,0.000000,4351.922852,4370.769043,4364.358887,4345.897461,4345.641113,4328.589844,4376.025879,4298.974121,4285.641113,4288.333496,4511.282227,4486.282227,4403.461426,4473.205078,5995.000000,4.000000,89.000000,,,,0.000000,4.000000,4.000000,4.000000,4.000000,4.000000,4.000000,4.000000,4.000000,4.000000,4.000000,4.000000,4.000000,4.000000,4.000000,100.000000,,,,,,,,,,,,,,,,,,,,,,,,,,,,
1703490892.846534,1703490892.846965,123.000000,0.000000,4344.487305,4364.615234,4356.410156,4333.846191,4340.000000,4330.897461,4377.051270,4292.179688,4281.153809,4282.948730,4505.384766,4483.333496,4394.871582,4472.179688,5629.000000,4.000000,89.000000,,,,0.000000,4.000000,4.000000,4.000000,4.000000,4.000000,4.000000,4.000000,4.000000,4.000000,4.000000,4.000000,4.000000,4.000000,4.000000,100.000000,,,,,,,,,,,,,,,,,,,,,,,,,,,,
1703490892.854342,1703490892.854673,124.000000,0.000000,4338.333496,4356.410156,4352.179688,4327.692383,4332.948730,4330.128418,4370.897461,4295.769043,4283.974121,4287.436035,4507.820313,4479.230957,4394.487305,4470.897461,5920.000000,4.000000,89.000000,,,,0.000000,4.000000,4.000000,4.000000,4.000000,4.000000,4.000000,4.000000,4.000000,4.000000,4.000000,4.000000,4.000000,4.000000,4.000000,100.000000,,,,,,,,,,,,,,,,,31.000000,0.000000,0.673994,-0.111511,-0.687317,-0.246765,0.968380,0.181174,0.026859,-19.929798,-32.661171,64.140472
1703490892.862150,1703490892.862481,125.000000,0.000000,4335.256348,4356.410156,4355.128418,4328.077148,4327.051270,4328.974121,4367.307617,4306.666504,4293.077148,4295.512695,4518.205078,4486.282227,4404.102539,4473.077148,3051.000000,4.000000,89.000000,,,,0.000000,4.000000,4.000000,4.000000,4.000000,4.000000,4.000000,4.000000,4.000000,4.000000,4.000000,4.000000,4.000000,4.000000,4.000000,100.000000,,,,,,,,,,,,,,,,,,,,,,,,,,,,
1703490892.869958,1703490892.870189,126.000000,0.000000,4335.512695,4362.692383,4362.179688,4331.410156,4322.820313,4322.692383,4370.641113,4312.948730,4304.871582,4308.974121,4529.230957,4497.692383,4412.563965,4477.820313,5995.000000,4.000000,89.000000,,,,0.000000,4.000000,4.000000,4.000000,4.000000,4.000000,4.000000,4.000000,4.000000,4.000000,4.000000,4.000000,4.000000,4.000000,4.000000,100.000000,,,,,,,,,,,,,,,,,,,,,,,,,,,,
1703490892.877766,1703490892.878097,127.000000,0.000000,4340.641113,4364.230957,4365.769043,4331.282227,4318.589844,4309.102539,4367.307617,4316.538574,4321.153809,4320.897461,4533.846191,4497.820313,4415.256348,4477.563965,89.000000,4.000000,89.000000,,,,0.000000,4.000000,4.000000,4.000000,4.000000,4.000000,4.000000,4.000000,4.000000,4.000000,4.000000,4.000000,4.000000,4.000000,4.000000,100.000000,,,,,,,,,,,,,,,,,,,,,,,,,,,,
1703490892.885574,1703490892.885905,0.000000,0.000000,4341.538574,4359.102539,4360.897461,4324.743652,4309.871582,4297.179688,4356.538574,4321.282227,4333.077148,4322.948730,4532.436035,4497.563965,4412.692383,4469.358887,5035.000000,4.000000,89.000000,,,,0.000000,4.000000,4.000000,4.000000,4.000000,4.000000,4.000000,4.000000,4.000000,4.000000,4.000000,4.000000,4.000000,4.000000,4.000000,100.000000,,,,,,,,,,,,,,,,,0.000000,0.000000,0.673994,-0.111511,-0.687317,-0.246765,0.975705,0.177756,0.034672,-19.836819,-32.628387,64.243095
1703490892.893382,1703490892.893812,1.000000,0.000000,4337.307617,4359.487305,4360.256348,4324.102539,4307.563965,4292.436035,4349.358887,4322.820313,4333.974121,4323.461426,4535.256348,4501.794922,4417.051270,4463.846191,5679.000000,4.000000,89.000000,,,,0.000000,4.000000,4.000000,4.000000,4.000000,4.000000,4.000000,4.000000,4.000000,4.000000,4.000000,4.000000,4.000000,4.000000,4.000000,100.000000,,,,,,,,,,,,,,,,,,,,,,,,,,,,
1703490892.901190,1703490892.901620,2.000000,0.000000,4339.487305,4364.871582,4363.205078,4330.512695,4312.563965,4292.179688,4348.077148,4318.205078,4333.333496,4324.871582,4538.846191,4499.615234,4424.102539,4465.128418,5355.000000,4.000000,89.000000,,,,0.000000,4.000000,4.000000,4.000000,4.000000,4.000000,4.000000,4.000000,4.000000,4.000000,4.000000,4.000000,4.000000,4.000000,4.000000,100.000000,,,,,,,,,,,,,,,,,,,,,,,,,,,,
1703490892.908998,1703490892.909528,3.000000,0.000000,4335.384766,4363.333496,4350.512695,4325.769043,4312.563965,4293.974121,4344.871582,4310.000000,4321.666504,4313.589844,4524.102539,4490.769043,4409.871582,4462.692383,5500.000000,4.000000,89.000000,,,,0.000000,4.000000,4.000000,4.000000,4.000000,4.000000,4.000000,4.000000,4.000000,4.000000,4.000000,4.000000,4.000000,4.000000,4.000000,100.000000,,,,,,,,,,,,,,,,,,,,,,,,,,,,
1703490892.916806,1703490892.917336,4.000000,0.000000,4320.641113,4360.000000,4336.153809,4316.282227,4311.794922,4300.769043,4338.846191,4301.025879,4295.384766,4289.615234,4502.307617,4480.384766,4385.384766,4450.897461,5300.000000,4.000000,89.000000,,,,0.000000,4.000000,4.000000,4.000000,4.000000,4.000000,4.000000,4.000000,4.000000,4.000000,4.000000,4.000000,4.000000,4.000000,4.000000,100.000000,,,,,,,,,,,,,,,,,1.000000,0.000000,0.673921,-0.111572,-0.687378,-0.246765,0.972287,0.183616,0.038579,-19.819803,-32.715549,64.318787
1703490892.924615,1703490892.925244,5.000000,0.000000,4315.128418,4358.333496,4338.077148,4315.256348,4315.256348,4308.205078,4340.256348,4293.974121,4277.307617,4270.384766,4494.102539,4474.615234,4377.563965,4441.153809,5185.000000,4.000000,89.000000,,,,0.000000,4.000000,4.000000,4.000000,4.000000,4.000000,4.000000,4.000000,4.000000,4.000000,4.000000,4.000000,4.000000,4.000000,4.000000,100.000000,,,,,,,,,,,,,,,,,,,,,,,,,,,,
1703490892.932423,1703490892.933052,6.000000,0.000000,4316.538574,4353.846191,4334.743652,4312.307617,4314.230957,4310.384766,4343.077148,4292.179688,4277.051270,4264.871582,4489.871582,4476.153809,4376.794922,4438.589844,3329.000000,4.000000,89.000000,,,,0.000000,4.000000,4.000000,4.000000,4.000000,4.000000,4.000000,4.000000,4.000000,4.000000,4.000000,4.000000,4.000000,4.000000,4.000000,100.000000,,,,,,,,,,,,,,,,,,,,,,,,,,,,
1703490892.940230,1703490892.940760,7.000000,0.000000,4313.846191,4351.922852,4324.871582,4310.384766,4313.589844,4312.692383,4342.051270,4293.333496,4280.128418,4270.384766,4485.512695,4478.461426,4372.820313,4438.333496,2788.000000,4.000000,89.000000,,,,0.000000,4.000000,4.000000,4.000000,4.000000,4.000000,4.000000,4.000000,4.000000,4.000000,4.000000,4.000000,4.000000,4.000000,4.000000,100.000000,1.000000,25.000000,4.000000,1.000000,3.000000,3.000000,1.000000,3.000000,1.000000,4.000000,4.000000,3.000000,4.000000,4.000000,4.000000,4.000000,,,,,,,,,,,,
1703490892.948039,1703490892.948568,8.000000,0.000000,4315.000000,4354.358887,4331.666504,4314.743652,4317.436035,4317.051270,4343.974121,4297.179688,4281.025879,4279.615234,4492.948730,4481.666504,4375.769043,4439.487305,4285.000000,4.000000,89.000000,,,,0.000000,4.000000,4.000000,4.000000,4.000000,4.000000,4.000000,4.000000,4.000000,4.000000,4.000000,4.000000,4.000000,4.000000,4.000000,100.000000,,,,,,,,,,,,,,,,,2.000000,0.000000,0.674034,-0.111511,-0.687256,-0.246826,0.981077,0.167989,0.033207,-19.737823,-32.677326,64.186905
1703490892.955847,1703490892.956276,9.000000,0.000000,4322.307617,4356.922852,4343.974121,4315.000000,4314.358887,4311.410156,4348.974121,4301.538574,4291.538574,4288.717773,4509.230957,4483.461426,4390.897461,4442.692383,5462.000000,4.000000,89.000000,,,,0.000000,4.000000,4.000000,4.000000,4.000000,4.000000,4.000000,4.000000,4.000000,4.000000,4.000000,4.000000,4.000000,4.000000,4.000000,100.000000,,,,,,,,,,,,,,,,,,,,,,,,,,,,
1703490892.963655,1703490892.964084,10.000000,0.000000,4326.153809,4359.615234,4345.897461,4313.717773,4304.102539,4296.025879,4349.102539,4307.179688,4308.974121,4300.384766,4518.589844,4484.487305,4406.025879,4448.077148,5980.000000,4.000000,89.000000,,,,0.000000,4.000000,4.000000,4.000000,4.000000,4.000000,4.000000,4.000000,4.000000,4.000000,4.000000,4.000000,4.000000,4.000000,4.000000,100.000000,,,,,,,,,,,,,,,,,,,,,,,,,,,,
1703490892.971463,1703490892.971792,11.000000,0.000000,4327.179688,4358.333496,4350.769043,4316.282227,4298.333496,4286.666504,4343.461426,4314.102539,4324.102539,4313.846191,4522.563965,4489.230957,4409.358887,4454.871582,5631.000000,4.000000,89.000000,,,,0.000000,4.000000,4.000000,4.000000,4.000000,4.000000,4.000000,4.000000,4.000000,4.000000,4.000000,4.000000,4.000000,4.000000,4.000000,100.000000,,,,,,,,,,,,,,,,,,,,,,,,,,,,
1703490892.979271,1703490892.979600,12.000000,0.000000,4325.384766,4354.743652,4351.922852,4313.461426,4298.974121,4278.461426,4333.461426,4316.282227,4329.358887,4317.179688,4523.461426,4491.410156,4404.230957,4456.282227,5910.000000,4.000000,89.000000,,,,0.000000,4.000000,4.000000,4.000000,4.000000,4.000000,4.000000,4.000000,4.000000,4.000000,4.000000,4.000000,4.000000,4.000000,4.000000,100.000000,,,,,,,,,,,,,,,,,3.000000,0.000000,0.674124,-0.111450,-0.687134,-0.246948,0.978147,0.175803,0.031742,-19.947374,-32.542927,64.184883
1703490892.987079,1703490892.987308,13.000000,0.000000,4319.871582,4354.102539,4344.743652,4305.897461,4298.461426,4269.487305,4323.077148,4316.666504,4324.102539,4311.922852,4521.153809,4488.974121,4404.615234,4455.641113,3054.000000,4.000000,89.000000,,,,0.000000,4.000000,4.000000,4.000000,4.000000,4.000000,4.000000,4.000000,4.000000,4.000000,4.000000,4.000000,4.000000,4.000000,4.000000,100.000000,,,,,,,,,,,,,,,,,,,,,,,,,,,,
1703490892.994887,1703490892.995116,14.000000,0.000000,4315.512695,4349.102539,4338.333496,4307.436035,4298.589844,4275.769043,4321.922852,4313.974121,4316.538574,4305.897461,4514.743652,4484.487305,4403.205078,4451.153809,5980.000000,4.000000,89.000000,,,,0.000000,4.000000,4.000000,4.000000,4.000000,4.000000,4.000000,4.000000,4.000000,4.000000,4.000000,4.000000,4.000000,4.000000,4.000000,100.000000,,,,,,,,,,,,,,,,,,,,,,,,,,,,
1703490893.002695,1703490893.002824,15.000000,0.000000,4314.871582,4344.743652,4331.666504,4311.794922,4301.922852,4289.358887,4326.025879,4303.974121,4303.846191,4292.179688,4498.461426,4478.461426,4384.743652,4440.128418,5631.000000,4.000000,89.000000,,,,0.000000,4.000000,4.000000,4.000000,4.000000,4.000000,4.000000,4.000000,4.000000,4.000000,4.000000,4.000000,4.000000,4.000000,4.000000,100.000000,,,,,,,,,,,,,,,,,,,,,,,,,,,,
1703490893.010503,1703490893.010632,16.000000,0.000000,4321.153809,4352.307617,4331.538574,4311.153809,4306.410156,4299.102539,4330.384766,4297.307617,4288.589844,4275.256348,4486.666504,4477.692383,4374.743652,4440.000000,0.000000,4.000000,89.000000,,,,0.000000,4.000000,4.000000,4.000000,4.000000,4.000000,4.000000,4.000000,4.000000,4.000000,4.000000,4.000000,4.000000,4.000000,4.000000,100.000000,,,,,,,,,,,,,,,,,4.000000,0.000000,0.674000,-0.111145,-0.687195,-0.247253,0.984007,0.186546,0.032230,-19.935970,-32.321968,64.116394
1703490893.018311,1703490893.018340,17.000000,0.000000,4325.641113,4358.205078,4340.641113,4314.230957,4312.692383,4310.641113,4337.051270,4298.974121,4279.358887,4267.948730,4492.563965,4479.358887,4384.358887,4448.846191,0.000000,4.000000,89.000000,,,,0.000000,4.000000,4.000000,4.000000,4.000000,4.000000,4.000000,4.000000,4.000000,4.000000,4.000000,4.000000,4.000000,4.000000,4.000000,100.000000,,,,,,,,,,,,,,,,,,,,,,,,,,,,
1703490893.026119,1703490893.026248,18.000000,0.000000,4322.307617,4351.410156,4343.077148,4315.897461,4318.205078,4319.615234,4339.487305,4299.102539,4279.102539,4266.282227,4498.589844,4478.461426,4384.743652,4446.538574,0.000000,4.000000,89.000000,,,,0.000000,4.000000,4.000000,4.000000,4.000000,4.000000,4.000000,4.000000,4.000000,4.000000,4.000000,4.000000,4.000000,4.000000,4.000000,100.000000,,,,,,,,,,,,,,,,,,,,,,,,,,,,
1703490893.033927,1703490893.034056,19.000000,0.000000,4321.794922,4350.512695,4341.282227,4314.230957,4320.641113,4320.256348,4336.538574,4297.307617,4286.666504,4273.333496,4497.692383,4481.538574,4380.000000,4449.358887,0.000000,4.000000,89.000000,,,,0.000000,4.000000,4.000000,4.000000,4.000000,4.000000,4.000000,4.000000,4.000000,4.000000,4.000000,4.000000,4.000000,4.000000,4.000000,100.000000,,,,,,,,,,,,,,,,,,,,,,,,,,,,
1703490893.041735,1703490893.041864,20.000000,0.000000,4323.846191,4356.666504,4343.077148,4310.641113,4315.256348,4314.487305,4330.769043,4297.051270,4294.230957,4285.897461,4500.256348,4485.769043,4390.256348,4460.641113,0.000000,4.000000,89.000000,,,,0.000000,4.000000,4.000000,4.000000,4.000000,4.000000,4.000000,4.000000,4.000000,4.000000,4.000000,4.000000,4.000000,4.000000,4.000000,100.000000,,,,,,,,,,,,,,,,,5.000000,0.000000,0.673918,-0.110962,-0.687195,-0.247559,0.960566,0.189965,0.021975,-20.142372,-32.323105,64.138092
1703490893.049543,1703490893.049572,21.000000,0.000000,4325.641113,4351.153809,4341.794922,4305.512695,4308.461426,4302.563965,4324.102539,4299.487305,4301.538574,4291.025879,4505.512695,4483.333496,4400.769043,4460.384766,0.000000,4.000000,89.000000,,,,0.000000,4.000000,4.000000,4.000000,4.000000,4.000000,4.000000,4.000000,4.000000,4.000000,4.000000,4.000000,4.000000,4.000000,4.000000,100.000000,,,,,,,,,,,,,,,,,,,,,,,,,,,,
1703490893.057351,1703490893.057380,22.000000,0.000000,4325.128418,4342.051270,4339.487305,4304.487305,4305.769043,4292.436035,4320.384766,4305.769043,4313.205078,4298.333496,4510.897461,4482.692383,4401.922852,4455.128418,0.000000,4.000000,89.000000,,,,0.000000,4.000000,4.000000,4.000000,4.000000,4.000000,4.000000,4.000000,4.000000,4.000000,4.000000,4.000000,4.000000,4.000000,4.000000,100.000000,,,,,,,,,,,,,,,,,,,,,,,,,,,,
1703490893.065159,1703490893.065088,23.000000,0.000000,4321.410156,4346.922852,4344.102539,4308.205078,4304.358887,4285.256348,4316.922852,4309.871582,4324.615234,4309.615234,4517.948730,4488.461426,4407.563965,4458.717773,0.000000,4.000000,89.000000,,,,0.000000,4.000000,4.000000,4.000000,4.000000,4.000000,4.000000,4.000000,4.000000,4.000000,4.000000,4.000000,4.000000,4.000000,4.000000,100.000000,,,,,,,,,,,,,,,,,,,,,,,,,,,,
1703490893.072967,1703490893.072996,24.000000,0.000000,4322.436035,4356.410156,4350.641113,4309.615234,4303.717773,4274.871582,4310.512695,4312.563965,4328.846191,4312.307617,4523.205078,4489.615234,4415.128418,4463.589844,0.000000,4.000000,89.000000,,,,0.000000,4.000000,4.000000,4.000000,4.000000,4.000000,4.000000,4.000000,4.000000,4.000000,4.000000,4.000000,4.000000,4.000000,4.000000,100.000000,,,,,,,,,,,,,,,,,6.000000,0.000000,0.673955,-0.110840,-0.687134,-0.247681,0.987914,0.193871,0.040044,-20.111469,-32.457462,64.190948
1703490893.080776,1703490893.080804,25.000000,0.000000,4329.743652,4356.538574,4350.897461,4310.512695,4302.820313,4271.410156,4307.307617,4314.487305,4325.256348,4308.717773,4517.692383,4487.692383,4408.333496,4461.282227,0.000000,4.000000,89.000000,,,,0.000000,4.000000,4.000000,4.000000,4.000000,4.000000,4.000000,4.000000,4.000000,4.000000,4.000000,4.000000,4.000000,4.000000,4.000000,100.000000,,,,,,,,,,,,,,,,,,,,,,,,,,,,
1703490893.088584,1703490893.088712,26.000000,0.000000,4329.743652,4351.922852,4347.692383,4315.769043,4307.436035,4285.256348,4309.615234,4314.615234,4319.487305,4299.743652,4504.615234,4487.436035,4390.769043,4456.666504,0.000000,4.000000,89.000000,,,,0.000000,4.000000,4.000000,4.000000,4.000000,4.000000,4.000000,4.000000,4.000000,4.000000,4.000000,4.000000,4.000000,4.000000,4.000000,100.000000,,,,,,,,,,,,,,,,,,,,,,,,,,,,
1703490893.096392,1703490893.096520,27.000000,0.000000,4322.307617,4348.717773,4343.077148,4315.897461,4316.666504,4301.538574,4310.256348,4309.871582,4309.743652,4287.436035,4497.948730,4481.025879,4384.615234,4448.205078,0.000000,4.000000,89.000000,,,,0.000000,4.000000,4.000000,4.000000,4.000000,4.000000,4.000000,4.000000,4.000000,4.000000,4.000000,4.000000,4.000000,4.000000,4.000000,100.000000,,,,,,,,,,,,,,,,,,,,,,,,,,,,
1703490893.104200,1703490893.104428,28.000000,0.000000,4318.589844,4345.512695,4333.077148,4309.615234,4315.000000,4304.871582,4308.077148,4303.589844,4291.666504,4275.512695,4491.282227,4474.102539,4383.717773,4439.487305,0.000000,4.000000,89.000000,,,,0.000000,4.000000,4.000000,4.000000,4.000000,4.000000,4.000000,4.000000,4.000000,4.000000,4.000000,4.000000,4.000000,4.000000,4.000000,100.000000,,,,,,,,,,,,,,,,,7.000000,0.000000,0.673950,-0.110901,-0.687195,-0.247498,0.980588,0.186546,0.031254,-20.216990,-32.495049,64.071854
1703490893.112008,1703490893.112236,29.000000,0.000000,4318.717773,4346.538574,4330.769043,4309.230957,4306.922852,4306.794922,4311.666504,4303.077148,4278.077148,4266.282227,4483.077148,4478.974121,4379.871582,4445.256348,0.000000,4.000000,89.000000,,,,0.000000,4.000000,4.000000,4.000000,4.000000,4.000000,4.000000,4.000000,4.000000,4.000000,4.000000,4.000000,4.000000,4.000000,4.000000,100.000000,,,,,,,,,,,,,,,,,,,,,,,,,,,,
1703490893.119816,1703490893.120144,30.000000,0.000000,4322.948730,4352.692383,4339.743652,4312.307617,4312.820313,4317.179688,4317.563965,4303.589844,4282.692383,4267.307617,4489.102539,4484.102539,4383.974121,4456.410156,0.000000,4.000000,89.000000,,,,0.000000,4.000000,4.000000,4.000000,4.000000,4.000000,4.000000,4.000000,4.000000,4.000000,4.000000,4.000000,4.000000,4.000000,4.000000,100.000000,,,,,,,,,,,,,,,,,,,,,,,,,,,,
1703490893.127624,1703490893.127952,31.000000,0.000000,4323.461426,4354.743652,4339.358887,4311.153809,4321.538574,4317.820313,4314.743652,4298.974121,4284.615234,4272.436035,4497.307617,4481.025879,4387.820313,4453.205078,0.000000,4.000000,89.000000,,,,0.000000,4.000000,4.000000,4.000000,4.000000,4.000000,4.000000,4.000000,4.000000,4.000000,4.000000,4.000000,4.000000,4.000000,4.000000,100.000000,,,,,,,,,,,,,,,,,,,,,,,,,,,,
1703490893.135432,1703490893.135860,32.000000,0.000000,4318.846191,4353.333496,4334.358887,4311.538574,4315.641113,4304.743652,4313.205078,4294.615234,4278.974121,4277.051270,4496.282227,4480.769043,4390.641113,4448.974121,0.000000,4.000000,89.000000,,,,0.000000,4.000000,4.000000,4.000000,4.000000,4.000000,4.000000,4.000000,4.000000,4.000000,4.000000,4.000000,4.000000,4.000000,4.000000,100.000000,,,,,,,,,,,,,,,,,8.000000,0.000000,0.673963,-0.110962,-0.687195,-0.247437,0.984007,0.182639,0.036626,-20.195290,-32.512211,64.081329
1703490893.143240,1703490893.143668,33.000000,0.000000,4322.563965,4357.051270,4339.487305,4314.743652,4309.230957,4297.179688,4318.205078,4296.922852,4290.769043,4289.230957,4499.871582,4484.615234,4401.410156,4458.974121,0.000000,4.000000,89.000000,,,,0.000000,4.000000,4.000000,4.000000,4.000000,4.000000,4.000000,4.000000,4.000000,4.000000,4.000000,4.000000,4.000000,4.000000,4.000000,100.000000,,,,,,,,,,,,,,,,,,,,,,,,,,,,
1703490893.151048,1703490893.151376,34.000000,0.000000,4329.871582,4360.641113,4342.436035,4314.230957,4310.384766,4293.077148,4315.897461,4303.333496,4313.461426,4301.922852,4506.538574,4485.256348,4404.102539,4460.384766,0.000000,4.000000,89.000000,,,,0.000000,4.000000,4.000000,4.000000,4.000000,4.000000,4.000000,4.000000,4.000000,4.000000,4.000000,4.000000,4.000000,4.000000,4.000000,100.000000,,,,,,,,,,,,,,,,,,,,,,,,,,,,
1703490893.158856,1703490893.159184,35.000000,0.000000,4334.487305,4359.615234,4343.333496,4314.871582,4307.820313,4285.000000,4312.051270,4312.563965,4326.282227,4308.461426,4512.307617,4486.794922,4402.307617,4456.282227,0.000000,4.000000,89.000000,,,,0.000000,4.000000,4.000000,4.000000,4.000000,4.000000,4.000000,4.000000,4.000000,4.000000,4.000000,4.000000,4.000000,4.000000,4.000000,100.000000,,,,,,,,,,,,,,,,,,,,,,,,,,,,
1703490893.166664,1703490893.166892,36.000000,0.000000,4338.717773,4358.846191,4351.922852,4319.102539,4303.461426,4280.000000,4318.333496,4318.333496,4328.077148,4310.641113,4520.000000,4492.179688,4413.333496,4463.589844,0.000000,4.000000,89.000000,,,,0.000000,4.000000,4.000000,4.000000,4.000000,4.000000,4.000000,4.000000,4.000000,4.000000,4.000000,4.000000,4.000000,4.000000,4.000000,100.000000,,,,,,,,,,,,,,,,,9.000000,0.000000,0.673975,-0.111023,-0.687195,-0.247375,0.971310,0.185570,0.039556,-20.092428,-32.477657,64.089867
1703490893.174472,1703490893.174700,37.000000,0.000000,4339.358887,4358.205078,4354.102539,4320.128418,4304.358887,4277.948730,4323.589844,4315.769043,4325.128418,4302.307617,4512.820313,4490.641113,4411.794922,4463.974121,0.000000,4.000000,89.000000,,,,0.000000,4.000000,4.000000,4.000000,4.000000,4.000000,4.000000,4.000000,4.000000,4.000000,4.000000,4.000000,4.000000,4.000000,4.000000,100.000000,,,,,,,,,,,,,,,,,,,,,,,,,,,,
1703490893.182280,1703490893.182408,38.000000,0.000000,4334.743652,4356.538574,4346.794922,4314.871582,4306.282227,4275.128418,4321.410156,4313.974121,4310.384766,4286.025879,4492.563965,4482.051270,4389.487305,4450.384766,0.000000,4.000000,89.000000,,,,0.000000,4.000000,4.000000,4.000000,4.000000,4.000000,4.000000,4.000000,4.000000,4.000000,4.000000,4.000000,4.000000,4.000000,4.000000,100.000000,,,,,,,,,,,,,,,,,,,,,,,,,,,,
1703490893.190088,1703490893.190216,39.000000,0.000000,4329.615234,4358.077148,4341.538574,4310.000000,4305.256348,4278.461426,4322.436035,4308.205078,4288.846191,4270.641113,4483.846191,4480.128418,4376.025879,4446.282227,0.000000,4.000000,89.000000,,,,0.000000,4.000000,4.000000,4.000000,4.000000,4.000000,4.000000,4.000000,4.000000,4.000000,4.000000,4.000000,4.000000,4.000000,4.000000,100.000000,,,,,,,,,,,,,,,,,,,,,,,,,,,,
1703490893.197896,1703490893.197924,40.000000,0.000000,4324.487305,4357.436035,4341.410156,4313.589844,4311.025879,4291.025879,4328.333496,4298.974121,4279.871582,4263.717773,4483.717773,4481.153809,4376.153809,4454.743652,0.000000,4.000000,89.000000,,,,0.000000,4.000000,4.000000,4.000000,4.000000,4.000000,4.000000,4.000000,4.000000,4.000000,4.000000,4.000000,4.000000,4.000000,4.000000,100.000000,,,,,,,,,,,,,,,,,10.000000,0.000000,0.674047,-0.110962,-0.687134,-0.247375,0.974728,0.178733,0.028812,-20.083185,-32.446556,64.014214
1703490893.205704,1703490893.205732,41.000000,0.000000,4326.282227,4352.051270,4344.615234,4319.230957,4320.256348,4305.384766,4336.282227,4301.666504,4283.077148,4265.384766,4481.538574,4480.897461,4379.743652,4453.717773,0.000000,4.000000,89.000000,,,,0.000000,4.000000,4.000000,4.000000,4.000000,4.000000,4.000000,4.000000,4.000000,4.000000,4.000000,4.000000,4.000000,4.000000,4.000000,100.000000,,,,,,,,,,,,,,,,,,,,,,,,,,,,
1703490893.213513,1703490893.213440,42.000000,0.000000,4340.641113,4353.077148,4344.615234,4316.666504,4319.102539,4312.820313,4341.282227,4308.846191,4281.282227,4268.461426,4484.230957,4484.230957,4385.641113,4454.358887,0.000000,4.000000,89.000000,,,,0.000000,4.000000,4.000000,4.000000,4.000000,4.000000,4.000000,4.000000,4.000000,4.000000,4.000000,4.000000,4.000000,4.000000,4.000000,100.000000,,,,,,,,,,,,,,,,,,,,,,,,,,,,
1703490893.221321,1703490893.221348,43.000000,0.000000,4346.025879,4359.102539,4341.666504,4316.410156,4317.179688,4313.717773,4342.051270,4305.128418,4276.282227,4269.230957,4493.205078,4485.512695,4393.205078,4469.871582,0.000000,4.000000,89.000000,,,,0.000000,4.000000,4.000000,4.000000,4.000000,4.000000,4.000000,4.000000,4.000000,4.000000,4.000000,4.000000,4.000000,4.000000,4.000000,100.000000,,,,,,,,,,,,,,,,,,,,,,,,,,,,
1703490893.229128,1703490893.229156,44.000000,0.000000,4333.717773,4358.717773,4343.846191,4321.282227,4319.743652,4310.897461,4341.666504,4301.025879,4282.820313,4273.974121,4497.051270,4483.333496,4396.410156,4472.948730,0.000000,4.000000,89.000000,,,,0.000000,4.000000,4.000000,4.000000,4.000000,4.000000,4.000000,4.000000,4.000000,4.000000,4.000000,4.000000,4.000000,4.000000,4.000000,100.000000,,,,,,,,,,,,,,,,,11.000000,0.000000,0.673985,-0.110962,-0.687195,-0.247375,0.979612,0.178244,0.039556,-20.324867,-32.351902,63.912792
1703490893.236937,1703490893.236964,45.000000,0.000000,4332.563965,4357.692383,4348.077148,4318.589844,4317.692383,4302.436035,4334.358887,4306.410156,4295.769043,4280.512695,4495.512695,4484.615234,4396.025879,4459.615234,0.000000,4.000000,89.000000,,,,0.000000,4.000000,4.000000,4.000000,4.000000,4.000000,4.000000,4.000000,4.000000,4.000000,4.000000,4.000000,4.000000,4.000000,4.000000,100.000000,,,,,,,,,,,,,,,,,,,,,,,,,,,,
1703490893.244745,1703490893.244672,46.000000,0.000000,4348.333496,4364.102539,4354.615234,4317.820313,4318.205078,4292.563965,4329.358887,4312.307617,4311.282227,4290.384766,4505.384766,4488.846191,4399.615234,4463.461426,0.000000,4.000000,89.000000,,,,0.000000,4.000000,4.000000,4.000000,4.000000,4.000000,4.000000,4.000000,4.000000,4.000000,4.000000,4.000000,4.000000,4.000000,4.000000,100.000000,,,,,,,,,,,,,,,,,,,,,,,,,,,,
1703490893.252553,1703490893.252579,47.000000,0.000000,4349.615234,4367.692383,4360.000000,4325.384766,4322.820313,4289.102539,4334.487305,4315.897461,4326.153809,4302.436035,4517.820313,4491.153809,4405.641113,4472.820313,0.000000,4.000000,89.000000,,,,0.000000,4.000000,4.000000,4.000000,4.000000,4.000000,4.000000,4.000000,4.000000,4.000000,4.000000,4.000000,4.000000,4.000000,4.000000,100.000000,,,,,,,,,,,,,,,,,,,,,,,,,,,,
1703490893.260361,1703490893.260387,48.000000,0.000000,4338.205078,4365.256348,4352.563965,4325.641113,4318.461426,4282.948730,4334.871582,4315.000000,4323.846191,4300.641113,4513.333496,4487.436035,4405.641113,4465.000000,0.000000,4.000000,89.000000,,,,0.000000,4.000000,4.000000,4.000000,4.000000,4.000000,4.000000,4.000000,4.000000,4.000000,4.000000,4.000000,4.000000,4.000000,4.000000,100.000000,,,,,,,,,,,,,,,,,12.000000,0.000000,0.673982,-0.111145,-0.687256,-0.247131,0.970822,0.184593,0.030277,-20.359047,-32.433376,63.871513
1703490893.268169,1703490893.268295,49.000000,0.000000,4337.692383,4362.692383,4346.794922,4319.230957,4312.948730,4276.153809,4327.820313,4311.922852,4310.128418,4287.179688,4500.000000,4485.641113,4400.256348,4458.461426,0.000000,4.000000,89.000000,,,,0.000000,4.000000,4.000000,4.000000,4.000000,4.000000,4.000000,4.000000,4.000000,4.000000,4.000000,4.000000,4.000000,4.000000,4.000000,100.000000,,,,,,,,,,,,,,,,,,,,,,,,,,,,
1703490893.275977,1703490893.276103,50.000000,0.000000,4336.025879,4361.410156,4351.922852,4319.358887,4319.358887,4281.025879,4326.538574,4309.230957,4303.846191,4274.871582,4490.128418,4484.743652,4390.000000,4457.051270,0.000000,4.000000,89.000000,,,,0.000000,4.000000,4.000000,4.000000,4.000000,4.000000,4.000000,4.000000,4.000000,4.000000,4.000000,4.000000,4.000000,4.000000,4.000000,100.000000,,,,,,,,,,,,,,,,,,,,,,,,,,,,
1703490893.283785,1703490893.284011,51.000000,0.000000,4330.769043,4360.897461,4349.743652,4320.256348,4325.769043,4288.717773,4328.589844,4305.000000,4297.820313,4265.256348,4485.384766,4481.410156,4379.102539,4448.461426,0.000000,4.000000,89.000000,,,,0.000000,4.000000,4.000000,4.000000,4.000000,4.000000,4.000000,4.000000,4.000000,4.000000,4.000000,4.000000,4.000000,4.000000,4.000000,100.000000,,,,,,,,,,,,,,,,,,,,,,,,,,,,
1703490893.291593,1703490893.291819,52.000000,0.000000,4336.410156,4357.563965,4342.179688,4317.820313,4326.666504,4291.666504,4327.692383,4300.256348,4284.615234,4259.871582,4482.563965,4481.025879,4376.538574,4446.282227,0.000000,4.000000,89.000000,,,,0.000000,4.000000,4.000000,4.000000,4.000000,4.000000,4.000000,4.000000,4.000000,4.000000,4.000000,4.000000,4.000000,4.000000,4.000000,100.000000,,,,,,,,,,,,,,,,,13.000000,0.000000,0.673957,-0.111328,-0.687317,-0.246948,0.969845,0.188988,0.031254,-20.306475,-32.506706,63.784363
1703490893.299401,1703490893.299727,53.000000,0.000000,4341.153809,4355.000000,4344.230957,4316.410156,4326.153809,4297.563965,4332.179688,4301.538574,4280.128418,4262.948730,4483.974121,4482.820313,4381.666504,4455.384766,0.000000,4.000000,89.000000,,,,0.000000,4.000000,4.000000,4.000000,4.000000,4.000000,4.000000,4.000000,4.000000,4.000000,4.000000,4.000000,4.000000,4.000000,4.000000,100.000000,,,,,,,,,,,,,,,,,,,,,,,,,,,,
1703490893.307209,1703490893.307535,54.000000,0.000000,4337.179688,4357.179688,4351.538574,4319.615234,4322.307617,4305.128418,4342.307617,4306.410156,4287.051270,4271.922852,4492.563965,4485.641113,4388.205078,4464.230957,0.000000,4.000000,89.000000,,,,0.000000,4.000000,4.000000,4.000000,4.000000,4.000000,4.000000,4.000000,4.000000,4.000000,4.000000,4.000000,4.000000,4.000000,4.000000,100.000000,,,,,,,,,,,,,,,,,,,,,,,,,,,,
1703490893.315017,1703490893.315443,55.000000,0.000000,4341.410156,4359.358887,4355.000000,4323.461426,4320.000000,4304.743652,4346.282227,4307.820313,4288.717773,4277.820313,4502.948730,4490.641113,4396.410156,4473.333496,0.000000,4.000000,89.000000,,,,0.000000,4.000000,4.000000,4.000000,4.000000,4.000000,4.000000,4.000000,4.000000,4.000000,4.000000,4.000000,4.000000,4.000000,4.000000,100.000000,,,,,,,,,,,,,,,,,,,,,,,,,,,,
1703490893.322825,1703490893.323251,56.000000,0.000000,4349.487305,4357.179688,4354.487305,4322.436035,4323.974121,4299.615234,4339.615234,4306.538574,4283.589844,4278.205078,4505.128418,4491.410156,4404.615234,4476.538574,0.000000,4.000000,89.000000,,,,0.000000,4.000000,4.000000,4.000000,4.000000,4.000000,4.000000,4.000000,4.000000,4.000000,4.000000,4.000000,4.000000,4.000000,4.000000,100.000000,,,,,,,,,,,,,,,,,14.000000,0.000000,0.673887,-0.111267,-0.687439,-0.246826,0.978635,0.180198,0.028324,-20.242495,-32.522701,63.772591
1703490893.330633,1703490893.330959,57.000000,0.000000,4343.461426,4355.897461,4350.128418,4315.897461,4318.333496,4288.974121,4330.897461,4306.538574,4285.256348,4277.179688,4501.153809,4485.769043,4398.974121,4465.000000,0.000000,4.000000,89.000000,,,,0.000000,4.000000,4.000000,4.000000,4.000000,4.000000,4.000000,4.000000,4.000000,4.000000,4.000000,4.000000,4.000000,4.000000,4.000000,100.000000,,,,,,,,,,,,,,,,,,,,,,,,,,,,
1703490893.338441,1703490893.338767,58.000000,0.000000,4335.384766,4355.641113,4347.051270,4312.692383,4307.563965,4276.794922,4327.307617,4310.000000,4300.641113,4280.897461,4502.563965,4484.358887,4390.641113,4458.077148,0.000000,4.000000,89.000000,,,,0.000000,4.000000,4.000000,4.000000,4.000000,4.000000,4.000000,4.000000,4.000000,4.000000,4.000000,4.000000,4.000000,4.000000,4.000000,100.000000,,,,,,,,,,,,,,,,,,,,,,,,,,,,
1703490893.346249,1703490893.346475,59.000000,0.000000,4333.974121,4351.025879,4345.384766,4316.025879,4310.512695,4272.948730,4328.205078,4311.538574,4318.589844,4287.563965,4503.717773,4487.179688,4394.102539,4463.461426,0.000000,4.000000,89.000000,,,,0.000000,4.000000,4.000000,4.000000,4.000000,4.000000,4.000000,4.000000,4.000000,4.000000,4.000000,4.000000,4.000000,4.000000,4.000000,100.000000,,,,,,,,,,,,,,,,,,,,,,,,,,,,
1703490893.354057,1703490893.354283,60.000000,0.000000,4336.282227,4348.077148,4341.922852,4317.692383,4316.794922,4276.666504,4330.769043,4310.769043,4322.179688,4289.102539,4499.871582,4486.153809,4394.615234,4465.512695,0.000000,4.000000,89.000000,,,,0.000000,4.000000,4.000000,4.000000,4.000000,4.000000,4.000000,4.000000,4.000000,4.000000,4.000000,4.000000,4.000000,4.000000,4.000000,100.000000,,,,,,,,,,,,,,,,,15.000000,0.000000,0.673977,-0.111267,-0.687439,-0.246582,0.967403,0.185570,0.016604,-20.218245,-32.537098,63.728664
1703490893.361865,1703490893.361991,61.000000,0.000000,4337.948730,4347.820313,4342.436035,4315.128418,4316.666504,4283.205078,4330.256348,4312.179688,4317.820313,4287.563965,4499.871582,4482.692383,4389.743652,4461.922852,0.000000,4.000000,89.000000,,,,0.000000,4.000000,4.000000,4.000000,4.000000,4.000000,4.000000,4.000000,4.000000,4.000000,4.000000,4.000000,4.000000,4.000000,4.000000,100.000000,,,,,,,,,,,,,,,,,,,,,,,,,,,,
1703490893.369674,1703490893.369799,62.000000,0.000000,4337.820313,4345.897461,4342.051270,4310.384766,4315.897461,4285.769043,4328.589844,4310.384766,4312.692383,4282.820313,4497.692383,4481.153809,4386.666504,4456.153809,0.000000,4.000000,89.000000,,,,0.000000,4.000000,4.000000,4.000000,4.000000,4.000000,4.000000,4.000000,4.000000,4.000000,4.000000,4.000000,4.000000,4.000000,4.000000,100.000000,,,,,,,,,,,,,,,,,,,,,,,,,,,,
1703490893.377482,1703490893.377507,63.000000,0.000000,4340.000000,4347.436035,4341.282227,4312.563965,4315.641113,4286.282227,4331.025879,4307.563965,4305.897461,4274.871582,4489.615234,4482.307617,4383.333496,4452.307617,0.000000,4.000000,89.000000,,,,0.000000,4.000000,4.000000,4.000000,4.000000,4.000000,4.000000,4.000000,4.000000,4.000000,4.000000,4.000000,4.000000,4.000000,4.000000,100.000000,,,,,,,,,,,,,,,,,,,,,,,,,,,,
1703490893.385290,1703490893.385315,64.000000,0.000000,4339.230957,4351.153809,4342.948730,4318.333496,4316.410156,4291.025879,4334.487305,4308.461426,4297.692383,4267.692383,4483.461426,4480.000000,4377.820313,4456.153809,5033.000000,4.000000,89.000000,,,,0.000000,4.000000,4.000000,4.000000,4.000000,4.000000,4.000000,4.000000,4.000000,4.000000,4.000000,4.000000,4.000000,4.000000,4.000000,100.000000,,,,,,,,,,,,,,,,,16.000000,0.000000,0.674029,-0.111328,-0.687378,-0.246582,0.967892,0.184593,0.027835,-20.179754,-32.566723,63.872467
1703490893.393098,1703490893.393023,65.000000,0.000000,4333.974121,4346.794922,4341.666504,4311.794922,4318.333496,4297.692383,4334.871582,4307.051270,4286.282227,4260.641113,4481.410156,4479.102539,4374.358887,4459.358887,5686.000000,4.000000,89.000000,,,,0.000000,4.000000,4.000000,4.000000,4.000000,4.000000,4.000000,4.000000,4.000000,4.000000,4.000000,4.000000,4.000000,4.000000,4.000000,100.000000,,,,,,,,,,,,,,,,,,,,,,,,,,,,
1703490893.400906,1703490893.400831,66.000000,0.000000,4328.589844,4339.615234,4337.307617,4302.179688,4315.256348,4300.512695,4334.358887,4298.846191,4278.333496,4255.769043,4481.794922,4480.128418,4376.410156,4458.974121,5345.000000,4.000000,89.000000,,,,0.000000,4.000000,4.000000,4.000000,4.000000,4.000000,4.000000,4.000000,4.000000,4.000000,4.000000,4.000000,4.000000,4.000000,4.000000,100.000000,,,,,,,,,,,,,,,,,,,,,,,,,,,,
1703490893.408714,1703490893.408539,67.000000,0.000000,4326.666504,4338.461426,4335.256348,4301.282227,4306.666504,4292.820313,4331.666504,4297.436035,4277.692383,4257.436035,4487.563965,4479.871582,4385.128418,4465.897461,5512.000000,4.000000,89.000000,,,,0.000000,4.000000,4.000000,4.000000,4.000000,4.000000,4.000000,4.000000,4.000000,4.000000,4.000000,4.000000,4.000000,4.000000,4.000000,100.000000,,,,,,,,,,,,,,,,,,,,,,,,,,,,
1703490893.416522,1703490893.416347,68.000000,0.000000,4330.128418,4338.846191,4338.974121,4304.230957,4303.589844,4282.563965,4326.410156,4305.256348,4287.051270,4269.358887,4497.307617,4485.384766,4397.051270,4470.512695,5298.000000,4.000000,89.000000,,,,0.000000,4.000000,4.000000,4.000000,4.000000,4.000000,4.000000,4.000000,4.000000,4.000000,4.000000,4.000000,4.000000,4.000000,4.000000,100.000000,,,,,,,,,,,,,,,,,17.000000,0.000000,0.674011,-0.111328,-0.687439,-0.246460,0.974728,0.184593,0.029300,-20.161777,-32.526718,63.851887
1703490893.424330,1703490893.424055,69.000000,0.000000,4334.743652,4342.051270,4342.948730,4306.538574,4307.563965,4283.333496,4326.153809,4312.179688,4306.282227,4286.666504,4508.589844,4491.666504,4403.461426,4467.436035,5177.000000,4.000000,89.000000,,,,0.000000,4.000000,4.000000,4.000000,4.000000,4.000000,4.000000,4.000000,4.000000,4.000000,4.000000,4.000000,4.000000,4.000000,4.000000,100.000000,,,,,,,,,,,,,,,,,,,,,,,,,,,,
1703490893.432138,1703490893.431963,70.000000,0.000000,4339.358887,4345.000000,4348.077148,4311.666504,4306.282227,4281.794922,4326.410156,4316.410156,4324.615234,4296.410156,4515.897461,4491.666504,4403.717773,4470.128418,3316.000000,4.000000,89.000000,,,,0.000000,4.000000,4.000000,4.000000,4.000000,4.000000,4.000000,4.000000,4.000000,4.000000,4.000000,4.000000,4.000000,4.000000,4.000000,100.000000,,,,,,,,,,,,,,,,,,,,,,,,,,,,
1703490893.439946,1703490893.439771,71.000000,0.000000,4342.692383,4343.077148,4351.282227,4318.077148,4306.794922,4274.102539,4325.000000,4316.282227,4331.153809,4301.025879,4516.666504,4488.461426,4402.179688,4473.333496,2782.000000,4.000000,89.000000,,,,0.000000,4.000000,4.000000,4.000000,4.000000,4.000000,4.000000,4.000000,4.000000,4.000000,4.000000,4.000000,4.000000,4.000000,4.000000,100.000000,1.000000,41.666668,4.000000,1.000000,4.000000,4.000000,3.000000,3.000000,1.000000,3.000000,4.000000,3.000000,4.000000,4.000000,4.000000,4.000000,,,,,,,,,,,,
1703490893.447754,1703490893.447679,72.000000,0.000000,4338.589844,4342.820313,4346.282227,4317.948730,4314.487305,4276.153809,4325.769043,4311.410156,4327.820313,4302.692383,4513.717773,4487.051270,4399.102539,4468.333496,4268.000000,4.000000,89.000000,,,,0.000000,4.000000,4.000000,4.000000,4.000000,4.000000,4.000000,4.000000,4.000000,4.000000,4.000000,4.000000,4.000000,4.000000,4.000000,100.000000,,,,,,,,,,,,,,,,,18.000000,0.000000,0.674019,-0.111389,-0.687378,-0.246582,0.981077,0.197778,0.022464,-19.928934,-32.540710,63.800030
1703490893.455562,1703490893.455487,73.000000,0.000000,4333.205078,4346.410156,4340.897461,4313.717773,4312.948730,4281.282227,4326.153809,4310.897461,4321.410156,4293.717773,4507.179688,4485.897461,4393.077148,4465.256348,5450.000000,4.000000,89.000000,,,,0.000000,4.000000,4.000000,4.000000,4.000000,4.000000,4.000000,4.000000,4.000000,4.000000,4.000000,4.000000,4.000000,4.000000,4.000000,100.000000,,,,,,,,,,,,,,,,,,,,,,,,,,,,
1703490893.463370,1703490893.463395,74.000000,0.000000,4336.410156,4348.846191,4342.820313,4314.358887,4307.563965,4282.948730,4323.077148,4309.743652,4311.538574,4278.717773,4500.256348,4483.461426,4388.205078,4466.794922,5968.000000,4.000000,89.000000,,,,0.000000,4.000000,4.000000,4.000000,4.000000,4.000000,4.000000,4.000000,4.000000,4.000000,4.000000,4.000000,4.000000,4.000000,4.000000,100.000000,,,,,,,,,,,,,,,,,,,,,,,,,,,,
1703490893.471178,1703490893.471203,75.000000,0.000000,4332.179688,4347.051270,4342.436035,4313.717773,4313.205078,4288.333496,4321.666504,4298.077148,4298.205078,4271.538574,4492.948730,4477.692383,4385.641113,4462.436035,5606.000000,4.000000,89.000000,,,,0.000000,4.000000,4.000000,4.000000,4.000000,4.000000,4.000000,4.000000,4.000000,4.000000,4.000000,4.000000,4.000000,4.000000,4.000000,100.000000,,,,,,,,,,,,,,,,,,,,,,,,,,,,
1703490893.478986,1703490893.479111,76.000000,0.000000,4324.230957,4342.820313,4334.358887,4305.128418,4321.538574,4297.820313,4328.461426,4292.948730,4288.333496,4268.846191,4485.641113,4475.000000,4379.358887,4458.077148,5890.000000,4.000000,89.000000,,,,0.000000,4.000000,4.000000,4.000000,4.000000,4.000000,4.000000,4.000000,4.000000,4.000000,4.000000,4.000000,4.000000,4.000000,4.000000,100.000000,,,,,,,,,,,,,,,,,19.000000,0.000000,0.674004,-0.111450,-0.687317,-0.246765,0.980588,0.204126,0.028324,-19.869373,-32.603306,63.853359
1703490893.486794,1703490893.486918,77.000000,0.000000,4333.205078,4342.179688,4336.153809,4305.256348,4322.820313,4308.205078,4337.051270,4301.153809,4286.666504,4268.461426,4490.384766,4481.410156,4378.461426,4463.846191,3039.000000,4.000000,89.000000,,,,0.000000,4.000000,4.000000,4.000000,4.000000,4.000000,4.000000,4.000000,4.000000,4.000000,4.000000,4.000000,4.000000,4.000000,4.000000,100.000000,,,,,,,,,,,,,,,,,,,,,,,,,,,,
1703490893.494602,1703490893.494826,78.000000,0.000000,4337.563965,4345.641113,4345.256348,4312.820313,4322.436035,4314.743652,4339.358887,4306.922852,4287.563965,4271.922852,4500.256348,4486.666504,4386.153809,4467.563965,5968.000000,4.000000,89.000000,,,,0.000000,4.000000,4.000000,4.000000,4.000000,4.000000,4.000000,4.000000,4.000000,4.000000,4.000000,4.000000,4.000000,4.000000,4.000000,100.000000,,,,,,,,,,,,,,,,,,,,,,,,,,,,
1703490893.502411,1703490893.502634,79.000000,0.000000,4332.436035,4345.897461,4346.666504,4312.563965,4319.487305,4310.384766,4337.948730,4307.179688,4289.230957,4272.051270,4498.717773,4485.128418,4390.769043,4464.358887,5606.000000,4.000000,89.000000,,,,0.000000,4.000000,4.000000,4.000000,4.000000,4.000000,4.000000,4.000000,4.000000,4.000000,4.000000,4.000000,4.000000,4.000000,4.000000,100.000000,,,,,,,,,,,,,,,,,,,,,,,,,,,,
1703490893.510219,1703490893.510542,80.000000,0.000000,4342.179688,4343.974121,4345.897461,4311.025879,4317.563965,4305.512695,4339.487305,4307.948730,4298.846191,4274.871582,4498.974121,4486.153809,4393.974121,4464.230957,5890.000000,4.000000,89.000000,,,,0.000000,4.000000,4.000000,4.000000,4.000000,4.000000,4.000000,4.000000,4.000000,4.000000,4.000000,4.000000,4.000000,4.000000,4.000000,100.000000,,,,,,,,,,,,,,,,,20.000000,0.000000,0.674054,-0.111389,-0.687256,-0.246826,0.982542,0.185081,0.035161,-19.815769,-32.659641,63.901360
1703490893.518026,1703490893.518350,81.000000,0.000000,4347.692383,4347.307617,4350.384766,4315.256348,4317.563965,4305.641113,4341.922852,4311.282227,4314.230957,4289.743652,4510.897461,4491.666504,4401.153809,4472.692383,3039.000000,4.000000,89.000000,,,,0.000000,4.000000,4.000000,4.000000,4.000000,4.000000,4.000000,4.000000,4.000000,4.000000,4.000000,4.000000,4.000000,4.000000,4.000000,100.000000,,,,,,,,,,,,,,,,,,,,,,,,,,,,
1703490893.525835,1703490893.526058,82.000000,0.000000,4339.102539,4348.717773,4353.974121,4317.436035,4314.230957,4301.025879,4341.922852,4320.641113,4329.358887,4304.358887,4515.641113,4492.820313,4403.974121,4480.641113,5968.000000,4.000000,89.000000,,,,0.000000,4.000000,4.000000,4.000000,4.000000,4.000000,4.000000,4.000000,4.000000,4.000000,4.000000,4.000000,4.000000,4.000000,4.000000,100.000000,,,,,,,,,,,,,,,,,,,,,,,,,,,,
1703490893.533643,1703490893.533866,83.000000,0.000000,4338.717773,4343.461426,4350.256348,4316.922852,4315.128418,4297.436035,4339.487305,4327.948730,4339.102539,4305.769043,4509.615234,4490.641113,4398.333496,4479.615234,5606.000000,4.000000,89.000000,,,,0.000000,4.000000,4.000000,4.000000,4.000000,4.000000,4.000000,4.000000,4.000000,4.000000,4.000000,4.000000,4.000000,4.000000,4.000000,100.000000,,,,,,,,,,,,,,,,,,,,,,,,,,,,
1703490893.541451,1703490893.541574,84.000000,0.000000,4339.487305,4343.846191,4344.358887,4314.743652,4316.025879,4293.333496,4333.717773,4319.871582,4337.436035,4299.230957,4506.410156,4488.846191,4394.102539,4479.230957,5890.000000,4.000000,89.000000,,,,0.000000,4.000000,4.000000,4.000000,4.000000,4.000000,4.000000,4.000000,4.000000,4.000000,4.000000,4.000000,4.000000,4.000000,4.000000,100.000000,,,,,,,,,,,,,,,,,21.000000,0.000000,0.674201,-0.111389,-0.687134,-0.246765,0.987425,0.180686,0.027347,-19.934193,-32.693680,63.794556
1703490893.549259,1703490893.549382,85.000000,0.000000,4333.077148,4347.820313,4341.666504,4309.615234,4312.307617,4288.077148,4325.769043,4308.717773,4322.436035,4287.948730,4499.743652,4484.230957,4391.153809,4477.820313,3039.000000,4.000000,89.000000,,,,0.000000,4.000000,4.000000,4.000000,4.000000,4.000000,4.000000,4.000000,4.000000,4.000000,4.000000,4.000000,4.000000,4.000000,4.000000,100.000000,,,,,,,,,,,,,,,,,,,,,,,,,,,,
1703490893.557067,1703490893.557090,86.000000,0.000000,4334.230957,4347.692383,4339.743652,4309.487305,4314.487305,4298.717773,4323.461426,4309.487305,4307.051270,4273.717773,4487.179688,4481.153809,4384.358887,4472.307617,5968.000000,4.000000,89.000000,,,,0.000000,4.000000,4.000000,4.000000,4.000000,4.000000,4.000000,4.000000,4.000000,4.000000,4.000000,4.000000,4.000000,4.000000,4.000000,100.000000,,,,,,,,,,,,,,,,,,,,,,,,,,,,
1703490893.564875,1703490893.564998,87.000000,0.000000,4334.871582,4347.948730,4334.615234,4312.563965,4321.410156,4317.563965,4328.461426,4310.512695,4298.205078,4267.307617,4481.666504,4478.589844,4378.461426,4466.410156,5606.000000,4.000000,89.000000,,,,0.000000,4.000000,4.000000,4.000000,4.000000,4.000000,4.000000,4.000000,4.000000,4.000000,4.000000,4.000000,4.000000,4.000000,4.000000,100.000000,,,,,,,,,,,,,,,,,,,,,,,,,,,,
1703490893.572683,1703490893.572806,88.000000,0.000000,4323.205078,4343.461426,4325.000000,4308.077148,4320.384766,4318.205078,4327.051270,4299.230957,4285.897461,4262.179688,4476.153809,4472.051270,4372.563965,4460.512695,5890.000000,4.000000,89.000000,,,,0.000000,4.000000,4.000000,4.000000,4.000000,4.000000,4.000000,4.000000,4.000000,4.000000,4.000000,4.000000,4.000000,4.000000,4.000000,100.000000,,,,,,,,,,,,,,,,,22.000000,0.000000,0.674245,-0.111389,-0.687134,-0.246643,0.973263,0.187035,0.033696,-19.940773,-32.690979,63.831768
1703490893.580491,1703490893.580714,89.000000,0.000000,4319.358887,4336.922852,4323.461426,4301.410156,4317.948730,4313.589844,4323.589844,4293.077148,4270.769043,4251.922852,4468.717773,4471.025879,4370.256348,4462.563965,3039.000000,4.000000,89.000000,,,,0.000000,4.000000,4.000000,4.000000,4.000000,4.000000,4.000000,4.000000,4.000000,4.000000,4.000000,4.000000,4.000000,4.000000,4.000000,100.000000,,,,,,,,,,,,,,,,,,,,,,,,,,,,
1703490893.588299,1703490893.588522,90.000000,0.000000,4327.563965,4338.205078,4331.538574,4303.461426,4316.794922,4318.205078,4326.538574,4299.487305,4266.025879,4249.615234,4472.307617,4477.692383,4376.794922,4470.000000,5968.000000,4.000000,89.000000,,,,0.000000,4.000000,4.000000,4.000000,4.000000,4.000000,4.000000,4.000000,4.000000,4.000000,4.000000,4.000000,4.000000,4.000000,4.000000,100.000000,,,,,,,,,,,,,,,,,,,,,,,,,,,,
1703490893.596107,1703490893.596430,91.000000,0.000000,4330.256348,4343.461426,4334.871582,4308.461426,4310.000000,4315.897461,4326.025879,4304.871582,4276.410156,4260.641113,4482.563965,4482.563965,4380.769043,4474.743652,5606.000000,4.000000,89.000000,,,,0.000000,4.000000,4.000000,4.000000,4.000000,4.000000,4.000000,4.000000,4.000000,4.000000,4.000000,4.000000,4.000000,4.000000,4.000000,100.000000,,,,,,,,,,,,,,,,,,,,,,,,,,,,
1703490893.603915,1703490893.604238,92.000000,0.000000,4332.436035,4344.102539,4336.666504,4309.871582,4306.282227,4311.794922,4325.000000,4308.461426,4293.717773,4277.179688,4491.282227,4485.512695,4382.051270,4474.615234,5890.000000,4.000000,89.000000,,,,0.000000,4.000000,4.000000,4.000000,4.000000,4.000000,4.000000,4.000000,4.000000,4.000000,4.000000,4.000000,4.000000,4.000000,4.000000,100.000000,,,,,,,,,,,,,,,,,23.000000,0.000000,0.674268,-0.111389,-0.687134,-0.246582,0.966915,0.179221,0.027835,-19.880030,-32.705212,63.748589
1703490893.611723,1703490893.612146,93.000000,0.000000,4341.794922,4345.512695,4345.769043,4312.948730,4306.410156,4313.974121,4330.897461,4312.436035,4306.410156,4289.743652,4502.436035,4489.102539,4390.512695,4477.692383,3039.000000,4.000000,89.000000,,,,0.000000,4.000000,4.000000,4.000000,4.000000,4.000000,4.000000,4.000000,4.000000,4.000000,4.000000,4.000000,4.000000,4.000000,4.000000,100.000000,,,,,,,,,,,,,,,,,,,,,,,,,,,,
1703490893.619531,1703490893.619954,94.000000,0.000000,4345.384766,4347.563965,4351.794922,4313.717773,4303.717773,4307.948730,4333.205078,4315.512695,4309.871582,4290.769043,4508.589844,4490.512695,4395.512695,4480.384766,5968.000000,4.000000,89.000000,,,,0.000000,4.000000,4.000000,4.000000,4.000000,4.000000,4.000000,4.000000,4.000000,4.000000,4.000000,4.000000,4.000000,4.000000,4.000000,100.000000,,,,,,,,,,,,,,,,,,,,,,,,,,,,
1703490893.627339,1703490893.627862,95.000000,0.000000,4332.307617,4343.077148,4343.717773,4308.461426,4301.922852,4298.589844,4327.307617,4317.051270,4315.641113,4287.179688,4504.487305,4488.846191,4389.358887,4470.000000,5606.000000,4.000000,89.000000,,,,0.000000,4.000000,4.000000,4.000000,4.000000,4.000000,4.000000,4.000000,4.000000,4.000000,4.000000,4.000000,4.000000,4.000000,4.000000,100.000000,,,,,,,,,,,,,,,,,,,,,,,,,,,,
1703490893.635147,1703490893.635670,96.000000,0.000000,4321.922852,4342.820313,4330.384766,4306.666504,4298.461426,4300.384766,4323.974121,4316.666504,4322.051270,4287.051270,4499.871582,4485.000000,4383.205078,4452.948730,5890.000000,4.000000,89.000000,,,,0.000000,4.000000,4.000000,4.000000,4.000000,4.000000,4.000000,4.000000,4.000000,4.000000,4.000000,4.000000,4.000000,4.000000,4.000000,100.000000,,,,,,,,,,,,,,,,,24.000000,0.000000,0.674318,-0.111328,-0.687073,-0.246643,0.972287,0.179221,0.037602,-19.808693,-32.701359,63.873730
1703490893.642955,1703490893.643577,97.000000,0.000000,4326.025879,4345.769043,4327.051270,4310.256348,4295.897461,4307.307617,4325.256348,4311.025879,4314.743652,4280.256348,4494.102539,4480.769043,4380.512695,4443.717773,3039.000000,4.000000,89.000000,,,,0.000000,4.000000,4.000000,4.000000,4.000000,4.000000,4.000000,4.000000,4.000000,4.000000,4.000000,4.000000,4.000000,4.000000,4.000000,100.000000,,,,,,,,,,,,,,,,,,,,,,,,,,,,
1703490893.650763,1703490893.651385,98.000000,0.000000,4326.538574,4344.230957,4328.589844,4309.615234,4300.384766,4311.538574,4324.487305,4303.846191,4305.128418,4266.153809,4482.948730,4475.128418,4373.589844,4439.487305,5968.000000,4.000000,89.000000,,,,0.000000,4.000000,4.000000,4.000000,4.000000,4.000000,4.000000,4.000000,4.000000,4.000000,4.000000,4.000000,4.000000,4.000000,4.000000,100.000000,,,,,,,,,,,,,,,,,,,,,,,,,,,,
1703490893.658571,1703490893.659293,99.000000,0.000000,4322.179688,4345.384766,4327.563965,4307.307617,4305.000000,4316.794922,4323.589844,4302.307617,4304.615234,4263.589844,4481.282227,4474.230957,4370.256348,4439.102539,5606.000000,4.000000,89.000000,,,,0.000000,4.000000,4.000000,4.000000,4.000000,4.000000,4.000000,4.000000,4.000000,4.000000,4.000000,4.000000,4.000000,4.000000,4.000000,100.000000,,,,,,,,,,,,,,,,,,,,,,,,,,,,
1703490893.666380,1703490893.667101,100.000000,0.000000,4327.307617,4354.871582,4329.358887,4314.487305,4311.153809,4326.025879,4330.128418,4305.256348,4303.589844,4270.256348,4492.692383,4479.871582,4382.051270,4451.538574,5890.000000,4.000000,89.000000,,,,0.000000,4.000000,4.000000,4.000000,4.000000,4.000000,4.000000,4.000000,4.000000,4.000000,4.000000,4.000000,4.000000,4.000000,4.000000,100.000000,,,,,,,,,,,,,,,,,25.000000,0.000000,0.674407,-0.111267,-0.686951,-0.246765,0.979123,0.187523,0.029789,-19.594490,-32.797890,63.953026
1703490893.674188,1703490893.675009,101.000000,0.000000,4330.769043,4360.897461,4334.358887,4320.128418,4320.897461,4334.743652,4339.230957,4306.666504,4292.948730,4263.461426,4493.205078,4481.922852,4390.256348,4462.563965,3039.000000,4.000000,89.000000,,,,0.000000,4.000000,4.000000,4.000000,4.000000,4.000000,4.000000,4.000000,4.000000,4.000000,4.000000,4.000000,4.000000,4.000000,4.000000,100.000000,,,,,,,,,,,,,,,,,,,,,,,,,,,,
1703490893.681996,1703490893.682817,102.000000,0.000000,4327.179688,4357.563965,4338.077148,4319.102539,4320.769043,4337.436035,4343.333496,4307.179688,4288.077148,4256.282227,4486.538574,4480.769043,4386.025879,4460.384766,5968.000000,4.000000,89.000000,,,,0.000000,4.000000,4.000000,4.000000,4.000000,4.000000,4.000000,4.000000,4.000000,4.000000,4.000000,4.000000,4.000000,4.000000,4.000000,100.000000,,,,,,,,,,,,,,,,,,,,,,,,,,,,
1703490893.689804,1703490893.690725,103.000000,0.000000,4333.333496,4358.461426,4340.384766,4322.179688,4314.102539,4336.538574,4347.563965,4309.102539,4294.102539,4268.205078,4496.538574,4484.230957,4390.256348,4463.205078,5606.000000,4.000000,89.000000,,,,0.000000,4.000000,4.000000,4.000000,4.000000,4.000000,4.000000,4.000000,4.000000,4.000000,4.000000,4.000000,4.000000,4.000000,4.000000,100.000000,,,,,,,,,,,,,,,,,,,,,,,,,,,,
1703490893.697612,1703490893.698533,104.000000,0.000000,4342.820313,4358.461426,4340.897461,4322.179688,4314.358887,4333.589844,4352.948730,4310.897461,4299.102539,4283.205078,4513.077148,4490.641113,4400.641113,4471.922852,5890.000000,4.000000,89.000000,,,,0.000000,4.000000,4.000000,4.000000,4.000000,4.000000,4.000000,4.000000,4.000000,4.000000,4.000000,4.000000,4.000000,4.000000,4.000000,100.000000,,,,,,,,,,,,,,,,,26.000000,0.000000,0.674355,-0.111206,-0.687012,-0.246765,0.980588,0.188500,0.031254,-19.618374,-32.634766,63.941055
1703490893.705420,1703490893.706341,105.000000,0.000000,4346.410156,4355.384766,4344.230957,4321.153809,4315.000000,4332.307617,4356.410156,4320.256348,4312.948730,4294.743652,4524.743652,4496.410156,4407.563965,4480.256348,3039.000000,4.000000,89.000000,,,,0.000000,4.000000,4.000000,4.000000,4.000000,4.000000,4.000000,4.000000,4.000000,4.000000,4.000000,4.000000,4.000000,4.000000,4.000000,100.000000,,,,,,,,,,,,,,,,,,,,,,,,,,,,
1703490893.713228,1703490893.714149,106.000000,0.000000,4351.282227,4358.589844,4355.512695,4327.436035,4315.128418,4332.692383,4360.512695,4328.077148,4332.563965,4307.820313,4534.358887,4496.282227,4416.666504,4488.589844,5968.000000,4.000000,89.000000,,,,0.000000,4.000000,4.000000,4.000000,4.000000,4.000000,4.000000,4.000000,4.000000,4.000000,4.000000,4.000000,4.000000,4.000000,4.000000,100.000000,,,,,,,,,,,,,,,,,,,,,,,,,,,,
1703490893.721036,1703490893.721857,107.000000,0.000000,4349.615234,4361.153809,4355.769043,4328.461426,4317.307617,4328.589844,4360.384766,4321.410156,4332.436035,4303.333496,4527.436035,4493.717773,4413.589844,4484.743652,5606.000000,4.000000,89.000000,,,,0.000000,4.000000,4.000000,4.000000,4.000000,4.000000,4.000000,4.000000,4.000000,4.000000,4.000000,4.000000,4.000000,4.000000,4.000000,100.000000,,,,,,,,,,,,,,,,,,,,,,,,,,,,
1703490893.728844,1703490893.729665,108.000000,0.000000,4344.102539,4361.538574,4349.230957,4325.641113,4318.717773,4328.077148,4357.948730,4315.384766,4320.000000,4285.769043,4511.153809,4492.051270,4397.436035,4470.256348,5890.000000,4.000000,89.000000,,,,0.000000,4.000000,4.000000,4.000000,4.000000,4.000000,4.000000,4.000000,4.000000,4.000000,4.000000,4.000000,4.000000,4.000000,4.000000,100.000000,,,,,,,,,,,,,,,,,27.000000,0.000000,0.674398,-0.111084,-0.687012,-0.246704,0.979612,0.176779,0.032230,-19.573204,-32.637959,63.880283
1703490893.736652,1703490893.737373,109.000000,0.000000,4351.282227,4366.666504,4358.333496,4335.000000,4324.358887,4334.615234,4362.179688,4321.282227,4321.025879,4286.922852,4514.230957,4492.820313,4399.743652,4469.487305,3039.000000,4.000000,89.000000,,,,0.000000,4.000000,4.000000,4.000000,4.000000,4.000000,4.000000,4.000000,4.000000,4.000000,4.000000,4.000000,4.000000,4.000000,4.000000,100.000000,,,,,,,,,,,,,,,,,,,,,,,,,,,,
1703490893.744460,1703490893.745181,110.000000,0.000000,4354.871582,4369.487305,4365.128418,4341.410156,4331.666504,4336.153809,4367.051270,4327.051270,4323.461426,4294.358887,4522.436035,4495.384766,4410.128418,4485.128418,5968.000000,4.000000,89.000000,,,,0.000000,4.000000,4.000000,4.000000,4.000000,4.000000,4.000000,4.000000,4.000000,4.000000,4.000000,4.000000,4.000000,4.000000,4.000000,100.000000,,,,,,,,,,,,,,,,,,,,,,,,,,,,
1703490893.752268,1703490893.752889,111.000000,0.000000,4348.589844,4366.025879,4356.666504,4332.436035,4333.205078,4337.179688,4367.307617,4322.307617,4316.282227,4287.692383,4517.692383,4495.641113,4408.589844,4493.077148,5606.000000,4.000000,89.000000,,,,0.000000,4.000000,4.000000,4.000000,4.000000,4.000000,4.000000,4.000000,4.000000,4.000000,4.000000,4.000000,4.000000,4.000000,4.000000,100.000000,,,,,,,,,,,,,,,,,,,,,,,,,,,,
1703490893.760076,1703490893.760697,112.000000,0.000000,4353.333496,4369.358887,4356.025879,4332.179688,4333.589844,4348.077148,4369.487305,4315.256348,4309.871582,4282.307617,4515.256348,4495.256348,4413.589844,4486.025879,5890.000000,4.000000,89.000000,,,,0.000000,4.000000,4.000000,4.000000,4.000000,4.000000,4.000000,4.000000,4.000000,4.000000,4.000000,4.000000,4.000000,4.000000,4.000000,100.000000,,,,,,,,,,,,,,,,,28.000000,0.000000,0.674244,-0.111023,-0.687195,-0.246643,0.972775,0.193871,0.030277,-19.549217,-32.657494,63.958923
1703490893.767884,1703490893.768405,113.000000,0.000000,4356.794922,4374.487305,4362.692383,4339.743652,4338.717773,4357.179688,4373.461426,4312.820313,4303.589844,4286.153809,4523.333496,4495.000000,4421.794922,4484.743652,3039.000000,4.000000,89.000000,,,,0.000000,4.000000,4.000000,4.000000,4.000000,4.000000,4.000000,4.000000,4.000000,4.000000,4.000000,4.000000,4.000000,4.000000,4.000000,100.000000,,,,,,,,,,,,,,,,,,,,,,,,,,,,
1703490893.775692,1703490893.776213,114.000000,0.000000,4346.794922,4367.051270,4360.897461,4334.871582,4336.410156,4352.692383,4376.282227,4309.487305,4298.589844,4285.256348,4519.487305,4492.563965,4409.615234,4484.487305,5968.000000,4.000000,89.000000,,,,0.000000,4.000000,4.000000,4.000000,4.000000,4.000000,4.000000,4.000000,4.000000,4.000000,4.000000,4.000000,4.000000,4.000000,4.000000,100.000000,,,,,,,,,,,,,,,,,,,,,,,,,,,,
1703490893.783500,1703490893.783921,115.000000,0.000000,4347.820313,4363.461426,4360.000000,4333.077148,4330.512695,4347.563965,4378.717773,4307.692383,4301.025879,4279.743652,4508.333496,4491.410156,4401.922852,4479.615234,5606.000000,4.000000,89.000000,,,,0.000000,4.000000,4.000000,4.000000,4.000000,4.000000,4.000000,4.000000,4.000000,4.000000,4.000000,4.000000,4.000000,4.000000,4.000000,100.000000,,,,,,,,,,,,,,,,,,,,,,,,,,,,
1703490893.791308,1703490893.791729,116.000000,0.000000,4360.256348,4374.102539,4365.000000,4345.769043,4337.948730,4352.563965,4383.589844,4314.487305,4313.717773,4288.333496,4517.820313,4496.153809,4419.358887,4486.922852,5890.000000,4.000000,89.000000,,,,0.000000,4.000000,4.000000,4.000000,4.000000,4.000000,4.000000,4.000000,4.000000,4.000000,4.000000,4.000000,4.000000,4.000000,4.000000,100.000000,,,,,,,,,,,,,,,,,29.000000,0.000000,0.674271,-0.110962,-0.687134,-0.246765,0.974240,0.185570,0.039556,-19.360962,-32.591743,63.863029
1703490893.799116,1703490893.799437,117.000000,0.000000,4361.922852,4379.230957,4366.794922,4349.743652,4342.436035,4354.743652,4390.384766,4324.871582,4331.282227,4304.102539,4535.512695,4500.769043,4426.410156,4499.487305,3039.000000,4.000000,89.000000,,,,0.000000,4.000000,4.000000,4.000000,4.000000,4.000000,4.000000,4.000000,4.000000,4.000000,4.000000,4.000000,4.000000,4.000000,4.000000,100.000000,,,,,,,,,,,,,,,,,,,,,,,,,,,,
1703490893.806924,1703490893.807245,118.000000,0.000000,4360.128418,4371.922852,4369.230957,4342.563965,4338.461426,4351.666504,4396.794922,4332.820313,4346.153809,4316.410156,4540.897461,4503.077148,4422.692383,4492.948730,5968.000000,4.000000,89.000000,,,,0.000000,4.000000,4.000000,4.000000,4.000000,4.000000,4.000000,4.000000,4.000000,4.000000,4.000000,4.000000,4.000000,4.000000,4.000000,100.000000,,,,,,,,,,,,,,,,,,,,,,,,,,,,
1703490893.814732,1703490893.814953,119.000000,0.000000,4362.820313,4371.025879,4372.692383,4348.974121,4341.538574,4357.436035,4405.512695,4340.897461,4354.615234,4322.692383,4541.538574,4504.230957,4429.871582,4486.025879,5606.000000,4.000000,89.000000,,,,0.000000,4.000000,4.000000,4.000000,4.000000,4.000000,4.000000,4.000000,4.000000,4.000000,4.000000,4.000000,4.000000,4.000000,4.000000,100.000000,,,,,,,,,,,,,,,,,,,,,,,,,,,,
1703490893.822541,1703490893.822761,120.000000,0.000000,4362.179688,4375.897461,4369.102539,4357.820313,4344.615234,4365.256348,4410.000000,4342.179688,4356.153809,4317.563965,4536.922852,4501.025879,4424.102539,4491.922852,5890.000000,4.000000,89.000000,,,,0.000000,4.000000,4.000000,4.000000,4.000000,4.000000,4.000000,4.000000,4.000000,4.000000,4.000000,4.000000,4.000000,4.000000,4.000000,100.000000,,,,,,,,,,,,,,,,,30.000000,0.000000,0.674221,-0.111023,-0.687195,-0.246704,0.980100,0.180198,0.035649,-19.358198,-32.615906,63.993393
1703490893.830349,1703490893.830469,121.000000,0.000000,4357.179688,4375.128418,4365.256348,4350.769043,4342.179688,4362.051270,4407.307617,4337.179688,4351.922852,4309.102539,4528.205078,4499.743652,4409.615234,4492.179688,3039.000000,4.000000,89.000000,,,,0.000000,4.000000,4.000000,4.000000,4.000000,4.000000,4.000000,4.000000,4.000000,4.000000,4.000000,4.000000,4.000000,4.000000,4.000000,100.000000,,,,,,,,,,,,,,,,,,,,,,,,,,,,
1703490893.838157,1703490893.838377,122.000000,0.000000,4353.846191,4371.538574,4367.820313,4347.563965,4339.615234,4356.666504,4402.307617,4331.922852,4341.538574,4305.641113,4528.717773,4500.897461,4412.692383,4485.897461,5968.000000,4.000000,89.000000,,,,0.000000,4.000000,4.000000,4.000000,4.000000,4.000000,4.000000,4.000000,4.000000,4.000000,4.000000,4.000000,4.000000,4.000000,4.000000,100.000000,,,,,,,,,,,,,,,,,,,,,,,,,,,,
1703490893.845965,1703490893.846185,123.000000,0.000000,4356.153809,4372.563965,4370.641113,4354.743652,4336.282227,4356.282227,4398.205078,4326.922852,4327.436035,4297.307617,4528.077148,4500.128418,4415.512695,4483.077148,5606.000000,4.000000,89.000000,,,,0.000000,4.000000,4.000000,4.000000,4.000000,4.000000,4.000000,4.000000,4.000000,4.000000,4.000000,4.000000,4.000000,4.000000,4.000000,100.000000,,,,,,,,,,,,,,,,,,,,,,,,,,,,
1703490893.853773,1703490893.854093,124.000000,0.000000,4367.307617,4380.256348,4374.230957,4357.051270,4339.230957,4360.512695,4402.692383,4322.692383,4316.025879,4287.948730,4524.358887,4501.153809,4412.436035,4493.205078,5890.000000,4.000000,89.000000,,,,0.000000,4.000000,4.000000,4.000000,4.000000,4.000000,4.000000,4.000000,4.000000,4.000000,4.000000,4.000000,4.000000,4.000000,4.000000,100.000000,,,,,,,,,,,,,,,,,31.000000,0.000000,0.674186,-0.111267,-0.687256,-0.246521,0.977658,0.175314,0.041997,-19.405712,-32.637646,64.027390
1703490893.861581,1703490893.861901,125.000000,0.000000,4378.205078,4383.974121,4379.871582,4354.871582,4347.179688,4363.974121,4411.025879,4316.922852,4306.282227,4286.410156,4531.794922,4504.358887,4421.922852,4508.717773,3039.000000,4.000000,89.000000,,,,0.000000,4.000000,4.000000,4.000000,4.000000,4.000000,4.000000,4.000000,4.000000,4.000000,4.000000,4.000000,4.000000,4.000000,4.000000,100.000000,,,,,,,,,,,,,,,,,,,,,,,,,,,,
1703490893.869389,1703490893.869809,126.000000,0.000000,4377.692383,4384.102539,4385.897461,4360.512695,4346.922852,4362.563965,4412.051270,4309.487305,4297.692383,4283.333496,4537.563965,4505.128418,4432.436035,4512.820313,5968.000000,4.000000,89.000000,,,,0.000000,4.000000,4.000000,4.000000,4.000000,4.000000,4.000000,4.000000,4.000000,4.000000,4.000000,4.000000,4.000000,4.000000,4.000000,100.000000,,,,,,,,,,,,,,,,,,,,,,,,,,,,
1703490893.877197,1703490893.877617,127.000000,0.000000,4376.794922,4385.512695,4388.333496,4366.538574,4346.538574,4365.256348,4407.436035,4310.641113,4299.871582,4282.820313,4533.205078,4503.333496,4431.410156,4505.512695,89.000000,4.000000,89.000000,,,,0.000000,4.000000,4.000000,4.000000,4.000000,4.000000,4.000000,4.000000,4.000000,4.000000,4.000000,4.000000,4.000000,4.000000,4.000000,100.000000,,,,,,,,,,,,,,,,,,,,,,,,,,,,
1703490893.885005,1703490893.885525,0.000000,0.000000,4383.846191,4386.153809,4385.384766,4362.692383,4351.922852,4370.000000,4412.692383,4320.128418,4319.230957,4300.769043,4538.077148,4505.128418,4433.077148,4504.487305,5033.000000,4.000000,89.000000,,,,0.000000,4.000000,4.000000,4.000000,4.000000,4.000000,4.000000,4.000000,4.000000,4.000000,4.000000,4.000000,4.000000,4.000000,4.000000,100.000000,,,,,,,,,,,,,,,,,0.000000,0.000000,0.674379,-0.111389,-0.687134,-0.246277,0.972775,0.177268,0.033207,-19.231808,-32.607216,64.057983
1703490893.892813,1703490893.893333,1.000000,0.000000,4383.846191,4385.769043,4383.461426,4361.153809,4351.666504,4370.512695,4423.589844,4327.051270,4342.692383,4325.384766,4552.436035,4507.563965,4444.743652,4516.922852,5679.000000,4.000000,89.000000,,,,0.000000,4.000000,4.000000,4.000000,4.000000,4.000000,4.000000,4.000000,4.000000,4.000000,4.000000,4.000000,4.000000,4.000000,4.000000,100.000000,,,,,,,,,,,,,,,,,,,,,,,,,,,,
1703490893.900621,1703490893.901240,2.000000,0.000000,4368.974121,4383.717773,4383.333496,4362.820313,4348.589844,4371.410156,4428.333496,4332.563965,4352.820313,4332.820313,4556.282227,4508.717773,4450.897461,4515.769043,5350.000000,4.000000,89.000000,,,,0.000000,4.000000,4.000000,4.000000,4.000000,4.000000,4.000000,4.000000,4.000000,4.000000,4.000000,4.000000,4.000000,4.000000,4.000000,100.000000,,,,,,,,,,,,,,,,,,,,,,,,,,,,
1703490893.908429,1703490893.909048,3.000000,0.000000,4365.128418,4382.820313,4380.000000,4361.666504,4351.538574,4376.410156,4432.307617,4338.589844,4355.769043,4326.410156,4554.487305,4512.051270,4445.512695,4500.512695,5512.000000,4.000000,89.000000,,,,0.000000,4.000000,4.000000,4.000000,4.000000,4.000000,4.000000,4.000000,4.000000,4.000000,4.000000,4.000000,4.000000,4.000000,4.000000,100.000000,,,,,,,,,,,,,,,,,,,,,,,,,,,,
1703490893.916237,1703490893.916756,4.000000,0.000000,4372.563965,4383.589844,4378.974121,4360.256348,4355.897461,4381.538574,4440.641113,4340.384766,4361.282227,4325.128418,4553.974121,4510.897461,4439.358887,4499.358887,5298.000000,4.000000,89.000000,,,,0.000000,4.000000,4.000000,4.000000,4.000000,4.000000,4.000000,4.000000,4.000000,4.000000,4.000000,4.000000,4.000000,4.000000,4.000000,100.000000,,,,,,,,,,,,,,,,,1.000000,0.000000,0.674434,-0.111328,-0.687134,-0.246155,0.973263,0.184105,0.035649,-19.308626,-32.563160,63.902184
1703490893.924045,1703490893.924564,5.000000,0.000000,4367.051270,4384.487305,4381.153809,4358.846191,4357.436035,4382.692383,4444.358887,4341.410156,4360.384766,4325.769043,4548.461426,4506.922852,4438.205078,4507.307617,5175.000000,4.000000,89.000000,,,,0.000000,4.000000,4.000000,4.000000,4.000000,4.000000,4.000000,4.000000,4.000000,4.000000,4.000000,4.000000,4.000000,4.000000,4.000000,100.000000,,,,,,,,,,,,,,,,,,,,,,,,,,,,
1703490893.931853,1703490893.932272,6.000000,0.000000,4363.205078,4384.230957,4379.871582,4358.846191,4359.615234,4382.948730,4443.205078,4340.641113,4351.538574,4318.846191,4544.487305,4505.769043,4435.000000,4504.615234,3308.000000,4.000000,89.000000,,,,0.000000,4.000000,4.000000,4.000000,4.000000,4.000000,4.000000,4.000000,4.000000,4.000000,4.000000,4.000000,4.000000,4.000000,4.000000,100.000000,,,,,,,,,,,,,,,,,,,,,,,,,,,,
1703490893.939661,1703490893.940080,7.000000,0.000000,4370.769043,4385.897461,4381.025879,4365.128418,4363.589844,4388.461426,4452.051270,4331.666504,4340.000000,4311.410156,4546.410156,4504.358887,4432.692383,4502.820313,2777.000000,4.000000,89.000000,,,,0.000000,4.000000,4.000000,4.000000,4.000000,4.000000,4.000000,4.000000,4.000000,4.000000,4.000000,4.000000,4.000000,4.000000,4.000000,100.000000,1.000000,25.000000,4.000000,3.000000,4.000000,4.000000,3.000000,1.000000,1.000000,3.000000,4.000000,1.000000,4.000000,4.000000,4.000000,4.000000,,,,,,,,,,,,
1703490893.947469,1703490893.947789,8.000000,0.000000,4371.025879,4390.256348,4382.948730,4372.820313,4363.589844,4395.128418,4460.384766,4321.922852,4324.487305,4304.358887,4543.333496,4502.948730,4432.307617,4508.717773,4268.000000,4.000000,89.000000,,,,0.000000,4.000000,4.000000,4.000000,4.000000,4.000000,4.000000,4.000000,4.000000,4.000000,4.000000,4.000000,4.000000,4.000000,4.000000,100.000000,,,,,,,,,,,,,,,,,2.000000,0.000000,0.674526,-0.111389,-0.687012,-0.246216,0.988890,0.175314,0.033696,-19.444431,-32.673512,63.861965
1703490893.955278,1703490893.955596,9.000000,0.000000,4374.358887,4393.077148,4384.358887,4373.461426,4366.282227,4394.615234,4461.153809,4324.102539,4312.563965,4298.205078,4541.282227,4505.256348,4432.307617,4511.666504,5442.000000,4.000000,89.000000,,,,0.000000,4.000000,4.000000,4.000000,4.000000,4.000000,4.000000,4.000000,4.000000,4.000000,4.000000,4.000000,4.000000,4.000000,4.000000,100.000000,,,,,,,,,,,,,,,,,,,,,,,,,,,,
1703490893.963086,1703490893.963305,10.000000,0.000000,4388.461426,4396.538574,4392.179688,4374.743652,4372.563965,4394.487305,4466.153809,4326.666504,4312.051270,4298.461426,4548.333496,4508.333496,4441.282227,4520.512695,5968.000000,4.000000,89.000000,,,,0.000000,4.000000,4.000000,4.000000,4.000000,4.000000,4.000000,4.000000,4.000000,4.000000,4.000000,4.000000,4.000000,4.000000,4.000000,100.000000,,,,,,,,,,,,,,,,,,,,,,,,,,,,
1703490893.970894,1703490893.971113,11.000000,0.000000,4394.102539,4402.307617,4398.974121,4383.333496,4372.436035,4401.282227,4476.025879,4325.384766,4325.641113,4310.769043,4557.436035,4510.641113,4455.897461,4534.487305,5622.000000,4.000000,89.000000,,,,0.000000,4.000000,4.000000,4.000000,4.000000,4.000000,4.000000,4.000000,4.000000,4.000000,4.000000,4.000000,4.000000,4.000000,4.000000,100.000000,,,,,,,,,,,,,,,,,,,,,,,,,,,,
1703490893.978702,1703490893.978821,12.000000,0.000000,4388.205078,4404.230957,4398.077148,4387.179688,4369.487305,4404.871582,4483.974121,4331.025879,4348.205078,4327.948730,4567.436035,4513.077148,4465.000000,4532.948730,5893.000000,4.000000,89.000000,,,,0.000000,4.000000,4.000000,4.000000,4.000000,4.000000,4.000000,4.000000,4.000000,4.000000,4.000000,4.000000,4.000000,4.000000,4.000000,100.000000,,,,,,,,,,,,,,,,,3.000000,0.000000,0.674568,-0.111511,-0.686951,-0.246216,0.976193,0.172384,0.040044,-19.499989,-32.789494,63.842434
1703490893.986510,1703490893.986629,13.000000,0.000000,4379.230957,4396.153809,4395.512695,4379.615234,4370.769043,4405.512695,4490.897461,4341.153809,4363.846191,4337.692383,4576.794922,4517.820313,4467.820313,4523.589844,3047.000000,4.000000,89.000000,,,,0.000000,4.000000,4.000000,4.000000,4.000000,4.000000,4.000000,4.000000,4.000000,4.000000,4.000000,4.000000,4.000000,4.000000,4.000000,100.000000,,,,,,,,,,,,,,,,,,,,,,,,,,,,
1703490893.994318,1703490893.994337,14.000000,0.000000,4380.512695,4391.666504,4396.153809,4378.717773,4371.922852,4412.820313,4499.615234,4347.436035,4370.256348,4344.615234,4583.077148,4522.820313,4471.282227,4527.692383,5968.000000,4.000000,89.000000,,,,0.000000,4.000000,4.000000,4.000000,4.000000,4.000000,4.000000,4.000000,4.000000,4.000000,4.000000,4.000000,4.000000,4.000000,4.000000,100.000000,,,,,,,,,,,,,,,,,,,,,,,,,,,,
1703490894.002126,1703490894.002245,15.000000,0.000000,4392.563965,4399.102539,4397.051270,4389.615234,4373.717773,4419.743652,4506.794922,4349.871582,4376.666504,4350.256348,4583.717773,4523.077148,4470.641113,4529.358887,5622.000000,4.000000,89.000000,,,,0.000000,4.000000,4.000000,4.000000,4.000000,4.000000,4.000000,4.000000,4.000000,4.000000,4.000000,4.000000,4.000000,4.000000,4.000000,100.000000,,,,,,,,,,,,,,,,,,,,,,,,,,,,
1703490894.009934,1703490894.010052,16.000000,0.000000,4391.922852,4400.000000,4402.051270,4391.153809,4381.153809,4423.205078,4513.205078,4350.512695,4377.436035,4349.102539,4578.205078,4522.179688,4463.846191,4523.717773,0.000000,4.000000,89.000000,,,,0.000000,4.000000,4.000000,4.000000,4.000000,4.000000,4.000000,4.000000,4.000000,4.000000,4.000000,4.000000,4.000000,4.000000,4.000000,100.000000,,,,,,,,,,,,,,,,,4.000000,0.000000,0.674535,-0.111572,-0.686951,-0.246277,0.972775,0.179709,0.025394,-19.599989,-32.810543,63.874859
1703490894.017742,1703490894.017960,17.000000,0.000000,4385.256348,4400.384766,4407.051270,4389.743652,4389.871582,4431.282227,4517.820313,4352.051270,4368.589844,4344.358887,4574.230957,4519.871582,4461.153809,4523.461426,0.000000,4.000000,89.000000,,,,0.000000,4.000000,4.000000,4.000000,4.000000,4.000000,4.000000,4.000000,4.000000,4.000000,4.000000,4.000000,4.000000,4.000000,4.000000,100.000000,,,,,,,,,,,,,,,,,,,,,,,,,,,,
1703490894.025550,1703490894.025768,18.000000,0.000000,4395.128418,4409.230957,4408.077148,4397.051270,4393.589844,4438.589844,4524.743652,4354.615234,4363.717773,4341.794922,4577.307617,4518.717773,4464.487305,4525.256348,0.000000,4.000000,89.000000,,,,0.000000,4.000000,4.000000,4.000000,4.000000,4.000000,4.000000,4.000000,4.000000,4.000000,4.000000,4.000000,4.000000,4.000000,4.000000,100.000000,,,,,,,,,,,,,,,,,,,,,,,,,,,,
1703490894.033358,1703490894.033676,19.000000,0.000000,4403.461426,4410.769043,4408.461426,4401.153809,4397.179688,4445.128418,4533.717773,4350.512695,4359.615234,4339.230957,4580.641113,4520.384766,4469.102539,4525.384766,0.000000,4.000000,89.000000,,,,0.000000,4.000000,4.000000,4.000000,4.000000,4.000000,4.000000,4.000000,4.000000,4.000000,4.000000,4.000000,4.000000,4.000000,4.000000,100.000000,,,,,,,,,,,,,,,,,,,,,,,,,,,,
1703490894.041166,1703490894.041484,20.000000,0.000000,4396.922852,4407.051270,4408.717773,4400.641113,4401.922852,4453.461426,4539.487305,4342.179688,4343.205078,4333.717773,4578.205078,4519.487305,4469.230957,4526.538574,0.000000,4.000000,89.000000,,,,0.000000,4.000000,4.000000,4.000000,4.000000,4.000000,4.000000,4.000000,4.000000,4.000000,4.000000,4.000000,4.000000,4.000000,4.000000,100.000000,,,,,,,,,,,,,,,,,5.000000,0.000000,0.674598,-0.111572,-0.686890,-0.246277,0.980588,0.185570,0.033696,-19.673323,-32.762821,63.954041
1703490894.048974,1703490894.049392,21.000000,0.000000,4392.051270,4409.615234,4408.461426,4398.974121,4399.102539,4451.282227,4536.794922,4339.487305,4330.512695,4329.487305,4577.563965,4519.615234,4467.820313,4529.102539,0.000000,4.000000,89.000000,,,,0.000000,4.000000,4.000000,4.000000,4.000000,4.000000,4.000000,4.000000,4.000000,4.000000,4.000000,4.000000,4.000000,4.000000,4.000000,100.000000,,,,,,,,,,,,,,,,,,,,,,,,,,,,
1703490894.056782,1703490894.057200,22.000000,0.000000,4398.077148,4412.563965,4409.102539,4400.000000,4392.692383,4444.487305,4533.077148,4339.871582,4337.820313,4332.051270,4582.563965,4524.358887,4477.436035,4538.205078,0.000000,4.000000,89.000000,,,,0.000000,4.000000,4.000000,4.000000,4.000000,4.000000,4.000000,4.000000,4.000000,4.000000,4.000000,4.000000,4.000000,4.000000,4.000000,100.000000,,,,,,,,,,,,,,,,,,,,,,,,,,,,
1703490894.064590,1703490894.065108,23.000000,0.000000,4413.333496,4411.922852,4419.358887,4408.205078,4394.358887,4449.487305,4545.128418,4341.025879,4353.077148,4346.666504,4592.692383,4533.846191,4493.333496,4553.589844,0.000000,4.000000,89.000000,,,,0.000000,4.000000,4.000000,4.000000,4.000000,4.000000,4.000000,4.000000,4.000000,4.000000,4.000000,4.000000,4.000000,4.000000,4.000000,100.000000,,,,,,,,,,,,,,,,,,,,,,,,,,,,
1703490894.072398,1703490894.072916,24.000000,0.000000,4420.128418,4416.538574,4428.077148,4412.563965,4398.974121,4453.846191,4554.230957,4344.743652,4362.820313,4357.820313,4600.897461,4537.563965,4499.615234,4558.205078,0.000000,4.000000,89.000000,,,,0.000000,4.000000,4.000000,4.000000,4.000000,4.000000,4.000000,4.000000,4.000000,4.000000,4.000000,4.000000,4.000000,4.000000,4.000000,100.000000,,,,,,,,,,,,,,,,,6.000000,0.000000,0.674546,-0.111511,-0.686951,-0.246277,0.977170,0.178733,0.032719,-19.755991,-32.753208,63.925301
1703490894.080206,1703490894.080724,25.000000,0.000000,4411.410156,4420.128418,4423.846191,4405.897461,4401.666504,4452.948730,4553.077148,4350.256348,4374.743652,4359.615234,4602.307617,4534.871582,4495.897461,4551.794922,0.000000,4.000000,89.000000,,,,0.000000,4.000000,4.000000,4.000000,4.000000,4.000000,4.000000,4.000000,4.000000,4.000000,4.000000,4.000000,4.000000,4.000000,4.000000,100.000000,,,,,,,,,,,,,,,,,,,,,,,,,,,,
1703490894.088014,1703490894.088532,26.000000,0.000000,4407.820313,4413.461426,4416.025879,4402.307617,4403.077148,4459.102539,4561.282227,4357.436035,4386.666504,4365.384766,4601.282227,4533.461426,4490.000000,4545.769043,0.000000,4.000000,89.000000,,,,0.000000,4.000000,4.000000,4.000000,4.000000,4.000000,4.000000,4.000000,4.000000,4.000000,4.000000,4.000000,4.000000,4.000000,4.000000,100.000000,,,,,,,,,,,,,,,,,,,,,,,,,,,,
1703490894.095822,1703490894.096240,27.000000,0.000000,4405.769043,4408.205078,4410.641113,4405.769043,4406.666504,4467.307617,4573.974121,4362.948730,4391.538574,4372.179688,4602.051270,4531.922852,4488.461426,4544.358887,0.000000,4.000000,89.000000,,,,0.000000,4.000000,4.000000,4.000000,4.000000,4.000000,4.000000,4.000000,4.000000,4.000000,4.000000,4.000000,4.000000,4.000000,4.000000,100.000000,,,,,,,,,,,,,,,,,,,,,,,,,,,,
1703490894.103630,1703490894.104048,28.000000,0.000000,4399.358887,4411.025879,4414.358887,4405.256348,4408.077148,4470.000000,4576.025879,4362.051270,4391.025879,4370.000000,4602.051270,4532.179688,4491.025879,4549.615234,0.000000,4.000000,89.000000,,,,0.000000,4.000000,4.000000,4.000000,4.000000,4.000000,4.000000,4.000000,4.000000,4.000000,4.000000,4.000000,4.000000,4.000000,4.000000,100.000000,,,,,,,,,,,,,,,,,7.000000,0.000000,0.674606,-0.111389,-0.686890,-0.246338,0.977658,0.183616,0.039556,-19.830393,-32.694553,63.982773
1703490894.111439,1703490894.111756,29.000000,0.000000,4409.230957,4414.743652,4424.358887,4407.820313,4409.871582,4476.666504,4578.589844,4358.461426,4382.692383,4361.538574,4599.230957,4534.615234,4490.641113,4550.641113,0.000000,4.000000,89.000000,,,,0.000000,4.000000,4.000000,4.000000,4.000000,4.000000,4.000000,4.000000,4.000000,4.000000,4.000000,4.000000,4.000000,4.000000,4.000000,100.000000,,,,,,,,,,,,,,,,,,,,,,,,,,,,
1703490894.119247,1703490894.119564,30.000000,0.000000,4420.512695,4416.410156,4426.794922,4416.153809,4415.000000,4484.358887,4586.666504,4358.589844,4371.153809,4359.871582,4600.128418,4532.820313,4492.563965,4544.102539,0.000000,4.000000,89.000000,,,,0.000000,4.000000,4.000000,4.000000,4.000000,4.000000,4.000000,4.000000,4.000000,4.000000,4.000000,4.000000,4.000000,4.000000,4.000000,100.000000,,,,,,,,,,,,,,,,,,,,,,,,,,,,
1703490894.127055,1703490894.127272,31.000000,0.000000,4410.256348,4417.820313,4421.794922,4419.743652,4416.794922,4486.922852,4587.563965,4356.025879,4362.563965,4356.410156,4599.615234,4529.487305,4497.563965,4540.128418,0.000000,4.000000,89.000000,,,,0.000000,4.000000,4.000000,4.000000,4.000000,4.000000,4.000000,4.000000,4.000000,4.000000,4.000000,4.000000,4.000000,4.000000,4.000000,100.000000,,,,,,,,,,,,,,,,,,,,,,,,,,,,
1703490894.134863,1703490894.135080,32.000000,0.000000,4402.563965,4417.820313,4421.410156,4415.641113,4417.307617,4492.563965,4585.000000,4347.436035,4358.461426,4350.128418,4592.436035,4530.769043,4493.461426,4545.128418,0.000000,4.000000,89.000000,,,,0.000000,4.000000,4.000000,4.000000,4.000000,4.000000,4.000000,4.000000,4.000000,4.000000,4.000000,4.000000,4.000000,4.000000,4.000000,100.000000,,,,,,,,,,,,,,,,,8.000000,0.000000,0.674678,-0.111328,-0.686829,-0.246338,0.974728,0.193871,0.033696,-19.814020,-32.608433,64.034492
1703490894.142671,1703490894.142788,33.000000,0.000000,4412.051270,4418.461426,4421.410156,4412.692383,4422.307617,4498.846191,4586.025879,4349.230957,4360.897461,4351.538574,4588.205078,4530.384766,4484.358887,4550.384766,0.000000,4.000000,89.000000,,,,0.000000,4.000000,4.000000,4.000000,4.000000,4.000000,4.000000,4.000000,4.000000,4.000000,4.000000,4.000000,4.000000,4.000000,4.000000,100.000000,,,,,,,,,,,,,,,,,,,,,,,,,,,,
1703490894.150479,1703490894.150696,34.000000,0.000000,4419.358887,4423.205078,4421.282227,4417.948730,4424.487305,4499.230957,4592.307617,4359.487305,4372.179688,4357.820313,4595.128418,4531.666504,4486.025879,4548.077148,0.000000,4.000000,89.000000,,,,0.000000,4.000000,4.000000,4.000000,4.000000,4.000000,4.000000,4.000000,4.000000,4.000000,4.000000,4.000000,4.000000,4.000000,4.000000,100.000000,,,,,,,,,,,,,,,,,,,,,,,,,,,,
1703490894.158287,1703490894.158504,35.000000,0.000000,4419.230957,4424.743652,4426.794922,4422.820313,4421.410156,4497.820313,4595.769043,4360.897461,4390.000000,4371.666504,4609.358887,4538.589844,4501.794922,4552.692383,0.000000,4.000000,89.000000,,,,0.000000,4.000000,4.000000,4.000000,4.000000,4.000000,4.000000,4.000000,4.000000,4.000000,4.000000,4.000000,4.000000,4.000000,4.000000,100.000000,,,,,,,,,,,,,,,,,,,,,,,,,,,,
1703490894.166095,1703490894.166412,36.000000,0.000000,4417.948730,4417.692383,4428.461426,4417.307617,4417.436035,4492.307617,4591.153809,4357.820313,4400.897461,4385.769043,4614.615234,4540.000000,4514.487305,4559.871582,0.000000,4.000000,89.000000,,,,0.000000,4.000000,4.000000,4.000000,4.000000,4.000000,4.000000,4.000000,4.000000,4.000000,4.000000,4.000000,4.000000,4.000000,4.000000,100.000000,,,,,,,,,,,,,,,,,9.000000,0.000000,0.674643,-0.111267,-0.686829,-0.246460,0.974728,0.174826,0.032719,-19.832617,-32.647587,64.081047
1703490894.173903,1703490894.174220,37.000000,0.000000,4418.461426,4414.102539,4431.282227,4414.230957,4412.820313,4485.128418,4592.692383,4362.820313,4400.128418,4385.769043,4612.307617,4540.384766,4508.205078,4555.128418,0.000000,4.000000,89.000000,,,,0.000000,4.000000,4.000000,4.000000,4.000000,4.000000,4.000000,4.000000,4.000000,4.000000,4.000000,4.000000,4.000000,4.000000,4.000000,100.000000,,,,,,,,,,,,,,,,,,,,,,,,,,,,
1703490894.181711,1703490894.182028,38.000000,0.000000,4421.025879,4420.641113,4440.641113,4421.666504,4411.666504,4491.153809,4601.282227,4367.179688,4399.487305,4379.487305,4613.205078,4542.051270,4501.794922,4553.461426,0.000000,4.000000,89.000000,,,,0.000000,4.000000,4.000000,4.000000,4.000000,4.000000,4.000000,4.000000,4.000000,4.000000,4.000000,4.000000,4.000000,4.000000,4.000000,100.000000,,,,,,,,,,,,,,,,,,,,,,,,,,,,
1703490894.189519,1703490894.189736,39.000000,0.000000,4419.487305,4421.153809,4442.179688,4420.769043,4414.358887,4496.025879,4602.692383,4366.025879,4398.717773,4377.820313,4614.358887,4542.051270,4506.666504,4562.948730,0.000000,4.000000,89.000000,,,,0.000000,4.000000,4.000000,4.000000,4.000000,4.000000,4.000000,4.000000,4.000000,4.000000,4.000000,4.000000,4.000000,4.000000,4.000000,100.000000,,,,,,,,,,,,,,,,,,,,,,,,,,,,
1703490894.197327,1703490894.197644,40.000000,0.000000,4414.230957,4413.846191,4435.384766,4411.922852,4414.230957,4488.974121,4600.897461,4364.487305,4387.692383,4372.692383,4611.282227,4540.384766,4507.051270,4568.589844,0.000000,4.000000,89.000000,,,,0.000000,4.000000,4.000000,4.000000,4.000000,4.000000,4.000000,4.000000,4.000000,4.000000,4.000000,4.000000,4.000000,4.000000,4.000000,100.000000,,,,,,,,,,,,,,,,,10.000000,0.000000,0.674599,-0.111267,-0.686829,-0.246582,0.980100,0.182639,0.019045,-19.749355,-32.616161,63.972942
1703490894.205135,1703490894.205452,41.000000,0.000000,4413.077148,4413.077148,4436.153809,4415.128418,4418.333496,4491.282227,4601.666504,4361.282227,4370.512695,4361.153809,4604.871582,4538.077148,4496.794922,4566.666504,0.000000,4.000000,89.000000,,,,0.000000,4.000000,4.000000,4.000000,4.000000,4.000000,4.000000,4.000000,4.000000,4.000000,4.000000,4.000000,4.000000,4.000000,4.000000,100.000000,,,,,,,,,,,,,,,,,,,,,,,,,,,,
1703490894.212943,1703490894.213359,42.000000,0.000000,4423.333496,4413.846191,4442.692383,4422.307617,4425.641113,4502.051270,4601.666504,4360.000000,4362.436035,4356.794922,4601.153809,4538.974121,4496.794922,4572.948730,0.000000,4.000000,89.000000,,,,0.000000,4.000000,4.000000,4.000000,4.000000,4.000000,4.000000,4.000000,4.000000,4.000000,4.000000,4.000000,4.000000,4.000000,4.000000,100.000000,,,,,,,,,,,,,,,,,,,,,,,,,,,,
1703490894.220751,1703490894.221167,43.000000,0.000000,4426.282227,4409.871582,4439.102539,4419.871582,4425.512695,4505.769043,4601.153809,4359.487305,4365.769043,4359.102539,4600.897461,4540.256348,4505.641113,4578.717773,0.000000,4.000000,89.000000,,,,0.000000,4.000000,4.000000,4.000000,4.000000,4.000000,4.000000,4.000000,4.000000,4.000000,4.000000,4.000000,4.000000,4.000000,4.000000,100.000000,,,,,,,,,,,,,,,,,,,,,,,,,,,,
1703490894.228559,1703490894.229075,44.000000,0.000000,4410.000000,4405.000000,4426.410156,4412.051270,4418.717773,4502.307617,4597.948730,4355.769043,4366.794922,4356.282227,4594.230957,4537.820313,4498.205078,4565.769043,0.000000,4.000000,89.000000,,,,0.000000,4.000000,4.000000,4.000000,4.000000,4.000000,4.000000,4.000000,4.000000,4.000000,4.000000,4.000000,4.000000,4.000000,4.000000,100.000000,,,,,,,,,,,,,,,,,11.000000,0.000000,0.674715,-0.111450,-0.686707,-0.246521,0.987914,0.191918,0.025394,-19.774420,-32.704548,63.942314
1703490894.236367,1703490894.236883,45.000000,0.000000,4403.205078,4405.641113,4423.205078,4412.436035,4416.410156,4502.307617,4596.538574,4354.102539,4367.692383,4352.948730,4587.307617,4536.153809,4489.358887,4558.205078,0.000000,4.000000,89.000000,,,,0.000000,4.000000,4.000000,4.000000,4.000000,4.000000,4.000000,4.000000,4.000000,4.000000,4.000000,4.000000,4.000000,4.000000,4.000000,100.000000,,,,,,,,,,,,,,,,,,,,,,,,,,,,
1703490894.244176,1703490894.244791,46.000000,0.000000,4413.974121,4411.410156,4429.358887,4415.641113,4417.179688,4502.307617,4595.897461,4355.641113,4378.717773,4359.743652,4591.922852,4538.205078,4495.641113,4564.615234,0.000000,4.000000,89.000000,,,,0.000000,4.000000,4.000000,4.000000,4.000000,4.000000,4.000000,4.000000,4.000000,4.000000,4.000000,4.000000,4.000000,4.000000,4.000000,100.000000,,,,,,,,,,,,,,,,,,,,,,,,,,,,
1703490894.251984,1703490894.252599,47.000000,0.000000,4420.384766,4411.538574,4430.128418,4414.102539,4413.461426,4495.000000,4590.128418,4359.615234,4389.743652,4369.615234,4600.128418,4542.051270,4504.102539,4573.846191,0.000000,4.000000,89.000000,,,,0.000000,4.000000,4.000000,4.000000,4.000000,4.000000,4.000000,4.000000,4.000000,4.000000,4.000000,4.000000,4.000000,4.000000,4.000000,100.000000,,,,,,,,,,,,,,,,,,,,,,,,,,,,
1703490894.259791,1703490894.260507,48.000000,0.000000,4420.384766,4407.307617,4428.717773,4415.384766,4413.846191,4490.256348,4589.358887,4366.922852,4394.743652,4376.794922,4606.538574,4545.897461,4505.897461,4575.769043,0.000000,4.000000,89.000000,,,,0.000000,4.000000,4.000000,4.000000,4.000000,4.000000,4.000000,4.000000,4.000000,4.000000,4.000000,4.000000,4.000000,4.000000,4.000000,100.000000,,,,,,,,,,,,,,,,,12.000000,0.000000,0.674725,-0.111389,-0.686707,-0.246521,0.984495,0.176291,0.027347,-19.663645,-32.817425,63.914749
1703490894.267600,1703490894.268315,49.000000,0.000000,4417.179688,4405.256348,4430.769043,4417.820313,4417.307617,4495.384766,4597.820313,4371.666504,4399.743652,4381.410156,4611.153809,4547.948730,4506.282227,4567.563965,0.000000,4.000000,89.000000,,,,0.000000,4.000000,4.000000,4.000000,4.000000,4.000000,4.000000,4.000000,4.000000,4.000000,4.000000,4.000000,4.000000,4.000000,4.000000,100.000000,,,,,,,,,,,,,,,,,,,,,,,,,,,,
1703490894.275408,1703490894.276023,50.000000,0.000000,4407.563965,4402.948730,4429.358887,4410.384766,4414.743652,4498.077148,4597.563965,4371.282227,4394.102539,4375.769043,4605.769043,4546.025879,4502.307617,4560.384766,0.000000,4.000000,89.000000,,,,0.000000,4.000000,4.000000,4.000000,4.000000,4.000000,4.000000,4.000000,4.000000,4.000000,4.000000,4.000000,4.000000,4.000000,4.000000,100.000000,,,,,,,,,,,,,,,,,,,,,,,,,,,,
1703490894.283216,1703490894.283931,51.000000,0.000000,4402.820313,4398.077148,4421.666504,4402.436035,4409.230957,4489.871582,4586.410156,4368.846191,4373.717773,4361.922852,4594.487305,4540.256348,4491.922852,4558.333496,0.000000,4.000000,89.000000,,,,0.000000,4.000000,4.000000,4.000000,4.000000,4.000000,4.000000,4.000000,4.000000,4.000000,4.000000,4.000000,4.000000,4.000000,4.000000,100.000000,,,,,,,,,,,,,,,,,,,,,,,,,,,,
1703490894.291024,1703490894.291739,52.000000,0.000000,4404.487305,4395.512695,4415.897461,4406.153809,4406.666504,4482.948730,4584.102539,4363.333496,4359.743652,4347.948730,4585.000000,4535.641113,4482.436035,4556.538574,0.000000,4.000000,89.000000,,,,0.000000,4.000000,4.000000,4.000000,4.000000,4.000000,4.000000,4.000000,4.000000,4.000000,4.000000,4.000000,4.000000,4.000000,4.000000,100.000000,,,,,,,,,,,,,,,,,13.000000,0.000000,0.674882,-0.111328,-0.686584,-0.246460,0.977658,0.190941,0.037114,-19.730614,-32.819016,63.823273
1703490894.298832,1703490894.299547,53.000000,0.000000,4403.974121,4397.948730,4416.794922,4406.794922,4409.102539,4483.461426,4584.487305,4355.769043,4356.538574,4337.692383,4577.179688,4532.436035,4474.230957,4550.641113,0.000000,4.000000,89.000000,,,,0.000000,4.000000,4.000000,4.000000,4.000000,4.000000,4.000000,4.000000,4.000000,4.000000,4.000000,4.000000,4.000000,4.000000,4.000000,100.000000,,,,,,,,,,,,,,,,,,,,,,,,,,,,
1703490894.306640,1703490894.307255,54.000000,0.000000,4403.846191,4398.205078,4418.589844,4399.487305,4409.487305,4485.769043,4577.307617,4352.307617,4353.461426,4334.230957,4573.717773,4530.769043,4473.589844,4546.153809,0.000000,4.000000,89.000000,,,,0.000000,4.000000,4.000000,4.000000,4.000000,4.000000,4.000000,4.000000,4.000000,4.000000,4.000000,4.000000,4.000000,4.000000,4.000000,100.000000,,,,,,,,,,,,,,,,,,,,,,,,,,,,
1703490894.314448,1703490894.315063,55.000000,0.000000,4399.615234,4392.051270,4413.717773,4395.897461,4403.077148,4485.769043,4571.282227,4352.948730,4353.205078,4332.948730,4569.615234,4529.487305,4472.563965,4539.102539,0.000000,4.000000,89.000000,,,,0.000000,4.000000,4.000000,4.000000,4.000000,4.000000,4.000000,4.000000,4.000000,4.000000,4.000000,4.000000,4.000000,4.000000,4.000000,100.000000,,,,,,,,,,,,,,,,,,,,,,,,,,,,
1703490894.322256,1703490894.322771,56.000000,0.000000,4390.256348,4384.743652,4407.692383,4392.692383,4396.538574,4486.538574,4572.051270,4356.666504,4358.974121,4335.000000,4567.563965,4528.333496,4467.436035,4539.358887,0.000000,4.000000,89.000000,,,,0.000000,4.000000,4.000000,4.000000,4.000000,4.000000,4.000000,4.000000,4.000000,4.000000,4.000000,4.000000,4.000000,4.000000,4.000000,100.000000,,,,,,,,,,,,,,,,,14.000000,0.000000,0.674970,-0.111572,-0.686523,-0.246277,0.983518,0.185570,0.037602,-19.857552,-32.753780,63.857613
1703490894.330064,1703490894.330579,57.000000,0.000000,4384.487305,4380.128418,4407.948730,4384.871582,4395.256348,4489.358887,4573.846191,4356.922852,4366.410156,4341.794922,4573.717773,4527.692383,4470.128418,4548.205078,0.000000,4.000000,89.000000,,,,0.000000,4.000000,4.000000,4.000000,4.000000,4.000000,4.000000,4.000000,4.000000,4.000000,4.000000,4.000000,4.000000,4.000000,4.000000,100.000000,,,,,,,,,,,,,,,,,,,,,,,,,,,,
1703490894.337872,1703490894.338287,58.000000,0.000000,4380.512695,4378.589844,4404.230957,4379.487305,4388.717773,4486.538574,4570.512695,4353.461426,4374.102539,4347.820313,4576.538574,4527.692383,4470.384766,4542.051270,0.000000,4.000000,89.000000,,,,0.000000,4.000000,4.000000,4.000000,4.000000,4.000000,4.000000,4.000000,4.000000,4.000000,4.000000,4.000000,4.000000,4.000000,4.000000,100.000000,,,,,,,,,,,,,,,,,,,,,,,,,,,,
1703490894.345680,1703490894.346095,59.000000,0.000000,4377.692383,4378.333496,4401.025879,4384.743652,4381.922852,4483.974121,4563.974121,4354.871582,4380.769043,4351.922852,4575.769043,4528.717773,4466.538574,4537.563965,0.000000,4.000000,89.000000,,,,0.000000,4.000000,4.000000,4.000000,4.000000,4.000000,4.000000,4.000000,4.000000,4.000000,4.000000,4.000000,4.000000,4.000000,4.000000,100.000000,,,,,,,,,,,,,,,,,,,,,,,,,,,,
1703490894.353488,1703490894.353803,60.000000,0.000000,4378.077148,4375.512695,4402.051270,4384.743652,4381.153809,4478.846191,4558.461426,4359.487305,4380.256348,4352.563965,4578.333496,4526.410156,4468.205078,4538.846191,0.000000,4.000000,89.000000,,,,0.000000,4.000000,4.000000,4.000000,4.000000,4.000000,4.000000,4.000000,4.000000,4.000000,4.000000,4.000000,4.000000,4.000000,4.000000,100.000000,,,,,,,,,,,,,,,,,15.000000,0.000000,0.674866,-0.111694,-0.686584,-0.246338,0.971310,0.171896,0.041021,-19.705130,-32.745071,63.805183
1703490894.361296,1703490894.361611,61.000000,0.000000,4375.641113,4371.538574,4398.333496,4376.538574,4374.358887,4466.666504,4552.436035,4359.871582,4374.102539,4345.384766,4577.563965,4523.461426,4468.205078,4530.128418,0.000000,4.000000,89.000000,,,,0.000000,4.000000,4.000000,4.000000,4.000000,4.000000,4.000000,4.000000,4.000000,4.000000,4.000000,4.000000,4.000000,4.000000,4.000000,100.000000,,,,,,,,,,,,,,,,,,,,,,,,,,,,
1703490894.369104,1703490894.369319,62.000000,0.000000,4374.743652,4374.615234,4397.179688,4377.051270,4366.153809,4458.205078,4543.846191,4357.179688,4365.769043,4339.102539,4573.333496,4526.922852,4461.282227,4526.538574,0.000000,4.000000,89.000000,,,,0.000000,4.000000,4.000000,4.000000,4.000000,4.000000,4.000000,4.000000,4.000000,4.000000,4.000000,4.000000,4.000000,4.000000,4.000000,100.000000,,,,,,,,,,,,,,,,,,,,,,,,,,,,
1703490894.376912,1703490894.377227,63.000000,0.000000,4377.692383,4379.487305,4400.769043,4383.077148,4367.179688,4455.384766,4538.846191,4354.743652,4355.641113,4338.846191,4574.871582,4528.846191,4458.077148,4530.897461,0.000000,4.000000,89.000000,,,,0.000000,4.000000,4.000000,4.000000,4.000000,4.000000,4.000000,4.000000,4.000000,4.000000,4.000000,4.000000,4.000000,4.000000,4.000000,100.000000,,,,,,,,,,,,,,,,,,,,,,,,,,,,
1703490894.384720,1703490894.385035,64.000000,0.000000,4373.589844,4372.820313,4396.282227,4379.230957,4368.077148,4447.051270,4533.974121,4350.384766,4344.871582,4329.487305,4568.974121,4521.922852,4454.487305,4525.000000,5021.000000,4.000000,89.000000,,,,0.000000,4.000000,4.000000,4.000000,4.000000,4.000000,4.000000,4.000000,4.000000,4.000000,4.000000,4.000000,4.000000,4.000000,4.000000,100.000000,,,,,,,,,,,,,,,,,16.000000,0.000000,0.674930,-0.111816,-0.686523,-0.246277,0.969845,0.176291,0.024905,-19.734617,-32.653896,63.874668
1703490894.392528,1703490894.392943,65.000000,0.000000,4366.538574,4367.948730,4389.102539,4372.051270,4361.538574,4441.538574,4523.589844,4347.692383,4336.153809,4313.077148,4553.974121,4521.153809,4446.794922,4517.307617,5667.000000,4.000000,89.000000,,,,0.000000,4.000000,4.000000,4.000000,4.000000,4.000000,4.000000,4.000000,4.000000,4.000000,4.000000,4.000000,4.000000,4.000000,4.000000,100.000000,,,,,,,,,,,,,,,,,,,,,,,,,,,,
1703490894.400337,1703490894.400751,66.000000,0.000000,4370.384766,4374.615234,4392.436035,4373.846191,4361.410156,4449.358887,4521.538574,4346.410156,4336.025879,4312.179688,4551.153809,4526.922852,4446.538574,4519.615234,5344.000000,4.000000,89.000000,,,,0.000000,4.000000,4.000000,4.000000,4.000000,4.000000,4.000000,4.000000,4.000000,4.000000,4.000000,4.000000,4.000000,4.000000,4.000000,100.000000,,,,,,,,,,,,,,,,,,,,,,,,,,,,
1703490894.408145,1703490894.408659,67.000000,0.000000,4367.307617,4372.948730,4390.256348,4371.282227,4365.128418,4454.230957,4526.410156,4340.897461,4335.512695,4316.410156,4551.538574,4520.384766,4441.666504,4513.333496,5499.000000,4.000000,89.000000,,,,0.000000,4.000000,4.000000,4.000000,4.000000,4.000000,4.000000,4.000000,4.000000,4.000000,4.000000,4.000000,4.000000,4.000000,4.000000,100.000000,,,,,,,,,,,,,,,,,,,,,,,,,,,,
1703490894.415953,1703490894.416467,68.000000,0.000000,4347.692383,4358.717773,4379.358887,4360.256348,4359.487305,4452.563965,4522.307617,4337.820313,4331.025879,4307.179688,4541.666504,4510.897461,4427.307617,4500.897461,5287.000000,4.000000,89.000000,,,,0.000000,4.000000,4.000000,4.000000,4.000000,4.000000,4.000000,4.000000,4.000000,4.000000,4.000000,4.000000,4.000000,4.000000,4.000000,100.000000,,,,,,,,,,,,,,,,,17.000000,0.000000,0.674838,-0.111755,-0.686646,-0.246216,0.979123,0.179221,0.026370,-19.694489,-32.538506,63.787201
1703490894.423761,1703490894.424374,69.000000,0.000000,4345.128418,4358.717773,4377.436035,4359.230957,4358.717773,4460.128418,4520.128418,4343.205078,4342.051270,4308.717773,4545.128418,4516.794922,4431.025879,4504.358887,5145.000000,4.000000,89.000000,,,,0.000000,4.000000,4.000000,4.000000,4.000000,4.000000,4.000000,4.000000,4.000000,4.000000,4.000000,4.000000,4.000000,4.000000,4.000000,100.000000,,,,,,,,,,,,,,,,,,,,,,,,,,,,
1703490894.431569,1703490894.432182,70.000000,0.000000,4360.384766,4368.589844,4384.358887,4365.256348,4365.641113,4469.102539,4527.948730,4350.384766,4361.410156,4327.436035,4564.871582,4526.282227,4451.282227,4517.179688,3281.000000,4.000000,89.000000,,,,0.000000,4.000000,4.000000,4.000000,4.000000,4.000000,4.000000,4.000000,4.000000,4.000000,4.000000,4.000000,4.000000,4.000000,4.000000,100.000000,,,,,,,,,,,,,,,,,,,,,,,,,,,,
1703490894.439377,1703490894.440090,71.000000,0.000000,4364.615234,4365.897461,4385.897461,4360.512695,4361.153809,4459.358887,4523.077148,4351.794922,4363.717773,4335.256348,4567.179688,4524.871582,4455.128418,4519.358887,2770.000000,4.000000,89.000000,,,,0.000000,4.000000,4.000000,4.000000,4.000000,4.000000,4.000000,4.000000,4.000000,4.000000,4.000000,4.000000,4.000000,4.000000,4.000000,100.000000,1.000000,25.000000,4.000000,4.000000,4.000000,4.000000,4.000000,1.000000,1.000000,4.000000,4.000000,1.000000,4.000000,4.000000,4.000000,4.000000,,,,,,,,,,,,
1703490894.447185,1703490894.447898,72.000000,0.000000,4361.025879,4359.358887,4383.589844,4352.051270,4350.641113,4439.487305,4510.000000,4353.974121,4361.282227,4331.794922,4555.256348,4524.487305,4442.436035,4515.000000,4260.000000,4.000000,89.000000,,,,0.000000,4.000000,4.000000,4.000000,4.000000,4.000000,4.000000,4.000000,4.000000,4.000000,4.000000,4.000000,4.000000,4.000000,4.000000,100.000000,,,,,,,,,,,,,,,,,18.000000,0.000000,0.674876,-0.111633,-0.686584,-0.246338,0.973752,0.177756,0.030277,-19.691708,-32.584656,63.825146
1703490894.454993,1703490894.455806,73.000000,0.000000,4359.743652,4358.461426,4388.333496,4354.743652,4346.282227,4430.128418,4507.820313,4358.717773,4367.307617,4332.179688,4558.461426,4530.512695,4442.948730,4514.358887,5437.000000,4.000000,89.000000,,,,0.000000,4.000000,4.000000,4.000000,4.000000,4.000000,4.000000,4.000000,4.000000,4.000000,4.000000,4.000000,4.000000,4.000000,4.000000,100.000000,,,,,,,,,,,,,,,,,,,,,,,,,,,,
1703490894.462801,1703490894.463614,74.000000,0.000000,4362.436035,4360.512695,4394.358887,4361.282227,4345.641113,4425.512695,4507.051270,4357.692383,4362.436035,4330.256348,4567.563965,4532.820313,4456.153809,4519.615234,5973.000000,4.000000,89.000000,,,,0.000000,4.000000,4.000000,4.000000,4.000000,4.000000,4.000000,4.000000,4.000000,4.000000,4.000000,4.000000,4.000000,4.000000,4.000000,100.000000,,,,,,,,,,,,,,,,,,,,,,,,,,,,
1703490894.470609,1703490894.471322,75.000000,0.000000,4365.256348,4362.436035,4390.000000,4361.282227,4343.846191,4412.948730,4492.692383,4347.948730,4340.512695,4319.487305,4562.179688,4528.461426,4452.948730,4522.820313,5614.000000,4.000000,89.000000,,,,0.000000,4.000000,4.000000,4.000000,4.000000,4.000000,4.000000,4.000000,4.000000,4.000000,4.000000,4.000000,4.000000,4.000000,4.000000,100.000000,,,,,,,,,,,,,,,,,,,,,,,,,,,,
1703490894.478417,1703490894.479130,76.000000,0.000000,4366.922852,4360.769043,4383.846191,4357.948730,4338.077148,4402.436035,4476.282227,4337.563965,4321.538574,4304.871582,4550.256348,4524.743652,4438.846191,4518.846191,5896.000000,4.000000,89.000000,,,,0.000000,4.000000,4.000000,4.000000,4.000000,4.000000,4.000000,4.000000,4.000000,4.000000,4.000000,4.000000,4.000000,4.000000,4.000000,100.000000,,,,,,,,,,,,,,,,,19.000000,0.000000,0.674836,-0.111633,-0.686646,-0.246277,0.978635,0.175314,0.029300,-19.705870,-32.476189,63.709297
1703490894.486225,1703490894.486838,77.000000,0.000000,4361.538574,4358.077148,4381.794922,4355.512695,4332.179688,4399.615234,4472.948730,4332.820313,4311.410156,4290.128418,4536.666504,4518.589844,4428.589844,4511.282227,3037.000000,4.000000,89.000000,,,,0.000000,4.000000,4.000000,4.000000,4.000000,4.000000,4.000000,4.000000,4.000000,4.000000,4.000000,4.000000,4.000000,4.000000,4.000000,100.000000,,,,,,,,,,,,,,,,,,,,,,,,,,,,
1703490894.494033,1703490894.494646,78.000000,0.000000,4352.692383,4358.974121,4378.717773,4351.922852,4337.436035,4401.538574,4474.487305,4333.589844,4310.000000,4282.948730,4528.461426,4513.461426,4423.846191,4501.153809,5973.000000,4.000000,89.000000,,,,0.000000,4.000000,4.000000,4.000000,4.000000,4.000000,4.000000,4.000000,4.000000,4.000000,4.000000,4.000000,4.000000,4.000000,4.000000,100.000000,,,,,,,,,,,,,,,,,,,,,,,,,,,,
1703490894.501841,1703490894.502354,79.000000,0.000000,4349.358887,4356.538574,4375.000000,4348.205078,4346.794922,4409.358887,4469.102539,4337.820313,4317.051270,4285.769043,4532.692383,4516.794922,4425.128418,4496.153809,5614.000000,4.000000,89.000000,,,,0.000000,4.000000,4.000000,4.000000,4.000000,4.000000,4.000000,4.000000,4.000000,4.000000,4.000000,4.000000,4.000000,4.000000,4.000000,100.000000,,,,,,,,,,,,,,,,,,,,,,,,,,,,
