title:محمد تشغيل, start timestamp:1703415759.795447, stop timestamp:1703415770.898496, headset type:EPOCX, headset serial:E50206EF, headset firmware:720, channels:67, sampling rate:eeg_128;mot_32, samples:1423      , version:2.2, 
Timestamp,OriginalTimestamp,EEG.Counter,EEG.Interpolated,EEG.AF3,EEG.F7,EEG.F3,EEG.FC5,EEG.T7,EEG.P7,EEG.O1,EEG.O2,EEG.P8,EEG.T8,EEG.FC6,EEG.F4,EEG.F8,EEG.AF4,EEG.RawCq,EEG.Battery,EEG.BatteryPercent,MarkerIndex,MarkerType,MarkerValueInt,EEG.MarkerHardware,CQ.AF3,CQ.F7,CQ.F3,CQ.FC5,CQ.T7,CQ.P7,CQ.O1,CQ.O2,CQ.P8,CQ.T8,CQ.FC6,CQ.F4,CQ.F8,CQ.AF4,CQ.Overall,EQ.SampleRateQuality,EQ.OVERALL,EQ.AF3,EQ.F7,EQ.F3,EQ.FC5,EQ.T7,EQ.P7,EQ.O1,EQ.O2,EQ.P8,EQ.T8,EQ.FC6,EQ.F4,EQ.F8,EQ.AF4,MOT.CounterMems,MOT.InterpolatedMems,MOT.Q0,MOT.Q1,MOT.Q2,MOT.Q3,MOT.AccX,MOT.AccY,MOT.AccZ,MOT.MagX,MOT.MagY,MOT.MagZ
1703415759.795447,1703415759.795950,98.000000,0.000000,4182.436035,4230.000000,4294.487305,4252.563965,4231.025879,4265.128418,4270.000000,4222.820313,4220.512695,4208.717773,4544.743652,4438.461426,4382.563965,4475.128418,5911.000000,2.000000,52.000000,,,,0.000000,4.000000,4.000000,4.000000,4.000000,4.000000,4.000000,4.000000,4.000000,4.000000,4.000000,4.000000,4.000000,4.000000,4.000000,100.000000,,,,,,,,,,,,,,,,,,,,,,,,,,,,
1703415759.803255,1703415759.803858,99.000000,0.000000,4195.000000,4232.179688,4301.410156,4267.051270,4232.563965,4266.410156,4276.666504,4236.922852,4229.230957,4202.307617,4553.461426,4449.230957,4383.333496,4481.794922,6265.000000,2.000000,52.000000,,,,0.000000,4.000000,4.000000,4.000000,4.000000,4.000000,4.000000,4.000000,4.000000,4.000000,4.000000,4.000000,4.000000,4.000000,4.000000,100.000000,,,,,,,,,,,,,,,,,,,,,,,,,,,,
1703415759.811063,1703415759.811667,100.000000,0.000000,4194.102539,4235.897461,4307.563965,4255.641113,4243.717773,4267.307617,4272.307617,4231.666504,4226.025879,4213.589844,4556.794922,4447.051270,4383.717773,4489.871582,6758.000000,2.000000,52.000000,,,,0.000000,4.000000,4.000000,4.000000,4.000000,4.000000,4.000000,4.000000,4.000000,4.000000,4.000000,4.000000,4.000000,4.000000,4.000000,100.000000,,,,,,,,,,,,,,,,,25.000000,0.000000,0.696332,0.192200,-0.654907,0.221985,0.998169,-0.014162,0.078623,-16.560213,-39.539276,65.773346
1703415759.818871,1703415759.819575,101.000000,0.000000,4182.563965,4229.615234,4296.922852,4234.615234,4241.794922,4266.025879,4263.589844,4216.410156,4210.384766,4219.230957,4549.102539,4436.410156,4379.102539,4490.128418,7324.000000,2.000000,52.000000,,,,0.000000,4.000000,4.000000,4.000000,4.000000,4.000000,4.000000,4.000000,4.000000,4.000000,4.000000,4.000000,4.000000,4.000000,4.000000,100.000000,,,,,,,,,,,,,,,,,,,,,,,,,,,,
1703415759.826679,1703415759.827383,102.000000,0.000000,4179.615234,4220.256348,4286.538574,4251.794922,4230.512695,4263.717773,4264.102539,4216.666504,4200.384766,4192.307617,4538.974121,4429.358887,4371.410156,4485.769043,5911.000000,2.000000,52.000000,,,,0.000000,4.000000,4.000000,4.000000,4.000000,4.000000,4.000000,4.000000,4.000000,4.000000,4.000000,4.000000,4.000000,4.000000,4.000000,100.000000,,,,,,,,,,,,,,,,,,,,,,,,,,,,
1703415759.834487,1703415759.835291,103.000000,0.000000,4185.128418,4226.025879,4293.717773,4267.051270,4229.230957,4264.358887,4269.615234,4227.307617,4210.769043,4189.487305,4540.769043,4432.436035,4374.743652,4491.666504,6265.000000,2.000000,52.000000,,,,0.000000,4.000000,4.000000,4.000000,4.000000,4.000000,4.000000,4.000000,4.000000,4.000000,4.000000,4.000000,4.000000,4.000000,4.000000,100.000000,,,,,,,,,,,,,,,,,,,,,,,,,,,,
1703415759.842295,1703415759.843099,104.000000,0.000000,4183.589844,4232.692383,4298.077148,4250.384766,4232.436035,4264.102539,4267.948730,4223.846191,4219.871582,4218.846191,4546.025879,4432.820313,4382.179688,4498.461426,6758.000000,2.000000,52.000000,,,,0.000000,4.000000,4.000000,4.000000,4.000000,4.000000,4.000000,4.000000,4.000000,4.000000,4.000000,4.000000,4.000000,4.000000,4.000000,100.000000,,,,,,,,,,,,,,,,,26.000000,0.000000,0.696323,0.191956,-0.654968,0.222046,0.988402,-0.016604,0.078135,-16.704191,-39.452015,65.796013
1703415759.850103,1703415759.850907,105.000000,0.000000,4180.128418,4228.974121,4289.102539,4248.205078,4237.948730,4264.615234,4264.615234,4211.025879,4211.025879,4214.102539,4544.615234,4424.358887,4379.615234,4495.512695,7324.000000,2.000000,52.000000,,,,0.000000,4.000000,4.000000,4.000000,4.000000,4.000000,4.000000,4.000000,4.000000,4.000000,4.000000,4.000000,4.000000,4.000000,4.000000,100.000000,,,,,,,,,,,,,,,,,,,,,,,,,,,,
1703415759.857911,1703415759.858615,106.000000,0.000000,4186.538574,4232.692383,4295.000000,4270.128418,4245.769043,4273.077148,4268.461426,4215.769043,4211.282227,4194.102539,4543.461426,4435.256348,4381.922852,4502.692383,5911.000000,2.000000,52.000000,,,,0.000000,4.000000,4.000000,4.000000,4.000000,4.000000,4.000000,4.000000,4.000000,4.000000,4.000000,4.000000,4.000000,4.000000,4.000000,100.000000,,,,,,,,,,,,,,,,,,,,,,,,,,,,
1703415759.865719,1703415759.866524,107.000000,0.000000,4189.743652,4236.025879,4308.589844,4267.692383,4240.000000,4281.282227,4270.641113,4223.589844,4222.820313,4208.717773,4544.487305,4448.589844,4386.025879,4507.948730,6265.000000,2.000000,52.000000,,,,0.000000,4.000000,4.000000,4.000000,4.000000,4.000000,4.000000,4.000000,4.000000,4.000000,4.000000,4.000000,4.000000,4.000000,4.000000,100.000000,,,,,,,,,,,,,,,,,,,,,,,,,,,,
1703415759.873527,1703415759.874332,108.000000,0.000000,4181.153809,4227.692383,4301.282227,4243.461426,4225.256348,4278.205078,4261.153809,4214.743652,4218.077148,4213.846191,4543.333496,4434.230957,4382.436035,4492.948730,6758.000000,2.000000,52.000000,,,,0.000000,4.000000,4.000000,4.000000,4.000000,4.000000,4.000000,4.000000,4.000000,4.000000,4.000000,4.000000,4.000000,4.000000,4.000000,100.000000,,,,,,,,,,,,,,,,,27.000000,0.000000,0.696394,0.191833,-0.654907,0.222107,0.993285,-0.005372,0.079111,-16.683773,-39.440147,65.633080
1703415759.881335,1703415759.882240,109.000000,0.000000,4186.538574,4232.948730,4297.051270,4251.282227,4234.871582,4275.769043,4262.563965,4216.538574,4213.717773,4214.230957,4552.563965,4436.794922,4390.769043,4500.641113,7324.000000,2.000000,52.000000,,,,0.000000,4.000000,4.000000,4.000000,4.000000,4.000000,4.000000,4.000000,4.000000,4.000000,4.000000,4.000000,4.000000,4.000000,4.000000,100.000000,,,,,,,,,,,,,,,,,,,,,,,,,,,,
1703415759.889143,1703415759.890048,110.000000,0.000000,4203.717773,4243.717773,4310.128418,4272.692383,4248.461426,4284.102539,4272.820313,4229.743652,4221.794922,4222.179688,4562.820313,4460.384766,4404.358887,4527.179688,5911.000000,2.000000,52.000000,,,,0.000000,4.000000,4.000000,4.000000,4.000000,4.000000,4.000000,4.000000,4.000000,4.000000,4.000000,4.000000,4.000000,4.000000,4.000000,100.000000,,,,,,,,,,,,,,,,,,,,,,,,,,,,
1703415759.896951,1703415759.897956,111.000000,0.000000,4197.436035,4233.974121,4315.128418,4253.461426,4236.666504,4280.897461,4268.589844,4229.102539,4221.922852,4208.717773,4552.820313,4462.563965,4399.230957,4519.615234,6265.000000,2.000000,52.000000,,,,0.000000,4.000000,4.000000,4.000000,4.000000,4.000000,4.000000,4.000000,4.000000,4.000000,4.000000,4.000000,4.000000,4.000000,4.000000,100.000000,,,,,,,,,,,,,,,,,,,,,,,,,,,,
1703415759.904759,1703415759.905864,112.000000,0.000000,4186.794922,4226.538574,4311.666504,4234.743652,4230.384766,4267.820313,4261.666504,4221.410156,4218.077148,4206.282227,4546.794922,4455.000000,4393.205078,4507.948730,6758.000000,2.000000,52.000000,,,,0.000000,4.000000,4.000000,4.000000,4.000000,4.000000,4.000000,4.000000,4.000000,4.000000,4.000000,4.000000,4.000000,4.000000,4.000000,100.000000,,,,,,,,,,,,,,,,,28.000000,0.000000,0.696492,0.191895,-0.654785,0.222107,0.988890,-0.016115,0.073251,-16.598728,-39.446133,65.619774
1703415759.912568,1703415759.913672,113.000000,0.000000,4197.948730,4232.820313,4310.641113,4259.487305,4238.205078,4268.846191,4263.205078,4226.538574,4222.563965,4215.641113,4554.230957,4455.128418,4397.820313,4525.897461,7324.000000,2.000000,52.000000,,,,0.000000,4.000000,4.000000,4.000000,4.000000,4.000000,4.000000,4.000000,4.000000,4.000000,4.000000,4.000000,4.000000,4.000000,4.000000,100.000000,,,,,,,,,,,,,,,,,,,,,,,,,,,,
1703415759.920375,1703415759.921481,114.000000,0.000000,4204.871582,4230.641113,4301.794922,4273.974121,4232.948730,4277.436035,4264.487305,4230.384766,4231.153809,4215.897461,4555.897461,4450.000000,4395.000000,4526.410156,5911.000000,2.000000,52.000000,,,,0.000000,4.000000,4.000000,4.000000,4.000000,4.000000,4.000000,4.000000,4.000000,4.000000,4.000000,4.000000,4.000000,4.000000,4.000000,100.000000,,,,,,,,,,,,,,,,,,,,,,,,,,,,
1703415759.928183,1703415759.929389,115.000000,0.000000,4195.256348,4226.282227,4292.436035,4255.384766,4225.000000,4276.922852,4264.615234,4224.358887,4231.282227,4211.794922,4544.102539,4443.333496,4387.436035,4507.820313,6265.000000,2.000000,52.000000,,,,0.000000,4.000000,4.000000,4.000000,4.000000,4.000000,4.000000,4.000000,4.000000,4.000000,4.000000,4.000000,4.000000,4.000000,4.000000,100.000000,,,,,,,,,,,,,,,,,,,,,,,,,,,,
1703415759.935992,1703415759.937197,116.000000,0.000000,4192.436035,4231.794922,4294.358887,4250.897461,4234.871582,4274.871582,4266.538574,4219.102539,4227.051270,4207.179688,4533.974121,4444.487305,4388.077148,4510.000000,6758.000000,2.000000,52.000000,,,,0.000000,4.000000,4.000000,4.000000,4.000000,4.000000,4.000000,4.000000,4.000000,4.000000,4.000000,4.000000,4.000000,4.000000,4.000000,100.000000,,,,,,,,,,,,,,,,,29.000000,0.000000,0.696401,0.192017,-0.654846,0.222107,1.003052,-0.008790,0.067879,-16.505522,-39.434853,65.507797
1703415759.943800,1703415759.944905,117.000000,0.000000,4198.333496,4232.307617,4294.871582,4262.948730,4239.102539,4279.615234,4266.666504,4218.205078,4228.333496,4207.307617,4546.538574,4446.410156,4394.102539,4518.461426,7324.000000,2.000000,52.000000,,,,0.000000,4.000000,4.000000,4.000000,4.000000,4.000000,4.000000,4.000000,4.000000,4.000000,4.000000,4.000000,4.000000,4.000000,4.000000,100.000000,,,,,,,,,,,,,,,,,,,,,,,,,,,,
1703415759.951608,1703415759.952713,118.000000,0.000000,4197.436035,4228.717773,4295.000000,4263.205078,4229.358887,4277.820313,4265.769043,4224.358887,4231.153809,4212.820313,4559.615234,4447.436035,4397.820313,4515.897461,5911.000000,2.000000,52.000000,,,,0.000000,4.000000,4.000000,4.000000,4.000000,4.000000,4.000000,4.000000,4.000000,4.000000,4.000000,4.000000,4.000000,4.000000,4.000000,100.000000,,,,,,,,,,,,,,,,,,,,,,,,,,,,
1703415759.959416,1703415759.960421,119.000000,0.000000,4200.256348,4234.871582,4298.205078,4258.589844,4236.282227,4267.307617,4265.256348,4228.717773,4229.487305,4214.615234,4555.769043,4451.410156,4401.025879,4521.666504,6265.000000,2.000000,52.000000,,,,0.000000,4.000000,4.000000,4.000000,4.000000,4.000000,4.000000,4.000000,4.000000,4.000000,4.000000,4.000000,4.000000,4.000000,4.000000,100.000000,,,,,,,,,,,,,,,,,,,,,,,,,,,,
1703415759.967224,1703415759.968229,120.000000,0.000000,4228.077148,4250.128418,4311.794922,4261.666504,4249.358887,4263.205078,4265.000000,4227.820313,4227.436035,4212.692383,4556.410156,4463.717773,4408.717773,4544.358887,6758.000000,2.000000,52.000000,,,,0.000000,4.000000,4.000000,4.000000,4.000000,4.000000,4.000000,4.000000,4.000000,4.000000,4.000000,4.000000,4.000000,4.000000,4.000000,100.000000,,,,,,,,,,,,,,,,,30.000000,0.000000,0.696275,0.192200,-0.654968,0.221985,0.979123,-0.002442,0.085460,-16.654970,-39.491367,65.423683
1703415759.975032,1703415759.975937,121.000000,0.000000,4269.743652,4262.436035,4330.897461,4272.436035,4243.717773,4274.102539,4266.538574,4228.205078,4229.358887,4220.512695,4570.128418,4478.205078,4421.922852,4572.179688,7324.000000,2.000000,52.000000,,,,0.000000,4.000000,4.000000,4.000000,4.000000,4.000000,4.000000,4.000000,4.000000,4.000000,4.000000,4.000000,4.000000,4.000000,4.000000,100.000000,,,,,,,,,,,,,,,,,,,,,,,,,,,,
1703415759.982840,1703415759.983745,122.000000,0.000000,4294.615234,4268.717773,4336.410156,4281.153809,4233.205078,4282.307617,4265.641113,4226.794922,4226.282227,4222.692383,4578.589844,4481.410156,4432.948730,4591.538574,5911.000000,2.000000,52.000000,,,,0.000000,4.000000,4.000000,4.000000,4.000000,4.000000,4.000000,4.000000,4.000000,4.000000,4.000000,4.000000,4.000000,4.000000,4.000000,100.000000,,,,,,,,,,,,,,,,,,,,,,,,,,,,
1703415759.990648,1703415759.991453,123.000000,0.000000,4303.717773,4272.051270,4330.769043,4278.461426,4228.333496,4270.512695,4261.153809,4215.512695,4215.769043,4213.846191,4568.974121,4478.846191,4434.871582,4597.948730,6265.000000,2.000000,52.000000,,,,0.000000,4.000000,4.000000,4.000000,4.000000,4.000000,4.000000,4.000000,4.000000,4.000000,4.000000,4.000000,4.000000,4.000000,4.000000,100.000000,,,,,,,,,,,,,,,,,,,,,,,,,,,,
1703415759.998456,1703415759.999261,124.000000,0.000000,4317.692383,4276.153809,4333.589844,4281.922852,4234.871582,4262.692383,4260.256348,4211.153809,4212.692383,4215.000000,4565.128418,4487.563965,4439.230957,4608.205078,6758.000000,2.000000,52.000000,,,,0.000000,4.000000,4.000000,4.000000,4.000000,4.000000,4.000000,4.000000,4.000000,4.000000,4.000000,4.000000,4.000000,4.000000,4.000000,100.000000,,,,,,,,,,,,,,,,,31.000000,0.000000,0.696507,0.192261,-0.654724,0.221924,1.001099,-0.018069,0.078623,-16.572805,-39.408897,65.481316
1703415760.006264,1703415760.006969,125.000000,0.000000,4328.846191,4281.153809,4342.820313,4289.102539,4245.000000,4268.461426,4264.102539,4222.307617,4218.461426,4213.333496,4582.820313,4499.487305,4447.948730,4623.461426,7324.000000,2.000000,52.000000,,,,0.000000,4.000000,4.000000,4.000000,4.000000,4.000000,4.000000,4.000000,4.000000,4.000000,4.000000,4.000000,4.000000,4.000000,4.000000,100.000000,,,,,,,,,,,,,,,,,,,,,,,,,,,,
1703415760.014072,1703415760.014777,126.000000,0.000000,4327.307617,4278.846191,4343.205078,4285.256348,4235.641113,4266.538574,4261.153809,4222.563965,4218.461426,4203.589844,4588.205078,4497.563965,4444.615234,4623.974121,5911.000000,2.000000,52.000000,,,,0.000000,4.000000,4.000000,4.000000,4.000000,4.000000,4.000000,4.000000,4.000000,4.000000,4.000000,4.000000,4.000000,4.000000,4.000000,100.000000,,,,,,,,,,,,,,,,,,,,,,,,,,,,
1703415760.021880,1703415760.022485,127.000000,0.000000,4330.512695,4272.563965,4339.358887,4280.384766,4222.051270,4260.128418,4256.922852,4214.230957,4212.307617,4203.974121,4576.153809,4490.512695,4439.230957,4619.487305,52.000000,2.000000,52.000000,,,,0.000000,4.000000,4.000000,4.000000,4.000000,4.000000,4.000000,4.000000,4.000000,4.000000,4.000000,4.000000,4.000000,4.000000,4.000000,100.000000,,,,,,,,,,,,,,,,,,,,,,,,,,,,
1703415760.029688,1703415760.030293,0.000000,0.000000,4342.436035,4275.769043,4337.307617,4280.769043,4231.282227,4260.769043,4261.153809,4215.128418,4210.641113,4200.641113,4575.256348,4492.436035,4445.000000,4625.000000,5524.000000,2.000000,52.000000,,,,0.000000,4.000000,4.000000,4.000000,4.000000,4.000000,4.000000,4.000000,4.000000,4.000000,4.000000,4.000000,4.000000,4.000000,4.000000,100.000000,,,,,,,,,,,,,,,,,0.000000,0.000000,0.696586,0.192322,-0.654663,0.221802,0.999145,-0.016115,0.083018,-16.498859,-39.468006,65.616516
1703415760.037496,1703415760.038001,1.000000,0.000000,4345.000000,4280.256348,4336.666504,4280.256348,4238.461426,4262.179688,4264.743652,4219.230957,4213.846191,4191.794922,4584.358887,4499.615234,4450.384766,4632.179688,5516.000000,2.000000,52.000000,,,,0.000000,4.000000,4.000000,4.000000,4.000000,4.000000,4.000000,4.000000,4.000000,4.000000,4.000000,4.000000,4.000000,4.000000,4.000000,100.000000,,,,,,,,,,,,,,,,,,,,,,,,,,,,
1703415760.045304,1703415760.045909,2.000000,0.000000,4343.589844,4278.974121,4338.589844,4283.205078,4228.077148,4258.717773,4261.538574,4218.589844,4216.794922,4203.974121,4586.410156,4502.692383,4449.615234,4633.077148,5357.000000,2.000000,52.000000,,,,0.000000,4.000000,4.000000,4.000000,4.000000,4.000000,4.000000,4.000000,4.000000,4.000000,4.000000,4.000000,4.000000,4.000000,4.000000,100.000000,,,,,,,,,,,,,,,,,,,,,,,,,,,,
1703415760.053112,1703415760.053717,3.000000,0.000000,4350.512695,4282.692383,4342.051270,4289.615234,4229.743652,4253.205078,4260.256348,4214.230957,4213.846191,4220.897461,4582.436035,4502.307617,4449.871582,4631.922852,5307.000000,2.000000,52.000000,,,,0.000000,4.000000,4.000000,4.000000,4.000000,4.000000,4.000000,4.000000,4.000000,4.000000,4.000000,4.000000,4.000000,4.000000,4.000000,100.000000,,,,,,,,,,,,,,,,,,,,,,,,,,,,
1703415760.060920,1703415760.061625,4.000000,0.000000,4352.563965,4287.179688,4345.256348,4290.000000,4237.948730,4250.128418,4263.205078,4217.563965,4213.461426,4217.179688,4583.974121,4509.871582,4450.897461,4638.461426,5258.000000,2.000000,52.000000,,,,0.000000,4.000000,4.000000,4.000000,4.000000,4.000000,4.000000,4.000000,4.000000,4.000000,4.000000,4.000000,4.000000,4.000000,4.000000,100.000000,,,,,,,,,,,,,,,,,1.000000,0.000000,0.696603,0.192261,-0.654663,0.221802,0.988890,-0.011232,0.086925,-16.498974,-39.454540,65.671532
1703415760.068728,1703415760.069433,5.000000,0.000000,4342.563965,4280.769043,4343.974121,4283.717773,4233.333496,4250.641113,4263.077148,4225.512695,4218.205078,4214.487305,4587.179688,4517.051270,4447.563965,4641.538574,4826.000000,2.000000,52.000000,,,,0.000000,4.000000,4.000000,4.000000,4.000000,4.000000,4.000000,4.000000,4.000000,4.000000,4.000000,4.000000,4.000000,4.000000,4.000000,100.000000,,,,,,,,,,,,,,,,,,,,,,,,,,,,
1703415760.076537,1703415760.077342,6.000000,0.000000,4330.256348,4274.871582,4341.922852,4282.051270,4231.025879,4249.615234,4261.282227,4222.307617,4218.974121,4216.922852,4582.051270,4511.282227,4443.846191,4627.436035,4024.000000,2.000000,52.000000,,,,0.000000,4.000000,4.000000,4.000000,4.000000,4.000000,4.000000,4.000000,4.000000,4.000000,4.000000,4.000000,4.000000,4.000000,4.000000,100.000000,,,,,,,,,,,,,,,,,,,,,,,,,,,,
1703415760.084345,1703415760.085150,7.000000,0.000000,4316.538574,4271.025879,4340.000000,4276.922852,4232.051270,4245.512695,4261.794922,4214.743652,4218.077148,4213.205078,4573.974121,4505.000000,4446.794922,4613.717773,5243.000000,2.000000,52.000000,,,,0.000000,4.000000,4.000000,4.000000,4.000000,4.000000,4.000000,4.000000,4.000000,4.000000,4.000000,4.000000,4.000000,4.000000,4.000000,100.000000,,,,,,,,,,,,,,,,,,,,,,,,,,,,
1703415760.092152,1703415760.093058,8.000000,0.000000,4305.512695,4266.794922,4337.051270,4272.948730,4235.769043,4248.205078,4265.384766,4217.179688,4218.974121,4213.717773,4578.589844,4505.512695,4443.589844,4612.307617,5360.000000,2.000000,52.000000,,,,0.000000,4.000000,4.000000,4.000000,4.000000,4.000000,4.000000,4.000000,4.000000,4.000000,4.000000,4.000000,4.000000,4.000000,4.000000,100.000000,,,,,,,,,,,,,,,,,2.000000,0.000000,0.696637,0.192139,-0.654663,0.221802,0.990355,-0.004395,0.073739,-16.649076,-39.425755,65.654381
1703415760.099961,1703415760.100866,9.000000,0.000000,4291.794922,4266.538574,4330.769043,4281.025879,4240.641113,4250.641113,4266.666504,4221.410156,4220.000000,4206.153809,4582.307617,4495.769043,4432.436035,4600.641113,5328.000000,2.000000,52.000000,,,,0.000000,4.000000,4.000000,4.000000,4.000000,4.000000,4.000000,4.000000,4.000000,4.000000,4.000000,4.000000,4.000000,4.000000,4.000000,100.000000,,,,,,,,,,,,,,,,,,,,,,,,,,,,
1703415760.107769,1703415760.108774,10.000000,0.000000,4264.102539,4255.384766,4322.436035,4287.820313,4233.461426,4238.461426,4262.563965,4217.179688,4214.615234,4190.897461,4561.794922,4478.333496,4420.512695,4574.358887,5923.000000,2.000000,52.000000,,,,0.000000,4.000000,4.000000,4.000000,4.000000,4.000000,4.000000,4.000000,4.000000,4.000000,4.000000,4.000000,4.000000,4.000000,4.000000,100.000000,,,,,,,,,,,,,,,,,,,,,,,,,,,,
1703415760.115577,1703415760.116582,11.000000,0.000000,4246.922852,4247.179688,4322.948730,4282.692383,4228.333496,4232.948730,4262.948730,4212.563965,4209.230957,4199.615234,4553.589844,4475.000000,4414.358887,4565.769043,6237.000000,2.000000,52.000000,,,,0.000000,4.000000,4.000000,4.000000,4.000000,4.000000,4.000000,4.000000,4.000000,4.000000,4.000000,4.000000,4.000000,4.000000,4.000000,100.000000,,,,,,,,,,,,,,,,,,,,,,,,,,,,
1703415760.123385,1703415760.124290,12.000000,0.000000,4246.282227,4256.025879,4323.077148,4270.128418,4237.948730,4241.025879,4266.922852,4216.025879,4213.974121,4213.717773,4571.025879,4480.128418,4416.538574,4573.333496,6768.000000,2.000000,52.000000,,,,0.000000,4.000000,4.000000,4.000000,4.000000,4.000000,4.000000,4.000000,4.000000,4.000000,4.000000,4.000000,4.000000,4.000000,4.000000,100.000000,,,,,,,,,,,,,,,,,3.000000,0.000000,0.696615,0.192078,-0.654663,0.221924,0.974240,-0.009278,0.083018,-16.750835,-39.566509,65.688942
1703415760.131193,1703415760.132098,13.000000,0.000000,4237.692383,4250.256348,4313.333496,4265.384766,4237.436035,4239.487305,4265.897461,4218.333496,4216.922852,4202.563965,4567.436035,4476.282227,4414.102539,4565.384766,7311.000000,2.000000,52.000000,,,,0.000000,4.000000,4.000000,4.000000,4.000000,4.000000,4.000000,4.000000,4.000000,4.000000,4.000000,4.000000,4.000000,4.000000,4.000000,100.000000,,,,,,,,,,,,,,,,,,,,,,,,,,,,
1703415760.139001,1703415760.139806,14.000000,0.000000,4225.512695,4235.769043,4308.846191,4267.563965,4227.307617,4232.563965,4265.256348,4219.230957,4213.461426,4192.563965,4551.922852,4474.230957,4407.692383,4551.794922,5923.000000,2.000000,52.000000,,,,0.000000,4.000000,4.000000,4.000000,4.000000,4.000000,4.000000,4.000000,4.000000,4.000000,4.000000,4.000000,4.000000,4.000000,4.000000,100.000000,,,,,,,,,,,,,,,,,,,,,,,,,,,,
1703415760.146809,1703415760.147614,15.000000,0.000000,4223.717773,4243.333496,4312.307617,4267.820313,4234.230957,4241.538574,4269.743652,4224.230957,4217.563965,4207.692383,4561.282227,4481.153809,4411.538574,4552.692383,6237.000000,2.000000,52.000000,,,,0.000000,4.000000,4.000000,4.000000,4.000000,4.000000,4.000000,4.000000,4.000000,4.000000,4.000000,4.000000,4.000000,4.000000,4.000000,100.000000,,,,,,,,,,,,,,,,,,,,,,,,,,,,
1703415760.154617,1703415760.155322,16.000000,0.000000,4217.692383,4252.051270,4308.717773,4267.692383,4243.717773,4250.512695,4269.871582,4225.512695,4223.461426,4215.897461,4567.563965,4482.307617,4411.922852,4550.769043,0.000000,2.000000,52.000000,,,,0.000000,4.000000,4.000000,4.000000,4.000000,4.000000,4.000000,4.000000,4.000000,4.000000,4.000000,4.000000,4.000000,4.000000,4.000000,100.000000,,,,,,,,,,,,,,,,,4.000000,0.000000,0.696614,0.192078,-0.654602,0.222107,0.983518,-0.005372,0.080088,-16.775751,-39.576527,65.570045
1703415760.162425,1703415760.163130,17.000000,0.000000,4205.000000,4241.794922,4298.077148,4264.487305,4234.615234,4239.871582,4262.692383,4217.307617,4215.384766,4206.025879,4552.692383,4471.666504,4400.769043,4534.487305,0.000000,2.000000,52.000000,,,,0.000000,4.000000,4.000000,4.000000,4.000000,4.000000,4.000000,4.000000,4.000000,4.000000,4.000000,4.000000,4.000000,4.000000,4.000000,100.000000,,,,,,,,,,,,,,,,,,,,,,,,,,,,
1703415760.170233,1703415760.170838,18.000000,0.000000,4197.563965,4231.794922,4294.743652,4257.692383,4223.846191,4229.102539,4260.128418,4210.384766,4209.487305,4195.641113,4548.589844,4468.077148,4398.461426,4526.666504,0.000000,2.000000,52.000000,,,,0.000000,4.000000,4.000000,4.000000,4.000000,4.000000,4.000000,4.000000,4.000000,4.000000,4.000000,4.000000,4.000000,4.000000,4.000000,100.000000,,,,,,,,,,,,,,,,,,,,,,,,,,,,
1703415760.178041,1703415760.178646,19.000000,0.000000,4195.512695,4234.743652,4300.897461,4262.307617,4227.692383,4229.615234,4262.820313,4212.051270,4213.717773,4196.794922,4555.897461,4473.205078,4402.692383,4529.615234,0.000000,2.000000,52.000000,,,,0.000000,4.000000,4.000000,4.000000,4.000000,4.000000,4.000000,4.000000,4.000000,4.000000,4.000000,4.000000,4.000000,4.000000,4.000000,100.000000,,,,,,,,,,,,,,,,,,,,,,,,,,,,
1703415760.185849,1703415760.186354,20.000000,0.000000,4195.256348,4242.948730,4306.666504,4274.487305,4235.641113,4234.102539,4263.077148,4216.922852,4216.153809,4212.051270,4560.000000,4476.282227,4406.666504,4526.794922,0.000000,2.000000,52.000000,,,,0.000000,4.000000,4.000000,4.000000,4.000000,4.000000,4.000000,4.000000,4.000000,4.000000,4.000000,4.000000,4.000000,4.000000,4.000000,100.000000,1.000000,83.333336,3.000000,4.000000,4.000000,4.000000,4.000000,4.000000,4.000000,4.000000,4.000000,3.000000,4.000000,4.000000,4.000000,4.000000,5.000000,0.000000,0.696673,0.192139,-0.654480,0.222229,0.996215,-0.000977,0.081553,-16.681509,-39.568874,65.479706
1703415760.193657,1703415760.194162,21.000000,0.000000,4191.025879,4241.410156,4302.051270,4262.820313,4235.641113,4232.563965,4262.563965,4218.589844,4214.871582,4215.641113,4559.230957,4471.538574,4406.153809,4520.897461,0.000000,2.000000,52.000000,,,,0.000000,4.000000,4.000000,4.000000,4.000000,4.000000,4.000000,4.000000,4.000000,4.000000,4.000000,4.000000,4.000000,4.000000,4.000000,100.000000,,,,,,,,,,,,,,,,,,,,,,,,,,,,
1703415760.201465,1703415760.201870,22.000000,0.000000,4184.102539,4228.846191,4291.410156,4248.717773,4232.307617,4224.358887,4263.717773,4220.512695,4213.717773,4206.282227,4552.436035,4462.820313,4395.769043,4519.358887,0.000000,2.000000,52.000000,,,,0.000000,4.000000,4.000000,4.000000,4.000000,4.000000,4.000000,4.000000,4.000000,4.000000,4.000000,4.000000,4.000000,4.000000,4.000000,100.000000,,,,,,,,,,,,,,,,,,,,,,,,,,,,
1703415760.209273,1703415760.209678,23.000000,0.000000,4179.743652,4226.922852,4290.769043,4258.846191,4232.436035,4225.641113,4264.230957,4225.128418,4215.512695,4209.358887,4552.948730,4464.102539,4392.051270,4518.974121,0.000000,2.000000,52.000000,,,,0.000000,4.000000,4.000000,4.000000,4.000000,4.000000,4.000000,4.000000,4.000000,4.000000,4.000000,4.000000,4.000000,4.000000,4.000000,100.000000,,,,,,,,,,,,,,,,,,,,,,,,,,,,
1703415760.217081,1703415760.217386,24.000000,0.000000,4174.743652,4233.846191,4296.794922,4265.128418,4232.307617,4232.948730,4264.230957,4224.871582,4217.692383,4218.846191,4558.461426,4469.871582,4397.692383,4510.897461,0.000000,2.000000,52.000000,,,,0.000000,4.000000,4.000000,4.000000,4.000000,4.000000,4.000000,4.000000,4.000000,4.000000,4.000000,4.000000,4.000000,4.000000,4.000000,100.000000,,,,,,,,,,,,,,,,,6.000000,0.000000,0.696760,0.191895,-0.654480,0.222168,0.989379,-0.012209,0.083995,-16.763359,-39.495319,65.381737
1703415760.224889,1703415760.225294,25.000000,0.000000,4168.589844,4227.179688,4290.641113,4256.410156,4230.128418,4233.461426,4264.230957,4216.538574,4217.051270,4207.820313,4558.846191,4464.743652,4394.102539,4503.077148,0.000000,2.000000,52.000000,,,,0.000000,4.000000,4.000000,4.000000,4.000000,4.000000,4.000000,4.000000,4.000000,4.000000,4.000000,4.000000,4.000000,4.000000,4.000000,100.000000,,,,,,,,,,,,,,,,,,,,,,,,,,,,
1703415760.232698,1703415760.233103,26.000000,0.000000,4164.358887,4218.589844,4280.384766,4255.641113,4232.563965,4230.000000,4262.436035,4214.102539,4214.358887,4199.487305,4551.538574,4455.897461,4385.256348,4504.743652,0.000000,2.000000,52.000000,,,,0.000000,4.000000,4.000000,4.000000,4.000000,4.000000,4.000000,4.000000,4.000000,4.000000,4.000000,4.000000,4.000000,4.000000,4.000000,100.000000,,,,,,,,,,,,,,,,,,,,,,,,,,,,
1703415760.240506,1703415760.241011,27.000000,0.000000,4166.282227,4223.974121,4285.256348,4264.102539,4233.974121,4230.256348,4261.153809,4218.589844,4215.384766,4212.563965,4541.410156,4456.153809,4385.897461,4508.589844,0.000000,2.000000,52.000000,,,,0.000000,4.000000,4.000000,4.000000,4.000000,4.000000,4.000000,4.000000,4.000000,4.000000,4.000000,4.000000,4.000000,4.000000,4.000000,100.000000,,,,,,,,,,,,,,,,,,,,,,,,,,,,
1703415760.248314,1703415760.248819,28.000000,0.000000,4169.743652,4229.743652,4295.128418,4264.871582,4228.717773,4230.128418,4262.307617,4219.871582,4220.384766,4208.717773,4546.922852,4463.717773,4386.538574,4506.282227,0.000000,2.000000,52.000000,,,,0.000000,4.000000,4.000000,4.000000,4.000000,4.000000,4.000000,4.000000,4.000000,4.000000,4.000000,4.000000,4.000000,4.000000,4.000000,100.000000,,,,,,,,,,,,,,,,,7.000000,0.000000,0.696715,0.191711,-0.654602,0.222107,0.985472,-0.009278,0.085460,-16.787024,-39.479122,65.376900
1703415760.256122,1703415760.256727,29.000000,0.000000,4169.102539,4227.436035,4294.615234,4259.102539,4228.077148,4228.846191,4261.922852,4217.307617,4218.974121,4198.846191,4556.538574,4462.436035,4386.410156,4493.077148,0.000000,2.000000,52.000000,,,,0.000000,4.000000,4.000000,4.000000,4.000000,4.000000,4.000000,4.000000,4.000000,4.000000,4.000000,4.000000,4.000000,4.000000,4.000000,100.000000,,,,,,,,,,,,,,,,,,,,,,,,,,,,
1703415760.263930,1703415760.264535,30.000000,0.000000,4168.205078,4230.384766,4293.333496,4264.743652,4239.358887,4230.897461,4262.820313,4223.717773,4221.282227,4212.563965,4557.692383,4458.974121,4392.820313,4492.948730,0.000000,2.000000,52.000000,,,,0.000000,4.000000,4.000000,4.000000,4.000000,4.000000,4.000000,4.000000,4.000000,4.000000,4.000000,4.000000,4.000000,4.000000,4.000000,100.000000,,,,,,,,,,,,,,,,,,,,,,,,,,,,
1703415760.271738,1703415760.272443,31.000000,0.000000,4170.256348,4234.871582,4293.974121,4274.487305,4245.641113,4231.410156,4266.666504,4235.384766,4229.743652,4223.717773,4563.717773,4464.743652,4395.000000,4503.333496,0.000000,2.000000,52.000000,,,,0.000000,4.000000,4.000000,4.000000,4.000000,4.000000,4.000000,4.000000,4.000000,4.000000,4.000000,4.000000,4.000000,4.000000,4.000000,100.000000,,,,,,,,,,,,,,,,,,,,,,,,,,,,
1703415760.279546,1703415760.280252,32.000000,0.000000,4161.538574,4224.102539,4283.461426,4266.794922,4233.333496,4230.384766,4266.153809,4227.179688,4223.846191,4210.000000,4556.538574,4459.358887,4383.717773,4488.205078,0.000000,2.000000,52.000000,,,,0.000000,4.000000,4.000000,4.000000,4.000000,4.000000,4.000000,4.000000,4.000000,4.000000,4.000000,4.000000,4.000000,4.000000,4.000000,100.000000,,,,,,,,,,,,,,,,,8.000000,0.000000,0.696806,0.191589,-0.654541,0.222107,0.992309,-0.017092,0.080576,-16.758320,-39.631210,65.289207
1703415760.287354,1703415760.288159,33.000000,0.000000,4150.256348,4218.205078,4274.102539,4258.333496,4226.025879,4230.128418,4263.205078,4214.358887,4211.922852,4204.358887,4536.410156,4447.436035,4375.384766,4476.282227,0.000000,2.000000,52.000000,,,,0.000000,4.000000,4.000000,4.000000,4.000000,4.000000,4.000000,4.000000,4.000000,4.000000,4.000000,4.000000,4.000000,4.000000,4.000000,100.000000,,,,,,,,,,,,,,,,,,,,,,,,,,,,
1703415760.295162,1703415760.295967,34.000000,0.000000,4158.205078,4228.333496,4278.974121,4264.615234,4233.974121,4229.102539,4263.974121,4217.179688,4213.717773,4215.384766,4538.589844,4450.512695,4381.025879,4489.615234,0.000000,2.000000,52.000000,,,,0.000000,4.000000,4.000000,4.000000,4.000000,4.000000,4.000000,4.000000,4.000000,4.000000,4.000000,4.000000,4.000000,4.000000,4.000000,100.000000,,,,,,,,,,,,,,,,,,,,,,,,,,,,
1703415760.302970,1703415760.303875,35.000000,0.000000,4167.563965,4228.717773,4283.205078,4266.153809,4237.307617,4227.692383,4263.461426,4222.948730,4219.487305,4215.641113,4547.948730,4460.000000,4385.256348,4489.102539,0.000000,2.000000,52.000000,,,,0.000000,4.000000,4.000000,4.000000,4.000000,4.000000,4.000000,4.000000,4.000000,4.000000,4.000000,4.000000,4.000000,4.000000,4.000000,100.000000,,,,,,,,,,,,,,,,,,,,,,,,,,,,
1703415760.310778,1703415760.311683,36.000000,0.000000,4158.974121,4217.179688,4277.563965,4259.230957,4234.487305,4227.563965,4261.153809,4224.358887,4218.717773,4212.948730,4535.897461,4460.256348,4379.358887,4478.461426,0.000000,2.000000,52.000000,,,,0.000000,4.000000,4.000000,4.000000,4.000000,4.000000,4.000000,4.000000,4.000000,4.000000,4.000000,4.000000,4.000000,4.000000,4.000000,100.000000,,,,,,,,,,,,,,,,,9.000000,0.000000,0.696800,0.191467,-0.654541,0.222229,0.985472,-0.011720,0.075693,-16.632488,-39.701420,65.226952
1703415760.318586,1703415760.319391,37.000000,0.000000,4151.922852,4215.384766,4271.153809,4258.077148,4233.717773,4226.410156,4262.307617,4221.666504,4214.358887,4204.358887,4531.666504,4452.051270,4371.410156,4475.769043,0.000000,2.000000,52.000000,,,,0.000000,4.000000,4.000000,4.000000,4.000000,4.000000,4.000000,4.000000,4.000000,4.000000,4.000000,4.000000,4.000000,4.000000,4.000000,100.000000,,,,,,,,,,,,,,,,,,,,,,,,,,,,
1703415760.326394,1703415760.327199,38.000000,0.000000,4157.179688,4221.282227,4272.563965,4261.025879,4231.153809,4229.358887,4263.717773,4222.051270,4218.205078,4198.846191,4547.051270,4450.128418,4381.538574,4472.820313,0.000000,2.000000,52.000000,,,,0.000000,4.000000,4.000000,4.000000,4.000000,4.000000,4.000000,4.000000,4.000000,4.000000,4.000000,4.000000,4.000000,4.000000,4.000000,100.000000,,,,,,,,,,,,,,,,,,,,,,,,,,,,
1703415760.334202,1703415760.334907,39.000000,0.000000,4159.615234,4217.307617,4278.846191,4257.820313,4229.871582,4229.358887,4261.153809,4228.846191,4225.256348,4215.769043,4555.641113,4458.205078,4394.871582,4480.384766,0.000000,2.000000,52.000000,,,,0.000000,4.000000,4.000000,4.000000,4.000000,4.000000,4.000000,4.000000,4.000000,4.000000,4.000000,4.000000,4.000000,4.000000,4.000000,100.000000,,,,,,,,,,,,,,,,,,,,,,,,,,,,
1703415760.342010,1703415760.342715,40.000000,0.000000,4159.743652,4216.794922,4281.025879,4259.487305,4231.922852,4221.025879,4259.615234,4232.179688,4221.538574,4217.307617,4551.922852,4464.358887,4386.153809,4490.128418,0.000000,2.000000,52.000000,,,,0.000000,4.000000,4.000000,4.000000,4.000000,4.000000,4.000000,4.000000,4.000000,4.000000,4.000000,4.000000,4.000000,4.000000,4.000000,100.000000,,,,,,,,,,,,,,,,,10.000000,0.000000,0.696775,0.191345,-0.654541,0.222412,0.995727,-0.011720,0.071786,-16.819239,-39.764614,65.254257
1703415760.349818,1703415760.350423,41.000000,0.000000,4166.666504,4224.615234,4277.692383,4264.743652,4228.077148,4220.256348,4261.410156,4230.641113,4215.512695,4203.205078,4550.769043,4461.025879,4381.794922,4485.769043,0.000000,2.000000,52.000000,,,,0.000000,4.000000,4.000000,4.000000,4.000000,4.000000,4.000000,4.000000,4.000000,4.000000,4.000000,4.000000,4.000000,4.000000,4.000000,100.000000,,,,,,,,,,,,,,,,,,,,,,,,,,,,
1703415760.357626,1703415760.358231,42.000000,0.000000,4172.692383,4223.077148,4277.563965,4254.871582,4225.384766,4227.692383,4263.077148,4234.102539,4218.333496,4216.410156,4553.333496,4459.487305,4392.692383,4485.384766,0.000000,2.000000,52.000000,,,,0.000000,4.000000,4.000000,4.000000,4.000000,4.000000,4.000000,4.000000,4.000000,4.000000,4.000000,4.000000,4.000000,4.000000,4.000000,100.000000,,,,,,,,,,,,,,,,,,,,,,,,,,,,
1703415760.365434,1703415760.365939,43.000000,0.000000,4163.717773,4214.230957,4279.615234,4240.641113,4231.538574,4227.692383,4263.333496,4235.641113,4222.820313,4230.897461,4550.897461,4461.025879,4387.051270,4486.538574,0.000000,2.000000,52.000000,,,,0.000000,4.000000,4.000000,4.000000,4.000000,4.000000,4.000000,4.000000,4.000000,4.000000,4.000000,4.000000,4.000000,4.000000,4.000000,100.000000,,,,,,,,,,,,,,,,,,,,,,,,,,,,
1703415760.373243,1703415760.373848,44.000000,0.000000,4155.256348,4214.358887,4278.717773,4252.307617,4235.384766,4226.538574,4263.589844,4232.948730,4224.487305,4216.153809,4552.179688,4461.922852,4380.641113,4478.589844,0.000000,2.000000,52.000000,,,,0.000000,4.000000,4.000000,4.000000,4.000000,4.000000,4.000000,4.000000,4.000000,4.000000,4.000000,4.000000,4.000000,4.000000,4.000000,100.000000,,,,,,,,,,,,,,,,,11.000000,0.000000,0.696730,0.191162,-0.654663,0.222351,0.981565,-0.016604,0.091320,-16.820648,-39.871487,65.278831
1703415760.381050,1703415760.381656,45.000000,0.000000,4164.871582,4221.025879,4278.717773,4263.333496,4231.153809,4230.769043,4263.846191,4233.461426,4222.051270,4203.717773,4551.153809,4466.153809,4389.743652,4475.000000,0.000000,2.000000,52.000000,,,,0.000000,4.000000,4.000000,4.000000,4.000000,4.000000,4.000000,4.000000,4.000000,4.000000,4.000000,4.000000,4.000000,4.000000,4.000000,100.000000,,,,,,,,,,,,,,,,,,,,,,,,,,,,
1703415760.388858,1703415760.389564,46.000000,0.000000,4171.666504,4220.769043,4277.307617,4250.641113,4226.538574,4228.205078,4263.077148,4231.922852,4216.794922,4201.410156,4542.692383,4464.102539,4385.769043,4475.384766,0.000000,2.000000,52.000000,,,,0.000000,4.000000,4.000000,4.000000,4.000000,4.000000,4.000000,4.000000,4.000000,4.000000,4.000000,4.000000,4.000000,4.000000,4.000000,100.000000,,,,,,,,,,,,,,,,,,,,,,,,,,,,
1703415760.396667,1703415760.397372,47.000000,0.000000,4169.230957,4217.051270,4280.897461,4251.282227,4229.743652,4232.051270,4263.333496,4229.743652,4217.051270,4202.820313,4544.615234,4463.077148,4381.153809,4478.846191,0.000000,2.000000,52.000000,,,,0.000000,4.000000,4.000000,4.000000,4.000000,4.000000,4.000000,4.000000,4.000000,4.000000,4.000000,4.000000,4.000000,4.000000,4.000000,100.000000,,,,,,,,,,,,,,,,,,,,,,,,,,,,
1703415760.404475,1703415760.405280,48.000000,0.000000,4176.922852,4221.538574,4288.717773,4268.205078,4232.563965,4243.333496,4263.717773,4231.025879,4218.846191,4216.153809,4554.871582,4471.410156,4394.487305,4489.743652,0.000000,2.000000,52.000000,,,,0.000000,4.000000,4.000000,4.000000,4.000000,4.000000,4.000000,4.000000,4.000000,4.000000,4.000000,4.000000,4.000000,4.000000,4.000000,100.000000,,,,,,,,,,,,,,,,,12.000000,0.000000,0.696761,0.190979,-0.654663,0.222412,1.000610,-0.023440,0.078623,-16.705252,-39.734337,65.284279
1703415760.412283,1703415760.413088,49.000000,0.000000,4187.179688,4229.615234,4288.077148,4262.307617,4228.205078,4240.256348,4263.077148,4230.897461,4216.922852,4224.230957,4556.666504,4476.153809,4399.487305,4495.384766,0.000000,2.000000,52.000000,,,,0.000000,4.000000,4.000000,4.000000,4.000000,4.000000,4.000000,4.000000,4.000000,4.000000,4.000000,4.000000,4.000000,4.000000,4.000000,100.000000,,,,,,,,,,,,,,,,,,,,,,,,,,,,
1703415760.420091,1703415760.420996,50.000000,0.000000,4187.820313,4227.692383,4286.153809,4246.922852,4225.769043,4230.769043,4263.333496,4226.410156,4212.179688,4208.077148,4547.179688,4471.922852,4384.871582,4488.205078,0.000000,2.000000,52.000000,,,,0.000000,4.000000,4.000000,4.000000,4.000000,4.000000,4.000000,4.000000,4.000000,4.000000,4.000000,4.000000,4.000000,4.000000,4.000000,100.000000,,,,,,,,,,,,,,,,,,,,,,,,,,,,
1703415760.427899,1703415760.428805,51.000000,0.000000,4182.820313,4217.563965,4285.128418,4257.051270,4233.077148,4234.358887,4263.205078,4222.820313,4207.563965,4189.871582,4536.410156,4456.538574,4371.282227,4475.641113,0.000000,2.000000,52.000000,,,,0.000000,4.000000,4.000000,4.000000,4.000000,4.000000,4.000000,4.000000,4.000000,4.000000,4.000000,4.000000,4.000000,4.000000,4.000000,100.000000,,,,,,,,,,,,,,,,,,,,,,,,,,,,
1703415760.435707,1703415760.436613,52.000000,0.000000,4172.436035,4216.025879,4279.615234,4264.743652,4233.717773,4241.282227,4261.410156,4226.794922,4211.025879,4188.077148,4531.410156,4446.794922,4372.051270,4476.538574,0.000000,2.000000,52.000000,,,,0.000000,4.000000,4.000000,4.000000,4.000000,4.000000,4.000000,4.000000,4.000000,4.000000,4.000000,4.000000,4.000000,4.000000,4.000000,100.000000,,,,,,,,,,,,,,,,,13.000000,0.000000,0.696813,0.190857,-0.654602,0.222534,0.990844,-0.011232,0.071298,-16.718060,-39.844234,65.272522
1703415760.443515,1703415760.444321,53.000000,0.000000,4171.282227,4217.436035,4283.846191,4248.589844,4220.641113,4235.641113,4260.128418,4232.820313,4217.307617,4197.692383,4535.000000,4460.000000,4381.666504,4489.358887,0.000000,2.000000,52.000000,,,,0.000000,4.000000,4.000000,4.000000,4.000000,4.000000,4.000000,4.000000,4.000000,4.000000,4.000000,4.000000,4.000000,4.000000,4.000000,100.000000,,,,,,,,,,,,,,,,,,,,,,,,,,,,
1703415760.451323,1703415760.452229,54.000000,0.000000,4194.230957,4216.922852,4296.538574,4246.666504,4219.615234,4228.077148,4260.769043,4236.025879,4220.000000,4215.769043,4547.179688,4482.179688,4395.897461,4494.358887,0.000000,2.000000,52.000000,,,,0.000000,4.000000,4.000000,4.000000,4.000000,4.000000,4.000000,4.000000,4.000000,4.000000,4.000000,4.000000,4.000000,4.000000,4.000000,100.000000,,,,,,,,,,,,,,,,,,,,,,,,,,,,
1703415760.459131,1703415760.460037,55.000000,0.000000,4207.692383,4223.846191,4296.282227,4265.384766,4233.461426,4227.051270,4261.153809,4233.333496,4222.051270,4221.410156,4556.282227,4478.205078,4399.358887,4491.282227,0.000000,2.000000,52.000000,,,,0.000000,4.000000,4.000000,4.000000,4.000000,4.000000,4.000000,4.000000,4.000000,4.000000,4.000000,4.000000,4.000000,4.000000,4.000000,100.000000,,,,,,,,,,,,,,,,,,,,,,,,,,,,
1703415760.466939,1703415760.467945,56.000000,0.000000,4195.384766,4228.846191,4290.769043,4271.922852,4239.743652,4229.743652,4261.794922,4222.948730,4214.487305,4210.897461,4553.205078,4458.461426,4390.128418,4490.769043,0.000000,2.000000,52.000000,,,,0.000000,4.000000,4.000000,4.000000,4.000000,4.000000,4.000000,4.000000,4.000000,4.000000,4.000000,4.000000,4.000000,4.000000,4.000000,100.000000,,,,,,,,,,,,,,,,,14.000000,0.000000,0.696870,0.190857,-0.654541,0.222534,0.996215,-0.017580,0.088878,-16.629587,-39.776478,65.295265
1703415760.474747,1703415760.475754,57.000000,0.000000,4196.410156,4224.102539,4296.282227,4260.641113,4229.230957,4228.333496,4257.948730,4217.051270,4204.230957,4214.743652,4552.307617,4466.153809,4392.179688,4491.922852,0.000000,2.000000,52.000000,,,,0.000000,4.000000,4.000000,4.000000,4.000000,4.000000,4.000000,4.000000,4.000000,4.000000,4.000000,4.000000,4.000000,4.000000,4.000000,100.000000,,,,,,,,,,,,,,,,,,,,,,,,,,,,
1703415760.482555,1703415760.483661,58.000000,0.000000,4210.000000,4215.000000,4296.410156,4248.846191,4215.256348,4220.128418,4250.384766,4216.794922,4201.410156,4215.256348,4552.820313,4477.051270,4398.846191,4489.358887,0.000000,2.000000,52.000000,,,,0.000000,4.000000,4.000000,4.000000,4.000000,4.000000,4.000000,4.000000,4.000000,4.000000,4.000000,4.000000,4.000000,4.000000,4.000000,100.000000,,,,,,,,,,,,,,,,,,,,,,,,,,,,
1703415760.490363,1703415760.491469,59.000000,0.000000,4205.512695,4216.282227,4295.000000,4249.615234,4221.538574,4219.615234,4253.077148,4215.897461,4203.846191,4203.589844,4547.563965,4471.025879,4396.410156,4497.051270,0.000000,2.000000,52.000000,,,,0.000000,4.000000,4.000000,4.000000,4.000000,4.000000,4.000000,4.000000,4.000000,4.000000,4.000000,4.000000,4.000000,4.000000,4.000000,100.000000,,,,,,,,,,,,,,,,,,,,,,,,,,,,
1703415760.498171,1703415760.499178,60.000000,0.000000,4195.512695,4226.666504,4301.794922,4263.077148,4238.461426,4229.871582,4261.538574,4222.948730,4206.025879,4203.974121,4553.717773,4472.051270,4394.230957,4508.461426,0.000000,2.000000,52.000000,,,,0.000000,4.000000,4.000000,4.000000,4.000000,4.000000,4.000000,4.000000,4.000000,4.000000,4.000000,4.000000,4.000000,4.000000,4.000000,100.000000,,,,,,,,,,,,,,,,,15.000000,0.000000,0.696763,0.191040,-0.654602,0.222534,1.005982,-0.006348,0.066414,-16.733294,-39.632164,65.449074
1703415760.505979,1703415760.507086,61.000000,0.000000,4199.358887,4225.512695,4301.282227,4261.794922,4233.077148,4230.384766,4258.077148,4223.589844,4205.000000,4208.461426,4559.871582,4471.410156,4393.846191,4501.153809,0.000000,2.000000,52.000000,,,,0.000000,4.000000,4.000000,4.000000,4.000000,4.000000,4.000000,4.000000,4.000000,4.000000,4.000000,4.000000,4.000000,4.000000,4.000000,100.000000,,,,,,,,,,,,,,,,,,,,,,,,,,,,
1703415760.513787,1703415760.514894,62.000000,0.000000,4202.436035,4216.410156,4292.820313,4250.000000,4217.307617,4218.461426,4252.307617,4216.025879,4206.538574,4206.538574,4545.256348,4466.538574,4393.077148,4490.128418,0.000000,2.000000,52.000000,,,,0.000000,4.000000,4.000000,4.000000,4.000000,4.000000,4.000000,4.000000,4.000000,4.000000,4.000000,4.000000,4.000000,4.000000,4.000000,100.000000,,,,,,,,,,,,,,,,,,,,,,,,,,,,
1703415760.521595,1703415760.522802,63.000000,0.000000,4201.282227,4217.948730,4294.102539,4260.641113,4226.922852,4218.205078,4261.282227,4220.769043,4209.871582,4213.717773,4541.025879,4470.256348,4391.410156,4496.153809,0.000000,2.000000,52.000000,,,,0.000000,4.000000,4.000000,4.000000,4.000000,4.000000,4.000000,4.000000,4.000000,4.000000,4.000000,4.000000,4.000000,4.000000,4.000000,100.000000,,,,,,,,,,,,,,,,,,,,,,,,,,,,
1703415760.529403,1703415760.530610,64.000000,0.000000,4198.589844,4222.948730,4299.487305,4262.692383,4233.846191,4223.077148,4264.230957,4225.128418,4206.922852,4212.820313,4555.512695,4469.615234,4385.128418,4490.641113,5514.000000,2.000000,52.000000,,,,0.000000,4.000000,4.000000,4.000000,4.000000,4.000000,4.000000,4.000000,4.000000,4.000000,4.000000,4.000000,4.000000,4.000000,4.000000,100.000000,,,,,,,,,,,,,,,,,16.000000,0.000000,0.696749,0.191162,-0.654602,0.222473,0.999145,-0.016115,0.075693,-16.693298,-39.752281,65.287498
1703415760.537212,1703415760.538518,65.000000,0.000000,4187.948730,4216.666504,4291.538574,4241.410156,4213.974121,4217.051270,4250.128418,4216.153809,4200.000000,4197.692383,4550.769043,4455.256348,4377.692383,4471.794922,5509.000000,2.000000,52.000000,,,,0.000000,4.000000,4.000000,4.000000,4.000000,4.000000,4.000000,4.000000,4.000000,4.000000,4.000000,4.000000,4.000000,4.000000,4.000000,100.000000,,,,,,,,,,,,,,,,,,,,,,,,,,,,
1703415760.545020,1703415760.546326,66.000000,0.000000,4189.743652,4217.436035,4292.948730,4248.461426,4213.846191,4219.487305,4248.846191,4213.205078,4198.846191,4207.051270,4536.666504,4456.666504,4381.410156,4482.051270,5372.000000,2.000000,52.000000,,,,0.000000,4.000000,4.000000,4.000000,4.000000,4.000000,4.000000,4.000000,4.000000,4.000000,4.000000,4.000000,4.000000,4.000000,4.000000,100.000000,,,,,,,,,,,,,,,,,,,,,,,,,,,,
1703415760.552828,1703415760.554135,67.000000,0.000000,4205.641113,4224.102539,4303.589844,4271.282227,4235.641113,4228.974121,4259.615234,4218.333496,4200.897461,4216.538574,4543.589844,4468.846191,4388.589844,4502.051270,5318.000000,2.000000,52.000000,,,,0.000000,4.000000,4.000000,4.000000,4.000000,4.000000,4.000000,4.000000,4.000000,4.000000,4.000000,4.000000,4.000000,4.000000,4.000000,100.000000,,,,,,,,,,,,,,,,,,,,,,,,,,,,
1703415760.560636,1703415760.561843,68.000000,0.000000,4207.051270,4219.871582,4299.358887,4264.230957,4233.333496,4222.436035,4256.666504,4215.769043,4198.846191,4200.384766,4551.666504,4466.282227,4386.794922,4493.717773,5248.000000,2.000000,52.000000,,,,0.000000,4.000000,4.000000,4.000000,4.000000,4.000000,4.000000,4.000000,4.000000,4.000000,4.000000,4.000000,4.000000,4.000000,4.000000,100.000000,,,,,,,,,,,,,,,,,17.000000,0.000000,0.696665,0.191467,-0.654602,0.222473,0.986937,-0.013185,0.082530,-16.607302,-39.810387,65.225418
1703415760.568444,1703415760.569651,69.000000,0.000000,4196.666504,4220.512695,4295.128418,4263.077148,4228.974121,4212.436035,4252.307617,4216.922852,4202.436035,4199.102539,4552.436035,4460.897461,4387.436035,4485.128418,4837.000000,2.000000,52.000000,,,,0.000000,4.000000,4.000000,4.000000,4.000000,4.000000,4.000000,4.000000,4.000000,4.000000,4.000000,4.000000,4.000000,4.000000,4.000000,100.000000,,,,,,,,,,,,,,,,,,,,,,,,,,,,
1703415760.576252,1703415760.577359,70.000000,0.000000,4197.307617,4228.846191,4300.000000,4280.000000,4243.461426,4218.077148,4260.769043,4225.769043,4212.307617,4216.794922,4554.487305,4467.051270,4393.461426,4495.256348,4031.000000,2.000000,52.000000,,,,0.000000,4.000000,4.000000,4.000000,4.000000,4.000000,4.000000,4.000000,4.000000,4.000000,4.000000,4.000000,4.000000,4.000000,4.000000,100.000000,,,,,,,,,,,,,,,,,,,,,,,,,,,,
1703415760.584060,1703415760.585167,71.000000,0.000000,4210.000000,4234.102539,4300.000000,4273.717773,4242.436035,4222.307617,4265.000000,4230.769043,4217.436035,4218.846191,4546.794922,4474.358887,4393.077148,4497.820313,5252.000000,2.000000,52.000000,,,,0.000000,4.000000,4.000000,4.000000,4.000000,4.000000,4.000000,4.000000,4.000000,4.000000,4.000000,4.000000,4.000000,4.000000,4.000000,100.000000,,,,,,,,,,,,,,,,,,,,,,,,,,,,
1703415760.591868,1703415760.592875,72.000000,0.000000,4212.179688,4229.230957,4293.846191,4258.077148,4229.358887,4216.538574,4262.436035,4234.615234,4216.538574,4206.153809,4544.743652,4469.230957,4386.922852,4492.179688,5377.000000,2.000000,52.000000,,,,0.000000,4.000000,4.000000,4.000000,4.000000,4.000000,4.000000,4.000000,4.000000,4.000000,4.000000,4.000000,4.000000,4.000000,4.000000,100.000000,,,,,,,,,,,,,,,,,18.000000,0.000000,0.696805,0.191589,-0.654480,0.222290,0.984984,-0.013674,0.083995,-16.563238,-39.712681,65.202873
1703415760.599676,1703415760.600683,73.000000,0.000000,4204.358887,4221.538574,4292.820313,4264.487305,4226.282227,4214.358887,4261.153809,4233.333496,4220.641113,4210.000000,4557.051270,4462.436035,4390.128418,4496.282227,5330.000000,2.000000,52.000000,,,,0.000000,4.000000,4.000000,4.000000,4.000000,4.000000,4.000000,4.000000,4.000000,4.000000,4.000000,4.000000,4.000000,4.000000,4.000000,100.000000,,,,,,,,,,,,,,,,,,,,,,,,,,,,
1703415760.607484,1703415760.608391,74.000000,0.000000,4202.179688,4218.589844,4295.641113,4267.307617,4221.666504,4215.512695,4253.717773,4223.717773,4216.025879,4214.102539,4550.384766,4456.538574,4389.743652,4491.153809,5936.000000,2.000000,52.000000,,,,0.000000,4.000000,4.000000,4.000000,4.000000,4.000000,4.000000,4.000000,4.000000,4.000000,4.000000,4.000000,4.000000,4.000000,4.000000,100.000000,,,,,,,,,,,,,,,,,,,,,,,,,,,,
1703415760.615292,1703415760.616299,75.000000,0.000000,4197.436035,4217.179688,4291.666504,4258.717773,4223.589844,4213.461426,4248.461426,4216.794922,4200.384766,4204.487305,4530.897461,4445.256348,4379.358887,4481.410156,6249.000000,2.000000,52.000000,,,,0.000000,4.000000,4.000000,4.000000,4.000000,4.000000,4.000000,4.000000,4.000000,4.000000,4.000000,4.000000,4.000000,4.000000,4.000000,100.000000,,,,,,,,,,,,,,,,,,,,,,,,,,,,
1703415760.623100,1703415760.624107,76.000000,0.000000,4188.589844,4219.102539,4284.615234,4261.282227,4234.615234,4217.179688,4251.410156,4214.871582,4196.538574,4202.692383,4532.948730,4443.205078,4377.692383,4482.563965,6781.000000,2.000000,52.000000,,,,0.000000,4.000000,4.000000,4.000000,4.000000,4.000000,4.000000,4.000000,4.000000,4.000000,4.000000,4.000000,4.000000,4.000000,4.000000,100.000000,,,,,,,,,,,,,,,,,19.000000,0.000000,0.697049,0.191467,-0.654297,0.222168,0.984984,-0.000977,0.086925,-16.673582,-39.658081,65.115921
1703415760.630908,1703415760.632015,77.000000,0.000000,4194.743652,4223.461426,4285.512695,4268.846191,4232.948730,4224.230957,4251.153809,4214.102539,4201.025879,4202.820313,4540.641113,4447.692383,4381.153809,4486.794922,7314.000000,2.000000,52.000000,,,,0.000000,4.000000,4.000000,4.000000,4.000000,4.000000,4.000000,4.000000,4.000000,4.000000,4.000000,4.000000,4.000000,4.000000,4.000000,100.000000,,,,,,,,,,,,,,,,,,,,,,,,,,,,
1703415760.638716,1703415760.639823,78.000000,0.000000,4203.717773,4223.461426,4293.589844,4262.307617,4229.743652,4222.436035,4249.487305,4220.769043,4202.051270,4196.282227,4543.077148,4450.897461,4386.153809,4488.846191,5936.000000,2.000000,52.000000,,,,0.000000,4.000000,4.000000,4.000000,4.000000,4.000000,4.000000,4.000000,4.000000,4.000000,4.000000,4.000000,4.000000,4.000000,4.000000,100.000000,,,,,,,,,,,,,,,,,,,,,,,,,,,,
1703415760.646524,1703415760.647732,79.000000,0.000000,4193.205078,4217.563965,4294.358887,4254.487305,4233.589844,4219.487305,4250.384766,4225.128418,4202.948730,4195.384766,4537.820313,4454.615234,4388.974121,4491.410156,6249.000000,2.000000,52.000000,,,,0.000000,4.000000,4.000000,4.000000,4.000000,4.000000,4.000000,4.000000,4.000000,4.000000,4.000000,4.000000,4.000000,4.000000,4.000000,100.000000,,,,,,,,,,,,,,,,,,,,,,,,,,,,
1703415760.654332,1703415760.655540,80.000000,0.000000,4185.512695,4217.948730,4293.974121,4264.615234,4230.128418,4228.589844,4251.025879,4223.077148,4207.692383,4204.615234,4528.205078,4460.256348,4384.358887,4496.794922,6781.000000,2.000000,52.000000,,,,0.000000,4.000000,4.000000,4.000000,4.000000,4.000000,4.000000,4.000000,4.000000,4.000000,4.000000,4.000000,4.000000,4.000000,4.000000,100.000000,,,,,,,,,,,,,,,,,20.000000,0.000000,0.697162,0.191406,-0.654236,0.222046,0.985472,-0.013185,0.089855,-16.689556,-39.642273,65.120995
1703415760.662140,1703415760.663448,81.000000,0.000000,4188.974121,4221.922852,4293.333496,4266.922852,4224.102539,4232.307617,4250.641113,4228.846191,4215.256348,4203.333496,4538.461426,4461.282227,4381.666504,4505.256348,7314.000000,2.000000,52.000000,,,,0.000000,4.000000,4.000000,4.000000,4.000000,4.000000,4.000000,4.000000,4.000000,4.000000,4.000000,4.000000,4.000000,4.000000,4.000000,100.000000,,,,,,,,,,,,,,,,,,,,,,,,,,,,
1703415760.669948,1703415760.671256,82.000000,0.000000,4186.794922,4220.128418,4285.384766,4251.025879,4224.487305,4222.820313,4251.025879,4233.589844,4214.743652,4196.538574,4551.025879,4453.846191,4385.000000,4508.589844,5936.000000,2.000000,52.000000,,,,0.000000,4.000000,4.000000,4.000000,4.000000,4.000000,4.000000,4.000000,4.000000,4.000000,4.000000,4.000000,4.000000,4.000000,4.000000,100.000000,,,,,,,,,,,,,,,,,,,,,,,,,,,,
1703415760.677756,1703415760.679064,83.000000,0.000000,4181.410156,4215.769043,4278.077148,4250.641113,4228.974121,4217.692383,4251.153809,4230.000000,4204.743652,4206.153809,4543.077148,4447.692383,4384.230957,4497.692383,6249.000000,2.000000,52.000000,,,,0.000000,4.000000,4.000000,4.000000,4.000000,4.000000,4.000000,4.000000,4.000000,4.000000,4.000000,4.000000,4.000000,4.000000,4.000000,100.000000,,,,,,,,,,,,,,,,,,,,,,,,,,,,
1703415760.685564,1703415760.686872,84.000000,0.000000,4183.846191,4215.128418,4278.846191,4263.589844,4232.563965,4220.769043,4251.282227,4228.717773,4202.179688,4216.025879,4534.871582,4450.000000,4379.487305,4485.769043,6781.000000,2.000000,52.000000,,,,0.000000,4.000000,4.000000,4.000000,4.000000,4.000000,4.000000,4.000000,4.000000,4.000000,4.000000,4.000000,4.000000,4.000000,4.000000,100.000000,1.000000,83.333336,4.000000,4.000000,4.000000,4.000000,4.000000,4.000000,4.000000,4.000000,4.000000,3.000000,4.000000,4.000000,4.000000,3.000000,21.000000,0.000000,0.697253,0.191284,-0.654175,0.222046,0.987425,-0.004395,0.089855,-16.437267,-39.628044,65.158897
1703415760.693373,1703415760.694580,85.000000,0.000000,4190.641113,4222.948730,4282.051270,4261.538574,4231.410156,4224.487305,4250.641113,4230.769043,4213.077148,4215.256348,4543.333496,4456.025879,4386.922852,4494.871582,7314.000000,2.000000,52.000000,,,,0.000000,4.000000,4.000000,4.000000,4.000000,4.000000,4.000000,4.000000,4.000000,4.000000,4.000000,4.000000,4.000000,4.000000,4.000000,100.000000,,,,,,,,,,,,,,,,,,,,,,,,,,,,
1703415760.701181,1703415760.702388,86.000000,0.000000,4189.743652,4231.153809,4279.487305,4258.846191,4230.769043,4226.282227,4249.871582,4238.205078,4222.692383,4213.974121,4551.410156,4460.000000,4397.948730,4514.487305,5936.000000,2.000000,52.000000,,,,0.000000,4.000000,4.000000,4.000000,4.000000,4.000000,4.000000,4.000000,4.000000,4.000000,4.000000,4.000000,4.000000,4.000000,4.000000,100.000000,,,,,,,,,,,,,,,,,,,,,,,,,,,,
1703415760.708989,1703415760.710096,87.000000,0.000000,4187.563965,4229.102539,4276.410156,4267.051270,4233.717773,4225.512695,4251.538574,4244.487305,4222.051270,4215.384766,4553.077148,4457.307617,4394.871582,4518.205078,6249.000000,2.000000,52.000000,,,,0.000000,4.000000,4.000000,4.000000,4.000000,4.000000,4.000000,4.000000,4.000000,4.000000,4.000000,4.000000,4.000000,4.000000,4.000000,100.000000,,,,,,,,,,,,,,,,,,,,,,,,,,,,
1703415760.716797,1703415760.717904,88.000000,0.000000,4183.205078,4222.692383,4280.641113,4260.512695,4229.358887,4221.666504,4251.282227,4238.461426,4218.589844,4217.051270,4556.410156,4451.538574,4388.333496,4507.692383,6781.000000,2.000000,52.000000,,,,0.000000,4.000000,4.000000,4.000000,4.000000,4.000000,4.000000,4.000000,4.000000,4.000000,4.000000,4.000000,4.000000,4.000000,4.000000,100.000000,,,,,,,,,,,,,,,,,22.000000,0.000000,0.697362,0.191162,-0.654053,0.222168,0.988402,-0.016115,0.087901,-16.310207,-39.765240,65.176338
1703415760.724605,1703415760.725612,89.000000,0.000000,4173.205078,4215.000000,4281.410156,4245.384766,4219.615234,4216.538574,4248.333496,4231.794922,4218.589844,4218.974121,4548.205078,4450.384766,4387.436035,4502.820313,7314.000000,2.000000,52.000000,,,,0.000000,4.000000,4.000000,4.000000,4.000000,4.000000,4.000000,4.000000,4.000000,4.000000,4.000000,4.000000,4.000000,4.000000,4.000000,100.000000,,,,,,,,,,,,,,,,,,,,,,,,,,,,
1703415760.732413,1703415760.733420,90.000000,0.000000,4179.358887,4212.051270,4281.025879,4249.871582,4220.512695,4220.128418,4248.077148,4232.563965,4217.563965,4210.256348,4537.179688,4451.153809,4386.538574,4507.051270,5936.000000,2.000000,52.000000,,,,0.000000,4.000000,4.000000,4.000000,4.000000,4.000000,4.000000,4.000000,4.000000,4.000000,4.000000,4.000000,4.000000,4.000000,4.000000,100.000000,,,,,,,,,,,,,,,,,,,,,,,,,,,,
1703415760.740221,1703415760.741128,91.000000,0.000000,4200.000000,4224.230957,4290.641113,4267.948730,4231.025879,4231.025879,4251.410156,4234.102539,4217.820313,4202.051270,4544.871582,4452.436035,4389.102539,4511.922852,6249.000000,2.000000,52.000000,,,,0.000000,4.000000,4.000000,4.000000,4.000000,4.000000,4.000000,4.000000,4.000000,4.000000,4.000000,4.000000,4.000000,4.000000,4.000000,100.000000,,,,,,,,,,,,,,,,,,,,,,,,,,,,
1703415760.748029,1703415760.748936,92.000000,0.000000,4206.410156,4235.384766,4299.102539,4282.820313,4236.666504,4233.974121,4251.410156,4229.743652,4219.230957,4214.230957,4553.717773,4454.358887,4396.666504,4510.769043,6781.000000,2.000000,52.000000,,,,0.000000,4.000000,4.000000,4.000000,4.000000,4.000000,4.000000,4.000000,4.000000,4.000000,4.000000,4.000000,4.000000,4.000000,4.000000,100.000000,,,,,,,,,,,,,,,,,23.000000,0.000000,0.697326,0.191223,-0.654053,0.222229,1.007936,-0.016115,0.090343,-16.295853,-39.855381,65.158707
1703415760.755837,1703415760.756644,93.000000,0.000000,4200.641113,4233.077148,4295.384766,4279.871582,4233.333496,4228.717773,4247.179688,4222.179688,4217.051270,4227.692383,4547.179688,4454.102539,4397.563965,4512.436035,7314.000000,2.000000,52.000000,,,,0.000000,4.000000,4.000000,4.000000,4.000000,4.000000,4.000000,4.000000,4.000000,4.000000,4.000000,4.000000,4.000000,4.000000,4.000000,100.000000,,,,,,,,,,,,,,,,,,,,,,,,,,,,
1703415760.763645,1703415760.764452,94.000000,0.000000,4203.333496,4232.179688,4295.512695,4263.846191,4232.692383,4231.282227,4248.717773,4224.102539,4215.512695,4217.820313,4550.769043,4460.256348,4398.333496,4518.846191,5936.000000,2.000000,52.000000,,,,0.000000,4.000000,4.000000,4.000000,4.000000,4.000000,4.000000,4.000000,4.000000,4.000000,4.000000,4.000000,4.000000,4.000000,4.000000,100.000000,,,,,,,,,,,,,,,,,,,,,,,,,,,,
1703415760.771453,1703415760.772160,95.000000,0.000000,4203.205078,4230.128418,4299.230957,4260.128418,4231.922852,4233.077148,4251.922852,4232.436035,4216.153809,4203.846191,4552.179688,4466.410156,4395.384766,4514.102539,6249.000000,2.000000,52.000000,,,,0.000000,4.000000,4.000000,4.000000,4.000000,4.000000,4.000000,4.000000,4.000000,4.000000,4.000000,4.000000,4.000000,4.000000,4.000000,100.000000,,,,,,,,,,,,,,,,,,,,,,,,,,,,
1703415760.779261,1703415760.779968,96.000000,0.000000,4200.000000,4222.820313,4289.102539,4271.794922,4224.743652,4229.615234,4248.717773,4231.153809,4214.358887,4205.897461,4541.025879,4455.256348,4386.922852,4500.641113,6781.000000,2.000000,52.000000,,,,0.000000,4.000000,4.000000,4.000000,4.000000,4.000000,4.000000,4.000000,4.000000,4.000000,4.000000,4.000000,4.000000,4.000000,4.000000,100.000000,,,,,,,,,,,,,,,,,24.000000,0.000000,0.697268,0.191223,-0.654114,0.222229,0.976193,-0.018069,0.077646,-16.232935,-40.019844,65.142838
1703415760.787069,1703415760.787676,97.000000,0.000000,4203.846191,4224.487305,4280.769043,4275.769043,4221.282227,4232.179688,4247.179688,4228.461426,4215.000000,4210.769043,4545.512695,4446.538574,4389.230957,4503.717773,7314.000000,2.000000,52.000000,,,,0.000000,4.000000,4.000000,4.000000,4.000000,4.000000,4.000000,4.000000,4.000000,4.000000,4.000000,4.000000,4.000000,4.000000,4.000000,100.000000,,,,,,,,,,,,,,,,,,,,,,,,,,,,
1703415760.794877,1703415760.795584,98.000000,0.000000,4213.205078,4231.282227,4288.589844,4272.179688,4227.820313,4237.307617,4251.282227,4233.589844,4217.692383,4210.641113,4551.282227,4457.820313,4395.897461,4516.410156,5936.000000,2.000000,52.000000,,,,0.000000,4.000000,4.000000,4.000000,4.000000,4.000000,4.000000,4.000000,4.000000,4.000000,4.000000,4.000000,4.000000,4.000000,4.000000,100.000000,,,,,,,,,,,,,,,,,,,,,,,,,,,,
1703415760.802685,1703415760.803392,99.000000,0.000000,4225.512695,4232.692383,4294.615234,4273.077148,4235.000000,4238.717773,4252.563965,4237.179688,4219.615234,4207.307617,4547.051270,4467.179688,4397.436035,4521.025879,6249.000000,2.000000,52.000000,,,,0.000000,4.000000,4.000000,4.000000,4.000000,4.000000,4.000000,4.000000,4.000000,4.000000,4.000000,4.000000,4.000000,4.000000,4.000000,100.000000,,,,,,,,,,,,,,,,,,,,,,,,,,,,
1703415760.810493,1703415760.811200,100.000000,0.000000,4235.641113,4238.461426,4296.538574,4274.358887,4234.871582,4234.358887,4249.615234,4233.589844,4215.897461,4209.743652,4550.256348,4464.358887,4401.410156,4524.358887,6781.000000,2.000000,52.000000,,,,0.000000,4.000000,4.000000,4.000000,4.000000,4.000000,4.000000,4.000000,4.000000,4.000000,4.000000,4.000000,4.000000,4.000000,4.000000,100.000000,,,,,,,,,,,,,,,,,25.000000,0.000000,0.697158,0.191345,-0.654175,0.222290,0.983030,-0.013674,0.081553,-16.442974,-40.034527,65.245216
1703415760.818301,1703415760.818909,101.000000,0.000000,4252.948730,4247.179688,4304.487305,4277.179688,4232.436035,4231.922852,4248.717773,4227.948730,4205.769043,4214.615234,4558.974121,4465.256348,4408.461426,4537.436035,7314.000000,2.000000,52.000000,,,,0.000000,4.000000,4.000000,4.000000,4.000000,4.000000,4.000000,4.000000,4.000000,4.000000,4.000000,4.000000,4.000000,4.000000,4.000000,100.000000,,,,,,,,,,,,,,,,,,,,,,,,,,,,
1703415760.826109,1703415760.826817,102.000000,0.000000,4281.025879,4251.282227,4314.871582,4282.436035,4230.128418,4240.769043,4248.205078,4227.563965,4201.153809,4208.589844,4559.487305,4478.205078,4411.410156,4557.563965,5936.000000,2.000000,52.000000,,,,0.000000,4.000000,4.000000,4.000000,4.000000,4.000000,4.000000,4.000000,4.000000,4.000000,4.000000,4.000000,4.000000,4.000000,4.000000,100.000000,,,,,,,,,,,,,,,,,,,,,,,,,,,,
1703415760.833918,1703415760.834625,103.000000,0.000000,4307.563965,4256.410156,4321.410156,4285.000000,4234.102539,4247.179688,4248.333496,4231.666504,4205.384766,4202.692383,4559.487305,4491.538574,4416.922852,4571.666504,6249.000000,2.000000,52.000000,,,,0.000000,4.000000,4.000000,4.000000,4.000000,4.000000,4.000000,4.000000,4.000000,4.000000,4.000000,4.000000,4.000000,4.000000,4.000000,100.000000,,,,,,,,,,,,,,,,,,,,,,,,,,,,
1703415760.841725,1703415760.842533,104.000000,0.000000,4326.666504,4260.769043,4327.436035,4281.153809,4231.922852,4238.205078,4248.717773,4227.563965,4205.256348,4203.333496,4566.025879,4494.487305,4427.179688,4583.589844,6781.000000,2.000000,52.000000,,,,0.000000,4.000000,4.000000,4.000000,4.000000,4.000000,4.000000,4.000000,4.000000,4.000000,4.000000,4.000000,4.000000,4.000000,4.000000,100.000000,,,,,,,,,,,,,,,,,26.000000,0.000000,0.697391,0.191406,-0.653992,0.222046,0.999145,-0.004395,0.091320,-16.498676,-39.997742,65.254028
1703415760.849533,1703415760.850341,105.000000,0.000000,4341.282227,4263.205078,4334.102539,4278.717773,4215.897461,4228.333496,4247.179688,4217.307617,4200.128418,4199.615234,4570.000000,4490.897461,4430.000000,4596.666504,7314.000000,2.000000,52.000000,,,,0.000000,4.000000,4.000000,4.000000,4.000000,4.000000,4.000000,4.000000,4.000000,4.000000,4.000000,4.000000,4.000000,4.000000,4.000000,100.000000,,,,,,,,,,,,,,,,,,,,,,,,,,,,
1703415760.857342,1703415760.858249,106.000000,0.000000,4353.461426,4268.461426,4334.871582,4290.000000,4219.487305,4227.179688,4246.666504,4216.666504,4198.077148,4202.820313,4569.102539,4494.871582,4430.641113,4602.563965,5936.000000,2.000000,52.000000,,,,0.000000,4.000000,4.000000,4.000000,4.000000,4.000000,4.000000,4.000000,4.000000,4.000000,4.000000,4.000000,4.000000,4.000000,4.000000,100.000000,,,,,,,,,,,,,,,,,,,,,,,,,,,,
1703415760.865150,1703415760.866057,107.000000,0.000000,4354.102539,4269.358887,4330.769043,4294.230957,4238.077148,4226.666504,4247.307617,4225.384766,4199.487305,4215.641113,4567.692383,4506.282227,4436.153809,4602.692383,6249.000000,2.000000,52.000000,,,,0.000000,4.000000,4.000000,4.000000,4.000000,4.000000,4.000000,4.000000,4.000000,4.000000,4.000000,4.000000,4.000000,4.000000,4.000000,100.000000,,,,,,,,,,,,,,,,,,,,,,,,,,,,
1703415760.872958,1703415760.873765,108.000000,0.000000,4346.922852,4265.512695,4330.128418,4290.384766,4239.102539,4230.128418,4248.974121,4232.051270,4209.358887,4208.333496,4576.025879,4507.563965,4436.794922,4603.333496,6781.000000,2.000000,52.000000,,,,0.000000,4.000000,4.000000,4.000000,4.000000,4.000000,4.000000,4.000000,4.000000,4.000000,4.000000,4.000000,4.000000,4.000000,4.000000,100.000000,,,,,,,,,,,,,,,,,27.000000,0.000000,0.697459,0.191650,-0.653931,0.221802,0.981565,-0.007813,0.085460,-16.432142,-40.081299,65.578629
1703415760.880766,1703415760.881573,109.000000,0.000000,4346.538574,4267.436035,4333.589844,4290.897461,4228.974121,4232.692383,4249.487305,4230.512695,4216.666504,4202.051270,4583.974121,4499.871582,4432.179688,4605.128418,7314.000000,2.000000,52.000000,,,,0.000000,4.000000,4.000000,4.000000,4.000000,4.000000,4.000000,4.000000,4.000000,4.000000,4.000000,4.000000,4.000000,4.000000,4.000000,100.000000,,,,,,,,,,,,,,,,,,,,,,,,,,,,
1703415760.888574,1703415760.889281,110.000000,0.000000,4345.897461,4265.512695,4328.077148,4286.282227,4229.871582,4224.102539,4241.794922,4221.666504,4202.948730,4214.487305,4574.230957,4491.410156,4431.282227,4595.384766,5936.000000,2.000000,52.000000,,,,0.000000,4.000000,4.000000,4.000000,4.000000,4.000000,4.000000,4.000000,4.000000,4.000000,4.000000,4.000000,4.000000,4.000000,4.000000,100.000000,,,,,,,,,,,,,,,,,,,,,,,,,,,,
1703415760.896382,1703415760.897089,111.000000,0.000000,4329.615234,4256.410156,4320.000000,4281.153809,4231.794922,4215.641113,4234.615234,4213.974121,4190.128418,4209.871582,4557.179688,4480.897461,4425.641113,4577.563965,6249.000000,2.000000,52.000000,,,,0.000000,4.000000,4.000000,4.000000,4.000000,4.000000,4.000000,4.000000,4.000000,4.000000,4.000000,4.000000,4.000000,4.000000,4.000000,100.000000,,,,,,,,,,,,,,,,,,,,,,,,,,,,
1703415760.904190,1703415760.904797,112.000000,0.000000,4306.410156,4245.128418,4318.077148,4276.282227,4220.384766,4208.077148,4237.436035,4215.000000,4196.410156,4194.743652,4549.615234,4475.128418,4411.794922,4566.153809,6781.000000,2.000000,52.000000,,,,0.000000,4.000000,4.000000,4.000000,4.000000,4.000000,4.000000,4.000000,4.000000,4.000000,4.000000,4.000000,4.000000,4.000000,4.000000,100.000000,,,,,,,,,,,,,,,,,28.000000,0.000000,0.697439,0.191589,-0.654053,0.221558,0.978635,-0.008302,0.079111,-16.538929,-40.039837,65.554100
1703415760.911998,1703415760.912605,113.000000,0.000000,4294.487305,4235.128418,4315.256348,4265.897461,4211.282227,4201.538574,4242.436035,4217.948730,4202.051270,4202.179688,4558.333496,4478.589844,4409.230957,4560.256348,7314.000000,2.000000,52.000000,,,,0.000000,4.000000,4.000000,4.000000,4.000000,4.000000,4.000000,4.000000,4.000000,4.000000,4.000000,4.000000,4.000000,4.000000,4.000000,100.000000,,,,,,,,,,,,,,,,,,,,,,,,,,,,
1703415760.919806,1703415760.920313,114.000000,0.000000,4282.179688,4231.922852,4311.922852,4267.820313,4218.333496,4201.153809,4243.717773,4217.051270,4197.179688,4209.487305,4554.871582,4471.922852,4414.102539,4547.307617,5936.000000,2.000000,52.000000,,,,0.000000,4.000000,4.000000,4.000000,4.000000,4.000000,4.000000,4.000000,4.000000,4.000000,4.000000,4.000000,4.000000,4.000000,4.000000,100.000000,,,,,,,,,,,,,,,,,,,,,,,,,,,,
1703415760.927614,1703415760.928221,115.000000,0.000000,4266.922852,4232.948730,4309.487305,4277.692383,4233.077148,4203.461426,4244.615234,4215.769043,4198.333496,4198.461426,4537.051270,4465.000000,4407.436035,4538.589844,6249.000000,2.000000,52.000000,,,,0.000000,4.000000,4.000000,4.000000,4.000000,4.000000,4.000000,4.000000,4.000000,4.000000,4.000000,4.000000,4.000000,4.000000,4.000000,100.000000,,,,,,,,,,,,,,,,,,,,,,,,,,,,
1703415760.935422,1703415760.936029,116.000000,0.000000,4259.615234,4232.820313,4306.538574,4270.256348,4234.230957,4206.282227,4244.487305,4215.256348,4202.948730,4200.256348,4542.436035,4469.358887,4399.230957,4540.769043,6781.000000,2.000000,52.000000,,,,0.000000,4.000000,4.000000,4.000000,4.000000,4.000000,4.000000,4.000000,4.000000,4.000000,4.000000,4.000000,4.000000,4.000000,4.000000,100.000000,,,,,,,,,,,,,,,,,29.000000,0.000000,0.697379,0.191528,-0.654114,0.221619,0.983518,-0.008302,0.077646,-16.385036,-39.902519,65.598686
1703415760.943230,1703415760.943938,117.000000,0.000000,4254.358887,4233.717773,4305.128418,4267.948730,4229.615234,4214.102539,4245.897461,4222.179688,4204.487305,4216.666504,4564.615234,4468.974121,4405.512695,4536.538574,7314.000000,2.000000,52.000000,,,,0.000000,4.000000,4.000000,4.000000,4.000000,4.000000,4.000000,4.000000,4.000000,4.000000,4.000000,4.000000,4.000000,4.000000,4.000000,100.000000,,,,,,,,,,,,,,,,,,,,,,,,,,,,
1703415760.951038,1703415760.951746,118.000000,0.000000,4249.102539,4234.358887,4305.000000,4280.512695,4235.000000,4220.384766,4249.358887,4230.384766,4204.615234,4220.769043,4563.205078,4465.256348,4409.615234,4528.461426,5936.000000,2.000000,52.000000,,,,0.000000,4.000000,4.000000,4.000000,4.000000,4.000000,4.000000,4.000000,4.000000,4.000000,4.000000,4.000000,4.000000,4.000000,4.000000,100.000000,,,,,,,,,,,,,,,,,,,,,,,,,,,,
1703415760.958846,1703415760.959654,119.000000,0.000000,4245.384766,4233.333496,4300.769043,4285.897461,4235.000000,4217.436035,4248.077148,4222.436035,4202.179688,4211.922852,4542.820313,4462.436035,4397.948730,4522.436035,6249.000000,2.000000,52.000000,,,,0.000000,4.000000,4.000000,4.000000,4.000000,4.000000,4.000000,4.000000,4.000000,4.000000,4.000000,4.000000,4.000000,4.000000,4.000000,100.000000,,,,,,,,,,,,,,,,,,,,,,,,,,,,
1703415760.966654,1703415760.967462,120.000000,0.000000,4235.897461,4232.948730,4295.128418,4279.230957,4229.871582,4216.922852,4246.538574,4214.487305,4202.692383,4212.948730,4540.000000,4458.717773,4395.897461,4515.769043,6781.000000,2.000000,52.000000,,,,0.000000,4.000000,4.000000,4.000000,4.000000,4.000000,4.000000,4.000000,4.000000,4.000000,4.000000,4.000000,4.000000,4.000000,4.000000,100.000000,,,,,,,,,,,,,,,,,30.000000,0.000000,0.697340,0.191528,-0.654114,0.221741,0.987425,-0.009278,0.074228,-16.446531,-39.928936,65.488815
1703415760.974462,1703415760.975370,121.000000,0.000000,4219.487305,4225.384766,4293.333496,4267.051270,4231.282227,4218.333496,4248.461426,4218.589844,4205.512695,4215.512695,4543.589844,4454.487305,4397.051270,4508.333496,7314.000000,2.000000,52.000000,,,,0.000000,4.000000,4.000000,4.000000,4.000000,4.000000,4.000000,4.000000,4.000000,4.000000,4.000000,4.000000,4.000000,4.000000,4.000000,100.000000,,,,,,,,,,,,,,,,,,,,,,,,,,,,
1703415760.982270,1703415760.983178,122.000000,0.000000,4210.512695,4214.615234,4292.051270,4269.615234,4232.051270,4215.384766,4248.333496,4220.641113,4208.974121,4212.179688,4540.512695,4449.102539,4387.948730,4505.128418,5936.000000,2.000000,52.000000,,,,0.000000,4.000000,4.000000,4.000000,4.000000,4.000000,4.000000,4.000000,4.000000,4.000000,4.000000,4.000000,4.000000,4.000000,4.000000,100.000000,,,,,,,,,,,,,,,,,,,,,,,,,,,,
1703415760.990079,1703415760.991087,123.000000,0.000000,4214.871582,4215.128418,4292.051270,4279.743652,4227.692383,4213.974121,4246.410156,4222.307617,4214.358887,4218.205078,4537.692383,4446.025879,4390.641113,4503.846191,6249.000000,2.000000,52.000000,,,,0.000000,4.000000,4.000000,4.000000,4.000000,4.000000,4.000000,4.000000,4.000000,4.000000,4.000000,4.000000,4.000000,4.000000,4.000000,100.000000,,,,,,,,,,,,,,,,,,,,,,,,,,,,
1703415760.997887,1703415760.998895,124.000000,0.000000,4218.461426,4218.077148,4293.717773,4271.025879,4229.743652,4216.282227,4246.282227,4230.769043,4217.563965,4215.512695,4534.615234,4448.589844,4398.205078,4503.461426,6781.000000,2.000000,52.000000,,,,0.000000,4.000000,4.000000,4.000000,4.000000,4.000000,4.000000,4.000000,4.000000,4.000000,4.000000,4.000000,4.000000,4.000000,4.000000,100.000000,,,,,,,,,,,,,,,,,31.000000,0.000000,0.697255,0.191345,-0.654175,0.221985,0.998657,-0.004395,0.077646,-16.251879,-39.769375,65.539940
1703415761.005695,1703415761.006803,125.000000,0.000000,4213.333496,4216.922852,4293.717773,4259.358887,4234.615234,4218.589844,4247.179688,4233.717773,4219.230957,4208.461426,4548.589844,4453.589844,4397.051270,4505.000000,7314.000000,2.000000,52.000000,,,,0.000000,4.000000,4.000000,4.000000,4.000000,4.000000,4.000000,4.000000,4.000000,4.000000,4.000000,4.000000,4.000000,4.000000,4.000000,100.000000,,,,,,,,,,,,,,,,,,,,,,,,,,,,
1703415761.013503,1703415761.014611,126.000000,0.000000,4206.922852,4216.794922,4294.743652,4265.641113,4230.128418,4217.307617,4247.948730,4231.538574,4221.282227,4219.743652,4563.589844,4457.051270,4399.230957,4497.307617,5936.000000,2.000000,52.000000,,,,0.000000,4.000000,4.000000,4.000000,4.000000,4.000000,4.000000,4.000000,4.000000,4.000000,4.000000,4.000000,4.000000,4.000000,4.000000,100.000000,,,,,,,,,,,,,,,,,,,,,,,,,,,,
1703415761.021311,1703415761.022519,127.000000,0.000000,4204.743652,4217.820313,4296.282227,4274.743652,4230.256348,4218.205078,4248.974121,4234.871582,4220.897461,4226.025879,4556.025879,4463.846191,4400.128418,4487.307617,52.000000,2.000000,52.000000,,,,0.000000,4.000000,4.000000,4.000000,4.000000,4.000000,4.000000,4.000000,4.000000,4.000000,4.000000,4.000000,4.000000,4.000000,4.000000,100.000000,,,,,,,,,,,,,,,,,,,,,,,,,,,,
1703415761.029119,1703415761.030327,0.000000,0.000000,4199.743652,4217.436035,4289.358887,4270.641113,4235.769043,4217.948730,4249.743652,4235.641113,4215.769043,4216.794922,4547.051270,4460.641113,4390.128418,4488.461426,5539.000000,2.000000,52.000000,,,,0.000000,4.000000,4.000000,4.000000,4.000000,4.000000,4.000000,4.000000,4.000000,4.000000,4.000000,4.000000,4.000000,4.000000,4.000000,100.000000,,,,,,,,,,,,,,,,,0.000000,0.000000,0.697173,0.191223,-0.654236,0.222168,0.985472,-0.018557,0.078623,-16.193357,-39.642437,65.569275
1703415761.036927,1703415761.038235,1.000000,0.000000,4200.512695,4215.897461,4284.743652,4261.282227,4231.666504,4216.794922,4248.589844,4236.153809,4216.794922,4212.820313,4553.974121,4448.589844,4386.666504,4491.282227,5532.000000,2.000000,52.000000,,,,0.000000,4.000000,4.000000,4.000000,4.000000,4.000000,4.000000,4.000000,4.000000,4.000000,4.000000,4.000000,4.000000,4.000000,4.000000,100.000000,,,,,,,,,,,,,,,,,,,,,,,,,,,,
1703415761.044735,1703415761.046043,2.000000,0.000000,4208.333496,4213.974121,4286.025879,4268.333496,4229.230957,4223.974121,4248.333496,4243.461426,4227.820313,4220.384766,4558.333496,4449.487305,4395.769043,4488.077148,5384.000000,2.000000,52.000000,,,,0.000000,4.000000,4.000000,4.000000,4.000000,4.000000,4.000000,4.000000,4.000000,4.000000,4.000000,4.000000,4.000000,4.000000,4.000000,100.000000,,,,,,,,,,,,,,,,,,,,,,,,,,,,
1703415761.052543,1703415761.053751,3.000000,0.000000,4206.794922,4216.025879,4286.153809,4283.205078,4236.666504,4233.461426,4251.153809,4248.589844,4233.717773,4231.794922,4555.128418,4460.897461,4401.538574,4489.230957,5333.000000,2.000000,52.000000,,,,0.000000,4.000000,4.000000,4.000000,4.000000,4.000000,4.000000,4.000000,4.000000,4.000000,4.000000,4.000000,4.000000,4.000000,4.000000,100.000000,,,,,,,,,,,,,,,,,,,,,,,,,,,,
1703415761.060351,1703415761.061559,4.000000,0.000000,4201.410156,4215.769043,4291.153809,4272.307617,4238.589844,4232.307617,4251.666504,4248.974121,4233.205078,4233.717773,4557.948730,4465.000000,4397.563965,4489.487305,5283.000000,2.000000,52.000000,,,,0.000000,4.000000,4.000000,4.000000,4.000000,4.000000,4.000000,4.000000,4.000000,4.000000,4.000000,4.000000,4.000000,4.000000,4.000000,100.000000,,,,,,,,,,,,,,,,,1.000000,0.000000,0.697202,0.190979,-0.654297,0.222107,0.992309,-0.011720,0.080576,-16.074022,-39.678192,65.612350
1703415761.068159,1703415761.069267,5.000000,0.000000,4201.025879,4205.512695,4294.230957,4255.641113,4228.205078,4223.846191,4248.461426,4248.077148,4232.948730,4217.563965,4557.307617,4457.051270,4391.025879,4480.384766,4853.000000,2.000000,52.000000,,,,0.000000,4.000000,4.000000,4.000000,4.000000,4.000000,4.000000,4.000000,4.000000,4.000000,4.000000,4.000000,4.000000,4.000000,4.000000,100.000000,,,,,,,,,,,,,,,,,,,,,,,,,,,,
1703415761.075967,1703415761.077175,6.000000,0.000000,4199.102539,4199.358887,4288.333496,4264.102539,4227.436035,4220.512695,4247.563965,4241.153809,4225.769043,4208.717773,4543.333496,4447.436035,4383.589844,4473.333496,4041.000000,2.000000,52.000000,,,,0.000000,4.000000,4.000000,4.000000,4.000000,4.000000,4.000000,4.000000,4.000000,4.000000,4.000000,4.000000,4.000000,4.000000,4.000000,100.000000,,,,,,,,,,,,,,,,,,,,,,,,,,,,
1703415761.083775,1703415761.084984,7.000000,0.000000,4196.794922,4201.282227,4285.384766,4264.615234,4230.512695,4219.743652,4248.846191,4230.897461,4211.153809,4220.897461,4532.436035,4443.461426,4373.589844,4475.641113,5255.000000,2.000000,52.000000,,,,0.000000,4.000000,4.000000,4.000000,4.000000,4.000000,4.000000,4.000000,4.000000,4.000000,4.000000,4.000000,4.000000,4.000000,4.000000,100.000000,,,,,,,,,,,,,,,,,,,,,,,,,,,,
1703415761.091583,1703415761.092892,8.000000,0.000000,4199.615234,4200.000000,4291.538574,4254.102539,4222.563965,4216.794922,4248.846191,4235.641113,4211.282227,4218.589844,4544.230957,4452.563965,4372.692383,4478.461426,5379.000000,2.000000,52.000000,,,,0.000000,4.000000,4.000000,4.000000,4.000000,4.000000,4.000000,4.000000,4.000000,4.000000,4.000000,4.000000,4.000000,4.000000,4.000000,100.000000,,,,,,,,,,,,,,,,,2.000000,0.000000,0.697162,0.190918,-0.654358,0.222107,0.999145,-0.003418,0.090831,-16.116619,-39.560375,65.634445
1703415761.099391,1703415761.100700,9.000000,0.000000,4202.307617,4197.820313,4297.051270,4257.179688,4214.487305,4218.077148,4248.205078,4249.230957,4221.025879,4201.410156,4551.538574,4463.974121,4383.205078,4470.641113,5340.000000,2.000000,52.000000,,,,0.000000,4.000000,4.000000,4.000000,4.000000,4.000000,4.000000,4.000000,4.000000,4.000000,4.000000,4.000000,4.000000,4.000000,4.000000,100.000000,,,,,,,,,,,,,,,,,,,,,,,,,,,,
1703415761.107199,1703415761.108508,10.000000,0.000000,4201.922852,4199.487305,4295.769043,4262.563965,4212.948730,4219.743652,4248.589844,4248.077148,4218.077148,4200.128418,4541.025879,4457.563965,4381.922852,4465.641113,5938.000000,2.000000,52.000000,,,,0.000000,4.000000,4.000000,4.000000,4.000000,4.000000,4.000000,4.000000,4.000000,4.000000,4.000000,4.000000,4.000000,4.000000,4.000000,100.000000,,,,,,,,,,,,,,,,,,,,,,,,,,,,
1703415761.115007,1703415761.116216,11.000000,0.000000,4203.333496,4200.256348,4291.538574,4262.692383,4220.384766,4216.538574,4248.846191,4235.128418,4211.410156,4207.692383,4542.563965,4446.410156,4371.922852,4470.769043,6260.000000,2.000000,52.000000,,,,0.000000,4.000000,4.000000,4.000000,4.000000,4.000000,4.000000,4.000000,4.000000,4.000000,4.000000,4.000000,4.000000,4.000000,4.000000,100.000000,,,,,,,,,,,,,,,,,,,,,,,,,,,,
1703415761.122815,1703415761.124024,12.000000,0.000000,4208.846191,4200.769043,4293.589844,4261.794922,4229.358887,4221.153809,4248.333496,4232.692383,4213.846191,4200.128418,4549.230957,4450.384766,4376.025879,4474.358887,6771.000000,2.000000,52.000000,,,,0.000000,4.000000,4.000000,4.000000,4.000000,4.000000,4.000000,4.000000,4.000000,4.000000,4.000000,4.000000,4.000000,4.000000,4.000000,100.000000,,,,,,,,,,,,,,,,,3.000000,0.000000,0.697126,0.190979,-0.654358,0.222168,0.988402,-0.014650,0.083018,-16.088291,-39.471004,65.504333
1703415761.130623,1703415761.131732,13.000000,0.000000,4216.922852,4201.794922,4298.461426,4265.000000,4228.974121,4232.436035,4248.077148,4242.307617,4219.487305,4195.769043,4541.410156,4461.666504,4382.692383,4473.333496,7334.000000,2.000000,52.000000,,,,0.000000,4.000000,4.000000,4.000000,4.000000,4.000000,4.000000,4.000000,4.000000,4.000000,4.000000,4.000000,4.000000,4.000000,4.000000,100.000000,,,,,,,,,,,,,,,,,,,,,,,,,,,,
1703415761.138431,1703415761.139540,14.000000,0.000000,4218.846191,4205.256348,4299.102539,4274.615234,4229.358887,4234.615234,4251.282227,4242.820313,4220.128418,4212.563965,4538.717773,4461.153809,4379.615234,4474.871582,5938.000000,2.000000,52.000000,,,,0.000000,4.000000,4.000000,4.000000,4.000000,4.000000,4.000000,4.000000,4.000000,4.000000,4.000000,4.000000,4.000000,4.000000,4.000000,100.000000,,,,,,,,,,,,,,,,,,,,,,,,,,,,
1703415761.146239,1703415761.147248,15.000000,0.000000,4210.384766,4207.563965,4297.307617,4273.846191,4233.333496,4231.794922,4250.897461,4232.436035,4216.666504,4219.871582,4544.102539,4448.589844,4374.230957,4476.282227,6260.000000,2.000000,52.000000,,,,0.000000,4.000000,4.000000,4.000000,4.000000,4.000000,4.000000,4.000000,4.000000,4.000000,4.000000,4.000000,4.000000,4.000000,4.000000,100.000000,,,,,,,,,,,,,,,,,,,,,,,,,,,,
1703415761.154048,1703415761.155056,16.000000,0.000000,4206.282227,4202.051270,4293.846191,4259.487305,4223.974121,4232.179688,4247.692383,4232.307617,4215.641113,4197.563965,4535.897461,4442.948730,4367.692383,4468.846191,0.000000,2.000000,52.000000,,,,0.000000,4.000000,4.000000,4.000000,4.000000,4.000000,4.000000,4.000000,4.000000,4.000000,4.000000,4.000000,4.000000,4.000000,4.000000,100.000000,,,,,,,,,,,,,,,,,4.000000,0.000000,0.697052,0.191040,-0.654419,0.222168,0.976682,-0.014650,0.083018,-16.162796,-39.557236,65.553902
1703415761.161856,1703415761.162764,17.000000,0.000000,4216.410156,4204.358887,4300.384766,4267.692383,4218.846191,4232.436035,4252.051270,4240.256348,4218.974121,4187.307617,4533.333496,4453.077148,4367.563965,4468.589844,0.000000,2.000000,52.000000,,,,0.000000,4.000000,4.000000,4.000000,4.000000,4.000000,4.000000,4.000000,4.000000,4.000000,4.000000,4.000000,4.000000,4.000000,4.000000,100.000000,,,,,,,,,,,,,,,,,,,,,,,,,,,,
1703415761.169664,1703415761.170572,18.000000,0.000000,4222.948730,4215.897461,4312.820313,4281.794922,4231.282227,4229.230957,4255.512695,4237.563965,4221.410156,4212.563965,4549.358887,4463.077148,4378.077148,4475.641113,0.000000,2.000000,52.000000,,,,0.000000,4.000000,4.000000,4.000000,4.000000,4.000000,4.000000,4.000000,4.000000,4.000000,4.000000,4.000000,4.000000,4.000000,4.000000,100.000000,,,,,,,,,,,,,,,,,,,,,,,,,,,,
1703415761.177472,1703415761.178280,19.000000,0.000000,4216.922852,4215.000000,4310.256348,4271.153809,4232.692383,4226.153809,4248.333496,4228.717773,4220.384766,4220.769043,4557.179688,4459.487305,4387.948730,4475.256348,0.000000,2.000000,52.000000,,,,0.000000,4.000000,4.000000,4.000000,4.000000,4.000000,4.000000,4.000000,4.000000,4.000000,4.000000,4.000000,4.000000,4.000000,4.000000,100.000000,,,,,,,,,,,,,,,,,,,,,,,,,,,,
1703415761.185280,1703415761.186189,20.000000,0.000000,4215.512695,4211.410156,4299.230957,4267.948730,4228.589844,4228.717773,4247.179688,4229.871582,4219.102539,4198.205078,4550.897461,4453.974121,4389.871582,4472.051270,0.000000,2.000000,52.000000,,,,0.000000,4.000000,4.000000,4.000000,4.000000,4.000000,4.000000,4.000000,4.000000,4.000000,4.000000,4.000000,4.000000,4.000000,4.000000,100.000000,1.000000,58.333332,4.000000,4.000000,4.000000,4.000000,3.000000,3.000000,1.000000,4.000000,4.000000,3.000000,4.000000,4.000000,4.000000,4.000000,5.000000,0.000000,0.697109,0.191040,-0.654358,0.222168,0.996704,-0.017580,0.080088,-16.263182,-39.518181,65.548515
1703415761.193088,1703415761.193997,21.000000,0.000000,4220.384766,4219.102539,4301.922852,4272.563965,4234.743652,4233.461426,4253.333496,4235.256348,4219.743652,4203.717773,4548.717773,4461.538574,4391.153809,4476.282227,0.000000,2.000000,52.000000,,,,0.000000,4.000000,4.000000,4.000000,4.000000,4.000000,4.000000,4.000000,4.000000,4.000000,4.000000,4.000000,4.000000,4.000000,4.000000,100.000000,,,,,,,,,,,,,,,,,,,,,,,,,,,,
1703415761.200896,1703415761.201905,22.000000,0.000000,4217.820313,4217.179688,4303.333496,4268.846191,4233.974121,4228.717773,4249.230957,4227.948730,4218.333496,4224.743652,4548.717773,4459.358887,4385.000000,4474.230957,0.000000,2.000000,52.000000,,,,0.000000,4.000000,4.000000,4.000000,4.000000,4.000000,4.000000,4.000000,4.000000,4.000000,4.000000,4.000000,4.000000,4.000000,4.000000,100.000000,,,,,,,,,,,,,,,,,,,,,,,,,,,,
1703415761.208704,1703415761.209713,23.000000,0.000000,4210.897461,4208.333496,4295.512695,4274.871582,4231.410156,4225.641113,4244.102539,4220.641113,4217.820313,4222.948730,4551.410156,4441.282227,4382.692383,4465.897461,0.000000,2.000000,52.000000,,,,0.000000,4.000000,4.000000,4.000000,4.000000,4.000000,4.000000,4.000000,4.000000,4.000000,4.000000,4.000000,4.000000,4.000000,4.000000,100.000000,,,,,,,,,,,,,,,,,,,,,,,,,,,,
1703415761.216512,1703415761.217621,24.000000,0.000000,4216.025879,4214.358887,4300.128418,4287.179688,4233.717773,4232.948730,4247.948730,4227.692383,4222.948730,4212.692383,4551.794922,4443.846191,4393.333496,4472.051270,0.000000,2.000000,52.000000,,,,0.000000,4.000000,4.000000,4.000000,4.000000,4.000000,4.000000,4.000000,4.000000,4.000000,4.000000,4.000000,4.000000,4.000000,4.000000,100.000000,,,,,,,,,,,,,,,,,6.000000,0.000000,0.697088,0.190979,-0.654419,0.222107,0.999634,-0.017092,0.078135,-16.286863,-39.583027,65.576996
1703415761.224320,1703415761.225429,25.000000,0.000000,4226.794922,4222.179688,4312.436035,4281.538574,4227.563965,4231.410156,4248.589844,4227.692383,4222.436035,4206.410156,4540.512695,4458.974121,4391.922852,4480.512695,0.000000,2.000000,52.000000,,,,0.000000,4.000000,4.000000,4.000000,4.000000,4.000000,4.000000,4.000000,4.000000,4.000000,4.000000,4.000000,4.000000,4.000000,4.000000,100.000000,,,,,,,,,,,,,,,,,,,,,,,,,,,,
1703415761.232128,1703415761.233337,26.000000,0.000000,4224.358887,4218.333496,4313.974121,4269.871582,4223.846191,4224.358887,4245.897461,4221.538574,4216.794922,4207.307617,4541.794922,4454.615234,4382.692383,4478.974121,0.000000,2.000000,52.000000,,,,0.000000,4.000000,4.000000,4.000000,4.000000,4.000000,4.000000,4.000000,4.000000,4.000000,4.000000,4.000000,4.000000,4.000000,4.000000,100.000000,,,,,,,,,,,,,,,,,,,,,,,,,,,,
1703415761.239936,1703415761.241146,27.000000,0.000000,4220.641113,4212.436035,4309.102539,4270.769043,4226.538574,4225.897461,4246.282227,4225.000000,4215.512695,4214.871582,4552.051270,4441.922852,4382.820313,4475.256348,0.000000,2.000000,52.000000,,,,0.000000,4.000000,4.000000,4.000000,4.000000,4.000000,4.000000,4.000000,4.000000,4.000000,4.000000,4.000000,4.000000,4.000000,4.000000,100.000000,,,,,,,,,,,,,,,,,,,,,,,,,,,,
1703415761.247744,1703415761.249054,28.000000,0.000000,4230.897461,4215.512695,4309.358887,4275.897461,4227.820313,4229.871582,4249.615234,4229.743652,4215.512695,4216.025879,4551.025879,4447.948730,4388.077148,4473.333496,0.000000,2.000000,52.000000,,,,0.000000,4.000000,4.000000,4.000000,4.000000,4.000000,4.000000,4.000000,4.000000,4.000000,4.000000,4.000000,4.000000,4.000000,4.000000,100.000000,,,,,,,,,,,,,,,,,7.000000,0.000000,0.697141,0.190857,-0.654419,0.222046,0.993285,-0.016115,0.072763,-16.241510,-39.574726,65.319298
1703415761.255552,1703415761.256862,29.000000,0.000000,4238.974121,4220.769043,4312.051270,4278.333496,4231.666504,4231.410156,4253.205078,4231.794922,4218.974121,4209.743652,4550.384766,4461.538574,4394.871582,4476.922852,0.000000,2.000000,52.000000,,,,0.000000,4.000000,4.000000,4.000000,4.000000,4.000000,4.000000,4.000000,4.000000,4.000000,4.000000,4.000000,4.000000,4.000000,4.000000,100.000000,,,,,,,,,,,,,,,,,,,,,,,,,,,,
1703415761.263360,1703415761.264570,30.000000,0.000000,4231.282227,4219.102539,4307.948730,4275.769043,4235.641113,4232.051270,4253.077148,4229.102539,4217.436035,4203.589844,4550.384766,4457.948730,4390.641113,4477.563965,0.000000,2.000000,52.000000,,,,0.000000,4.000000,4.000000,4.000000,4.000000,4.000000,4.000000,4.000000,4.000000,4.000000,4.000000,4.000000,4.000000,4.000000,4.000000,100.000000,,,,,,,,,,,,,,,,,,,,,,,,,,,,
1703415761.271168,1703415761.272378,31.000000,0.000000,4220.512695,4213.717773,4298.077148,4268.846191,4233.077148,4231.282227,4247.948730,4217.692383,4206.538574,4201.410156,4538.717773,4437.051270,4375.641113,4462.948730,0.000000,2.000000,52.000000,,,,0.000000,4.000000,4.000000,4.000000,4.000000,4.000000,4.000000,4.000000,4.000000,4.000000,4.000000,4.000000,4.000000,4.000000,4.000000,100.000000,,,,,,,,,,,,,,,,,,,,,,,,,,,,
1703415761.278976,1703415761.280086,32.000000,0.000000,4216.666504,4211.922852,4293.205078,4263.205078,4227.692383,4231.282227,4245.641113,4209.487305,4205.384766,4200.641113,4526.922852,4424.615234,4369.358887,4451.153809,0.000000,2.000000,52.000000,,,,0.000000,4.000000,4.000000,4.000000,4.000000,4.000000,4.000000,4.000000,4.000000,4.000000,4.000000,4.000000,4.000000,4.000000,4.000000,100.000000,,,,,,,,,,,,,,,,,8.000000,0.000000,0.697139,0.190796,-0.654480,0.221924,0.997192,-0.019534,0.087901,-16.234026,-39.550587,65.404030
1703415761.286785,1703415761.287894,33.000000,0.000000,4222.307617,4215.384766,4305.512695,4270.000000,4228.205078,4233.974121,4247.820313,4215.897461,4218.589844,4200.512695,4536.666504,4443.589844,4382.820313,4465.000000,0.000000,2.000000,52.000000,,,,0.000000,4.000000,4.000000,4.000000,4.000000,4.000000,4.000000,4.000000,4.000000,4.000000,4.000000,4.000000,4.000000,4.000000,4.000000,100.000000,,,,,,,,,,,,,,,,,,,,,,,,,,,,
1703415761.294593,1703415761.295602,34.000000,0.000000,4234.487305,4218.846191,4315.128418,4283.077148,4232.436035,4233.974121,4249.487305,4224.743652,4224.871582,4210.897461,4557.051270,4465.512695,4398.333496,4483.333496,0.000000,2.000000,52.000000,,,,0.000000,4.000000,4.000000,4.000000,4.000000,4.000000,4.000000,4.000000,4.000000,4.000000,4.000000,4.000000,4.000000,4.000000,4.000000,100.000000,,,,,,,,,,,,,,,,,,,,,,,,,,,,
1703415761.302400,1703415761.303410,35.000000,0.000000,4238.077148,4217.692383,4303.461426,4280.897461,4232.692383,4232.307617,4249.102539,4219.487305,4218.589844,4222.692383,4556.282227,4455.000000,4394.102539,4474.358887,0.000000,2.000000,52.000000,,,,0.000000,4.000000,4.000000,4.000000,4.000000,4.000000,4.000000,4.000000,4.000000,4.000000,4.000000,4.000000,4.000000,4.000000,4.000000,100.000000,,,,,,,,,,,,,,,,,,,,,,,,,,,,
1703415761.310209,1703415761.311118,36.000000,0.000000,4230.512695,4214.358887,4289.871582,4271.794922,4224.871582,4228.974121,4247.563965,4203.205078,4208.846191,4209.358887,4535.384766,4433.717773,4376.794922,4461.666504,0.000000,2.000000,52.000000,,,,0.000000,4.000000,4.000000,4.000000,4.000000,4.000000,4.000000,4.000000,4.000000,4.000000,4.000000,4.000000,4.000000,4.000000,4.000000,100.000000,,,,,,,,,,,,,,,,,9.000000,0.000000,0.697202,0.190918,-0.654419,0.221802,0.989379,-0.022952,0.084483,-16.127291,-39.695526,65.363632
1703415761.318017,1703415761.318926,37.000000,0.000000,4227.307617,4217.179688,4301.410156,4275.000000,4228.333496,4230.000000,4247.820313,4204.230957,4205.897461,4202.820313,4532.948730,4438.077148,4376.410156,4473.461426,0.000000,2.000000,52.000000,,,,0.000000,4.000000,4.000000,4.000000,4.000000,4.000000,4.000000,4.000000,4.000000,4.000000,4.000000,4.000000,4.000000,4.000000,4.000000,100.000000,,,,,,,,,,,,,,,,,,,,,,,,,,,,
1703415761.325825,1703415761.326634,38.000000,0.000000,4236.025879,4219.358887,4314.743652,4277.692383,4234.743652,4229.871582,4249.487305,4215.256348,4209.102539,4218.205078,4544.487305,4451.282227,4387.692383,4478.974121,0.000000,2.000000,52.000000,,,,0.000000,4.000000,4.000000,4.000000,4.000000,4.000000,4.000000,4.000000,4.000000,4.000000,4.000000,4.000000,4.000000,4.000000,4.000000,100.000000,,,,,,,,,,,,,,,,,,,,,,,,,,,,
1703415761.333633,1703415761.334442,39.000000,0.000000,4230.641113,4213.077148,4302.307617,4268.077148,4224.358887,4221.538574,4248.589844,4207.948730,4211.282227,4214.230957,4539.487305,4443.461426,4383.461426,4467.179688,0.000000,2.000000,52.000000,,,,0.000000,4.000000,4.000000,4.000000,4.000000,4.000000,4.000000,4.000000,4.000000,4.000000,4.000000,4.000000,4.000000,4.000000,4.000000,100.000000,,,,,,,,,,,,,,,,,,,,,,,,,,,,
1703415761.341441,1703415761.342150,40.000000,0.000000,4213.846191,4210.897461,4292.692383,4266.922852,4223.205078,4221.153809,4246.153809,4204.230957,4213.205078,4202.179688,4539.358887,4435.128418,4376.666504,4469.871582,0.000000,2.000000,52.000000,,,,0.000000,4.000000,4.000000,4.000000,4.000000,4.000000,4.000000,4.000000,4.000000,4.000000,4.000000,4.000000,4.000000,4.000000,4.000000,100.000000,,,,,,,,,,,,,,,,,10.000000,0.000000,0.697246,0.191040,-0.654419,0.221558,0.991820,-0.015627,0.081553,-16.064562,-39.809307,65.460602
1703415761.349249,1703415761.349958,41.000000,0.000000,4222.307617,4217.436035,4305.384766,4280.000000,4232.179688,4232.692383,4249.358887,4216.538574,4217.051270,4212.307617,4551.153809,4449.230957,4388.205078,4479.102539,0.000000,2.000000,52.000000,,,,0.000000,4.000000,4.000000,4.000000,4.000000,4.000000,4.000000,4.000000,4.000000,4.000000,4.000000,4.000000,4.000000,4.000000,4.000000,100.000000,,,,,,,,,,,,,,,,,,,,,,,,,,,,
1703415761.357057,1703415761.357666,42.000000,0.000000,4241.794922,4219.102539,4315.769043,4284.871582,4229.615234,4235.384766,4256.538574,4221.153809,4220.128418,4220.256348,4556.410156,4465.897461,4398.461426,4473.333496,0.000000,2.000000,52.000000,,,,0.000000,4.000000,4.000000,4.000000,4.000000,4.000000,4.000000,4.000000,4.000000,4.000000,4.000000,4.000000,4.000000,4.000000,4.000000,100.000000,,,,,,,,,,,,,,,,,,,,,,,,,,,,
1703415761.364865,1703415761.365474,43.000000,0.000000,4233.589844,4216.282227,4309.487305,4280.512695,4228.846191,4231.153809,4256.153809,4217.692383,4221.922852,4206.282227,4549.615234,4459.487305,4386.922852,4469.615234,0.000000,2.000000,52.000000,,,,0.000000,4.000000,4.000000,4.000000,4.000000,4.000000,4.000000,4.000000,4.000000,4.000000,4.000000,4.000000,4.000000,4.000000,4.000000,100.000000,,,,,,,,,,,,,,,,,,,,,,,,,,,,
1703415761.372673,1703415761.373182,44.000000,0.000000,4215.000000,4212.820313,4296.410156,4273.846191,4230.641113,4231.794922,4248.333496,4214.102539,4214.230957,4198.205078,4539.230957,4444.615234,4373.077148,4472.307617,0.000000,2.000000,52.000000,,,,0.000000,4.000000,4.000000,4.000000,4.000000,4.000000,4.000000,4.000000,4.000000,4.000000,4.000000,4.000000,4.000000,4.000000,4.000000,100.000000,,,,,,,,,,,,,,,,,11.000000,0.000000,0.697204,0.191406,-0.654419,0.221375,0.984984,-0.014162,0.074228,-16.091438,-39.911709,65.464539
1703415761.380481,1703415761.381090,45.000000,0.000000,4216.025879,4209.230957,4289.743652,4263.333496,4226.153809,4229.615234,4250.256348,4212.179688,4207.563965,4214.615234,4539.102539,4442.436035,4376.538574,4472.051270,0.000000,2.000000,52.000000,,,,0.000000,4.000000,4.000000,4.000000,4.000000,4.000000,4.000000,4.000000,4.000000,4.000000,4.000000,4.000000,4.000000,4.000000,4.000000,100.000000,,,,,,,,,,,,,,,,,,,,,,,,,,,,
1703415761.388289,1703415761.388899,46.000000,0.000000,4220.769043,4211.794922,4291.025879,4264.358887,4225.128418,4230.384766,4260.256348,4215.128418,4213.205078,4221.410156,4541.794922,4443.717773,4378.974121,4469.871582,0.000000,2.000000,52.000000,,,,0.000000,4.000000,4.000000,4.000000,4.000000,4.000000,4.000000,4.000000,4.000000,4.000000,4.000000,4.000000,4.000000,4.000000,4.000000,100.000000,,,,,,,,,,,,,,,,,,,,,,,,,,,,
1703415761.396097,1703415761.396807,47.000000,0.000000,4216.153809,4215.256348,4293.333496,4265.769043,4223.461426,4236.666504,4257.179688,4216.922852,4215.897461,4200.641113,4540.256348,4448.717773,4372.563965,4465.128418,0.000000,2.000000,52.000000,,,,0.000000,4.000000,4.000000,4.000000,4.000000,4.000000,4.000000,4.000000,4.000000,4.000000,4.000000,4.000000,4.000000,4.000000,4.000000,100.000000,,,,,,,,,,,,,,,,,,,,,,,,,,,,
1703415761.403905,1703415761.404615,48.000000,0.000000,4220.769043,4213.461426,4300.769043,4263.717773,4218.333496,4228.333496,4248.717773,4214.615234,4212.563965,4196.153809,4545.000000,4456.282227,4376.538574,4467.179688,0.000000,2.000000,52.000000,,,,0.000000,4.000000,4.000000,4.000000,4.000000,4.000000,4.000000,4.000000,4.000000,4.000000,4.000000,4.000000,4.000000,4.000000,4.000000,100.000000,,,,,,,,,,,,,,,,,12.000000,0.000000,0.697228,0.191528,-0.654419,0.221191,0.987425,-0.019045,0.078623,-16.048962,-39.720539,65.618088
1703415761.411713,1703415761.412523,49.000000,0.000000,4234.871582,4215.000000,4311.410156,4278.717773,4227.179688,4217.307617,4249.871582,4214.102539,4215.384766,4217.692383,4550.897461,4451.410156,4383.333496,4476.794922,0.000000,2.000000,52.000000,,,,0.000000,4.000000,4.000000,4.000000,4.000000,4.000000,4.000000,4.000000,4.000000,4.000000,4.000000,4.000000,4.000000,4.000000,4.000000,100.000000,,,,,,,,,,,,,,,,,,,,,,,,,,,,
1703415761.419521,1703415761.420331,50.000000,0.000000,4233.333496,4217.948730,4306.794922,4288.205078,4232.692383,4223.205078,4250.384766,4212.051270,4218.974121,4226.794922,4550.000000,4444.230957,4384.358887,4477.692383,0.000000,2.000000,52.000000,,,,0.000000,4.000000,4.000000,4.000000,4.000000,4.000000,4.000000,4.000000,4.000000,4.000000,4.000000,4.000000,4.000000,4.000000,4.000000,100.000000,,,,,,,,,,,,,,,,,,,,,,,,,,,,
1703415761.427329,1703415761.428239,51.000000,0.000000,4225.897461,4216.410156,4300.641113,4279.487305,4226.282227,4232.563965,4252.436035,4212.179688,4217.563965,4215.256348,4543.974121,4454.615234,4388.205078,4473.589844,0.000000,2.000000,52.000000,,,,0.000000,4.000000,4.000000,4.000000,4.000000,4.000000,4.000000,4.000000,4.000000,4.000000,4.000000,4.000000,4.000000,4.000000,4.000000,100.000000,,,,,,,,,,,,,,,,,,,,,,,,,,,,
1703415761.435137,1703415761.436048,52.000000,0.000000,4233.205078,4215.512695,4304.615234,4279.871582,4229.743652,4231.666504,4261.666504,4218.846191,4217.820313,4204.743652,4541.153809,4467.179688,4386.666504,4477.563965,0.000000,2.000000,52.000000,,,,0.000000,4.000000,4.000000,4.000000,4.000000,4.000000,4.000000,4.000000,4.000000,4.000000,4.000000,4.000000,4.000000,4.000000,4.000000,100.000000,,,,,,,,,,,,,,,,,13.000000,0.000000,0.697269,0.191589,-0.654358,0.221191,0.990844,-0.018069,0.083995,-15.994065,-39.748486,65.689613
1703415761.442945,1703415761.443955,53.000000,0.000000,4234.615234,4214.358887,4301.794922,4279.615234,4238.461426,4231.666504,4262.563965,4221.794922,4220.000000,4205.256348,4547.307617,4457.436035,4379.743652,4477.051270,0.000000,2.000000,52.000000,,,,0.000000,4.000000,4.000000,4.000000,4.000000,4.000000,4.000000,4.000000,4.000000,4.000000,4.000000,4.000000,4.000000,4.000000,4.000000,100.000000,,,,,,,,,,,,,,,,,,,,,,,,,,,,
1703415761.450754,1703415761.451763,54.000000,0.000000,4219.743652,4211.153809,4291.282227,4263.846191,4230.000000,4228.205078,4250.769043,4211.666504,4213.205078,4205.256348,4545.769043,4432.692383,4373.846191,4462.948730,0.000000,2.000000,52.000000,,,,0.000000,4.000000,4.000000,4.000000,4.000000,4.000000,4.000000,4.000000,4.000000,4.000000,4.000000,4.000000,4.000000,4.000000,4.000000,100.000000,,,,,,,,,,,,,,,,,,,,,,,,,,,,
1703415761.458562,1703415761.459472,55.000000,0.000000,4210.769043,4208.717773,4289.230957,4263.846191,4218.333496,4218.205078,4246.410156,4204.102539,4202.692383,4203.846191,4533.974121,4424.358887,4370.641113,4454.871582,0.000000,2.000000,52.000000,,,,0.000000,4.000000,4.000000,4.000000,4.000000,4.000000,4.000000,4.000000,4.000000,4.000000,4.000000,4.000000,4.000000,4.000000,4.000000,100.000000,,,,,,,,,,,,,,,,,,,,,,,,,,,,
1703415761.466370,1703415761.467279,56.000000,0.000000,4224.230957,4216.282227,4300.384766,4285.256348,4223.333496,4220.769043,4253.717773,4212.307617,4207.563965,4212.179688,4540.641113,4441.794922,4376.538574,4466.794922,0.000000,2.000000,52.000000,,,,0.000000,4.000000,4.000000,4.000000,4.000000,4.000000,4.000000,4.000000,4.000000,4.000000,4.000000,4.000000,4.000000,4.000000,4.000000,100.000000,,,,,,,,,,,,,,,,,14.000000,0.000000,0.697419,0.191528,-0.654236,0.221130,1.004029,-0.015139,0.083506,-16.111326,-39.723637,65.720650
1703415761.474178,1703415761.474988,57.000000,0.000000,4233.974121,4229.871582,4313.589844,4291.025879,4233.077148,4231.282227,4256.666504,4219.230957,4218.717773,4222.948730,4558.846191,4453.077148,4388.974121,4480.897461,0.000000,2.000000,52.000000,,,,0.000000,4.000000,4.000000,4.000000,4.000000,4.000000,4.000000,4.000000,4.000000,4.000000,4.000000,4.000000,4.000000,4.000000,4.000000,100.000000,,,,,,,,,,,,,,,,,,,,,,,,,,,,
1703415761.481986,1703415761.482796,58.000000,0.000000,4222.563965,4228.846191,4310.769043,4281.410156,4234.102539,4233.974121,4253.589844,4216.538574,4217.692383,4218.461426,4552.179688,4448.077148,4392.948730,4479.102539,0.000000,2.000000,52.000000,,,,0.000000,4.000000,4.000000,4.000000,4.000000,4.000000,4.000000,4.000000,4.000000,4.000000,4.000000,4.000000,4.000000,4.000000,4.000000,100.000000,,,,,,,,,,,,,,,,,,,,,,,,,,,,
1703415761.489794,1703415761.490504,59.000000,0.000000,4213.717773,4218.077148,4296.410156,4277.948730,4235.128418,4233.461426,4250.512695,4211.282227,4209.615234,4204.487305,4537.307617,4440.512695,4381.538574,4474.230957,0.000000,2.000000,52.000000,,,,0.000000,4.000000,4.000000,4.000000,4.000000,4.000000,4.000000,4.000000,4.000000,4.000000,4.000000,4.000000,4.000000,4.000000,4.000000,100.000000,,,,,,,,,,,,,,,,,,,,,,,,,,,,
1703415761.497602,1703415761.498312,60.000000,0.000000,4216.794922,4215.512695,4291.922852,4281.410156,4234.358887,4232.820313,4250.000000,4204.871582,4205.384766,4197.051270,4535.000000,4431.794922,4372.436035,4475.128418,0.000000,2.000000,52.000000,,,,0.000000,4.000000,4.000000,4.000000,4.000000,4.000000,4.000000,4.000000,4.000000,4.000000,4.000000,4.000000,4.000000,4.000000,4.000000,100.000000,,,,,,,,,,,,,,,,,15.000000,0.000000,0.697436,0.191467,-0.654236,0.221130,0.979123,-0.003418,0.079600,-15.983526,-39.601273,65.731918
1703415761.505410,1703415761.506020,61.000000,0.000000,4217.692383,4219.487305,4298.589844,4282.692383,4229.230957,4231.538574,4253.717773,4204.230957,4207.948730,4208.846191,4535.897461,4435.769043,4377.948730,4477.820313,0.000000,2.000000,52.000000,,,,0.000000,4.000000,4.000000,4.000000,4.000000,4.000000,4.000000,4.000000,4.000000,4.000000,4.000000,4.000000,4.000000,4.000000,4.000000,100.000000,,,,,,,,,,,,,,,,,,,,,,,,,,,,
1703415761.513218,1703415761.513828,62.000000,0.000000,4215.384766,4217.051270,4298.205078,4276.666504,4229.615234,4235.128418,4259.871582,4212.436035,4212.436035,4223.205078,4545.769043,4445.897461,4384.102539,4482.436035,0.000000,2.000000,52.000000,,,,0.000000,4.000000,4.000000,4.000000,4.000000,4.000000,4.000000,4.000000,4.000000,4.000000,4.000000,4.000000,4.000000,4.000000,4.000000,100.000000,,,,,,,,,,,,,,,,,,,,,,,,,,,,
1703415761.521026,1703415761.521536,63.000000,0.000000,4215.384766,4215.641113,4294.230957,4276.282227,4232.948730,4237.307617,4263.589844,4217.820313,4215.641113,4214.487305,4557.820313,4445.384766,4386.538574,4492.179688,0.000000,2.000000,52.000000,,,,0.000000,4.000000,4.000000,4.000000,4.000000,4.000000,4.000000,4.000000,4.000000,4.000000,4.000000,4.000000,4.000000,4.000000,4.000000,100.000000,,,,,,,,,,,,,,,,,,,,,,,,,,,,
1703415761.528834,1703415761.529444,64.000000,0.000000,4214.871582,4223.333496,4300.897461,4287.307617,4233.717773,4233.077148,4262.436035,4216.282227,4216.922852,4207.692383,4550.128418,4445.256348,4387.307617,4499.615234,5536.000000,2.000000,52.000000,,,,0.000000,4.000000,4.000000,4.000000,4.000000,4.000000,4.000000,4.000000,4.000000,4.000000,4.000000,4.000000,4.000000,4.000000,4.000000,100.000000,,,,,,,,,,,,,,,,,16.000000,0.000000,0.697486,0.191284,-0.654236,0.221130,0.997192,-0.020510,0.081065,-16.068506,-39.591145,65.675392
1703415761.536642,1703415761.537252,65.000000,0.000000,4218.205078,4223.717773,4308.333496,4286.794922,4234.871582,4236.153809,4259.871582,4212.179688,4210.769043,4217.307617,4537.179688,4450.512695,4382.051270,4493.589844,5507.000000,2.000000,52.000000,,,,0.000000,4.000000,4.000000,4.000000,4.000000,4.000000,4.000000,4.000000,4.000000,4.000000,4.000000,4.000000,4.000000,4.000000,4.000000,100.000000,,,,,,,,,,,,,,,,,,,,,,,,,,,,
1703415761.544450,1703415761.545160,66.000000,0.000000,4223.846191,4218.077148,4306.538574,4278.974121,4235.256348,4243.333496,4258.974121,4209.230957,4199.358887,4221.794922,4545.256348,4448.205078,4383.846191,4487.948730,5387.000000,2.000000,52.000000,,,,0.000000,4.000000,4.000000,4.000000,4.000000,4.000000,4.000000,4.000000,4.000000,4.000000,4.000000,4.000000,4.000000,4.000000,4.000000,100.000000,,,,,,,,,,,,,,,,,,,,,,,,,,,,
1703415761.552258,1703415761.552968,67.000000,0.000000,4229.615234,4221.153809,4304.487305,4283.461426,4232.692383,4239.871582,4258.077148,4212.820313,4205.512695,4211.794922,4556.153809,4443.205078,4394.358887,4498.974121,5338.000000,2.000000,52.000000,,,,0.000000,4.000000,4.000000,4.000000,4.000000,4.000000,4.000000,4.000000,4.000000,4.000000,4.000000,4.000000,4.000000,4.000000,4.000000,100.000000,,,,,,,,,,,,,,,,,,,,,,,,,,,,
1703415761.560066,1703415761.560876,68.000000,0.000000,4235.256348,4225.256348,4301.794922,4285.128418,4231.538574,4230.512695,4252.563965,4215.384766,4218.717773,4205.769043,4552.948730,4445.512695,4394.230957,4505.384766,5265.000000,2.000000,52.000000,,,,0.000000,4.000000,4.000000,4.000000,4.000000,4.000000,4.000000,4.000000,4.000000,4.000000,4.000000,4.000000,4.000000,4.000000,4.000000,100.000000,,,,,,,,,,,,,,,,,17.000000,0.000000,0.697448,0.191284,-0.654236,0.221252,0.982542,0.005860,0.082041,-16.178324,-39.748699,65.707855
1703415761.567874,1703415761.568685,69.000000,0.000000,4232.692383,4221.410156,4299.615234,4274.358887,4232.307617,4229.487305,4248.077148,4206.538574,4210.512695,4212.307617,4550.641113,4445.128418,4387.820313,4495.000000,4829.000000,2.000000,52.000000,,,,0.000000,4.000000,4.000000,4.000000,4.000000,4.000000,4.000000,4.000000,4.000000,4.000000,4.000000,4.000000,4.000000,4.000000,4.000000,100.000000,,,,,,,,,,,,,,,,,,,,,,,,,,,,
1703415761.575682,1703415761.576593,70.000000,0.000000,4225.641113,4219.102539,4303.589844,4277.307617,4229.487305,4237.307617,4253.205078,4200.769043,4203.333496,4223.717773,4555.384766,4440.641113,4393.846191,4492.307617,4031.000000,2.000000,52.000000,,,,0.000000,4.000000,4.000000,4.000000,4.000000,4.000000,4.000000,4.000000,4.000000,4.000000,4.000000,4.000000,4.000000,4.000000,4.000000,100.000000,,,,,,,,,,,,,,,,,,,,,,,,,,,,
1703415761.583490,1703415761.584401,71.000000,0.000000,4231.538574,4229.615234,4308.589844,4294.358887,4233.461426,4247.179688,4260.000000,4209.871582,4214.487305,4229.615234,4556.666504,4448.077148,4406.410156,4506.794922,5252.000000,2.000000,52.000000,,,,0.000000,4.000000,4.000000,4.000000,4.000000,4.000000,4.000000,4.000000,4.000000,4.000000,4.000000,4.000000,4.000000,4.000000,4.000000,100.000000,,,,,,,,,,,,,,,,,,,,,,,,,,,,
1703415761.591298,1703415761.592309,72.000000,0.000000,4244.230957,4242.692383,4313.333496,4302.179688,4245.256348,4253.205078,4263.461426,4219.871582,4223.717773,4224.487305,4555.512695,4462.179688,4407.436035,4517.051270,5367.000000,2.000000,52.000000,,,,0.000000,4.000000,4.000000,4.000000,4.000000,4.000000,4.000000,4.000000,4.000000,4.000000,4.000000,4.000000,4.000000,4.000000,4.000000,100.000000,,,,,,,,,,,,,,,,,18.000000,0.000000,0.697426,0.191223,-0.654297,0.221191,0.996704,-0.010255,0.082530,-16.110491,-39.640495,65.603737
1703415761.599106,1703415761.600117,73.000000,0.000000,4242.692383,4242.948730,4315.897461,4293.717773,4249.102539,4249.615234,4264.615234,4216.666504,4218.333496,4221.025879,4565.256348,4463.077148,4399.615234,4514.358887,5354.000000,2.000000,52.000000,,,,0.000000,4.000000,4.000000,4.000000,4.000000,4.000000,4.000000,4.000000,4.000000,4.000000,4.000000,4.000000,4.000000,4.000000,4.000000,100.000000,,,,,,,,,,,,,,,,,,,,,,,,,,,,
1703415761.606915,1703415761.608025,74.000000,0.000000,4236.282227,4231.410156,4310.128418,4283.461426,4245.769043,4248.846191,4262.436035,4210.128418,4215.256348,4221.025879,4568.205078,4456.025879,4400.769043,4506.025879,5943.000000,2.000000,52.000000,,,,0.000000,4.000000,4.000000,4.000000,4.000000,4.000000,4.000000,4.000000,4.000000,4.000000,4.000000,4.000000,4.000000,4.000000,4.000000,100.000000,,,,,,,,,,,,,,,,,,,,,,,,,,,,
1703415761.614723,1703415761.615834,75.000000,0.000000,4244.615234,4232.051270,4311.410156,4295.256348,4246.153809,4256.538574,4262.436035,4213.333496,4225.641113,4219.871582,4559.615234,4458.717773,4410.641113,4503.205078,6254.000000,2.000000,52.000000,,,,0.000000,4.000000,4.000000,4.000000,4.000000,4.000000,4.000000,4.000000,4.000000,4.000000,4.000000,4.000000,4.000000,4.000000,4.000000,100.000000,,,,,,,,,,,,,,,,,,,,,,,,,,,,
1703415761.622531,1703415761.623741,76.000000,0.000000,4253.717773,4240.769043,4323.461426,4303.205078,4244.230957,4255.128418,4265.897461,4220.384766,4231.410156,4220.769043,4561.922852,4465.128418,4409.230957,4512.563965,6796.000000,2.000000,52.000000,,,,0.000000,4.000000,4.000000,4.000000,4.000000,4.000000,4.000000,4.000000,4.000000,4.000000,4.000000,4.000000,4.000000,4.000000,4.000000,100.000000,,,,,,,,,,,,,,,,,19.000000,0.000000,0.697425,0.191162,-0.654358,0.221069,0.990844,-0.021487,0.084483,-15.999441,-39.709778,65.593361
1703415761.630339,1703415761.631549,77.000000,0.000000,4246.666504,4228.333496,4323.974121,4281.794922,4229.871582,4244.487305,4262.179688,4217.692383,4220.641113,4226.666504,4564.102539,4462.051270,4397.051270,4512.820313,7322.000000,2.000000,52.000000,,,,0.000000,4.000000,4.000000,4.000000,4.000000,4.000000,4.000000,4.000000,4.000000,4.000000,4.000000,4.000000,4.000000,4.000000,4.000000,100.000000,,,,,,,,,,,,,,,,,,,,,,,,,,,,
1703415761.638147,1703415761.639257,78.000000,0.000000,4241.794922,4218.333496,4314.743652,4275.641113,4221.538574,4242.436035,4255.128418,4210.128418,4209.102539,4231.153809,4551.922852,4456.666504,4395.769043,4500.769043,5943.000000,2.000000,52.000000,,,,0.000000,4.000000,4.000000,4.000000,4.000000,4.000000,4.000000,4.000000,4.000000,4.000000,4.000000,4.000000,4.000000,4.000000,4.000000,100.000000,,,,,,,,,,,,,,,,,,,,,,,,,,,,
1703415761.645955,1703415761.647065,79.000000,0.000000,4250.512695,4232.820313,4319.102539,4293.461426,4232.051270,4249.487305,4259.487305,4212.307617,4213.717773,4225.641113,4549.743652,4460.256348,4402.692383,4507.820313,6254.000000,2.000000,52.000000,,,,0.000000,4.000000,4.000000,4.000000,4.000000,4.000000,4.000000,4.000000,4.000000,4.000000,4.000000,4.000000,4.000000,4.000000,4.000000,100.000000,,,,,,,,,,,,,,,,,,,,,,,,,,,,
1703415761.653763,1703415761.654774,80.000000,0.000000,4251.666504,4235.384766,4329.102539,4291.922852,4241.025879,4248.333496,4266.666504,4218.461426,4218.717773,4217.307617,4560.256348,4464.615234,4402.307617,4521.025879,6796.000000,2.000000,52.000000,,,,0.000000,4.000000,4.000000,4.000000,4.000000,4.000000,4.000000,4.000000,4.000000,4.000000,4.000000,4.000000,4.000000,4.000000,4.000000,100.000000,,,,,,,,,,,,,,,,,20.000000,0.000000,0.697391,0.191284,-0.654358,0.221069,1.004517,0.000000,0.074716,-16.049498,-39.588802,65.684029
1703415761.661571,1703415761.662682,81.000000,0.000000,4247.820313,4219.230957,4321.025879,4278.205078,4232.820313,4236.794922,4256.922852,4215.384766,4214.102539,4213.846191,4555.384766,4461.025879,4396.666504,4513.205078,7322.000000,2.000000,52.000000,,,,0.000000,4.000000,4.000000,4.000000,4.000000,4.000000,4.000000,4.000000,4.000000,4.000000,4.000000,4.000000,4.000000,4.000000,4.000000,100.000000,,,,,,,,,,,,,,,,,,,,,,,,,,,,
1703415761.669379,1703415761.670490,82.000000,0.000000,4255.128418,4220.128418,4310.000000,4280.128418,4227.820313,4229.358887,4247.563965,4210.256348,4212.436035,4218.589844,4550.256348,4460.000000,4397.307617,4502.051270,5943.000000,2.000000,52.000000,,,,0.000000,4.000000,4.000000,4.000000,4.000000,4.000000,4.000000,4.000000,4.000000,4.000000,4.000000,4.000000,4.000000,4.000000,4.000000,100.000000,,,,,,,,,,,,,,,,,,,,,,,,,,,,
1703415761.677187,1703415761.678298,83.000000,0.000000,4264.230957,4235.512695,4317.307617,4287.820313,4234.743652,4233.077148,4257.563965,4213.589844,4216.153809,4222.948730,4558.846191,4466.538574,4402.436035,4510.256348,6254.000000,2.000000,52.000000,,,,0.000000,4.000000,4.000000,4.000000,4.000000,4.000000,4.000000,4.000000,4.000000,4.000000,4.000000,4.000000,4.000000,4.000000,4.000000,100.000000,,,,,,,,,,,,,,,,,,,,,,,,,,,,
1703415761.684995,1703415761.686006,84.000000,0.000000,4255.641113,4233.717773,4321.794922,4290.641113,4235.000000,4235.256348,4266.538574,4215.641113,4221.282227,4212.436035,4552.563965,4461.794922,4398.205078,4512.820313,6796.000000,2.000000,52.000000,,,,0.000000,4.000000,4.000000,4.000000,4.000000,4.000000,4.000000,4.000000,4.000000,4.000000,4.000000,4.000000,4.000000,4.000000,4.000000,100.000000,1.000000,83.333336,4.000000,4.000000,4.000000,4.000000,3.000000,4.000000,4.000000,4.000000,4.000000,3.000000,4.000000,4.000000,4.000000,4.000000,21.000000,0.000000,0.697582,0.191284,-0.654175,0.221008,0.987914,-0.022464,0.090831,-16.077881,-39.629921,65.665619
1703415761.692803,1703415761.693814,85.000000,0.000000,4245.256348,4228.205078,4311.282227,4289.230957,4229.102539,4232.179688,4261.538574,4207.307617,4218.077148,4207.307617,4542.051270,4445.641113,4387.948730,4496.922852,7322.000000,2.000000,52.000000,,,,0.000000,4.000000,4.000000,4.000000,4.000000,4.000000,4.000000,4.000000,4.000000,4.000000,4.000000,4.000000,4.000000,4.000000,4.000000,100.000000,,,,,,,,,,,,,,,,,,,,,,,,,,,,
1703415761.700611,1703415761.701522,86.000000,0.000000,4248.077148,4233.717773,4307.563965,4283.205078,4235.384766,4233.333496,4259.743652,4206.666504,4213.974121,4224.871582,4549.871582,4445.641113,4385.384766,4494.743652,5943.000000,2.000000,52.000000,,,,0.000000,4.000000,4.000000,4.000000,4.000000,4.000000,4.000000,4.000000,4.000000,4.000000,4.000000,4.000000,4.000000,4.000000,4.000000,100.000000,,,,,,,,,,,,,,,,,,,,,,,,,,,,
1703415761.708419,1703415761.709330,87.000000,0.000000,4245.897461,4231.794922,4311.794922,4279.743652,4242.692383,4237.820313,4264.871582,4217.692383,4224.615234,4235.000000,4558.333496,4460.512695,4387.692383,4505.641113,6254.000000,2.000000,52.000000,,,,0.000000,4.000000,4.000000,4.000000,4.000000,4.000000,4.000000,4.000000,4.000000,4.000000,4.000000,4.000000,4.000000,4.000000,4.000000,100.000000,,,,,,,,,,,,,,,,,,,,,,,,,,,,
1703415761.716227,1703415761.717038,88.000000,0.000000,4241.025879,4226.282227,4309.102539,4282.692383,4238.974121,4240.128418,4265.512695,4222.307617,4233.077148,4217.179688,4549.615234,4465.000000,4387.051270,4501.282227,6796.000000,2.000000,52.000000,,,,0.000000,4.000000,4.000000,4.000000,4.000000,4.000000,4.000000,4.000000,4.000000,4.000000,4.000000,4.000000,4.000000,4.000000,4.000000,100.000000,,,,,,,,,,,,,,,,,22.000000,0.000000,0.697602,0.191284,-0.654175,0.220947,0.995239,-0.001953,0.090343,-16.186760,-39.700260,65.649063
1703415761.724035,1703415761.724846,89.000000,0.000000,4244.487305,4229.102539,4303.717773,4281.282227,4232.307617,4240.000000,4263.333496,4215.128418,4222.307617,4208.077148,4541.410156,4455.000000,4386.410156,4487.563965,7322.000000,2.000000,52.000000,,,,0.000000,4.000000,4.000000,4.000000,4.000000,4.000000,4.000000,4.000000,4.000000,4.000000,4.000000,4.000000,4.000000,4.000000,4.000000,100.000000,,,,,,,,,,,,,,,,,,,,,,,,,,,,
1703415761.731843,1703415761.732554,90.000000,0.000000,4244.871582,4227.563965,4302.051270,4278.077148,4230.769043,4236.410156,4263.333496,4206.025879,4211.922852,4220.641113,4538.333496,4448.846191,4388.205078,4486.538574,5943.000000,2.000000,52.000000,,,,0.000000,4.000000,4.000000,4.000000,4.000000,4.000000,4.000000,4.000000,4.000000,4.000000,4.000000,4.000000,4.000000,4.000000,4.000000,100.000000,,,,,,,,,,,,,,,,,,,,,,,,,,,,
1703415761.739651,1703415761.740362,91.000000,0.000000,4244.743652,4223.461426,4303.974121,4278.461426,4232.563965,4230.897461,4262.051270,4202.179688,4215.641113,4217.948730,4539.615234,4453.846191,4387.436035,4495.769043,6254.000000,2.000000,52.000000,,,,0.000000,4.000000,4.000000,4.000000,4.000000,4.000000,4.000000,4.000000,4.000000,4.000000,4.000000,4.000000,4.000000,4.000000,4.000000,100.000000,,,,,,,,,,,,,,,,,,,,,,,,,,,,
1703415761.747460,1703415761.748070,92.000000,0.000000,4256.153809,4225.641113,4308.333496,4275.641113,4228.589844,4230.000000,4258.974121,4208.974121,4217.820313,4198.205078,4554.102539,4463.077148,4392.307617,4508.461426,6796.000000,2.000000,52.000000,,,,0.000000,4.000000,4.000000,4.000000,4.000000,4.000000,4.000000,4.000000,4.000000,4.000000,4.000000,4.000000,4.000000,4.000000,4.000000,100.000000,,,,,,,,,,,,,,,,,23.000000,0.000000,0.697583,0.191284,-0.654236,0.220825,0.997680,-0.004883,0.082041,-16.184750,-39.613567,65.667488
1703415761.755268,1703415761.755878,93.000000,0.000000,4282.820313,4235.000000,4318.333496,4280.384766,4228.077148,4235.000000,4261.282227,4214.615234,4217.307617,4199.102539,4558.717773,4469.358887,4412.563965,4528.461426,7322.000000,2.000000,52.000000,,,,0.000000,4.000000,4.000000,4.000000,4.000000,4.000000,4.000000,4.000000,4.000000,4.000000,4.000000,4.000000,4.000000,4.000000,4.000000,100.000000,,,,,,,,,,,,,,,,,,,,,,,,,,,,
1703415761.763075,1703415761.763586,94.000000,0.000000,4319.615234,4248.461426,4327.692383,4297.948730,4231.922852,4234.743652,4263.589844,4205.256348,4214.871582,4220.000000,4551.922852,4474.615234,4429.102539,4549.743652,5943.000000,2.000000,52.000000,,,,0.000000,4.000000,4.000000,4.000000,4.000000,4.000000,4.000000,4.000000,4.000000,4.000000,4.000000,4.000000,4.000000,4.000000,4.000000,100.000000,,,,,,,,,,,,,,,,,,,,,,,,,,,,
1703415761.770884,1703415761.771494,95.000000,0.000000,4345.641113,4256.025879,4327.948730,4300.000000,4225.512695,4223.717773,4255.769043,4197.948730,4204.615234,4219.615234,4559.102539,4483.461426,4428.717773,4566.538574,6254.000000,2.000000,52.000000,,,,0.000000,4.000000,4.000000,4.000000,4.000000,4.000000,4.000000,4.000000,4.000000,4.000000,4.000000,4.000000,4.000000,4.000000,4.000000,100.000000,,,,,,,,,,,,,,,,,,,,,,,,,,,,
1703415761.778692,1703415761.779303,96.000000,0.000000,4347.692383,4249.102539,4329.487305,4289.743652,4215.769043,4215.000000,4247.563965,4197.692383,4197.307617,4198.333496,4563.205078,4483.205078,4420.000000,4575.384766,6796.000000,2.000000,52.000000,,,,0.000000,4.000000,4.000000,4.000000,4.000000,4.000000,4.000000,4.000000,4.000000,4.000000,4.000000,4.000000,4.000000,4.000000,4.000000,100.000000,,,,,,,,,,,,,,,,,24.000000,0.000000,0.697499,0.191101,-0.654297,0.221069,0.989379,-0.003418,0.085948,-16.149609,-39.685547,65.484070
1703415761.786500,1703415761.787211,97.000000,0.000000,4348.589844,4244.743652,4333.846191,4291.410156,4215.000000,4217.820313,4248.717773,4194.487305,4198.589844,4195.256348,4550.769043,4475.769043,4415.641113,4574.487305,7322.000000,2.000000,52.000000,,,,0.000000,4.000000,4.000000,4.000000,4.000000,4.000000,4.000000,4.000000,4.000000,4.000000,4.000000,4.000000,4.000000,4.000000,4.000000,100.000000,,,,,,,,,,,,,,,,,,,,,,,,,,,,
1703415761.794308,1703415761.795019,98.000000,0.000000,4359.615234,4260.000000,4335.897461,4296.794922,4226.282227,4222.692383,4255.000000,4195.000000,4198.589844,4212.820313,4552.436035,4481.282227,4422.307617,4570.769043,5943.000000,2.000000,52.000000,,,,0.000000,4.000000,4.000000,4.000000,4.000000,4.000000,4.000000,4.000000,4.000000,4.000000,4.000000,4.000000,4.000000,4.000000,4.000000,100.000000,,,,,,,,,,,,,,,,,,,,,,,,,,,,
1703415761.802116,1703415761.802927,99.000000,0.000000,4359.230957,4267.820313,4335.128418,4295.897461,4231.410156,4227.563965,4259.487305,4201.282227,4197.436035,4221.025879,4566.282227,4492.051270,4433.077148,4572.436035,6254.000000,2.000000,52.000000,,,,0.000000,4.000000,4.000000,4.000000,4.000000,4.000000,4.000000,4.000000,4.000000,4.000000,4.000000,4.000000,4.000000,4.000000,4.000000,100.000000,,,,,,,,,,,,,,,,,,,,,,,,,,,,
1703415761.809924,1703415761.810735,100.000000,0.000000,4343.846191,4255.769043,4326.666504,4296.922852,4222.948730,4232.051270,4259.615234,4201.794922,4200.128418,4208.974121,4561.922852,4482.051270,4428.205078,4569.487305,6796.000000,2.000000,52.000000,,,,0.000000,4.000000,4.000000,4.000000,4.000000,4.000000,4.000000,4.000000,4.000000,4.000000,4.000000,4.000000,4.000000,4.000000,4.000000,100.000000,,,,,,,,,,,,,,,,,25.000000,0.000000,0.697361,0.191040,-0.654358,0.221375,0.986449,-0.013674,0.090343,-16.234648,-39.783657,65.585663
1703415761.817732,1703415761.818643,101.000000,0.000000,4327.820313,4246.666504,4312.563965,4296.153809,4218.846191,4235.128418,4258.461426,4196.538574,4200.897461,4196.922852,4549.743652,4462.563965,4411.538574,4554.358887,7322.000000,2.000000,52.000000,,,,0.000000,4.000000,4.000000,4.000000,4.000000,4.000000,4.000000,4.000000,4.000000,4.000000,4.000000,4.000000,4.000000,4.000000,4.000000,100.000000,,,,,,,,,,,,,,,,,,,,,,,,,,,,
