title:عمار تشغيل, start timestamp:1703503717.880479, stop timestamp:1703503728.616552, headset type:EPOCX, headset serial:E50206EF, headset firmware:720, channels:67, sampling rate:eeg_128;mot_32, samples:1376      , version:2.2, 
Timestamp,OriginalTimestamp,EEG.Counter,EEG.Interpolated,EEG.AF3,EEG.F7,EEG.F3,EEG.FC5,EEG.T7,EEG.P7,EEG.O1,EEG.O2,EEG.P8,EEG.T8,EEG.FC6,EEG.F4,EEG.F8,EEG.AF4,EEG.RawCq,EEG.Battery,EEG.BatteryPercent,MarkerIndex,MarkerType,MarkerValueInt,EEG.MarkerHardware,CQ.AF3,CQ.F7,CQ.F3,CQ.FC5,CQ.T7,CQ.P7,CQ.O1,CQ.O2,CQ.P8,CQ.T8,CQ.FC6,CQ.F4,CQ.F8,CQ.AF4,CQ.Overall,EQ.SampleRateQuality,EQ.OVERALL,EQ.AF3,EQ.F7,EQ.F3,EQ.FC5,EQ.T7,EQ.P7,EQ.O1,EQ.O2,EQ.P8,EQ.T8,EQ.FC6,EQ.F4,EQ.F8,EQ.AF4,MOT.CounterMems,MOT.InterpolatedMems,MOT.Q0,MOT.Q1,MOT.Q2,MOT.Q3,MOT.AccX,MOT.AccY,MOT.AccZ,MOT.MagX,MOT.MagY,MOT.MagZ
1703503717.880479,1703503717.881140,85.000000,0.000000,4293.333496,4281.025879,4339.743652,4346.922852,4289.487305,4260.256348,4280.000000,4288.717773,4284.871582,4280.384766,4567.307617,4505.256348,4403.846191,4473.077148,7232.000000,3.000000,61.000000,,,,0.000000,4.000000,4.000000,4.000000,4.000000,4.000000,4.000000,4.000000,4.000000,4.000000,4.000000,4.000000,4.000000,4.000000,4.000000,100.000000,,,,,,,,,,,,,,,,,,,,,,,,,,,,
1703503717.888287,1703503717.889048,86.000000,0.000000,4300.512695,4287.051270,4348.333496,4352.948730,4285.256348,4264.358887,4279.487305,4282.692383,4281.282227,4281.666504,4568.717773,4509.871582,4405.512695,4479.743652,6055.000000,3.000000,61.000000,,,,0.000000,4.000000,4.000000,4.000000,4.000000,4.000000,4.000000,4.000000,4.000000,4.000000,4.000000,4.000000,4.000000,4.000000,4.000000,100.000000,,,,,,,,,,,,,,,,,,,,,,,,,,,,
1703503717.896095,1703503717.896856,87.000000,0.000000,4299.230957,4284.230957,4344.487305,4347.563965,4279.358887,4257.179688,4278.717773,4279.487305,4276.538574,4278.461426,4563.974121,4504.615234,4402.307617,4474.871582,6337.000000,3.000000,61.000000,,,,0.000000,4.000000,4.000000,4.000000,4.000000,4.000000,4.000000,4.000000,4.000000,4.000000,4.000000,4.000000,4.000000,4.000000,4.000000,100.000000,,,,,,,,,,,,,,,,,,,,,,,,,,,,
1703503717.903903,1703503717.904764,88.000000,0.000000,4295.256348,4277.563965,4340.897461,4340.512695,4277.948730,4259.102539,4283.717773,4287.307617,4279.487305,4276.025879,4561.025879,4501.922852,4397.820313,4471.282227,6841.000000,3.000000,61.000000,,,,0.000000,4.000000,4.000000,4.000000,4.000000,4.000000,4.000000,4.000000,4.000000,4.000000,4.000000,4.000000,4.000000,4.000000,4.000000,100.000000,,,,,,,,,,,,,,,,,22.000000,0.000000,0.466603,0.538025,-0.443848,0.543884,0.994750,0.013674,0.021975,-14.866699,-34.179512,59.719280
1703503717.911711,1703503717.912572,89.000000,0.000000,4293.974121,4278.461426,4341.282227,4341.153809,4281.922852,4264.743652,4287.692383,4298.461426,4289.615234,4284.102539,4567.563965,4507.948730,4401.794922,4474.871582,7232.000000,3.000000,61.000000,,,,0.000000,4.000000,4.000000,4.000000,4.000000,4.000000,4.000000,4.000000,4.000000,4.000000,4.000000,4.000000,4.000000,4.000000,4.000000,100.000000,,,,,,,,,,,,,,,,,,,,,,,,,,,,
1703503717.919519,1703503717.920480,90.000000,0.000000,4296.794922,4284.102539,4340.897461,4343.333496,4283.205078,4263.461426,4287.820313,4314.871582,4310.128418,4301.025879,4586.025879,4520.256348,4419.230957,4482.563965,6055.000000,3.000000,61.000000,,,,0.000000,4.000000,4.000000,4.000000,4.000000,4.000000,4.000000,4.000000,4.000000,4.000000,4.000000,4.000000,4.000000,4.000000,4.000000,100.000000,,,,,,,,,,,,,,,,,,,,,,,,,,,,
1703503717.927327,1703503717.928288,91.000000,0.000000,4301.794922,4283.846191,4341.410156,4348.589844,4283.205078,4262.179688,4286.922852,4328.589844,4322.307617,4305.256348,4594.743652,4525.000000,4426.538574,4484.743652,6337.000000,3.000000,61.000000,,,,0.000000,4.000000,4.000000,4.000000,4.000000,4.000000,4.000000,4.000000,4.000000,4.000000,4.000000,4.000000,4.000000,4.000000,4.000000,100.000000,,,,,,,,,,,,,,,,,,,,,,,,,,,,
1703503717.935135,1703503717.936096,92.000000,0.000000,4302.179688,4280.897461,4336.282227,4352.692383,4289.615234,4262.563965,4282.563965,4317.051270,4309.871582,4296.666504,4579.487305,4513.974121,4413.974121,4477.820313,6841.000000,3.000000,61.000000,,,,0.000000,4.000000,4.000000,4.000000,4.000000,4.000000,4.000000,4.000000,4.000000,4.000000,4.000000,4.000000,4.000000,4.000000,4.000000,100.000000,,,,,,,,,,,,,,,,,23.000000,0.000000,0.466543,0.537903,-0.443909,0.544006,1.001587,0.013185,0.032230,-14.830029,-34.211563,59.647350
1703503717.942943,1703503717.943804,93.000000,0.000000,4297.307617,4281.025879,4328.077148,4347.436035,4296.794922,4262.692383,4279.871582,4296.538574,4297.051270,4294.615234,4569.358887,4501.538574,4405.384766,4470.128418,7232.000000,3.000000,61.000000,,,,0.000000,4.000000,4.000000,4.000000,4.000000,4.000000,4.000000,4.000000,4.000000,4.000000,4.000000,4.000000,4.000000,4.000000,4.000000,100.000000,,,,,,,,,,,,,,,,,,,,,,,,,,,,
1703503717.950751,1703503717.951612,94.000000,0.000000,4289.743652,4281.282227,4323.974121,4340.897461,4297.179688,4260.641113,4281.410156,4292.307617,4295.128418,4294.102539,4572.436035,4494.102539,4404.487305,4462.948730,6055.000000,3.000000,61.000000,,,,0.000000,4.000000,4.000000,4.000000,4.000000,4.000000,4.000000,4.000000,4.000000,4.000000,4.000000,4.000000,4.000000,4.000000,4.000000,100.000000,,,,,,,,,,,,,,,,,,,,,,,,,,,,
1703503717.958559,1703503717.959320,95.000000,0.000000,4281.538574,4276.794922,4322.307617,4335.769043,4292.692383,4259.358887,4279.871582,4288.589844,4289.358887,4288.717773,4570.256348,4488.205078,4402.563965,4460.512695,6337.000000,3.000000,61.000000,,,,0.000000,4.000000,4.000000,4.000000,4.000000,4.000000,4.000000,4.000000,4.000000,4.000000,4.000000,4.000000,4.000000,4.000000,4.000000,100.000000,,,,,,,,,,,,,,,,,,,,,,,,,,,,
1703503717.966367,1703503717.967128,96.000000,0.000000,4277.179688,4271.666504,4323.205078,4329.358887,4289.487305,4261.922852,4278.205078,4279.871582,4274.743652,4277.563965,4561.153809,4487.563965,4397.948730,4461.410156,6841.000000,3.000000,61.000000,,,,0.000000,4.000000,4.000000,4.000000,4.000000,4.000000,4.000000,4.000000,4.000000,4.000000,4.000000,4.000000,4.000000,4.000000,4.000000,100.000000,,,,,,,,,,,,,,,,,24.000000,0.000000,0.466556,0.537842,-0.443970,0.544006,1.007936,0.000977,0.021975,-14.780359,-34.307072,59.549282
1703503717.974175,1703503717.974836,97.000000,0.000000,4280.641113,4273.333496,4323.205078,4325.000000,4291.153809,4264.743652,4278.717773,4276.922852,4267.563965,4265.769043,4558.974121,4491.410156,4393.974121,4461.282227,7232.000000,3.000000,61.000000,,,,0.000000,4.000000,4.000000,4.000000,4.000000,4.000000,4.000000,4.000000,4.000000,4.000000,4.000000,4.000000,4.000000,4.000000,4.000000,100.000000,1.000000,100.000000,4.000000,4.000000,4.000000,4.000000,4.000000,4.000000,4.000000,4.000000,4.000000,4.000000,4.000000,4.000000,4.000000,4.000000,,,,,,,,,,,,
1703503717.981983,1703503717.982644,98.000000,0.000000,4280.256348,4274.743652,4321.153809,4320.897461,4292.820313,4261.794922,4278.589844,4277.436035,4269.487305,4265.128418,4558.333496,4490.641113,4394.871582,4461.282227,6055.000000,3.000000,61.000000,,,,0.000000,4.000000,4.000000,4.000000,4.000000,4.000000,4.000000,4.000000,4.000000,4.000000,4.000000,4.000000,4.000000,4.000000,4.000000,100.000000,,,,,,,,,,,,,,,,,,,,,,,,,,,,
1703503717.989792,1703503717.990352,99.000000,0.000000,4277.307617,4275.256348,4324.102539,4318.717773,4293.589844,4264.743652,4283.461426,4283.333496,4276.922852,4277.563965,4556.922852,4489.230957,4399.358887,4463.205078,6337.000000,3.000000,61.000000,,,,0.000000,4.000000,4.000000,4.000000,4.000000,4.000000,4.000000,4.000000,4.000000,4.000000,4.000000,4.000000,4.000000,4.000000,4.000000,100.000000,,,,,,,,,,,,,,,,,,,,,,,,,,,,
1703503717.997599,1703503717.998260,100.000000,0.000000,4280.384766,4276.538574,4322.307617,4319.230957,4296.282227,4276.153809,4292.051270,4295.128418,4289.743652,4287.820313,4566.282227,4493.461426,4403.846191,4463.205078,6841.000000,3.000000,61.000000,,,,0.000000,4.000000,4.000000,4.000000,4.000000,4.000000,4.000000,4.000000,4.000000,4.000000,4.000000,4.000000,4.000000,4.000000,4.000000,100.000000,,,,,,,,,,,,,,,,,25.000000,0.000000,0.466748,0.537659,-0.444214,0.543823,0.987425,0.020999,0.024905,-14.818990,-34.309700,59.511021
1703503718.005408,1703503718.006068,101.000000,0.000000,4278.974121,4274.743652,4312.820313,4313.589844,4290.512695,4274.487305,4294.487305,4298.717773,4290.769043,4282.436035,4566.153809,4492.179688,4401.153809,4462.179688,7232.000000,3.000000,61.000000,,,,0.000000,4.000000,4.000000,4.000000,4.000000,4.000000,4.000000,4.000000,4.000000,4.000000,4.000000,4.000000,4.000000,4.000000,4.000000,100.000000,,,,,,,,,,,,,,,,,,,,,,,,,,,,
1703503718.013216,1703503718.013976,102.000000,0.000000,4276.410156,4274.358887,4314.358887,4307.307617,4286.025879,4264.230957,4291.666504,4295.000000,4286.922852,4281.025879,4557.563965,4487.179688,4399.230957,4462.692383,6055.000000,3.000000,61.000000,,,,0.000000,4.000000,4.000000,4.000000,4.000000,4.000000,4.000000,4.000000,4.000000,4.000000,4.000000,4.000000,4.000000,4.000000,4.000000,100.000000,,,,,,,,,,,,,,,,,,,,,,,,,,,,
1703503718.021024,1703503718.021784,103.000000,0.000000,4278.461426,4279.487305,4320.641113,4310.512695,4290.897461,4264.743652,4290.128418,4297.307617,4293.589844,4293.333496,4562.307617,4489.743652,4405.256348,4463.846191,6337.000000,3.000000,61.000000,,,,0.000000,4.000000,4.000000,4.000000,4.000000,4.000000,4.000000,4.000000,4.000000,4.000000,4.000000,4.000000,4.000000,4.000000,4.000000,100.000000,,,,,,,,,,,,,,,,,,,,,,,,,,,,
1703503718.028832,1703503718.029692,104.000000,0.000000,4279.871582,4279.615234,4319.871582,4312.179688,4289.487305,4266.538574,4287.051270,4299.102539,4294.743652,4291.794922,4565.641113,4491.794922,4403.077148,4464.358887,6841.000000,3.000000,61.000000,,,,0.000000,4.000000,4.000000,4.000000,4.000000,4.000000,4.000000,4.000000,4.000000,4.000000,4.000000,4.000000,4.000000,4.000000,4.000000,100.000000,,,,,,,,,,,,,,,,,26.000000,0.000000,0.466760,0.537598,-0.444275,0.543823,0.994262,0.015627,0.027835,-14.820424,-34.228729,59.643253
1703503718.036640,1703503718.037500,105.000000,0.000000,4283.077148,4277.179688,4319.487305,4305.256348,4283.205078,4261.025879,4281.025879,4295.897461,4287.563965,4283.077148,4560.384766,4491.282227,4395.512695,4463.974121,7232.000000,3.000000,61.000000,,,,0.000000,4.000000,4.000000,4.000000,4.000000,4.000000,4.000000,4.000000,4.000000,4.000000,4.000000,4.000000,4.000000,4.000000,4.000000,100.000000,,,,,,,,,,,,,,,,,,,,,,,,,,,,
1703503718.044448,1703503718.045408,106.000000,0.000000,4285.384766,4282.436035,4323.333496,4299.487305,4282.563965,4258.205078,4278.589844,4292.051270,4285.769043,4282.051270,4560.897461,4491.538574,4396.794922,4463.717773,6055.000000,3.000000,61.000000,,,,0.000000,4.000000,4.000000,4.000000,4.000000,4.000000,4.000000,4.000000,4.000000,4.000000,4.000000,4.000000,4.000000,4.000000,4.000000,100.000000,,,,,,,,,,,,,,,,,,,,,,,,,,,,
1703503718.052256,1703503718.053216,107.000000,0.000000,4285.769043,4284.102539,4322.820313,4298.846191,4284.871582,4260.128418,4279.358887,4285.128418,4282.051270,4276.794922,4556.025879,4485.897461,4393.846191,4461.282227,6337.000000,3.000000,61.000000,,,,0.000000,4.000000,4.000000,4.000000,4.000000,4.000000,4.000000,4.000000,4.000000,4.000000,4.000000,4.000000,4.000000,4.000000,4.000000,100.000000,,,,,,,,,,,,,,,,,,,,,,,,,,,,
1703503718.060064,1703503718.061123,108.000000,0.000000,4286.025879,4281.410156,4317.436035,4294.102539,4285.897461,4262.179688,4278.589844,4274.743652,4273.077148,4268.205078,4541.025879,4473.974121,4383.589844,4452.948730,6841.000000,3.000000,61.000000,,,,0.000000,4.000000,4.000000,4.000000,4.000000,4.000000,4.000000,4.000000,4.000000,4.000000,4.000000,4.000000,4.000000,4.000000,4.000000,100.000000,,,,,,,,,,,,,,,,,27.000000,0.000000,0.466773,0.537598,-0.444336,0.543762,0.988402,0.018069,0.018069,-15.138382,-34.222523,59.528927
1703503718.067872,1703503718.068931,109.000000,0.000000,4284.230957,4283.589844,4312.948730,4276.794922,4285.128418,4259.487305,4278.974121,4266.410156,4262.820313,4262.051270,4526.922852,4459.743652,4372.179688,4437.948730,7232.000000,3.000000,61.000000,,,,0.000000,4.000000,4.000000,4.000000,4.000000,4.000000,4.000000,4.000000,4.000000,4.000000,4.000000,4.000000,4.000000,4.000000,4.000000,100.000000,,,,,,,,,,,,,,,,,,,,,,,,,,,,
1703503718.075680,1703503718.076739,110.000000,0.000000,4276.025879,4280.000000,4304.615234,4251.666504,4278.077148,4250.641113,4278.846191,4262.307617,4247.820313,4246.410156,4510.384766,4443.589844,4357.436035,4425.897461,6055.000000,3.000000,61.000000,,,,0.000000,4.000000,4.000000,4.000000,4.000000,4.000000,4.000000,4.000000,4.000000,4.000000,4.000000,4.000000,4.000000,4.000000,4.000000,100.000000,,,,,,,,,,,,,,,,,,,,,,,,,,,,
1703503718.083488,1703503718.084547,111.000000,0.000000,4267.436035,4266.794922,4297.948730,4226.922852,4266.410156,4247.436035,4277.436035,4261.153809,4239.487305,4229.615234,4501.538574,4439.102539,4346.538574,4424.487305,6337.000000,3.000000,61.000000,,,,0.000000,4.000000,4.000000,4.000000,4.000000,4.000000,4.000000,4.000000,4.000000,4.000000,4.000000,4.000000,4.000000,4.000000,4.000000,100.000000,,,,,,,,,,,,,,,,,,,,,,,,,,,,
1703503718.091296,1703503718.092255,112.000000,0.000000,4266.282227,4261.153809,4299.487305,4203.077148,4254.102539,4249.615234,4279.230957,4262.051270,4243.461426,4227.563965,4504.230957,4445.384766,4343.717773,4421.025879,6841.000000,3.000000,61.000000,,,,0.000000,4.000000,4.000000,4.000000,4.000000,4.000000,4.000000,4.000000,4.000000,4.000000,4.000000,4.000000,4.000000,4.000000,4.000000,100.000000,,,,,,,,,,,,,,,,,28.000000,0.000000,0.466833,0.537720,-0.444275,0.543640,0.987914,0.009278,0.022952,-15.041210,-34.166939,59.392700
1703503718.099104,1703503718.100063,113.000000,0.000000,4265.128418,4264.871582,4295.512695,4180.256348,4248.461426,4249.615234,4278.333496,4265.256348,4252.563965,4237.948730,4506.794922,4442.563965,4347.051270,4415.641113,7232.000000,3.000000,61.000000,,,,0.000000,4.000000,4.000000,4.000000,4.000000,4.000000,4.000000,4.000000,4.000000,4.000000,4.000000,4.000000,4.000000,4.000000,4.000000,100.000000,,,,,,,,,,,,,,,,,,,,,,,,,,,,
1703503718.106912,1703503718.107771,114.000000,0.000000,4261.922852,4262.051270,4287.179688,4161.153809,4247.436035,4247.692383,4276.922852,4264.487305,4258.461426,4247.948730,4505.000000,4430.256348,4351.410156,4413.589844,6055.000000,3.000000,61.000000,,,,0.000000,4.000000,4.000000,4.000000,4.000000,4.000000,4.000000,4.000000,4.000000,4.000000,4.000000,4.000000,4.000000,4.000000,4.000000,100.000000,,,,,,,,,,,,,,,,,,,,,,,,,,,,
1703503718.114720,1703503718.115579,115.000000,0.000000,4267.307617,4262.948730,4289.615234,4151.410156,4248.974121,4248.077148,4278.846191,4258.589844,4261.410156,4249.358887,4507.820313,4429.487305,4356.153809,4413.461426,6337.000000,3.000000,61.000000,,,,0.000000,4.000000,4.000000,4.000000,4.000000,4.000000,4.000000,4.000000,4.000000,4.000000,4.000000,4.000000,4.000000,4.000000,4.000000,100.000000,,,,,,,,,,,,,,,,,,,,,,,,,,,,
1703503718.122528,1703503718.123287,116.000000,0.000000,4277.692383,4272.563965,4297.692383,4153.205078,4256.538574,4250.641113,4279.871582,4254.615234,4262.051270,4251.410156,4520.897461,4439.743652,4367.307617,4420.641113,6841.000000,3.000000,61.000000,,,,0.000000,4.000000,4.000000,4.000000,4.000000,4.000000,4.000000,4.000000,4.000000,4.000000,4.000000,4.000000,4.000000,4.000000,4.000000,100.000000,,,,,,,,,,,,,,,,,29.000000,0.000000,0.466584,0.538025,-0.444092,0.543701,1.000610,0.016604,0.025394,-15.087090,-34.250244,59.270096
1703503718.130336,1703503718.131095,117.000000,0.000000,4279.358887,4275.128418,4301.922852,4161.666504,4257.436035,4250.000000,4279.487305,4253.333496,4256.153809,4254.487305,4524.230957,4440.769043,4373.717773,4424.615234,7232.000000,3.000000,61.000000,,,,0.000000,4.000000,4.000000,4.000000,4.000000,4.000000,4.000000,4.000000,4.000000,4.000000,4.000000,4.000000,4.000000,4.000000,4.000000,100.000000,,,,,,,,,,,,,,,,,,,,,,,,,,,,
1703503718.138144,1703503718.138804,118.000000,0.000000,4279.615234,4274.743652,4308.333496,4167.051270,4254.871582,4247.307617,4278.589844,4252.692383,4254.358887,4250.641113,4517.051270,4435.000000,4373.717773,4424.615234,6055.000000,3.000000,61.000000,,,,0.000000,4.000000,4.000000,4.000000,4.000000,4.000000,4.000000,4.000000,4.000000,4.000000,4.000000,4.000000,4.000000,4.000000,4.000000,100.000000,,,,,,,,,,,,,,,,,,,,,,,,,,,,
1703503718.145953,1703503718.146612,119.000000,0.000000,4284.230957,4279.487305,4316.794922,4167.948730,4258.333496,4244.743652,4276.666504,4252.820313,4259.871582,4248.974121,4519.615234,4439.230957,4377.563965,4430.897461,6337.000000,3.000000,61.000000,,,,0.000000,4.000000,4.000000,4.000000,4.000000,4.000000,4.000000,4.000000,4.000000,4.000000,4.000000,4.000000,4.000000,4.000000,4.000000,100.000000,,,,,,,,,,,,,,,,,,,,,,,,,,,,
1703503718.153761,1703503718.154320,120.000000,0.000000,4284.230957,4282.820313,4325.512695,4175.512695,4262.051270,4245.897461,4276.538574,4256.025879,4261.538574,4249.871582,4525.512695,4452.436035,4378.846191,4435.000000,6841.000000,3.000000,61.000000,,,,0.000000,4.000000,4.000000,4.000000,4.000000,4.000000,4.000000,4.000000,4.000000,4.000000,4.000000,4.000000,4.000000,4.000000,4.000000,100.000000,,,,,,,,,,,,,,,,,30.000000,0.000000,0.466735,0.538269,-0.443787,0.543579,0.998657,0.011232,0.013674,-15.095047,-34.341885,59.126423
1703503718.161569,1703503718.162128,121.000000,0.000000,4281.282227,4281.666504,4330.000000,4185.384766,4262.563965,4248.589844,4280.128418,4262.563965,4260.512695,4248.589844,4527.307617,4457.948730,4375.769043,4433.205078,7232.000000,3.000000,61.000000,,,,0.000000,4.000000,4.000000,4.000000,4.000000,4.000000,4.000000,4.000000,4.000000,4.000000,4.000000,4.000000,4.000000,4.000000,4.000000,100.000000,,,,,,,,,,,,,,,,,,,,,,,,,,,,
1703503718.169377,1703503718.169836,122.000000,0.000000,4278.333496,4278.205078,4328.846191,4185.000000,4256.922852,4249.871582,4281.282227,4263.846191,4258.333496,4243.974121,4523.077148,4450.512695,4369.743652,4430.000000,6055.000000,3.000000,61.000000,,,,0.000000,4.000000,4.000000,4.000000,4.000000,4.000000,4.000000,4.000000,4.000000,4.000000,4.000000,4.000000,4.000000,4.000000,4.000000,100.000000,,,,,,,,,,,,,,,,,,,,,,,,,,,,
1703503718.177185,1703503718.177644,123.000000,0.000000,4277.692383,4277.436035,4335.000000,4182.307617,4253.589844,4256.538574,4282.307617,4260.000000,4250.000000,4243.205078,4515.641113,4444.102539,4363.077148,4427.948730,6337.000000,3.000000,61.000000,,,,0.000000,4.000000,4.000000,4.000000,4.000000,4.000000,4.000000,4.000000,4.000000,4.000000,4.000000,4.000000,4.000000,4.000000,4.000000,100.000000,,,,,,,,,,,,,,,,,,,,,,,,,,,,
1703503718.184993,1703503718.185352,124.000000,0.000000,4285.384766,4283.974121,4351.153809,4189.615234,4261.794922,4263.717773,4289.102539,4260.128418,4247.563965,4245.256348,4511.922852,4446.538574,4362.179688,4431.025879,6841.000000,3.000000,61.000000,,,,0.000000,4.000000,4.000000,4.000000,4.000000,4.000000,4.000000,4.000000,4.000000,4.000000,4.000000,4.000000,4.000000,4.000000,4.000000,100.000000,,,,,,,,,,,,,,,,,31.000000,0.000000,0.466781,0.538391,-0.443665,0.543518,0.990844,0.008790,0.030277,-15.002209,-34.274364,59.113781
1703503718.192801,1703503718.193260,125.000000,0.000000,4293.333496,4292.179688,4362.436035,4197.436035,4265.769043,4262.051270,4290.897461,4263.461426,4250.256348,4240.256348,4512.307617,4449.615234,4362.307617,4431.666504,7232.000000,3.000000,61.000000,,,,0.000000,4.000000,4.000000,4.000000,4.000000,4.000000,4.000000,4.000000,4.000000,4.000000,4.000000,4.000000,4.000000,4.000000,4.000000,100.000000,,,,,,,,,,,,,,,,,,,,,,,,,,,,
1703503718.200609,1703503718.201067,126.000000,0.000000,4287.948730,4288.461426,4359.871582,4199.487305,4257.436035,4258.333496,4283.461426,4263.333496,4251.666504,4242.563965,4515.512695,4448.333496,4363.333496,4428.717773,6055.000000,3.000000,61.000000,,,,0.000000,4.000000,4.000000,4.000000,4.000000,4.000000,4.000000,4.000000,4.000000,4.000000,4.000000,4.000000,4.000000,4.000000,4.000000,100.000000,,,,,,,,,,,,,,,,,,,,,,,,,,,,
1703503718.208417,1703503718.208975,127.000000,0.000000,4278.077148,4280.897461,4356.666504,4198.333496,4256.025879,4255.641113,4279.743652,4254.743652,4247.692383,4245.256348,4509.102539,4440.769043,4360.512695,4424.487305,61.000000,3.000000,61.000000,,,,0.000000,4.000000,4.000000,4.000000,4.000000,4.000000,4.000000,4.000000,4.000000,4.000000,4.000000,4.000000,4.000000,4.000000,4.000000,100.000000,,,,,,,,,,,,,,,,,,,,,,,,,,,,
1703503718.216225,1703503718.216783,0.000000,0.000000,4280.128418,4286.666504,4364.871582,4201.153809,4261.538574,4251.922852,4280.256348,4234.358887,4233.974121,4226.538574,4490.384766,4428.205078,4348.077148,4414.871582,5262.000000,3.000000,61.000000,,,,0.000000,4.000000,4.000000,4.000000,4.000000,4.000000,4.000000,4.000000,4.000000,4.000000,4.000000,4.000000,4.000000,4.000000,4.000000,100.000000,,,,,,,,,,,,,,,,,0.000000,0.000000,0.467066,0.538391,-0.443665,0.543274,0.998657,0.017580,0.025882,-15.068655,-34.313595,59.119068
1703503718.224033,1703503718.224691,1.000000,0.000000,4288.077148,4296.922852,4371.794922,4211.153809,4265.512695,4254.358887,4280.641113,4229.487305,4232.563965,4216.538574,4488.717773,4430.769043,4345.641113,4413.205078,5521.000000,3.000000,61.000000,,,,0.000000,4.000000,4.000000,4.000000,4.000000,4.000000,4.000000,4.000000,4.000000,4.000000,4.000000,4.000000,4.000000,4.000000,4.000000,100.000000,,,,,,,,,,,,,,,,,,,,,,,,,,,,
1703503718.231841,1703503718.232499,2.000000,0.000000,4290.384766,4297.820313,4375.256348,4219.615234,4266.666504,4259.743652,4284.871582,4241.666504,4242.820313,4231.538574,4504.615234,4443.589844,4358.589844,4426.410156,5397.000000,3.000000,61.000000,,,,0.000000,4.000000,4.000000,4.000000,4.000000,4.000000,4.000000,4.000000,4.000000,4.000000,4.000000,4.000000,4.000000,4.000000,4.000000,100.000000,,,,,,,,,,,,,,,,,,,,,,,,,,,,
1703503718.239649,1703503718.240407,3.000000,0.000000,4291.410156,4296.794922,4380.769043,4219.102539,4264.615234,4260.256348,4288.717773,4248.974121,4249.358887,4243.846191,4513.974121,4451.282227,4365.897461,4435.897461,5377.000000,3.000000,61.000000,,,,0.000000,4.000000,4.000000,4.000000,4.000000,4.000000,4.000000,4.000000,4.000000,4.000000,4.000000,4.000000,4.000000,4.000000,4.000000,100.000000,,,,,,,,,,,,,,,,,,,,,,,,,,,,
1703503718.247457,1703503718.248215,4.000000,0.000000,4293.077148,4297.436035,4387.051270,4217.051270,4265.769043,4258.461426,4291.025879,4256.153809,4252.820313,4244.230957,4517.051270,4459.487305,4367.820313,4437.563965,5308.000000,3.000000,61.000000,,,,0.000000,4.000000,4.000000,4.000000,4.000000,4.000000,4.000000,4.000000,4.000000,4.000000,4.000000,4.000000,4.000000,4.000000,4.000000,100.000000,,,,,,,,,,,,,,,,,1.000000,0.000000,0.467162,0.538391,-0.443787,0.543091,0.991332,0.018069,0.023929,-15.061790,-34.332233,59.307159
1703503718.255265,1703503718.255923,5.000000,0.000000,4295.769043,4296.153809,4395.384766,4227.948730,4266.794922,4254.615234,4289.615234,4264.102539,4252.948730,4241.538574,4520.384766,4468.205078,4369.615234,4442.820313,4961.000000,3.000000,61.000000,,,,0.000000,4.000000,4.000000,4.000000,4.000000,4.000000,4.000000,4.000000,4.000000,4.000000,4.000000,4.000000,4.000000,4.000000,4.000000,100.000000,,,,,,,,,,,,,,,,,,,,,,,,,,,,
1703503718.263073,1703503718.263731,6.000000,0.000000,4295.000000,4295.512695,4395.128418,4232.436035,4265.256348,4254.615234,4284.615234,4269.230957,4258.589844,4251.282227,4528.205078,4473.974121,4375.641113,4449.615234,3924.000000,3.000000,61.000000,,,,0.000000,4.000000,4.000000,4.000000,4.000000,4.000000,4.000000,4.000000,4.000000,4.000000,4.000000,4.000000,4.000000,4.000000,4.000000,100.000000,,,,,,,,,,,,,,,,,,,,,,,,,,,,
1703503718.270881,1703503718.271439,7.000000,0.000000,4285.384766,4286.922852,4383.461426,4219.743652,4263.077148,4261.282227,4288.333496,4277.948730,4270.256348,4263.589844,4535.769043,4474.615234,4382.179688,4445.512695,5036.000000,3.000000,61.000000,,,,0.000000,4.000000,4.000000,4.000000,4.000000,4.000000,4.000000,4.000000,4.000000,4.000000,4.000000,4.000000,4.000000,4.000000,4.000000,100.000000,,,,,,,,,,,,,,,,,,,,,,,,,,,,
1703503718.278690,1703503718.279247,8.000000,0.000000,4280.256348,4277.051270,4383.077148,4219.230957,4261.922852,4263.333496,4294.102539,4282.563965,4269.615234,4253.333496,4529.615234,4469.102539,4378.974121,4440.512695,5011.000000,3.000000,61.000000,,,,0.000000,4.000000,4.000000,4.000000,4.000000,4.000000,4.000000,4.000000,4.000000,4.000000,4.000000,4.000000,4.000000,4.000000,4.000000,100.000000,,,,,,,,,,,,,,,,,2.000000,0.000000,0.467387,0.538269,-0.443848,0.542969,0.990844,0.012209,0.032230,-15.172277,-34.415676,59.326447
1703503718.286497,1703503718.286955,9.000000,0.000000,4289.230957,4285.256348,4394.743652,4232.179688,4263.974121,4259.102539,4293.077148,4279.358887,4264.102539,4248.717773,4529.871582,4471.410156,4383.077148,4452.051270,5484.000000,3.000000,61.000000,,,,0.000000,4.000000,4.000000,4.000000,4.000000,4.000000,4.000000,4.000000,4.000000,4.000000,4.000000,4.000000,4.000000,4.000000,4.000000,100.000000,,,,,,,,,,,,,,,,,,,,,,,,,,,,
1703503718.294306,1703503718.294763,10.000000,0.000000,4293.333496,4292.563965,4398.974121,4237.051270,4263.589844,4258.589844,4292.051270,4280.897461,4275.769043,4267.436035,4543.333496,4482.436035,4394.871582,4462.436035,6050.000000,3.000000,61.000000,,,,0.000000,4.000000,4.000000,4.000000,4.000000,4.000000,4.000000,4.000000,4.000000,4.000000,4.000000,4.000000,4.000000,4.000000,4.000000,100.000000,,,,,,,,,,,,,,,,,,,,,,,,,,,,
1703503718.302114,1703503718.302471,11.000000,0.000000,4283.461426,4283.333496,4388.461426,4238.846191,4264.358887,4258.974121,4289.230957,4278.461426,4282.948730,4272.436035,4543.333496,4476.666504,4396.025879,4452.307617,6325.000000,3.000000,61.000000,,,,0.000000,4.000000,4.000000,4.000000,4.000000,4.000000,4.000000,4.000000,4.000000,4.000000,4.000000,4.000000,4.000000,4.000000,4.000000,100.000000,,,,,,,,,,,,,,,,,,,,,,,,,,,,
1703503718.309922,1703503718.310279,12.000000,0.000000,4278.333496,4276.922852,4378.589844,4244.230957,4268.846191,4253.846191,4285.128418,4264.743652,4267.820313,4260.384766,4530.256348,4461.538574,4388.589844,4443.205078,6836.000000,3.000000,61.000000,,,,0.000000,4.000000,4.000000,4.000000,4.000000,4.000000,4.000000,4.000000,4.000000,4.000000,4.000000,4.000000,4.000000,4.000000,4.000000,100.000000,,,,,,,,,,,,,,,,,3.000000,0.000000,0.467283,0.538208,-0.444031,0.542969,0.982053,0.022464,0.026370,-15.105049,-34.340778,59.293800
1703503718.317730,1703503718.317987,13.000000,0.000000,4282.820313,4287.051270,4374.615234,4244.358887,4272.692383,4250.000000,4284.487305,4254.358887,4258.589844,4253.205078,4524.487305,4456.282227,4383.717773,4444.487305,7232.000000,3.000000,61.000000,,,,0.000000,4.000000,4.000000,4.000000,4.000000,4.000000,4.000000,4.000000,4.000000,4.000000,4.000000,4.000000,4.000000,4.000000,4.000000,100.000000,,,,,,,,,,,,,,,,,,,,,,,,,,,,
1703503718.325538,1703503718.325795,14.000000,0.000000,4280.769043,4291.282227,4364.102539,4246.666504,4273.205078,4250.641113,4280.769043,4250.897461,4262.692383,4249.102539,4524.743652,4450.384766,4384.615234,4443.077148,6050.000000,3.000000,61.000000,,,,0.000000,4.000000,4.000000,4.000000,4.000000,4.000000,4.000000,4.000000,4.000000,4.000000,4.000000,4.000000,4.000000,4.000000,4.000000,100.000000,,,,,,,,,,,,,,,,,,,,,,,,,,,,
1703503718.333346,1703503718.333503,15.000000,0.000000,4275.769043,4284.615234,4360.000000,4251.922852,4271.922852,4251.025879,4276.410156,4247.820313,4257.948730,4246.025879,4520.384766,4444.487305,4386.153809,4441.666504,6325.000000,3.000000,61.000000,,,,0.000000,4.000000,4.000000,4.000000,4.000000,4.000000,4.000000,4.000000,4.000000,4.000000,4.000000,4.000000,4.000000,4.000000,4.000000,100.000000,,,,,,,,,,,,,,,,,,,,,,,,,,,,
1703503718.341154,1703503718.341311,16.000000,0.000000,4279.230957,4286.922852,4368.846191,4251.153809,4274.358887,4248.846191,4277.307617,4246.922852,4250.256348,4246.538574,4516.538574,4452.436035,4382.948730,4443.333496,0.000000,3.000000,61.000000,,,,0.000000,4.000000,4.000000,4.000000,4.000000,4.000000,4.000000,4.000000,4.000000,4.000000,4.000000,4.000000,4.000000,4.000000,4.000000,100.000000,,,,,,,,,,,,,,,,,4.000000,0.000000,0.467143,0.538330,-0.444031,0.542969,0.991820,0.016115,0.021487,-15.027878,-34.340031,59.364422
1703503718.348962,1703503718.349019,17.000000,0.000000,4280.256348,4288.974121,4366.794922,4248.077148,4275.000000,4250.000000,4277.692383,4252.692383,4258.205078,4242.563965,4519.358887,4460.769043,4378.846191,4442.692383,0.000000,3.000000,61.000000,,,,0.000000,4.000000,4.000000,4.000000,4.000000,4.000000,4.000000,4.000000,4.000000,4.000000,4.000000,4.000000,4.000000,4.000000,4.000000,100.000000,,,,,,,,,,,,,,,,,,,,,,,,,,,,
1703503718.356770,1703503718.356927,18.000000,0.000000,4277.051270,4282.051270,4360.769043,4251.025879,4268.077148,4251.153809,4280.000000,4259.871582,4264.871582,4242.436035,4524.487305,4459.487305,4381.282227,4442.948730,0.000000,3.000000,61.000000,,,,0.000000,4.000000,4.000000,4.000000,4.000000,4.000000,4.000000,4.000000,4.000000,4.000000,4.000000,4.000000,4.000000,4.000000,4.000000,100.000000,,,,,,,,,,,,,,,,,,,,,,,,,,,,
1703503718.364578,1703503718.364735,19.000000,0.000000,4279.871582,4281.794922,4364.615234,4255.256348,4262.820313,4250.384766,4281.794922,4266.666504,4264.487305,4255.256348,4530.769043,4464.102539,4386.922852,4444.871582,0.000000,3.000000,61.000000,,,,0.000000,4.000000,4.000000,4.000000,4.000000,4.000000,4.000000,4.000000,4.000000,4.000000,4.000000,4.000000,4.000000,4.000000,4.000000,100.000000,,,,,,,,,,,,,,,,,,,,,,,,,,,,
1703503718.372386,1703503718.372643,20.000000,0.000000,4274.743652,4280.256348,4365.128418,4251.153809,4261.922852,4253.717773,4281.922852,4273.333496,4270.384766,4258.846191,4530.897461,4468.077148,4385.000000,4440.128418,0.000000,3.000000,61.000000,,,,0.000000,4.000000,4.000000,4.000000,4.000000,4.000000,4.000000,4.000000,4.000000,4.000000,4.000000,4.000000,4.000000,4.000000,4.000000,100.000000,,,,,,,,,,,,,,,,,5.000000,0.000000,0.467003,0.538513,-0.444031,0.542908,0.998169,0.027347,0.022464,-14.858423,-34.272697,59.394646
1703503718.380194,1703503718.380451,21.000000,0.000000,4261.794922,4271.153809,4358.974121,4248.333496,4263.589844,4258.974121,4287.051270,4276.410156,4276.794922,4251.282227,4523.717773,4463.974121,4376.922852,4436.025879,0.000000,3.000000,61.000000,,,,0.000000,4.000000,4.000000,4.000000,4.000000,4.000000,4.000000,4.000000,4.000000,4.000000,4.000000,4.000000,4.000000,4.000000,4.000000,100.000000,,,,,,,,,,,,,,,,,,,,,,,,,,,,
1703503718.388002,1703503718.388359,22.000000,0.000000,4262.948730,4274.743652,4361.282227,4260.128418,4270.000000,4263.974121,4291.153809,4276.922852,4277.179688,4255.384766,4528.589844,4466.153809,4379.487305,4445.000000,0.000000,3.000000,61.000000,,,,0.000000,4.000000,4.000000,4.000000,4.000000,4.000000,4.000000,4.000000,4.000000,4.000000,4.000000,4.000000,4.000000,4.000000,4.000000,100.000000,,,,,,,,,,,,,,,,,,,,,,,,,,,,
1703503718.395810,1703503718.396167,23.000000,0.000000,4273.846191,4282.948730,4366.410156,4268.077148,4270.384766,4263.333496,4287.179688,4273.974121,4271.794922,4259.358887,4533.461426,4467.948730,4384.102539,4447.948730,0.000000,3.000000,61.000000,,,,0.000000,4.000000,4.000000,4.000000,4.000000,4.000000,4.000000,4.000000,4.000000,4.000000,4.000000,4.000000,4.000000,4.000000,4.000000,100.000000,,,,,,,,,,,,,,,,,,,,,,,,,,,,
1703503718.403618,1703503718.404075,24.000000,0.000000,4274.102539,4276.410156,4364.102539,4263.717773,4263.205078,4254.358887,4281.410156,4267.051270,4266.538574,4250.769043,4522.563965,4464.358887,4377.692383,4439.487305,0.000000,3.000000,61.000000,,,,0.000000,4.000000,4.000000,4.000000,4.000000,4.000000,4.000000,4.000000,4.000000,4.000000,4.000000,4.000000,4.000000,4.000000,4.000000,100.000000,,,,,,,,,,,,,,,,,6.000000,0.000000,0.466886,0.538452,-0.444153,0.542969,0.999145,0.011232,0.022952,-14.739247,-34.212093,59.555180
1703503718.411426,1703503718.411883,25.000000,0.000000,4273.461426,4274.743652,4361.666504,4267.307617,4263.974121,4248.717773,4282.820313,4261.794922,4266.538574,4248.077148,4523.974121,4470.128418,4376.282227,4439.615234,0.000000,3.000000,61.000000,,,,0.000000,4.000000,4.000000,4.000000,4.000000,4.000000,4.000000,4.000000,4.000000,4.000000,4.000000,4.000000,4.000000,4.000000,4.000000,100.000000,,,,,,,,,,,,,,,,,,,,,,,,,,,,
1703503718.419234,1703503718.419791,26.000000,0.000000,4286.794922,4284.230957,4368.974121,4282.051270,4268.077148,4251.153809,4284.871582,4262.436035,4265.897461,4251.538574,4538.077148,4479.358887,4384.871582,4449.358887,0.000000,3.000000,61.000000,,,,0.000000,4.000000,4.000000,4.000000,4.000000,4.000000,4.000000,4.000000,4.000000,4.000000,4.000000,4.000000,4.000000,4.000000,4.000000,100.000000,,,,,,,,,,,,,,,,,,,,,,,,,,,,
1703503718.427042,1703503718.427599,27.000000,0.000000,4300.000000,4294.615234,4380.641113,4293.846191,4270.256348,4249.743652,4280.641113,4263.589844,4267.436035,4258.589844,4542.179688,4481.025879,4394.487305,4459.871582,0.000000,3.000000,61.000000,,,,0.000000,4.000000,4.000000,4.000000,4.000000,4.000000,4.000000,4.000000,4.000000,4.000000,4.000000,4.000000,4.000000,4.000000,4.000000,100.000000,,,,,,,,,,,,,,,,,,,,,,,,,,,,
1703503718.434851,1703503718.435506,28.000000,0.000000,4294.230957,4297.179688,4377.563965,4295.128418,4274.615234,4248.461426,4277.692383,4262.051270,4270.384766,4266.153809,4536.538574,4476.794922,4394.230957,4460.256348,0.000000,3.000000,61.000000,,,,0.000000,4.000000,4.000000,4.000000,4.000000,4.000000,4.000000,4.000000,4.000000,4.000000,4.000000,4.000000,4.000000,4.000000,4.000000,100.000000,,,,,,,,,,,,,,,,,7.000000,0.000000,0.466956,0.538391,-0.444153,0.542969,0.985960,0.016604,0.021975,-14.748656,-34.307549,59.266331
1703503718.442659,1703503718.443314,29.000000,0.000000,4282.563965,4287.948730,4362.820313,4292.436035,4278.589844,4258.333496,4279.743652,4259.615234,4265.256348,4256.153809,4525.384766,4465.641113,4381.282227,4447.692383,0.000000,3.000000,61.000000,,,,0.000000,4.000000,4.000000,4.000000,4.000000,4.000000,4.000000,4.000000,4.000000,4.000000,4.000000,4.000000,4.000000,4.000000,4.000000,100.000000,,,,,,,,,,,,,,,,,,,,,,,,,,,,
1703503718.450467,1703503718.451022,30.000000,0.000000,4277.436035,4280.384766,4355.000000,4294.230957,4281.025879,4265.641113,4284.487305,4259.871582,4259.871582,4242.307617,4519.615234,4455.512695,4371.666504,4437.436035,0.000000,3.000000,61.000000,,,,0.000000,4.000000,4.000000,4.000000,4.000000,4.000000,4.000000,4.000000,4.000000,4.000000,4.000000,4.000000,4.000000,4.000000,4.000000,100.000000,,,,,,,,,,,,,,,,,,,,,,,,,,,,
1703503718.458275,1703503718.458830,31.000000,0.000000,4269.743652,4279.230957,4355.000000,4294.615234,4278.589844,4263.461426,4289.871582,4264.871582,4263.077148,4243.974121,4522.563965,4456.025879,4373.589844,4433.974121,0.000000,3.000000,61.000000,,,,0.000000,4.000000,4.000000,4.000000,4.000000,4.000000,4.000000,4.000000,4.000000,4.000000,4.000000,4.000000,4.000000,4.000000,4.000000,100.000000,,,,,,,,,,,,,,,,,,,,,,,,,,,,
1703503718.466083,1703503718.466538,32.000000,0.000000,4262.307617,4274.743652,4347.051270,4288.205078,4273.974121,4263.717773,4290.641113,4268.205078,4266.922852,4251.922852,4524.358887,4459.871582,4376.794922,4432.948730,0.000000,3.000000,61.000000,,,,0.000000,4.000000,4.000000,4.000000,4.000000,4.000000,4.000000,4.000000,4.000000,4.000000,4.000000,4.000000,4.000000,4.000000,4.000000,100.000000,,,,,,,,,,,,,,,,,8.000000,0.000000,0.466898,0.538391,-0.444214,0.542969,0.999634,0.008790,0.017092,-14.723790,-34.460129,59.156364
1703503718.473891,1703503718.474346,33.000000,0.000000,4264.102539,4269.230957,4330.897461,4285.000000,4274.487305,4265.769043,4290.384766,4266.538574,4264.358887,4247.948730,4517.051270,4456.538574,4370.769043,4430.641113,0.000000,3.000000,61.000000,,,,0.000000,4.000000,4.000000,4.000000,4.000000,4.000000,4.000000,4.000000,4.000000,4.000000,4.000000,4.000000,4.000000,4.000000,4.000000,100.000000,1.000000,91.666664,4.000000,4.000000,4.000000,3.000000,4.000000,4.000000,4.000000,4.000000,4.000000,4.000000,4.000000,4.000000,4.000000,4.000000,,,,,,,,,,,,
1703503718.481699,1703503718.482055,34.000000,0.000000,4263.974121,4267.692383,4323.846191,4291.025879,4274.102539,4263.461426,4288.717773,4262.051270,4257.692383,4236.794922,4506.538574,4450.641113,4359.102539,4424.102539,0.000000,3.000000,61.000000,,,,0.000000,4.000000,4.000000,4.000000,4.000000,4.000000,4.000000,4.000000,4.000000,4.000000,4.000000,4.000000,4.000000,4.000000,4.000000,100.000000,,,,,,,,,,,,,,,,,,,,,,,,,,,,
1703503718.489507,1703503718.489963,35.000000,0.000000,4261.025879,4265.000000,4326.153809,4293.333496,4272.820313,4262.820313,4284.230957,4263.974121,4260.384766,4239.871582,4511.282227,4457.820313,4363.589844,4427.820313,0.000000,3.000000,61.000000,,,,0.000000,4.000000,4.000000,4.000000,4.000000,4.000000,4.000000,4.000000,4.000000,4.000000,4.000000,4.000000,4.000000,4.000000,4.000000,100.000000,,,,,,,,,,,,,,,,,,,,,,,,,,,,
1703503718.497315,1703503718.497771,36.000000,0.000000,4270.256348,4266.282227,4333.461426,4295.256348,4275.512695,4264.871582,4287.307617,4270.512695,4266.794922,4249.615234,4523.974121,4474.743652,4378.846191,4441.410156,0.000000,3.000000,61.000000,,,,0.000000,4.000000,4.000000,4.000000,4.000000,4.000000,4.000000,4.000000,4.000000,4.000000,4.000000,4.000000,4.000000,4.000000,4.000000,100.000000,,,,,,,,,,,,,,,,,9.000000,0.000000,0.466969,0.538330,-0.444214,0.542969,1.000610,0.003907,0.028324,-14.768078,-34.280781,59.024059
1703503718.505123,1703503718.505679,37.000000,0.000000,4282.436035,4276.153809,4343.077148,4305.128418,4278.205078,4263.717773,4288.846191,4268.589844,4266.538574,4253.333496,4526.666504,4484.871582,4385.897461,4450.641113,0.000000,3.000000,61.000000,,,,0.000000,4.000000,4.000000,4.000000,4.000000,4.000000,4.000000,4.000000,4.000000,4.000000,4.000000,4.000000,4.000000,4.000000,4.000000,100.000000,,,,,,,,,,,,,,,,,,,,,,,,,,,,
1703503718.512931,1703503718.513487,38.000000,0.000000,4281.538574,4279.743652,4345.512695,4311.922852,4276.153809,4261.282227,4279.615234,4265.000000,4268.717773,4257.051270,4528.717773,4487.307617,4388.974121,4457.179688,0.000000,3.000000,61.000000,,,,0.000000,4.000000,4.000000,4.000000,4.000000,4.000000,4.000000,4.000000,4.000000,4.000000,4.000000,4.000000,4.000000,4.000000,4.000000,100.000000,,,,,,,,,,,,,,,,,,,,,,,,,,,,
1703503718.520739,1703503718.521295,39.000000,0.000000,4282.051270,4276.922852,4342.948730,4311.410156,4275.000000,4260.256348,4276.538574,4271.922852,4275.641113,4266.410156,4538.717773,4490.000000,4396.153809,4460.897461,0.000000,3.000000,61.000000,,,,0.000000,4.000000,4.000000,4.000000,4.000000,4.000000,4.000000,4.000000,4.000000,4.000000,4.000000,4.000000,4.000000,4.000000,4.000000,100.000000,,,,,,,,,,,,,,,,,,,,,,,,,,,,
1703503718.528547,1703503718.529003,40.000000,0.000000,4287.692383,4279.743652,4344.743652,4311.794922,4278.717773,4260.512695,4281.666504,4282.307617,4285.128418,4279.230957,4551.282227,4496.410156,4408.205078,4469.102539,0.000000,3.000000,61.000000,,,,0.000000,4.000000,4.000000,4.000000,4.000000,4.000000,4.000000,4.000000,4.000000,4.000000,4.000000,4.000000,4.000000,4.000000,4.000000,100.000000,,,,,,,,,,,,,,,,,10.000000,0.000000,0.466819,0.538208,-0.444519,0.542969,1.004029,0.015627,0.019045,-14.791270,-34.269371,59.088322
1703503718.536355,1703503718.536811,41.000000,0.000000,4286.025879,4280.128418,4343.589844,4311.153809,4277.051270,4260.769043,4281.410156,4282.563965,4286.153809,4280.128418,4549.358887,4494.743652,4411.025879,4475.128418,0.000000,3.000000,61.000000,,,,0.000000,4.000000,4.000000,4.000000,4.000000,4.000000,4.000000,4.000000,4.000000,4.000000,4.000000,4.000000,4.000000,4.000000,4.000000,100.000000,,,,,,,,,,,,,,,,,,,,,,,,,,,,
1703503718.544163,1703503718.544519,42.000000,0.000000,4280.128418,4271.282227,4333.333496,4308.589844,4272.820313,4260.512695,4278.717773,4278.846191,4276.410156,4266.794922,4529.871582,4480.128418,4395.641113,4458.589844,0.000000,3.000000,61.000000,,,,0.000000,4.000000,4.000000,4.000000,4.000000,4.000000,4.000000,4.000000,4.000000,4.000000,4.000000,4.000000,4.000000,4.000000,4.000000,100.000000,,,,,,,,,,,,,,,,,,,,,,,,,,,,
1703503718.551971,1703503718.552327,43.000000,0.000000,4274.230957,4263.205078,4324.358887,4308.333496,4271.666504,4260.641113,4277.948730,4278.846191,4271.922852,4260.512695,4520.000000,4471.922852,4384.615234,4440.512695,0.000000,3.000000,61.000000,,,,0.000000,4.000000,4.000000,4.000000,4.000000,4.000000,4.000000,4.000000,4.000000,4.000000,4.000000,4.000000,4.000000,4.000000,4.000000,100.000000,,,,,,,,,,,,,,,,,,,,,,,,,,,,
1703503718.559779,1703503718.560035,44.000000,0.000000,4268.077148,4259.230957,4325.128418,4304.487305,4268.589844,4260.897461,4277.436035,4273.333496,4270.256348,4256.025879,4519.615234,4469.871582,4382.563965,4442.179688,0.000000,3.000000,61.000000,,,,0.000000,4.000000,4.000000,4.000000,4.000000,4.000000,4.000000,4.000000,4.000000,4.000000,4.000000,4.000000,4.000000,4.000000,4.000000,100.000000,,,,,,,,,,,,,,,,,11.000000,0.000000,0.466503,0.538269,-0.444702,0.543030,1.004029,0.013674,0.020022,-14.895476,-34.292435,59.029488
1703503718.567588,1703503718.567843,45.000000,0.000000,4265.128418,4262.948730,4326.410156,4301.153809,4270.000000,4261.282227,4278.333496,4263.974121,4263.077148,4248.077148,4513.846191,4466.794922,4379.487305,4444.102539,0.000000,3.000000,61.000000,,,,0.000000,4.000000,4.000000,4.000000,4.000000,4.000000,4.000000,4.000000,4.000000,4.000000,4.000000,4.000000,4.000000,4.000000,4.000000,100.000000,,,,,,,,,,,,,,,,,,,,,,,,,,,,
1703503718.575395,1703503718.575551,46.000000,0.000000,4268.333496,4267.436035,4322.051270,4308.077148,4278.589844,4259.615234,4279.615234,4262.820313,4260.897461,4253.461426,4513.589844,4470.256348,4380.641113,4440.256348,0.000000,3.000000,61.000000,,,,0.000000,4.000000,4.000000,4.000000,4.000000,4.000000,4.000000,4.000000,4.000000,4.000000,4.000000,4.000000,4.000000,4.000000,4.000000,100.000000,,,,,,,,,,,,,,,,,,,,,,,,,,,,
1703503718.583203,1703503718.583459,47.000000,0.000000,4276.153809,4268.846191,4326.025879,4321.153809,4281.794922,4261.025879,4280.512695,4265.000000,4265.641113,4261.282227,4522.307617,4474.743652,4389.487305,4446.153809,0.000000,3.000000,61.000000,,,,0.000000,4.000000,4.000000,4.000000,4.000000,4.000000,4.000000,4.000000,4.000000,4.000000,4.000000,4.000000,4.000000,4.000000,4.000000,100.000000,,,,,,,,,,,,,,,,,,,,,,,,,,,,
1703503718.591012,1703503718.591267,48.000000,0.000000,4282.307617,4272.820313,4335.512695,4326.410156,4279.615234,4262.179688,4278.077148,4265.897461,4270.512695,4262.307617,4530.512695,4480.128418,4400.128418,4457.563965,0.000000,3.000000,61.000000,,,,0.000000,4.000000,4.000000,4.000000,4.000000,4.000000,4.000000,4.000000,4.000000,4.000000,4.000000,4.000000,4.000000,4.000000,4.000000,100.000000,,,,,,,,,,,,,,,,,12.000000,0.000000,0.466479,0.538391,-0.444580,0.543030,0.980100,0.010255,0.032719,-14.989263,-34.313190,59.059872
1703503718.598820,1703503718.599175,49.000000,0.000000,4281.922852,4272.307617,4334.487305,4322.820313,4279.230957,4254.743652,4275.384766,4271.153809,4275.000000,4264.615234,4536.666504,4487.692383,4404.358887,4463.461426,0.000000,3.000000,61.000000,,,,0.000000,4.000000,4.000000,4.000000,4.000000,4.000000,4.000000,4.000000,4.000000,4.000000,4.000000,4.000000,4.000000,4.000000,4.000000,100.000000,,,,,,,,,,,,,,,,,,,,,,,,,,,,
1703503718.606628,1703503718.606983,50.000000,0.000000,4280.641113,4266.410156,4328.461426,4322.307617,4278.461426,4251.922852,4275.256348,4276.922852,4276.410156,4266.794922,4538.717773,4487.051270,4403.461426,4462.436035,0.000000,3.000000,61.000000,,,,0.000000,4.000000,4.000000,4.000000,4.000000,4.000000,4.000000,4.000000,4.000000,4.000000,4.000000,4.000000,4.000000,4.000000,4.000000,100.000000,,,,,,,,,,,,,,,,,,,,,,,,,,,,
1703503718.614436,1703503718.614890,51.000000,0.000000,4279.743652,4265.384766,4325.000000,4326.538574,4278.077148,4260.256348,4277.820313,4279.743652,4274.358887,4266.922852,4537.563965,4482.436035,4406.538574,4460.128418,0.000000,3.000000,61.000000,,,,0.000000,4.000000,4.000000,4.000000,4.000000,4.000000,4.000000,4.000000,4.000000,4.000000,4.000000,4.000000,4.000000,4.000000,4.000000,100.000000,,,,,,,,,,,,,,,,,,,,,,,,,,,,
1703503718.622244,1703503718.622698,52.000000,0.000000,4278.333496,4266.538574,4325.769043,4331.922852,4278.974121,4263.717773,4279.871582,4279.871582,4274.230957,4268.333496,4539.487305,4488.974121,4409.743652,4460.641113,0.000000,3.000000,61.000000,,,,0.000000,4.000000,4.000000,4.000000,4.000000,4.000000,4.000000,4.000000,4.000000,4.000000,4.000000,4.000000,4.000000,4.000000,4.000000,100.000000,,,,,,,,,,,,,,,,,13.000000,0.000000,0.466557,0.538513,-0.444275,0.543091,1.012819,0.005372,0.018069,-14.940336,-34.381870,59.053886
1703503718.630052,1703503718.630606,53.000000,0.000000,4280.000000,4267.820313,4326.282227,4338.077148,4278.974121,4263.077148,4279.487305,4281.922852,4281.025879,4272.307617,4545.128418,4500.256348,4409.615234,4466.922852,0.000000,3.000000,61.000000,,,,0.000000,4.000000,4.000000,4.000000,4.000000,4.000000,4.000000,4.000000,4.000000,4.000000,4.000000,4.000000,4.000000,4.000000,4.000000,100.000000,,,,,,,,,,,,,,,,,,,,,,,,,,,,
1703503718.637860,1703503718.638414,54.000000,0.000000,4281.922852,4272.563965,4325.897461,4342.307617,4281.794922,4270.769043,4284.615234,4287.692383,4288.974121,4280.512695,4550.384766,4502.692383,4412.179688,4471.794922,0.000000,3.000000,61.000000,,,,0.000000,4.000000,4.000000,4.000000,4.000000,4.000000,4.000000,4.000000,4.000000,4.000000,4.000000,4.000000,4.000000,4.000000,4.000000,100.000000,,,,,,,,,,,,,,,,,,,,,,,,,,,,
1703503718.645668,1703503718.646322,55.000000,0.000000,4280.769043,4274.871582,4323.846191,4342.307617,4283.077148,4275.000000,4288.077148,4285.128418,4284.487305,4282.307617,4547.307617,4497.179688,4411.794922,4466.153809,0.000000,3.000000,61.000000,,,,0.000000,4.000000,4.000000,4.000000,4.000000,4.000000,4.000000,4.000000,4.000000,4.000000,4.000000,4.000000,4.000000,4.000000,4.000000,100.000000,,,,,,,,,,,,,,,,,,,,,,,,,,,,
1703503718.653476,1703503718.654130,56.000000,0.000000,4279.615234,4270.256348,4319.358887,4345.384766,4280.384766,4266.922852,4282.948730,4278.717773,4276.025879,4272.436035,4537.820313,4492.692383,4404.230957,4460.128418,0.000000,3.000000,61.000000,,,,0.000000,4.000000,4.000000,4.000000,4.000000,4.000000,4.000000,4.000000,4.000000,4.000000,4.000000,4.000000,4.000000,4.000000,4.000000,100.000000,,,,,,,,,,,,,,,,,14.000000,0.000000,0.466648,0.538513,-0.444031,0.543213,1.000122,0.021975,0.019045,-14.946302,-34.477016,59.081829
1703503718.661284,1703503718.661838,57.000000,0.000000,4277.179688,4269.230957,4317.436035,4351.666504,4278.717773,4261.666504,4279.230957,4278.461426,4276.538574,4264.487305,4529.743652,4487.692383,4394.102539,4456.025879,0.000000,3.000000,61.000000,,,,0.000000,4.000000,4.000000,4.000000,4.000000,4.000000,4.000000,4.000000,4.000000,4.000000,4.000000,4.000000,4.000000,4.000000,4.000000,100.000000,,,,,,,,,,,,,,,,,,,,,,,,,,,,
1703503718.669092,1703503718.669646,58.000000,0.000000,4277.692383,4272.948730,4317.820313,4352.307617,4280.897461,4261.666504,4277.307617,4273.461426,4276.922852,4262.051270,4522.179688,4480.769043,4387.051270,4450.897461,0.000000,3.000000,61.000000,,,,0.000000,4.000000,4.000000,4.000000,4.000000,4.000000,4.000000,4.000000,4.000000,4.000000,4.000000,4.000000,4.000000,4.000000,4.000000,100.000000,,,,,,,,,,,,,,,,,,,,,,,,,,,,
1703503718.676900,1703503718.677354,59.000000,0.000000,4281.153809,4272.820313,4321.153809,4347.820313,4281.922852,4258.846191,4272.563965,4263.333496,4268.846191,4260.512695,4521.282227,4479.487305,4387.436035,4450.256348,0.000000,3.000000,61.000000,,,,0.000000,4.000000,4.000000,4.000000,4.000000,4.000000,4.000000,4.000000,4.000000,4.000000,4.000000,4.000000,4.000000,4.000000,4.000000,100.000000,,,,,,,,,,,,,,,,,,,,,,,,,,,,
1703503718.684708,1703503718.685162,60.000000,0.000000,4281.666504,4270.512695,4322.436035,4346.282227,4277.692383,4256.922852,4268.461426,4259.358887,4261.410156,4258.461426,4521.922852,4480.769043,4388.974121,4453.717773,0.000000,3.000000,61.000000,,,,0.000000,4.000000,4.000000,4.000000,4.000000,4.000000,4.000000,4.000000,4.000000,4.000000,4.000000,4.000000,4.000000,4.000000,4.000000,100.000000,,,,,,,,,,,,,,,,,15.000000,0.000000,0.466763,0.538452,-0.443909,0.543274,0.989379,0.013674,0.030277,-15.001672,-34.562649,59.106979
1703503718.692516,1703503718.692870,61.000000,0.000000,4279.871582,4272.563965,4318.974121,4349.487305,4280.897461,4260.769043,4267.563965,4262.948730,4266.282227,4260.641113,4521.538574,4482.436035,4392.179688,4457.307617,0.000000,3.000000,61.000000,,,,0.000000,4.000000,4.000000,4.000000,4.000000,4.000000,4.000000,4.000000,4.000000,4.000000,4.000000,4.000000,4.000000,4.000000,4.000000,100.000000,,,,,,,,,,,,,,,,,,,,,,,,,,,,
1703503718.700324,1703503718.700678,62.000000,0.000000,4280.128418,4272.051270,4317.820313,4351.153809,4284.615234,4262.179688,4270.641113,4271.922852,4275.000000,4265.256348,4529.230957,4491.025879,4398.461426,4462.179688,0.000000,3.000000,61.000000,,,,0.000000,4.000000,4.000000,4.000000,4.000000,4.000000,4.000000,4.000000,4.000000,4.000000,4.000000,4.000000,4.000000,4.000000,4.000000,100.000000,,,,,,,,,,,,,,,,,,,,,,,,,,,,
1703503718.708132,1703503718.708386,63.000000,0.000000,4281.666504,4266.410156,4317.307617,4350.000000,4283.461426,4260.769043,4277.051270,4279.743652,4277.563965,4266.025879,4537.563965,4493.717773,4398.333496,4462.563965,0.000000,3.000000,61.000000,,,,0.000000,4.000000,4.000000,4.000000,4.000000,4.000000,4.000000,4.000000,4.000000,4.000000,4.000000,4.000000,4.000000,4.000000,4.000000,100.000000,,,,,,,,,,,,,,,,,,,,,,,,,,,,
1703503718.715940,1703503718.716194,64.000000,0.000000,4278.333496,4263.205078,4311.794922,4348.589844,4285.512695,4264.358887,4279.871582,4281.025879,4281.538574,4271.794922,4540.000000,4488.461426,4398.717773,4459.230957,5260.000000,3.000000,61.000000,,,,0.000000,4.000000,4.000000,4.000000,4.000000,4.000000,4.000000,4.000000,4.000000,4.000000,4.000000,4.000000,4.000000,4.000000,4.000000,100.000000,,,,,,,,,,,,,,,,,16.000000,0.000000,0.466762,0.538391,-0.443909,0.543335,0.995239,0.022464,0.026859,-14.784839,-34.389717,59.129616
1703503718.723749,1703503718.723902,65.000000,0.000000,4275.256348,4263.077148,4307.436035,4348.589844,4285.769043,4266.794922,4280.384766,4281.794922,4284.743652,4279.615234,4535.641113,4485.897461,4399.487305,4456.794922,5516.000000,3.000000,61.000000,,,,0.000000,4.000000,4.000000,4.000000,4.000000,4.000000,4.000000,4.000000,4.000000,4.000000,4.000000,4.000000,4.000000,4.000000,4.000000,100.000000,,,,,,,,,,,,,,,,,,,,,,,,,,,,
1703503718.731557,1703503718.731810,66.000000,0.000000,4276.666504,4262.692383,4308.461426,4351.282227,4287.692383,4268.205078,4282.307617,4282.563965,4281.538574,4280.128418,4534.615234,4488.333496,4399.102539,4457.820313,5405.000000,3.000000,61.000000,,,,0.000000,4.000000,4.000000,4.000000,4.000000,4.000000,4.000000,4.000000,4.000000,4.000000,4.000000,4.000000,4.000000,4.000000,4.000000,100.000000,,,,,,,,,,,,,,,,,,,,,,,,,,,,
1703503718.739365,1703503718.739618,67.000000,0.000000,4278.333496,4263.717773,4312.948730,4355.897461,4293.333496,4274.743652,4285.769043,4279.358887,4278.717773,4271.794922,4535.000000,4495.256348,4402.948730,4464.615234,5379.000000,3.000000,61.000000,,,,0.000000,4.000000,4.000000,4.000000,4.000000,4.000000,4.000000,4.000000,4.000000,4.000000,4.000000,4.000000,4.000000,4.000000,4.000000,100.000000,,,,,,,,,,,,,,,,,,,,,,,,,,,,
1703503718.747173,1703503718.747526,68.000000,0.000000,4287.307617,4269.230957,4317.051270,4357.692383,4295.000000,4278.205078,4287.692383,4278.077148,4276.153809,4267.436035,4529.102539,4496.538574,4401.794922,4465.769043,5307.000000,3.000000,61.000000,,,,0.000000,4.000000,4.000000,4.000000,4.000000,4.000000,4.000000,4.000000,4.000000,4.000000,4.000000,4.000000,4.000000,4.000000,4.000000,100.000000,,,,,,,,,,,,,,,,,17.000000,0.000000,0.467071,0.538208,-0.444031,0.543152,0.986449,0.005372,0.020510,-14.923021,-34.467411,59.083321
1703503718.754981,1703503718.755334,69.000000,0.000000,4292.179688,4271.282227,4315.384766,4355.769043,4290.512695,4271.538574,4282.051270,4280.256348,4277.692383,4275.769043,4528.974121,4490.256348,4398.333496,4462.051270,4961.000000,3.000000,61.000000,,,,0.000000,4.000000,4.000000,4.000000,4.000000,4.000000,4.000000,4.000000,4.000000,4.000000,4.000000,4.000000,4.000000,4.000000,4.000000,100.000000,,,,,,,,,,,,,,,,,,,,,,,,,,,,
1703503718.762789,1703503718.763242,70.000000,0.000000,4283.717773,4266.794922,4316.153809,4350.897461,4285.384766,4261.025879,4275.512695,4277.692383,4275.256348,4274.487305,4529.615234,4489.615234,4397.051270,4460.897461,3924.000000,3.000000,61.000000,,,,0.000000,4.000000,4.000000,4.000000,4.000000,4.000000,4.000000,4.000000,4.000000,4.000000,4.000000,4.000000,4.000000,4.000000,4.000000,100.000000,,,,,,,,,,,,,,,,,,,,,,,,,,,,
1703503718.770597,1703503718.771050,71.000000,0.000000,4285.641113,4271.538574,4325.000000,4350.641113,4281.666504,4258.974121,4274.871582,4274.230957,4270.128418,4264.230957,4525.769043,4491.538574,4398.333496,4462.179688,5036.000000,3.000000,61.000000,,,,0.000000,4.000000,4.000000,4.000000,4.000000,4.000000,4.000000,4.000000,4.000000,4.000000,4.000000,4.000000,4.000000,4.000000,4.000000,100.000000,,,,,,,,,,,,,,,,,,,,,,,,,,,,
1703503718.778405,1703503718.778958,72.000000,0.000000,4295.384766,4279.102539,4327.179688,4351.410156,4279.871582,4261.794922,4277.179688,4271.282227,4271.794922,4267.948730,4526.922852,4489.743652,4403.077148,4465.384766,5011.000000,3.000000,61.000000,,,,0.000000,4.000000,4.000000,4.000000,4.000000,4.000000,4.000000,4.000000,4.000000,4.000000,4.000000,4.000000,4.000000,4.000000,4.000000,100.000000,,,,,,,,,,,,,,,,,18.000000,0.000000,0.467296,0.538147,-0.444092,0.542969,0.993774,0.011232,0.027835,-14.930719,-34.554005,59.141655
1703503718.786213,1703503718.786766,73.000000,0.000000,4289.487305,4270.128418,4322.436035,4344.615234,4277.692383,4260.000000,4275.128418,4267.179688,4273.333496,4272.692383,4530.384766,4488.717773,4402.820313,4463.461426,5484.000000,3.000000,61.000000,,,,0.000000,4.000000,4.000000,4.000000,4.000000,4.000000,4.000000,4.000000,4.000000,4.000000,4.000000,4.000000,4.000000,4.000000,4.000000,100.000000,,,,,,,,,,,,,,,,,,,,,,,,,,,,
1703503718.794021,1703503718.794673,74.000000,0.000000,4275.769043,4259.743652,4316.666504,4334.615234,4275.000000,4257.820313,4268.333496,4269.358887,4270.769043,4265.897461,4525.641113,4484.871582,4396.282227,4455.000000,6050.000000,3.000000,61.000000,,,,0.000000,4.000000,4.000000,4.000000,4.000000,4.000000,4.000000,4.000000,4.000000,4.000000,4.000000,4.000000,4.000000,4.000000,4.000000,100.000000,,,,,,,,,,,,,,,,,,,,,,,,,,,,
1703503718.801829,1703503718.802481,75.000000,0.000000,4266.410156,4260.897461,4309.871582,4329.358887,4277.563965,4259.615234,4269.487305,4272.692383,4267.563965,4260.769043,4515.256348,4471.922852,4389.871582,4444.358887,6324.000000,3.000000,61.000000,,,,0.000000,4.000000,4.000000,4.000000,4.000000,4.000000,4.000000,4.000000,4.000000,4.000000,4.000000,4.000000,4.000000,4.000000,4.000000,100.000000,,,,,,,,,,,,,,,,,,,,,,,,,,,,
1703503718.809637,1703503718.810389,76.000000,0.000000,4262.820313,4261.666504,4307.051270,4334.102539,4279.743652,4262.051270,4276.794922,4268.974121,4267.563965,4259.230957,4510.128418,4463.205078,4387.179688,4438.461426,6838.000000,3.000000,61.000000,,,,0.000000,4.000000,4.000000,4.000000,4.000000,4.000000,4.000000,4.000000,4.000000,4.000000,4.000000,4.000000,4.000000,4.000000,4.000000,100.000000,,,,,,,,,,,,,,,,,19.000000,0.000000,0.467367,0.538147,-0.444092,0.542908,0.992309,0.021487,0.028812,-14.887648,-34.465271,59.077492
1703503718.817445,1703503718.818197,77.000000,0.000000,4269.358887,4262.179688,4308.846191,4341.153809,4279.487305,4261.282227,4275.897461,4268.717773,4271.794922,4259.487305,4513.717773,4472.948730,4390.512695,4444.358887,7229.000000,3.000000,61.000000,,,,0.000000,4.000000,4.000000,4.000000,4.000000,4.000000,4.000000,4.000000,4.000000,4.000000,4.000000,4.000000,4.000000,4.000000,4.000000,100.000000,,,,,,,,,,,,,,,,,,,,,,,,,,,,
1703503718.825253,1703503718.826105,78.000000,0.000000,4279.230957,4265.897461,4314.358887,4343.717773,4279.358887,4261.153809,4276.538574,4272.563965,4273.589844,4264.358887,4524.102539,4491.666504,4399.102539,4458.461426,6050.000000,3.000000,61.000000,,,,0.000000,4.000000,4.000000,4.000000,4.000000,4.000000,4.000000,4.000000,4.000000,4.000000,4.000000,4.000000,4.000000,4.000000,4.000000,100.000000,,,,,,,,,,,,,,,,,,,,,,,,,,,,
1703503718.833061,1703503718.833913,79.000000,0.000000,4281.153809,4265.512695,4318.461426,4344.743652,4277.436035,4258.333496,4277.820313,4270.000000,4271.153809,4267.436035,4527.820313,4495.000000,4402.692383,4462.948730,6324.000000,3.000000,61.000000,,,,0.000000,4.000000,4.000000,4.000000,4.000000,4.000000,4.000000,4.000000,4.000000,4.000000,4.000000,4.000000,4.000000,4.000000,4.000000,100.000000,,,,,,,,,,,,,,,,,,,,,,,,,,,,
1703503718.840869,1703503718.841621,80.000000,0.000000,4278.846191,4263.461426,4313.205078,4344.102539,4275.897461,4251.025879,4268.589844,4262.307617,4265.128418,4262.179688,4518.717773,4481.666504,4396.282227,4451.666504,6838.000000,3.000000,61.000000,,,,0.000000,4.000000,4.000000,4.000000,4.000000,4.000000,4.000000,4.000000,4.000000,4.000000,4.000000,4.000000,4.000000,4.000000,4.000000,100.000000,,,,,,,,,,,,,,,,,20.000000,0.000000,0.467052,0.538269,-0.444275,0.542908,1.002564,0.017580,0.020022,-15.032216,-34.468742,59.019741
1703503718.848677,1703503718.849429,81.000000,0.000000,4278.333496,4263.077148,4313.077148,4340.897461,4277.563965,4247.563965,4261.666504,4253.589844,4255.769043,4250.641113,4512.179688,4475.641113,4390.384766,4446.282227,7229.000000,3.000000,61.000000,,,,0.000000,4.000000,4.000000,4.000000,4.000000,4.000000,4.000000,4.000000,4.000000,4.000000,4.000000,4.000000,4.000000,4.000000,4.000000,100.000000,,,,,,,,,,,,,,,,,,,,,,,,,,,,
1703503718.856485,1703503718.857137,82.000000,0.000000,4282.563965,4265.641113,4319.230957,4341.153809,4282.307617,4250.000000,4265.256348,4251.666504,4254.743652,4252.436035,4525.512695,4485.512695,4401.538574,4457.307617,6050.000000,3.000000,61.000000,,,,0.000000,4.000000,4.000000,4.000000,4.000000,4.000000,4.000000,4.000000,4.000000,4.000000,4.000000,4.000000,4.000000,4.000000,4.000000,100.000000,,,,,,,,,,,,,,,,,,,,,,,,,,,,
1703503718.864293,1703503718.864945,83.000000,0.000000,4285.897461,4267.307617,4318.589844,4344.487305,4281.282227,4252.051270,4268.846191,4261.794922,4264.358887,4267.563965,4538.461426,4491.666504,4415.512695,4465.641113,6324.000000,3.000000,61.000000,,,,0.000000,4.000000,4.000000,4.000000,4.000000,4.000000,4.000000,4.000000,4.000000,4.000000,4.000000,4.000000,4.000000,4.000000,4.000000,100.000000,,,,,,,,,,,,,,,,,,,,,,,,,,,,
1703503718.872101,1703503718.872653,84.000000,0.000000,4281.666504,4263.077148,4313.589844,4341.538574,4275.769043,4250.512695,4267.692383,4269.358887,4267.563965,4269.230957,4527.051270,4483.077148,4407.179688,4460.256348,6838.000000,3.000000,61.000000,,,,0.000000,4.000000,4.000000,4.000000,4.000000,4.000000,4.000000,4.000000,4.000000,4.000000,4.000000,4.000000,4.000000,4.000000,4.000000,100.000000,,,,,,,,,,,,,,,,,21.000000,0.000000,0.466887,0.538574,-0.444153,0.542847,0.985960,0.025882,0.024905,-15.145660,-34.405201,59.117767
1703503718.879910,1703503718.880461,85.000000,0.000000,4275.641113,4257.051270,4308.846191,4334.615234,4271.282227,4249.358887,4266.282227,4271.025879,4271.025879,4262.692383,4518.205078,4475.256348,4396.282227,4453.974121,7229.000000,3.000000,61.000000,,,,0.000000,4.000000,4.000000,4.000000,4.000000,4.000000,4.000000,4.000000,4.000000,4.000000,4.000000,4.000000,4.000000,4.000000,4.000000,100.000000,,,,,,,,,,,,,,,,,,,,,,,,,,,,
1703503718.887718,1703503718.888169,86.000000,0.000000,4273.974121,4255.897461,4305.641113,4334.615234,4269.871582,4252.307617,4271.410156,4277.179688,4278.846191,4261.538574,4520.384766,4474.615234,4397.948730,4450.512695,6050.000000,3.000000,61.000000,,,,0.000000,4.000000,4.000000,4.000000,4.000000,4.000000,4.000000,4.000000,4.000000,4.000000,4.000000,4.000000,4.000000,4.000000,4.000000,100.000000,,,,,,,,,,,,,,,,,,,,,,,,,,,,
1703503718.895526,1703503718.895977,87.000000,0.000000,4277.051270,4260.641113,4305.769043,4345.384766,4273.974121,4262.307617,4279.102539,4280.256348,4277.820313,4264.358887,4521.666504,4476.666504,4399.871582,4452.436035,6324.000000,3.000000,61.000000,,,,0.000000,4.000000,4.000000,4.000000,4.000000,4.000000,4.000000,4.000000,4.000000,4.000000,4.000000,4.000000,4.000000,4.000000,4.000000,100.000000,,,,,,,,,,,,,,,,,,,,,,,,,,,,
1703503718.903334,1703503718.903685,88.000000,0.000000,4279.871582,4262.179688,4306.666504,4348.589844,4272.179688,4262.948730,4275.384766,4271.153809,4270.512695,4262.179688,4518.461426,4476.922852,4397.307617,4455.897461,6838.000000,3.000000,61.000000,,,,0.000000,4.000000,4.000000,4.000000,4.000000,4.000000,4.000000,4.000000,4.000000,4.000000,4.000000,4.000000,4.000000,4.000000,4.000000,100.000000,,,,,,,,,,,,,,,,,22.000000,0.000000,0.466746,0.538696,-0.444153,0.542847,0.981565,-0.003418,0.022952,-15.064428,-34.514683,59.122658
1703503718.911142,1703503718.911593,89.000000,0.000000,4278.589844,4258.333496,4306.025879,4342.051270,4264.615234,4253.717773,4267.820313,4258.589844,4260.897461,4253.589844,4508.461426,4473.333496,4393.333496,4450.384766,7229.000000,3.000000,61.000000,,,,0.000000,4.000000,4.000000,4.000000,4.000000,4.000000,4.000000,4.000000,4.000000,4.000000,4.000000,4.000000,4.000000,4.000000,4.000000,100.000000,,,,,,,,,,,,,,,,,,,,,,,,,,,,
1703503718.918950,1703503718.919401,90.000000,0.000000,4277.307617,4261.025879,4307.307617,4345.384766,4271.538574,4258.461426,4269.487305,4257.179688,4259.871582,4258.974121,4513.589844,4476.538574,4401.282227,4452.436035,6050.000000,3.000000,61.000000,,,,0.000000,4.000000,4.000000,4.000000,4.000000,4.000000,4.000000,4.000000,4.000000,4.000000,4.000000,4.000000,4.000000,4.000000,4.000000,100.000000,,,,,,,,,,,,,,,,,,,,,,,,,,,,
1703503718.926758,1703503718.927309,91.000000,0.000000,4283.077148,4267.948730,4309.871582,4353.589844,4281.794922,4263.974121,4270.000000,4264.102539,4271.153809,4271.153809,4529.358887,4489.358887,4413.333496,4464.230957,6324.000000,3.000000,61.000000,,,,0.000000,4.000000,4.000000,4.000000,4.000000,4.000000,4.000000,4.000000,4.000000,4.000000,4.000000,4.000000,4.000000,4.000000,4.000000,100.000000,,,,,,,,,,,,,,,,,,,,,,,,,,,,
1703503718.934566,1703503718.935117,92.000000,0.000000,4292.563965,4267.692383,4310.769043,4353.333496,4277.436035,4257.692383,4263.846191,4266.666504,4277.563965,4271.025879,4532.820313,4496.794922,4411.666504,4471.025879,6838.000000,3.000000,61.000000,,,,0.000000,4.000000,4.000000,4.000000,4.000000,4.000000,4.000000,4.000000,4.000000,4.000000,4.000000,4.000000,4.000000,4.000000,4.000000,100.000000,,,,,,,,,,,,,,,,,23.000000,0.000000,0.466605,0.538818,-0.444153,0.542847,0.989867,0.010743,0.023440,-15.074652,-34.529881,59.210392
1703503718.942374,1703503718.943025,93.000000,0.000000,4290.384766,4265.512695,4311.538574,4350.897461,4275.128418,4255.897461,4265.897461,4270.128418,4277.436035,4269.358887,4533.974121,4497.179688,4411.538574,4473.461426,7229.000000,3.000000,61.000000,,,,0.000000,4.000000,4.000000,4.000000,4.000000,4.000000,4.000000,4.000000,4.000000,4.000000,4.000000,4.000000,4.000000,4.000000,4.000000,100.000000,,,,,,,,,,,,,,,,,,,,,,,,,,,,
1703503718.950182,1703503718.950833,94.000000,0.000000,4281.922852,4268.205078,4311.538574,4352.692383,4279.230957,4260.512695,4273.846191,4276.922852,4278.205078,4272.948730,4531.922852,4495.512695,4416.666504,4467.820313,6050.000000,3.000000,61.000000,,,,0.000000,4.000000,4.000000,4.000000,4.000000,4.000000,4.000000,4.000000,4.000000,4.000000,4.000000,4.000000,4.000000,4.000000,4.000000,100.000000,,,,,,,,,,,,,,,,,,,,,,,,,,,,
1703503718.957990,1703503718.958741,95.000000,0.000000,4279.743652,4264.871582,4300.641113,4350.897461,4274.615234,4261.025879,4272.820313,4278.077148,4279.230957,4273.846191,4521.282227,4489.487305,4413.333496,4456.794922,6324.000000,3.000000,61.000000,,,,0.000000,4.000000,4.000000,4.000000,4.000000,4.000000,4.000000,4.000000,4.000000,4.000000,4.000000,4.000000,4.000000,4.000000,4.000000,100.000000,,,,,,,,,,,,,,,,,,,,,,,,,,,,
1703503718.965798,1703503718.966549,96.000000,0.000000,4277.436035,4253.333496,4291.025879,4343.589844,4265.769043,4259.871582,4271.410156,4275.384766,4279.743652,4274.102539,4518.205078,4486.922852,4409.743652,4455.128418,6838.000000,3.000000,61.000000,,,,0.000000,4.000000,4.000000,4.000000,4.000000,4.000000,4.000000,4.000000,4.000000,4.000000,4.000000,4.000000,4.000000,4.000000,4.000000,100.000000,,,,,,,,,,,,,,,,,24.000000,0.000000,0.466618,0.538818,-0.444214,0.542786,0.983518,0.020022,0.018557,-15.017187,-34.576893,59.222687
1703503718.973606,1703503718.974457,97.000000,0.000000,4275.128418,4252.820313,4300.256348,4342.179688,4267.051270,4261.025879,4273.846191,4277.563965,4277.948730,4271.153809,4519.615234,4490.897461,4412.179688,4458.974121,7229.000000,3.000000,61.000000,,,,0.000000,4.000000,4.000000,4.000000,4.000000,4.000000,4.000000,4.000000,4.000000,4.000000,4.000000,4.000000,4.000000,4.000000,4.000000,100.000000,1.000000,91.666664,4.000000,4.000000,4.000000,3.000000,4.000000,4.000000,4.000000,4.000000,4.000000,4.000000,4.000000,4.000000,4.000000,4.000000,,,,,,,,,,,,
1703503718.981414,1703503718.982265,98.000000,0.000000,4279.743652,4264.487305,4306.538574,4352.307617,4275.256348,4261.666504,4272.692383,4278.077148,4277.436035,4265.256348,4511.153809,4492.307617,4413.461426,4462.307617,6050.000000,3.000000,61.000000,,,,0.000000,4.000000,4.000000,4.000000,4.000000,4.000000,4.000000,4.000000,4.000000,4.000000,4.000000,4.000000,4.000000,4.000000,4.000000,100.000000,,,,,,,,,,,,,,,,,,,,,,,,,,,,
1703503718.989222,1703503718.990172,99.000000,0.000000,4278.205078,4263.717773,4300.000000,4354.358887,4274.487305,4260.128418,4269.871582,4267.051270,4275.256348,4262.179688,4501.153809,4487.948730,4407.692383,4462.692383,6324.000000,3.000000,61.000000,,,,0.000000,4.000000,4.000000,4.000000,4.000000,4.000000,4.000000,4.000000,4.000000,4.000000,4.000000,4.000000,4.000000,4.000000,4.000000,100.000000,,,,,,,,,,,,,,,,,,,,,,,,,,,,
1703503718.997030,1703503718.997980,100.000000,0.000000,4271.922852,4255.769043,4298.974121,4343.974121,4273.461426,4255.256348,4266.025879,4265.512695,4276.538574,4264.358887,4501.025879,4488.974121,4407.820313,4459.871582,6838.000000,3.000000,61.000000,,,,0.000000,4.000000,4.000000,4.000000,4.000000,4.000000,4.000000,4.000000,4.000000,4.000000,4.000000,4.000000,4.000000,4.000000,4.000000,100.000000,,,,,,,,,,,,,,,,,25.000000,0.000000,0.466559,0.538696,-0.444275,0.542908,0.980588,0.004883,0.027835,-15.165468,-34.502537,59.217083
1703503719.004838,1703503719.005688,101.000000,0.000000,4279.871582,4260.769043,4307.307617,4345.897461,4275.897461,4252.948730,4264.615234,4275.641113,4279.102539,4272.051270,4507.820313,4495.128418,4418.717773,4462.692383,7229.000000,3.000000,61.000000,,,,0.000000,4.000000,4.000000,4.000000,4.000000,4.000000,4.000000,4.000000,4.000000,4.000000,4.000000,4.000000,4.000000,4.000000,4.000000,100.000000,,,,,,,,,,,,,,,,,,,,,,,,,,,,
1703503719.012647,1703503719.013496,102.000000,0.000000,4293.974121,4268.333496,4312.563965,4357.436035,4272.436035,4250.128418,4266.025879,4269.615234,4270.384766,4267.820313,4507.948730,4492.563965,4421.538574,4468.589844,6050.000000,3.000000,61.000000,,,,0.000000,4.000000,4.000000,4.000000,4.000000,4.000000,4.000000,4.000000,4.000000,4.000000,4.000000,4.000000,4.000000,4.000000,4.000000,100.000000,,,,,,,,,,,,,,,,,,,,,,,,,,,,
1703503719.020455,1703503719.021205,103.000000,0.000000,4296.666504,4267.179688,4312.307617,4358.077148,4271.538574,4247.820313,4264.358887,4264.358887,4266.538574,4260.256348,4508.846191,4494.871582,4421.025879,4475.000000,6324.000000,3.000000,61.000000,,,,0.000000,4.000000,4.000000,4.000000,4.000000,4.000000,4.000000,4.000000,4.000000,4.000000,4.000000,4.000000,4.000000,4.000000,4.000000,100.000000,,,,,,,,,,,,,,,,,,,,,,,,,,,,
1703503719.028263,1703503719.029113,104.000000,0.000000,4289.487305,4264.102539,4312.692383,4349.871582,4273.205078,4252.436035,4266.025879,4280.256348,4278.333496,4270.384766,4516.794922,4505.000000,4428.461426,4477.179688,6838.000000,3.000000,61.000000,,,,0.000000,4.000000,4.000000,4.000000,4.000000,4.000000,4.000000,4.000000,4.000000,4.000000,4.000000,4.000000,4.000000,4.000000,4.000000,100.000000,,,,,,,,,,,,,,,,,26.000000,0.000000,0.466513,0.538574,-0.444397,0.542969,0.998657,0.012697,0.019045,-15.132255,-34.402283,59.212044
1703503719.036071,1703503719.036921,105.000000,0.000000,4282.563965,4262.563965,4307.948730,4344.871582,4267.948730,4260.256348,4272.436035,4287.563965,4284.102539,4276.153809,4515.384766,4495.769043,4427.692383,4467.563965,7229.000000,3.000000,61.000000,,,,0.000000,4.000000,4.000000,4.000000,4.000000,4.000000,4.000000,4.000000,4.000000,4.000000,4.000000,4.000000,4.000000,4.000000,4.000000,100.000000,,,,,,,,,,,,,,,,,,,,,,,,,,,,
1703503719.043879,1703503719.044829,106.000000,0.000000,4278.717773,4257.436035,4297.307617,4340.512695,4264.230957,4259.487305,4272.051270,4281.153809,4279.615234,4268.589844,4506.153809,4476.282227,4416.410156,4456.538574,6050.000000,3.000000,61.000000,,,,0.000000,4.000000,4.000000,4.000000,4.000000,4.000000,4.000000,4.000000,4.000000,4.000000,4.000000,4.000000,4.000000,4.000000,4.000000,100.000000,,,,,,,,,,,,,,,,,,,,,,,,,,,,
1703503719.051687,1703503719.052637,107.000000,0.000000,4277.563965,4249.487305,4291.410156,4334.487305,4266.410156,4253.077148,4268.717773,4283.589844,4277.563965,4263.589844,4501.794922,4475.384766,4412.307617,4452.948730,6324.000000,3.000000,61.000000,,,,0.000000,4.000000,4.000000,4.000000,4.000000,4.000000,4.000000,4.000000,4.000000,4.000000,4.000000,4.000000,4.000000,4.000000,4.000000,100.000000,,,,,,,,,,,,,,,,,,,,,,,,,,,,
1703503719.059495,1703503719.060545,108.000000,0.000000,4275.000000,4249.230957,4288.974121,4332.179688,4265.384766,4254.102539,4267.051270,4280.384766,4276.153809,4265.000000,4499.102539,4480.769043,4414.743652,4455.128418,6838.000000,3.000000,61.000000,,,,0.000000,4.000000,4.000000,4.000000,4.000000,4.000000,4.000000,4.000000,4.000000,4.000000,4.000000,4.000000,4.000000,4.000000,4.000000,100.000000,,,,,,,,,,,,,,,,,27.000000,0.000000,0.466396,0.538513,-0.444519,0.543030,0.992797,0.012697,0.031254,-14.969029,-34.428722,59.074169
1703503719.067303,1703503719.068353,109.000000,0.000000,4265.512695,4250.641113,4282.948730,4333.205078,4261.538574,4261.410156,4265.641113,4266.153809,4272.179688,4261.922852,4490.128418,4474.615234,4406.282227,4451.538574,7229.000000,3.000000,61.000000,,,,0.000000,4.000000,4.000000,4.000000,4.000000,4.000000,4.000000,4.000000,4.000000,4.000000,4.000000,4.000000,4.000000,4.000000,4.000000,100.000000,,,,,,,,,,,,,,,,,,,,,,,,,,,,
1703503719.075111,1703503719.076162,110.000000,0.000000,4265.000000,4250.000000,4284.358887,4335.769043,4265.256348,4260.897461,4266.025879,4259.743652,4267.179688,4255.128418,4481.794922,4470.256348,4394.102539,4441.410156,6050.000000,3.000000,61.000000,,,,0.000000,4.000000,4.000000,4.000000,4.000000,4.000000,4.000000,4.000000,4.000000,4.000000,4.000000,4.000000,4.000000,4.000000,4.000000,100.000000,,,,,,,,,,,,,,,,,,,,,,,,,,,,
1703503719.082919,1703503719.083870,111.000000,0.000000,4278.589844,4258.974121,4293.846191,4340.128418,4272.179688,4253.333496,4264.871582,4259.487305,4263.589844,4254.230957,4483.717773,4478.461426,4400.897461,4448.589844,6324.000000,3.000000,61.000000,,,,0.000000,4.000000,4.000000,4.000000,4.000000,4.000000,4.000000,4.000000,4.000000,4.000000,4.000000,4.000000,4.000000,4.000000,4.000000,100.000000,,,,,,,,,,,,,,,,,,,,,,,,,,,,
1703503719.090727,1703503719.091678,112.000000,0.000000,4292.820313,4270.769043,4295.641113,4343.846191,4270.897461,4248.077148,4262.948730,4259.743652,4265.641113,4258.974121,4493.461426,4491.153809,4413.461426,4470.641113,6838.000000,3.000000,61.000000,,,,0.000000,4.000000,4.000000,4.000000,4.000000,4.000000,4.000000,4.000000,4.000000,4.000000,4.000000,4.000000,4.000000,4.000000,4.000000,100.000000,,,,,,,,,,,,,,,,,28.000000,0.000000,0.466336,0.538391,-0.444580,0.543152,0.988402,0.018069,0.012697,-14.955460,-34.335850,59.000088
1703503719.098535,1703503719.099386,113.000000,0.000000,4297.179688,4268.077148,4295.128418,4344.230957,4264.871582,4245.769043,4261.410156,4261.666504,4266.794922,4264.230957,4496.794922,4494.358887,4407.692383,4473.077148,7229.000000,3.000000,61.000000,,,,0.000000,4.000000,4.000000,4.000000,4.000000,4.000000,4.000000,4.000000,4.000000,4.000000,4.000000,4.000000,4.000000,4.000000,4.000000,100.000000,,,,,,,,,,,,,,,,,,,,,,,,,,,,
1703503719.106343,1703503719.107194,114.000000,0.000000,4288.461426,4261.922852,4295.384766,4341.153809,4264.358887,4244.615234,4259.230957,4261.410156,4262.692383,4259.102539,4487.563965,4485.897461,4394.358887,4458.974121,6050.000000,3.000000,61.000000,,,,0.000000,4.000000,4.000000,4.000000,4.000000,4.000000,4.000000,4.000000,4.000000,4.000000,4.000000,4.000000,4.000000,4.000000,4.000000,100.000000,,,,,,,,,,,,,,,,,,,,,,,,,,,,
1703503719.114151,1703503719.114902,115.000000,0.000000,4279.487305,4263.205078,4293.846191,4335.000000,4264.487305,4244.615234,4260.000000,4260.000000,4260.256348,4246.794922,4482.436035,4477.820313,4392.948730,4456.538574,6324.000000,3.000000,61.000000,,,,0.000000,4.000000,4.000000,4.000000,4.000000,4.000000,4.000000,4.000000,4.000000,4.000000,4.000000,4.000000,4.000000,4.000000,4.000000,100.000000,,,,,,,,,,,,,,,,,,,,,,,,,,,,
1703503719.121959,1703503719.122710,116.000000,0.000000,4285.769043,4262.051270,4294.230957,4330.769043,4264.102539,4246.922852,4262.692383,4262.436035,4262.692383,4248.589844,4489.871582,4478.717773,4402.948730,4464.230957,6838.000000,3.000000,61.000000,,,,0.000000,4.000000,4.000000,4.000000,4.000000,4.000000,4.000000,4.000000,4.000000,4.000000,4.000000,4.000000,4.000000,4.000000,4.000000,100.000000,,,,,,,,,,,,,,,,,29.000000,0.000000,0.466233,0.538391,-0.444763,0.543091,0.989867,0.018557,0.024905,-14.959913,-34.402264,59.000080
1703503719.129767,1703503719.130418,117.000000,0.000000,4292.563965,4259.743652,4293.717773,4332.563965,4262.307617,4251.153809,4263.461426,4263.589844,4264.615234,4262.051270,4493.974121,4481.922852,4406.922852,4464.358887,7229.000000,3.000000,61.000000,,,,0.000000,4.000000,4.000000,4.000000,4.000000,4.000000,4.000000,4.000000,4.000000,4.000000,4.000000,4.000000,4.000000,4.000000,4.000000,100.000000,,,,,,,,,,,,,,,,,,,,,,,,,,,,
1703503719.137575,1703503719.138326,118.000000,0.000000,4288.974121,4261.922852,4292.436035,4335.256348,4260.512695,4250.256348,4264.615234,4267.051270,4270.384766,4265.384766,4490.256348,4478.717773,4403.077148,4458.077148,6050.000000,3.000000,61.000000,,,,0.000000,4.000000,4.000000,4.000000,4.000000,4.000000,4.000000,4.000000,4.000000,4.000000,4.000000,4.000000,4.000000,4.000000,4.000000,100.000000,,,,,,,,,,,,,,,,,,,,,,,,,,,,
1703503719.145383,1703503719.146134,119.000000,0.000000,4290.641113,4262.820313,4292.436035,4333.077148,4260.769043,4247.307617,4265.256348,4272.179688,4278.461426,4262.692383,4497.948730,4475.512695,4407.692383,4464.743652,6324.000000,3.000000,61.000000,,,,0.000000,4.000000,4.000000,4.000000,4.000000,4.000000,4.000000,4.000000,4.000000,4.000000,4.000000,4.000000,4.000000,4.000000,4.000000,100.000000,,,,,,,,,,,,,,,,,,,,,,,,,,,,
1703503719.153191,1703503719.154042,120.000000,0.000000,4297.051270,4261.025879,4298.333496,4331.666504,4255.256348,4247.692383,4263.974121,4268.333496,4279.615234,4266.410156,4509.487305,4482.948730,4416.410156,4476.922852,6838.000000,3.000000,61.000000,,,,0.000000,4.000000,4.000000,4.000000,4.000000,4.000000,4.000000,4.000000,4.000000,4.000000,4.000000,4.000000,4.000000,4.000000,4.000000,100.000000,,,,,,,,,,,,,,,,,30.000000,0.000000,0.466175,0.538452,-0.444824,0.543030,0.984495,0.005860,0.020022,-14.963923,-34.378704,59.116737
1703503719.160999,1703503719.161850,121.000000,0.000000,4295.769043,4261.794922,4301.538574,4333.205078,4252.051270,4248.205078,4263.846191,4266.538574,4282.051270,4267.692383,4509.230957,4491.410156,4416.922852,4477.307617,7229.000000,3.000000,61.000000,,,,0.000000,4.000000,4.000000,4.000000,4.000000,4.000000,4.000000,4.000000,4.000000,4.000000,4.000000,4.000000,4.000000,4.000000,4.000000,100.000000,,,,,,,,,,,,,,,,,,,,,,,,,,,,
1703503719.168808,1703503719.169757,122.000000,0.000000,4292.948730,4265.512695,4295.897461,4331.666504,4258.974121,4247.563965,4264.102539,4271.794922,4279.871582,4263.589844,4507.692383,4490.384766,4412.692383,4476.025879,6050.000000,3.000000,61.000000,,,,0.000000,4.000000,4.000000,4.000000,4.000000,4.000000,4.000000,4.000000,4.000000,4.000000,4.000000,4.000000,4.000000,4.000000,4.000000,100.000000,,,,,,,,,,,,,,,,,,,,,,,,,,,,
1703503719.176616,1703503719.177666,123.000000,0.000000,4292.563965,4265.128418,4294.102539,4328.846191,4259.743652,4247.307617,4264.230957,4270.128418,4269.487305,4262.179688,4508.589844,4484.358887,4408.589844,4473.717773,6324.000000,3.000000,61.000000,,,,0.000000,4.000000,4.000000,4.000000,4.000000,4.000000,4.000000,4.000000,4.000000,4.000000,4.000000,4.000000,4.000000,4.000000,4.000000,100.000000,,,,,,,,,,,,,,,,,,,,,,,,,,,,
1703503719.184424,1703503719.185474,124.000000,0.000000,4288.205078,4259.743652,4296.922852,4326.282227,4257.436035,4247.563965,4263.461426,4263.461426,4270.128418,4262.179688,4506.153809,4480.384766,4406.922852,4463.846191,6838.000000,3.000000,61.000000,,,,0.000000,4.000000,4.000000,4.000000,4.000000,4.000000,4.000000,4.000000,4.000000,4.000000,4.000000,4.000000,4.000000,4.000000,4.000000,100.000000,,,,,,,,,,,,,,,,,31.000000,0.000000,0.466175,0.538452,-0.444824,0.543030,0.991332,0.006348,0.020022,-14.900864,-34.407501,58.988396
1703503719.192232,1703503719.193282,125.000000,0.000000,4287.820313,4256.922852,4296.025879,4325.641113,4261.410156,4247.051270,4262.948730,4260.897461,4272.051270,4256.410156,4497.948730,4478.846191,4405.256348,4457.563965,7229.000000,3.000000,61.000000,,,,0.000000,4.000000,4.000000,4.000000,4.000000,4.000000,4.000000,4.000000,4.000000,4.000000,4.000000,4.000000,4.000000,4.000000,4.000000,100.000000,,,,,,,,,,,,,,,,,,,,,,,,,,,,
1703503719.200040,1703503719.201190,126.000000,0.000000,4292.948730,4263.846191,4293.461426,4330.000000,4263.333496,4247.948730,4262.948730,4259.102539,4260.384766,4244.487305,4491.410156,4479.487305,4395.384766,4461.025879,6050.000000,3.000000,61.000000,,,,0.000000,4.000000,4.000000,4.000000,4.000000,4.000000,4.000000,4.000000,4.000000,4.000000,4.000000,4.000000,4.000000,4.000000,4.000000,100.000000,,,,,,,,,,,,,,,,,,,,,,,,,,,,
1703503719.207848,1703503719.208998,127.000000,0.000000,4287.436035,4265.128418,4293.461426,4331.153809,4261.410156,4249.102539,4265.512695,4260.641113,4257.563965,4242.820313,4490.000000,4476.666504,4383.589844,4459.102539,61.000000,3.000000,61.000000,,,,0.000000,4.000000,4.000000,4.000000,4.000000,4.000000,4.000000,4.000000,4.000000,4.000000,4.000000,4.000000,4.000000,4.000000,4.000000,100.000000,,,,,,,,,,,,,,,,,,,,,,,,,,,,
1703503719.215656,1703503719.216706,0.000000,0.000000,4274.743652,4250.384766,4289.102539,4323.205078,4260.000000,4250.256348,4267.307617,4264.871582,4264.487305,4247.051270,4484.358887,4465.384766,4373.077148,4441.025879,5265.000000,3.000000,61.000000,,,,0.000000,4.000000,4.000000,4.000000,4.000000,4.000000,4.000000,4.000000,4.000000,4.000000,4.000000,4.000000,4.000000,4.000000,4.000000,100.000000,,,,,,,,,,,,,,,,,0.000000,0.000000,0.466104,0.538452,-0.444824,0.543091,0.998169,0.004883,0.022952,-14.994110,-34.466751,59.056225
1703503719.223464,1703503719.224514,1.000000,0.000000,4272.820313,4245.384766,4281.410156,4320.641113,4261.025879,4257.948730,4268.333496,4264.615234,4264.743652,4247.307617,4483.846191,4459.487305,4371.538574,4431.794922,5514.000000,3.000000,61.000000,,,,0.000000,4.000000,4.000000,4.000000,4.000000,4.000000,4.000000,4.000000,4.000000,4.000000,4.000000,4.000000,4.000000,4.000000,4.000000,100.000000,,,,,,,,,,,,,,,,,,,,,,,,,,,,
1703503719.231272,1703503719.232222,2.000000,0.000000,4274.102539,4254.358887,4279.487305,4326.282227,4263.717773,4263.974121,4271.794922,4264.615234,4264.743652,4249.230957,4489.102539,4462.692383,4379.615234,4442.307617,5405.000000,3.000000,61.000000,,,,0.000000,4.000000,4.000000,4.000000,4.000000,4.000000,4.000000,4.000000,4.000000,4.000000,4.000000,4.000000,4.000000,4.000000,4.000000,100.000000,,,,,,,,,,,,,,,,,,,,,,,,,,,,
1703503719.239080,1703503719.240030,3.000000,0.000000,4270.641113,4256.666504,4279.871582,4325.769043,4262.563965,4256.922852,4270.512695,4263.077148,4263.846191,4250.128418,4483.333496,4463.461426,4381.153809,4444.487305,5379.000000,3.000000,61.000000,,,,0.000000,4.000000,4.000000,4.000000,4.000000,4.000000,4.000000,4.000000,4.000000,4.000000,4.000000,4.000000,4.000000,4.000000,4.000000,100.000000,,,,,,,,,,,,,,,,,,,,,,,,,,,,
1703503719.246888,1703503719.247738,4.000000,0.000000,4273.974121,4254.615234,4278.717773,4323.846191,4262.948730,4248.333496,4264.743652,4261.410156,4264.615234,4253.461426,4483.461426,4468.077148,4385.000000,4443.205078,5307.000000,3.000000,61.000000,,,,0.000000,4.000000,4.000000,4.000000,4.000000,4.000000,4.000000,4.000000,4.000000,4.000000,4.000000,4.000000,4.000000,4.000000,4.000000,100.000000,,,,,,,,,,,,,,,,,1.000000,0.000000,0.466104,0.538391,-0.444824,0.543152,0.999145,0.017092,0.023440,-14.861366,-34.553410,59.000603
1703503719.254696,1703503719.255546,5.000000,0.000000,4283.205078,4259.871582,4284.230957,4329.358887,4266.025879,4249.487305,4265.384766,4259.102539,4265.128418,4255.897461,4495.384766,4477.692383,4394.102539,4455.769043,4961.000000,3.000000,61.000000,,,,0.000000,4.000000,4.000000,4.000000,4.000000,4.000000,4.000000,4.000000,4.000000,4.000000,4.000000,4.000000,4.000000,4.000000,4.000000,100.000000,,,,,,,,,,,,,,,,,,,,,,,,,,,,
1703503719.262504,1703503719.263254,6.000000,0.000000,4288.461426,4266.538574,4295.128418,4338.205078,4265.897461,4252.179688,4266.025879,4251.538574,4255.000000,4248.974121,4495.384766,4477.820313,4393.205078,4462.307617,3924.000000,3.000000,61.000000,,,,0.000000,4.000000,4.000000,4.000000,4.000000,4.000000,4.000000,4.000000,4.000000,4.000000,4.000000,4.000000,4.000000,4.000000,4.000000,100.000000,,,,,,,,,,,,,,,,,,,,,,,,,,,,
1703503719.270312,1703503719.271062,7.000000,0.000000,4292.692383,4268.589844,4298.461426,4340.897461,4265.897461,4248.333496,4262.692383,4245.512695,4247.051270,4246.794922,4489.102539,4476.282227,4389.358887,4458.461426,5036.000000,3.000000,61.000000,,,,0.000000,4.000000,4.000000,4.000000,4.000000,4.000000,4.000000,4.000000,4.000000,4.000000,4.000000,4.000000,4.000000,4.000000,4.000000,100.000000,,,,,,,,,,,,,,,,,,,,,,,,,,,,
1703503719.278120,1703503719.278770,8.000000,0.000000,4293.589844,4267.563965,4298.077148,4334.230957,4266.538574,4248.461426,4266.410156,4244.871582,4250.128418,4246.025879,4488.205078,4480.897461,4386.410156,4461.666504,5011.000000,3.000000,61.000000,,,,0.000000,4.000000,4.000000,4.000000,4.000000,4.000000,4.000000,4.000000,4.000000,4.000000,4.000000,4.000000,4.000000,4.000000,4.000000,100.000000,,,,,,,,,,,,,,,,,2.000000,0.000000,0.466032,0.538391,-0.444824,0.543213,0.992309,0.020022,0.022464,-14.825230,-34.598068,58.950542
1703503719.285928,1703503719.286578,9.000000,0.000000,4285.512695,4264.615234,4296.666504,4327.051270,4265.897461,4256.282227,4272.179688,4250.512695,4255.384766,4241.410156,4487.820313,4481.025879,4381.410156,4463.461426,5484.000000,3.000000,61.000000,,,,0.000000,4.000000,4.000000,4.000000,4.000000,4.000000,4.000000,4.000000,4.000000,4.000000,4.000000,4.000000,4.000000,4.000000,4.000000,100.000000,,,,,,,,,,,,,,,,,,,,,,,,,,,,
1703503719.293736,1703503719.294286,10.000000,0.000000,4278.205078,4261.410156,4293.077148,4325.256348,4264.102539,4263.589844,4276.282227,4258.589844,4258.461426,4241.794922,4485.769043,4477.307617,4377.307617,4454.615234,6043.000000,3.000000,61.000000,,,,0.000000,4.000000,4.000000,4.000000,4.000000,4.000000,4.000000,4.000000,4.000000,4.000000,4.000000,4.000000,4.000000,4.000000,4.000000,100.000000,,,,,,,,,,,,,,,,,,,,,,,,,,,,
1703503719.301545,1703503719.302194,11.000000,0.000000,4283.717773,4260.128418,4293.077148,4325.512695,4262.563965,4265.256348,4276.666504,4264.230957,4261.025879,4246.666504,4483.333496,4476.922852,4374.102539,4450.384766,6324.000000,3.000000,61.000000,,,,0.000000,4.000000,4.000000,4.000000,4.000000,4.000000,4.000000,4.000000,4.000000,4.000000,4.000000,4.000000,4.000000,4.000000,4.000000,100.000000,,,,,,,,,,,,,,,,,,,,,,,,,,,,
1703503719.309353,1703503719.310002,12.000000,0.000000,4286.922852,4258.077148,4294.358887,4325.000000,4262.051270,4262.179688,4272.179688,4272.692383,4264.871582,4248.205078,4487.051270,4479.487305,4374.230957,4453.077148,6843.000000,3.000000,61.000000,,,,0.000000,4.000000,4.000000,4.000000,4.000000,4.000000,4.000000,4.000000,4.000000,4.000000,4.000000,4.000000,4.000000,4.000000,4.000000,100.000000,,,,,,,,,,,,,,,,,3.000000,0.000000,0.466231,0.538208,-0.444763,0.543274,0.989379,0.011232,0.029300,-14.692706,-34.654926,58.888821
1703503719.317160,1703503719.317810,13.000000,0.000000,4278.974121,4255.641113,4289.871582,4324.871582,4263.974121,4261.538574,4272.563965,4278.205078,4266.153809,4248.717773,4492.820313,4478.461426,4380.128418,4448.589844,7227.000000,3.000000,61.000000,,,,0.000000,4.000000,4.000000,4.000000,4.000000,4.000000,4.000000,4.000000,4.000000,4.000000,4.000000,4.000000,4.000000,4.000000,4.000000,100.000000,,,,,,,,,,,,,,,,,,,,,,,,,,,,
1703503719.324969,1703503719.325518,14.000000,0.000000,4275.641113,4258.589844,4281.922852,4325.128418,4270.000000,4263.717773,4273.077148,4271.282227,4264.358887,4250.000000,4490.000000,4472.563965,4381.025879,4441.922852,6043.000000,3.000000,61.000000,,,,0.000000,4.000000,4.000000,4.000000,4.000000,4.000000,4.000000,4.000000,4.000000,4.000000,4.000000,4.000000,4.000000,4.000000,4.000000,100.000000,,,,,,,,,,,,,,,,,,,,,,,,,,,,
1703503719.332777,1703503719.333426,15.000000,0.000000,4279.487305,4263.077148,4283.974121,4325.384766,4272.692383,4259.102539,4266.794922,4261.410156,4260.512695,4249.358887,4487.179688,4471.794922,4378.333496,4447.948730,6324.000000,3.000000,61.000000,,,,0.000000,4.000000,4.000000,4.000000,4.000000,4.000000,4.000000,4.000000,4.000000,4.000000,4.000000,4.000000,4.000000,4.000000,4.000000,100.000000,,,,,,,,,,,,,,,,,,,,,,,,,,,,
1703503719.340585,1703503719.341234,16.000000,0.000000,4283.974121,4264.230957,4294.102539,4328.846191,4268.589844,4249.230957,4262.436035,4257.436035,4255.000000,4250.256348,4492.948730,4480.256348,4383.205078,4458.205078,0.000000,3.000000,61.000000,,,,0.000000,4.000000,4.000000,4.000000,4.000000,4.000000,4.000000,4.000000,4.000000,4.000000,4.000000,4.000000,4.000000,4.000000,4.000000,100.000000,,,,,,,,,,,,,,,,,4.000000,0.000000,0.466502,0.538147,-0.444702,0.543152,0.983030,0.015139,0.017092,-14.573436,-34.572769,58.833271
1703503719.348393,1703503719.349142,17.000000,0.000000,4288.846191,4264.743652,4298.461426,4329.743652,4265.128418,4245.641113,4263.077148,4249.102539,4250.512695,4249.615234,4495.000000,4484.487305,4387.692383,4458.589844,0.000000,3.000000,61.000000,,,,0.000000,4.000000,4.000000,4.000000,4.000000,4.000000,4.000000,4.000000,4.000000,4.000000,4.000000,4.000000,4.000000,4.000000,4.000000,100.000000,,,,,,,,,,,,,,,,,,,,,,,,,,,,
1703503719.356201,1703503719.356950,18.000000,0.000000,4292.307617,4266.025879,4302.820313,4326.025879,4264.230957,4244.487305,4261.794922,4242.051270,4244.358887,4240.384766,4488.974121,4482.436035,4381.282227,4456.922852,0.000000,3.000000,61.000000,,,,0.000000,4.000000,4.000000,4.000000,4.000000,4.000000,4.000000,4.000000,4.000000,4.000000,4.000000,4.000000,4.000000,4.000000,4.000000,100.000000,,,,,,,,,,,,,,,,,,,,,,,,,,,,
1703503719.364009,1703503719.364857,19.000000,0.000000,4298.333496,4273.717773,4315.384766,4333.077148,4263.974121,4242.692383,4261.538574,4253.974121,4246.153809,4242.307617,4496.025879,4495.641113,4384.102539,4468.589844,0.000000,3.000000,61.000000,,,,0.000000,4.000000,4.000000,4.000000,4.000000,4.000000,4.000000,4.000000,4.000000,4.000000,4.000000,4.000000,4.000000,4.000000,4.000000,100.000000,,,,,,,,,,,,,,,,,,,,,,,,,,,,
1703503719.371817,1703503719.372665,20.000000,0.000000,4298.717773,4278.461426,4318.974121,4343.077148,4265.384766,4245.384766,4265.256348,4267.051270,4260.128418,4257.948730,4511.666504,4510.128418,4398.846191,4480.128418,0.000000,3.000000,61.000000,,,,0.000000,4.000000,4.000000,4.000000,4.000000,4.000000,4.000000,4.000000,4.000000,4.000000,4.000000,4.000000,4.000000,4.000000,4.000000,100.000000,,,,,,,,,,,,,,,,,5.000000,0.000000,0.466374,0.538330,-0.444763,0.543030,0.981077,0.010743,0.020022,-14.616093,-34.615490,58.883278
1703503719.379625,1703503719.380573,21.000000,0.000000,4287.179688,4269.743652,4304.487305,4333.846191,4263.717773,4248.717773,4266.538574,4256.025879,4257.051270,4257.436035,4503.333496,4496.025879,4393.077148,4466.025879,0.000000,3.000000,61.000000,,,,0.000000,4.000000,4.000000,4.000000,4.000000,4.000000,4.000000,4.000000,4.000000,4.000000,4.000000,4.000000,4.000000,4.000000,4.000000,100.000000,,,,,,,,,,,,,,,,,,,,,,,,,,,,
1703503719.387433,1703503719.388381,22.000000,0.000000,4278.846191,4261.666504,4292.051270,4322.051270,4261.282227,4254.615234,4266.025879,4244.487305,4243.589844,4244.358887,4483.717773,4473.077148,4374.743652,4445.256348,0.000000,3.000000,61.000000,,,,0.000000,4.000000,4.000000,4.000000,4.000000,4.000000,4.000000,4.000000,4.000000,4.000000,4.000000,4.000000,4.000000,4.000000,4.000000,100.000000,,,,,,,,,,,,,,,,,,,,,,,,,,,,
1703503719.395241,1703503719.396189,23.000000,0.000000,4280.641113,4263.589844,4293.205078,4326.153809,4263.333496,4262.692383,4271.666504,4257.820313,4251.282227,4242.436035,4484.487305,4474.230957,4374.615234,4445.000000,0.000000,3.000000,61.000000,,,,0.000000,4.000000,4.000000,4.000000,4.000000,4.000000,4.000000,4.000000,4.000000,4.000000,4.000000,4.000000,4.000000,4.000000,4.000000,100.000000,,,,,,,,,,,,,,,,,,,,,,,,,,,,
1703503719.403049,1703503719.403997,24.000000,0.000000,4280.256348,4264.615234,4293.846191,4330.256348,4263.974121,4263.846191,4278.333496,4269.743652,4269.358887,4250.641113,4491.794922,4482.692383,4386.410156,4448.717773,0.000000,3.000000,61.000000,,,,0.000000,4.000000,4.000000,4.000000,4.000000,4.000000,4.000000,4.000000,4.000000,4.000000,4.000000,4.000000,4.000000,4.000000,4.000000,100.000000,,,,,,,,,,,,,,,,,6.000000,0.000000,0.466362,0.538391,-0.444702,0.543030,0.986937,0.006837,0.025394,-14.771150,-34.753941,58.778282
1703503719.410857,1703503719.411705,25.000000,0.000000,4274.102539,4260.256348,4281.794922,4323.589844,4262.051270,4261.153809,4275.000000,4264.487305,4274.743652,4257.948730,4491.153809,4476.922852,4391.922852,4445.384766,0.000000,3.000000,61.000000,,,,0.000000,4.000000,4.000000,4.000000,4.000000,4.000000,4.000000,4.000000,4.000000,4.000000,4.000000,4.000000,4.000000,4.000000,4.000000,100.000000,,,,,,,,,,,,,,,,,,,,,,,,,,,,
1703503719.418665,1703503719.419513,26.000000,0.000000,4272.563965,4259.487305,4278.717773,4320.897461,4259.871582,4260.641113,4273.333496,4263.461426,4270.384766,4256.794922,4489.743652,4470.384766,4386.538574,4443.333496,0.000000,3.000000,61.000000,,,,0.000000,4.000000,4.000000,4.000000,4.000000,4.000000,4.000000,4.000000,4.000000,4.000000,4.000000,4.000000,4.000000,4.000000,4.000000,100.000000,,,,,,,,,,,,,,,,,,,,,,,,,,,,
1703503719.426473,1703503719.427221,27.000000,0.000000,4278.974121,4264.230957,4291.922852,4330.512695,4263.717773,4263.589844,4277.563965,4266.025879,4267.436035,4251.282227,4493.077148,4473.333496,4381.282227,4443.717773,0.000000,3.000000,61.000000,,,,0.000000,4.000000,4.000000,4.000000,4.000000,4.000000,4.000000,4.000000,4.000000,4.000000,4.000000,4.000000,4.000000,4.000000,4.000000,100.000000,,,,,,,,,,,,,,,,,,,,,,,,,,,,
1703503719.434281,1703503719.435029,28.000000,0.000000,4281.922852,4268.846191,4296.922852,4337.436035,4268.589844,4262.820313,4276.282227,4256.794922,4264.102539,4247.692383,4492.563965,4477.051270,4379.102539,4445.897461,0.000000,3.000000,61.000000,,,,0.000000,4.000000,4.000000,4.000000,4.000000,4.000000,4.000000,4.000000,4.000000,4.000000,4.000000,4.000000,4.000000,4.000000,4.000000,100.000000,,,,,,,,,,,,,,,,,7.000000,0.000000,0.466441,0.538513,-0.444397,0.543091,0.982053,0.016115,0.022952,-15.044035,-34.828548,58.767120
1703503719.442089,1703503719.442737,29.000000,0.000000,4281.922852,4272.051270,4296.410156,4337.179688,4267.692383,4256.794922,4268.077148,4243.333496,4253.846191,4240.384766,4480.641113,4472.436035,4372.948730,4444.230957,0.000000,3.000000,61.000000,,,,0.000000,4.000000,4.000000,4.000000,4.000000,4.000000,4.000000,4.000000,4.000000,4.000000,4.000000,4.000000,4.000000,4.000000,4.000000,100.000000,,,,,,,,,,,,,,,,,,,,,,,,,,,,
1703503719.449897,1703503719.450545,30.000000,0.000000,4288.846191,4278.461426,4304.743652,4344.871582,4272.051270,4255.128418,4266.538574,4242.436035,4245.384766,4236.794922,4479.358887,4470.384766,4373.846191,4444.615234,0.000000,3.000000,61.000000,,,,0.000000,4.000000,4.000000,4.000000,4.000000,4.000000,4.000000,4.000000,4.000000,4.000000,4.000000,4.000000,4.000000,4.000000,4.000000,100.000000,,,,,,,,,,,,,,,,,,,,,,,,,,,,
1703503719.457706,1703503719.458253,31.000000,0.000000,4295.897461,4281.666504,4311.153809,4353.717773,4281.282227,4256.538574,4272.948730,4244.230957,4246.282227,4239.871582,4486.538574,4476.538574,4378.717773,4451.538574,0.000000,3.000000,61.000000,,,,0.000000,4.000000,4.000000,4.000000,4.000000,4.000000,4.000000,4.000000,4.000000,4.000000,4.000000,4.000000,4.000000,4.000000,4.000000,100.000000,,,,,,,,,,,,,,,,,,,,,,,,,,,,
1703503719.465514,1703503719.466061,32.000000,0.000000,4292.051270,4275.897461,4306.410156,4347.436035,4282.307617,4252.948730,4271.410156,4237.436035,4245.128418,4235.000000,4483.333496,4476.794922,4373.077148,4451.666504,0.000000,3.000000,61.000000,,,,0.000000,4.000000,4.000000,4.000000,4.000000,4.000000,4.000000,4.000000,4.000000,4.000000,4.000000,4.000000,4.000000,4.000000,4.000000,100.000000,,,,,,,,,,,,,,,,,8.000000,0.000000,0.466400,0.538330,-0.444214,0.543457,1.003541,0.001465,0.019045,-14.989632,-34.929028,58.907078
1703503719.473322,1703503719.473769,33.000000,0.000000,4288.333496,4275.897461,4305.897461,4339.230957,4275.256348,4249.230957,4268.205078,4231.410156,4241.153809,4229.358887,4480.256348,4474.358887,4372.051270,4447.051270,0.000000,3.000000,61.000000,,,,0.000000,4.000000,4.000000,4.000000,4.000000,4.000000,4.000000,4.000000,4.000000,4.000000,4.000000,4.000000,4.000000,4.000000,4.000000,100.000000,1.000000,91.666664,4.000000,4.000000,4.000000,3.000000,4.000000,4.000000,4.000000,4.000000,4.000000,4.000000,4.000000,4.000000,4.000000,4.000000,,,,,,,,,,,,
1703503719.481130,1703503719.481677,34.000000,0.000000,4289.615234,4277.820313,4310.000000,4340.256348,4269.358887,4250.769043,4271.410156,4232.307617,4241.794922,4230.641113,4480.641113,4475.897461,4376.794922,4446.153809,0.000000,3.000000,61.000000,,,,0.000000,4.000000,4.000000,4.000000,4.000000,4.000000,4.000000,4.000000,4.000000,4.000000,4.000000,4.000000,4.000000,4.000000,4.000000,100.000000,,,,,,,,,,,,,,,,,,,,,,,,,,,,
1703503719.488938,1703503719.489485,35.000000,0.000000,4285.769043,4269.743652,4303.974121,4332.179688,4265.256348,4255.128418,4269.615234,4237.948730,4245.512695,4235.897461,4481.153809,4476.410156,4376.538574,4444.615234,0.000000,3.000000,61.000000,,,,0.000000,4.000000,4.000000,4.000000,4.000000,4.000000,4.000000,4.000000,4.000000,4.000000,4.000000,4.000000,4.000000,4.000000,4.000000,100.000000,,,,,,,,,,,,,,,,,,,,,,,,,,,,
1703503719.496746,1703503719.497393,36.000000,0.000000,4278.205078,4260.128418,4291.922852,4315.128418,4263.846191,4259.230957,4270.769043,4250.769043,4251.794922,4241.666504,4485.384766,4473.333496,4377.563965,4441.410156,0.000000,3.000000,61.000000,,,,0.000000,4.000000,4.000000,4.000000,4.000000,4.000000,4.000000,4.000000,4.000000,4.000000,4.000000,4.000000,4.000000,4.000000,4.000000,100.000000,,,,,,,,,,,,,,,,,9.000000,0.000000,0.466267,0.538025,-0.444275,0.543823,0.983518,0.004883,0.017580,-14.790668,-34.819458,58.966370
1703503719.504554,1703503719.505201,37.000000,0.000000,4274.358887,4257.948730,4290.384766,4309.871582,4264.230957,4260.641113,4277.307617,4265.384766,4261.538574,4243.205078,4491.282227,4475.384766,4380.512695,4442.820313,0.000000,3.000000,61.000000,,,,0.000000,4.000000,4.000000,4.000000,4.000000,4.000000,4.000000,4.000000,4.000000,4.000000,4.000000,4.000000,4.000000,4.000000,4.000000,100.000000,,,,,,,,,,,,,,,,,,,,,,,,,,,,
1703503719.512362,1703503719.513109,38.000000,0.000000,4273.077148,4260.769043,4294.743652,4312.307617,4264.102539,4256.922852,4272.179688,4276.922852,4275.384766,4252.692383,4496.025879,4482.692383,4385.641113,4447.948730,0.000000,3.000000,61.000000,,,,0.000000,4.000000,4.000000,4.000000,4.000000,4.000000,4.000000,4.000000,4.000000,4.000000,4.000000,4.000000,4.000000,4.000000,4.000000,100.000000,,,,,,,,,,,,,,,,,,,,,,,,,,,,
1703503719.520170,1703503719.520917,39.000000,0.000000,4274.743652,4262.179688,4295.897461,4312.307617,4264.358887,4253.077148,4266.538574,4282.179688,4285.000000,4265.512695,4499.102539,4484.743652,4390.128418,4448.589844,0.000000,3.000000,61.000000,,,,0.000000,4.000000,4.000000,4.000000,4.000000,4.000000,4.000000,4.000000,4.000000,4.000000,4.000000,4.000000,4.000000,4.000000,4.000000,100.000000,,,,,,,,,,,,,,,,,,,,,,,,,,,,
1703503719.527978,1703503719.528725,40.000000,0.000000,4280.897461,4263.974121,4294.358887,4312.436035,4265.128418,4250.256348,4270.641113,4274.358887,4277.436035,4259.102539,4494.487305,4479.615234,4385.128418,4445.384766,0.000000,3.000000,61.000000,,,,0.000000,4.000000,4.000000,4.000000,4.000000,4.000000,4.000000,4.000000,4.000000,4.000000,4.000000,4.000000,4.000000,4.000000,4.000000,100.000000,,,,,,,,,,,,,,,,,10.000000,0.000000,0.466269,0.537598,-0.444641,0.543945,0.990844,0.006837,0.032719,-14.894935,-34.754177,59.003067
1703503719.535786,1703503719.536433,41.000000,0.000000,4281.153809,4268.333496,4292.051270,4315.256348,4266.025879,4248.846191,4267.436035,4262.179688,4263.333496,4241.922852,4488.846191,4470.769043,4380.128418,4441.922852,0.000000,3.000000,61.000000,,,,0.000000,4.000000,4.000000,4.000000,4.000000,4.000000,4.000000,4.000000,4.000000,4.000000,4.000000,4.000000,4.000000,4.000000,4.000000,100.000000,,,,,,,,,,,,,,,,,,,,,,,,,,,,
1703503719.543594,1703503719.544341,42.000000,0.000000,4281.282227,4276.282227,4300.769043,4320.769043,4263.974121,4246.025879,4261.025879,4257.051270,4253.333496,4237.948730,4489.487305,4469.230957,4382.179688,4441.794922,0.000000,3.000000,61.000000,,,,0.000000,4.000000,4.000000,4.000000,4.000000,4.000000,4.000000,4.000000,4.000000,4.000000,4.000000,4.000000,4.000000,4.000000,4.000000,100.000000,,,,,,,,,,,,,,,,,,,,,,,,,,,,
1703503719.551402,1703503719.552149,43.000000,0.000000,4292.307617,4281.025879,4313.846191,4327.051270,4262.948730,4242.179688,4261.025879,4253.461426,4249.487305,4241.410156,4492.179688,4480.512695,4384.358887,4451.153809,0.000000,3.000000,61.000000,,,,0.000000,4.000000,4.000000,4.000000,4.000000,4.000000,4.000000,4.000000,4.000000,4.000000,4.000000,4.000000,4.000000,4.000000,4.000000,100.000000,,,,,,,,,,,,,,,,,,,,,,,,,,,,
1703503719.559210,1703503719.560057,44.000000,0.000000,4293.461426,4273.461426,4310.897461,4323.077148,4263.333496,4242.179688,4260.769043,4248.589844,4246.794922,4237.692383,4490.000000,4484.358887,4379.358887,4456.794922,0.000000,3.000000,61.000000,,,,0.000000,4.000000,4.000000,4.000000,4.000000,4.000000,4.000000,4.000000,4.000000,4.000000,4.000000,4.000000,4.000000,4.000000,4.000000,100.000000,,,,,,,,,,,,,,,,,11.000000,0.000000,0.466473,0.537354,-0.444946,0.543762,0.997192,0.018557,0.034184,-14.955441,-34.812096,59.002758
1703503719.567018,1703503719.567865,45.000000,0.000000,4284.102539,4265.384766,4303.333496,4314.358887,4261.538574,4245.512695,4261.153809,4246.153809,4242.436035,4231.153809,4478.589844,4469.230957,4369.102539,4446.794922,0.000000,3.000000,61.000000,,,,0.000000,4.000000,4.000000,4.000000,4.000000,4.000000,4.000000,4.000000,4.000000,4.000000,4.000000,4.000000,4.000000,4.000000,4.000000,100.000000,,,,,,,,,,,,,,,,,,,,,,,,,,,,
1703503719.574826,1703503719.575773,46.000000,0.000000,4280.128418,4266.922852,4298.846191,4311.153809,4263.077148,4247.692383,4263.077148,4247.307617,4244.871582,4231.794922,4474.871582,4459.358887,4367.051270,4437.820313,0.000000,3.000000,61.000000,,,,0.000000,4.000000,4.000000,4.000000,4.000000,4.000000,4.000000,4.000000,4.000000,4.000000,4.000000,4.000000,4.000000,4.000000,4.000000,100.000000,,,,,,,,,,,,,,,,,,,,,,,,,,,,
1703503719.582634,1703503719.583581,47.000000,0.000000,4271.794922,4260.897461,4285.512695,4303.846191,4263.717773,4249.230957,4267.563965,4246.538574,4244.743652,4235.000000,4478.077148,4462.436035,4365.897461,4433.205078,0.000000,3.000000,61.000000,,,,0.000000,4.000000,4.000000,4.000000,4.000000,4.000000,4.000000,4.000000,4.000000,4.000000,4.000000,4.000000,4.000000,4.000000,4.000000,100.000000,,,,,,,,,,,,,,,,,,,,,,,,,,,,
1703503719.590443,1703503719.591289,48.000000,0.000000,4259.871582,4248.205078,4276.282227,4294.358887,4260.641113,4258.717773,4273.589844,4244.615234,4236.922852,4229.743652,4474.358887,4463.717773,4358.461426,4424.358887,0.000000,3.000000,61.000000,,,,0.000000,4.000000,4.000000,4.000000,4.000000,4.000000,4.000000,4.000000,4.000000,4.000000,4.000000,4.000000,4.000000,4.000000,4.000000,100.000000,,,,,,,,,,,,,,,,,12.000000,0.000000,0.466592,0.537109,-0.445190,0.543701,0.982542,0.020999,0.028324,-15.143230,-34.997551,59.119148
1703503719.598251,1703503719.599097,49.000000,0.000000,4261.794922,4246.794922,4287.820313,4294.871582,4260.256348,4264.743652,4279.358887,4253.333496,4240.512695,4228.077148,4477.948730,4469.871582,4360.769043,4424.743652,0.000000,3.000000,61.000000,,,,0.000000,4.000000,4.000000,4.000000,4.000000,4.000000,4.000000,4.000000,4.000000,4.000000,4.000000,4.000000,4.000000,4.000000,4.000000,100.000000,,,,,,,,,,,,,,,,,,,,,,,,,,,,
1703503719.606058,1703503719.606805,50.000000,0.000000,4266.794922,4251.025879,4299.743652,4300.641113,4262.307617,4254.615234,4279.102539,4272.179688,4256.666504,4243.077148,4493.333496,4486.538574,4375.512695,4437.436035,0.000000,3.000000,61.000000,,,,0.000000,4.000000,4.000000,4.000000,4.000000,4.000000,4.000000,4.000000,4.000000,4.000000,4.000000,4.000000,4.000000,4.000000,4.000000,100.000000,,,,,,,,,,,,,,,,,,,,,,,,,,,,
1703503719.613867,1703503719.614713,51.000000,0.000000,4263.077148,4254.230957,4295.897461,4305.000000,4261.666504,4246.282227,4271.666504,4288.461426,4275.128418,4263.589844,4506.282227,4496.025879,4389.230957,4444.871582,0.000000,3.000000,61.000000,,,,0.000000,4.000000,4.000000,4.000000,4.000000,4.000000,4.000000,4.000000,4.000000,4.000000,4.000000,4.000000,4.000000,4.000000,4.000000,100.000000,,,,,,,,,,,,,,,,,,,,,,,,,,,,
1703503719.621675,1703503719.622521,52.000000,0.000000,4268.461426,4261.538574,4297.307617,4309.743652,4258.974121,4248.589844,4270.256348,4291.922852,4287.692383,4270.384766,4510.128418,4493.717773,4396.025879,4445.641113,0.000000,3.000000,61.000000,,,,0.000000,4.000000,4.000000,4.000000,4.000000,4.000000,4.000000,4.000000,4.000000,4.000000,4.000000,4.000000,4.000000,4.000000,4.000000,100.000000,,,,,,,,,,,,,,,,,13.000000,0.000000,0.466533,0.537048,-0.445251,0.543762,0.995239,0.020022,0.034672,-15.128907,-34.947796,59.173901
1703503719.629483,1703503719.630429,53.000000,0.000000,4281.410156,4267.307617,4308.333496,4313.333496,4261.282227,4248.846191,4272.051270,4286.282227,4288.974121,4269.871582,4510.769043,4496.922852,4399.102539,4449.487305,0.000000,3.000000,61.000000,,,,0.000000,4.000000,4.000000,4.000000,4.000000,4.000000,4.000000,4.000000,4.000000,4.000000,4.000000,4.000000,4.000000,4.000000,4.000000,100.000000,,,,,,,,,,,,,,,,,,,,,,,,,,,,
1703503719.637291,1703503719.638237,54.000000,0.000000,4280.000000,4265.384766,4305.000000,4311.410156,4262.051270,4244.487305,4266.538574,4281.282227,4280.128418,4268.077148,4507.820313,4497.051270,4396.666504,4451.922852,0.000000,3.000000,61.000000,,,,0.000000,4.000000,4.000000,4.000000,4.000000,4.000000,4.000000,4.000000,4.000000,4.000000,4.000000,4.000000,4.000000,4.000000,4.000000,100.000000,,,,,,,,,,,,,,,,,,,,,,,,,,,,
1703503719.645099,1703503719.646045,55.000000,0.000000,4270.897461,4263.077148,4296.410156,4307.436035,4252.948730,4242.563965,4261.153809,4272.948730,4267.307617,4248.589844,4496.410156,4481.666504,4383.461426,4441.922852,0.000000,3.000000,61.000000,,,,0.000000,4.000000,4.000000,4.000000,4.000000,4.000000,4.000000,4.000000,4.000000,4.000000,4.000000,4.000000,4.000000,4.000000,4.000000,100.000000,,,,,,,,,,,,,,,,,,,,,,,,,,,,
1703503719.652907,1703503719.653754,56.000000,0.000000,4273.846191,4265.384766,4298.974121,4308.589844,4251.538574,4243.461426,4265.384766,4264.102539,4262.436035,4238.333496,4490.256348,4472.563965,4371.666504,4431.282227,0.000000,3.000000,61.000000,,,,0.000000,4.000000,4.000000,4.000000,4.000000,4.000000,4.000000,4.000000,4.000000,4.000000,4.000000,4.000000,4.000000,4.000000,4.000000,100.000000,,,,,,,,,,,,,,,,,14.000000,0.000000,0.466366,0.537170,-0.445129,0.543884,0.993285,0.014650,0.028812,-15.099350,-34.836349,59.173176
1703503719.660715,1703503719.661562,57.000000,0.000000,4277.563965,4266.538574,4304.102539,4314.102539,4263.205078,4246.153809,4273.333496,4265.769043,4263.846191,4248.333496,4490.384766,4475.256348,4371.538574,4431.666504,0.000000,3.000000,61.000000,,,,0.000000,4.000000,4.000000,4.000000,4.000000,4.000000,4.000000,4.000000,4.000000,4.000000,4.000000,4.000000,4.000000,4.000000,4.000000,100.000000,,,,,,,,,,,,,,,,,,,,,,,,,,,,
1703503719.668523,1703503719.669270,58.000000,0.000000,4268.717773,4264.487305,4302.948730,4312.948730,4265.128418,4246.794922,4272.563965,4263.589844,4251.153809,4240.256348,4476.922852,4465.512695,4365.256348,4424.871582,0.000000,3.000000,61.000000,,,,0.000000,4.000000,4.000000,4.000000,4.000000,4.000000,4.000000,4.000000,4.000000,4.000000,4.000000,4.000000,4.000000,4.000000,4.000000,100.000000,,,,,,,,,,,,,,,,,,,,,,,,,,,,
1703503719.676331,1703503719.677078,59.000000,0.000000,4261.410156,4260.897461,4295.897461,4308.846191,4258.846191,4243.205078,4263.461426,4248.333496,4235.769043,4222.820313,4464.487305,4451.922852,4352.820313,4415.384766,0.000000,3.000000,61.000000,,,,0.000000,4.000000,4.000000,4.000000,4.000000,4.000000,4.000000,4.000000,4.000000,4.000000,4.000000,4.000000,4.000000,4.000000,4.000000,100.000000,,,,,,,,,,,,,,,,,,,,,,,,,,,,
1703503719.684139,1703503719.684786,60.000000,0.000000,4262.692383,4259.487305,4292.948730,4309.871582,4260.641113,4244.871582,4264.102539,4243.333496,4237.051270,4222.692383,4469.487305,4452.692383,4352.179688,4419.102539,0.000000,3.000000,61.000000,,,,0.000000,4.000000,4.000000,4.000000,4.000000,4.000000,4.000000,4.000000,4.000000,4.000000,4.000000,4.000000,4.000000,4.000000,4.000000,100.000000,,,,,,,,,,,,,,,,,15.000000,0.000000,0.466304,0.537354,-0.444824,0.544006,0.996704,0.017580,0.024905,-15.172749,-34.802715,59.189194
1703503719.691947,1703503719.692594,61.000000,0.000000,4264.615234,4262.948730,4299.615234,4311.794922,4265.641113,4255.256348,4277.179688,4255.384766,4247.820313,4231.666504,4477.307617,4461.025879,4361.410156,4428.077148,0.000000,3.000000,61.000000,,,,0.000000,4.000000,4.000000,4.000000,4.000000,4.000000,4.000000,4.000000,4.000000,4.000000,4.000000,4.000000,4.000000,4.000000,4.000000,100.000000,,,,,,,,,,,,,,,,,,,,,,,,,,,,
1703503719.699755,1703503719.700302,62.000000,0.000000,4264.487305,4264.615234,4305.000000,4310.512695,4265.256348,4261.410156,4280.897461,4262.948730,4255.000000,4237.692383,4480.769043,4468.333496,4368.205078,4430.897461,0.000000,3.000000,61.000000,,,,0.000000,4.000000,4.000000,4.000000,4.000000,4.000000,4.000000,4.000000,4.000000,4.000000,4.000000,4.000000,4.000000,4.000000,4.000000,100.000000,,,,,,,,,,,,,,,,,,,,,,,,,,,,
1703503719.707563,1703503719.708210,63.000000,0.000000,4269.743652,4262.692383,4302.820313,4311.666504,4264.871582,4259.230957,4277.692383,4259.487305,4255.384766,4236.794922,4479.743652,4467.436035,4369.102539,4431.410156,0.000000,3.000000,61.000000,,,,0.000000,4.000000,4.000000,4.000000,4.000000,4.000000,4.000000,4.000000,4.000000,4.000000,4.000000,4.000000,4.000000,4.000000,4.000000,100.000000,,,,,,,,,,,,,,,,,,,,,,,,,,,,
1703503719.715371,1703503719.716018,64.000000,0.000000,4278.974121,4269.230957,4307.948730,4319.102539,4273.205078,4259.871582,4277.436035,4257.436035,4260.384766,4240.769043,4486.025879,4471.922852,4376.922852,4439.358887,5268.000000,3.000000,61.000000,,,,0.000000,4.000000,4.000000,4.000000,4.000000,4.000000,4.000000,4.000000,4.000000,4.000000,4.000000,4.000000,4.000000,4.000000,4.000000,100.000000,,,,,,,,,,,,,,,,,16.000000,0.000000,0.466481,0.537537,-0.444641,0.543823,0.990355,0.014650,0.033696,-15.055473,-34.789108,59.353607
1703503719.723179,1703503719.723925,65.000000,0.000000,4282.307617,4280.000000,4319.487305,4327.307617,4275.897461,4261.153809,4277.948730,4262.692383,4270.256348,4254.615234,4499.487305,4490.128418,4384.615234,4447.692383,5514.000000,3.000000,61.000000,,,,0.000000,4.000000,4.000000,4.000000,4.000000,4.000000,4.000000,4.000000,4.000000,4.000000,4.000000,4.000000,4.000000,4.000000,4.000000,100.000000,,,,,,,,,,,,,,,,,,,,,,,,,,,,
1703503719.730987,1703503719.731733,66.000000,0.000000,4281.794922,4281.538574,4322.563965,4327.179688,4268.846191,4261.538574,4280.000000,4267.692383,4271.282227,4255.384766,4498.974121,4493.205078,4380.384766,4446.410156,5405.000000,3.000000,61.000000,,,,0.000000,4.000000,4.000000,4.000000,4.000000,4.000000,4.000000,4.000000,4.000000,4.000000,4.000000,4.000000,4.000000,4.000000,4.000000,100.000000,,,,,,,,,,,,,,,,,,,,,,,,,,,,
1703503719.738795,1703503719.739641,67.000000,0.000000,4280.384766,4273.333496,4313.205078,4318.205078,4268.846191,4260.256348,4278.717773,4265.769043,4265.641113,4246.153809,4491.153809,4480.256348,4378.333496,4442.948730,5379.000000,3.000000,61.000000,,,,0.000000,4.000000,4.000000,4.000000,4.000000,4.000000,4.000000,4.000000,4.000000,4.000000,4.000000,4.000000,4.000000,4.000000,4.000000,100.000000,,,,,,,,,,,,,,,,,,,,,,,,,,,,
1703503719.746604,1703503719.747449,68.000000,0.000000,4278.077148,4266.153809,4307.820313,4314.487305,4269.871582,4251.666504,4276.538574,4265.256348,4263.333496,4245.769043,4490.128418,4477.179688,4378.717773,4438.077148,5312.000000,3.000000,61.000000,,,,0.000000,4.000000,4.000000,4.000000,4.000000,4.000000,4.000000,4.000000,4.000000,4.000000,4.000000,4.000000,4.000000,4.000000,4.000000,100.000000,,,,,,,,,,,,,,,,,17.000000,0.000000,0.466520,0.537537,-0.444824,0.543640,0.989379,0.019045,0.021487,-14.983259,-34.743534,59.334911
1703503719.754412,1703503719.755357,69.000000,0.000000,4278.077148,4269.487305,4314.615234,4322.563965,4266.666504,4250.256348,4279.358887,4273.846191,4264.102539,4247.820313,4491.538574,4483.717773,4376.153809,4437.563965,4961.000000,3.000000,61.000000,,,,0.000000,4.000000,4.000000,4.000000,4.000000,4.000000,4.000000,4.000000,4.000000,4.000000,4.000000,4.000000,4.000000,4.000000,4.000000,100.000000,,,,,,,,,,,,,,,,,,,,,,,,,,,,
1703503719.762220,1703503719.763165,70.000000,0.000000,4280.128418,4273.717773,4316.410156,4326.794922,4265.897461,4255.897461,4281.410156,4282.692383,4266.025879,4248.333496,4494.487305,4486.922852,4378.717773,4444.102539,3917.000000,3.000000,61.000000,,,,0.000000,4.000000,4.000000,4.000000,4.000000,4.000000,4.000000,4.000000,4.000000,4.000000,4.000000,4.000000,4.000000,4.000000,4.000000,100.000000,,,,,,,,,,,,,,,,,,,,,,,,,,,,
1703503719.770028,1703503719.771073,71.000000,0.000000,4280.512695,4267.436035,4309.487305,4323.333496,4267.436035,4252.307617,4279.358887,4280.897461,4264.871582,4248.589844,4500.384766,4490.384766,4382.179688,4447.179688,5036.000000,3.000000,61.000000,,,,0.000000,4.000000,4.000000,4.000000,4.000000,4.000000,4.000000,4.000000,4.000000,4.000000,4.000000,4.000000,4.000000,4.000000,4.000000,100.000000,,,,,,,,,,,,,,,,,,,,,,,,,,,,
1703503719.777836,1703503719.778881,72.000000,0.000000,4281.153809,4263.589844,4309.871582,4322.436035,4268.846191,4250.769043,4277.948730,4281.153809,4265.000000,4250.128418,4506.153809,4497.692383,4384.871582,4449.102539,5011.000000,3.000000,61.000000,,,,0.000000,4.000000,4.000000,4.000000,4.000000,4.000000,4.000000,4.000000,4.000000,4.000000,4.000000,4.000000,4.000000,4.000000,4.000000,100.000000,,,,,,,,,,,,,,,,,18.000000,0.000000,0.466524,0.537354,-0.445190,0.543518,0.990355,0.009767,0.021487,-15.068267,-34.585846,59.251423
1703503719.785644,1703503719.786589,73.000000,0.000000,4279.487305,4266.538574,4313.205078,4323.077148,4267.436035,4258.717773,4278.589844,4282.692383,4261.538574,4245.769043,4503.461426,4494.615234,4382.179688,4447.692383,5484.000000,3.000000,61.000000,,,,0.000000,4.000000,4.000000,4.000000,4.000000,4.000000,4.000000,4.000000,4.000000,4.000000,4.000000,4.000000,4.000000,4.000000,4.000000,100.000000,,,,,,,,,,,,,,,,,,,,,,,,,,,,
1703503719.793452,1703503719.794397,74.000000,0.000000,4277.436035,4264.743652,4311.153809,4322.307617,4265.000000,4261.794922,4278.717773,4270.512695,4250.384766,4234.487305,4490.512695,4482.051270,4367.820313,4437.692383,6045.000000,3.000000,61.000000,,,,0.000000,4.000000,4.000000,4.000000,4.000000,4.000000,4.000000,4.000000,4.000000,4.000000,4.000000,4.000000,4.000000,4.000000,4.000000,100.000000,,,,,,,,,,,,,,,,,,,,,,,,,,,,
1703503719.801260,1703503719.802105,75.000000,0.000000,4278.974121,4263.333496,4309.230957,4322.307617,4270.384766,4261.538574,4279.871582,4261.538574,4251.025879,4237.179688,4486.538574,4478.589844,4363.846191,4435.128418,6324.000000,3.000000,61.000000,,,,0.000000,4.000000,4.000000,4.000000,4.000000,4.000000,4.000000,4.000000,4.000000,4.000000,4.000000,4.000000,4.000000,4.000000,4.000000,100.000000,,,,,,,,,,,,,,,,,,,,,,,,,,,,
1703503719.809068,1703503719.809913,76.000000,0.000000,4279.102539,4269.743652,4309.230957,4320.384766,4276.922852,4263.589844,4280.128418,4260.384766,4257.307617,4244.743652,4492.948730,4482.051270,4371.538574,4440.769043,6845.000000,3.000000,61.000000,,,,0.000000,4.000000,4.000000,4.000000,4.000000,4.000000,4.000000,4.000000,4.000000,4.000000,4.000000,4.000000,4.000000,4.000000,4.000000,100.000000,,,,,,,,,,,,,,,,,19.000000,0.000000,0.466433,0.537354,-0.445435,0.543396,0.990844,0.014650,0.028324,-14.928107,-34.627262,59.176281
1703503719.816876,1703503719.817621,77.000000,0.000000,4280.769043,4276.282227,4310.384766,4324.358887,4278.333496,4264.102539,4277.948730,4251.538574,4256.666504,4245.641113,4495.897461,4480.000000,4374.743652,4443.846191,7231.000000,3.000000,61.000000,,,,0.000000,4.000000,4.000000,4.000000,4.000000,4.000000,4.000000,4.000000,4.000000,4.000000,4.000000,4.000000,4.000000,4.000000,4.000000,100.000000,,,,,,,,,,,,,,,,,,,,,,,,,,,,
1703503719.824684,1703503719.825429,78.000000,0.000000,4282.179688,4276.538574,4309.487305,4328.205078,4278.205078,4262.820313,4278.077148,4250.128418,4259.230957,4250.000000,4496.025879,4477.820313,4377.692383,4441.794922,6045.000000,3.000000,61.000000,,,,0.000000,4.000000,4.000000,4.000000,4.000000,4.000000,4.000000,4.000000,4.000000,4.000000,4.000000,4.000000,4.000000,4.000000,4.000000,100.000000,,,,,,,,,,,,,,,,,,,,,,,,,,,,
1703503719.832492,1703503719.833137,79.000000,0.000000,4270.512695,4264.358887,4298.974121,4316.538574,4270.769043,4254.871582,4278.589844,4263.205078,4264.358887,4257.307617,4494.871582,4472.436035,4380.384766,4432.179688,6324.000000,3.000000,61.000000,,,,0.000000,4.000000,4.000000,4.000000,4.000000,4.000000,4.000000,4.000000,4.000000,4.000000,4.000000,4.000000,4.000000,4.000000,4.000000,100.000000,,,,,,,,,,,,,,,,,,,,,,,,,,,,
1703503719.840300,1703503719.840945,80.000000,0.000000,4257.436035,4248.461426,4289.102539,4304.358887,4260.897461,4247.948730,4277.179688,4268.077148,4266.922852,4259.230957,4494.743652,4465.897461,4375.769043,4423.205078,6845.000000,3.000000,61.000000,,,,0.000000,4.000000,4.000000,4.000000,4.000000,4.000000,4.000000,4.000000,4.000000,4.000000,4.000000,4.000000,4.000000,4.000000,4.000000,100.000000,,,,,,,,,,,,,,,,,20.000000,0.000000,0.466234,0.537415,-0.445496,0.543457,1.003052,-0.001953,0.014650,-14.851963,-34.397869,59.191986
1703503719.848108,1703503719.848653,81.000000,0.000000,4264.102539,4250.512695,4298.461426,4308.717773,4261.025879,4250.641113,4277.307617,4261.410156,4260.384766,4254.487305,4495.897461,4472.436035,4372.436035,4426.666504,7231.000000,3.000000,61.000000,,,,0.000000,4.000000,4.000000,4.000000,4.000000,4.000000,4.000000,4.000000,4.000000,4.000000,4.000000,4.000000,4.000000,4.000000,4.000000,100.000000,,,,,,,,,,,,,,,,,,,,,,,,,,,,
1703503719.855916,1703503719.856461,82.000000,0.000000,4275.769043,4260.641113,4306.282227,4313.333496,4263.846191,4252.051270,4277.436035,4259.615234,4248.077148,4248.333496,4495.000000,4478.461426,4382.051270,4438.205078,6045.000000,3.000000,61.000000,,,,0.000000,4.000000,4.000000,4.000000,4.000000,4.000000,4.000000,4.000000,4.000000,4.000000,4.000000,4.000000,4.000000,4.000000,4.000000,100.000000,,,,,,,,,,,,,,,,,,,,,,,,,,,,
1703503719.863724,1703503719.864169,83.000000,0.000000,4274.230957,4255.128418,4296.794922,4308.077148,4262.436035,4248.717773,4273.717773,4262.948730,4252.820313,4247.948730,4495.512695,4474.743652,4390.128418,4443.205078,6324.000000,3.000000,61.000000,,,,0.000000,4.000000,4.000000,4.000000,4.000000,4.000000,4.000000,4.000000,4.000000,4.000000,4.000000,4.000000,4.000000,4.000000,4.000000,100.000000,,,,,,,,,,,,,,,,,,,,,,,,,,,,
1703503719.871532,1703503719.871977,84.000000,0.000000,4274.102539,4247.563965,4296.794922,4307.179688,4260.256348,4250.641113,4272.179688,4262.051270,4266.410156,4247.948730,4489.743652,4472.436035,4381.153809,4435.769043,6845.000000,3.000000,61.000000,,,,0.000000,4.000000,4.000000,4.000000,4.000000,4.000000,4.000000,4.000000,4.000000,4.000000,4.000000,4.000000,4.000000,4.000000,4.000000,100.000000,,,,,,,,,,,,,,,,,21.000000,0.000000,0.465987,0.537415,-0.445679,0.543518,0.987914,0.005860,0.012697,-14.850100,-34.424747,59.022785
1703503719.879341,1703503719.879685,85.000000,0.000000,4278.077148,4254.230957,4306.794922,4310.384766,4262.820313,4258.205078,4274.358887,4262.051270,4263.461426,4243.846191,4476.538574,4474.743652,4368.077148,4431.538574,7231.000000,3.000000,61.000000,,,,0.000000,4.000000,4.000000,4.000000,4.000000,4.000000,4.000000,4.000000,4.000000,4.000000,4.000000,4.000000,4.000000,4.000000,4.000000,100.000000,,,,,,,,,,,,,,,,,,,,,,,,,,,,
1703503719.887149,1703503719.887593,86.000000,0.000000,4280.000000,4260.641113,4310.256348,4313.205078,4266.922852,4261.922852,4276.794922,4270.384766,4264.102539,4247.179688,4475.641113,4481.153809,4370.384766,4441.282227,6045.000000,3.000000,61.000000,,,,0.000000,4.000000,4.000000,4.000000,4.000000,4.000000,4.000000,4.000000,4.000000,4.000000,4.000000,4.000000,4.000000,4.000000,4.000000,100.000000,,,,,,,,,,,,,,,,,,,,,,,,,,,,
1703503719.894956,1703503719.895401,87.000000,0.000000,4280.769043,4262.179688,4308.461426,4315.897461,4265.128418,4262.051270,4279.102539,4280.000000,4277.436035,4252.563965,4487.179688,4484.487305,4378.077148,4447.179688,6324.000000,3.000000,61.000000,,,,0.000000,4.000000,4.000000,4.000000,4.000000,4.000000,4.000000,4.000000,4.000000,4.000000,4.000000,4.000000,4.000000,4.000000,4.000000,100.000000,,,,,,,,,,,,,,,,,,,,,,,,,,,,
1703503719.902765,1703503719.903309,88.000000,0.000000,4270.512695,4258.974121,4304.230957,4312.436035,4263.077148,4260.000000,4280.769043,4281.282227,4282.307617,4253.717773,4488.589844,4478.205078,4375.512695,4436.922852,6845.000000,3.000000,61.000000,,,,0.000000,4.000000,4.000000,4.000000,4.000000,4.000000,4.000000,4.000000,4.000000,4.000000,4.000000,4.000000,4.000000,4.000000,4.000000,100.000000,,,,,,,,,,,,,,,,,22.000000,0.000000,0.465859,0.537476,-0.445740,0.543518,0.993285,0.019045,0.020999,-14.781756,-34.432274,58.853840
