title:مضر تشغيل, start timestamp:1703403127.772775, stop timestamp:1703403138.563505, headset type:EPOCX, headset serial:E50206EF, headset firmware:720, channels:67, sampling rate:eeg_128;mot_32, samples:1383      , version:2.2, 
Timestamp,OriginalTimestamp,EEG.Counter,EEG.Interpolated,EEG.AF3,EEG.F7,EEG.F3,EEG.FC5,EEG.T7,EEG.P7,EEG.O1,EEG.O2,EEG.P8,EEG.T8,EEG.FC6,EEG.F4,EEG.F8,EEG.AF4,EEG.RawCq,EEG.Battery,EEG.BatteryPercent,MarkerIndex,MarkerType,MarkerValueInt,EEG.MarkerHardware,CQ.AF3,CQ.F7,CQ.F3,CQ.FC5,CQ.T7,CQ.P7,CQ.O1,CQ.O2,CQ.P8,CQ.T8,CQ.FC6,CQ.F4,CQ.F8,CQ.AF4,CQ.Overall,EQ.SampleRateQuality,EQ.OVERALL,EQ.AF3,EQ.F7,EQ.F3,EQ.FC5,EQ.T7,EQ.P7,EQ.O1,EQ.O2,EQ.P8,EQ.T8,EQ.FC6,EQ.F4,EQ.F8,EQ.AF4,MOT.CounterMems,MOT.InterpolatedMems,MOT.Q0,MOT.Q1,MOT.Q2,MOT.Q3,MOT.AccX,MOT.AccY,MOT.AccZ,MOT.MagX,MOT.MagY,MOT.MagZ
1703403127.772775,1703403127.772781,99.000000,0.000000,4243.333496,4188.077148,4279.615234,4222.692383,4154.615234,4139.230957,4200.000000,4165.897461,4157.563965,4138.205078,4569.871582,4451.025879,4352.179688,4486.794922,6173.000000,4.000000,89.000000,,,,0.000000,4.000000,4.000000,4.000000,4.000000,4.000000,4.000000,4.000000,4.000000,4.000000,4.000000,4.000000,4.000000,4.000000,4.000000,100.000000,,,,,,,,,,,,,,,,,,,,,,,,,,,,
1703403127.780583,1703403127.780689,100.000000,0.000000,4234.487305,4187.179688,4271.410156,4222.051270,4152.820313,4140.384766,4200.512695,4158.461426,4155.000000,4138.461426,4564.487305,4443.717773,4352.179688,4486.794922,6628.000000,4.000000,89.000000,,,,0.000000,4.000000,4.000000,4.000000,4.000000,4.000000,4.000000,4.000000,4.000000,4.000000,4.000000,4.000000,4.000000,4.000000,4.000000,100.000000,,,,,,,,,,,,,,,,,25.000000,0.000000,0.669601,-0.027771,-0.707825,0.223267,0.920034,-0.358931,0.012209,-29.959122,-6.831512,73.975151
1703403127.788391,1703403127.788497,101.000000,0.000000,4238.717773,4188.717773,4271.282227,4225.384766,4158.974121,4141.410156,4203.717773,4156.922852,4155.000000,4140.128418,4567.692383,4445.897461,4357.948730,4488.846191,6594.000000,4.000000,89.000000,,,,0.000000,4.000000,4.000000,4.000000,4.000000,4.000000,4.000000,4.000000,4.000000,4.000000,4.000000,4.000000,4.000000,4.000000,4.000000,100.000000,,,,,,,,,,,,,,,,,,,,,,,,,,,,
1703403127.796199,1703403127.796405,102.000000,0.000000,4239.871582,4193.461426,4279.230957,4230.512695,4168.589844,4142.820313,4206.538574,4156.794922,4153.846191,4137.563965,4561.666504,4445.000000,4360.128418,4488.717773,5818.000000,4.000000,89.000000,,,,0.000000,4.000000,4.000000,4.000000,4.000000,4.000000,4.000000,4.000000,4.000000,4.000000,4.000000,4.000000,4.000000,4.000000,4.000000,100.000000,,,,,,,,,,,,,,,,,,,,,,,,,,,,
1703403127.804007,1703403127.804213,103.000000,0.000000,4232.948730,4189.743652,4279.615234,4228.717773,4167.307617,4142.307617,4202.307617,4155.256348,4150.897461,4135.256348,4552.820313,4442.692383,4356.410156,4489.871582,6173.000000,4.000000,89.000000,,,,0.000000,4.000000,4.000000,4.000000,4.000000,4.000000,4.000000,4.000000,4.000000,4.000000,4.000000,4.000000,4.000000,4.000000,4.000000,100.000000,,,,,,,,,,,,,,,,,,,,,,,,,,,,
1703403127.811815,1703403127.812121,104.000000,0.000000,4231.153809,4185.769043,4273.846191,4228.461426,4163.589844,4141.025879,4200.128418,4153.974121,4147.179688,4137.948730,4555.128418,4443.846191,4357.692383,4490.384766,6628.000000,4.000000,89.000000,,,,0.000000,4.000000,4.000000,4.000000,4.000000,4.000000,4.000000,4.000000,4.000000,4.000000,4.000000,4.000000,4.000000,4.000000,4.000000,100.000000,,,,,,,,,,,,,,,,,26.000000,0.000000,0.669689,-0.027771,-0.707703,0.223389,0.923453,-0.353070,0.013185,-29.979876,-6.731695,74.027634
1703403127.819623,1703403127.819929,105.000000,0.000000,4233.974121,4192.051270,4271.410156,4232.948730,4166.922852,4141.025879,4200.769043,4153.461426,4144.743652,4134.230957,4555.000000,4443.077148,4359.487305,4484.102539,6594.000000,4.000000,89.000000,,,,0.000000,4.000000,4.000000,4.000000,4.000000,4.000000,4.000000,4.000000,4.000000,4.000000,4.000000,4.000000,4.000000,4.000000,4.000000,100.000000,,,,,,,,,,,,,,,,,,,,,,,,,,,,
1703403127.827431,1703403127.827837,106.000000,0.000000,4240.000000,4196.922852,4274.871582,4232.692383,4167.820313,4140.256348,4199.615234,4152.563965,4144.102539,4126.025879,4551.666504,4445.256348,4355.897461,4482.436035,5818.000000,4.000000,89.000000,,,,0.000000,4.000000,4.000000,4.000000,4.000000,4.000000,4.000000,4.000000,4.000000,4.000000,4.000000,4.000000,4.000000,4.000000,4.000000,100.000000,,,,,,,,,,,,,,,,,,,,,,,,,,,,
1703403127.835239,1703403127.835645,107.000000,0.000000,4242.179688,4196.025879,4278.846191,4234.102539,4169.487305,4146.922852,4201.538574,4153.205078,4142.436035,4125.000000,4549.230957,4452.307617,4357.563965,4485.769043,6173.000000,4.000000,89.000000,,,,0.000000,4.000000,4.000000,4.000000,4.000000,4.000000,4.000000,4.000000,4.000000,4.000000,4.000000,4.000000,4.000000,4.000000,4.000000,100.000000,,,,,,,,,,,,,,,,,,,,,,,,,,,,
1703403127.843047,1703403127.843553,108.000000,0.000000,4237.820313,4192.307617,4276.538574,4232.563965,4172.948730,4154.358887,4202.948730,4153.717773,4141.538574,4126.794922,4541.153809,4450.512695,4356.153809,4484.743652,6628.000000,4.000000,89.000000,,,,0.000000,4.000000,4.000000,4.000000,4.000000,4.000000,4.000000,4.000000,4.000000,4.000000,4.000000,4.000000,4.000000,4.000000,4.000000,100.000000,,,,,,,,,,,,,,,,,27.000000,0.000000,0.669697,-0.027588,-0.707703,0.223389,0.925406,-0.350629,-0.003907,-30.131889,-6.675192,74.108200
1703403127.850855,1703403127.851361,109.000000,0.000000,4227.051270,4181.666504,4270.897461,4220.897461,4167.436035,4147.820313,4200.897461,4155.641113,4146.794922,4122.820313,4537.051270,4443.846191,4348.846191,4481.282227,6594.000000,4.000000,89.000000,,,,0.000000,4.000000,4.000000,4.000000,4.000000,4.000000,4.000000,4.000000,4.000000,4.000000,4.000000,4.000000,4.000000,4.000000,4.000000,100.000000,,,,,,,,,,,,,,,,,,,,,,,,,,,,
1703403127.858663,1703403127.859069,110.000000,0.000000,4217.948730,4175.128418,4270.641113,4212.179688,4161.282227,4139.743652,4200.512695,4162.563965,4151.410156,4123.717773,4545.128418,4447.948730,4352.563965,4475.128418,5818.000000,4.000000,89.000000,,,,0.000000,4.000000,4.000000,4.000000,4.000000,4.000000,4.000000,4.000000,4.000000,4.000000,4.000000,4.000000,4.000000,4.000000,4.000000,100.000000,,,,,,,,,,,,,,,,,,,,,,,,,,,,
1703403127.866471,1703403127.866877,111.000000,0.000000,4226.282227,4183.205078,4274.230957,4217.436035,4162.436035,4143.846191,4202.820313,4169.358887,4153.974121,4134.487305,4552.692383,4457.436035,4368.846191,4477.820313,6173.000000,4.000000,89.000000,,,,0.000000,4.000000,4.000000,4.000000,4.000000,4.000000,4.000000,4.000000,4.000000,4.000000,4.000000,4.000000,4.000000,4.000000,4.000000,100.000000,,,,,,,,,,,,,,,,,,,,,,,,,,,,
1703403127.874280,1703403127.874585,112.000000,0.000000,4245.512695,4188.205078,4277.436035,4224.871582,4164.487305,4145.512695,4201.538574,4173.333496,4162.051270,4140.897461,4554.871582,4460.641113,4381.153809,4495.769043,6628.000000,4.000000,89.000000,,,,0.000000,4.000000,4.000000,4.000000,4.000000,4.000000,4.000000,4.000000,4.000000,4.000000,4.000000,4.000000,4.000000,4.000000,4.000000,100.000000,,,,,,,,,,,,,,,,,28.000000,0.000000,0.669850,-0.027405,-0.707642,0.223145,0.912221,-0.359419,0.006348,-30.002033,-6.624339,73.897385
1703403127.882088,1703403127.882393,113.000000,0.000000,4250.512695,4187.051270,4281.410156,4223.461426,4162.820313,4141.794922,4202.051270,4174.102539,4165.897461,4142.051270,4555.641113,4460.769043,4381.666504,4509.743652,6594.000000,4.000000,89.000000,,,,0.000000,4.000000,4.000000,4.000000,4.000000,4.000000,4.000000,4.000000,4.000000,4.000000,4.000000,4.000000,4.000000,4.000000,4.000000,100.000000,,,,,,,,,,,,,,,,,,,,,,,,,,,,
1703403127.889896,1703403127.890101,114.000000,0.000000,4243.589844,4187.820313,4283.205078,4220.641113,4157.051270,4142.820313,4204.615234,4172.948730,4159.615234,4141.153809,4553.974121,4461.025879,4376.025879,4508.333496,5818.000000,4.000000,89.000000,,,,0.000000,4.000000,4.000000,4.000000,4.000000,4.000000,4.000000,4.000000,4.000000,4.000000,4.000000,4.000000,4.000000,4.000000,4.000000,100.000000,,,,,,,,,,,,,,,,,,,,,,,,,,,,
1703403127.897704,1703403127.898009,115.000000,0.000000,4245.000000,4185.128418,4278.846191,4220.512695,4152.307617,4140.512695,4205.512695,4169.102539,4153.077148,4131.538574,4548.846191,4460.256348,4370.512695,4501.153809,6173.000000,4.000000,89.000000,,,,0.000000,4.000000,4.000000,4.000000,4.000000,4.000000,4.000000,4.000000,4.000000,4.000000,4.000000,4.000000,4.000000,4.000000,4.000000,100.000000,,,,,,,,,,,,,,,,,,,,,,,,,,,,
1703403127.905512,1703403127.905817,116.000000,0.000000,4248.333496,4183.846191,4274.615234,4218.077148,4153.974121,4139.102539,4207.051270,4166.922852,4154.358887,4125.384766,4542.307617,4459.743652,4368.974121,4493.589844,6628.000000,4.000000,89.000000,,,,0.000000,4.000000,4.000000,4.000000,4.000000,4.000000,4.000000,4.000000,4.000000,4.000000,4.000000,4.000000,4.000000,4.000000,4.000000,100.000000,,,,,,,,,,,,,,,,,29.000000,0.000000,0.669908,-0.027466,-0.707642,0.222961,0.931266,-0.356977,0.016604,-29.918497,-6.628572,73.790977
1703403127.913320,1703403127.913724,117.000000,0.000000,4241.153809,4185.256348,4273.974121,4216.410156,4156.025879,4141.922852,4204.102539,4167.692383,4155.384766,4134.615234,4537.307617,4455.641113,4370.512695,4490.769043,6594.000000,4.000000,89.000000,,,,0.000000,4.000000,4.000000,4.000000,4.000000,4.000000,4.000000,4.000000,4.000000,4.000000,4.000000,4.000000,4.000000,4.000000,4.000000,100.000000,,,,,,,,,,,,,,,,,,,,,,,,,,,,
1703403127.921128,1703403127.921532,118.000000,0.000000,4234.615234,4184.743652,4274.102539,4221.794922,4154.615234,4139.615234,4205.641113,4167.436035,4154.358887,4142.820313,4542.948730,4453.205078,4373.333496,4488.974121,5818.000000,4.000000,89.000000,,,,0.000000,4.000000,4.000000,4.000000,4.000000,4.000000,4.000000,4.000000,4.000000,4.000000,4.000000,4.000000,4.000000,4.000000,4.000000,100.000000,,,,,,,,,,,,,,,,,,,,,,,,,,,,
1703403127.928936,1703403127.929440,119.000000,0.000000,4240.384766,4184.743652,4276.538574,4228.846191,4156.025879,4137.051270,4209.743652,4167.563965,4154.230957,4135.769043,4553.589844,4456.666504,4378.717773,4484.358887,6173.000000,4.000000,89.000000,,,,0.000000,4.000000,4.000000,4.000000,4.000000,4.000000,4.000000,4.000000,4.000000,4.000000,4.000000,4.000000,4.000000,4.000000,4.000000,100.000000,,,,,,,,,,,,,,,,,,,,,,,,,,,,
1703403127.936744,1703403127.937248,120.000000,0.000000,4249.102539,4183.589844,4278.461426,4227.948730,4158.974121,4139.615234,4207.692383,4163.589844,4151.153809,4126.282227,4551.153809,4456.794922,4386.538574,4493.974121,6628.000000,4.000000,89.000000,,,,0.000000,4.000000,4.000000,4.000000,4.000000,4.000000,4.000000,4.000000,4.000000,4.000000,4.000000,4.000000,4.000000,4.000000,4.000000,100.000000,,,,,,,,,,,,,,,,,30.000000,0.000000,0.669929,-0.027466,-0.707642,0.222900,0.922964,-0.361372,0.003418,-29.743313,-6.399048,73.595215
1703403127.944552,1703403127.945056,121.000000,0.000000,4246.410156,4183.589844,4279.743652,4226.538574,4160.512695,4141.153809,4205.897461,4160.769043,4149.487305,4127.948730,4546.922852,4455.769043,4396.794922,4507.692383,6594.000000,4.000000,89.000000,,,,0.000000,4.000000,4.000000,4.000000,4.000000,4.000000,4.000000,4.000000,4.000000,4.000000,4.000000,4.000000,4.000000,4.000000,4.000000,100.000000,,,,,,,,,,,,,,,,,,,,,,,,,,,,
1703403127.952360,1703403127.952764,122.000000,0.000000,4245.128418,4195.000000,4285.256348,4230.769043,4163.589844,4140.128418,4205.641113,4167.563965,4153.333496,4137.051270,4553.461426,4463.205078,4397.820313,4503.846191,5818.000000,4.000000,89.000000,,,,0.000000,4.000000,4.000000,4.000000,4.000000,4.000000,4.000000,4.000000,4.000000,4.000000,4.000000,4.000000,4.000000,4.000000,4.000000,100.000000,,,,,,,,,,,,,,,,,,,,,,,,,,,,
1703403127.960168,1703403127.960672,123.000000,0.000000,4250.000000,4200.512695,4290.512695,4232.948730,4162.820313,4140.384766,4209.358887,4172.692383,4159.358887,4142.179688,4558.589844,4470.512695,4393.461426,4502.436035,6173.000000,4.000000,89.000000,,,,0.000000,4.000000,4.000000,4.000000,4.000000,4.000000,4.000000,4.000000,4.000000,4.000000,4.000000,4.000000,4.000000,4.000000,4.000000,100.000000,,,,,,,,,,,,,,,,,,,,,,,,,,,,
1703403127.967976,1703403127.968480,124.000000,0.000000,4248.717773,4189.871582,4288.077148,4232.051270,4161.025879,4142.179688,4211.538574,4169.487305,4158.974121,4140.641113,4557.051270,4466.538574,4401.538574,4511.922852,6628.000000,4.000000,89.000000,,,,0.000000,4.000000,4.000000,4.000000,4.000000,4.000000,4.000000,4.000000,4.000000,4.000000,4.000000,4.000000,4.000000,4.000000,4.000000,100.000000,,,,,,,,,,,,,,,,,31.000000,0.000000,0.669969,-0.027466,-0.707642,0.222778,0.923941,-0.342815,0.003907,-29.735649,-6.425810,73.635689
1703403127.975784,1703403127.976388,125.000000,0.000000,4246.922852,4188.461426,4282.307617,4231.025879,4163.974121,4142.179688,4207.307617,4167.307617,4154.487305,4138.333496,4555.769043,4459.230957,4408.717773,4511.153809,6594.000000,4.000000,89.000000,,,,0.000000,4.000000,4.000000,4.000000,4.000000,4.000000,4.000000,4.000000,4.000000,4.000000,4.000000,4.000000,4.000000,4.000000,4.000000,100.000000,,,,,,,,,,,,,,,,,,,,,,,,,,,,
1703403127.983592,1703403127.984196,126.000000,0.000000,4247.051270,4198.717773,4279.358887,4230.128418,4167.307617,4142.051270,4205.512695,4171.666504,4156.282227,4138.077148,4550.897461,4458.974121,4399.615234,4502.563965,5818.000000,4.000000,89.000000,,,,0.000000,4.000000,4.000000,4.000000,4.000000,4.000000,4.000000,4.000000,4.000000,4.000000,4.000000,4.000000,4.000000,4.000000,4.000000,100.000000,,,,,,,,,,,,,,,,,,,,,,,,,,,,
1703403127.991400,1703403127.992104,127.000000,0.000000,4245.769043,4201.538574,4277.051270,4232.563965,4169.743652,4147.563965,4212.820313,4172.820313,4160.769043,4139.230957,4549.871582,4460.256348,4398.846191,4505.256348,89.000000,4.000000,89.000000,,,,0.000000,4.000000,4.000000,4.000000,4.000000,4.000000,4.000000,4.000000,4.000000,4.000000,4.000000,4.000000,4.000000,4.000000,4.000000,100.000000,,,,,,,,,,,,,,,,,,,,,,,,,,,,
1703403127.999208,1703403127.999912,0.000000,0.000000,4250.641113,4195.897461,4275.000000,4231.410156,4170.384766,4154.358887,4216.410156,4167.179688,4160.769043,4140.128418,4550.512695,4456.794922,4412.179688,4503.461426,5332.000000,4.000000,89.000000,,,,0.000000,4.000000,4.000000,4.000000,4.000000,4.000000,4.000000,4.000000,4.000000,4.000000,4.000000,4.000000,4.000000,4.000000,4.000000,100.000000,1.000000,91.666664,4.000000,4.000000,4.000000,4.000000,4.000000,4.000000,4.000000,4.000000,4.000000,4.000000,3.000000,4.000000,4.000000,4.000000,0.000000,0.000000,0.670031,-0.027527,-0.707581,0.222778,0.933219,-0.352094,0.006837,-29.878750,-6.416563,73.738792
1703403128.007016,1703403128.007820,1.000000,0.000000,4248.205078,4188.589844,4271.410156,4220.897461,4169.871582,4148.461426,4211.282227,4164.487305,4155.897461,4138.717773,4543.205078,4451.922852,4414.230957,4489.615234,5073.000000,4.000000,89.000000,,,,0.000000,4.000000,4.000000,4.000000,4.000000,4.000000,4.000000,4.000000,4.000000,4.000000,4.000000,4.000000,4.000000,4.000000,4.000000,100.000000,,,,,,,,,,,,,,,,,,,,,,,,,,,,
1703403128.014825,1703403128.015628,2.000000,0.000000,4232.307617,4184.615234,4265.128418,4213.461426,4167.948730,4140.384766,4210.512695,4164.230957,4152.563965,4137.307617,4541.794922,4445.384766,4406.666504,4485.128418,5120.000000,4.000000,89.000000,,,,0.000000,4.000000,4.000000,4.000000,4.000000,4.000000,4.000000,4.000000,4.000000,4.000000,4.000000,4.000000,4.000000,4.000000,4.000000,100.000000,,,,,,,,,,,,,,,,,,,,,,,,,,,,
1703403128.022632,1703403128.023536,3.000000,0.000000,4235.769043,4185.641113,4265.256348,4216.794922,4164.358887,4141.153809,4212.436035,4163.333496,4152.692383,4136.794922,4549.743652,4442.179688,4413.974121,4493.589844,5240.000000,4.000000,89.000000,,,,0.000000,4.000000,4.000000,4.000000,4.000000,4.000000,4.000000,4.000000,4.000000,4.000000,4.000000,4.000000,4.000000,4.000000,4.000000,100.000000,,,,,,,,,,,,,,,,,,,,,,,,,,,,
1703403128.030441,1703403128.031344,4.000000,0.000000,4254.615234,4185.769043,4268.077148,4218.077148,4163.717773,4142.179688,4215.641113,4165.000000,4153.589844,4136.666504,4553.205078,4448.846191,4427.051270,4498.846191,5048.000000,4.000000,89.000000,,,,0.000000,4.000000,4.000000,4.000000,4.000000,4.000000,4.000000,4.000000,4.000000,4.000000,4.000000,4.000000,4.000000,4.000000,4.000000,100.000000,,,,,,,,,,,,,,,,,1.000000,0.000000,0.669882,-0.027527,-0.707703,0.222839,0.916127,-0.356489,0.012697,-30.040876,-6.474906,73.764908
1703403128.038249,1703403128.039052,5.000000,0.000000,4253.077148,4188.717773,4270.512695,4217.563965,4165.641113,4144.102539,4216.794922,4168.974121,4154.615234,4140.128418,4560.384766,4452.436035,4430.384766,4501.922852,5110.000000,4.000000,89.000000,,,,0.000000,4.000000,4.000000,4.000000,4.000000,4.000000,4.000000,4.000000,4.000000,4.000000,4.000000,4.000000,4.000000,4.000000,4.000000,100.000000,,,,,,,,,,,,,,,,,,,,,,,,,,,,
1703403128.046057,1703403128.046860,6.000000,0.000000,4247.692383,4196.922852,4275.256348,4225.256348,4168.974121,4148.461426,4214.487305,4168.333496,4155.256348,4146.410156,4577.436035,4447.051270,4433.077148,4508.333496,2267.000000,4.000000,89.000000,,,,0.000000,4.000000,4.000000,4.000000,4.000000,4.000000,4.000000,4.000000,4.000000,4.000000,4.000000,4.000000,4.000000,4.000000,4.000000,100.000000,,,,,,,,,,,,,,,,,,,,,,,,,,,,
1703403128.053865,1703403128.054568,7.000000,0.000000,4263.333496,4200.384766,4279.743652,4231.410156,4176.666504,4151.794922,4217.948730,4167.820313,4158.846191,4153.846191,4594.743652,4447.563965,4443.077148,4507.436035,5270.000000,4.000000,89.000000,,,,0.000000,4.000000,4.000000,4.000000,4.000000,4.000000,4.000000,4.000000,4.000000,4.000000,4.000000,4.000000,4.000000,4.000000,4.000000,100.000000,,,,,,,,,,,,,,,,,,,,,,,,,,,,
1703403128.061673,1703403128.062376,8.000000,0.000000,4272.692383,4201.025879,4285.512695,4230.000000,4181.282227,4150.256348,4220.769043,4170.897461,4162.051270,4162.307617,4610.128418,4455.512695,4455.128418,4507.436035,5277.000000,4.000000,89.000000,,,,0.000000,4.000000,4.000000,4.000000,4.000000,4.000000,4.000000,4.000000,4.000000,4.000000,4.000000,4.000000,4.000000,4.000000,4.000000,100.000000,,,,,,,,,,,,,,,,,2.000000,0.000000,0.669621,-0.027588,-0.707947,0.222839,0.913686,-0.357954,0.000977,-30.003454,-6.410749,73.588417
1703403128.069481,1703403128.070084,9.000000,0.000000,4264.487305,4204.487305,4293.846191,4229.743652,4175.897461,4148.846191,4216.410156,4170.384766,4159.615234,4170.641113,4621.922852,4458.205078,4460.256348,4517.820313,5166.000000,4.000000,89.000000,,,,0.000000,4.000000,4.000000,4.000000,4.000000,4.000000,4.000000,4.000000,4.000000,4.000000,4.000000,4.000000,4.000000,4.000000,4.000000,100.000000,,,,,,,,,,,,,,,,,,,,,,,,,,,,
1703403128.077289,1703403128.077892,10.000000,0.000000,4261.025879,4202.179688,4291.666504,4230.384766,4173.205078,4149.487305,4215.384766,4164.743652,4154.358887,4168.461426,4622.051270,4450.769043,4454.615234,4516.025879,5816.000000,4.000000,89.000000,,,,0.000000,4.000000,4.000000,4.000000,4.000000,4.000000,4.000000,4.000000,4.000000,4.000000,4.000000,4.000000,4.000000,4.000000,4.000000,100.000000,,,,,,,,,,,,,,,,,,,,,,,,,,,,
1703403128.085097,1703403128.085600,11.000000,0.000000,4261.538574,4194.358887,4282.563965,4229.743652,4175.384766,4146.410156,4221.153809,4156.538574,4151.538574,4156.282227,4616.153809,4440.512695,4443.589844,4504.743652,6175.000000,4.000000,89.000000,,,,0.000000,4.000000,4.000000,4.000000,4.000000,4.000000,4.000000,4.000000,4.000000,4.000000,4.000000,4.000000,4.000000,4.000000,4.000000,100.000000,,,,,,,,,,,,,,,,,,,,,,,,,,,,
1703403128.092905,1703403128.093408,12.000000,0.000000,4260.641113,4195.384766,4289.871582,4233.205078,4173.846191,4144.487305,4220.769043,4155.000000,4152.436035,4156.666504,4620.769043,4441.538574,4449.871582,4505.000000,6636.000000,4.000000,89.000000,,,,0.000000,4.000000,4.000000,4.000000,4.000000,4.000000,4.000000,4.000000,4.000000,4.000000,4.000000,4.000000,4.000000,4.000000,4.000000,100.000000,,,,,,,,,,,,,,,,,3.000000,0.000000,0.669567,-0.027344,-0.708008,0.222839,0.912709,-0.356489,0.004883,-30.053110,-6.386341,73.629578
1703403128.100713,1703403128.101116,13.000000,0.000000,4262.307617,4200.641113,4302.820313,4235.897461,4172.820313,4144.230957,4217.051270,4159.358887,4153.974121,4168.717773,4636.025879,4449.743652,4463.077148,4504.743652,6591.000000,4.000000,89.000000,,,,0.000000,4.000000,4.000000,4.000000,4.000000,4.000000,4.000000,4.000000,4.000000,4.000000,4.000000,4.000000,4.000000,4.000000,4.000000,100.000000,,,,,,,,,,,,,,,,,,,,,,,,,,,,
1703403128.108521,1703403128.108924,14.000000,0.000000,4265.128418,4198.461426,4299.230957,4231.025879,4173.846191,4144.102539,4219.487305,4160.000000,4154.871582,4170.641113,4644.358887,4447.948730,4456.666504,4499.487305,5816.000000,4.000000,89.000000,,,,0.000000,4.000000,4.000000,4.000000,4.000000,4.000000,4.000000,4.000000,4.000000,4.000000,4.000000,4.000000,4.000000,4.000000,4.000000,100.000000,,,,,,,,,,,,,,,,,,,,,,,,,,,,
1703403128.116329,1703403128.116632,15.000000,0.000000,4258.461426,4195.384766,4290.128418,4228.717773,4172.307617,4145.897461,4221.794922,4157.563965,4154.487305,4162.820313,4638.205078,4440.000000,4446.666504,4504.102539,6175.000000,4.000000,89.000000,,,,0.000000,4.000000,4.000000,4.000000,4.000000,4.000000,4.000000,4.000000,4.000000,4.000000,4.000000,4.000000,4.000000,4.000000,4.000000,100.000000,,,,,,,,,,,,,,,,,,,,,,,,,,,,
1703403128.124137,1703403128.124440,16.000000,0.000000,4250.256348,4194.230957,4289.358887,4225.897461,4172.820313,4152.179688,4222.436035,4156.153809,4154.358887,4159.743652,4635.000000,4439.871582,4447.563965,4511.282227,0.000000,4.000000,89.000000,,,,0.000000,4.000000,4.000000,4.000000,4.000000,4.000000,4.000000,4.000000,4.000000,4.000000,4.000000,4.000000,4.000000,4.000000,4.000000,100.000000,,,,,,,,,,,,,,,,,4.000000,0.000000,0.669347,-0.026978,-0.708191,0.222961,0.924429,-0.345745,-0.001465,-30.064465,-6.414373,73.633286
1703403128.131945,1703403128.132148,17.000000,0.000000,4248.461426,4188.846191,4288.589844,4218.717773,4172.820313,4154.358887,4221.282227,4159.871582,4156.025879,4160.769043,4641.282227,4440.000000,4448.846191,4509.743652,0.000000,4.000000,89.000000,,,,0.000000,4.000000,4.000000,4.000000,4.000000,4.000000,4.000000,4.000000,4.000000,4.000000,4.000000,4.000000,4.000000,4.000000,4.000000,100.000000,,,,,,,,,,,,,,,,,,,,,,,,,,,,
1703403128.139753,1703403128.139956,18.000000,0.000000,4249.230957,4185.769043,4284.615234,4221.794922,4168.717773,4149.743652,4223.717773,4166.922852,4155.769043,4160.128418,4640.256348,4436.410156,4444.871582,4508.974121,0.000000,4.000000,89.000000,,,,0.000000,4.000000,4.000000,4.000000,4.000000,4.000000,4.000000,4.000000,4.000000,4.000000,4.000000,4.000000,4.000000,4.000000,4.000000,100.000000,,,,,,,,,,,,,,,,,,,,,,,,,,,,
1703403128.147561,1703403128.147664,19.000000,0.000000,4266.538574,4192.051270,4286.666504,4233.077148,4167.948730,4147.692383,4227.179688,4170.128418,4154.743652,4162.692383,4633.077148,4438.717773,4441.922852,4507.307617,0.000000,4.000000,89.000000,,,,0.000000,4.000000,4.000000,4.000000,4.000000,4.000000,4.000000,4.000000,4.000000,4.000000,4.000000,4.000000,4.000000,4.000000,4.000000,100.000000,,,,,,,,,,,,,,,,,,,,,,,,,,,,
1703403128.155369,1703403128.155472,20.000000,0.000000,4299.743652,4197.692383,4290.256348,4234.487305,4172.179688,4148.974121,4226.538574,4168.333496,4159.615234,4167.179688,4637.692383,4442.307617,4441.666504,4503.846191,0.000000,4.000000,89.000000,,,,0.000000,4.000000,4.000000,4.000000,4.000000,4.000000,4.000000,4.000000,4.000000,4.000000,4.000000,4.000000,4.000000,4.000000,4.000000,100.000000,,,,,,,,,,,,,,,,,5.000000,0.000000,0.669355,-0.026794,-0.708191,0.222961,0.918569,-0.350140,0.003907,-30.241352,-6.472936,73.553291
1703403128.163177,1703403128.163180,21.000000,0.000000,4323.333496,4200.897461,4292.436035,4231.666504,4175.769043,4152.436035,4228.717773,4172.307617,4167.692383,4173.205078,4653.461426,4443.205078,4446.153809,4507.307617,0.000000,4.000000,89.000000,,,,0.000000,4.000000,4.000000,4.000000,4.000000,4.000000,4.000000,4.000000,4.000000,4.000000,4.000000,4.000000,4.000000,4.000000,4.000000,100.000000,,,,,,,,,,,,,,,,,,,,,,,,,,,,
1703403128.170986,1703403128.171088,22.000000,0.000000,4324.230957,4203.077148,4290.128418,4235.512695,4172.820313,4154.487305,4230.897461,4176.025879,4171.153809,4180.641113,4659.487305,4443.846191,4449.487305,4509.102539,0.000000,4.000000,89.000000,,,,0.000000,4.000000,4.000000,4.000000,4.000000,4.000000,4.000000,4.000000,4.000000,4.000000,4.000000,4.000000,4.000000,4.000000,4.000000,100.000000,,,,,,,,,,,,,,,,,,,,,,,,,,,,
1703403128.178794,1703403128.178896,23.000000,0.000000,4320.512695,4201.410156,4284.487305,4235.641113,4170.769043,4154.230957,4227.307617,4168.333496,4166.153809,4180.128418,4654.743652,4436.666504,4445.256348,4502.307617,0.000000,4.000000,89.000000,,,,0.000000,4.000000,4.000000,4.000000,4.000000,4.000000,4.000000,4.000000,4.000000,4.000000,4.000000,4.000000,4.000000,4.000000,4.000000,100.000000,,,,,,,,,,,,,,,,,,,,,,,,,,,,
1703403128.186602,1703403128.186804,24.000000,0.000000,4321.410156,4200.000000,4284.615234,4232.820313,4175.000000,4151.922852,4225.512695,4162.563965,4159.487305,4172.692383,4650.641113,4431.922852,4442.436035,4497.179688,0.000000,4.000000,89.000000,,,,0.000000,4.000000,4.000000,4.000000,4.000000,4.000000,4.000000,4.000000,4.000000,4.000000,4.000000,4.000000,4.000000,4.000000,4.000000,100.000000,,,,,,,,,,,,,,,,,6.000000,0.000000,0.669271,-0.026672,-0.708313,0.222839,0.928336,-0.357466,0.000488,-30.183884,-6.408976,73.481293
1703403128.194410,1703403128.194612,25.000000,0.000000,4321.025879,4200.000000,4286.922852,4232.692383,4174.487305,4145.256348,4228.077148,4163.077148,4157.307617,4172.179688,4648.974121,4435.256348,4444.358887,4503.461426,0.000000,4.000000,89.000000,,,,0.000000,4.000000,4.000000,4.000000,4.000000,4.000000,4.000000,4.000000,4.000000,4.000000,4.000000,4.000000,4.000000,4.000000,4.000000,100.000000,,,,,,,,,,,,,,,,,,,,,,,,,,,,
1703403128.202218,1703403128.202519,26.000000,0.000000,4330.769043,4199.871582,4285.769043,4230.641113,4170.769043,4139.615234,4227.051270,4163.333496,4157.179688,4174.743652,4651.794922,4435.256348,4447.692383,4510.128418,0.000000,4.000000,89.000000,,,,0.000000,4.000000,4.000000,4.000000,4.000000,4.000000,4.000000,4.000000,4.000000,4.000000,4.000000,4.000000,4.000000,4.000000,4.000000,100.000000,,,,,,,,,,,,,,,,,,,,,,,,,,,,
1703403128.210026,1703403128.210327,27.000000,0.000000,4340.000000,4200.769043,4292.051270,4229.743652,4177.692383,4145.128418,4228.333496,4165.000000,4161.410156,4175.641113,4657.051270,4439.871582,4449.743652,4501.538574,0.000000,4.000000,89.000000,,,,0.000000,4.000000,4.000000,4.000000,4.000000,4.000000,4.000000,4.000000,4.000000,4.000000,4.000000,4.000000,4.000000,4.000000,4.000000,100.000000,,,,,,,,,,,,,,,,,,,,,,,,,,,,
1703403128.217834,1703403128.218235,28.000000,0.000000,4335.512695,4202.692383,4302.563965,4231.794922,4187.820313,4154.230957,4231.794922,4170.000000,4167.948730,4179.743652,4658.205078,4452.307617,4448.974121,4502.436035,0.000000,4.000000,89.000000,,,,0.000000,4.000000,4.000000,4.000000,4.000000,4.000000,4.000000,4.000000,4.000000,4.000000,4.000000,4.000000,4.000000,4.000000,4.000000,100.000000,,,,,,,,,,,,,,,,,7.000000,0.000000,0.669137,-0.026794,-0.708435,0.222839,0.936149,-0.356489,0.000977,-30.115496,-6.368078,73.599831
1703403128.225642,1703403128.226043,29.000000,0.000000,4335.000000,4203.205078,4298.333496,4232.179688,4181.538574,4151.025879,4229.358887,4169.487305,4164.102539,4177.820313,4650.897461,4452.692383,4446.153809,4520.256348,0.000000,4.000000,89.000000,,,,0.000000,4.000000,4.000000,4.000000,4.000000,4.000000,4.000000,4.000000,4.000000,4.000000,4.000000,4.000000,4.000000,4.000000,4.000000,100.000000,,,,,,,,,,,,,,,,,,,,,,,,,,,,
1703403128.233450,1703403128.233951,30.000000,0.000000,4341.538574,4200.256348,4289.487305,4231.282227,4169.615234,4140.128418,4226.538574,4165.384766,4154.743652,4167.436035,4645.256348,4444.102539,4445.256348,4525.256348,0.000000,4.000000,89.000000,,,,0.000000,4.000000,4.000000,4.000000,4.000000,4.000000,4.000000,4.000000,4.000000,4.000000,4.000000,4.000000,4.000000,4.000000,4.000000,100.000000,,,,,,,,,,,,,,,,,,,,,,,,,,,,
1703403128.241258,1703403128.241759,31.000000,0.000000,4335.769043,4198.589844,4293.077148,4233.846191,4170.128418,4140.128418,4228.717773,4167.820313,4158.333496,4166.794922,4649.743652,4446.153809,4447.692383,4521.153809,0.000000,4.000000,89.000000,,,,0.000000,4.000000,4.000000,4.000000,4.000000,4.000000,4.000000,4.000000,4.000000,4.000000,4.000000,4.000000,4.000000,4.000000,4.000000,100.000000,,,,,,,,,,,,,,,,,,,,,,,,,,,,
1703403128.249066,1703403128.249467,32.000000,0.000000,4326.282227,4200.512695,4295.512695,4230.641113,4171.922852,4144.230957,4228.589844,4171.538574,4163.077148,4171.410156,4643.589844,4450.512695,4445.769043,4517.948730,0.000000,4.000000,89.000000,,,,0.000000,4.000000,4.000000,4.000000,4.000000,4.000000,4.000000,4.000000,4.000000,4.000000,4.000000,4.000000,4.000000,4.000000,4.000000,100.000000,,,,,,,,,,,,,,,,,8.000000,0.000000,0.669151,-0.027039,-0.708374,0.222961,0.929801,-0.344280,-0.000488,-30.020613,-6.231270,73.606514
1703403128.256874,1703403128.257275,33.000000,0.000000,4335.000000,4200.769043,4289.230957,4226.410156,4167.051270,4138.333496,4222.436035,4169.871582,4155.769043,4165.000000,4629.487305,4445.897461,4439.871582,4511.282227,0.000000,4.000000,89.000000,,,,0.000000,4.000000,4.000000,4.000000,4.000000,4.000000,4.000000,4.000000,4.000000,4.000000,4.000000,4.000000,4.000000,4.000000,4.000000,100.000000,,,,,,,,,,,,,,,,,,,,,,,,,,,,
1703403128.264682,1703403128.264983,34.000000,0.000000,4342.563965,4200.384766,4287.820313,4232.179688,4168.077148,4135.384766,4223.461426,4162.563965,4152.179688,4156.282227,4635.000000,4445.512695,4440.512695,4511.025879,0.000000,4.000000,89.000000,,,,0.000000,4.000000,4.000000,4.000000,4.000000,4.000000,4.000000,4.000000,4.000000,4.000000,4.000000,4.000000,4.000000,4.000000,4.000000,100.000000,,,,,,,,,,,,,,,,,,,,,,,,,,,,
1703403128.272490,1703403128.272791,35.000000,0.000000,4331.025879,4201.410156,4289.358887,4230.769043,4172.820313,4141.794922,4229.615234,4157.820313,4154.615234,4155.256348,4644.230957,4451.282227,4445.897461,4515.769043,0.000000,4.000000,89.000000,,,,0.000000,4.000000,4.000000,4.000000,4.000000,4.000000,4.000000,4.000000,4.000000,4.000000,4.000000,4.000000,4.000000,4.000000,4.000000,100.000000,,,,,,,,,,,,,,,,,,,,,,,,,,,,
1703403128.280298,1703403128.280499,36.000000,0.000000,4321.794922,4199.743652,4287.179688,4221.794922,4170.897461,4140.897461,4228.846191,4157.563965,4153.205078,4154.487305,4636.282227,4447.051270,4445.000000,4510.641113,0.000000,4.000000,89.000000,,,,0.000000,4.000000,4.000000,4.000000,4.000000,4.000000,4.000000,4.000000,4.000000,4.000000,4.000000,4.000000,4.000000,4.000000,4.000000,100.000000,,,,,,,,,,,,,,,,,9.000000,0.000000,0.669060,-0.027283,-0.708374,0.223206,0.925406,-0.363326,0.016115,-29.935217,-6.358143,73.645866
1703403128.288106,1703403128.288307,37.000000,0.000000,4327.051270,4198.846191,4290.256348,4225.512695,4165.769043,4135.128418,4226.025879,4154.871582,4149.871582,4151.922852,4631.666504,4440.769043,4441.025879,4508.205078,0.000000,4.000000,89.000000,,,,0.000000,4.000000,4.000000,4.000000,4.000000,4.000000,4.000000,4.000000,4.000000,4.000000,4.000000,4.000000,4.000000,4.000000,4.000000,100.000000,,,,,,,,,,,,,,,,,,,,,,,,,,,,
1703403128.295914,1703403128.296015,38.000000,0.000000,4334.102539,4207.563965,4298.205078,4237.051270,4170.128418,4142.820313,4227.820313,4155.641113,4153.205078,4159.871582,4646.794922,4449.358887,4449.871582,4522.179688,0.000000,4.000000,89.000000,,,,0.000000,4.000000,4.000000,4.000000,4.000000,4.000000,4.000000,4.000000,4.000000,4.000000,4.000000,4.000000,4.000000,4.000000,4.000000,100.000000,,,,,,,,,,,,,,,,,,,,,,,,,,,,
1703403128.303723,1703403128.303823,39.000000,0.000000,4337.051270,4212.179688,4300.641113,4236.410156,4177.948730,4150.256348,4226.282227,4162.948730,4160.000000,4172.307617,4657.820313,4458.333496,4461.666504,4533.461426,0.000000,4.000000,89.000000,,,,0.000000,4.000000,4.000000,4.000000,4.000000,4.000000,4.000000,4.000000,4.000000,4.000000,4.000000,4.000000,4.000000,4.000000,4.000000,100.000000,,,,,,,,,,,,,,,,,,,,,,,,,,,,
1703403128.311530,1703403128.311531,40.000000,0.000000,4336.794922,4204.102539,4301.410156,4231.025879,4175.897461,4144.102539,4227.948730,4168.077148,4164.230957,4170.128418,4652.179688,4457.563965,4457.692383,4531.666504,0.000000,4.000000,89.000000,,,,0.000000,4.000000,4.000000,4.000000,4.000000,4.000000,4.000000,4.000000,4.000000,4.000000,4.000000,4.000000,4.000000,4.000000,4.000000,100.000000,,,,,,,,,,,,,,,,,10.000000,0.000000,0.668906,-0.027466,-0.708435,0.223450,0.924429,-0.356977,0.008302,-29.991695,-6.305662,73.681274
1703403128.319339,1703403128.319339,41.000000,0.000000,4333.717773,4199.487305,4301.025879,4232.436035,4171.410156,4140.128418,4233.461426,4169.102539,4168.333496,4165.256348,4647.563965,4455.512695,4447.820313,4526.794922,0.000000,4.000000,89.000000,,,,0.000000,4.000000,4.000000,4.000000,4.000000,4.000000,4.000000,4.000000,4.000000,4.000000,4.000000,4.000000,4.000000,4.000000,4.000000,100.000000,,,,,,,,,,,,,,,,,,,,,,,,,,,,
1703403128.327147,1703403128.327047,42.000000,0.000000,4332.948730,4202.436035,4294.871582,4232.307617,4172.179688,4143.461426,4232.307617,4169.487305,4167.051270,4169.487305,4650.000000,4452.820313,4445.384766,4525.641113,0.000000,4.000000,89.000000,,,,0.000000,4.000000,4.000000,4.000000,4.000000,4.000000,4.000000,4.000000,4.000000,4.000000,4.000000,4.000000,4.000000,4.000000,4.000000,100.000000,,,,,,,,,,,,,,,,,,,,,,,,,,,,
1703403128.334955,1703403128.334955,43.000000,0.000000,4333.974121,4198.846191,4290.000000,4231.538574,4170.641113,4145.769043,4232.692383,4170.512695,4161.282227,4167.436035,4646.794922,4448.717773,4442.692383,4526.922852,0.000000,4.000000,89.000000,,,,0.000000,4.000000,4.000000,4.000000,4.000000,4.000000,4.000000,4.000000,4.000000,4.000000,4.000000,4.000000,4.000000,4.000000,4.000000,100.000000,,,,,,,,,,,,,,,,,,,,,,,,,,,,
1703403128.342763,1703403128.342763,44.000000,0.000000,4327.436035,4188.974121,4288.974121,4226.666504,4167.179688,4144.615234,4236.153809,4170.897461,4157.692383,4156.410156,4635.897461,4447.820313,4432.820313,4517.820313,0.000000,4.000000,89.000000,,,,0.000000,4.000000,4.000000,4.000000,4.000000,4.000000,4.000000,4.000000,4.000000,4.000000,4.000000,4.000000,4.000000,4.000000,4.000000,100.000000,,,,,,,,,,,,,,,,,11.000000,0.000000,0.668951,-0.027527,-0.708313,0.223694,0.927848,-0.357466,0.005860,-30.042526,-6.341763,73.629814
1703403128.350571,1703403128.350671,45.000000,0.000000,4320.769043,4187.820313,4289.615234,4219.230957,4170.512695,4147.692383,4233.846191,4168.974121,4156.666504,4152.051270,4631.538574,4451.025879,4432.179688,4511.794922,0.000000,4.000000,89.000000,,,,0.000000,4.000000,4.000000,4.000000,4.000000,4.000000,4.000000,4.000000,4.000000,4.000000,4.000000,4.000000,4.000000,4.000000,4.000000,100.000000,,,,,,,,,,,,,,,,,,,,,,,,,,,,
1703403128.358379,1703403128.358479,46.000000,0.000000,4320.256348,4195.641113,4293.589844,4222.948730,4173.461426,4151.025879,4233.205078,4168.333496,4157.692383,4156.410156,4632.948730,4448.974121,4437.307617,4520.128418,0.000000,4.000000,89.000000,,,,0.000000,4.000000,4.000000,4.000000,4.000000,4.000000,4.000000,4.000000,4.000000,4.000000,4.000000,4.000000,4.000000,4.000000,4.000000,100.000000,,,,,,,,,,,,,,,,,,,,,,,,,,,,
1703403128.366187,1703403128.366387,47.000000,0.000000,4319.358887,4200.512695,4297.179688,4232.051270,4171.538574,4149.487305,4239.230957,4171.922852,4159.871582,4158.717773,4630.384766,4445.641113,4431.922852,4522.692383,0.000000,4.000000,89.000000,,,,0.000000,4.000000,4.000000,4.000000,4.000000,4.000000,4.000000,4.000000,4.000000,4.000000,4.000000,4.000000,4.000000,4.000000,4.000000,100.000000,,,,,,,,,,,,,,,,,,,,,,,,,,,,
1703403128.373995,1703403128.374195,48.000000,0.000000,4322.179688,4201.922852,4297.820313,4232.820313,4173.461426,4146.410156,4239.230957,4172.692383,4159.487305,4158.333496,4631.153809,4451.794922,4430.897461,4518.846191,0.000000,4.000000,89.000000,,,,0.000000,4.000000,4.000000,4.000000,4.000000,4.000000,4.000000,4.000000,4.000000,4.000000,4.000000,4.000000,4.000000,4.000000,4.000000,100.000000,,,,,,,,,,,,,,,,,12.000000,0.000000,0.668866,-0.027527,-0.708374,0.223755,0.917592,-0.365279,0.002442,-30.138273,-6.290920,73.550171
1703403128.381803,1703403128.382103,49.000000,0.000000,4334.743652,4206.794922,4297.820313,4234.615234,4178.333496,4144.358887,4236.025879,4168.846191,4157.051270,4159.102539,4638.717773,4455.769043,4442.948730,4527.948730,0.000000,4.000000,89.000000,,,,0.000000,4.000000,4.000000,4.000000,4.000000,4.000000,4.000000,4.000000,4.000000,4.000000,4.000000,4.000000,4.000000,4.000000,4.000000,100.000000,,,,,,,,,,,,,,,,,,,,,,,,,,,,
1703403128.389611,1703403128.389911,50.000000,0.000000,4345.128418,4214.230957,4302.692383,4245.256348,4183.589844,4148.717773,4238.717773,4167.820313,4158.077148,4158.717773,4643.461426,4456.666504,4449.743652,4541.922852,0.000000,4.000000,89.000000,,,,0.000000,4.000000,4.000000,4.000000,4.000000,4.000000,4.000000,4.000000,4.000000,4.000000,4.000000,4.000000,4.000000,4.000000,4.000000,100.000000,,,,,,,,,,,,,,,,,,,,,,,,,,,,
1703403128.397419,1703403128.397819,51.000000,0.000000,4337.692383,4218.205078,4306.410156,4248.717773,4186.282227,4153.333496,4240.384766,4165.128418,4158.717773,4158.205078,4638.717773,4460.769043,4442.948730,4535.512695,0.000000,4.000000,89.000000,,,,0.000000,4.000000,4.000000,4.000000,4.000000,4.000000,4.000000,4.000000,4.000000,4.000000,4.000000,4.000000,4.000000,4.000000,4.000000,100.000000,,,,,,,,,,,,,,,,,,,,,,,,,,,,
1703403128.405227,1703403128.405627,52.000000,0.000000,4323.333496,4214.102539,4300.000000,4242.948730,4182.307617,4147.307617,4239.487305,4161.794922,4158.461426,4157.563965,4633.974121,4456.410156,4436.025879,4522.563965,0.000000,4.000000,89.000000,,,,0.000000,4.000000,4.000000,4.000000,4.000000,4.000000,4.000000,4.000000,4.000000,4.000000,4.000000,4.000000,4.000000,4.000000,4.000000,100.000000,,,,,,,,,,,,,,,,,13.000000,0.000000,0.668843,-0.027588,-0.708374,0.223816,0.912709,-0.356489,0.010255,-30.091112,-6.195161,73.395149
1703403128.413035,1703403128.413534,53.000000,0.000000,4320.384766,4205.000000,4290.897461,4240.384766,4173.589844,4142.307617,4238.461426,4163.717773,4158.846191,4157.051270,4627.563965,4446.666504,4431.025879,4522.563965,0.000000,4.000000,89.000000,,,,0.000000,4.000000,4.000000,4.000000,4.000000,4.000000,4.000000,4.000000,4.000000,4.000000,4.000000,4.000000,4.000000,4.000000,4.000000,100.000000,,,,,,,,,,,,,,,,,,,,,,,,,,,,
1703403128.420843,1703403128.421342,54.000000,0.000000,4321.410156,4201.922852,4290.256348,4238.846191,4169.102539,4150.641113,4241.025879,4166.666504,4156.922852,4153.333496,4616.922852,4446.794922,4425.384766,4525.384766,0.000000,4.000000,89.000000,,,,0.000000,4.000000,4.000000,4.000000,4.000000,4.000000,4.000000,4.000000,4.000000,4.000000,4.000000,4.000000,4.000000,4.000000,4.000000,100.000000,,,,,,,,,,,,,,,,,,,,,,,,,,,,
1703403128.428651,1703403128.429250,55.000000,0.000000,4318.205078,4204.230957,4292.563965,4237.436035,4170.769043,4154.871582,4243.717773,4166.922852,4156.025879,4147.563965,4610.512695,4450.000000,4422.307617,4523.589844,0.000000,4.000000,89.000000,,,,0.000000,4.000000,4.000000,4.000000,4.000000,4.000000,4.000000,4.000000,4.000000,4.000000,4.000000,4.000000,4.000000,4.000000,4.000000,100.000000,,,,,,,,,,,,,,,,,,,,,,,,,,,,
1703403128.436459,1703403128.437058,56.000000,0.000000,4310.256348,4200.256348,4289.102539,4233.846191,4171.922852,4147.563965,4241.025879,4166.410156,4156.922852,4143.717773,4605.256348,4447.948730,4416.538574,4518.717773,0.000000,4.000000,89.000000,,,,0.000000,4.000000,4.000000,4.000000,4.000000,4.000000,4.000000,4.000000,4.000000,4.000000,4.000000,4.000000,4.000000,4.000000,4.000000,100.000000,,,,,,,,,,,,,,,,,14.000000,0.000000,0.668820,-0.027588,-0.708435,0.223694,0.929801,-0.364302,0.001953,-30.115335,-6.208978,73.355637
1703403128.444267,1703403128.444766,57.000000,0.000000,4303.974121,4194.871582,4286.025879,4228.717773,4169.743652,4148.717773,4237.692383,4166.922852,4154.102539,4140.512695,4599.743652,4443.717773,4414.743652,4516.922852,0.000000,4.000000,89.000000,,,,0.000000,4.000000,4.000000,4.000000,4.000000,4.000000,4.000000,4.000000,4.000000,4.000000,4.000000,4.000000,4.000000,4.000000,4.000000,100.000000,,,,,,,,,,,,,,,,,,,,,,,,,,,,
1703403128.452075,1703403128.452574,58.000000,0.000000,4304.743652,4198.205078,4287.820313,4230.256348,4168.974121,4154.743652,4244.871582,4169.102539,4152.692383,4142.948730,4601.666504,4444.487305,4419.487305,4521.025879,0.000000,4.000000,89.000000,,,,0.000000,4.000000,4.000000,4.000000,4.000000,4.000000,4.000000,4.000000,4.000000,4.000000,4.000000,4.000000,4.000000,4.000000,4.000000,100.000000,,,,,,,,,,,,,,,,,,,,,,,,,,,,
1703403128.459884,1703403128.460282,59.000000,0.000000,4302.179688,4198.205078,4288.589844,4233.333496,4171.538574,4153.077148,4250.512695,4172.948730,4160.256348,4147.563965,4603.974121,4449.102539,4419.743652,4521.666504,0.000000,4.000000,89.000000,,,,0.000000,4.000000,4.000000,4.000000,4.000000,4.000000,4.000000,4.000000,4.000000,4.000000,4.000000,4.000000,4.000000,4.000000,4.000000,100.000000,,,,,,,,,,,,,,,,,,,,,,,,,,,,
1703403128.467692,1703403128.468090,60.000000,0.000000,4294.230957,4192.051270,4290.128418,4230.769043,4171.666504,4146.666504,4245.512695,4175.256348,4165.641113,4146.666504,4601.666504,4453.717773,4416.410156,4519.487305,0.000000,4.000000,89.000000,,,,0.000000,4.000000,4.000000,4.000000,4.000000,4.000000,4.000000,4.000000,4.000000,4.000000,4.000000,4.000000,4.000000,4.000000,4.000000,100.000000,,,,,,,,,,,,,,,,,15.000000,0.000000,0.668757,-0.027527,-0.708496,0.223694,0.917104,-0.363326,0.007813,-30.203802,-6.254747,73.336739
1703403128.475500,1703403128.475798,61.000000,0.000000,4296.282227,4192.692383,4292.051270,4229.871582,4168.717773,4143.589844,4245.384766,4173.846191,4160.256348,4143.333496,4604.487305,4455.769043,4416.025879,4523.589844,0.000000,4.000000,89.000000,,,,0.000000,4.000000,4.000000,4.000000,4.000000,4.000000,4.000000,4.000000,4.000000,4.000000,4.000000,4.000000,4.000000,4.000000,4.000000,100.000000,,,,,,,,,,,,,,,,,,,,,,,,,,,,
1703403128.483308,1703403128.483706,62.000000,0.000000,4298.974121,4198.589844,4290.256348,4230.769043,4167.179688,4148.589844,4248.077148,4170.512695,4153.717773,4139.871582,4603.589844,4450.641113,4415.512695,4517.179688,0.000000,4.000000,89.000000,,,,0.000000,4.000000,4.000000,4.000000,4.000000,4.000000,4.000000,4.000000,4.000000,4.000000,4.000000,4.000000,4.000000,4.000000,4.000000,100.000000,,,,,,,,,,,,,,,,,,,,,,,,,,,,
1703403128.491116,1703403128.491514,63.000000,0.000000,4290.256348,4199.743652,4287.436035,4233.205078,4170.384766,4153.846191,4248.333496,4167.563965,4152.563965,4141.794922,4595.000000,4447.179688,4409.230957,4502.051270,0.000000,4.000000,89.000000,,,,0.000000,4.000000,4.000000,4.000000,4.000000,4.000000,4.000000,4.000000,4.000000,4.000000,4.000000,4.000000,4.000000,4.000000,4.000000,100.000000,,,,,,,,,,,,,,,,,,,,,,,,,,,,
1703403128.498924,1703403128.499422,64.000000,0.000000,4285.384766,4199.230957,4286.282227,4241.410156,4174.230957,4153.333496,4248.717773,4165.641113,4155.128418,4148.974121,4597.436035,4451.025879,4410.897461,4517.051270,5332.000000,4.000000,89.000000,,,,0.000000,4.000000,4.000000,4.000000,4.000000,4.000000,4.000000,4.000000,4.000000,4.000000,4.000000,4.000000,4.000000,4.000000,4.000000,100.000000,1.000000,91.666664,4.000000,4.000000,4.000000,4.000000,4.000000,4.000000,3.000000,4.000000,4.000000,4.000000,4.000000,4.000000,4.000000,4.000000,16.000000,0.000000,0.668695,-0.027466,-0.708557,0.223694,0.923941,-0.352094,0.005372,-30.200089,-6.245939,73.203064
1703403128.506732,1703403128.507230,65.000000,0.000000,4283.205078,4201.538574,4283.461426,4241.922852,4174.102539,4154.102539,4249.743652,4161.794922,4150.769043,4147.820313,4602.948730,4448.461426,4416.410156,4531.922852,5073.000000,4.000000,89.000000,,,,0.000000,4.000000,4.000000,4.000000,4.000000,4.000000,4.000000,4.000000,4.000000,4.000000,4.000000,4.000000,4.000000,4.000000,4.000000,100.000000,,,,,,,,,,,,,,,,,,,,,,,,,,,,
1703403128.514540,1703403128.515038,66.000000,0.000000,4276.794922,4201.922852,4281.153809,4234.230957,4174.230957,4152.820313,4250.128418,4154.743652,4141.153809,4134.743652,4591.282227,4439.358887,4406.666504,4510.000000,5111.000000,4.000000,89.000000,,,,0.000000,4.000000,4.000000,4.000000,4.000000,4.000000,4.000000,4.000000,4.000000,4.000000,4.000000,4.000000,4.000000,4.000000,4.000000,100.000000,,,,,,,,,,,,,,,,,,,,,,,,,,,,
1703403128.522348,1703403128.522746,67.000000,0.000000,4280.128418,4201.538574,4280.641113,4238.461426,4178.974121,4149.615234,4250.641113,4151.153809,4144.230957,4133.077148,4582.563965,4440.128418,4402.692383,4506.666504,5242.000000,4.000000,89.000000,,,,0.000000,4.000000,4.000000,4.000000,4.000000,4.000000,4.000000,4.000000,4.000000,4.000000,4.000000,4.000000,4.000000,4.000000,4.000000,100.000000,,,,,,,,,,,,,,,,,,,,,,,,,,,,
1703403128.530156,1703403128.530654,68.000000,0.000000,4283.205078,4203.077148,4276.538574,4244.358887,4183.974121,4150.641113,4250.897461,4152.948730,4152.051270,4141.410156,4584.743652,4443.589844,4408.461426,4525.897461,5048.000000,4.000000,89.000000,,,,0.000000,4.000000,4.000000,4.000000,4.000000,4.000000,4.000000,4.000000,4.000000,4.000000,4.000000,4.000000,4.000000,4.000000,4.000000,100.000000,,,,,,,,,,,,,,,,,17.000000,0.000000,0.668568,-0.027405,-0.708679,0.223694,0.912709,-0.361861,0.000488,-30.230080,-6.238012,73.332756
1703403128.537964,1703403128.538462,69.000000,0.000000,4267.692383,4203.461426,4271.410156,4234.871582,4184.358887,4152.692383,4252.436035,4152.820313,4143.846191,4133.205078,4569.615234,4437.436035,4395.256348,4514.615234,5110.000000,4.000000,89.000000,,,,0.000000,4.000000,4.000000,4.000000,4.000000,4.000000,4.000000,4.000000,4.000000,4.000000,4.000000,4.000000,4.000000,4.000000,4.000000,100.000000,,,,,,,,,,,,,,,,,,,,,,,,,,,,
1703403128.545772,1703403128.546370,70.000000,0.000000,4253.974121,4197.948730,4272.307617,4230.128418,4182.563965,4154.102539,4255.897461,4149.743652,4134.871582,4120.897461,4552.563965,4434.615234,4376.538574,4498.974121,2267.000000,4.000000,89.000000,,,,0.000000,4.000000,4.000000,4.000000,4.000000,4.000000,4.000000,4.000000,4.000000,4.000000,4.000000,4.000000,4.000000,4.000000,4.000000,100.000000,,,,,,,,,,,,,,,,,,,,,,,,,,,,
1703403128.553580,1703403128.554178,71.000000,0.000000,4253.077148,4190.128418,4275.256348,4233.205078,4177.948730,4155.000000,4252.692383,4151.538574,4142.436035,4126.282227,4559.102539,4440.512695,4378.846191,4507.179688,5270.000000,4.000000,89.000000,,,,0.000000,4.000000,4.000000,4.000000,4.000000,4.000000,4.000000,4.000000,4.000000,4.000000,4.000000,4.000000,4.000000,4.000000,4.000000,100.000000,,,,,,,,,,,,,,,,,,,,,,,,,,,,
1703403128.561388,1703403128.562086,72.000000,0.000000,4250.512695,4188.589844,4274.871582,4228.589844,4172.820313,4153.461426,4251.794922,4161.282227,4152.051270,4138.333496,4568.461426,4446.410156,4384.743652,4511.794922,5277.000000,4.000000,89.000000,,,,0.000000,4.000000,4.000000,4.000000,4.000000,4.000000,4.000000,4.000000,4.000000,4.000000,4.000000,4.000000,4.000000,4.000000,4.000000,100.000000,,,,,,,,,,,,,,,,,18.000000,0.000000,0.668463,-0.027405,-0.708740,0.223816,0.926871,-0.365279,0.004883,-30.190405,-6.164211,73.416153
1703403128.569196,1703403128.569894,73.000000,0.000000,4252.307617,4194.743652,4277.051270,4227.692383,4173.589844,4152.179688,4258.205078,4170.128418,4155.128418,4141.794922,4572.179688,4450.256348,4386.282227,4511.025879,5166.000000,4.000000,89.000000,,,,0.000000,4.000000,4.000000,4.000000,4.000000,4.000000,4.000000,4.000000,4.000000,4.000000,4.000000,4.000000,4.000000,4.000000,4.000000,100.000000,,,,,,,,,,,,,,,,,,,,,,,,,,,,
1703403128.577004,1703403128.577802,74.000000,0.000000,4260.641113,4199.871582,4284.743652,4233.717773,4174.615234,4152.563965,4259.230957,4171.794922,4156.538574,4140.769043,4581.666504,4456.410156,4396.666504,4519.102539,5809.000000,4.000000,89.000000,,,,0.000000,4.000000,4.000000,4.000000,4.000000,4.000000,4.000000,4.000000,4.000000,4.000000,4.000000,4.000000,4.000000,4.000000,4.000000,100.000000,,,,,,,,,,,,,,,,,,,,,,,,,,,,
1703403128.584812,1703403128.585609,75.000000,0.000000,4260.384766,4195.897461,4283.077148,4232.436035,4170.512695,4147.692383,4256.538574,4169.230957,4155.641113,4142.051270,4584.358887,4458.846191,4403.333496,4523.589844,6173.000000,4.000000,89.000000,,,,0.000000,4.000000,4.000000,4.000000,4.000000,4.000000,4.000000,4.000000,4.000000,4.000000,4.000000,4.000000,4.000000,4.000000,4.000000,100.000000,,,,,,,,,,,,,,,,,,,,,,,,,,,,
1703403128.592620,1703403128.593517,76.000000,0.000000,4257.948730,4193.205078,4276.282227,4228.333496,4169.358887,4145.512695,4257.179688,4170.256348,4155.512695,4139.743652,4581.922852,4456.794922,4400.641113,4525.256348,6631.000000,4.000000,89.000000,,,,0.000000,4.000000,4.000000,4.000000,4.000000,4.000000,4.000000,4.000000,4.000000,4.000000,4.000000,4.000000,4.000000,4.000000,4.000000,100.000000,,,,,,,,,,,,,,,,,19.000000,0.000000,0.668369,-0.027527,-0.708862,0.223694,0.908802,-0.350140,0.011232,-30.088030,-6.247789,73.357864
1703403128.600428,1703403128.601325,77.000000,0.000000,4258.846191,4198.846191,4279.615234,4231.410156,4173.846191,4152.436035,4261.025879,4173.974121,4156.794922,4137.307617,4580.897461,4458.589844,4398.589844,4527.307617,6596.000000,4.000000,89.000000,,,,0.000000,4.000000,4.000000,4.000000,4.000000,4.000000,4.000000,4.000000,4.000000,4.000000,4.000000,4.000000,4.000000,4.000000,4.000000,100.000000,,,,,,,,,,,,,,,,,,,,,,,,,,,,
1703403128.608236,1703403128.609133,78.000000,0.000000,4252.563965,4202.307617,4286.153809,4235.128418,4175.256348,4152.051270,4259.743652,4173.589844,4158.333496,4142.307617,4575.897461,4461.282227,4399.871582,4523.846191,5809.000000,4.000000,89.000000,,,,0.000000,4.000000,4.000000,4.000000,4.000000,4.000000,4.000000,4.000000,4.000000,4.000000,4.000000,4.000000,4.000000,4.000000,4.000000,100.000000,,,,,,,,,,,,,,,,,,,,,,,,,,,,
1703403128.616045,1703403128.617041,79.000000,0.000000,4243.589844,4200.512695,4286.282227,4232.948730,4172.179688,4146.666504,4256.153809,4171.153809,4157.179688,4145.512695,4573.333496,4459.615234,4398.077148,4521.410156,6173.000000,4.000000,89.000000,,,,0.000000,4.000000,4.000000,4.000000,4.000000,4.000000,4.000000,4.000000,4.000000,4.000000,4.000000,4.000000,4.000000,4.000000,4.000000,100.000000,,,,,,,,,,,,,,,,,,,,,,,,,,,,
1703403128.623853,1703403128.624850,80.000000,0.000000,4243.717773,4201.410156,4282.563965,4233.077148,4171.410156,4149.358887,4256.922852,4168.846191,4154.615234,4142.820313,4573.589844,4453.333496,4390.641113,4521.153809,6631.000000,4.000000,89.000000,,,,0.000000,4.000000,4.000000,4.000000,4.000000,4.000000,4.000000,4.000000,4.000000,4.000000,4.000000,4.000000,4.000000,4.000000,4.000000,100.000000,,,,,,,,,,,,,,,,,20.000000,0.000000,0.668305,-0.027527,-0.708923,0.223694,0.927848,-0.361861,-0.004883,-30.095894,-6.289677,73.388748
1703403128.631661,1703403128.632658,81.000000,0.000000,4248.205078,4202.179688,4276.025879,4235.897461,4175.897461,4152.307617,4258.974121,4167.820313,4153.461426,4142.179688,4570.769043,4448.461426,4383.461426,4522.436035,6596.000000,4.000000,89.000000,,,,0.000000,4.000000,4.000000,4.000000,4.000000,4.000000,4.000000,4.000000,4.000000,4.000000,4.000000,4.000000,4.000000,4.000000,4.000000,100.000000,,,,,,,,,,,,,,,,,,,,,,,,,,,,
1703403128.639469,1703403128.640366,82.000000,0.000000,4243.717773,4200.384766,4269.615234,4233.205078,4179.102539,4151.025879,4260.128418,4165.769043,4152.948730,4141.153809,4567.307617,4451.282227,4381.025879,4523.974121,5809.000000,4.000000,89.000000,,,,0.000000,4.000000,4.000000,4.000000,4.000000,4.000000,4.000000,4.000000,4.000000,4.000000,4.000000,4.000000,4.000000,4.000000,4.000000,100.000000,,,,,,,,,,,,,,,,,,,,,,,,,,,,
1703403128.647277,1703403128.648174,83.000000,0.000000,4238.333496,4201.922852,4271.153809,4233.333496,4175.256348,4153.717773,4259.230957,4160.000000,4151.794922,4135.897461,4561.922852,4451.538574,4382.820313,4518.077148,6173.000000,4.000000,89.000000,,,,0.000000,4.000000,4.000000,4.000000,4.000000,4.000000,4.000000,4.000000,4.000000,4.000000,4.000000,4.000000,4.000000,4.000000,4.000000,100.000000,,,,,,,,,,,,,,,,,,,,,,,,,,,,
1703403128.655085,1703403128.655882,84.000000,0.000000,4240.000000,4203.589844,4274.102539,4240.512695,4176.922852,4155.000000,4255.641113,4154.487305,4146.538574,4133.205078,4552.436035,4444.358887,4377.820313,4505.897461,6631.000000,4.000000,89.000000,,,,0.000000,4.000000,4.000000,4.000000,4.000000,4.000000,4.000000,4.000000,4.000000,4.000000,4.000000,4.000000,4.000000,4.000000,4.000000,100.000000,,,,,,,,,,,,,,,,,21.000000,0.000000,0.668237,-0.027588,-0.708984,0.223694,0.925406,-0.352094,-0.000488,-30.136305,-6.360710,73.499870
1703403128.662893,1703403128.663690,85.000000,0.000000,4241.666504,4202.307617,4273.589844,4239.615234,4181.410156,4151.538574,4256.282227,4156.153809,4138.717773,4136.153809,4550.000000,4442.563965,4366.922852,4498.461426,6596.000000,4.000000,89.000000,,,,0.000000,4.000000,4.000000,4.000000,4.000000,4.000000,4.000000,4.000000,4.000000,4.000000,4.000000,4.000000,4.000000,4.000000,4.000000,100.000000,,,,,,,,,,,,,,,,,,,,,,,,,,,,
1703403128.670701,1703403128.671398,86.000000,0.000000,4233.974121,4199.615234,4274.102539,4232.051270,4176.794922,4151.794922,4261.282227,4156.282227,4135.256348,4134.871582,4552.179688,4443.846191,4368.846191,4503.077148,5809.000000,4.000000,89.000000,,,,0.000000,4.000000,4.000000,4.000000,4.000000,4.000000,4.000000,4.000000,4.000000,4.000000,4.000000,4.000000,4.000000,4.000000,4.000000,100.000000,,,,,,,,,,,,,,,,,,,,,,,,,,,,
1703403128.678509,1703403128.679206,87.000000,0.000000,4233.589844,4198.717773,4282.436035,4233.461426,4171.922852,4154.358887,4260.384766,4151.153809,4142.563965,4132.820313,4555.512695,4447.820313,4380.641113,4516.538574,6173.000000,4.000000,89.000000,,,,0.000000,4.000000,4.000000,4.000000,4.000000,4.000000,4.000000,4.000000,4.000000,4.000000,4.000000,4.000000,4.000000,4.000000,4.000000,100.000000,,,,,,,,,,,,,,,,,,,,,,,,,,,,
1703403128.686317,1703403128.686914,88.000000,0.000000,4248.846191,4201.538574,4295.128418,4237.307617,4176.025879,4152.307617,4255.897461,4158.333496,4152.820313,4138.589844,4566.153809,4462.820313,4386.794922,4529.871582,6631.000000,4.000000,89.000000,,,,0.000000,4.000000,4.000000,4.000000,4.000000,4.000000,4.000000,4.000000,4.000000,4.000000,4.000000,4.000000,4.000000,4.000000,4.000000,100.000000,,,,,,,,,,,,,,,,,22.000000,0.000000,0.668263,-0.027466,-0.708984,0.223633,0.924429,-0.367721,-0.002442,-30.272675,-6.391305,73.549889
1703403128.694125,1703403128.694722,89.000000,0.000000,4249.358887,4201.794922,4295.256348,4234.102539,4174.102539,4143.461426,4257.692383,4166.025879,4153.077148,4141.153809,4568.205078,4468.589844,4384.102539,4530.256348,6596.000000,4.000000,89.000000,,,,0.000000,4.000000,4.000000,4.000000,4.000000,4.000000,4.000000,4.000000,4.000000,4.000000,4.000000,4.000000,4.000000,4.000000,4.000000,100.000000,,,,,,,,,,,,,,,,,,,,,,,,,,,,
1703403128.701933,1703403128.702430,90.000000,0.000000,4234.487305,4194.615234,4288.846191,4231.282227,4163.461426,4135.128418,4257.436035,4160.384766,4149.871582,4136.794922,4559.871582,4462.307617,4378.974121,4519.230957,5809.000000,4.000000,89.000000,,,,0.000000,4.000000,4.000000,4.000000,4.000000,4.000000,4.000000,4.000000,4.000000,4.000000,4.000000,4.000000,4.000000,4.000000,4.000000,100.000000,,,,,,,,,,,,,,,,,,,,,,,,,,,,
1703403128.709741,1703403128.710338,91.000000,0.000000,4235.512695,4193.205078,4296.153809,4233.333496,4162.307617,4136.025879,4257.948730,4160.256348,4152.179688,4140.384766,4563.974121,4468.461426,4383.205078,4517.820313,6173.000000,4.000000,89.000000,,,,0.000000,4.000000,4.000000,4.000000,4.000000,4.000000,4.000000,4.000000,4.000000,4.000000,4.000000,4.000000,4.000000,4.000000,4.000000,100.000000,,,,,,,,,,,,,,,,,,,,,,,,,,,,
1703403128.717549,1703403128.718146,92.000000,0.000000,4251.025879,4200.256348,4304.358887,4236.153809,4169.102539,4140.641113,4264.487305,4169.102539,4154.102539,4152.563965,4580.897461,4477.820313,4398.077148,4529.871582,6631.000000,4.000000,89.000000,,,,0.000000,4.000000,4.000000,4.000000,4.000000,4.000000,4.000000,4.000000,4.000000,4.000000,4.000000,4.000000,4.000000,4.000000,4.000000,100.000000,,,,,,,,,,,,,,,,,23.000000,0.000000,0.668294,-0.027771,-0.708923,0.223694,0.922964,-0.363814,0.005860,-30.162073,-6.335508,73.511566
1703403128.725357,1703403128.726054,93.000000,0.000000,4238.717773,4201.153809,4293.077148,4234.102539,4171.922852,4137.820313,4263.461426,4170.897461,4152.563965,4156.794922,4584.102539,4471.282227,4397.820313,4528.077148,6596.000000,4.000000,89.000000,,,,0.000000,4.000000,4.000000,4.000000,4.000000,4.000000,4.000000,4.000000,4.000000,4.000000,4.000000,4.000000,4.000000,4.000000,4.000000,100.000000,,,,,,,,,,,,,,,,,,,,,,,,,,,,
1703403128.733165,1703403128.733862,94.000000,0.000000,4219.358887,4196.666504,4288.205078,4230.641113,4172.307617,4139.487305,4261.025879,4168.077148,4153.333496,4154.487305,4583.461426,4466.538574,4388.077148,4514.743652,5809.000000,4.000000,89.000000,,,,0.000000,4.000000,4.000000,4.000000,4.000000,4.000000,4.000000,4.000000,4.000000,4.000000,4.000000,4.000000,4.000000,4.000000,4.000000,100.000000,,,,,,,,,,,,,,,,,,,,,,,,,,,,
1703403128.740973,1703403128.741770,95.000000,0.000000,4237.436035,4199.487305,4297.051270,4234.743652,4172.179688,4147.179688,4263.589844,4169.615234,4154.230957,4155.128418,4603.589844,4469.871582,4401.538574,4525.769043,6173.000000,4.000000,89.000000,,,,0.000000,4.000000,4.000000,4.000000,4.000000,4.000000,4.000000,4.000000,4.000000,4.000000,4.000000,4.000000,4.000000,4.000000,4.000000,100.000000,,,,,,,,,,,,,,,,,,,,,,,,,,,,
1703403128.748782,1703403128.749578,96.000000,0.000000,4250.128418,4209.230957,4296.153809,4237.563965,4171.922852,4148.205078,4265.128418,4175.769043,4158.717773,4161.282227,4625.512695,4468.717773,4422.307617,4540.512695,6631.000000,4.000000,89.000000,,,,0.000000,4.000000,4.000000,4.000000,4.000000,4.000000,4.000000,4.000000,4.000000,4.000000,4.000000,4.000000,4.000000,4.000000,4.000000,100.000000,,,,,,,,,,,,,,,,,24.000000,0.000000,0.668156,-0.028076,-0.708984,0.223877,0.918081,-0.357466,-0.002930,-30.112534,-6.285291,73.560410
1703403128.756590,1703403128.757485,97.000000,0.000000,4238.333496,4214.358887,4290.641113,4234.102539,4175.256348,4145.897461,4265.384766,4180.769043,4167.948730,4171.282227,4630.000000,4461.410156,4422.051270,4529.102539,6596.000000,4.000000,89.000000,,,,0.000000,4.000000,4.000000,4.000000,4.000000,4.000000,4.000000,4.000000,4.000000,4.000000,4.000000,4.000000,4.000000,4.000000,4.000000,100.000000,,,,,,,,,,,,,,,,,,,,,,,,,,,,
1703403128.764398,1703403128.765293,98.000000,0.000000,4240.512695,4213.846191,4294.230957,4237.436035,4180.000000,4150.384766,4264.230957,4176.538574,4168.205078,4175.641113,4630.769043,4456.282227,4414.230957,4526.538574,5809.000000,4.000000,89.000000,,,,0.000000,4.000000,4.000000,4.000000,4.000000,4.000000,4.000000,4.000000,4.000000,4.000000,4.000000,4.000000,4.000000,4.000000,4.000000,100.000000,,,,,,,,,,,,,,,,,,,,,,,,,,,,
1703403128.772206,1703403128.773201,99.000000,0.000000,4249.487305,4213.846191,4293.589844,4243.974121,4179.102539,4153.717773,4263.205078,4169.102539,4158.333496,4169.102539,4633.077148,4454.615234,4412.692383,4534.871582,6173.000000,4.000000,89.000000,,,,0.000000,4.000000,4.000000,4.000000,4.000000,4.000000,4.000000,4.000000,4.000000,4.000000,4.000000,4.000000,4.000000,4.000000,4.000000,100.000000,,,,,,,,,,,,,,,,,,,,,,,,,,,,
1703403128.780014,1703403128.781009,100.000000,0.000000,4237.307617,4210.256348,4286.153809,4240.384766,4178.205078,4152.179688,4263.333496,4168.974121,4152.692383,4163.589844,4630.641113,4449.358887,4411.794922,4518.974121,6631.000000,4.000000,89.000000,,,,0.000000,4.000000,4.000000,4.000000,4.000000,4.000000,4.000000,4.000000,4.000000,4.000000,4.000000,4.000000,4.000000,4.000000,4.000000,100.000000,,,,,,,,,,,,,,,,,25.000000,0.000000,0.668161,-0.028442,-0.708984,0.223816,0.918081,-0.365279,-0.002930,-29.984613,-6.323428,73.571030
1703403128.787822,1703403128.788917,101.000000,0.000000,4229.102539,4205.384766,4287.436035,4239.615234,4182.563965,4153.846191,4265.512695,4169.871582,4155.128418,4169.487305,4634.487305,4445.384766,4412.563965,4510.256348,6596.000000,4.000000,89.000000,,,,0.000000,4.000000,4.000000,4.000000,4.000000,4.000000,4.000000,4.000000,4.000000,4.000000,4.000000,4.000000,4.000000,4.000000,4.000000,100.000000,,,,,,,,,,,,,,,,,,,,,,,,,,,,
1703403128.795630,1703403128.796725,102.000000,0.000000,4232.307617,4207.051270,4288.974121,4245.641113,4186.153809,4155.769043,4265.128418,4167.948730,4156.794922,4173.589844,4640.897461,4444.102539,4414.615234,4520.641113,5809.000000,4.000000,89.000000,,,,0.000000,4.000000,4.000000,4.000000,4.000000,4.000000,4.000000,4.000000,4.000000,4.000000,4.000000,4.000000,4.000000,4.000000,4.000000,100.000000,,,,,,,,,,,,,,,,,,,,,,,,,,,,
1703403128.803438,1703403128.804633,103.000000,0.000000,4227.820313,4212.307617,4289.615234,4245.512695,4180.256348,4149.487305,4263.717773,4167.179688,4154.102539,4171.794922,4640.769043,4446.922852,4419.102539,4516.025879,6173.000000,4.000000,89.000000,,,,0.000000,4.000000,4.000000,4.000000,4.000000,4.000000,4.000000,4.000000,4.000000,4.000000,4.000000,4.000000,4.000000,4.000000,4.000000,100.000000,,,,,,,,,,,,,,,,,,,,,,,,,,,,
1703403128.811246,1703403128.812441,104.000000,0.000000,4229.487305,4213.205078,4297.051270,4243.974121,4173.974121,4145.641113,4264.487305,4168.589844,4157.179688,4177.307617,4646.153809,4456.282227,4425.000000,4512.563965,6631.000000,4.000000,89.000000,,,,0.000000,4.000000,4.000000,4.000000,4.000000,4.000000,4.000000,4.000000,4.000000,4.000000,4.000000,4.000000,4.000000,4.000000,4.000000,100.000000,,,,,,,,,,,,,,,,,26.000000,0.000000,0.667982,-0.028625,-0.709106,0.223938,0.906849,-0.367232,-0.003907,-30.086151,-6.357752,73.613930
1703403128.819054,1703403128.820349,105.000000,0.000000,4233.974121,4214.102539,4302.692383,4247.307617,4178.205078,4149.358887,4264.358887,4172.307617,4162.051270,4183.974121,4653.333496,4460.000000,4423.717773,4524.743652,6596.000000,4.000000,89.000000,,,,0.000000,4.000000,4.000000,4.000000,4.000000,4.000000,4.000000,4.000000,4.000000,4.000000,4.000000,4.000000,4.000000,4.000000,4.000000,100.000000,,,,,,,,,,,,,,,,,,,,,,,,,,,,
1703403128.826862,1703403128.828157,106.000000,0.000000,4230.384766,4215.769043,4302.820313,4247.179688,4180.512695,4149.487305,4264.487305,4173.205078,4158.333496,4180.384766,4650.384766,4454.358887,4421.410156,4527.948730,5809.000000,4.000000,89.000000,,,,0.000000,4.000000,4.000000,4.000000,4.000000,4.000000,4.000000,4.000000,4.000000,4.000000,4.000000,4.000000,4.000000,4.000000,4.000000,100.000000,,,,,,,,,,,,,,,,,,,,,,,,,,,,
1703403128.834670,1703403128.835865,107.000000,0.000000,4229.871582,4215.384766,4306.666504,4246.153809,4170.897461,4146.153809,4265.000000,4171.794922,4158.974121,4179.230957,4650.384766,4455.000000,4427.563965,4523.461426,6173.000000,4.000000,89.000000,,,,0.000000,4.000000,4.000000,4.000000,4.000000,4.000000,4.000000,4.000000,4.000000,4.000000,4.000000,4.000000,4.000000,4.000000,4.000000,100.000000,,,,,,,,,,,,,,,,,,,,,,,,,,,,
1703403128.842478,1703403128.843673,108.000000,0.000000,4236.025879,4216.025879,4313.077148,4243.589844,4169.487305,4144.871582,4264.615234,4173.077148,4166.025879,4187.692383,4660.769043,4466.666504,4433.205078,4522.563965,6631.000000,4.000000,89.000000,,,,0.000000,4.000000,4.000000,4.000000,4.000000,4.000000,4.000000,4.000000,4.000000,4.000000,4.000000,4.000000,4.000000,4.000000,4.000000,100.000000,,,,,,,,,,,,,,,,,27.000000,0.000000,0.667982,-0.028625,-0.709106,0.223938,0.933708,-0.370651,-0.003907,-30.110870,-6.571977,73.719200
1703403128.850286,1703403128.851381,109.000000,0.000000,4237.948730,4213.205078,4309.230957,4236.922852,4176.025879,4144.743652,4261.666504,4174.871582,4164.102539,4192.436035,4662.692383,4467.563965,4428.717773,4523.205078,6596.000000,4.000000,89.000000,,,,0.000000,4.000000,4.000000,4.000000,4.000000,4.000000,4.000000,4.000000,4.000000,4.000000,4.000000,4.000000,4.000000,4.000000,4.000000,100.000000,,,,,,,,,,,,,,,,,,,,,,,,,,,,
1703403128.858094,1703403128.859189,110.000000,0.000000,4234.615234,4211.666504,4301.794922,4241.538574,4173.333496,4148.333496,4262.436035,4172.563965,4158.077148,4183.077148,4652.179688,4453.717773,4421.922852,4526.410156,5809.000000,4.000000,89.000000,,,,0.000000,4.000000,4.000000,4.000000,4.000000,4.000000,4.000000,4.000000,4.000000,4.000000,4.000000,4.000000,4.000000,4.000000,4.000000,100.000000,,,,,,,,,,,,,,,,,,,,,,,,,,,,
1703403128.865902,1703403128.866897,111.000000,0.000000,4222.820313,4211.410156,4298.717773,4247.179688,4168.974121,4153.333496,4269.615234,4166.538574,4153.077148,4169.743652,4643.077148,4445.384766,4415.897461,4528.461426,6173.000000,4.000000,89.000000,,,,0.000000,4.000000,4.000000,4.000000,4.000000,4.000000,4.000000,4.000000,4.000000,4.000000,4.000000,4.000000,4.000000,4.000000,4.000000,100.000000,,,,,,,,,,,,,,,,,,,,,,,,,,,,
1703403128.873710,1703403128.874705,112.000000,0.000000,4217.948730,4206.922852,4294.487305,4237.436035,4172.307617,4152.051270,4270.128418,4166.282227,4151.410156,4172.307617,4642.436035,4443.974121,4411.666504,4522.307617,6631.000000,4.000000,89.000000,,,,0.000000,4.000000,4.000000,4.000000,4.000000,4.000000,4.000000,4.000000,4.000000,4.000000,4.000000,4.000000,4.000000,4.000000,4.000000,100.000000,,,,,,,,,,,,,,,,,28.000000,0.000000,0.668102,-0.028381,-0.708984,0.223999,0.923941,-0.364791,0.000488,-30.299784,-6.648112,73.763947
1703403128.881518,1703403128.882413,113.000000,0.000000,4225.128418,4202.307617,4288.717773,4229.743652,4174.230957,4148.333496,4262.692383,4170.897461,4156.794922,4184.230957,4645.000000,4444.230957,4413.461426,4516.922852,6596.000000,4.000000,89.000000,,,,0.000000,4.000000,4.000000,4.000000,4.000000,4.000000,4.000000,4.000000,4.000000,4.000000,4.000000,4.000000,4.000000,4.000000,4.000000,100.000000,,,,,,,,,,,,,,,,,,,,,,,,,,,,
1703403128.889326,1703403128.890221,114.000000,0.000000,4221.794922,4202.948730,4287.179688,4231.794922,4171.538574,4149.358887,4261.410156,4168.589844,4161.410156,4185.256348,4647.692383,4446.153809,4416.666504,4523.205078,5809.000000,4.000000,89.000000,,,,0.000000,4.000000,4.000000,4.000000,4.000000,4.000000,4.000000,4.000000,4.000000,4.000000,4.000000,4.000000,4.000000,4.000000,4.000000,100.000000,,,,,,,,,,,,,,,,,,,,,,,,,,,,
1703403128.897134,1703403128.897929,115.000000,0.000000,4218.717773,4209.487305,4290.256348,4234.871582,4171.410156,4149.871582,4264.615234,4164.230957,4157.436035,4183.077148,4647.307617,4445.641113,4416.538574,4520.256348,6173.000000,4.000000,89.000000,,,,0.000000,4.000000,4.000000,4.000000,4.000000,4.000000,4.000000,4.000000,4.000000,4.000000,4.000000,4.000000,4.000000,4.000000,4.000000,100.000000,,,,,,,,,,,,,,,,,,,,,,,,,,,,
1703403128.904943,1703403128.905737,116.000000,0.000000,4237.307617,4216.538574,4290.897461,4241.666504,4175.769043,4151.666504,4263.589844,4166.410156,4155.641113,4185.641113,4646.794922,4445.897461,4417.563965,4506.410156,6631.000000,4.000000,89.000000,,,,0.000000,4.000000,4.000000,4.000000,4.000000,4.000000,4.000000,4.000000,4.000000,4.000000,4.000000,4.000000,4.000000,4.000000,4.000000,100.000000,,,,,,,,,,,,,,,,,29.000000,0.000000,0.668213,-0.028259,-0.708923,0.223877,0.915151,-0.368209,0.005372,-30.303139,-6.716635,73.887558
1703403128.912751,1703403128.913445,117.000000,0.000000,4249.871582,4218.589844,4290.641113,4247.179688,4177.692383,4152.563965,4259.743652,4170.000000,4162.307617,4187.307617,4655.000000,4452.948730,4428.846191,4519.871582,6596.000000,4.000000,89.000000,,,,0.000000,4.000000,4.000000,4.000000,4.000000,4.000000,4.000000,4.000000,4.000000,4.000000,4.000000,4.000000,4.000000,4.000000,4.000000,100.000000,,,,,,,,,,,,,,,,,,,,,,,,,,,,
1703403128.920559,1703403128.921353,118.000000,0.000000,4235.769043,4215.641113,4292.436035,4245.000000,4175.000000,4152.051270,4258.974121,4167.563965,4165.128418,4186.666504,4660.128418,4452.179688,4432.563965,4545.769043,5809.000000,4.000000,89.000000,,,,0.000000,4.000000,4.000000,4.000000,4.000000,4.000000,4.000000,4.000000,4.000000,4.000000,4.000000,4.000000,4.000000,4.000000,4.000000,100.000000,,,,,,,,,,,,,,,,,,,,,,,,,,,,
1703403128.928367,1703403128.929161,119.000000,0.000000,4226.025879,4213.205078,4292.563965,4243.717773,4172.820313,4153.205078,4261.153809,4166.922852,4159.102539,4183.333496,4649.615234,4444.487305,4418.717773,4538.589844,6173.000000,4.000000,89.000000,,,,0.000000,4.000000,4.000000,4.000000,4.000000,4.000000,4.000000,4.000000,4.000000,4.000000,4.000000,4.000000,4.000000,4.000000,4.000000,100.000000,,,,,,,,,,,,,,,,,,,,,,,,,,,,
1703403128.936175,1703403128.937069,120.000000,0.000000,4231.538574,4208.846191,4288.333496,4241.282227,4172.436035,4153.205078,4262.692383,4169.487305,4153.974121,4176.282227,4638.974121,4445.256348,4412.820313,4518.077148,6631.000000,4.000000,89.000000,,,,0.000000,4.000000,4.000000,4.000000,4.000000,4.000000,4.000000,4.000000,4.000000,4.000000,4.000000,4.000000,4.000000,4.000000,4.000000,100.000000,,,,,,,,,,,,,,,,,30.000000,0.000000,0.668421,-0.028320,-0.708801,0.223633,0.913197,-0.359907,0.012697,-30.356157,-6.778305,73.798798
1703403128.943983,1703403128.944877,121.000000,0.000000,4223.205078,4198.461426,4285.769043,4235.256348,4169.615234,4147.436035,4262.051270,4164.743652,4153.846191,4169.102539,4635.641113,4445.384766,4417.179688,4512.820313,6596.000000,4.000000,89.000000,,,,0.000000,4.000000,4.000000,4.000000,4.000000,4.000000,4.000000,4.000000,4.000000,4.000000,4.000000,4.000000,4.000000,4.000000,4.000000,100.000000,,,,,,,,,,,,,,,,,,,,,,,,,,,,
1703403128.951791,1703403128.952785,122.000000,0.000000,4205.897461,4195.256348,4287.307617,4232.563965,4166.153809,4141.282227,4260.384766,4158.717773,4153.333496,4165.384766,4630.000000,4438.205078,4412.436035,4506.025879,5809.000000,4.000000,89.000000,,,,0.000000,4.000000,4.000000,4.000000,4.000000,4.000000,4.000000,4.000000,4.000000,4.000000,4.000000,4.000000,4.000000,4.000000,4.000000,100.000000,,,,,,,,,,,,,,,,,,,,,,,,,,,,
1703403128.959599,1703403128.960593,123.000000,0.000000,4208.974121,4200.512695,4288.974121,4233.717773,4166.282227,4141.538574,4261.794922,4159.871582,4150.641113,4169.230957,4630.512695,4439.487305,4409.102539,4503.717773,6173.000000,4.000000,89.000000,,,,0.000000,4.000000,4.000000,4.000000,4.000000,4.000000,4.000000,4.000000,4.000000,4.000000,4.000000,4.000000,4.000000,4.000000,4.000000,100.000000,,,,,,,,,,,,,,,,,,,,,,,,,,,,
1703403128.967407,1703403128.968500,124.000000,0.000000,4227.820313,4196.794922,4287.307617,4235.000000,4167.307617,4143.846191,4262.051270,4159.102539,4145.641113,4170.512695,4633.589844,4446.538574,4413.974121,4514.615234,6631.000000,4.000000,89.000000,,,,0.000000,4.000000,4.000000,4.000000,4.000000,4.000000,4.000000,4.000000,4.000000,4.000000,4.000000,4.000000,4.000000,4.000000,4.000000,100.000000,,,,,,,,,,,,,,,,,31.000000,0.000000,0.668390,-0.028503,-0.708862,0.223511,0.923453,-0.354535,-0.006837,-30.470541,-6.767141,73.652252
1703403128.975215,1703403128.976308,125.000000,0.000000,4225.512695,4191.794922,4284.487305,4233.974121,4167.820313,4147.692383,4259.358887,4154.102539,4140.641113,4161.282227,4623.205078,4443.589844,4408.974121,4510.000000,6596.000000,4.000000,89.000000,,,,0.000000,4.000000,4.000000,4.000000,4.000000,4.000000,4.000000,4.000000,4.000000,4.000000,4.000000,4.000000,4.000000,4.000000,4.000000,100.000000,,,,,,,,,,,,,,,,,,,,,,,,,,,,
1703403128.983023,1703403128.984016,126.000000,0.000000,4207.436035,4194.102539,4285.641113,4232.051270,4172.179688,4154.102539,4259.358887,4153.461426,4142.179688,4153.589844,4613.717773,4439.230957,4400.897461,4493.589844,5809.000000,4.000000,89.000000,,,,0.000000,4.000000,4.000000,4.000000,4.000000,4.000000,4.000000,4.000000,4.000000,4.000000,4.000000,4.000000,4.000000,4.000000,4.000000,100.000000,,,,,,,,,,,,,,,,,,,,,,,,,,,,
1703403128.990831,1703403128.991824,127.000000,0.000000,4199.230957,4193.077148,4287.692383,4232.692383,4176.025879,4155.384766,4261.666504,4155.256348,4143.717773,4156.922852,4616.153809,4440.384766,4399.102539,4492.948730,89.000000,4.000000,89.000000,,,,0.000000,4.000000,4.000000,4.000000,4.000000,4.000000,4.000000,4.000000,4.000000,4.000000,4.000000,4.000000,4.000000,4.000000,4.000000,100.000000,,,,,,,,,,,,,,,,,,,,,,,,,,,,
1703403128.998639,1703403128.999533,0.000000,0.000000,4202.563965,4192.179688,4285.897461,4235.641113,4174.358887,4151.410156,4263.846191,4154.230957,4145.384766,4160.769043,4617.051270,4438.077148,4396.794922,4494.487305,5332.000000,4.000000,89.000000,,,,0.000000,4.000000,4.000000,4.000000,4.000000,4.000000,4.000000,4.000000,4.000000,4.000000,4.000000,4.000000,4.000000,4.000000,4.000000,100.000000,1.000000,91.666664,4.000000,4.000000,4.000000,4.000000,4.000000,4.000000,4.000000,4.000000,4.000000,4.000000,3.000000,4.000000,4.000000,4.000000,0.000000,0.000000,0.668472,-0.028564,-0.708801,0.223450,0.927359,-0.353070,-0.001953,-30.573488,-6.840426,73.603691
1703403129.006447,1703403129.007340,1.000000,0.000000,4213.077148,4195.256348,4284.230957,4235.512695,4171.025879,4150.897461,4263.077148,4152.179688,4148.077148,4158.974121,4614.102539,4438.205078,4394.615234,4490.000000,5073.000000,4.000000,89.000000,,,,0.000000,4.000000,4.000000,4.000000,4.000000,4.000000,4.000000,4.000000,4.000000,4.000000,4.000000,4.000000,4.000000,4.000000,4.000000,100.000000,,,,,,,,,,,,,,,,,,,,,,,,,,,,
1703403129.014255,1703403129.015049,2.000000,0.000000,4218.333496,4191.410156,4284.230957,4233.333496,4170.256348,4154.487305,4258.077148,4150.128418,4148.461426,4156.922852,4616.922852,4440.897461,4399.358887,4496.025879,5115.000000,4.000000,89.000000,,,,0.000000,4.000000,4.000000,4.000000,4.000000,4.000000,4.000000,4.000000,4.000000,4.000000,4.000000,4.000000,4.000000,4.000000,4.000000,100.000000,,,,,,,,,,,,,,,,,,,,,,,,,,,,
1703403129.022063,1703403129.022857,3.000000,0.000000,4211.410156,4185.641113,4282.307617,4235.256348,4171.666504,4153.717773,4257.563965,4150.128418,4146.410156,4156.538574,4619.230957,4437.436035,4400.384766,4502.436035,5242.000000,4.000000,89.000000,,,,0.000000,4.000000,4.000000,4.000000,4.000000,4.000000,4.000000,4.000000,4.000000,4.000000,4.000000,4.000000,4.000000,4.000000,4.000000,100.000000,,,,,,,,,,,,,,,,,,,,,,,,,,,,
1703403129.029871,1703403129.030565,4.000000,0.000000,4202.948730,4187.563965,4281.922852,4237.436035,4171.153809,4149.615234,4261.538574,4151.025879,4143.461426,4154.871582,4615.512695,4436.410156,4392.692383,4492.436035,5048.000000,4.000000,89.000000,,,,0.000000,4.000000,4.000000,4.000000,4.000000,4.000000,4.000000,4.000000,4.000000,4.000000,4.000000,4.000000,4.000000,4.000000,4.000000,100.000000,,,,,,,,,,,,,,,,,1.000000,0.000000,0.668294,-0.028748,-0.708923,0.223572,0.925894,-0.352094,0.012209,-30.499472,-6.623051,73.659988
1703403129.037680,1703403129.038472,5.000000,0.000000,4204.358887,4185.897461,4283.717773,4234.487305,4169.487305,4149.615234,4261.666504,4151.666504,4144.487305,4151.794922,4615.000000,4439.871582,4391.153809,4488.461426,5110.000000,4.000000,89.000000,,,,0.000000,4.000000,4.000000,4.000000,4.000000,4.000000,4.000000,4.000000,4.000000,4.000000,4.000000,4.000000,4.000000,4.000000,4.000000,100.000000,,,,,,,,,,,,,,,,,,,,,,,,,,,,
1703403129.045488,1703403129.046280,6.000000,0.000000,4209.358887,4183.974121,4282.563965,4232.436035,4171.025879,4149.487305,4258.461426,4155.641113,4151.025879,4153.461426,4617.307617,4440.641113,4396.282227,4497.948730,2261.000000,4.000000,89.000000,,,,0.000000,4.000000,4.000000,4.000000,4.000000,4.000000,4.000000,4.000000,4.000000,4.000000,4.000000,4.000000,4.000000,4.000000,4.000000,100.000000,,,,,,,,,,,,,,,,,,,,,,,,,,,,
1703403129.053295,1703403129.054188,7.000000,0.000000,4206.794922,4187.692383,4281.410156,4234.102539,4170.128418,4146.922852,4256.410156,4157.051270,4154.358887,4157.820313,4613.846191,4441.922852,4400.512695,4496.282227,5270.000000,4.000000,89.000000,,,,0.000000,4.000000,4.000000,4.000000,4.000000,4.000000,4.000000,4.000000,4.000000,4.000000,4.000000,4.000000,4.000000,4.000000,4.000000,100.000000,,,,,,,,,,,,,,,,,,,,,,,,,,,,
1703403129.061104,1703403129.061996,8.000000,0.000000,4201.538574,4187.948730,4279.871582,4233.846191,4165.000000,4148.461426,4258.077148,4156.410156,4152.051270,4157.692383,4610.128418,4443.589844,4405.641113,4486.282227,5277.000000,4.000000,89.000000,,,,0.000000,4.000000,4.000000,4.000000,4.000000,4.000000,4.000000,4.000000,4.000000,4.000000,4.000000,4.000000,4.000000,4.000000,4.000000,100.000000,,,,,,,,,,,,,,,,,2.000000,0.000000,0.668253,-0.028748,-0.708923,0.223694,0.919057,-0.358931,-0.004883,-30.332859,-6.660746,73.693993
1703403129.068912,1703403129.069904,9.000000,0.000000,4206.666504,4186.538574,4277.179688,4232.692383,4165.384766,4152.948730,4260.512695,4163.333496,4154.358887,4157.436035,4613.205078,4443.974121,4412.820313,4493.077148,5166.000000,4.000000,89.000000,,,,0.000000,4.000000,4.000000,4.000000,4.000000,4.000000,4.000000,4.000000,4.000000,4.000000,4.000000,4.000000,4.000000,4.000000,4.000000,100.000000,,,,,,,,,,,,,,,,,,,,,,,,,,,,
1703403129.076720,1703403129.077712,10.000000,0.000000,4212.051270,4188.077148,4276.153809,4232.692383,4168.846191,4152.051270,4258.077148,4170.641113,4156.794922,4157.820313,4611.666504,4443.077148,4414.358887,4501.666504,5811.000000,4.000000,89.000000,,,,0.000000,4.000000,4.000000,4.000000,4.000000,4.000000,4.000000,4.000000,4.000000,4.000000,4.000000,4.000000,4.000000,4.000000,4.000000,100.000000,,,,,,,,,,,,,,,,,,,,,,,,,,,,
1703403129.084528,1703403129.085520,11.000000,0.000000,4205.128418,4189.487305,4275.512695,4232.436035,4167.307617,4149.743652,4256.922852,4169.743652,4155.897461,4158.333496,4604.487305,4439.358887,4406.153809,4494.743652,6175.000000,4.000000,89.000000,,,,0.000000,4.000000,4.000000,4.000000,4.000000,4.000000,4.000000,4.000000,4.000000,4.000000,4.000000,4.000000,4.000000,4.000000,4.000000,100.000000,,,,,,,,,,,,,,,,,,,,,,,,,,,,
1703403129.092336,1703403129.093228,12.000000,0.000000,4199.487305,4188.333496,4272.307617,4231.538574,4167.307617,4151.153809,4259.358887,4163.077148,4155.641113,4156.153809,4596.922852,4434.487305,4398.333496,4490.128418,6631.000000,4.000000,89.000000,,,,0.000000,4.000000,4.000000,4.000000,4.000000,4.000000,4.000000,4.000000,4.000000,4.000000,4.000000,4.000000,4.000000,4.000000,4.000000,100.000000,,,,,,,,,,,,,,,,,3.000000,0.000000,0.668123,-0.028931,-0.708923,0.224060,0.913197,-0.361372,0.004395,-30.316238,-6.778004,73.641258
1703403129.100144,1703403129.101136,13.000000,0.000000,4199.358887,4186.666504,4265.641113,4231.410156,4170.000000,4152.436035,4260.641113,4159.358887,4150.769043,4149.358887,4591.794922,4430.512695,4397.179688,4491.282227,6603.000000,4.000000,89.000000,,,,0.000000,4.000000,4.000000,4.000000,4.000000,4.000000,4.000000,4.000000,4.000000,4.000000,4.000000,4.000000,4.000000,4.000000,4.000000,100.000000,,,,,,,,,,,,,,,,,,,,,,,,,,,,
1703403129.107952,1703403129.108944,14.000000,0.000000,4190.256348,4180.897461,4260.256348,4226.153809,4168.589844,4153.846191,4259.358887,4155.512695,4141.538574,4140.256348,4582.948730,4422.436035,4392.179688,4478.846191,5811.000000,4.000000,89.000000,,,,0.000000,4.000000,4.000000,4.000000,4.000000,4.000000,4.000000,4.000000,4.000000,4.000000,4.000000,4.000000,4.000000,4.000000,4.000000,100.000000,,,,,,,,,,,,,,,,,,,,,,,,,,,,
1703403129.115760,1703403129.116852,15.000000,0.000000,4175.256348,4176.153809,4257.307617,4218.333496,4167.563965,4153.333496,4256.922852,4146.282227,4135.384766,4134.487305,4569.230957,4415.384766,4380.256348,4467.692383,6175.000000,4.000000,89.000000,,,,0.000000,4.000000,4.000000,4.000000,4.000000,4.000000,4.000000,4.000000,4.000000,4.000000,4.000000,4.000000,4.000000,4.000000,4.000000,100.000000,,,,,,,,,,,,,,,,,,,,,,,,,,,,
1703403129.123568,1703403129.124660,16.000000,0.000000,4176.025879,4180.769043,4259.487305,4222.692383,4171.282227,4151.282227,4255.641113,4142.820313,4135.128418,4134.102539,4564.743652,4418.974121,4379.230957,4475.512695,0.000000,4.000000,89.000000,,,,0.000000,4.000000,4.000000,4.000000,4.000000,4.000000,4.000000,4.000000,4.000000,4.000000,4.000000,4.000000,4.000000,4.000000,4.000000,100.000000,,,,,,,,,,,,,,,,,4.000000,0.000000,0.668053,-0.029114,-0.708923,0.224243,0.917104,-0.356489,0.006837,-30.301281,-6.800204,73.727135
1703403129.131376,1703403129.132568,17.000000,0.000000,4187.051270,4188.333496,4266.666504,4232.436035,4172.436035,4153.846191,4257.820313,4149.487305,4139.358887,4138.077148,4570.897461,4429.230957,4384.487305,4476.922852,0.000000,4.000000,89.000000,,,,0.000000,4.000000,4.000000,4.000000,4.000000,4.000000,4.000000,4.000000,4.000000,4.000000,4.000000,4.000000,4.000000,4.000000,4.000000,100.000000,,,,,,,,,,,,,,,,,,,,,,,,,,,,
1703403129.139184,1703403129.140376,18.000000,0.000000,4191.025879,4187.179688,4269.487305,4231.538574,4168.461426,4151.538574,4256.922852,4153.461426,4145.512695,4143.974121,4573.974121,4435.384766,4381.410156,4472.051270,0.000000,4.000000,89.000000,,,,0.000000,4.000000,4.000000,4.000000,4.000000,4.000000,4.000000,4.000000,4.000000,4.000000,4.000000,4.000000,4.000000,4.000000,4.000000,100.000000,,,,,,,,,,,,,,,,,,,,,,,,,,,,
1703403129.146992,1703403129.148284,19.000000,0.000000,4195.769043,4183.974121,4271.282227,4229.615234,4167.436035,4143.205078,4252.820313,4150.256348,4146.666504,4143.846191,4571.153809,4437.948730,4379.615234,4483.589844,0.000000,4.000000,89.000000,,,,0.000000,4.000000,4.000000,4.000000,4.000000,4.000000,4.000000,4.000000,4.000000,4.000000,4.000000,4.000000,4.000000,4.000000,4.000000,100.000000,,,,,,,,,,,,,,,,,,,,,,,,,,,,
1703403129.154800,1703403129.156092,20.000000,0.000000,4200.256348,4189.230957,4276.538574,4236.025879,4170.128418,4146.025879,4253.077148,4153.461426,4147.436035,4141.794922,4573.589844,4443.974121,4387.820313,4490.512695,0.000000,4.000000,89.000000,,,,0.000000,4.000000,4.000000,4.000000,4.000000,4.000000,4.000000,4.000000,4.000000,4.000000,4.000000,4.000000,4.000000,4.000000,4.000000,100.000000,,,,,,,,,,,,,,,,,5.000000,0.000000,0.667955,-0.029419,-0.708984,0.224304,0.926383,-0.367721,0.003418,-30.237820,-6.820183,73.754417
1703403129.162608,1703403129.163899,21.000000,0.000000,4191.538574,4191.025879,4273.205078,4232.820313,4168.077148,4150.256348,4253.717773,4158.717773,4148.589844,4142.563965,4574.871582,4443.333496,4391.410156,4485.128418,0.000000,4.000000,89.000000,,,,0.000000,4.000000,4.000000,4.000000,4.000000,4.000000,4.000000,4.000000,4.000000,4.000000,4.000000,4.000000,4.000000,4.000000,4.000000,100.000000,,,,,,,,,,,,,,,,,,,,,,,,,,,,
1703403129.170416,1703403129.171707,22.000000,0.000000,4183.717773,4185.641113,4265.256348,4224.102539,4166.282227,4144.871582,4251.538574,4156.153809,4144.102539,4139.743652,4568.589844,4436.153809,4384.615234,4485.769043,0.000000,4.000000,89.000000,,,,0.000000,4.000000,4.000000,4.000000,4.000000,4.000000,4.000000,4.000000,4.000000,4.000000,4.000000,4.000000,4.000000,4.000000,4.000000,100.000000,,,,,,,,,,,,,,,,,,,,,,,,,,,,
1703403129.178224,1703403129.179416,23.000000,0.000000,4187.179688,4182.436035,4266.794922,4225.512695,4168.333496,4142.948730,4252.307617,4152.692383,4138.846191,4137.563965,4566.538574,4437.051270,4380.256348,4491.410156,0.000000,4.000000,89.000000,,,,0.000000,4.000000,4.000000,4.000000,4.000000,4.000000,4.000000,4.000000,4.000000,4.000000,4.000000,4.000000,4.000000,4.000000,4.000000,100.000000,,,,,,,,,,,,,,,,,,,,,,,,,,,,
1703403129.186032,1703403129.187223,24.000000,0.000000,4186.794922,4183.461426,4264.615234,4225.256348,4163.077148,4144.871582,4252.692383,4152.179688,4139.487305,4138.717773,4565.641113,4440.897461,4379.871582,4490.384766,0.000000,4.000000,89.000000,,,,0.000000,4.000000,4.000000,4.000000,4.000000,4.000000,4.000000,4.000000,4.000000,4.000000,4.000000,4.000000,4.000000,4.000000,4.000000,100.000000,,,,,,,,,,,,,,,,,6.000000,0.000000,0.667972,-0.029480,-0.708984,0.224243,0.925894,-0.372604,0.005860,-30.247372,-6.821498,73.712311
1703403129.193841,1703403129.194932,25.000000,0.000000,4180.384766,4183.717773,4259.487305,4219.230957,4160.256348,4141.538574,4251.922852,4153.717773,4142.948730,4137.820313,4558.589844,4440.512695,4380.512695,4491.025879,0.000000,4.000000,89.000000,,,,0.000000,4.000000,4.000000,4.000000,4.000000,4.000000,4.000000,4.000000,4.000000,4.000000,4.000000,4.000000,4.000000,4.000000,4.000000,100.000000,,,,,,,,,,,,,,,,,,,,,,,,,,,,
1703403129.201649,1703403129.202740,26.000000,0.000000,4180.256348,4180.641113,4267.563965,4215.512695,4165.512695,4138.974121,4248.205078,4155.128418,4143.333496,4138.077148,4552.179688,4438.974121,4378.077148,4494.743652,0.000000,4.000000,89.000000,,,,0.000000,4.000000,4.000000,4.000000,4.000000,4.000000,4.000000,4.000000,4.000000,4.000000,4.000000,4.000000,4.000000,4.000000,4.000000,100.000000,,,,,,,,,,,,,,,,,,,,,,,,,,,,
1703403129.209457,1703403129.210448,27.000000,0.000000,4179.743652,4177.179688,4273.077148,4216.666504,4160.128418,4137.692383,4246.025879,4155.641113,4142.563965,4140.641113,4554.102539,4440.384766,4374.615234,4491.410156,0.000000,4.000000,89.000000,,,,0.000000,4.000000,4.000000,4.000000,4.000000,4.000000,4.000000,4.000000,4.000000,4.000000,4.000000,4.000000,4.000000,4.000000,4.000000,100.000000,,,,,,,,,,,,,,,,,,,,,,,,,,,,
1703403129.217265,1703403129.218256,28.000000,0.000000,4175.769043,4178.077148,4268.205078,4222.436035,4149.743652,4133.461426,4248.974121,4156.282227,4141.410156,4137.307617,4555.000000,4442.820313,4376.153809,4486.410156,0.000000,4.000000,89.000000,,,,0.000000,4.000000,4.000000,4.000000,4.000000,4.000000,4.000000,4.000000,4.000000,4.000000,4.000000,4.000000,4.000000,4.000000,4.000000,100.000000,,,,,,,,,,,,,,,,,7.000000,0.000000,0.667835,-0.029663,-0.709106,0.224243,0.920034,-0.367232,-0.001465,-30.472635,-6.872682,73.724411
1703403129.225073,1703403129.225964,29.000000,0.000000,4181.538574,4185.128418,4270.512695,4232.563965,4152.436035,4135.000000,4248.974121,4159.615234,4143.333496,4135.384766,4552.948730,4444.358887,4380.641113,4487.179688,0.000000,4.000000,89.000000,,,,0.000000,4.000000,4.000000,4.000000,4.000000,4.000000,4.000000,4.000000,4.000000,4.000000,4.000000,4.000000,4.000000,4.000000,4.000000,100.000000,,,,,,,,,,,,,,,,,,,,,,,,,,,,
1703403129.232881,1703403129.233772,30.000000,0.000000,4187.948730,4186.410156,4272.692383,4231.666504,4156.666504,4136.922852,4245.512695,4160.769043,4143.974121,4136.153809,4552.563965,4445.000000,4377.692383,4485.000000,0.000000,4.000000,89.000000,,,,0.000000,4.000000,4.000000,4.000000,4.000000,4.000000,4.000000,4.000000,4.000000,4.000000,4.000000,4.000000,4.000000,4.000000,4.000000,100.000000,,,,,,,,,,,,,,,,,,,,,,,,,,,,
1703403129.240689,1703403129.241480,31.000000,0.000000,4179.230957,4180.128418,4260.128418,4220.256348,4153.077148,4136.922852,4245.128418,4154.871582,4139.743652,4130.000000,4543.333496,4435.641113,4366.410156,4479.230957,0.000000,4.000000,89.000000,,,,0.000000,4.000000,4.000000,4.000000,4.000000,4.000000,4.000000,4.000000,4.000000,4.000000,4.000000,4.000000,4.000000,4.000000,4.000000,100.000000,,,,,,,,,,,,,,,,,,,,,,,,,,,,
1703403129.248497,1703403129.249288,32.000000,0.000000,4166.666504,4179.743652,4254.358887,4220.512695,4155.512695,4140.641113,4245.897461,4150.000000,4138.717773,4122.307617,4525.128418,4424.743652,4355.128418,4483.077148,0.000000,4.000000,89.000000,,,,0.000000,4.000000,4.000000,4.000000,4.000000,4.000000,4.000000,4.000000,4.000000,4.000000,4.000000,4.000000,4.000000,4.000000,4.000000,100.000000,,,,,,,,,,,,,,,,,8.000000,0.000000,0.667838,-0.029663,-0.709045,0.224426,0.924429,-0.368697,0.004395,-30.542038,-7.002080,73.568642
1703403129.256305,1703403129.256996,33.000000,0.000000,4162.051270,4185.128418,4262.179688,4227.179688,4164.615234,4145.384766,4244.102539,4150.641113,4138.077148,4122.179688,4520.256348,4430.384766,4351.282227,4485.384766,0.000000,4.000000,89.000000,,,,0.000000,4.000000,4.000000,4.000000,4.000000,4.000000,4.000000,4.000000,4.000000,4.000000,4.000000,4.000000,4.000000,4.000000,4.000000,100.000000,,,,,,,,,,,,,,,,,,,,,,,,,,,,
1703403129.264113,1703403129.264804,34.000000,0.000000,4162.051270,4183.846191,4262.051270,4226.282227,4170.000000,4149.487305,4243.717773,4153.974121,4140.641113,4129.615234,4533.974121,4439.358887,4358.333496,4473.846191,0.000000,4.000000,89.000000,,,,0.000000,4.000000,4.000000,4.000000,4.000000,4.000000,4.000000,4.000000,4.000000,4.000000,4.000000,4.000000,4.000000,4.000000,4.000000,100.000000,,,,,,,,,,,,,,,,,,,,,,,,,,,,
1703403129.271921,1703403129.272512,35.000000,0.000000,4163.974121,4184.487305,4258.846191,4226.153809,4169.102539,4151.922852,4246.153809,4156.410156,4148.461426,4137.563965,4542.051270,4441.153809,4369.615234,4479.871582,0.000000,4.000000,89.000000,,,,0.000000,4.000000,4.000000,4.000000,4.000000,4.000000,4.000000,4.000000,4.000000,4.000000,4.000000,4.000000,4.000000,4.000000,4.000000,100.000000,,,,,,,,,,,,,,,,,,,,,,,,,,,,
1703403129.279729,1703403129.280320,36.000000,0.000000,4171.153809,4194.230957,4266.410156,4233.589844,4167.692383,4149.102539,4247.948730,4159.487305,4152.820313,4139.871582,4541.538574,4446.794922,4380.128418,4505.384766,0.000000,4.000000,89.000000,,,,0.000000,4.000000,4.000000,4.000000,4.000000,4.000000,4.000000,4.000000,4.000000,4.000000,4.000000,4.000000,4.000000,4.000000,4.000000,100.000000,,,,,,,,,,,,,,,,,9.000000,0.000000,0.667753,-0.029663,-0.709106,0.224487,0.917104,-0.361861,0.006837,-30.454500,-7.001873,73.578445
1703403129.287537,1703403129.288028,37.000000,0.000000,4173.461426,4196.025879,4267.436035,4235.256348,4170.897461,4144.230957,4247.820313,4165.384766,4155.256348,4139.743652,4544.230957,4452.051270,4381.666504,4509.102539,0.000000,4.000000,89.000000,,,,0.000000,4.000000,4.000000,4.000000,4.000000,4.000000,4.000000,4.000000,4.000000,4.000000,4.000000,4.000000,4.000000,4.000000,4.000000,100.000000,,,,,,,,,,,,,,,,,,,,,,,,,,,,
1703403129.295345,1703403129.295936,38.000000,0.000000,4162.436035,4185.769043,4254.615234,4225.384766,4169.871582,4145.641113,4243.333496,4165.897461,4154.102539,4140.384766,4535.256348,4443.461426,4366.410156,4488.461426,0.000000,4.000000,89.000000,,,,0.000000,4.000000,4.000000,4.000000,4.000000,4.000000,4.000000,4.000000,4.000000,4.000000,4.000000,4.000000,4.000000,4.000000,4.000000,100.000000,,,,,,,,,,,,,,,,,,,,,,,,,,,,
1703403129.303153,1703403129.303744,39.000000,0.000000,4148.846191,4182.179688,4250.641113,4219.615234,4165.769043,4148.717773,4241.666504,4157.563965,4144.615234,4133.846191,4516.794922,4432.948730,4352.436035,4479.871582,0.000000,4.000000,89.000000,,,,0.000000,4.000000,4.000000,4.000000,4.000000,4.000000,4.000000,4.000000,4.000000,4.000000,4.000000,4.000000,4.000000,4.000000,4.000000,100.000000,,,,,,,,,,,,,,,,,,,,,,,,,,,,
1703403129.310961,1703403129.311652,40.000000,0.000000,4148.717773,4185.897461,4255.769043,4220.641113,4168.461426,4152.948730,4242.563965,4152.563965,4138.589844,4124.102539,4518.461426,4436.153809,4357.051270,4488.333496,0.000000,4.000000,89.000000,,,,0.000000,4.000000,4.000000,4.000000,4.000000,4.000000,4.000000,4.000000,4.000000,4.000000,4.000000,4.000000,4.000000,4.000000,4.000000,100.000000,,,,,,,,,,,,,,,,,10.000000,0.000000,0.667897,-0.029785,-0.708984,0.224426,0.922964,-0.373092,-0.006837,-30.375717,-7.051685,73.620598
1703403129.318769,1703403129.319459,41.000000,0.000000,4153.589844,4185.384766,4255.256348,4218.717773,4172.820313,4155.769043,4244.230957,4156.794922,4144.487305,4123.717773,4524.871582,4440.384766,4360.641113,4489.743652,0.000000,4.000000,89.000000,,,,0.000000,4.000000,4.000000,4.000000,4.000000,4.000000,4.000000,4.000000,4.000000,4.000000,4.000000,4.000000,4.000000,4.000000,4.000000,100.000000,,,,,,,,,,,,,,,,,,,,,,,,,,,,
1703403129.326578,1703403129.327367,42.000000,0.000000,4146.538574,4183.846191,4252.563965,4216.666504,4166.153809,4149.102539,4242.692383,4158.974121,4146.025879,4127.051270,4513.461426,4437.307617,4348.846191,4478.461426,0.000000,4.000000,89.000000,,,,0.000000,4.000000,4.000000,4.000000,4.000000,4.000000,4.000000,4.000000,4.000000,4.000000,4.000000,4.000000,4.000000,4.000000,4.000000,100.000000,,,,,,,,,,,,,,,,,,,,,,,,,,,,
1703403129.334386,1703403129.335175,43.000000,0.000000,4135.641113,4183.846191,4251.410156,4219.358887,4158.717773,4144.743652,4238.077148,4153.333496,4139.743652,4124.743652,4503.717773,4434.230957,4338.077148,4469.102539,0.000000,4.000000,89.000000,,,,0.000000,4.000000,4.000000,4.000000,4.000000,4.000000,4.000000,4.000000,4.000000,4.000000,4.000000,4.000000,4.000000,4.000000,4.000000,100.000000,,,,,,,,,,,,,,,,,,,,,,,,,,,,
1703403129.342193,1703403129.343083,44.000000,0.000000,4138.333496,4182.820313,4253.846191,4218.077148,4163.717773,4146.922852,4240.128418,4155.641113,4143.333496,4125.256348,4507.179688,4438.974121,4343.717773,4476.922852,0.000000,4.000000,89.000000,,,,0.000000,4.000000,4.000000,4.000000,4.000000,4.000000,4.000000,4.000000,4.000000,4.000000,4.000000,4.000000,4.000000,4.000000,4.000000,100.000000,,,,,,,,,,,,,,,,,11.000000,0.000000,0.667900,-0.029724,-0.708984,0.224426,0.908314,-0.360396,-0.004883,-30.371479,-7.113183,73.641869
1703403129.350002,1703403129.350891,45.000000,0.000000,4148.461426,4184.871582,4261.282227,4216.666504,4168.589844,4145.256348,4243.974121,4169.871582,4156.282227,4135.384766,4513.461426,4448.205078,4354.871582,4494.358887,0.000000,4.000000,89.000000,,,,0.000000,4.000000,4.000000,4.000000,4.000000,4.000000,4.000000,4.000000,4.000000,4.000000,4.000000,4.000000,4.000000,4.000000,4.000000,100.000000,,,,,,,,,,,,,,,,,,,,,,,,,,,,
1703403129.357810,1703403129.358799,46.000000,0.000000,4140.000000,4187.051270,4260.512695,4220.512695,4160.384766,4141.153809,4239.615234,4172.179688,4156.153809,4137.051270,4511.025879,4448.974121,4351.794922,4486.410156,0.000000,4.000000,89.000000,,,,0.000000,4.000000,4.000000,4.000000,4.000000,4.000000,4.000000,4.000000,4.000000,4.000000,4.000000,4.000000,4.000000,4.000000,4.000000,100.000000,,,,,,,,,,,,,,,,,,,,,,,,,,,,
1703403129.365618,1703403129.366607,47.000000,0.000000,4124.871582,4184.102539,4252.563965,4218.974121,4153.333496,4139.871582,4233.974121,4156.794922,4142.820313,4125.641113,4500.769043,4440.256348,4340.128418,4462.436035,0.000000,4.000000,89.000000,,,,0.000000,4.000000,4.000000,4.000000,4.000000,4.000000,4.000000,4.000000,4.000000,4.000000,4.000000,4.000000,4.000000,4.000000,4.000000,100.000000,,,,,,,,,,,,,,,,,,,,,,,,,,,,
1703403129.373426,1703403129.374315,48.000000,0.000000,4132.820313,4182.820313,4255.384766,4212.051270,4159.358887,4138.717773,4234.487305,4153.077148,4142.051270,4126.410156,4498.974121,4439.358887,4338.461426,4470.769043,0.000000,4.000000,89.000000,,,,0.000000,4.000000,4.000000,4.000000,4.000000,4.000000,4.000000,4.000000,4.000000,4.000000,4.000000,4.000000,4.000000,4.000000,4.000000,100.000000,,,,,,,,,,,,,,,,,12.000000,0.000000,0.667994,-0.029602,-0.708862,0.224548,0.923941,-0.355024,0.000000,-30.350998,-7.235198,73.561020
1703403129.381234,1703403129.382123,49.000000,0.000000,4147.436035,4191.666504,4260.641113,4219.487305,4167.692383,4144.743652,4237.563965,4162.179688,4150.641113,4134.871582,4507.948730,4450.128418,4347.820313,4500.128418,0.000000,4.000000,89.000000,,,,0.000000,4.000000,4.000000,4.000000,4.000000,4.000000,4.000000,4.000000,4.000000,4.000000,4.000000,4.000000,4.000000,4.000000,4.000000,100.000000,,,,,,,,,,,,,,,,,,,,,,,,,,,,
1703403129.389042,1703403129.389831,50.000000,0.000000,4141.666504,4197.436035,4255.128418,4233.077148,4170.641113,4151.153809,4239.871582,4161.922852,4147.179688,4128.589844,4505.641113,4448.205078,4351.282227,4496.666504,0.000000,4.000000,89.000000,,,,0.000000,4.000000,4.000000,4.000000,4.000000,4.000000,4.000000,4.000000,4.000000,4.000000,4.000000,4.000000,4.000000,4.000000,4.000000,100.000000,,,,,,,,,,,,,,,,,,,,,,,,,,,,
1703403129.396850,1703403129.397639,51.000000,0.000000,4125.256348,4191.153809,4251.282227,4227.563965,4170.000000,4147.051270,4239.871582,4152.820313,4136.538574,4118.974121,4490.384766,4434.743652,4342.692383,4475.769043,0.000000,4.000000,89.000000,,,,0.000000,4.000000,4.000000,4.000000,4.000000,4.000000,4.000000,4.000000,4.000000,4.000000,4.000000,4.000000,4.000000,4.000000,4.000000,100.000000,,,,,,,,,,,,,,,,,,,,,,,,,,,,
1703403129.404658,1703403129.405347,52.000000,0.000000,4120.000000,4186.025879,4250.384766,4216.025879,4169.487305,4146.922852,4238.974121,4151.025879,4136.666504,4122.820313,4487.307617,4434.230957,4338.461426,4474.102539,0.000000,4.000000,89.000000,,,,0.000000,4.000000,4.000000,4.000000,4.000000,4.000000,4.000000,4.000000,4.000000,4.000000,4.000000,4.000000,4.000000,4.000000,4.000000,100.000000,,,,,,,,,,,,,,,,,13.000000,0.000000,0.668162,-0.029663,-0.708740,0.224426,0.913197,-0.358442,0.002442,-30.399231,-7.195012,73.538246
1703403129.412466,1703403129.413155,53.000000,0.000000,4118.333496,4187.563965,4247.692383,4218.077148,4171.282227,4153.333496,4243.461426,4162.051270,4145.897461,4128.205078,4495.897461,4441.025879,4342.948730,4478.717773,0.000000,4.000000,89.000000,,,,0.000000,4.000000,4.000000,4.000000,4.000000,4.000000,4.000000,4.000000,4.000000,4.000000,4.000000,4.000000,4.000000,4.000000,4.000000,100.000000,,,,,,,,,,,,,,,,,,,,,,,,,,,,
1703403129.420274,1703403129.420863,54.000000,0.000000,4110.897461,4188.589844,4249.358887,4221.153809,4172.692383,4155.512695,4247.692383,4168.589844,4147.179688,4126.153809,4500.128418,4437.563965,4343.333496,4475.256348,0.000000,4.000000,89.000000,,,,0.000000,4.000000,4.000000,4.000000,4.000000,4.000000,4.000000,4.000000,4.000000,4.000000,4.000000,4.000000,4.000000,4.000000,4.000000,100.000000,,,,,,,,,,,,,,,,,,,,,,,,,,,,
1703403129.428082,1703403129.428771,55.000000,0.000000,4108.461426,4187.179688,4251.153809,4215.897461,4172.307617,4156.282227,4244.871582,4163.589844,4138.846191,4124.871582,4499.871582,4428.846191,4341.794922,4470.641113,0.000000,4.000000,89.000000,,,,0.000000,4.000000,4.000000,4.000000,4.000000,4.000000,4.000000,4.000000,4.000000,4.000000,4.000000,4.000000,4.000000,4.000000,4.000000,100.000000,,,,,,,,,,,,,,,,,,,,,,,,,,,,
1703403129.435890,1703403129.436579,56.000000,0.000000,4113.077148,4186.282227,4249.743652,4213.974121,4170.769043,4156.922852,4241.025879,4162.051270,4138.846191,4131.666504,4504.615234,4427.948730,4350.897461,4472.307617,0.000000,4.000000,89.000000,,,,0.000000,4.000000,4.000000,4.000000,4.000000,4.000000,4.000000,4.000000,4.000000,4.000000,4.000000,4.000000,4.000000,4.000000,4.000000,100.000000,,,,,,,,,,,,,,,,,14.000000,0.000000,0.668285,-0.029724,-0.708679,0.224243,0.921988,-0.365767,-0.004395,-30.392641,-7.158844,73.601089
1703403129.443698,1703403129.444387,57.000000,0.000000,4111.410156,4187.563965,4252.692383,4218.846191,4169.743652,4155.000000,4241.666504,4168.205078,4153.077148,4137.563965,4517.051270,4436.666504,4360.128418,4478.077148,0.000000,4.000000,89.000000,,,,0.000000,4.000000,4.000000,4.000000,4.000000,4.000000,4.000000,4.000000,4.000000,4.000000,4.000000,4.000000,4.000000,4.000000,4.000000,100.000000,,,,,,,,,,,,,,,,,,,,,,,,,,,,
1703403129.451506,1703403129.452095,58.000000,0.000000,4107.692383,4191.922852,4257.051270,4221.153809,4169.615234,4155.128418,4241.538574,4170.000000,4157.820313,4137.179688,4530.128418,4440.128418,4359.871582,4476.410156,0.000000,4.000000,89.000000,,,,0.000000,4.000000,4.000000,4.000000,4.000000,4.000000,4.000000,4.000000,4.000000,4.000000,4.000000,4.000000,4.000000,4.000000,4.000000,100.000000,,,,,,,,,,,,,,,,,,,,,,,,,,,,
1703403129.459314,1703403129.460003,59.000000,0.000000,4105.769043,4192.563965,4260.641113,4219.230957,4172.563965,4156.538574,4241.025879,4167.563965,4153.205078,4145.256348,4535.256348,4434.743652,4360.128418,4470.256348,0.000000,4.000000,89.000000,,,,0.000000,4.000000,4.000000,4.000000,4.000000,4.000000,4.000000,4.000000,4.000000,4.000000,4.000000,4.000000,4.000000,4.000000,4.000000,100.000000,,,,,,,,,,,,,,,,,,,,,,,,,,,,
1703403129.467122,1703403129.467811,60.000000,0.000000,4102.436035,4188.461426,4264.487305,4214.615234,4174.615234,4157.179688,4241.794922,4168.333496,4160.769043,4158.589844,4537.307617,4435.897461,4367.436035,4477.820313,0.000000,4.000000,89.000000,,,,0.000000,4.000000,4.000000,4.000000,4.000000,4.000000,4.000000,4.000000,4.000000,4.000000,4.000000,4.000000,4.000000,4.000000,4.000000,100.000000,,,,,,,,,,,,,,,,,15.000000,0.000000,0.668279,-0.029785,-0.708740,0.224060,0.911732,-0.356000,0.003907,-30.236712,-7.276293,73.607651
1703403129.474930,1703403129.475619,61.000000,0.000000,4111.538574,4187.563965,4264.487305,4215.384766,4171.410156,4156.922852,4241.410156,4170.641113,4168.589844,4157.436035,4547.948730,4443.333496,4373.077148,4491.666504,0.000000,4.000000,89.000000,,,,0.000000,4.000000,4.000000,4.000000,4.000000,4.000000,4.000000,4.000000,4.000000,4.000000,4.000000,4.000000,4.000000,4.000000,4.000000,100.000000,,,,,,,,,,,,,,,,,,,,,,,,,,,,
1703403129.482739,1703403129.483327,62.000000,0.000000,4118.461426,4189.102539,4261.025879,4216.025879,4170.512695,4156.794922,4241.922852,4170.384766,4162.436035,4153.077148,4557.948730,4440.641113,4373.077148,4489.615234,0.000000,4.000000,89.000000,,,,0.000000,4.000000,4.000000,4.000000,4.000000,4.000000,4.000000,4.000000,4.000000,4.000000,4.000000,4.000000,4.000000,4.000000,4.000000,100.000000,,,,,,,,,,,,,,,,,,,,,,,,,,,,
1703403129.490547,1703403129.491235,63.000000,0.000000,4099.743652,4186.922852,4257.179688,4206.794922,4173.461426,4156.025879,4242.307617,4167.051270,4154.487305,4155.897461,4555.512695,4428.333496,4371.025879,4476.666504,0.000000,4.000000,89.000000,,,,0.000000,4.000000,4.000000,4.000000,4.000000,4.000000,4.000000,4.000000,4.000000,4.000000,4.000000,4.000000,4.000000,4.000000,4.000000,100.000000,,,,,,,,,,,,,,,,,,,,,,,,,,,,
1703403129.498355,1703403129.499043,64.000000,0.000000,4087.435791,4185.000000,4254.230957,4199.230957,4172.436035,4155.512695,4242.179688,4166.922852,4153.205078,4154.487305,4552.692383,4422.948730,4369.615234,4471.922852,5337.000000,4.000000,89.000000,,,,0.000000,4.000000,4.000000,4.000000,4.000000,4.000000,4.000000,4.000000,4.000000,4.000000,4.000000,4.000000,4.000000,4.000000,4.000000,100.000000,1.000000,91.666664,4.000000,4.000000,4.000000,4.000000,4.000000,4.000000,4.000000,4.000000,4.000000,4.000000,3.000000,4.000000,4.000000,4.000000,16.000000,0.000000,0.668241,-0.029724,-0.708740,0.224182,0.922476,-0.366256,-0.001465,-30.179707,-7.331997,73.613548
1703403129.506163,1703403129.506951,65.000000,0.000000,4101.410156,4185.512695,4255.000000,4201.538574,4167.692383,4155.641113,4240.641113,4168.589844,4153.974121,4153.589844,4556.153809,4426.538574,4371.538574,4481.410156,5078.000000,4.000000,89.000000,,,,0.000000,4.000000,4.000000,4.000000,4.000000,4.000000,4.000000,4.000000,4.000000,4.000000,4.000000,4.000000,4.000000,4.000000,4.000000,100.000000,,,,,,,,,,,,,,,,,,,,,,,,,,,,
1703403129.513971,1703403129.514759,66.000000,0.000000,4108.205078,4186.410156,4259.871582,4205.256348,4167.436035,4154.871582,4239.230957,4168.974121,4155.897461,4159.487305,4557.436035,4429.230957,4375.641113,4487.948730,5125.000000,4.000000,89.000000,,,,0.000000,4.000000,4.000000,4.000000,4.000000,4.000000,4.000000,4.000000,4.000000,4.000000,4.000000,4.000000,4.000000,4.000000,4.000000,100.000000,,,,,,,,,,,,,,,,,,,,,,,,,,,,
1703403129.521779,1703403129.522667,67.000000,0.000000,4096.153809,4185.128418,4261.410156,4203.589844,4169.358887,4152.948730,4242.179688,4169.230957,4156.538574,4159.230957,4554.615234,4428.717773,4374.615234,4482.179688,5242.000000,4.000000,89.000000,,,,0.000000,4.000000,4.000000,4.000000,4.000000,4.000000,4.000000,4.000000,4.000000,4.000000,4.000000,4.000000,4.000000,4.000000,4.000000,100.000000,,,,,,,,,,,,,,,,,,,,,,,,,,,,
1703403129.529587,1703403129.530474,68.000000,0.000000,4088.974365,4182.436035,4258.333496,4201.666504,4167.692383,4152.307617,4242.307617,4167.436035,4153.205078,4153.717773,4552.563965,4426.922852,4370.256348,4474.102539,5048.000000,4.000000,89.000000,,,,0.000000,4.000000,4.000000,4.000000,4.000000,4.000000,4.000000,4.000000,4.000000,4.000000,4.000000,4.000000,4.000000,4.000000,4.000000,100.000000,,,,,,,,,,,,,,,,,17.000000,0.000000,0.668179,-0.029663,-0.708801,0.224182,0.924918,-0.371139,0.000977,-30.061735,-7.115464,73.635529
1703403129.537395,1703403129.538382,69.000000,0.000000,4094.230713,4189.102539,4261.282227,4202.436035,4166.794922,4154.358887,4238.589844,4166.922852,4152.692383,4153.974121,4553.717773,4428.589844,4370.641113,4477.051270,5110.000000,4.000000,89.000000,,,,0.000000,4.000000,4.000000,4.000000,4.000000,4.000000,4.000000,4.000000,4.000000,4.000000,4.000000,4.000000,4.000000,4.000000,4.000000,100.000000,,,,,,,,,,,,,,,,,,,,,,,,,,,,
1703403129.545203,1703403129.546190,70.000000,0.000000,4097.948730,4197.563965,4273.333496,4203.589844,4168.333496,4154.871582,4239.358887,4171.922852,4156.282227,4155.512695,4558.205078,4434.230957,4372.563965,4487.436035,2261.000000,4.000000,89.000000,,,,0.000000,4.000000,4.000000,4.000000,4.000000,4.000000,4.000000,4.000000,4.000000,4.000000,4.000000,4.000000,4.000000,4.000000,4.000000,100.000000,,,,,,,,,,,,,,,,,,,,,,,,,,,,
1703403129.553011,1703403129.553898,71.000000,0.000000,4095.384521,4190.256348,4276.410156,4201.025879,4166.922852,4154.230957,4240.512695,4170.897461,4155.512695,4156.538574,4555.769043,4436.153809,4368.077148,4484.743652,5270.000000,4.000000,89.000000,,,,0.000000,4.000000,4.000000,4.000000,4.000000,4.000000,4.000000,4.000000,4.000000,4.000000,4.000000,4.000000,4.000000,4.000000,4.000000,100.000000,,,,,,,,,,,,,,,,,,,,,,,,,,,,
1703403129.560819,1703403129.561706,72.000000,0.000000,4100.641113,4184.743652,4273.589844,4201.153809,4165.256348,4152.820313,4237.179688,4165.384766,4153.461426,4164.358887,4549.487305,4434.230957,4362.692383,4479.230957,5277.000000,4.000000,89.000000,,,,0.000000,4.000000,4.000000,4.000000,4.000000,4.000000,4.000000,4.000000,4.000000,4.000000,4.000000,4.000000,4.000000,4.000000,4.000000,100.000000,,,,,,,,,,,,,,,,,18.000000,0.000000,0.668187,-0.029480,-0.708801,0.224182,0.915151,-0.365279,-0.003907,-30.172228,-7.003918,73.688644
1703403129.568627,1703403129.569414,73.000000,0.000000,4111.282227,4197.179688,4282.307617,4212.563965,4168.974121,4151.666504,4238.205078,4173.205078,4161.794922,4173.846191,4557.948730,4439.615234,4369.230957,4485.128418,5166.000000,4.000000,89.000000,,,,0.000000,4.000000,4.000000,4.000000,4.000000,4.000000,4.000000,4.000000,4.000000,4.000000,4.000000,4.000000,4.000000,4.000000,4.000000,100.000000,,,,,,,,,,,,,,,,,,,,,,,,,,,,
1703403129.576435,1703403129.577222,74.000000,0.000000,4109.102539,4207.436035,4290.641113,4223.205078,4173.974121,4159.358887,4242.179688,4184.230957,4171.282227,4173.333496,4567.820313,4449.102539,4376.410156,4488.846191,5824.000000,4.000000,89.000000,,,,0.000000,4.000000,4.000000,4.000000,4.000000,4.000000,4.000000,4.000000,4.000000,4.000000,4.000000,4.000000,4.000000,4.000000,4.000000,100.000000,,,,,,,,,,,,,,,,,,,,,,,,,,,,
1703403129.584243,1703403129.584930,75.000000,0.000000,4099.871582,4198.846191,4284.358887,4218.333496,4172.307617,4167.179688,4242.051270,4185.769043,4173.077148,4171.794922,4560.769043,4450.897461,4371.282227,4484.102539,6177.000000,4.000000,89.000000,,,,0.000000,4.000000,4.000000,4.000000,4.000000,4.000000,4.000000,4.000000,4.000000,4.000000,4.000000,4.000000,4.000000,4.000000,4.000000,100.000000,,,,,,,,,,,,,,,,,,,,,,,,,,,,
1703403129.592051,1703403129.592738,76.000000,0.000000,4093.974365,4189.358887,4276.538574,4206.282227,4170.384766,4160.641113,4243.846191,4181.922852,4172.692383,4175.256348,4554.230957,4439.358887,4366.538574,4482.948730,6653.000000,4.000000,89.000000,,,,0.000000,4.000000,4.000000,4.000000,4.000000,4.000000,4.000000,4.000000,4.000000,4.000000,4.000000,4.000000,4.000000,4.000000,4.000000,100.000000,,,,,,,,,,,,,,,,,19.000000,0.000000,0.668221,-0.029175,-0.708801,0.224121,0.925406,-0.367232,0.000488,-30.188339,-6.936859,73.703110
1703403129.599859,1703403129.600447,77.000000,0.000000,4085.384521,4186.922852,4269.615234,4197.436035,4170.384766,4152.436035,4245.769043,4174.358887,4167.692383,4168.589844,4554.871582,4424.358887,4364.358887,4476.410156,6601.000000,4.000000,89.000000,,,,0.000000,4.000000,4.000000,4.000000,4.000000,4.000000,4.000000,4.000000,4.000000,4.000000,4.000000,4.000000,4.000000,4.000000,4.000000,100.000000,,,,,,,,,,,,,,,,,,,,,,,,,,,,
1703403129.607667,1703403129.608354,78.000000,0.000000,4076.025635,4181.282227,4260.641113,4190.641113,4166.282227,4155.256348,4242.692383,4167.820313,4157.179688,4154.230957,4545.897461,4421.025879,4349.615234,4457.563965,5824.000000,4.000000,89.000000,,,,0.000000,4.000000,4.000000,4.000000,4.000000,4.000000,4.000000,4.000000,4.000000,4.000000,4.000000,4.000000,4.000000,4.000000,4.000000,100.000000,,,,,,,,,,,,,,,,,,,,,,,,,,,,
1703403129.615476,1703403129.616162,79.000000,0.000000,4072.948730,4172.307617,4257.179688,4186.794922,4163.846191,4155.897461,4241.025879,4169.487305,4152.948730,4150.256348,4534.358887,4421.410156,4338.589844,4453.333496,6177.000000,4.000000,89.000000,,,,0.000000,4.000000,4.000000,4.000000,4.000000,4.000000,4.000000,4.000000,4.000000,4.000000,4.000000,4.000000,4.000000,4.000000,4.000000,100.000000,,,,,,,,,,,,,,,,,,,,,,,,,,,,
1703403129.623284,1703403129.624070,80.000000,0.000000,4072.435791,4167.563965,4258.846191,4184.230957,4160.897461,4151.025879,4241.538574,4172.948730,4156.282227,4153.589844,4535.256348,4418.974121,4345.769043,4461.153809,6653.000000,4.000000,89.000000,,,,0.000000,4.000000,4.000000,4.000000,4.000000,4.000000,4.000000,4.000000,4.000000,4.000000,4.000000,4.000000,4.000000,4.000000,4.000000,100.000000,,,,,,,,,,,,,,,,,20.000000,0.000000,0.668329,-0.029053,-0.708801,0.223816,0.921011,-0.364302,-0.004883,-30.269505,-6.826507,73.699471
1703403129.631091,1703403129.631878,81.000000,0.000000,4069.743652,4171.666504,4255.897461,4183.205078,4157.051270,4152.307617,4243.333496,4170.512695,4155.897461,4152.820313,4534.102539,4416.025879,4348.589844,4461.922852,6601.000000,4.000000,89.000000,,,,0.000000,4.000000,4.000000,4.000000,4.000000,4.000000,4.000000,4.000000,4.000000,4.000000,4.000000,4.000000,4.000000,4.000000,4.000000,100.000000,,,,,,,,,,,,,,,,,,,,,,,,,,,,
1703403129.638900,1703403129.639786,82.000000,0.000000,4068.333252,4175.128418,4252.692383,4187.820313,4157.948730,4155.641113,4246.282227,4168.461426,4152.820313,4149.615234,4522.563965,4411.153809,4339.230957,4458.846191,5824.000000,4.000000,89.000000,,,,0.000000,4.000000,4.000000,4.000000,4.000000,4.000000,4.000000,4.000000,4.000000,4.000000,4.000000,4.000000,4.000000,4.000000,4.000000,100.000000,,,,,,,,,,,,,,,,,,,,,,,,,,,,
1703403129.646708,1703403129.647594,83.000000,0.000000,4071.410156,4172.948730,4253.333496,4188.846191,4159.615234,4155.769043,4245.512695,4169.615234,4155.769043,4151.922852,4521.922852,4414.487305,4341.025879,4458.589844,6177.000000,4.000000,89.000000,,,,0.000000,4.000000,4.000000,4.000000,4.000000,4.000000,4.000000,4.000000,4.000000,4.000000,4.000000,4.000000,4.000000,4.000000,4.000000,100.000000,,,,,,,,,,,,,,,,,,,,,,,,,,,,
1703403129.654516,1703403129.655502,84.000000,0.000000,4074.358887,4175.641113,4253.589844,4185.641113,4161.538574,4155.128418,4244.102539,4171.666504,4160.128418,4156.153809,4536.025879,4424.487305,4352.948730,4462.436035,6653.000000,4.000000,89.000000,,,,0.000000,4.000000,4.000000,4.000000,4.000000,4.000000,4.000000,4.000000,4.000000,4.000000,4.000000,4.000000,4.000000,4.000000,4.000000,100.000000,,,,,,,,,,,,,,,,,21.000000,0.000000,0.668498,-0.028992,-0.708740,0.223511,0.922476,-0.348675,0.002930,-30.292555,-6.727189,73.646187
1703403129.662324,1703403129.663310,85.000000,0.000000,4075.256348,4183.589844,4254.358887,4189.743652,4165.000000,4153.333496,4244.102539,4170.512695,4158.717773,4155.641113,4540.641113,4424.230957,4354.230957,4463.461426,6601.000000,4.000000,89.000000,,,,0.000000,4.000000,4.000000,4.000000,4.000000,4.000000,4.000000,4.000000,4.000000,4.000000,4.000000,4.000000,4.000000,4.000000,4.000000,100.000000,,,,,,,,,,,,,,,,,,,,,,,,,,,,
1703403129.670132,1703403129.671218,86.000000,0.000000,4078.974365,4187.436035,4257.436035,4199.871582,4168.077148,4151.794922,4245.256348,4171.666504,4159.615234,4159.743652,4537.820313,4422.436035,4353.717773,4464.102539,5824.000000,4.000000,89.000000,,,,0.000000,4.000000,4.000000,4.000000,4.000000,4.000000,4.000000,4.000000,4.000000,4.000000,4.000000,4.000000,4.000000,4.000000,4.000000,100.000000,,,,,,,,,,,,,,,,,,,,,,,,,,,,
1703403129.677940,1703403129.679026,87.000000,0.000000,4081.666748,4185.128418,4256.153809,4200.769043,4169.487305,4152.436035,4246.922852,4178.846191,4168.717773,4171.538574,4538.974121,4427.692383,4356.794922,4461.153809,6177.000000,4.000000,89.000000,,,,0.000000,4.000000,4.000000,4.000000,4.000000,4.000000,4.000000,4.000000,4.000000,4.000000,4.000000,4.000000,4.000000,4.000000,4.000000,100.000000,,,,,,,,,,,,,,,,,,,,,,,,,,,,
1703403129.685748,1703403129.686934,88.000000,0.000000,4077.948730,4186.282227,4253.077148,4194.871582,4166.282227,4153.205078,4246.153809,4182.563965,4173.974121,4171.410156,4533.974121,4427.307617,4356.538574,4456.922852,6653.000000,4.000000,89.000000,,,,0.000000,4.000000,4.000000,4.000000,4.000000,4.000000,4.000000,4.000000,4.000000,4.000000,4.000000,4.000000,4.000000,4.000000,4.000000,100.000000,,,,,,,,,,,,,,,,,22.000000,0.000000,0.668562,-0.028931,-0.708740,0.223328,0.929801,-0.354535,0.000977,-30.229965,-6.887804,73.598236
1703403129.693556,1703403129.694742,89.000000,0.000000,4074.102539,4188.589844,4253.846191,4191.025879,4160.769043,4152.820313,4247.051270,4178.077148,4167.563965,4158.333496,4525.769043,4421.025879,4353.589844,4458.717773,6601.000000,4.000000,89.000000,,,,0.000000,4.000000,4.000000,4.000000,4.000000,4.000000,4.000000,4.000000,4.000000,4.000000,4.000000,4.000000,4.000000,4.000000,4.000000,100.000000,,,,,,,,,,,,,,,,,,,,,,,,,,,,
1703403129.701364,1703403129.702649,90.000000,0.000000,4067.948730,4178.333496,4248.974121,4185.897461,4158.974121,4153.077148,4245.384766,4173.205078,4158.846191,4148.205078,4519.871582,4414.743652,4344.358887,4453.205078,5824.000000,4.000000,89.000000,,,,0.000000,4.000000,4.000000,4.000000,4.000000,4.000000,4.000000,4.000000,4.000000,4.000000,4.000000,4.000000,4.000000,4.000000,4.000000,100.000000,,,,,,,,,,,,,,,,,,,,,,,,,,,,
1703403129.709172,1703403129.710457,91.000000,0.000000,4065.128174,4167.563965,4242.948730,4181.153809,4158.974121,4154.743652,4245.897461,4171.538574,4155.512695,4141.794922,4513.205078,4413.077148,4337.948730,4443.077148,6177.000000,4.000000,89.000000,,,,0.000000,4.000000,4.000000,4.000000,4.000000,4.000000,4.000000,4.000000,4.000000,4.000000,4.000000,4.000000,4.000000,4.000000,4.000000,100.000000,,,,,,,,,,,,,,,,,,,,,,,,,,,,
1703403129.716980,1703403129.718365,92.000000,0.000000,4075.897461,4176.538574,4247.179688,4186.922852,4157.820313,4156.922852,4250.384766,4169.230957,4154.871582,4138.461426,4512.692383,4417.051270,4349.743652,4447.948730,6653.000000,4.000000,89.000000,,,,0.000000,4.000000,4.000000,4.000000,4.000000,4.000000,4.000000,4.000000,4.000000,4.000000,4.000000,4.000000,4.000000,4.000000,4.000000,100.000000,,,,,,,,,,,,,,,,,23.000000,0.000000,0.668533,-0.029053,-0.708801,0.223206,0.915639,-0.347210,-0.002442,-30.240303,-6.832356,73.455078
1703403129.724788,1703403129.726173,93.000000,0.000000,4078.846191,4185.769043,4248.461426,4187.179688,4158.717773,4155.128418,4249.743652,4166.153809,4152.307617,4137.948730,4514.102539,4413.846191,4361.282227,4448.974121,6601.000000,4.000000,89.000000,,,,0.000000,4.000000,4.000000,4.000000,4.000000,4.000000,4.000000,4.000000,4.000000,4.000000,4.000000,4.000000,4.000000,4.000000,4.000000,100.000000,,,,,,,,,,,,,,,,,,,,,,,,,,,,
1703403129.732596,1703403129.733881,94.000000,0.000000,4070.512939,4173.974121,4241.538574,4172.820313,4157.563965,4150.128418,4245.000000,4164.102539,4148.974121,4135.128418,4507.436035,4408.077148,4355.769043,4439.743652,5824.000000,4.000000,89.000000,,,,0.000000,4.000000,4.000000,4.000000,4.000000,4.000000,4.000000,4.000000,4.000000,4.000000,4.000000,4.000000,4.000000,4.000000,4.000000,100.000000,,,,,,,,,,,,,,,,,,,,,,,,,,,,
1703403129.740404,1703403129.741789,95.000000,0.000000,4083.205078,4165.384766,4246.025879,4172.179688,4152.179688,4143.077148,4243.974121,4166.282227,4151.025879,4135.512695,4513.205078,4415.641113,4364.102539,4456.538574,6177.000000,4.000000,89.000000,,,,0.000000,4.000000,4.000000,4.000000,4.000000,4.000000,4.000000,4.000000,4.000000,4.000000,4.000000,4.000000,4.000000,4.000000,4.000000,100.000000,,,,,,,,,,,,,,,,,,,,,,,,,,,,
1703403129.748212,1703403129.749598,96.000000,0.000000,4101.922852,4170.384766,4256.538574,4186.153809,4147.820313,4138.461426,4246.410156,4169.743652,4153.077148,4140.256348,4533.846191,4427.051270,4386.025879,4481.025879,6653.000000,4.000000,89.000000,,,,0.000000,4.000000,4.000000,4.000000,4.000000,4.000000,4.000000,4.000000,4.000000,4.000000,4.000000,4.000000,4.000000,4.000000,4.000000,100.000000,,,,,,,,,,,,,,,,,24.000000,0.000000,0.668484,-0.029236,-0.708801,0.223328,0.923941,-0.362837,0.003907,-30.232939,-6.682454,73.509567
1703403129.756020,1703403129.757505,97.000000,0.000000,4096.282227,4174.871582,4254.871582,4185.897461,4147.948730,4145.000000,4243.974121,4168.461426,4151.538574,4140.384766,4541.538574,4428.205078,4392.436035,4480.641113,6601.000000,4.000000,89.000000,,,,0.000000,4.000000,4.000000,4.000000,4.000000,4.000000,4.000000,4.000000,4.000000,4.000000,4.000000,4.000000,4.000000,4.000000,4.000000,100.000000,,,,,,,,,,,,,,,,,,,,,,,,,,,,
1703403129.763828,1703403129.765313,98.000000,0.000000,4095.384521,4179.230957,4257.179688,4181.282227,4152.820313,4149.615234,4242.179688,4169.487305,4150.769043,4136.410156,4535.512695,4430.769043,4393.717773,4479.743652,5824.000000,4.000000,89.000000,,,,0.000000,4.000000,4.000000,4.000000,4.000000,4.000000,4.000000,4.000000,4.000000,4.000000,4.000000,4.000000,4.000000,4.000000,4.000000,100.000000,,,,,,,,,,,,,,,,,,,,,,,,,,,,
1703403129.771637,1703403129.773121,99.000000,0.000000,4115.769043,4187.692383,4271.922852,4192.436035,4154.102539,4141.794922,4245.256348,4179.615234,4156.282227,4136.538574,4538.333496,4444.615234,4403.589844,4493.461426,6177.000000,4.000000,89.000000,,,,0.000000,4.000000,4.000000,4.000000,4.000000,4.000000,4.000000,4.000000,4.000000,4.000000,4.000000,4.000000,4.000000,4.000000,4.000000,100.000000,,,,,,,,,,,,,,,,,,,,,,,,,,,,
1703403129.779445,1703403129.780829,100.000000,0.000000,4126.410156,4196.922852,4281.282227,4202.948730,4151.282227,4136.410156,4246.282227,4185.512695,4166.410156,4146.410156,4548.974121,4454.230957,4417.051270,4506.538574,6653.000000,4.000000,89.000000,,,,0.000000,4.000000,4.000000,4.000000,4.000000,4.000000,4.000000,4.000000,4.000000,4.000000,4.000000,4.000000,4.000000,4.000000,4.000000,100.000000,,,,,,,,,,,,,,,,,25.000000,0.000000,0.668394,-0.029419,-0.708801,0.223572,0.925894,-0.356000,-0.002930,-30.126312,-6.630876,73.308617
1703403129.787253,1703403129.788637,101.000000,0.000000,4126.666504,4203.461426,4282.051270,4202.948730,4153.974121,4139.358887,4245.128418,4184.230957,4170.384766,4155.128418,4554.358887,4456.922852,4425.256348,4504.358887,6601.000000,4.000000,89.000000,,,,0.000000,4.000000,4.000000,4.000000,4.000000,4.000000,4.000000,4.000000,4.000000,4.000000,4.000000,4.000000,4.000000,4.000000,4.000000,100.000000,,,,,,,,,,,,,,,,,,,,,,,,,,,,
1703403129.795061,1703403129.796346,102.000000,0.000000,4134.615234,4203.974121,4283.077148,4202.692383,4156.410156,4141.666504,4243.717773,4188.974121,4171.153809,4155.769043,4559.871582,4464.102539,4434.102539,4505.769043,5824.000000,4.000000,89.000000,,,,0.000000,4.000000,4.000000,4.000000,4.000000,4.000000,4.000000,4.000000,4.000000,4.000000,4.000000,4.000000,4.000000,4.000000,4.000000,100.000000,,,,,,,,,,,,,,,,,,,,,,,,,,,,
