title:شاهين تشغيل, start timestamp:1703488738.421266, stop timestamp:1703488749.211981, headset type:EPOCX, headset serial:E50206EF, headset firmware:720, channels:67, sampling rate:eeg_128;mot_32, samples:1383      , version:2.2, 
Timestamp,OriginalTimestamp,EEG.Counter,EEG.Interpolated,EEG.AF3,EEG.F7,EEG.F3,EEG.FC5,EEG.T7,EEG.P7,EEG.O1,EEG.O2,EEG.P8,EEG.T8,EEG.FC6,EEG.F4,EEG.F8,EEG.AF4,EEG.RawCq,EEG.Battery,EEG.BatteryPercent,MarkerIndex,MarkerType,MarkerValueInt,EEG.MarkerHardware,CQ.AF3,CQ.F7,CQ.F3,CQ.FC5,CQ.T7,CQ.P7,CQ.O1,CQ.O2,CQ.P8,CQ.T8,CQ.FC6,CQ.F4,CQ.F8,CQ.AF4,CQ.Overall,EQ.SampleRateQuality,EQ.OVERALL,EQ.AF3,EQ.F7,EQ.F3,EQ.FC5,EQ.T7,EQ.P7,EQ.O1,EQ.O2,EQ.P8,EQ.T8,EQ.FC6,EQ.F4,EQ.F8,EQ.AF4,MOT.CounterMems,MOT.InterpolatedMems,MOT.Q0,MOT.Q1,MOT.Q2,MOT.Q3,MOT.AccX,MOT.AccY,MOT.AccZ,MOT.MagX,MOT.MagY,MOT.MagZ
1703488738.421266,1703488738.422362,14.000000,0.000000,4255.256348,4251.794922,4273.717773,4277.948730,4265.897461,4249.358887,4214.487305,4203.974121,4190.641113,4200.384766,4464.230957,4413.974121,4344.487305,4413.333496,5833.000000,4.000000,96.000000,,,,0.000000,4.000000,4.000000,4.000000,4.000000,4.000000,4.000000,4.000000,4.000000,4.000000,4.000000,4.000000,4.000000,4.000000,4.000000,100.000000,,,,,,,,,,,,,,,,,,,,,,,,,,,,
1703488738.429074,1703488738.430270,15.000000,0.000000,4266.538574,4264.230957,4282.436035,4283.077148,4264.358887,4243.333496,4214.230957,4211.410156,4199.871582,4206.282227,4478.077148,4430.769043,4352.051270,4425.384766,6260.000000,4.000000,96.000000,,,,0.000000,4.000000,4.000000,4.000000,4.000000,4.000000,4.000000,4.000000,4.000000,4.000000,4.000000,4.000000,4.000000,4.000000,4.000000,100.000000,,,,,,,,,,,,,,,,,,,,,,,,,,,,
1703488738.436882,1703488738.438078,16.000000,0.000000,4269.102539,4268.333496,4289.487305,4283.974121,4262.307617,4234.230957,4209.487305,4225.512695,4217.179688,4224.871582,4496.153809,4451.025879,4363.461426,4436.153809,0.000000,4.000000,96.000000,,,,0.000000,4.000000,4.000000,4.000000,4.000000,4.000000,4.000000,4.000000,4.000000,4.000000,4.000000,4.000000,4.000000,4.000000,4.000000,100.000000,,,,,,,,,,,,,,,,,4.000000,0.000000,0.718424,-0.106384,-0.671753,0.145935,0.914662,-0.345745,0.065926,-11.205971,-42.955368,61.627449
1703488738.444690,1703488738.445986,17.000000,0.000000,4268.205078,4262.820313,4293.717773,4279.615234,4262.563965,4232.820313,4207.563965,4244.230957,4238.589844,4240.512695,4507.692383,4466.922852,4372.179688,4442.563965,0.000000,4.000000,96.000000,,,,0.000000,4.000000,4.000000,4.000000,4.000000,4.000000,4.000000,4.000000,4.000000,4.000000,4.000000,4.000000,4.000000,4.000000,4.000000,100.000000,,,,,,,,,,,,,,,,,,,,,,,,,,,,
1703488738.452498,1703488738.453794,18.000000,0.000000,4276.025879,4265.384766,4304.230957,4284.487305,4259.743652,4231.025879,4211.025879,4257.436035,4250.000000,4239.230957,4510.769043,4477.563965,4373.461426,4446.025879,0.000000,4.000000,96.000000,,,,0.000000,4.000000,4.000000,4.000000,4.000000,4.000000,4.000000,4.000000,4.000000,4.000000,4.000000,4.000000,4.000000,4.000000,4.000000,100.000000,,,,,,,,,,,,,,,,,,,,,,,,,,,,
1703488738.460306,1703488738.461502,19.000000,0.000000,4281.538574,4267.692383,4314.743652,4292.307617,4257.820313,4228.846191,4210.512695,4261.410156,4249.358887,4232.948730,4508.589844,4481.538574,4372.179688,4446.282227,0.000000,4.000000,96.000000,,,,0.000000,4.000000,4.000000,4.000000,4.000000,4.000000,4.000000,4.000000,4.000000,4.000000,4.000000,4.000000,4.000000,4.000000,4.000000,100.000000,,,,,,,,,,,,,,,,,,,,,,,,,,,,
1703488738.468114,1703488738.469310,20.000000,0.000000,4286.410156,4266.922852,4318.974121,4295.128418,4254.230957,4225.000000,4210.000000,4262.948730,4251.410156,4241.538574,4511.025879,4485.897461,4373.974121,4449.743652,0.000000,4.000000,96.000000,,,,0.000000,4.000000,4.000000,4.000000,4.000000,4.000000,4.000000,4.000000,4.000000,4.000000,4.000000,4.000000,4.000000,4.000000,4.000000,100.000000,,,,,,,,,,,,,,,,,5.000000,0.000000,0.718401,-0.106323,-0.671814,0.145813,0.938103,-0.349652,0.068856,-11.152040,-42.909832,61.598038
1703488738.475922,1703488738.477018,21.000000,0.000000,4288.717773,4267.820313,4317.436035,4293.974121,4249.871582,4221.922852,4217.307617,4253.461426,4243.974121,4241.153809,4508.205078,4480.512695,4370.256348,4447.948730,0.000000,4.000000,96.000000,,,,0.000000,4.000000,4.000000,4.000000,4.000000,4.000000,4.000000,4.000000,4.000000,4.000000,4.000000,4.000000,4.000000,4.000000,4.000000,100.000000,,,,,,,,,,,,,,,,,,,,,,,,,,,,
1703488738.483730,1703488738.484826,22.000000,0.000000,4278.846191,4260.897461,4311.153809,4286.153809,4251.794922,4229.102539,4218.589844,4224.615234,4217.051270,4214.102539,4489.871582,4457.948730,4356.025879,4433.717773,0.000000,4.000000,96.000000,,,,0.000000,4.000000,4.000000,4.000000,4.000000,4.000000,4.000000,4.000000,4.000000,4.000000,4.000000,4.000000,4.000000,4.000000,4.000000,100.000000,,,,,,,,,,,,,,,,,,,,,,,,,,,,
1703488738.491538,1703488738.492534,23.000000,0.000000,4271.282227,4253.461426,4308.205078,4281.025879,4255.000000,4232.051270,4211.025879,4202.692383,4196.153809,4195.897461,4477.051270,4443.717773,4350.128418,4427.436035,0.000000,4.000000,96.000000,,,,0.000000,4.000000,4.000000,4.000000,4.000000,4.000000,4.000000,4.000000,4.000000,4.000000,4.000000,4.000000,4.000000,4.000000,4.000000,100.000000,1.000000,91.666664,4.000000,4.000000,4.000000,4.000000,4.000000,3.000000,4.000000,4.000000,4.000000,4.000000,4.000000,4.000000,4.000000,4.000000,,,,,,,,,,,,
1703488738.499346,1703488738.500342,24.000000,0.000000,4270.384766,4250.897461,4303.589844,4280.000000,4250.897461,4226.794922,4209.487305,4195.256348,4186.410156,4199.358887,4474.102539,4438.333496,4350.384766,4424.871582,0.000000,4.000000,96.000000,,,,0.000000,4.000000,4.000000,4.000000,4.000000,4.000000,4.000000,4.000000,4.000000,4.000000,4.000000,4.000000,4.000000,4.000000,4.000000,100.000000,,,,,,,,,,,,,,,,,6.000000,0.000000,0.718378,-0.106262,-0.671875,0.145691,0.927848,-0.336467,0.071298,-11.103503,-42.952183,61.738235
1703488738.507154,1703488738.508050,25.000000,0.000000,4261.794922,4249.358887,4292.436035,4275.128418,4248.333496,4229.358887,4213.974121,4192.820313,4181.538574,4201.410156,4470.000000,4432.307617,4343.077148,4412.563965,0.000000,4.000000,96.000000,,,,0.000000,4.000000,4.000000,4.000000,4.000000,4.000000,4.000000,4.000000,4.000000,4.000000,4.000000,4.000000,4.000000,4.000000,4.000000,100.000000,,,,,,,,,,,,,,,,,,,,,,,,,,,,
1703488738.514962,1703488738.515858,26.000000,0.000000,4256.538574,4246.666504,4288.461426,4270.256348,4252.820313,4234.102539,4214.102539,4201.538574,4188.205078,4198.717773,4471.282227,4436.666504,4341.410156,4406.922852,0.000000,4.000000,96.000000,,,,0.000000,4.000000,4.000000,4.000000,4.000000,4.000000,4.000000,4.000000,4.000000,4.000000,4.000000,4.000000,4.000000,4.000000,4.000000,100.000000,,,,,,,,,,,,,,,,,,,,,,,,,,,,
1703488738.522770,1703488738.523566,27.000000,0.000000,4261.794922,4247.307617,4292.051270,4271.538574,4258.846191,4239.743652,4212.307617,4217.436035,4200.897461,4200.641113,4475.769043,4445.128418,4346.025879,4412.179688,0.000000,4.000000,96.000000,,,,0.000000,4.000000,4.000000,4.000000,4.000000,4.000000,4.000000,4.000000,4.000000,4.000000,4.000000,4.000000,4.000000,4.000000,4.000000,100.000000,,,,,,,,,,,,,,,,,,,,,,,,,,,,
1703488738.530578,1703488738.531374,28.000000,0.000000,4260.641113,4247.436035,4290.641113,4273.974121,4260.384766,4249.102539,4212.948730,4231.794922,4209.102539,4207.692383,4481.282227,4447.051270,4348.846191,4417.051270,0.000000,4.000000,96.000000,,,,0.000000,4.000000,4.000000,4.000000,4.000000,4.000000,4.000000,4.000000,4.000000,4.000000,4.000000,4.000000,4.000000,4.000000,4.000000,100.000000,,,,,,,,,,,,,,,,,7.000000,0.000000,0.718628,-0.105896,-0.671692,0.145569,0.921499,-0.343304,0.064949,-11.076486,-42.890297,61.731079
1703488738.538386,1703488738.539082,29.000000,0.000000,4259.743652,4248.461426,4292.820313,4276.153809,4256.410156,4247.692383,4211.538574,4249.871582,4223.461426,4220.512695,4495.897461,4457.563965,4355.897461,4425.128418,0.000000,4.000000,96.000000,,,,0.000000,4.000000,4.000000,4.000000,4.000000,4.000000,4.000000,4.000000,4.000000,4.000000,4.000000,4.000000,4.000000,4.000000,4.000000,100.000000,,,,,,,,,,,,,,,,,,,,,,,,,,,,
1703488738.546194,1703488738.546890,30.000000,0.000000,4273.846191,4258.461426,4306.282227,4281.025879,4258.461426,4242.307617,4211.153809,4272.436035,4245.512695,4234.487305,4510.000000,4480.897461,4367.563965,4439.358887,0.000000,4.000000,96.000000,,,,0.000000,4.000000,4.000000,4.000000,4.000000,4.000000,4.000000,4.000000,4.000000,4.000000,4.000000,4.000000,4.000000,4.000000,4.000000,100.000000,,,,,,,,,,,,,,,,,,,,,,,,,,,,
1703488738.554002,1703488738.554598,31.000000,0.000000,4286.410156,4265.641113,4318.846191,4282.948730,4268.589844,4246.025879,4217.436035,4279.102539,4251.410156,4233.077148,4510.897461,4489.358887,4373.205078,4447.051270,0.000000,4.000000,96.000000,,,,0.000000,4.000000,4.000000,4.000000,4.000000,4.000000,4.000000,4.000000,4.000000,4.000000,4.000000,4.000000,4.000000,4.000000,4.000000,100.000000,,,,,,,,,,,,,,,,,,,,,,,,,,,,
1703488738.561810,1703488738.562506,32.000000,0.000000,4282.692383,4262.051270,4323.461426,4280.769043,4261.410156,4240.256348,4218.205078,4269.615234,4242.051270,4225.256348,4508.333496,4485.897461,4369.743652,4445.641113,0.000000,4.000000,96.000000,,,,0.000000,4.000000,4.000000,4.000000,4.000000,4.000000,4.000000,4.000000,4.000000,4.000000,4.000000,4.000000,4.000000,4.000000,4.000000,100.000000,,,,,,,,,,,,,,,,,8.000000,0.000000,0.718727,-0.105774,-0.671631,0.145447,0.933708,-0.349164,0.063484,-11.102171,-43.034603,61.757969
1703488738.569619,1703488738.570314,33.000000,0.000000,4284.871582,4257.820313,4326.538574,4277.948730,4247.179688,4225.897461,4213.589844,4261.922852,4237.179688,4225.769043,4509.743652,4488.461426,4366.025879,4444.487305,0.000000,4.000000,96.000000,,,,0.000000,4.000000,4.000000,4.000000,4.000000,4.000000,4.000000,4.000000,4.000000,4.000000,4.000000,4.000000,4.000000,4.000000,4.000000,100.000000,,,,,,,,,,,,,,,,,,,,,,,,,,,,
1703488738.577427,1703488738.578222,34.000000,0.000000,4295.769043,4261.410156,4327.307617,4279.487305,4254.358887,4224.871582,4216.025879,4249.615234,4230.128418,4224.871582,4508.333496,4485.641113,4366.794922,4444.230957,0.000000,4.000000,96.000000,,,,0.000000,4.000000,4.000000,4.000000,4.000000,4.000000,4.000000,4.000000,4.000000,4.000000,4.000000,4.000000,4.000000,4.000000,4.000000,100.000000,,,,,,,,,,,,,,,,,,,,,,,,,,,,
1703488738.585235,1703488738.586030,35.000000,0.000000,4288.717773,4259.487305,4317.179688,4278.589844,4257.692383,4226.794922,4217.948730,4222.563965,4210.769043,4217.051270,4495.256348,4466.153809,4363.205078,4436.025879,0.000000,4.000000,96.000000,,,,0.000000,4.000000,4.000000,4.000000,4.000000,4.000000,4.000000,4.000000,4.000000,4.000000,4.000000,4.000000,4.000000,4.000000,4.000000,100.000000,,,,,,,,,,,,,,,,,,,,,,,,,,,,
1703488738.593043,1703488738.593938,36.000000,0.000000,4272.948730,4249.102539,4305.256348,4272.307617,4245.256348,4223.974121,4213.846191,4194.102539,4193.077148,4210.384766,4480.641113,4445.256348,4351.153809,4421.922852,0.000000,4.000000,96.000000,,,,0.000000,4.000000,4.000000,4.000000,4.000000,4.000000,4.000000,4.000000,4.000000,4.000000,4.000000,4.000000,4.000000,4.000000,4.000000,100.000000,,,,,,,,,,,,,,,,,9.000000,0.000000,0.718636,-0.106140,-0.671631,0.145630,0.931754,-0.341350,0.064949,-11.158621,-43.081142,61.698841
1703488738.600851,1703488738.601746,37.000000,0.000000,4277.436035,4251.153809,4307.692383,4275.256348,4252.436035,4225.897461,4214.743652,4183.077148,4187.948730,4209.871582,4482.692383,4444.358887,4350.769043,4426.922852,0.000000,4.000000,96.000000,,,,0.000000,4.000000,4.000000,4.000000,4.000000,4.000000,4.000000,4.000000,4.000000,4.000000,4.000000,4.000000,4.000000,4.000000,4.000000,100.000000,,,,,,,,,,,,,,,,,,,,,,,,,,,,
1703488738.608659,1703488738.609654,38.000000,0.000000,4291.282227,4265.128418,4317.051270,4283.205078,4269.615234,4227.948730,4221.282227,4185.384766,4189.102539,4214.615234,4493.589844,4454.230957,4366.153809,4445.000000,0.000000,4.000000,96.000000,,,,0.000000,4.000000,4.000000,4.000000,4.000000,4.000000,4.000000,4.000000,4.000000,4.000000,4.000000,4.000000,4.000000,4.000000,4.000000,100.000000,,,,,,,,,,,,,,,,,,,,,,,,,,,,
1703488738.616467,1703488738.617461,39.000000,0.000000,4290.256348,4268.205078,4311.410156,4281.794922,4266.410156,4228.717773,4223.077148,4190.512695,4193.589844,4216.025879,4493.077148,4455.000000,4371.025879,4442.692383,0.000000,4.000000,96.000000,,,,0.000000,4.000000,4.000000,4.000000,4.000000,4.000000,4.000000,4.000000,4.000000,4.000000,4.000000,4.000000,4.000000,4.000000,4.000000,100.000000,,,,,,,,,,,,,,,,,,,,,,,,,,,,
1703488738.624275,1703488738.625369,40.000000,0.000000,4279.743652,4259.743652,4299.102539,4276.794922,4260.769043,4239.230957,4221.282227,4207.692383,4205.641113,4214.615234,4487.307617,4449.487305,4361.025879,4426.282227,0.000000,4.000000,96.000000,,,,0.000000,4.000000,4.000000,4.000000,4.000000,4.000000,4.000000,4.000000,4.000000,4.000000,4.000000,4.000000,4.000000,4.000000,4.000000,100.000000,,,,,,,,,,,,,,,,,10.000000,0.000000,0.718438,-0.106506,-0.671692,0.146057,0.919546,-0.337444,0.063973,-11.109425,-43.056362,61.795624
1703488738.632083,1703488738.633177,41.000000,0.000000,4275.128418,4260.256348,4299.487305,4280.384766,4266.794922,4251.794922,4222.948730,4237.948730,4230.000000,4228.205078,4491.922852,4454.230957,4357.563965,4424.743652,0.000000,4.000000,96.000000,,,,0.000000,4.000000,4.000000,4.000000,4.000000,4.000000,4.000000,4.000000,4.000000,4.000000,4.000000,4.000000,4.000000,4.000000,4.000000,100.000000,,,,,,,,,,,,,,,,,,,,,,,,,,,,
1703488738.639891,1703488738.641085,42.000000,0.000000,4275.256348,4265.512695,4304.743652,4282.820313,4266.153809,4252.307617,4221.666504,4263.205078,4252.307617,4242.563965,4498.717773,4462.820313,4363.461426,4431.922852,0.000000,4.000000,96.000000,,,,0.000000,4.000000,4.000000,4.000000,4.000000,4.000000,4.000000,4.000000,4.000000,4.000000,4.000000,4.000000,4.000000,4.000000,4.000000,100.000000,,,,,,,,,,,,,,,,,,,,,,,,,,,,
1703488738.647699,1703488738.648893,43.000000,0.000000,4275.384766,4260.000000,4304.743652,4279.743652,4260.769043,4248.589844,4217.563965,4270.897461,4253.589844,4226.922852,4496.538574,4462.051270,4363.077148,4430.000000,0.000000,4.000000,96.000000,,,,0.000000,4.000000,4.000000,4.000000,4.000000,4.000000,4.000000,4.000000,4.000000,4.000000,4.000000,4.000000,4.000000,4.000000,4.000000,100.000000,,,,,,,,,,,,,,,,,,,,,,,,,,,,
1703488738.655507,1703488738.656801,44.000000,0.000000,4271.666504,4247.948730,4305.897461,4277.820313,4258.205078,4245.512695,4215.641113,4268.077148,4250.769043,4213.205078,4491.538574,4459.230957,4356.025879,4427.820313,0.000000,4.000000,96.000000,,,,0.000000,4.000000,4.000000,4.000000,4.000000,4.000000,4.000000,4.000000,4.000000,4.000000,4.000000,4.000000,4.000000,4.000000,4.000000,100.000000,,,,,,,,,,,,,,,,,11.000000,0.000000,0.718481,-0.106567,-0.671570,0.146362,0.916616,-0.351605,0.070809,-11.198483,-43.117390,61.716061
1703488738.663315,1703488738.664609,45.000000,0.000000,4268.717773,4246.282227,4309.743652,4278.333496,4259.487305,4246.410156,4216.153809,4261.153809,4249.615234,4222.563965,4488.589844,4454.743652,4350.512695,4424.230957,0.000000,4.000000,96.000000,,,,0.000000,4.000000,4.000000,4.000000,4.000000,4.000000,4.000000,4.000000,4.000000,4.000000,4.000000,4.000000,4.000000,4.000000,4.000000,100.000000,,,,,,,,,,,,,,,,,,,,,,,,,,,,
1703488738.671123,1703488738.672317,46.000000,0.000000,4274.358887,4258.717773,4309.743652,4282.948730,4262.436035,4248.717773,4213.717773,4248.333496,4234.102539,4225.897461,4488.077148,4448.974121,4351.794922,4421.025879,0.000000,4.000000,96.000000,,,,0.000000,4.000000,4.000000,4.000000,4.000000,4.000000,4.000000,4.000000,4.000000,4.000000,4.000000,4.000000,4.000000,4.000000,4.000000,100.000000,,,,,,,,,,,,,,,,,,,,,,,,,,,,
1703488738.678931,1703488738.680225,47.000000,0.000000,4281.025879,4264.230957,4307.563965,4288.846191,4264.358887,4241.025879,4209.871582,4227.307617,4212.563965,4212.307617,4487.820313,4445.897461,4357.436035,4431.666504,0.000000,4.000000,96.000000,,,,0.000000,4.000000,4.000000,4.000000,4.000000,4.000000,4.000000,4.000000,4.000000,4.000000,4.000000,4.000000,4.000000,4.000000,4.000000,100.000000,,,,,,,,,,,,,,,,,,,,,,,,,,,,
1703488738.686739,1703488738.688033,48.000000,0.000000,4285.128418,4258.077148,4312.051270,4292.051270,4262.692383,4230.897461,4207.436035,4203.846191,4195.769043,4199.230957,4487.436035,4445.128418,4362.563965,4445.128418,0.000000,4.000000,96.000000,,,,0.000000,4.000000,4.000000,4.000000,4.000000,4.000000,4.000000,4.000000,4.000000,4.000000,4.000000,4.000000,4.000000,4.000000,4.000000,100.000000,,,,,,,,,,,,,,,,,12.000000,0.000000,0.718523,-0.106506,-0.671509,0.146484,0.924429,-0.350629,0.067391,-11.211967,-43.038986,61.711121
1703488738.694547,1703488738.695941,49.000000,0.000000,4296.410156,4257.436035,4319.230957,4295.256348,4250.384766,4230.512695,4203.846191,4196.025879,4186.410156,4202.948730,4493.974121,4453.717773,4370.769043,4458.461426,0.000000,4.000000,96.000000,,,,0.000000,4.000000,4.000000,4.000000,4.000000,4.000000,4.000000,4.000000,4.000000,4.000000,4.000000,4.000000,4.000000,4.000000,4.000000,100.000000,,,,,,,,,,,,,,,,,,,,,,,,,,,,
1703488738.702355,1703488738.703749,50.000000,0.000000,4305.384766,4262.948730,4319.102539,4297.307617,4244.230957,4233.717773,4205.512695,4198.461426,4187.563965,4211.794922,4504.102539,4460.000000,4381.410156,4470.641113,0.000000,4.000000,96.000000,,,,0.000000,4.000000,4.000000,4.000000,4.000000,4.000000,4.000000,4.000000,4.000000,4.000000,4.000000,4.000000,4.000000,4.000000,4.000000,100.000000,,,,,,,,,,,,,,,,,,,,,,,,,,,,
1703488738.710163,1703488738.711657,51.000000,0.000000,4308.205078,4263.846191,4317.179688,4296.153809,4263.717773,4236.410156,4211.666504,4196.282227,4195.897461,4214.743652,4514.743652,4458.717773,4391.153809,4478.974121,0.000000,4.000000,96.000000,,,,0.000000,4.000000,4.000000,4.000000,4.000000,4.000000,4.000000,4.000000,4.000000,4.000000,4.000000,4.000000,4.000000,4.000000,4.000000,100.000000,,,,,,,,,,,,,,,,,,,,,,,,,,,,
1703488738.717971,1703488738.719465,52.000000,0.000000,4309.743652,4258.846191,4320.897461,4296.282227,4280.897461,4242.692383,4212.948730,4205.256348,4214.230957,4234.358887,4527.307617,4467.820313,4400.641113,4485.641113,0.000000,4.000000,96.000000,,,,0.000000,4.000000,4.000000,4.000000,4.000000,4.000000,4.000000,4.000000,4.000000,4.000000,4.000000,4.000000,4.000000,4.000000,4.000000,100.000000,,,,,,,,,,,,,,,,,13.000000,0.000000,0.718441,-0.106506,-0.671570,0.146606,0.923941,-0.348675,0.075204,-11.174104,-43.001755,61.740009
1703488738.725779,1703488738.727372,53.000000,0.000000,4304.615234,4252.051270,4319.871582,4295.128418,4265.641113,4249.102539,4209.102539,4226.666504,4231.025879,4249.102539,4530.641113,4477.051270,4400.512695,4484.871582,0.000000,4.000000,96.000000,,,,0.000000,4.000000,4.000000,4.000000,4.000000,4.000000,4.000000,4.000000,4.000000,4.000000,4.000000,4.000000,4.000000,4.000000,4.000000,100.000000,,,,,,,,,,,,,,,,,,,,,,,,,,,,
1703488738.733587,1703488738.735180,54.000000,0.000000,4298.333496,4249.487305,4314.358887,4291.538574,4250.897461,4251.025879,4206.025879,4242.820313,4238.717773,4233.717773,4525.641113,4476.538574,4395.641113,4479.615234,0.000000,4.000000,96.000000,,,,0.000000,4.000000,4.000000,4.000000,4.000000,4.000000,4.000000,4.000000,4.000000,4.000000,4.000000,4.000000,4.000000,4.000000,4.000000,100.000000,,,,,,,,,,,,,,,,,,,,,,,,,,,,
1703488738.741395,1703488738.742988,55.000000,0.000000,4300.769043,4250.897461,4316.410156,4289.871582,4263.589844,4252.307617,4210.000000,4260.897461,4254.230957,4237.179688,4534.743652,4488.077148,4403.333496,4486.922852,0.000000,4.000000,96.000000,,,,0.000000,4.000000,4.000000,4.000000,4.000000,4.000000,4.000000,4.000000,4.000000,4.000000,4.000000,4.000000,4.000000,4.000000,4.000000,100.000000,,,,,,,,,,,,,,,,,,,,,,,,,,,,
1703488738.749204,1703488738.750696,56.000000,0.000000,4300.769043,4238.589844,4321.538574,4285.512695,4272.307617,4250.256348,4211.410156,4282.179688,4273.846191,4265.384766,4548.717773,4504.102539,4410.384766,4498.333496,0.000000,4.000000,96.000000,,,,0.000000,4.000000,4.000000,4.000000,4.000000,4.000000,4.000000,4.000000,4.000000,4.000000,4.000000,4.000000,4.000000,4.000000,4.000000,100.000000,,,,,,,,,,,,,,,,,14.000000,0.000000,0.718444,-0.106567,-0.671570,0.146545,0.923941,-0.348187,0.063484,-11.256694,-42.984913,61.616009
1703488738.757012,1703488738.758604,57.000000,0.000000,4286.666504,4216.922852,4316.025879,4276.282227,4259.871582,4250.128418,4207.051270,4285.128418,4270.256348,4257.307617,4534.358887,4494.102539,4396.153809,4483.717773,0.000000,4.000000,96.000000,,,,0.000000,4.000000,4.000000,4.000000,4.000000,4.000000,4.000000,4.000000,4.000000,4.000000,4.000000,4.000000,4.000000,4.000000,4.000000,100.000000,,,,,,,,,,,,,,,,,,,,,,,,,,,,
1703488738.764820,1703488738.766412,58.000000,0.000000,4278.846191,4212.307617,4307.307617,4273.333496,4247.563965,4251.922852,4202.307617,4274.230957,4256.153809,4235.897461,4517.948730,4474.230957,4383.461426,4470.128418,0.000000,4.000000,96.000000,,,,0.000000,4.000000,4.000000,4.000000,4.000000,4.000000,4.000000,4.000000,4.000000,4.000000,4.000000,4.000000,4.000000,4.000000,4.000000,100.000000,,,,,,,,,,,,,,,,,,,,,,,,,,,,
1703488738.772628,1703488738.774320,59.000000,0.000000,4285.384766,4217.948730,4307.051270,4277.948730,4247.820313,4246.794922,4197.820313,4270.769043,4253.589844,4242.948730,4521.666504,4472.692383,4386.025879,4480.128418,0.000000,4.000000,96.000000,,,,0.000000,4.000000,4.000000,4.000000,4.000000,4.000000,4.000000,4.000000,4.000000,4.000000,4.000000,4.000000,4.000000,4.000000,4.000000,100.000000,,,,,,,,,,,,,,,,,,,,,,,,,,,,
1703488738.780436,1703488738.782128,60.000000,0.000000,4288.077148,4217.563965,4313.846191,4280.128418,4250.384766,4238.333496,4195.384766,4263.589844,4245.769043,4239.615234,4521.153809,4476.282227,4385.000000,4482.948730,0.000000,4.000000,96.000000,,,,0.000000,4.000000,4.000000,4.000000,4.000000,4.000000,4.000000,4.000000,4.000000,4.000000,4.000000,4.000000,4.000000,4.000000,4.000000,100.000000,,,,,,,,,,,,,,,,,15.000000,0.000000,0.718507,-0.106262,-0.671631,0.146179,0.915639,-0.344769,0.061531,-11.481025,-42.953087,61.871075
1703488738.788244,1703488738.790036,61.000000,0.000000,4286.153809,4213.974121,4318.846191,4278.717773,4244.871582,4232.692383,4194.743652,4249.102539,4232.307617,4217.563965,4513.846191,4471.666504,4380.897461,4476.410156,0.000000,4.000000,96.000000,,,,0.000000,4.000000,4.000000,4.000000,4.000000,4.000000,4.000000,4.000000,4.000000,4.000000,4.000000,4.000000,4.000000,4.000000,4.000000,100.000000,,,,,,,,,,,,,,,,,,,,,,,,,,,,
1703488738.796052,1703488738.797844,62.000000,0.000000,4292.436035,4212.307617,4321.282227,4278.974121,4237.820313,4231.666504,4192.436035,4243.461426,4222.692383,4216.410156,4518.205078,4473.717773,4386.153809,4484.615234,0.000000,4.000000,96.000000,,,,0.000000,4.000000,4.000000,4.000000,4.000000,4.000000,4.000000,4.000000,4.000000,4.000000,4.000000,4.000000,4.000000,4.000000,4.000000,100.000000,,,,,,,,,,,,,,,,,,,,,,,,,,,,
1703488738.803860,1703488738.805752,63.000000,0.000000,4306.025879,4219.358887,4330.000000,4286.794922,4242.692383,4233.205078,4190.769043,4242.820313,4217.948730,4230.128418,4532.179688,4488.077148,4398.974121,4505.000000,0.000000,4.000000,96.000000,,,,0.000000,4.000000,4.000000,4.000000,4.000000,4.000000,4.000000,4.000000,4.000000,4.000000,4.000000,4.000000,4.000000,4.000000,4.000000,100.000000,,,,,,,,,,,,,,,,,,,,,,,,,,,,
1703488738.811668,1703488738.813560,64.000000,0.000000,4311.025879,4233.974121,4339.358887,4297.692383,4250.128418,4236.922852,4198.717773,4233.717773,4214.230957,4226.153809,4538.717773,4495.128418,4410.256348,4512.307617,5440.000000,4.000000,96.000000,,,,0.000000,4.000000,4.000000,4.000000,4.000000,4.000000,4.000000,4.000000,4.000000,4.000000,4.000000,4.000000,4.000000,4.000000,4.000000,100.000000,,,,,,,,,,,,,,,,,16.000000,0.000000,0.718653,-0.105774,-0.671631,0.145813,0.931754,-0.341350,0.074228,-11.466255,-43.007778,61.883965
1703488738.819476,1703488738.821468,65.000000,0.000000,4310.128418,4237.179688,4335.256348,4295.897461,4246.153809,4241.410156,4202.307617,4228.846191,4210.384766,4212.563965,4535.769043,4490.897461,4411.666504,4507.051270,5492.000000,4.000000,96.000000,,,,0.000000,4.000000,4.000000,4.000000,4.000000,4.000000,4.000000,4.000000,4.000000,4.000000,4.000000,4.000000,4.000000,4.000000,4.000000,100.000000,,,,,,,,,,,,,,,,,,,,,,,,,,,,
1703488738.827284,1703488738.829276,66.000000,0.000000,4311.922852,4227.436035,4328.205078,4283.846191,4242.820313,4246.794922,4197.820313,4239.102539,4218.205078,4217.692383,4532.820313,4490.000000,4406.794922,4506.538574,5323.000000,4.000000,96.000000,,,,0.000000,4.000000,4.000000,4.000000,4.000000,4.000000,4.000000,4.000000,4.000000,4.000000,4.000000,4.000000,4.000000,4.000000,4.000000,100.000000,,,,,,,,,,,,,,,,,,,,,,,,,,,,
1703488738.835092,1703488738.836984,67.000000,0.000000,4309.487305,4228.717773,4327.948730,4279.230957,4249.358887,4252.436035,4201.794922,4248.333496,4236.025879,4236.922852,4536.538574,4493.846191,4406.282227,4506.025879,5409.000000,4.000000,96.000000,,,,0.000000,4.000000,4.000000,4.000000,4.000000,4.000000,4.000000,4.000000,4.000000,4.000000,4.000000,4.000000,4.000000,4.000000,4.000000,100.000000,,,,,,,,,,,,,,,,,,,,,,,,,,,,
1703488738.842900,1703488738.844792,68.000000,0.000000,4302.051270,4230.128418,4324.615234,4282.820313,4251.025879,4253.205078,4204.102539,4253.333496,4250.000000,4247.820313,4537.307617,4494.871582,4404.230957,4499.615234,5215.000000,4.000000,96.000000,,,,0.000000,4.000000,4.000000,4.000000,4.000000,4.000000,4.000000,4.000000,4.000000,4.000000,4.000000,4.000000,4.000000,4.000000,4.000000,100.000000,,,,,,,,,,,,,,,,,17.000000,0.000000,0.718691,-0.105469,-0.671692,0.145569,0.929313,-0.356489,0.076181,-11.269629,-42.973667,61.728905
1703488738.850708,1703488738.852500,69.000000,0.000000,4292.436035,4217.948730,4315.641113,4278.205078,4243.846191,4248.589844,4198.974121,4260.256348,4250.769043,4240.000000,4525.256348,4489.743652,4394.230957,4489.102539,5116.000000,4.000000,96.000000,,,,0.000000,4.000000,4.000000,4.000000,4.000000,4.000000,4.000000,4.000000,4.000000,4.000000,4.000000,4.000000,4.000000,4.000000,4.000000,100.000000,,,,,,,,,,,,,,,,,,,,,,,,,,,,
1703488738.858516,1703488738.860308,70.000000,0.000000,4284.871582,4211.410156,4310.641113,4266.282227,4242.307617,4244.230957,4198.717773,4261.922852,4245.897461,4229.871582,4518.077148,4481.922852,4387.948730,4481.153809,2191.000000,4.000000,96.000000,,,,0.000000,4.000000,4.000000,4.000000,4.000000,4.000000,4.000000,4.000000,4.000000,4.000000,4.000000,4.000000,4.000000,4.000000,4.000000,100.000000,,,,,,,,,,,,,,,,,,,,,,,,,,,,
1703488738.866324,1703488738.868016,71.000000,0.000000,4276.666504,4213.974121,4306.282227,4261.922852,4247.307617,4246.922852,4201.410156,4256.538574,4247.563965,4235.769043,4521.153809,4477.051270,4389.615234,4477.179688,5128.000000,4.000000,96.000000,,,,0.000000,4.000000,4.000000,4.000000,4.000000,4.000000,4.000000,4.000000,4.000000,4.000000,4.000000,4.000000,4.000000,4.000000,4.000000,100.000000,,,,,,,,,,,,,,,,,,,,,,,,,,,,
1703488738.874132,1703488738.875824,72.000000,0.000000,4278.077148,4220.641113,4303.333496,4271.025879,4246.666504,4245.512695,4202.436035,4249.743652,4249.358887,4240.512695,4522.563965,4474.871582,4392.692383,4483.205078,5283.000000,4.000000,96.000000,,,,0.000000,4.000000,4.000000,4.000000,4.000000,4.000000,4.000000,4.000000,4.000000,4.000000,4.000000,4.000000,4.000000,4.000000,4.000000,100.000000,,,,,,,,,,,,,,,,,18.000000,0.000000,0.718781,-0.105408,-0.671631,0.145447,0.922476,-0.331095,0.078623,-11.226000,-42.992966,61.672680
1703488738.881940,1703488738.883532,73.000000,0.000000,4291.666504,4229.615234,4309.358887,4281.282227,4242.051270,4234.743652,4200.256348,4247.051270,4240.384766,4232.436035,4524.615234,4478.333496,4397.307617,4492.051270,5313.000000,4.000000,96.000000,,,,0.000000,4.000000,4.000000,4.000000,4.000000,4.000000,4.000000,4.000000,4.000000,4.000000,4.000000,4.000000,4.000000,4.000000,4.000000,100.000000,,,,,,,,,,,,,,,,,,,,,,,,,,,,
1703488738.889748,1703488738.891340,74.000000,0.000000,4297.692383,4231.794922,4318.333496,4283.974121,4243.461426,4229.487305,4198.974121,4246.666504,4232.051270,4229.230957,4529.487305,4486.282227,4399.487305,4491.538574,5833.000000,4.000000,96.000000,,,,0.000000,4.000000,4.000000,4.000000,4.000000,4.000000,4.000000,4.000000,4.000000,4.000000,4.000000,4.000000,4.000000,4.000000,4.000000,100.000000,,,,,,,,,,,,,,,,,,,,,,,,,,,,
1703488738.897556,1703488738.899048,75.000000,0.000000,4294.871582,4231.153809,4324.743652,4281.282227,4244.871582,4231.666504,4199.743652,4244.743652,4233.589844,4235.128418,4529.743652,4486.666504,4396.282227,4490.897461,6252.000000,4.000000,96.000000,,,,0.000000,4.000000,4.000000,4.000000,4.000000,4.000000,4.000000,4.000000,4.000000,4.000000,4.000000,4.000000,4.000000,4.000000,4.000000,100.000000,,,,,,,,,,,,,,,,,,,,,,,,,,,,
1703488738.905364,1703488738.906956,76.000000,0.000000,4296.153809,4240.128418,4326.538574,4281.410156,4241.282227,4230.512695,4199.615234,4241.282227,4229.230957,4231.666504,4527.692383,4483.589844,4397.692383,4494.230957,6748.000000,4.000000,96.000000,,,,0.000000,4.000000,4.000000,4.000000,4.000000,4.000000,4.000000,4.000000,4.000000,4.000000,4.000000,4.000000,4.000000,4.000000,4.000000,100.000000,,,,,,,,,,,,,,,,,19.000000,0.000000,0.719014,-0.105408,-0.671448,0.145142,0.928336,-0.337932,0.077646,-11.236733,-42.927002,61.788746
1703488738.913172,1703488738.914764,77.000000,0.000000,4302.948730,4247.948730,4327.692383,4287.563965,4243.077148,4230.384766,4199.102539,4241.922852,4221.794922,4222.820313,4532.692383,4488.077148,4400.641113,4494.487305,6917.000000,4.000000,96.000000,,,,0.000000,4.000000,4.000000,4.000000,4.000000,4.000000,4.000000,4.000000,4.000000,4.000000,4.000000,4.000000,4.000000,4.000000,4.000000,100.000000,,,,,,,,,,,,,,,,,,,,,,,,,,,,
1703488738.920981,1703488738.922572,78.000000,0.000000,4308.461426,4241.153809,4332.179688,4288.333496,4241.922852,4235.128418,4200.000000,4247.948730,4222.563965,4218.846191,4535.384766,4492.820313,4398.589844,4492.820313,5833.000000,4.000000,96.000000,,,,0.000000,4.000000,4.000000,4.000000,4.000000,4.000000,4.000000,4.000000,4.000000,4.000000,4.000000,4.000000,4.000000,4.000000,4.000000,100.000000,,,,,,,,,,,,,,,,,,,,,,,,,,,,
1703488738.928789,1703488738.930280,79.000000,0.000000,4307.307617,4236.153809,4329.743652,4282.948730,4234.102539,4233.333496,4201.282227,4256.153809,4229.871582,4225.000000,4529.743652,4493.077148,4396.538574,4492.820313,6252.000000,4.000000,96.000000,,,,0.000000,4.000000,4.000000,4.000000,4.000000,4.000000,4.000000,4.000000,4.000000,4.000000,4.000000,4.000000,4.000000,4.000000,4.000000,100.000000,,,,,,,,,,,,,,,,,,,,,,,,,,,,
1703488738.936597,1703488738.938088,80.000000,0.000000,4296.666504,4234.230957,4319.102539,4281.410156,4238.461426,4233.205078,4200.000000,4263.333496,4243.846191,4238.717773,4525.897461,4490.512695,4393.333496,4489.358887,6748.000000,4.000000,96.000000,,,,0.000000,4.000000,4.000000,4.000000,4.000000,4.000000,4.000000,4.000000,4.000000,4.000000,4.000000,4.000000,4.000000,4.000000,4.000000,100.000000,,,,,,,,,,,,,,,,,20.000000,0.000000,0.719026,-0.105408,-0.671448,0.145081,0.921499,-0.340374,0.076181,-11.096394,-42.917637,61.659870
1703488738.944404,1703488738.945796,81.000000,0.000000,4283.205078,4234.358887,4309.487305,4281.538574,4250.897461,4244.102539,4204.230957,4264.102539,4251.538574,4234.358887,4519.871582,4481.922852,4383.589844,4475.000000,6917.000000,4.000000,96.000000,,,,0.000000,4.000000,4.000000,4.000000,4.000000,4.000000,4.000000,4.000000,4.000000,4.000000,4.000000,4.000000,4.000000,4.000000,4.000000,100.000000,,,,,,,,,,,,,,,,,,,,,,,,,,,,
1703488738.952213,1703488738.953604,82.000000,0.000000,4281.794922,4241.025879,4307.051270,4283.589844,4251.410156,4249.615234,4210.000000,4262.179688,4247.179688,4218.205078,4511.538574,4471.410156,4373.205078,4465.256348,5833.000000,4.000000,96.000000,,,,0.000000,4.000000,4.000000,4.000000,4.000000,4.000000,4.000000,4.000000,4.000000,4.000000,4.000000,4.000000,4.000000,4.000000,4.000000,100.000000,,,,,,,,,,,,,,,,,,,,,,,,,,,,
1703488738.960021,1703488738.961312,83.000000,0.000000,4283.974121,4241.025879,4310.256348,4287.179688,4248.846191,4246.794922,4205.641113,4260.641113,4246.794922,4214.102539,4502.307617,4465.512695,4367.436035,4460.897461,6252.000000,4.000000,96.000000,,,,0.000000,4.000000,4.000000,4.000000,4.000000,4.000000,4.000000,4.000000,4.000000,4.000000,4.000000,4.000000,4.000000,4.000000,4.000000,100.000000,,,,,,,,,,,,,,,,,,,,,,,,,,,,
1703488738.967829,1703488738.969120,84.000000,0.000000,4275.384766,4231.666504,4308.846191,4281.794922,4252.179688,4245.512695,4199.743652,4253.717773,4247.051270,4218.846191,4491.025879,4458.205078,4358.333496,4447.307617,6748.000000,4.000000,96.000000,,,,0.000000,4.000000,4.000000,4.000000,4.000000,4.000000,4.000000,4.000000,4.000000,4.000000,4.000000,4.000000,4.000000,4.000000,4.000000,100.000000,,,,,,,,,,,,,,,,,21.000000,0.000000,0.719165,-0.105408,-0.671326,0.144958,0.915639,-0.337932,0.070321,-11.120088,-42.892540,61.827217
1703488738.975637,1703488738.976828,85.000000,0.000000,4266.666504,4228.205078,4300.256348,4272.948730,4249.358887,4240.769043,4201.666504,4245.000000,4242.820313,4224.487305,4489.102539,4450.128418,4353.077148,4440.897461,6917.000000,4.000000,96.000000,,,,0.000000,4.000000,4.000000,4.000000,4.000000,4.000000,4.000000,4.000000,4.000000,4.000000,4.000000,4.000000,4.000000,4.000000,4.000000,100.000000,,,,,,,,,,,,,,,,,,,,,,,,,,,,
1703488738.983445,1703488738.984736,86.000000,0.000000,4272.179688,4233.846191,4300.769043,4275.512695,4245.641113,4232.820313,4203.333496,4240.641113,4242.563965,4232.307617,4501.922852,4452.820313,4366.538574,4454.743652,5833.000000,4.000000,96.000000,,,,0.000000,4.000000,4.000000,4.000000,4.000000,4.000000,4.000000,4.000000,4.000000,4.000000,4.000000,4.000000,4.000000,4.000000,4.000000,100.000000,,,,,,,,,,,,,,,,,,,,,,,,,,,,
1703488738.991253,1703488738.992544,87.000000,0.000000,4284.358887,4240.641113,4312.948730,4281.794922,4248.589844,4231.282227,4202.436035,4236.922852,4242.051270,4237.692383,4516.794922,4466.282227,4384.102539,4468.717773,6252.000000,4.000000,96.000000,,,,0.000000,4.000000,4.000000,4.000000,4.000000,4.000000,4.000000,4.000000,4.000000,4.000000,4.000000,4.000000,4.000000,4.000000,4.000000,100.000000,1.000000,100.000000,4.000000,4.000000,4.000000,4.000000,4.000000,4.000000,4.000000,4.000000,4.000000,4.000000,4.000000,4.000000,4.000000,4.000000,,,,,,,,,,,,
1703488738.999061,1703488739.000452,88.000000,0.000000,4290.769043,4246.794922,4321.794922,4287.563965,4249.102539,4231.922852,4201.410156,4231.922852,4229.743652,4229.615234,4519.615234,4474.743652,4386.794922,4472.563965,6748.000000,4.000000,96.000000,,,,0.000000,4.000000,4.000000,4.000000,4.000000,4.000000,4.000000,4.000000,4.000000,4.000000,4.000000,4.000000,4.000000,4.000000,4.000000,100.000000,,,,,,,,,,,,,,,,,22.000000,0.000000,0.719069,-0.105591,-0.671387,0.145020,0.933708,-0.342327,0.064461,-11.158078,-42.886620,61.744495
1703488739.006869,1703488739.008260,89.000000,0.000000,4293.077148,4255.000000,4324.102539,4294.615234,4247.051270,4230.641113,4200.384766,4231.538574,4218.461426,4220.256348,4523.077148,4475.000000,4388.077148,4476.153809,6917.000000,4.000000,96.000000,,,,0.000000,4.000000,4.000000,4.000000,4.000000,4.000000,4.000000,4.000000,4.000000,4.000000,4.000000,4.000000,4.000000,4.000000,4.000000,100.000000,,,,,,,,,,,,,,,,,,,,,,,,,,,,
1703488739.014677,1703488739.016167,90.000000,0.000000,4295.897461,4254.743652,4324.358887,4295.641113,4247.179688,4233.077148,4203.589844,4233.717773,4216.410156,4218.077148,4524.487305,4476.282227,4392.692383,4478.077148,5833.000000,4.000000,96.000000,,,,0.000000,4.000000,4.000000,4.000000,4.000000,4.000000,4.000000,4.000000,4.000000,4.000000,4.000000,4.000000,4.000000,4.000000,4.000000,100.000000,,,,,,,,,,,,,,,,,,,,,,,,,,,,
1703488739.022485,1703488739.023975,91.000000,0.000000,4298.974121,4252.179688,4325.512695,4293.077148,4247.051270,4233.461426,4205.769043,4236.025879,4214.358887,4218.589844,4515.256348,4479.102539,4385.641113,4478.333496,6252.000000,4.000000,96.000000,,,,0.000000,4.000000,4.000000,4.000000,4.000000,4.000000,4.000000,4.000000,4.000000,4.000000,4.000000,4.000000,4.000000,4.000000,4.000000,100.000000,,,,,,,,,,,,,,,,,,,,,,,,,,,,
1703488739.030293,1703488739.031683,92.000000,0.000000,4292.179688,4250.256348,4324.743652,4289.615234,4247.179688,4232.948730,4200.897461,4241.025879,4210.512695,4207.051270,4505.128418,4477.948730,4373.461426,4472.179688,6748.000000,4.000000,96.000000,,,,0.000000,4.000000,4.000000,4.000000,4.000000,4.000000,4.000000,4.000000,4.000000,4.000000,4.000000,4.000000,4.000000,4.000000,4.000000,100.000000,,,,,,,,,,,,,,,,,23.000000,0.000000,0.719021,-0.105530,-0.671448,0.145020,0.920034,-0.335002,0.070321,-11.125604,-42.864624,61.853378
1703488739.038101,1703488739.039491,93.000000,0.000000,4278.974121,4237.436035,4316.153809,4280.641113,4248.333496,4241.410156,4201.922852,4251.794922,4216.153809,4198.205078,4504.102539,4476.538574,4369.102539,4459.871582,6917.000000,4.000000,96.000000,,,,0.000000,4.000000,4.000000,4.000000,4.000000,4.000000,4.000000,4.000000,4.000000,4.000000,4.000000,4.000000,4.000000,4.000000,4.000000,100.000000,,,,,,,,,,,,,,,,,,,,,,,,,,,,
1703488739.045909,1703488739.047200,94.000000,0.000000,4274.358887,4227.436035,4308.589844,4276.153809,4246.666504,4248.589844,4207.692383,4258.846191,4230.897461,4207.820313,4507.179688,4476.282227,4367.820313,4457.307617,5833.000000,4.000000,96.000000,,,,0.000000,4.000000,4.000000,4.000000,4.000000,4.000000,4.000000,4.000000,4.000000,4.000000,4.000000,4.000000,4.000000,4.000000,4.000000,100.000000,,,,,,,,,,,,,,,,,,,,,,,,,,,,
1703488739.053717,1703488739.055008,95.000000,0.000000,4278.461426,4241.153809,4313.333496,4287.051270,4247.820313,4248.333496,4204.615234,4253.717773,4236.666504,4216.282227,4503.461426,4474.102539,4367.051270,4459.102539,6252.000000,4.000000,96.000000,,,,0.000000,4.000000,4.000000,4.000000,4.000000,4.000000,4.000000,4.000000,4.000000,4.000000,4.000000,4.000000,4.000000,4.000000,4.000000,100.000000,,,,,,,,,,,,,,,,,,,,,,,,,,,,
1703488739.061525,1703488739.062716,96.000000,0.000000,4280.000000,4253.974121,4316.794922,4296.666504,4258.333496,4245.641113,4200.897461,4248.077148,4232.948730,4219.102539,4502.692383,4468.846191,4369.102539,4458.205078,6748.000000,4.000000,96.000000,,,,0.000000,4.000000,4.000000,4.000000,4.000000,4.000000,4.000000,4.000000,4.000000,4.000000,4.000000,4.000000,4.000000,4.000000,4.000000,100.000000,,,,,,,,,,,,,,,,,24.000000,0.000000,0.718991,-0.105347,-0.671509,0.145020,0.916127,-0.339397,0.070809,-11.213044,-42.828163,62.051373
1703488739.069333,1703488739.070524,97.000000,0.000000,4279.102539,4248.974121,4310.000000,4292.307617,4262.692383,4239.615234,4205.256348,4243.589844,4231.922852,4219.487305,4505.000000,4461.922852,4370.641113,4458.205078,6917.000000,4.000000,96.000000,,,,0.000000,4.000000,4.000000,4.000000,4.000000,4.000000,4.000000,4.000000,4.000000,4.000000,4.000000,4.000000,4.000000,4.000000,4.000000,100.000000,,,,,,,,,,,,,,,,,,,,,,,,,,,,
1703488739.077141,1703488739.078232,98.000000,0.000000,4280.769043,4252.051270,4308.974121,4289.102539,4252.563965,4230.384766,4205.897461,4236.282227,4232.436035,4217.436035,4503.846191,4459.230957,4371.538574,4458.589844,5833.000000,4.000000,96.000000,,,,0.000000,4.000000,4.000000,4.000000,4.000000,4.000000,4.000000,4.000000,4.000000,4.000000,4.000000,4.000000,4.000000,4.000000,4.000000,100.000000,,,,,,,,,,,,,,,,,,,,,,,,,,,,
1703488739.084949,1703488739.086040,99.000000,0.000000,4280.641113,4264.102539,4313.077148,4293.589844,4247.563965,4228.333496,4201.922852,4231.666504,4231.153809,4217.179688,4506.153809,4460.641113,4374.358887,4457.179688,6252.000000,4.000000,96.000000,,,,0.000000,4.000000,4.000000,4.000000,4.000000,4.000000,4.000000,4.000000,4.000000,4.000000,4.000000,4.000000,4.000000,4.000000,4.000000,100.000000,,,,,,,,,,,,,,,,,,,,,,,,,,,,
1703488739.092757,1703488739.093748,100.000000,0.000000,4279.615234,4258.846191,4308.717773,4289.615234,4251.025879,4232.563965,4199.743652,4234.743652,4228.717773,4215.897461,4507.307617,4458.717773,4373.333496,4456.666504,6748.000000,4.000000,96.000000,,,,0.000000,4.000000,4.000000,4.000000,4.000000,4.000000,4.000000,4.000000,4.000000,4.000000,4.000000,4.000000,4.000000,4.000000,4.000000,100.000000,,,,,,,,,,,,,,,,,25.000000,0.000000,0.719005,-0.105469,-0.671448,0.145142,0.914662,-0.354535,0.076670,-11.291739,-42.995346,61.946236
1703488739.100566,1703488739.101556,101.000000,0.000000,4279.487305,4250.128418,4301.538574,4281.794922,4250.897461,4233.717773,4203.589844,4240.769043,4228.974121,4221.153809,4505.256348,4458.333496,4374.102539,4457.692383,6917.000000,4.000000,96.000000,,,,0.000000,4.000000,4.000000,4.000000,4.000000,4.000000,4.000000,4.000000,4.000000,4.000000,4.000000,4.000000,4.000000,4.000000,4.000000,100.000000,,,,,,,,,,,,,,,,,,,,,,,,,,,,
1703488739.108374,1703488739.109264,102.000000,0.000000,4279.487305,4255.641113,4304.358887,4285.512695,4253.846191,4234.230957,4208.589844,4247.051270,4232.051270,4232.692383,4510.897461,4468.077148,4381.794922,4460.897461,5833.000000,4.000000,96.000000,,,,0.000000,4.000000,4.000000,4.000000,4.000000,4.000000,4.000000,4.000000,4.000000,4.000000,4.000000,4.000000,4.000000,4.000000,4.000000,100.000000,,,,,,,,,,,,,,,,,,,,,,,,,,,,
1703488739.116181,1703488739.117172,103.000000,0.000000,4285.128418,4265.897461,4311.666504,4293.589844,4263.589844,4235.256348,4207.051270,4251.538574,4234.230957,4228.205078,4523.333496,4478.846191,4388.333496,4470.000000,6252.000000,4.000000,96.000000,,,,0.000000,4.000000,4.000000,4.000000,4.000000,4.000000,4.000000,4.000000,4.000000,4.000000,4.000000,4.000000,4.000000,4.000000,4.000000,100.000000,,,,,,,,,,,,,,,,,,,,,,,,,,,,
1703488739.123989,1703488739.124980,104.000000,0.000000,4295.641113,4267.948730,4311.666504,4292.051270,4262.820313,4233.974121,4207.563965,4248.333496,4229.102539,4214.615234,4522.307617,4479.487305,4386.025879,4479.487305,6748.000000,4.000000,96.000000,,,,0.000000,4.000000,4.000000,4.000000,4.000000,4.000000,4.000000,4.000000,4.000000,4.000000,4.000000,4.000000,4.000000,4.000000,4.000000,100.000000,,,,,,,,,,,,,,,,,26.000000,0.000000,0.718909,-0.105652,-0.671509,0.145203,0.933708,-0.347699,0.063484,-11.262566,-43.062477,61.851612
1703488739.131798,1703488739.132788,105.000000,0.000000,4295.641113,4262.692383,4310.384766,4281.794922,4252.051270,4232.563965,4209.358887,4246.025879,4219.102539,4215.512695,4511.410156,4476.922852,4380.000000,4476.282227,6917.000000,4.000000,96.000000,,,,0.000000,4.000000,4.000000,4.000000,4.000000,4.000000,4.000000,4.000000,4.000000,4.000000,4.000000,4.000000,4.000000,4.000000,4.000000,100.000000,,,,,,,,,,,,,,,,,,,,,,,,,,,,
1703488739.139606,1703488739.140496,106.000000,0.000000,4285.128418,4261.025879,4312.436035,4278.333496,4247.692383,4232.436035,4206.922852,4245.256348,4214.230957,4215.384766,4507.820313,4476.282227,4376.538574,4461.410156,5833.000000,4.000000,96.000000,,,,0.000000,4.000000,4.000000,4.000000,4.000000,4.000000,4.000000,4.000000,4.000000,4.000000,4.000000,4.000000,4.000000,4.000000,4.000000,100.000000,,,,,,,,,,,,,,,,,,,,,,,,,,,,
1703488739.147414,1703488739.148403,107.000000,0.000000,4285.384766,4263.717773,4312.051270,4287.051270,4248.589844,4231.538574,4205.128418,4242.948730,4221.282227,4213.974121,4508.717773,4476.025879,4373.461426,4456.666504,6252.000000,4.000000,96.000000,,,,0.000000,4.000000,4.000000,4.000000,4.000000,4.000000,4.000000,4.000000,4.000000,4.000000,4.000000,4.000000,4.000000,4.000000,4.000000,100.000000,,,,,,,,,,,,,,,,,,,,,,,,,,,,
1703488739.155222,1703488739.156211,108.000000,0.000000,4290.000000,4260.512695,4311.153809,4292.948730,4252.179688,4232.307617,4205.512695,4243.974121,4227.948730,4219.871582,4507.436035,4476.666504,4371.794922,4461.282227,6748.000000,4.000000,96.000000,,,,0.000000,4.000000,4.000000,4.000000,4.000000,4.000000,4.000000,4.000000,4.000000,4.000000,4.000000,4.000000,4.000000,4.000000,4.000000,100.000000,,,,,,,,,,,,,,,,,27.000000,0.000000,0.718722,-0.105896,-0.671631,0.145386,0.916127,-0.343304,0.069833,-11.286309,-43.089561,61.849785
1703488739.163030,1703488739.164119,109.000000,0.000000,4283.077148,4255.512695,4312.179688,4288.846191,4253.077148,4234.871582,4209.102539,4242.563965,4229.487305,4216.666504,4506.025879,4477.179688,4370.769043,4452.948730,6917.000000,4.000000,96.000000,,,,0.000000,4.000000,4.000000,4.000000,4.000000,4.000000,4.000000,4.000000,4.000000,4.000000,4.000000,4.000000,4.000000,4.000000,4.000000,100.000000,,,,,,,,,,,,,,,,,,,,,,,,,,,,
1703488739.170838,1703488739.171927,110.000000,0.000000,4276.666504,4255.128418,4311.666504,4289.102539,4250.384766,4233.205078,4209.358887,4233.589844,4230.256348,4211.794922,4504.615234,4471.153809,4366.410156,4439.358887,5833.000000,4.000000,96.000000,,,,0.000000,4.000000,4.000000,4.000000,4.000000,4.000000,4.000000,4.000000,4.000000,4.000000,4.000000,4.000000,4.000000,4.000000,4.000000,100.000000,,,,,,,,,,,,,,,,,,,,,,,,,,,,
1703488739.178646,1703488739.179835,111.000000,0.000000,4280.000000,4257.563965,4311.153809,4296.410156,4254.615234,4230.641113,4205.384766,4232.692383,4233.717773,4224.358887,4505.128418,4464.102539,4368.461426,4440.769043,6252.000000,4.000000,96.000000,,,,0.000000,4.000000,4.000000,4.000000,4.000000,4.000000,4.000000,4.000000,4.000000,4.000000,4.000000,4.000000,4.000000,4.000000,4.000000,100.000000,,,,,,,,,,,,,,,,,,,,,,,,,,,,
1703488739.186454,1703488739.187643,112.000000,0.000000,4280.512695,4261.538574,4310.384766,4297.692383,4264.102539,4236.666504,4205.512695,4245.512695,4243.077148,4238.589844,4507.436035,4462.563965,4374.743652,4445.512695,6748.000000,4.000000,96.000000,,,,0.000000,4.000000,4.000000,4.000000,4.000000,4.000000,4.000000,4.000000,4.000000,4.000000,4.000000,4.000000,4.000000,4.000000,4.000000,100.000000,,,,,,,,,,,,,,,,,28.000000,0.000000,0.718691,-0.106018,-0.671631,0.145447,0.927848,-0.342327,0.064949,-11.157678,-43.013939,61.831474
1703488739.194262,1703488739.195551,113.000000,0.000000,4271.666504,4259.743652,4301.666504,4293.589844,4263.846191,4247.051270,4207.692383,4247.563965,4246.922852,4235.000000,4504.871582,4456.410156,4370.384766,4435.769043,6917.000000,4.000000,96.000000,,,,0.000000,4.000000,4.000000,4.000000,4.000000,4.000000,4.000000,4.000000,4.000000,4.000000,4.000000,4.000000,4.000000,4.000000,4.000000,100.000000,,,,,,,,,,,,,,,,,,,,,,,,,,,,
1703488739.202070,1703488739.203359,114.000000,0.000000,4265.384766,4250.384766,4292.692383,4293.846191,4257.820313,4247.179688,4203.846191,4246.922852,4242.563965,4227.307617,4501.666504,4452.051270,4362.692383,4429.230957,5833.000000,4.000000,96.000000,,,,0.000000,4.000000,4.000000,4.000000,4.000000,4.000000,4.000000,4.000000,4.000000,4.000000,4.000000,4.000000,4.000000,4.000000,4.000000,100.000000,,,,,,,,,,,,,,,,,,,,,,,,,,,,
1703488739.209878,1703488739.211067,115.000000,0.000000,4267.179688,4251.794922,4294.230957,4296.922852,4260.000000,4241.922852,4202.436035,4260.512695,4242.948730,4229.102539,4503.717773,4462.179688,4369.615234,4435.128418,6252.000000,4.000000,96.000000,,,,0.000000,4.000000,4.000000,4.000000,4.000000,4.000000,4.000000,4.000000,4.000000,4.000000,4.000000,4.000000,4.000000,4.000000,4.000000,100.000000,,,,,,,,,,,,,,,,,,,,,,,,,,,,
1703488739.217686,1703488739.218875,116.000000,0.000000,4274.102539,4263.589844,4301.025879,4296.025879,4263.717773,4245.897461,4208.717773,4268.589844,4247.436035,4231.794922,4507.179688,4472.692383,4377.179688,4440.641113,6748.000000,4.000000,96.000000,,,,0.000000,4.000000,4.000000,4.000000,4.000000,4.000000,4.000000,4.000000,4.000000,4.000000,4.000000,4.000000,4.000000,4.000000,4.000000,100.000000,,,,,,,,,,,,,,,,,29.000000,0.000000,0.718651,-0.105957,-0.671631,0.145691,0.920034,-0.350140,0.071786,-11.108577,-42.995880,61.948326
1703488739.225494,1703488739.226583,117.000000,0.000000,4279.871582,4266.410156,4312.051270,4300.000000,4264.615234,4247.563965,4207.948730,4265.641113,4245.256348,4232.307617,4515.128418,4479.230957,4375.769043,4452.179688,6917.000000,4.000000,96.000000,,,,0.000000,4.000000,4.000000,4.000000,4.000000,4.000000,4.000000,4.000000,4.000000,4.000000,4.000000,4.000000,4.000000,4.000000,4.000000,100.000000,,,,,,,,,,,,,,,,,,,,,,,,,,,,
1703488739.233302,1703488739.234391,118.000000,0.000000,4280.641113,4262.051270,4322.051270,4308.333496,4260.128418,4236.794922,4203.077148,4266.025879,4237.563965,4228.846191,4520.769043,4487.563965,4373.589844,4458.461426,5833.000000,4.000000,96.000000,,,,0.000000,4.000000,4.000000,4.000000,4.000000,4.000000,4.000000,4.000000,4.000000,4.000000,4.000000,4.000000,4.000000,4.000000,4.000000,100.000000,,,,,,,,,,,,,,,,,,,,,,,,,,,,
1703488739.241110,1703488739.242099,119.000000,0.000000,4279.615234,4262.820313,4321.282227,4308.077148,4249.743652,4229.358887,4199.102539,4262.307617,4232.179688,4221.410156,4515.128418,4491.025879,4372.948730,4448.333496,6252.000000,4.000000,96.000000,,,,0.000000,4.000000,4.000000,4.000000,4.000000,4.000000,4.000000,4.000000,4.000000,4.000000,4.000000,4.000000,4.000000,4.000000,4.000000,100.000000,,,,,,,,,,,,,,,,,,,,,,,,,,,,
1703488739.248918,1703488739.249907,120.000000,0.000000,4280.897461,4260.384766,4321.922852,4304.487305,4246.794922,4233.589844,4198.974121,4252.563965,4230.897461,4218.846191,4511.282227,4486.922852,4375.769043,4442.948730,6748.000000,4.000000,96.000000,,,,0.000000,4.000000,4.000000,4.000000,4.000000,4.000000,4.000000,4.000000,4.000000,4.000000,4.000000,4.000000,4.000000,4.000000,4.000000,100.000000,,,,,,,,,,,,,,,,,30.000000,0.000000,0.718644,-0.105835,-0.671631,0.145813,0.922476,-0.354535,0.074228,-11.147719,-42.979626,62.103493
1703488739.256726,1703488739.257615,121.000000,0.000000,4283.333496,4260.256348,4326.922852,4309.871582,4252.307617,4234.615234,4201.794922,4245.897461,4229.743652,4215.128418,4512.051270,4479.102539,4373.333496,4447.307617,6917.000000,4.000000,96.000000,,,,0.000000,4.000000,4.000000,4.000000,4.000000,4.000000,4.000000,4.000000,4.000000,4.000000,4.000000,4.000000,4.000000,4.000000,4.000000,100.000000,,,,,,,,,,,,,,,,,,,,,,,,,,,,
1703488739.264534,1703488739.265523,122.000000,0.000000,4279.358887,4263.974121,4317.563965,4310.897461,4251.538574,4226.794922,4199.102539,4238.333496,4222.436035,4213.717773,4500.384766,4465.897461,4360.128418,4440.512695,5833.000000,4.000000,96.000000,,,,0.000000,4.000000,4.000000,4.000000,4.000000,4.000000,4.000000,4.000000,4.000000,4.000000,4.000000,4.000000,4.000000,4.000000,4.000000,100.000000,,,,,,,,,,,,,,,,,,,,,,,,,,,,
1703488739.272342,1703488739.273331,123.000000,0.000000,4276.153809,4265.897461,4306.153809,4305.512695,4251.025879,4228.461426,4199.230957,4226.666504,4217.820313,4224.358887,4488.589844,4452.948730,4356.794922,4434.743652,6252.000000,4.000000,96.000000,,,,0.000000,4.000000,4.000000,4.000000,4.000000,4.000000,4.000000,4.000000,4.000000,4.000000,4.000000,4.000000,4.000000,4.000000,4.000000,100.000000,,,,,,,,,,,,,,,,,,,,,,,,,,,,
1703488739.280151,1703488739.281239,124.000000,0.000000,4280.769043,4269.743652,4309.743652,4307.692383,4260.769043,4241.410156,4204.230957,4217.563965,4219.358887,4226.282227,4491.153809,4448.974121,4365.769043,4441.282227,6748.000000,4.000000,96.000000,,,,0.000000,4.000000,4.000000,4.000000,4.000000,4.000000,4.000000,4.000000,4.000000,4.000000,4.000000,4.000000,4.000000,4.000000,4.000000,100.000000,,,,,,,,,,,,,,,,,31.000000,0.000000,0.718678,-0.105774,-0.671631,0.145691,0.926383,-0.347699,0.070809,-11.182947,-43.048328,62.243145
1703488739.287959,1703488739.289047,125.000000,0.000000,4280.256348,4272.948730,4312.692383,4312.051270,4265.256348,4242.820313,4204.487305,4217.692383,4223.205078,4212.563965,4493.205078,4448.717773,4365.512695,4440.769043,6917.000000,4.000000,96.000000,,,,0.000000,4.000000,4.000000,4.000000,4.000000,4.000000,4.000000,4.000000,4.000000,4.000000,4.000000,4.000000,4.000000,4.000000,4.000000,100.000000,,,,,,,,,,,,,,,,,,,,,,,,,,,,
1703488739.295766,1703488739.296855,126.000000,0.000000,4279.743652,4270.384766,4307.436035,4310.897461,4259.487305,4232.563965,4200.897461,4231.282227,4236.025879,4223.205078,4499.871582,4454.487305,4366.282227,4447.051270,5833.000000,4.000000,96.000000,,,,0.000000,4.000000,4.000000,4.000000,4.000000,4.000000,4.000000,4.000000,4.000000,4.000000,4.000000,4.000000,4.000000,4.000000,4.000000,100.000000,,,,,,,,,,,,,,,,,,,,,,,,,,,,
1703488739.303575,1703488739.304563,127.000000,0.000000,4285.000000,4265.641113,4307.692383,4306.025879,4256.025879,4235.641113,4201.153809,4249.358887,4248.846191,4250.384766,4515.897461,4466.282227,4377.436035,4461.025879,96.000000,4.000000,96.000000,,,,0.000000,4.000000,4.000000,4.000000,4.000000,4.000000,4.000000,4.000000,4.000000,4.000000,4.000000,4.000000,4.000000,4.000000,4.000000,100.000000,,,,,,,,,,,,,,,,,,,,,,,,,,,,
1703488739.311383,1703488739.312371,0.000000,0.000000,4279.871582,4269.230957,4311.794922,4305.000000,4259.743652,4249.487305,4205.000000,4260.384766,4255.897461,4252.820313,4521.666504,4474.102539,4379.487305,4458.974121,5437.000000,4.000000,96.000000,,,,0.000000,4.000000,4.000000,4.000000,4.000000,4.000000,4.000000,4.000000,4.000000,4.000000,4.000000,4.000000,4.000000,4.000000,4.000000,100.000000,,,,,,,,,,,,,,,,,0.000000,0.000000,0.718656,-0.105652,-0.671753,0.145325,0.923453,-0.338420,0.072763,-11.164653,-42.993496,62.202164
1703488739.319191,1703488739.320079,1.000000,0.000000,4277.820313,4280.769043,4314.871582,4314.102539,4264.102539,4248.077148,4206.410156,4266.666504,4261.922852,4248.333496,4522.820313,4479.487305,4380.769043,4457.307617,5492.000000,4.000000,96.000000,,,,0.000000,4.000000,4.000000,4.000000,4.000000,4.000000,4.000000,4.000000,4.000000,4.000000,4.000000,4.000000,4.000000,4.000000,4.000000,100.000000,,,,,,,,,,,,,,,,,,,,,,,,,,,,
1703488739.326999,1703488739.327987,2.000000,0.000000,4291.794922,4285.897461,4321.282227,4321.282227,4262.948730,4237.051270,4206.153809,4268.333496,4258.974121,4247.948730,4525.512695,4482.436035,4384.487305,4464.230957,5323.000000,4.000000,96.000000,,,,0.000000,4.000000,4.000000,4.000000,4.000000,4.000000,4.000000,4.000000,4.000000,4.000000,4.000000,4.000000,4.000000,4.000000,4.000000,100.000000,,,,,,,,,,,,,,,,,,,,,,,,,,,,
1703488739.334807,1703488739.335795,3.000000,0.000000,4291.025879,4276.538574,4321.410156,4313.205078,4259.358887,4236.153809,4204.743652,4260.897461,4242.692383,4238.333496,4516.794922,4479.102539,4372.820313,4455.897461,5409.000000,4.000000,96.000000,,,,0.000000,4.000000,4.000000,4.000000,4.000000,4.000000,4.000000,4.000000,4.000000,4.000000,4.000000,4.000000,4.000000,4.000000,4.000000,100.000000,,,,,,,,,,,,,,,,,,,,,,,,,,,,
1703488739.342615,1703488739.343603,4.000000,0.000000,4279.102539,4270.897461,4321.153809,4310.128418,4256.922852,4232.307617,4203.717773,4252.692383,4234.871582,4231.794922,4511.794922,4476.410156,4364.358887,4443.717773,5218.000000,4.000000,96.000000,,,,0.000000,4.000000,4.000000,4.000000,4.000000,4.000000,4.000000,4.000000,4.000000,4.000000,4.000000,4.000000,4.000000,4.000000,4.000000,100.000000,,,,,,,,,,,,,,,,,1.000000,0.000000,0.718907,-0.105225,-0.671631,0.144958,0.923453,-0.339885,0.064949,-11.131520,-42.960812,62.098614
1703488739.350423,1703488739.351311,5.000000,0.000000,4287.436035,4279.743652,4327.307617,4320.512695,4253.846191,4216.922852,4201.538574,4243.974121,4232.307617,4236.282227,4518.974121,4480.128418,4375.384766,4451.794922,5116.000000,4.000000,96.000000,,,,0.000000,4.000000,4.000000,4.000000,4.000000,4.000000,4.000000,4.000000,4.000000,4.000000,4.000000,4.000000,4.000000,4.000000,4.000000,100.000000,,,,,,,,,,,,,,,,,,,,,,,,,,,,
1703488739.358231,1703488739.359219,6.000000,0.000000,4298.974121,4281.282227,4330.897461,4323.589844,4250.641113,4210.897461,4201.922852,4236.666504,4221.282227,4232.436035,4516.538574,4480.512695,4376.538574,4460.512695,2191.000000,4.000000,96.000000,,,,0.000000,4.000000,4.000000,4.000000,4.000000,4.000000,4.000000,4.000000,4.000000,4.000000,4.000000,4.000000,4.000000,4.000000,4.000000,100.000000,,,,,,,,,,,,,,,,,,,,,,,,,,,,
1703488739.366039,1703488739.367027,7.000000,0.000000,4297.563965,4277.051270,4333.205078,4325.128418,4251.538574,4216.666504,4206.922852,4228.077148,4212.820313,4215.897461,4506.666504,4476.282227,4364.615234,4457.436035,5128.000000,4.000000,96.000000,,,,0.000000,4.000000,4.000000,4.000000,4.000000,4.000000,4.000000,4.000000,4.000000,4.000000,4.000000,4.000000,4.000000,4.000000,4.000000,100.000000,,,,,,,,,,,,,,,,,,,,,,,,,,,,
1703488739.373847,1703488739.374934,8.000000,0.000000,4296.153809,4281.282227,4331.666504,4326.538574,4252.051270,4217.692383,4206.922852,4220.512695,4215.512695,4218.589844,4507.436035,4470.641113,4366.410156,4455.000000,5283.000000,4.000000,96.000000,,,,0.000000,4.000000,4.000000,4.000000,4.000000,4.000000,4.000000,4.000000,4.000000,4.000000,4.000000,4.000000,4.000000,4.000000,4.000000,100.000000,,,,,,,,,,,,,,,,,2.000000,0.000000,0.719186,-0.105042,-0.671387,0.144836,0.914174,-0.334513,0.075204,-11.285035,-42.931400,62.088753
1703488739.381655,1703488739.382742,9.000000,0.000000,4290.256348,4281.538574,4318.333496,4314.358887,4250.128418,4222.948730,4206.410156,4219.358887,4217.948730,4229.615234,4507.948730,4464.358887,4371.410156,4453.846191,5307.000000,4.000000,96.000000,,,,0.000000,4.000000,4.000000,4.000000,4.000000,4.000000,4.000000,4.000000,4.000000,4.000000,4.000000,4.000000,4.000000,4.000000,4.000000,100.000000,,,,,,,,,,,,,,,,,,,,,,,,,,,,
1703488739.389463,1703488739.390650,10.000000,0.000000,4279.615234,4270.512695,4305.384766,4302.820313,4254.871582,4236.666504,4212.563965,4224.487305,4214.615234,4220.641113,4505.769043,4466.025879,4367.563965,4452.820313,5841.000000,4.000000,96.000000,,,,0.000000,4.000000,4.000000,4.000000,4.000000,4.000000,4.000000,4.000000,4.000000,4.000000,4.000000,4.000000,4.000000,4.000000,4.000000,100.000000,,,,,,,,,,,,,,,,,,,,,,,,,,,,
1703488739.397271,1703488739.398458,11.000000,0.000000,4280.641113,4264.743652,4310.384766,4304.102539,4258.589844,4241.410156,4215.897461,4236.538574,4216.153809,4211.025879,4509.230957,4470.128418,4366.025879,4451.922852,6264.000000,4.000000,96.000000,,,,0.000000,4.000000,4.000000,4.000000,4.000000,4.000000,4.000000,4.000000,4.000000,4.000000,4.000000,4.000000,4.000000,4.000000,4.000000,100.000000,,,,,,,,,,,,,,,,,,,,,,,,,,,,
1703488739.405079,1703488739.406166,12.000000,0.000000,4278.717773,4263.589844,4312.307617,4299.102539,4252.692383,4241.794922,4212.179688,4245.512695,4221.922852,4213.205078,4503.077148,4461.794922,4361.666504,4442.563965,6756.000000,4.000000,96.000000,,,,0.000000,4.000000,4.000000,4.000000,4.000000,4.000000,4.000000,4.000000,4.000000,4.000000,4.000000,4.000000,4.000000,4.000000,4.000000,100.000000,,,,,,,,,,,,,,,,,3.000000,0.000000,0.719315,-0.105164,-0.671204,0.144958,0.947381,-0.345257,0.067879,-11.289865,-42.871593,62.079876
1703488739.412887,1703488739.413974,13.000000,0.000000,4265.769043,4261.282227,4304.615234,4289.871582,4251.666504,4244.871582,4215.384766,4250.641113,4228.077148,4216.410156,4496.538574,4456.282227,4355.128418,4435.512695,6917.000000,4.000000,96.000000,,,,0.000000,4.000000,4.000000,4.000000,4.000000,4.000000,4.000000,4.000000,4.000000,4.000000,4.000000,4.000000,4.000000,4.000000,4.000000,100.000000,,,,,,,,,,,,,,,,,,,,,,,,,,,,
1703488739.420695,1703488739.421682,14.000000,0.000000,4267.692383,4263.461426,4307.051270,4293.461426,4261.153809,4244.743652,4220.384766,4260.256348,4241.282227,4223.461426,4505.256348,4469.102539,4362.563965,4440.897461,5841.000000,4.000000,96.000000,,,,0.000000,4.000000,4.000000,4.000000,4.000000,4.000000,4.000000,4.000000,4.000000,4.000000,4.000000,4.000000,4.000000,4.000000,4.000000,100.000000,,,,,,,,,,,,,,,,,,,,,,,,,,,,
1703488739.428503,1703488739.429490,15.000000,0.000000,4276.410156,4265.384766,4314.230957,4296.538574,4263.333496,4240.512695,4217.436035,4270.000000,4252.307617,4234.102539,4512.820313,4479.487305,4368.461426,4446.410156,6264.000000,4.000000,96.000000,,,,0.000000,4.000000,4.000000,4.000000,4.000000,4.000000,4.000000,4.000000,4.000000,4.000000,4.000000,4.000000,4.000000,4.000000,4.000000,100.000000,,,,,,,,,,,,,,,,,,,,,,,,,,,,
1703488739.436311,1703488739.437198,16.000000,0.000000,4270.384766,4261.410156,4313.205078,4293.974121,4258.461426,4235.897461,4217.307617,4268.846191,4250.128418,4228.461426,4507.692383,4471.538574,4359.230957,4445.000000,0.000000,4.000000,96.000000,,,,0.000000,4.000000,4.000000,4.000000,4.000000,4.000000,4.000000,4.000000,4.000000,4.000000,4.000000,4.000000,4.000000,4.000000,4.000000,100.000000,,,,,,,,,,,,,,,,,4.000000,0.000000,0.719614,-0.105469,-0.670715,0.145508,0.929313,-0.335002,0.060066,-11.177546,-42.951099,62.221889
1703488739.444119,1703488739.445006,17.000000,0.000000,4267.948730,4261.410156,4310.000000,4301.153809,4260.769043,4233.589844,4219.102539,4258.846191,4243.333496,4218.461426,4505.512695,4464.487305,4359.230957,4441.538574,0.000000,4.000000,96.000000,,,,0.000000,4.000000,4.000000,4.000000,4.000000,4.000000,4.000000,4.000000,4.000000,4.000000,4.000000,4.000000,4.000000,4.000000,4.000000,100.000000,,,,,,,,,,,,,,,,,,,,,,,,,,,,
1703488739.451927,1703488739.452714,18.000000,0.000000,4278.974121,4266.538574,4313.717773,4312.179688,4261.922852,4227.948730,4214.230957,4252.820313,4237.307617,4218.205078,4508.333496,4464.230957,4367.051270,4438.974121,0.000000,4.000000,96.000000,,,,0.000000,4.000000,4.000000,4.000000,4.000000,4.000000,4.000000,4.000000,4.000000,4.000000,4.000000,4.000000,4.000000,4.000000,4.000000,100.000000,,,,,,,,,,,,,,,,,,,,,,,,,,,,
1703488739.459736,1703488739.460522,19.000000,0.000000,4283.333496,4266.153809,4317.307617,4312.436035,4256.794922,4219.358887,4212.948730,4243.717773,4227.820313,4223.589844,4505.384766,4463.846191,4363.589844,4439.102539,0.000000,4.000000,96.000000,,,,0.000000,4.000000,4.000000,4.000000,4.000000,4.000000,4.000000,4.000000,4.000000,4.000000,4.000000,4.000000,4.000000,4.000000,4.000000,100.000000,,,,,,,,,,,,,,,,,,,,,,,,,,,,
1703488739.467543,1703488739.468231,20.000000,0.000000,4279.487305,4264.102539,4320.512695,4308.846191,4252.307617,4216.666504,4216.025879,4231.922852,4225.512695,4226.794922,4505.128418,4465.897461,4362.820313,4441.666504,0.000000,4.000000,96.000000,,,,0.000000,4.000000,4.000000,4.000000,4.000000,4.000000,4.000000,4.000000,4.000000,4.000000,4.000000,4.000000,4.000000,4.000000,4.000000,100.000000,,,,,,,,,,,,,,,,,5.000000,0.000000,0.719601,-0.105408,-0.670593,0.146179,0.923453,-0.367232,0.077646,-11.009790,-43.005989,62.166367
1703488739.475351,1703488739.476039,21.000000,0.000000,4280.000000,4265.512695,4325.128418,4310.641113,4247.179688,4218.461426,4209.743652,4230.512695,4230.384766,4223.205078,4508.333496,4469.358887,4368.974121,4442.563965,0.000000,4.000000,96.000000,,,,0.000000,4.000000,4.000000,4.000000,4.000000,4.000000,4.000000,4.000000,4.000000,4.000000,4.000000,4.000000,4.000000,4.000000,4.000000,100.000000,,,,,,,,,,,,,,,,,,,,,,,,,,,,
1703488739.483160,1703488739.483747,22.000000,0.000000,4282.820313,4267.179688,4321.666504,4313.717773,4245.256348,4213.974121,4204.487305,4240.384766,4232.051270,4223.846191,4509.615234,4472.051270,4369.487305,4444.102539,0.000000,4.000000,96.000000,,,,0.000000,4.000000,4.000000,4.000000,4.000000,4.000000,4.000000,4.000000,4.000000,4.000000,4.000000,4.000000,4.000000,4.000000,4.000000,100.000000,,,,,,,,,,,,,,,,,,,,,,,,,,,,
1703488739.490968,1703488739.491555,23.000000,0.000000,4277.948730,4265.256348,4312.948730,4308.589844,4249.487305,4213.077148,4211.922852,4248.974121,4233.077148,4222.563965,4507.307617,4469.230957,4366.282227,4444.102539,0.000000,4.000000,96.000000,,,,0.000000,4.000000,4.000000,4.000000,4.000000,4.000000,4.000000,4.000000,4.000000,4.000000,4.000000,4.000000,4.000000,4.000000,4.000000,100.000000,1.000000,91.666664,4.000000,4.000000,4.000000,4.000000,4.000000,4.000000,4.000000,3.000000,4.000000,4.000000,4.000000,4.000000,4.000000,4.000000,,,,,,,,,,,,
1703488739.498776,1703488739.499263,24.000000,0.000000,4267.436035,4260.641113,4310.384766,4298.461426,4250.769043,4224.743652,4216.666504,4254.487305,4239.230957,4216.282227,4504.615234,4463.846191,4368.333496,4441.538574,0.000000,4.000000,96.000000,,,,0.000000,4.000000,4.000000,4.000000,4.000000,4.000000,4.000000,4.000000,4.000000,4.000000,4.000000,4.000000,4.000000,4.000000,4.000000,100.000000,,,,,,,,,,,,,,,,,6.000000,0.000000,0.719816,-0.105286,-0.670288,0.146606,0.927848,-0.361372,0.077646,-10.958812,-43.022057,62.283062
1703488739.506584,1703488739.507170,25.000000,0.000000,4267.307617,4260.128418,4312.948730,4293.461426,4249.230957,4235.641113,4213.974121,4264.487305,4250.384766,4222.436035,4508.846191,4468.717773,4369.487305,4446.410156,0.000000,4.000000,96.000000,,,,0.000000,4.000000,4.000000,4.000000,4.000000,4.000000,4.000000,4.000000,4.000000,4.000000,4.000000,4.000000,4.000000,4.000000,4.000000,100.000000,,,,,,,,,,,,,,,,,,,,,,,,,,,,
1703488739.514392,1703488739.514978,26.000000,0.000000,4268.077148,4259.487305,4308.589844,4294.358887,4255.769043,4243.333496,4214.102539,4270.256348,4253.077148,4228.205078,4504.743652,4469.871582,4360.512695,4444.102539,0.000000,4.000000,96.000000,,,,0.000000,4.000000,4.000000,4.000000,4.000000,4.000000,4.000000,4.000000,4.000000,4.000000,4.000000,4.000000,4.000000,4.000000,4.000000,100.000000,,,,,,,,,,,,,,,,,,,,,,,,,,,,
1703488739.522200,1703488739.522886,27.000000,0.000000,4267.692383,4262.051270,4304.743652,4297.948730,4262.820313,4250.256348,4220.000000,4263.846191,4242.051270,4215.641113,4491.410156,4461.538574,4351.922852,4436.282227,0.000000,4.000000,96.000000,,,,0.000000,4.000000,4.000000,4.000000,4.000000,4.000000,4.000000,4.000000,4.000000,4.000000,4.000000,4.000000,4.000000,4.000000,4.000000,100.000000,,,,,,,,,,,,,,,,,,,,,,,,,,,,
1703488739.530008,1703488739.530694,28.000000,0.000000,4286.794922,4274.871582,4315.897461,4306.794922,4263.205078,4249.871582,4222.820313,4254.102539,4240.000000,4212.563965,4495.641113,4465.641113,4360.128418,4450.641113,0.000000,4.000000,96.000000,,,,0.000000,4.000000,4.000000,4.000000,4.000000,4.000000,4.000000,4.000000,4.000000,4.000000,4.000000,4.000000,4.000000,4.000000,4.000000,100.000000,,,,,,,,,,,,,,,,,7.000000,0.000000,0.719889,-0.105347,-0.670227,0.146484,0.927359,-0.353559,0.074228,-11.079597,-43.036518,62.254757
1703488739.537816,1703488739.538502,29.000000,0.000000,4296.153809,4282.307617,4320.512695,4313.589844,4264.230957,4247.307617,4222.820313,4249.487305,4248.846191,4227.436035,4507.563965,4473.717773,4367.563965,4459.487305,0.000000,4.000000,96.000000,,,,0.000000,4.000000,4.000000,4.000000,4.000000,4.000000,4.000000,4.000000,4.000000,4.000000,4.000000,4.000000,4.000000,4.000000,4.000000,100.000000,,,,,,,,,,,,,,,,,,,,,,,,,,,,
1703488739.545624,1703488739.546210,30.000000,0.000000,4283.589844,4278.846191,4310.641113,4311.666504,4265.641113,4249.615234,4225.641113,4245.769043,4241.922852,4227.692383,4504.230957,4467.820313,4363.333496,4447.692383,0.000000,4.000000,96.000000,,,,0.000000,4.000000,4.000000,4.000000,4.000000,4.000000,4.000000,4.000000,4.000000,4.000000,4.000000,4.000000,4.000000,4.000000,4.000000,100.000000,,,,,,,,,,,,,,,,,,,,,,,,,,,,
1703488739.553432,1703488739.554118,31.000000,0.000000,4287.820313,4278.974121,4310.256348,4310.641113,4265.512695,4247.948730,4226.922852,4232.692383,4222.307617,4217.436035,4500.897461,4463.717773,4368.205078,4451.538574,0.000000,4.000000,96.000000,,,,0.000000,4.000000,4.000000,4.000000,4.000000,4.000000,4.000000,4.000000,4.000000,4.000000,4.000000,4.000000,4.000000,4.000000,4.000000,100.000000,,,,,,,,,,,,,,,,,,,,,,,,,,,,
1703488739.561240,1703488739.561926,32.000000,0.000000,4302.179688,4282.820313,4316.538574,4311.538574,4264.615234,4237.820313,4226.410156,4210.769043,4209.230957,4211.922852,4505.512695,4464.743652,4375.897461,4464.743652,0.000000,4.000000,96.000000,,,,0.000000,4.000000,4.000000,4.000000,4.000000,4.000000,4.000000,4.000000,4.000000,4.000000,4.000000,4.000000,4.000000,4.000000,4.000000,100.000000,,,,,,,,,,,,,,,,,8.000000,0.000000,0.719846,-0.105286,-0.670349,0.146179,0.923941,-0.340862,0.075204,-11.204970,-42.982868,62.245949
1703488739.569048,1703488739.569834,33.000000,0.000000,4299.871582,4281.282227,4315.512695,4311.922852,4262.307617,4232.436035,4225.256348,4202.563965,4206.666504,4210.897461,4505.000000,4463.333496,4374.487305,4463.717773,0.000000,4.000000,96.000000,,,,0.000000,4.000000,4.000000,4.000000,4.000000,4.000000,4.000000,4.000000,4.000000,4.000000,4.000000,4.000000,4.000000,4.000000,4.000000,100.000000,,,,,,,,,,,,,,,,,,,,,,,,,,,,
1703488739.576856,1703488739.577642,34.000000,0.000000,4291.153809,4275.000000,4315.256348,4308.589844,4258.077148,4232.436035,4221.153809,4216.025879,4212.563965,4214.487305,4505.128418,4467.436035,4374.358887,4458.461426,0.000000,4.000000,96.000000,,,,0.000000,4.000000,4.000000,4.000000,4.000000,4.000000,4.000000,4.000000,4.000000,4.000000,4.000000,4.000000,4.000000,4.000000,4.000000,100.000000,,,,,,,,,,,,,,,,,,,,,,,,,,,,
1703488739.584664,1703488739.585550,35.000000,0.000000,4282.948730,4262.436035,4314.102539,4298.205078,4252.692383,4230.128418,4222.436035,4232.051270,4220.000000,4212.820313,4505.897461,4470.769043,4370.384766,4450.000000,0.000000,4.000000,96.000000,,,,0.000000,4.000000,4.000000,4.000000,4.000000,4.000000,4.000000,4.000000,4.000000,4.000000,4.000000,4.000000,4.000000,4.000000,4.000000,100.000000,,,,,,,,,,,,,,,,,,,,,,,,,,,,
1703488739.592472,1703488739.593358,36.000000,0.000000,4274.487305,4248.461426,4307.436035,4291.282227,4245.000000,4228.974121,4226.538574,4242.948730,4227.948730,4214.487305,4502.692383,4470.769043,4360.384766,4440.256348,0.000000,4.000000,96.000000,,,,0.000000,4.000000,4.000000,4.000000,4.000000,4.000000,4.000000,4.000000,4.000000,4.000000,4.000000,4.000000,4.000000,4.000000,4.000000,100.000000,,,,,,,,,,,,,,,,,9.000000,0.000000,0.719819,-0.105286,-0.670471,0.145752,0.916616,-0.345257,0.072763,-11.151140,-42.851246,62.154686
1703488739.600280,1703488739.601066,37.000000,0.000000,4272.948730,4247.948730,4308.974121,4293.717773,4238.846191,4231.153809,4222.179688,4255.384766,4243.077148,4225.384766,4505.641113,4474.871582,4362.307617,4446.538574,0.000000,4.000000,96.000000,,,,0.000000,4.000000,4.000000,4.000000,4.000000,4.000000,4.000000,4.000000,4.000000,4.000000,4.000000,4.000000,4.000000,4.000000,4.000000,100.000000,,,,,,,,,,,,,,,,,,,,,,,,,,,,
1703488739.608088,1703488739.608874,38.000000,0.000000,4275.512695,4256.410156,4312.948730,4296.282227,4244.358887,4232.179688,4220.384766,4266.025879,4252.820313,4226.025879,4511.282227,4477.692383,4373.205078,4452.820313,0.000000,4.000000,96.000000,,,,0.000000,4.000000,4.000000,4.000000,4.000000,4.000000,4.000000,4.000000,4.000000,4.000000,4.000000,4.000000,4.000000,4.000000,4.000000,100.000000,,,,,,,,,,,,,,,,,,,,,,,,,,,,
1703488739.615896,1703488739.616582,39.000000,0.000000,4279.615234,4264.358887,4309.358887,4297.692383,4257.692383,4237.948730,4232.179688,4268.461426,4249.230957,4219.871582,4511.794922,4477.051270,4377.307617,4450.769043,0.000000,4.000000,96.000000,,,,0.000000,4.000000,4.000000,4.000000,4.000000,4.000000,4.000000,4.000000,4.000000,4.000000,4.000000,4.000000,4.000000,4.000000,4.000000,100.000000,,,,,,,,,,,,,,,,,,,,,,,,,,,,
1703488739.623704,1703488739.624390,40.000000,0.000000,4274.871582,4265.256348,4307.436035,4302.563965,4265.897461,4246.153809,4235.128418,4263.846191,4248.974121,4229.230957,4509.743652,4474.358887,4373.717773,4448.974121,0.000000,4.000000,96.000000,,,,0.000000,4.000000,4.000000,4.000000,4.000000,4.000000,4.000000,4.000000,4.000000,4.000000,4.000000,4.000000,4.000000,4.000000,4.000000,100.000000,,,,,,,,,,,,,,,,,10.000000,0.000000,0.719808,-0.105225,-0.670532,0.145569,0.923941,-0.339397,0.074228,-11.202693,-42.966122,62.055885
1703488739.631512,1703488739.632098,41.000000,0.000000,4263.974121,4260.256348,4309.615234,4303.717773,4266.410156,4248.974121,4231.538574,4255.512695,4249.358887,4234.487305,4508.461426,4466.794922,4370.512695,4444.230957,0.000000,4.000000,96.000000,,,,0.000000,4.000000,4.000000,4.000000,4.000000,4.000000,4.000000,4.000000,4.000000,4.000000,4.000000,4.000000,4.000000,4.000000,4.000000,100.000000,,,,,,,,,,,,,,,,,,,,,,,,,,,,
1703488739.639320,1703488739.639906,42.000000,0.000000,4275.256348,4261.410156,4310.256348,4303.205078,4264.743652,4247.307617,4234.871582,4242.051270,4236.153809,4218.974121,4505.128418,4462.948730,4371.282227,4442.436035,0.000000,4.000000,96.000000,,,,0.000000,4.000000,4.000000,4.000000,4.000000,4.000000,4.000000,4.000000,4.000000,4.000000,4.000000,4.000000,4.000000,4.000000,4.000000,100.000000,,,,,,,,,,,,,,,,,,,,,,,,,,,,
1703488739.647128,1703488739.647614,43.000000,0.000000,4284.487305,4267.436035,4307.563965,4308.077148,4264.102539,4241.666504,4232.436035,4226.794922,4216.410156,4206.538574,4497.179688,4458.077148,4370.256348,4439.230957,0.000000,4.000000,96.000000,,,,0.000000,4.000000,4.000000,4.000000,4.000000,4.000000,4.000000,4.000000,4.000000,4.000000,4.000000,4.000000,4.000000,4.000000,4.000000,100.000000,,,,,,,,,,,,,,,,,,,,,,,,,,,,
1703488739.654936,1703488739.655422,44.000000,0.000000,4256.282227,4263.717773,4308.077148,4305.641113,4264.743652,4239.743652,4228.717773,4207.948730,4200.512695,4206.666504,4487.948730,4446.153809,4363.077148,4427.692383,0.000000,4.000000,96.000000,,,,0.000000,4.000000,4.000000,4.000000,4.000000,4.000000,4.000000,4.000000,4.000000,4.000000,4.000000,4.000000,4.000000,4.000000,4.000000,100.000000,,,,,,,,,,,,,,,,,11.000000,0.000000,0.719941,-0.105042,-0.670471,0.145325,0.917104,-0.341350,0.061531,-11.215757,-43.019508,62.100296
1703488739.662745,1703488739.663130,45.000000,0.000000,4248.205078,4257.948730,4310.897461,4295.256348,4265.512695,4244.743652,4232.563965,4194.615234,4192.820313,4207.436035,4486.538574,4442.948730,4362.692383,4426.794922,0.000000,4.000000,96.000000,,,,0.000000,4.000000,4.000000,4.000000,4.000000,4.000000,4.000000,4.000000,4.000000,4.000000,4.000000,4.000000,4.000000,4.000000,4.000000,100.000000,,,,,,,,,,,,,,,,,,,,,,,,,,,,
1703488739.670553,1703488739.670938,46.000000,0.000000,4296.922852,4275.000000,4309.487305,4298.461426,4267.051270,4245.769043,4234.871582,4202.436035,4206.666504,4220.769043,4505.128418,4460.000000,4376.794922,4442.692383,0.000000,4.000000,96.000000,,,,0.000000,4.000000,4.000000,4.000000,4.000000,4.000000,4.000000,4.000000,4.000000,4.000000,4.000000,4.000000,4.000000,4.000000,4.000000,100.000000,,,,,,,,,,,,,,,,,,,,,,,,,,,,
1703488739.678361,1703488739.678646,47.000000,0.000000,4328.589844,4296.794922,4310.641113,4312.948730,4272.436035,4242.692383,4235.897461,4219.102539,4228.333496,4237.436035,4522.948730,4476.666504,4388.205078,4451.410156,0.000000,4.000000,96.000000,,,,0.000000,4.000000,4.000000,4.000000,4.000000,4.000000,4.000000,4.000000,4.000000,4.000000,4.000000,4.000000,4.000000,4.000000,4.000000,100.000000,,,,,,,,,,,,,,,,,,,,,,,,,,,,
1703488739.686169,1703488739.686454,48.000000,0.000000,4307.436035,4290.128418,4316.282227,4315.128418,4276.025879,4247.051270,4242.563965,4226.794922,4232.179688,4230.000000,4515.897461,4473.461426,4381.410156,4443.077148,0.000000,4.000000,96.000000,,,,0.000000,4.000000,4.000000,4.000000,4.000000,4.000000,4.000000,4.000000,4.000000,4.000000,4.000000,4.000000,4.000000,4.000000,4.000000,100.000000,,,,,,,,,,,,,,,,,12.000000,0.000000,0.720214,-0.104675,-0.670288,0.145081,0.926383,-0.333537,0.076181,-11.360848,-43.034225,62.090267
1703488739.693977,1703488739.694162,49.000000,0.000000,4290.000000,4276.922852,4316.538574,4310.000000,4276.794922,4251.025879,4247.948730,4236.666504,4235.000000,4221.410156,4511.538574,4472.051270,4377.179688,4438.717773,0.000000,4.000000,96.000000,,,,0.000000,4.000000,4.000000,4.000000,4.000000,4.000000,4.000000,4.000000,4.000000,4.000000,4.000000,4.000000,4.000000,4.000000,4.000000,100.000000,,,,,,,,,,,,,,,,,,,,,,,,,,,,
1703488739.701785,1703488739.702070,50.000000,0.000000,4298.974121,4281.794922,4317.436035,4311.666504,4276.922852,4248.333496,4246.538574,4255.128418,4249.871582,4231.282227,4521.410156,4482.179688,4380.641113,4444.358887,0.000000,4.000000,96.000000,,,,0.000000,4.000000,4.000000,4.000000,4.000000,4.000000,4.000000,4.000000,4.000000,4.000000,4.000000,4.000000,4.000000,4.000000,4.000000,100.000000,,,,,,,,,,,,,,,,,,,,,,,,,,,,
1703488739.709593,1703488739.709878,51.000000,0.000000,4297.051270,4283.974121,4320.000000,4307.820313,4271.153809,4246.794922,4245.128418,4261.153809,4253.589844,4228.717773,4515.000000,4479.230957,4370.256348,4440.641113,0.000000,4.000000,96.000000,,,,0.000000,4.000000,4.000000,4.000000,4.000000,4.000000,4.000000,4.000000,4.000000,4.000000,4.000000,4.000000,4.000000,4.000000,4.000000,100.000000,,,,,,,,,,,,,,,,,,,,,,,,,,,,
1703488739.717401,1703488739.717786,52.000000,0.000000,4282.307617,4275.000000,4315.000000,4299.615234,4262.692383,4246.538574,4246.538574,4259.871582,4246.794922,4214.487305,4501.538574,4468.333496,4359.230957,4427.179688,0.000000,4.000000,96.000000,,,,0.000000,4.000000,4.000000,4.000000,4.000000,4.000000,4.000000,4.000000,4.000000,4.000000,4.000000,4.000000,4.000000,4.000000,4.000000,100.000000,,,,,,,,,,,,,,,,,13.000000,0.000000,0.720257,-0.104553,-0.670288,0.144958,0.937126,-0.353070,0.071298,-11.424763,-42.897469,61.931240
1703488739.725209,1703488739.725594,53.000000,0.000000,4278.589844,4273.589844,4310.384766,4298.461426,4262.051270,4247.820313,4246.922852,4266.666504,4250.128418,4222.820313,4508.205078,4470.897461,4366.922852,4425.384766,0.000000,4.000000,96.000000,,,,0.000000,4.000000,4.000000,4.000000,4.000000,4.000000,4.000000,4.000000,4.000000,4.000000,4.000000,4.000000,4.000000,4.000000,4.000000,100.000000,,,,,,,,,,,,,,,,,,,,,,,,,,,,
1703488739.733017,1703488739.733502,54.000000,0.000000,4278.717773,4275.000000,4306.153809,4296.153809,4264.102539,4246.282227,4247.820313,4263.846191,4248.717773,4229.358887,4510.128418,4469.358887,4368.205078,4425.256348,0.000000,4.000000,96.000000,,,,0.000000,4.000000,4.000000,4.000000,4.000000,4.000000,4.000000,4.000000,4.000000,4.000000,4.000000,4.000000,4.000000,4.000000,4.000000,100.000000,,,,,,,,,,,,,,,,,,,,,,,,,,,,
1703488739.740825,1703488739.741310,55.000000,0.000000,4279.743652,4271.794922,4299.102539,4291.025879,4263.333496,4242.820313,4250.384766,4249.487305,4231.922852,4213.333496,4497.307617,4457.436035,4358.974121,4414.743652,0.000000,4.000000,96.000000,,,,0.000000,4.000000,4.000000,4.000000,4.000000,4.000000,4.000000,4.000000,4.000000,4.000000,4.000000,4.000000,4.000000,4.000000,4.000000,100.000000,,,,,,,,,,,,,,,,,,,,,,,,,,,,
1703488739.748633,1703488739.749218,56.000000,0.000000,4286.538574,4274.615234,4298.589844,4292.948730,4264.102539,4242.179688,4248.589844,4234.871582,4215.769043,4200.897461,4491.153809,4451.282227,4356.025879,4410.128418,0.000000,4.000000,96.000000,,,,0.000000,4.000000,4.000000,4.000000,4.000000,4.000000,4.000000,4.000000,4.000000,4.000000,4.000000,4.000000,4.000000,4.000000,4.000000,100.000000,,,,,,,,,,,,,,,,,14.000000,0.000000,0.720276,-0.104675,-0.670288,0.144775,0.921011,-0.333048,0.079111,-11.482286,-43.107723,61.871449
1703488739.756441,1703488739.757026,57.000000,0.000000,4285.128418,4278.461426,4301.922852,4294.871582,4267.179688,4243.589844,4247.692383,4218.333496,4200.897461,4193.333496,4486.153809,4444.871582,4351.666504,4410.128418,0.000000,4.000000,96.000000,,,,0.000000,4.000000,4.000000,4.000000,4.000000,4.000000,4.000000,4.000000,4.000000,4.000000,4.000000,4.000000,4.000000,4.000000,4.000000,100.000000,,,,,,,,,,,,,,,,,,,,,,,,,,,,
1703488739.764249,1703488739.764933,58.000000,0.000000,4282.179688,4278.846191,4306.794922,4295.000000,4276.538574,4247.820313,4255.512695,4210.000000,4194.487305,4199.102539,4489.230957,4442.948730,4354.487305,4413.333496,0.000000,4.000000,96.000000,,,,0.000000,4.000000,4.000000,4.000000,4.000000,4.000000,4.000000,4.000000,4.000000,4.000000,4.000000,4.000000,4.000000,4.000000,4.000000,100.000000,,,,,,,,,,,,,,,,,,,,,,,,,,,,
1703488739.772057,1703488739.772741,59.000000,0.000000,4297.051270,4286.410156,4318.205078,4306.410156,4280.128418,4245.641113,4256.025879,4218.974121,4206.282227,4217.563965,4506.410156,4463.077148,4374.102539,4427.948730,0.000000,4.000000,96.000000,,,,0.000000,4.000000,4.000000,4.000000,4.000000,4.000000,4.000000,4.000000,4.000000,4.000000,4.000000,4.000000,4.000000,4.000000,4.000000,100.000000,,,,,,,,,,,,,,,,,,,,,,,,,,,,
1703488739.779865,1703488739.780649,60.000000,0.000000,4307.307617,4293.205078,4326.538574,4311.282227,4269.358887,4233.077148,4250.384766,4229.102539,4214.743652,4214.615234,4513.846191,4480.000000,4380.128418,4436.025879,0.000000,4.000000,96.000000,,,,0.000000,4.000000,4.000000,4.000000,4.000000,4.000000,4.000000,4.000000,4.000000,4.000000,4.000000,4.000000,4.000000,4.000000,4.000000,100.000000,,,,,,,,,,,,,,,,,15.000000,0.000000,0.720274,-0.104858,-0.670288,0.144653,0.935661,-0.332560,0.063484,-11.250725,-43.030285,61.884304
1703488739.787673,1703488739.788457,61.000000,0.000000,4299.615234,4288.205078,4323.717773,4301.794922,4262.692383,4229.358887,4251.922852,4235.256348,4212.820313,4202.051270,4506.025879,4475.000000,4368.461426,4429.230957,0.000000,4.000000,96.000000,,,,0.000000,4.000000,4.000000,4.000000,4.000000,4.000000,4.000000,4.000000,4.000000,4.000000,4.000000,4.000000,4.000000,4.000000,4.000000,100.000000,,,,,,,,,,,,,,,,,,,,,,,,,,,,
1703488739.795481,1703488739.796365,62.000000,0.000000,4293.717773,4281.282227,4316.922852,4297.563965,4265.769043,4240.256348,4253.333496,4249.230957,4224.871582,4213.974121,4505.641113,4475.641113,4365.769043,4427.820313,0.000000,4.000000,96.000000,,,,0.000000,4.000000,4.000000,4.000000,4.000000,4.000000,4.000000,4.000000,4.000000,4.000000,4.000000,4.000000,4.000000,4.000000,4.000000,100.000000,,,,,,,,,,,,,,,,,,,,,,,,,,,,
1703488739.803289,1703488739.804173,63.000000,0.000000,4288.717773,4277.948730,4311.794922,4297.563965,4265.256348,4246.794922,4256.282227,4263.077148,4245.897461,4225.769043,4511.282227,4482.051270,4369.102539,4427.820313,0.000000,4.000000,96.000000,,,,0.000000,4.000000,4.000000,4.000000,4.000000,4.000000,4.000000,4.000000,4.000000,4.000000,4.000000,4.000000,4.000000,4.000000,4.000000,100.000000,,,,,,,,,,,,,,,,,,,,,,,,,,,,
1703488739.811097,1703488739.811881,64.000000,0.000000,4285.128418,4279.487305,4306.666504,4296.153809,4264.871582,4245.384766,4259.615234,4265.641113,4250.000000,4218.589844,4507.307617,4475.256348,4365.384766,4418.846191,5437.000000,4.000000,96.000000,,,,0.000000,4.000000,4.000000,4.000000,4.000000,4.000000,4.000000,4.000000,4.000000,4.000000,4.000000,4.000000,4.000000,4.000000,4.000000,100.000000,,,,,,,,,,,,,,,,,16.000000,0.000000,0.720124,-0.105103,-0.670410,0.144653,0.925406,-0.345257,0.074716,-11.392319,-43.077255,61.895874
1703488739.818905,1703488739.819689,65.000000,0.000000,4285.384766,4278.333496,4302.563965,4295.256348,4266.410156,4246.153809,4258.077148,4263.974121,4248.717773,4225.641113,4504.743652,4469.230957,4360.128418,4415.512695,5492.000000,4.000000,96.000000,,,,0.000000,4.000000,4.000000,4.000000,4.000000,4.000000,4.000000,4.000000,4.000000,4.000000,4.000000,4.000000,4.000000,4.000000,4.000000,100.000000,,,,,,,,,,,,,,,,,,,,,,,,,,,,
1703488739.826713,1703488739.827397,66.000000,0.000000,4280.769043,4270.000000,4302.436035,4291.538574,4265.384766,4248.205078,4256.794922,4262.692383,4254.615234,4239.230957,4506.794922,4472.436035,4357.436035,4416.282227,5327.000000,4.000000,96.000000,,,,0.000000,4.000000,4.000000,4.000000,4.000000,4.000000,4.000000,4.000000,4.000000,4.000000,4.000000,4.000000,4.000000,4.000000,4.000000,100.000000,,,,,,,,,,,,,,,,,,,,,,,,,,,,
1703488739.834521,1703488739.835305,67.000000,0.000000,4281.282227,4269.487305,4307.948730,4289.102539,4270.128418,4250.256348,4256.282227,4256.282227,4249.487305,4229.358887,4507.051270,4470.641113,4359.487305,4411.666504,5407.000000,4.000000,96.000000,,,,0.000000,4.000000,4.000000,4.000000,4.000000,4.000000,4.000000,4.000000,4.000000,4.000000,4.000000,4.000000,4.000000,4.000000,4.000000,100.000000,,,,,,,,,,,,,,,,,,,,,,,,,,,,
1703488739.842330,1703488739.843113,68.000000,0.000000,4291.538574,4277.692383,4310.897461,4293.846191,4277.051270,4247.948730,4256.666504,4241.666504,4233.461426,4215.384766,4506.666504,4464.358887,4369.102539,4414.871582,5218.000000,4.000000,96.000000,,,,0.000000,4.000000,4.000000,4.000000,4.000000,4.000000,4.000000,4.000000,4.000000,4.000000,4.000000,4.000000,4.000000,4.000000,4.000000,100.000000,,,,,,,,,,,,,,,,,17.000000,0.000000,0.719965,-0.105164,-0.670532,0.144836,0.929801,-0.324747,0.073739,-11.469754,-43.119530,61.822952
1703488739.850138,1703488739.851021,69.000000,0.000000,4301.282227,4281.410156,4314.230957,4300.769043,4275.256348,4237.307617,4257.692383,4229.230957,4222.563965,4215.641113,4507.563965,4468.846191,4376.025879,4427.820313,5116.000000,4.000000,96.000000,,,,0.000000,4.000000,4.000000,4.000000,4.000000,4.000000,4.000000,4.000000,4.000000,4.000000,4.000000,4.000000,4.000000,4.000000,4.000000,100.000000,,,,,,,,,,,,,,,,,,,,,,,,,,,,
1703488739.857946,1703488739.858829,70.000000,0.000000,4309.871582,4287.051270,4326.025879,4307.692383,4274.487305,4230.512695,4254.615234,4228.974121,4218.589844,4219.743652,4515.256348,4484.102539,4372.436035,4436.922852,2191.000000,4.000000,96.000000,,,,0.000000,4.000000,4.000000,4.000000,4.000000,4.000000,4.000000,4.000000,4.000000,4.000000,4.000000,4.000000,4.000000,4.000000,4.000000,100.000000,,,,,,,,,,,,,,,,,,,,,,,,,,,,
1703488739.865754,1703488739.866737,71.000000,0.000000,4316.282227,4297.051270,4333.333496,4314.487305,4278.333496,4232.563965,4253.589844,4232.948730,4214.487305,4219.871582,4521.666504,4492.436035,4373.589844,4443.846191,5128.000000,4.000000,96.000000,,,,0.000000,4.000000,4.000000,4.000000,4.000000,4.000000,4.000000,4.000000,4.000000,4.000000,4.000000,4.000000,4.000000,4.000000,4.000000,100.000000,,,,,,,,,,,,,,,,,,,,,,,,,,,,
1703488739.873562,1703488739.874545,72.000000,0.000000,4313.333496,4295.512695,4326.153809,4313.077148,4281.025879,4232.948730,4261.666504,4231.282227,4210.769043,4218.461426,4514.358887,4485.256348,4377.051270,4445.000000,5278.000000,4.000000,96.000000,,,,0.000000,4.000000,4.000000,4.000000,4.000000,4.000000,4.000000,4.000000,4.000000,4.000000,4.000000,4.000000,4.000000,4.000000,4.000000,100.000000,,,,,,,,,,,,,,,,,18.000000,0.000000,0.719905,-0.105408,-0.670532,0.144958,0.927848,-0.337444,0.079111,-11.422778,-43.090912,61.857323
1703488739.881370,1703488739.882453,73.000000,0.000000,4307.436035,4289.743652,4316.282227,4308.846191,4277.820313,4228.846191,4257.051270,4225.641113,4210.128418,4210.512695,4502.820313,4475.256348,4365.384766,4431.922852,5323.000000,4.000000,96.000000,,,,0.000000,4.000000,4.000000,4.000000,4.000000,4.000000,4.000000,4.000000,4.000000,4.000000,4.000000,4.000000,4.000000,4.000000,4.000000,100.000000,,,,,,,,,,,,,,,,,,,,,,,,,,,,
1703488739.889178,1703488739.890261,74.000000,0.000000,4309.358887,4290.384766,4314.358887,4307.563965,4270.512695,4227.051270,4245.384766,4229.743652,4215.641113,4203.461426,4503.974121,4474.615234,4357.436035,4422.436035,5843.000000,4.000000,96.000000,,,,0.000000,4.000000,4.000000,4.000000,4.000000,4.000000,4.000000,4.000000,4.000000,4.000000,4.000000,4.000000,4.000000,4.000000,4.000000,100.000000,,,,,,,,,,,,,,,,,,,,,,,,,,,,
1703488739.896986,1703488739.898168,75.000000,0.000000,4306.538574,4281.922852,4314.487305,4301.153809,4268.461426,4230.512695,4248.077148,4241.794922,4229.230957,4211.538574,4508.717773,4473.205078,4369.615234,4428.589844,6265.000000,4.000000,96.000000,,,,0.000000,4.000000,4.000000,4.000000,4.000000,4.000000,4.000000,4.000000,4.000000,4.000000,4.000000,4.000000,4.000000,4.000000,4.000000,100.000000,,,,,,,,,,,,,,,,,,,,,,,,,,,,
1703488739.904794,1703488739.905976,76.000000,0.000000,4293.846191,4269.743652,4310.512695,4294.102539,4274.871582,4234.871582,4249.358887,4249.743652,4243.077148,4228.461426,4506.922852,4468.077148,4374.487305,4429.615234,6758.000000,4.000000,96.000000,,,,0.000000,4.000000,4.000000,4.000000,4.000000,4.000000,4.000000,4.000000,4.000000,4.000000,4.000000,4.000000,4.000000,4.000000,4.000000,100.000000,,,,,,,,,,,,,,,,,19.000000,0.000000,0.719775,-0.105347,-0.670654,0.145081,0.947381,-0.337932,0.072274,-11.497168,-43.048485,61.921593
1703488739.912602,1703488739.913784,77.000000,0.000000,4293.974121,4273.717773,4310.384766,4298.077148,4278.077148,4236.410156,4247.051270,4257.692383,4251.794922,4235.897461,4508.333496,4472.563965,4365.512695,4424.487305,6917.000000,4.000000,96.000000,,,,0.000000,4.000000,4.000000,4.000000,4.000000,4.000000,4.000000,4.000000,4.000000,4.000000,4.000000,4.000000,4.000000,4.000000,4.000000,100.000000,,,,,,,,,,,,,,,,,,,,,,,,,,,,
1703488739.920410,1703488739.921492,78.000000,0.000000,4306.282227,4285.641113,4314.102539,4302.820313,4276.794922,4234.871582,4248.077148,4263.333496,4251.794922,4229.743652,4509.358887,4479.358887,4366.410156,4427.179688,5843.000000,4.000000,96.000000,,,,0.000000,4.000000,4.000000,4.000000,4.000000,4.000000,4.000000,4.000000,4.000000,4.000000,4.000000,4.000000,4.000000,4.000000,4.000000,100.000000,,,,,,,,,,,,,,,,,,,,,,,,,,,,
1703488739.928218,1703488739.929400,79.000000,0.000000,4301.922852,4283.461426,4312.307617,4297.563965,4278.461426,4235.000000,4247.820313,4259.230957,4252.307617,4228.846191,4507.307617,4476.922852,4372.307617,4425.897461,6265.000000,4.000000,96.000000,,,,0.000000,4.000000,4.000000,4.000000,4.000000,4.000000,4.000000,4.000000,4.000000,4.000000,4.000000,4.000000,4.000000,4.000000,4.000000,100.000000,,,,,,,,,,,,,,,,,,,,,,,,,,,,
1703488739.936026,1703488739.937208,80.000000,0.000000,4289.615234,4276.282227,4307.436035,4292.179688,4276.538574,4236.282227,4248.717773,4248.333496,4255.384766,4239.358887,4510.128418,4468.974121,4370.000000,4413.717773,6758.000000,4.000000,96.000000,,,,0.000000,4.000000,4.000000,4.000000,4.000000,4.000000,4.000000,4.000000,4.000000,4.000000,4.000000,4.000000,4.000000,4.000000,4.000000,100.000000,,,,,,,,,,,,,,,,,20.000000,0.000000,0.719793,-0.105225,-0.670654,0.145081,0.918569,-0.354047,0.068368,-11.397450,-43.010303,61.846100
1703488739.943834,1703488739.945116,81.000000,0.000000,4291.538574,4275.128418,4306.922852,4289.615234,4273.717773,4231.153809,4250.769043,4232.820313,4241.410156,4235.512695,4505.769043,4461.538574,4363.589844,4404.743652,6917.000000,4.000000,96.000000,,,,0.000000,4.000000,4.000000,4.000000,4.000000,4.000000,4.000000,4.000000,4.000000,4.000000,4.000000,4.000000,4.000000,4.000000,4.000000,100.000000,,,,,,,,,,,,,,,,,,,,,,,,,,,,
1703488739.951642,1703488739.952924,82.000000,0.000000,4287.692383,4268.846191,4307.051270,4287.179688,4274.487305,4221.410156,4245.769043,4217.307617,4217.692383,4215.897461,4491.025879,4458.077148,4355.897461,4400.000000,5843.000000,4.000000,96.000000,,,,0.000000,4.000000,4.000000,4.000000,4.000000,4.000000,4.000000,4.000000,4.000000,4.000000,4.000000,4.000000,4.000000,4.000000,4.000000,100.000000,,,,,,,,,,,,,,,,,,,,,,,,,,,,
1703488739.959450,1703488739.960832,83.000000,0.000000,4278.589844,4260.384766,4306.538574,4286.282227,4268.846191,4215.384766,4240.769043,4212.051270,4210.128418,4208.077148,4492.051270,4459.615234,4354.230957,4396.794922,6265.000000,4.000000,96.000000,,,,0.000000,4.000000,4.000000,4.000000,4.000000,4.000000,4.000000,4.000000,4.000000,4.000000,4.000000,4.000000,4.000000,4.000000,4.000000,100.000000,,,,,,,,,,,,,,,,,,,,,,,,,,,,
1703488739.967258,1703488739.968640,84.000000,0.000000,4286.025879,4267.307617,4306.922852,4286.666504,4265.512695,4217.179688,4243.717773,4214.871582,4213.077148,4218.333496,4506.153809,4466.922852,4362.179688,4403.974121,6758.000000,4.000000,96.000000,,,,0.000000,4.000000,4.000000,4.000000,4.000000,4.000000,4.000000,4.000000,4.000000,4.000000,4.000000,4.000000,4.000000,4.000000,4.000000,100.000000,,,,,,,,,,,,,,,,,21.000000,0.000000,0.719747,-0.105591,-0.670593,0.145325,0.930778,-0.356489,0.067391,-11.457705,-43.075939,61.878155
1703488739.975066,1703488739.976448,85.000000,0.000000,4296.538574,4277.307617,4307.692383,4283.846191,4272.820313,4219.102539,4244.615234,4220.769043,4214.743652,4224.743652,4508.974121,4474.487305,4366.794922,4415.000000,6917.000000,4.000000,96.000000,,,,0.000000,4.000000,4.000000,4.000000,4.000000,4.000000,4.000000,4.000000,4.000000,4.000000,4.000000,4.000000,4.000000,4.000000,4.000000,100.000000,,,,,,,,,,,,,,,,,,,,,,,,,,,,
1703488739.982874,1703488739.984256,86.000000,0.000000,4293.846191,4270.769043,4307.820313,4278.846191,4276.410156,4218.589844,4243.333496,4232.820313,4219.230957,4218.077148,4505.000000,4478.846191,4363.461426,4415.641113,5843.000000,4.000000,96.000000,,,,0.000000,4.000000,4.000000,4.000000,4.000000,4.000000,4.000000,4.000000,4.000000,4.000000,4.000000,4.000000,4.000000,4.000000,4.000000,100.000000,,,,,,,,,,,,,,,,,,,,,,,,,,,,
1703488739.990682,1703488739.991964,87.000000,0.000000,4294.102539,4266.922852,4309.358887,4281.410156,4273.205078,4223.589844,4242.051270,4250.512695,4229.871582,4220.000000,4508.974121,4484.358887,4365.512695,4415.641113,6265.000000,4.000000,96.000000,,,,0.000000,4.000000,4.000000,4.000000,4.000000,4.000000,4.000000,4.000000,4.000000,4.000000,4.000000,4.000000,4.000000,4.000000,4.000000,100.000000,1.000000,100.000000,4.000000,4.000000,4.000000,4.000000,4.000000,4.000000,4.000000,4.000000,4.000000,4.000000,4.000000,4.000000,4.000000,4.000000,,,,,,,,,,,,
1703488739.998490,1703488739.999772,88.000000,0.000000,4295.897461,4278.589844,4311.153809,4290.256348,4274.358887,4231.538574,4241.666504,4264.615234,4241.153809,4230.897461,4516.922852,4489.102539,4371.794922,4418.717773,6758.000000,4.000000,96.000000,,,,0.000000,4.000000,4.000000,4.000000,4.000000,4.000000,4.000000,4.000000,4.000000,4.000000,4.000000,4.000000,4.000000,4.000000,4.000000,100.000000,,,,,,,,,,,,,,,,,22.000000,0.000000,0.719590,-0.106018,-0.670654,0.145508,0.912221,-0.338909,0.068368,-11.378602,-43.268345,61.823673
1703488740.006298,1703488740.007480,89.000000,0.000000,4288.333496,4279.743652,4311.410156,4294.358887,4272.179688,4234.102539,4240.512695,4268.717773,4251.922852,4235.641113,4519.487305,4488.077148,4371.922852,4416.794922,6917.000000,4.000000,96.000000,,,,0.000000,4.000000,4.000000,4.000000,4.000000,4.000000,4.000000,4.000000,4.000000,4.000000,4.000000,4.000000,4.000000,4.000000,4.000000,100.000000,,,,,,,,,,,,,,,,,,,,,,,,,,,,
1703488740.014106,1703488740.015288,90.000000,0.000000,4286.282227,4266.922852,4313.205078,4293.205078,4264.871582,4233.333496,4236.794922,4268.205078,4258.974121,4243.205078,4515.128418,4489.358887,4368.077148,4411.922852,5843.000000,4.000000,96.000000,,,,0.000000,4.000000,4.000000,4.000000,4.000000,4.000000,4.000000,4.000000,4.000000,4.000000,4.000000,4.000000,4.000000,4.000000,4.000000,100.000000,,,,,,,,,,,,,,,,,,,,,,,,,,,,
1703488740.021915,1703488740.022996,91.000000,0.000000,4288.333496,4265.128418,4314.358887,4291.153809,4263.974121,4227.820313,4231.794922,4265.897461,4257.179688,4246.922852,4509.743652,4496.410156,4367.563965,4406.538574,6265.000000,4.000000,96.000000,,,,0.000000,4.000000,4.000000,4.000000,4.000000,4.000000,4.000000,4.000000,4.000000,4.000000,4.000000,4.000000,4.000000,4.000000,4.000000,100.000000,,,,,,,,,,,,,,,,,,,,,,,,,,,,
1703488740.029723,1703488740.030804,92.000000,0.000000,4279.358887,4265.897461,4310.641113,4285.128418,4264.743652,4221.410156,4229.102539,4255.256348,4248.974121,4236.410156,4507.820313,4490.897461,4365.128418,4396.666504,6758.000000,4.000000,96.000000,,,,0.000000,4.000000,4.000000,4.000000,4.000000,4.000000,4.000000,4.000000,4.000000,4.000000,4.000000,4.000000,4.000000,4.000000,4.000000,100.000000,,,,,,,,,,,,,,,,,23.000000,0.000000,0.719560,-0.106140,-0.670654,0.145569,0.921011,-0.340374,0.064949,-11.290741,-43.291512,61.724640
1703488740.037531,1703488740.038512,93.000000,0.000000,4277.307617,4263.461426,4309.487305,4285.512695,4264.358887,4221.922852,4231.153809,4244.230957,4245.256348,4235.256348,4505.128418,4477.820313,4361.666504,4390.256348,6917.000000,4.000000,96.000000,,,,0.000000,4.000000,4.000000,4.000000,4.000000,4.000000,4.000000,4.000000,4.000000,4.000000,4.000000,4.000000,4.000000,4.000000,4.000000,100.000000,,,,,,,,,,,,,,,,,,,,,,,,,,,,
1703488740.045339,1703488740.046320,94.000000,0.000000,4292.563965,4273.205078,4315.256348,4298.589844,4263.974121,4221.025879,4231.282227,4246.666504,4249.230957,4250.897461,4507.948730,4478.974121,4365.000000,4397.436035,5843.000000,4.000000,96.000000,,,,0.000000,4.000000,4.000000,4.000000,4.000000,4.000000,4.000000,4.000000,4.000000,4.000000,4.000000,4.000000,4.000000,4.000000,4.000000,100.000000,,,,,,,,,,,,,,,,,,,,,,,,,,,,
1703488740.053147,1703488740.054028,95.000000,0.000000,4295.769043,4282.179688,4315.512695,4305.512695,4263.717773,4216.666504,4227.820313,4250.897461,4249.871582,4250.641113,4513.717773,4482.051270,4367.307617,4404.871582,6265.000000,4.000000,96.000000,,,,0.000000,4.000000,4.000000,4.000000,4.000000,4.000000,4.000000,4.000000,4.000000,4.000000,4.000000,4.000000,4.000000,4.000000,4.000000,100.000000,,,,,,,,,,,,,,,,,,,,,,,,,,,,
1703488740.060955,1703488740.061836,96.000000,0.000000,4285.128418,4279.615234,4306.282227,4303.333496,4269.358887,4222.436035,4228.333496,4246.922852,4241.282227,4237.948730,4505.000000,4470.128418,4361.025879,4395.512695,6758.000000,4.000000,96.000000,,,,0.000000,4.000000,4.000000,4.000000,4.000000,4.000000,4.000000,4.000000,4.000000,4.000000,4.000000,4.000000,4.000000,4.000000,4.000000,100.000000,,,,,,,,,,,,,,,,,24.000000,0.000000,0.719523,-0.106140,-0.670654,0.145752,0.927359,-0.345745,0.067391,-11.178334,-43.412361,61.685509
1703488740.068763,1703488740.069544,97.000000,0.000000,4282.820313,4277.307617,4297.692383,4298.589844,4271.666504,4228.846191,4229.230957,4243.461426,4233.717773,4236.282227,4490.897461,4457.563965,4353.589844,4383.974121,6917.000000,4.000000,96.000000,,,,0.000000,4.000000,4.000000,4.000000,4.000000,4.000000,4.000000,4.000000,4.000000,4.000000,4.000000,4.000000,4.000000,4.000000,4.000000,100.000000,,,,,,,,,,,,,,,,,,,,,,,,,,,,
1703488740.076571,1703488740.077352,98.000000,0.000000,4283.077148,4279.230957,4296.025879,4295.512695,4266.538574,4228.974121,4225.384766,4244.358887,4233.205078,4233.846191,4489.358887,4460.256348,4356.025879,4392.563965,5843.000000,4.000000,96.000000,,,,0.000000,4.000000,4.000000,4.000000,4.000000,4.000000,4.000000,4.000000,4.000000,4.000000,4.000000,4.000000,4.000000,4.000000,4.000000,100.000000,,,,,,,,,,,,,,,,,,,,,,,,,,,,
1703488740.084379,1703488740.085060,99.000000,0.000000,4276.794922,4274.230957,4292.820313,4294.871582,4265.512695,4231.922852,4224.871582,4246.153809,4228.333496,4220.000000,4491.538574,4460.769043,4355.641113,4396.538574,6265.000000,4.000000,96.000000,,,,0.000000,4.000000,4.000000,4.000000,4.000000,4.000000,4.000000,4.000000,4.000000,4.000000,4.000000,4.000000,4.000000,4.000000,4.000000,100.000000,,,,,,,,,,,,,,,,,,,,,,,,,,,,
1703488740.092187,1703488740.092968,100.000000,0.000000,4273.333496,4269.487305,4289.230957,4293.461426,4267.563965,4233.461426,4227.307617,4247.179688,4221.153809,4212.563965,4487.948730,4457.051270,4350.512695,4387.948730,6758.000000,4.000000,96.000000,,,,0.000000,4.000000,4.000000,4.000000,4.000000,4.000000,4.000000,4.000000,4.000000,4.000000,4.000000,4.000000,4.000000,4.000000,4.000000,100.000000,,,,,,,,,,,,,,,,,25.000000,0.000000,0.719577,-0.106079,-0.670593,0.145813,0.931754,-0.351605,0.067879,-11.227167,-43.421124,61.716957
1703488740.099995,1703488740.100776,101.000000,0.000000,4279.615234,4269.487305,4301.410156,4293.077148,4266.538574,4232.692383,4226.922852,4247.307617,4225.256348,4219.615234,4490.256348,4466.153809,4355.384766,4399.615234,6917.000000,4.000000,96.000000,,,,0.000000,4.000000,4.000000,4.000000,4.000000,4.000000,4.000000,4.000000,4.000000,4.000000,4.000000,4.000000,4.000000,4.000000,4.000000,100.000000,,,,,,,,,,,,,,,,,,,,,,,,,,,,
1703488740.107803,1703488740.108684,102.000000,0.000000,4284.230957,4267.179688,4314.358887,4293.461426,4264.871582,4236.282227,4226.794922,4247.179688,4224.615234,4214.743652,4490.769043,4476.025879,4360.256348,4412.051270,5843.000000,4.000000,96.000000,,,,0.000000,4.000000,4.000000,4.000000,4.000000,4.000000,4.000000,4.000000,4.000000,4.000000,4.000000,4.000000,4.000000,4.000000,4.000000,100.000000,,,,,,,,,,,,,,,,,,,,,,,,,,,,
1703488740.115611,1703488740.116492,103.000000,0.000000,4287.051270,4271.666504,4312.948730,4293.461426,4264.487305,4233.846191,4224.871582,4247.179688,4218.205078,4204.743652,4490.000000,4481.922852,4357.436035,4403.974121,6265.000000,4.000000,96.000000,,,,0.000000,4.000000,4.000000,4.000000,4.000000,4.000000,4.000000,4.000000,4.000000,4.000000,4.000000,4.000000,4.000000,4.000000,4.000000,100.000000,,,,,,,,,,,,,,,,,,,,,,,,,,,,
1703488740.123419,1703488740.124400,104.000000,0.000000,4294.230957,4281.282227,4316.025879,4295.769043,4265.128418,4228.717773,4225.128418,4247.948730,4225.769043,4217.307617,4500.256348,4490.769043,4360.000000,4406.922852,6758.000000,4.000000,96.000000,,,,0.000000,4.000000,4.000000,4.000000,4.000000,4.000000,4.000000,4.000000,4.000000,4.000000,4.000000,4.000000,4.000000,4.000000,4.000000,100.000000,,,,,,,,,,,,,,,,,26.000000,0.000000,0.719564,-0.106079,-0.670593,0.145874,0.926871,-0.337444,0.084483,-11.237783,-43.312344,61.745262
1703488740.131227,1703488740.132208,105.000000,0.000000,4296.025879,4282.307617,4325.000000,4295.897461,4266.922852,4231.410156,4226.282227,4251.922852,4241.922852,4236.410156,4510.000000,4497.563965,4371.794922,4420.384766,6917.000000,4.000000,96.000000,,,,0.000000,4.000000,4.000000,4.000000,4.000000,4.000000,4.000000,4.000000,4.000000,4.000000,4.000000,4.000000,4.000000,4.000000,4.000000,100.000000,,,,,,,,,,,,,,,,,,,,,,,,,,,,
1703488740.139035,1703488740.140116,106.000000,0.000000,4293.717773,4283.077148,4323.205078,4295.384766,4264.487305,4227.436035,4223.717773,4263.461426,4256.794922,4250.769043,4515.000000,4502.179688,4380.256348,4415.256348,5843.000000,4.000000,96.000000,,,,0.000000,4.000000,4.000000,4.000000,4.000000,4.000000,4.000000,4.000000,4.000000,4.000000,4.000000,4.000000,4.000000,4.000000,4.000000,100.000000,,,,,,,,,,,,,,,,,,,,,,,,,,,,
1703488740.146843,1703488740.147924,107.000000,0.000000,4300.512695,4290.512695,4322.692383,4302.179688,4260.512695,4216.922852,4221.153809,4272.051270,4269.487305,4265.128418,4524.358887,4509.102539,4385.512695,4417.692383,6265.000000,4.000000,96.000000,,,,0.000000,4.000000,4.000000,4.000000,4.000000,4.000000,4.000000,4.000000,4.000000,4.000000,4.000000,4.000000,4.000000,4.000000,4.000000,100.000000,,,,,,,,,,,,,,,,,,,,,,,,,,,,
1703488740.154651,1703488740.155632,108.000000,0.000000,4305.769043,4287.820313,4327.436035,4303.205078,4261.025879,4215.897461,4220.512695,4268.974121,4271.794922,4267.436035,4526.153809,4505.897461,4382.179688,4427.820313,6758.000000,4.000000,96.000000,,,,0.000000,4.000000,4.000000,4.000000,4.000000,4.000000,4.000000,4.000000,4.000000,4.000000,4.000000,4.000000,4.000000,4.000000,4.000000,100.000000,,,,,,,,,,,,,,,,,27.000000,0.000000,0.719575,-0.105957,-0.670654,0.145630,0.926383,-0.336467,0.068856,-11.214005,-43.314445,61.620735
1703488740.162459,1703488740.163440,109.000000,0.000000,4296.794922,4278.205078,4319.358887,4296.410156,4263.077148,4220.000000,4220.641113,4265.512695,4261.153809,4249.230957,4511.025879,4492.820313,4365.512695,4413.461426,6917.000000,4.000000,96.000000,,,,0.000000,4.000000,4.000000,4.000000,4.000000,4.000000,4.000000,4.000000,4.000000,4.000000,4.000000,4.000000,4.000000,4.000000,4.000000,100.000000,,,,,,,,,,,,,,,,,,,,,,,,,,,,
1703488740.170267,1703488740.171148,110.000000,0.000000,4292.051270,4280.000000,4310.641113,4298.205078,4265.128418,4222.563965,4222.436035,4261.922852,4253.077148,4234.487305,4498.846191,4485.897461,4357.179688,4401.666504,5843.000000,4.000000,96.000000,,,,0.000000,4.000000,4.000000,4.000000,4.000000,4.000000,4.000000,4.000000,4.000000,4.000000,4.000000,4.000000,4.000000,4.000000,4.000000,100.000000,,,,,,,,,,,,,,,,,,,,,,,,,,,,
1703488740.178075,1703488740.178956,111.000000,0.000000,4294.487305,4281.153809,4312.948730,4301.025879,4264.743652,4227.436035,4222.436035,4252.307617,4246.666504,4239.487305,4495.384766,4479.871582,4359.230957,4409.230957,6265.000000,4.000000,96.000000,,,,0.000000,4.000000,4.000000,4.000000,4.000000,4.000000,4.000000,4.000000,4.000000,4.000000,4.000000,4.000000,4.000000,4.000000,4.000000,100.000000,,,,,,,,,,,,,,,,,,,,,,,,,,,,
1703488740.185883,1703488740.186664,112.000000,0.000000,4286.538574,4276.410156,4312.948730,4295.512695,4265.641113,4233.717773,4224.230957,4246.153809,4233.333496,4236.794922,4483.846191,4472.307617,4351.922852,4406.794922,6758.000000,4.000000,96.000000,,,,0.000000,4.000000,4.000000,4.000000,4.000000,4.000000,4.000000,4.000000,4.000000,4.000000,4.000000,4.000000,4.000000,4.000000,4.000000,100.000000,,,,,,,,,,,,,,,,,28.000000,0.000000,0.719733,-0.105469,-0.670654,0.145203,0.921011,-0.338909,0.087413,-11.292604,-43.349667,61.475330
1703488740.193691,1703488740.194472,113.000000,0.000000,4277.307617,4275.384766,4305.128418,4293.974121,4267.563965,4235.256348,4230.897461,4244.230957,4218.846191,4213.205078,4473.333496,4466.794922,4340.769043,4394.871582,6917.000000,4.000000,96.000000,,,,0.000000,4.000000,4.000000,4.000000,4.000000,4.000000,4.000000,4.000000,4.000000,4.000000,4.000000,4.000000,4.000000,4.000000,4.000000,100.000000,,,,,,,,,,,,,,,,,,,,,,,,,,,,
1703488740.201500,1703488740.202180,114.000000,0.000000,4277.820313,4271.153809,4299.615234,4295.512695,4265.128418,4234.743652,4230.512695,4235.897461,4211.282227,4198.974121,4471.410156,4462.563965,4338.717773,4392.051270,5843.000000,4.000000,96.000000,,,,0.000000,4.000000,4.000000,4.000000,4.000000,4.000000,4.000000,4.000000,4.000000,4.000000,4.000000,4.000000,4.000000,4.000000,4.000000,100.000000,,,,,,,,,,,,,,,,,,,,,,,,,,,,
1703488740.209308,1703488740.209988,115.000000,0.000000,4278.205078,4266.922852,4302.179688,4291.794922,4262.820313,4234.743652,4226.922852,4229.487305,4212.692383,4212.051270,4471.282227,4464.230957,4341.025879,4397.051270,6265.000000,4.000000,96.000000,,,,0.000000,4.000000,4.000000,4.000000,4.000000,4.000000,4.000000,4.000000,4.000000,4.000000,4.000000,4.000000,4.000000,4.000000,4.000000,100.000000,,,,,,,,,,,,,,,,,,,,,,,,,,,,
1703488740.217116,1703488740.217696,116.000000,0.000000,4280.256348,4274.102539,4309.871582,4291.282227,4264.358887,4234.871582,4231.153809,4236.666504,4220.256348,4224.102539,4481.153809,4477.051270,4352.820313,4409.615234,6758.000000,4.000000,96.000000,,,,0.000000,4.000000,4.000000,4.000000,4.000000,4.000000,4.000000,4.000000,4.000000,4.000000,4.000000,4.000000,4.000000,4.000000,4.000000,100.000000,,,,,,,,,,,,,,,,,29.000000,0.000000,0.719868,-0.105103,-0.670593,0.145081,0.933708,-0.341839,0.074228,-11.496677,-43.264698,61.511131
1703488740.224924,1703488740.225504,117.000000,0.000000,4288.589844,4280.384766,4320.897461,4294.743652,4265.512695,4234.615234,4232.820313,4244.743652,4227.692383,4226.794922,4502.563965,4494.743652,4370.641113,4425.384766,6917.000000,4.000000,96.000000,,,,0.000000,4.000000,4.000000,4.000000,4.000000,4.000000,4.000000,4.000000,4.000000,4.000000,4.000000,4.000000,4.000000,4.000000,4.000000,100.000000,,,,,,,,,,,,,,,,,,,,,,,,,,,,
1703488740.232732,1703488740.233212,118.000000,0.000000,4301.922852,4281.025879,4329.871582,4297.563965,4270.128418,4232.692383,4232.436035,4245.000000,4236.538574,4239.743652,4515.897461,4504.871582,4378.589844,4434.743652,5843.000000,4.000000,96.000000,,,,0.000000,4.000000,4.000000,4.000000,4.000000,4.000000,4.000000,4.000000,4.000000,4.000000,4.000000,4.000000,4.000000,4.000000,4.000000,100.000000,,,,,,,,,,,,,,,,,,,,,,,,,,,,
1703488740.240540,1703488740.241120,119.000000,0.000000,4313.077148,4290.000000,4331.666504,4299.358887,4275.256348,4230.897461,4234.871582,4250.256348,4253.333496,4256.794922,4522.307617,4506.794922,4389.102539,4444.102539,6265.000000,4.000000,96.000000,,,,0.000000,4.000000,4.000000,4.000000,4.000000,4.000000,4.000000,4.000000,4.000000,4.000000,4.000000,4.000000,4.000000,4.000000,4.000000,100.000000,,,,,,,,,,,,,,,,,,,,,,,,,,,,
1703488740.248348,1703488740.248928,120.000000,0.000000,4308.846191,4296.794922,4329.102539,4298.333496,4270.641113,4228.589844,4236.025879,4263.205078,4268.846191,4269.230957,4533.717773,4509.487305,4403.205078,4447.692383,6758.000000,4.000000,96.000000,,,,0.000000,4.000000,4.000000,4.000000,4.000000,4.000000,4.000000,4.000000,4.000000,4.000000,4.000000,4.000000,4.000000,4.000000,4.000000,100.000000,,,,,,,,,,,,,,,,,30.000000,0.000000,0.719817,-0.104980,-0.670654,0.145142,0.920523,-0.338909,0.074716,-11.347010,-43.338230,61.610016
1703488740.256156,1703488740.256736,121.000000,0.000000,4295.769043,4284.358887,4323.846191,4294.871582,4263.846191,4228.974121,4235.769043,4268.846191,4270.641113,4271.794922,4534.230957,4507.179688,4395.769043,4434.102539,6917.000000,4.000000,96.000000,,,,0.000000,4.000000,4.000000,4.000000,4.000000,4.000000,4.000000,4.000000,4.000000,4.000000,4.000000,4.000000,4.000000,4.000000,4.000000,100.000000,,,,,,,,,,,,,,,,,,,,,,,,,,,,
1703488740.263964,1703488740.264444,122.000000,0.000000,4295.512695,4275.000000,4320.897461,4293.205078,4263.717773,4228.717773,4236.410156,4267.820313,4265.769043,4257.179688,4519.743652,4497.948730,4378.717773,4420.897461,5843.000000,4.000000,96.000000,,,,0.000000,4.000000,4.000000,4.000000,4.000000,4.000000,4.000000,4.000000,4.000000,4.000000,4.000000,4.000000,4.000000,4.000000,4.000000,100.000000,,,,,,,,,,,,,,,,,,,,,,,,,,,,
1703488740.271772,1703488740.272352,123.000000,0.000000,4295.384766,4279.487305,4317.179688,4296.666504,4263.205078,4226.282227,4235.384766,4265.512695,4256.666504,4239.615234,4505.256348,4489.358887,4373.974121,4416.538574,6265.000000,4.000000,96.000000,,,,0.000000,4.000000,4.000000,4.000000,4.000000,4.000000,4.000000,4.000000,4.000000,4.000000,4.000000,4.000000,4.000000,4.000000,4.000000,100.000000,,,,,,,,,,,,,,,,,,,,,,,,,,,,
1703488740.279580,1703488740.280160,124.000000,0.000000,4278.974121,4273.974121,4305.512695,4293.205078,4261.153809,4228.589844,4235.769043,4256.922852,4238.589844,4227.563965,4493.205078,4479.615234,4365.512695,4404.615234,6758.000000,4.000000,96.000000,,,,0.000000,4.000000,4.000000,4.000000,4.000000,4.000000,4.000000,4.000000,4.000000,4.000000,4.000000,4.000000,4.000000,4.000000,4.000000,100.000000,,,,,,,,,,,,,,,,,31.000000,0.000000,0.719555,-0.105042,-0.670898,0.145264,0.916127,-0.343792,0.075204,-11.362309,-43.287739,61.549015
1703488740.287388,1703488740.288067,125.000000,0.000000,4270.128418,4261.794922,4299.102539,4283.077148,4261.794922,4233.077148,4240.769043,4246.025879,4228.717773,4218.974121,4485.128418,4468.717773,4353.333496,4393.589844,6917.000000,4.000000,96.000000,,,,0.000000,4.000000,4.000000,4.000000,4.000000,4.000000,4.000000,4.000000,4.000000,4.000000,4.000000,4.000000,4.000000,4.000000,4.000000,100.000000,,,,,,,,,,,,,,,,,,,,,,,,,,,,
1703488740.295196,1703488740.295875,126.000000,0.000000,4275.641113,4262.436035,4303.461426,4283.717773,4262.563965,4233.461426,4240.769043,4238.974121,4229.871582,4219.871582,4478.974121,4460.256348,4352.051270,4393.461426,5843.000000,4.000000,96.000000,,,,0.000000,4.000000,4.000000,4.000000,4.000000,4.000000,4.000000,4.000000,4.000000,4.000000,4.000000,4.000000,4.000000,4.000000,4.000000,100.000000,,,,,,,,,,,,,,,,,,,,,,,,,,,,
1703488740.303004,1703488740.303783,127.000000,0.000000,4275.897461,4270.128418,4300.769043,4291.025879,4262.179688,4233.589844,4240.000000,4224.102539,4219.230957,4216.794922,4472.051270,4450.897461,4353.589844,4392.436035,96.000000,4.000000,96.000000,,,,0.000000,4.000000,4.000000,4.000000,4.000000,4.000000,4.000000,4.000000,4.000000,4.000000,4.000000,4.000000,4.000000,4.000000,4.000000,100.000000,,,,,,,,,,,,,,,,,,,,,,,,,,,,
1703488740.310812,1703488740.311591,0.000000,0.000000,4279.615234,4281.666504,4298.846191,4295.256348,4267.307617,4236.794922,4242.692383,4202.692383,4198.333496,4200.641113,4469.615234,4448.205078,4353.077148,4392.307617,5439.000000,4.000000,96.000000,,,,0.000000,4.000000,4.000000,4.000000,4.000000,4.000000,4.000000,4.000000,4.000000,4.000000,4.000000,4.000000,4.000000,4.000000,4.000000,100.000000,,,,,,,,,,,,,,,,,0.000000,0.000000,0.719465,-0.105103,-0.670959,0.145386,0.930778,-0.353070,0.072763,-11.276078,-43.308968,61.594112
1703488740.318620,1703488740.319499,1.000000,0.000000,4292.820313,4294.102539,4313.974121,4303.589844,4274.102539,4236.666504,4244.102539,4198.589844,4194.230957,4198.333496,4479.743652,4463.077148,4359.615234,4406.410156,5492.000000,4.000000,96.000000,,,,0.000000,4.000000,4.000000,4.000000,4.000000,4.000000,4.000000,4.000000,4.000000,4.000000,4.000000,4.000000,4.000000,4.000000,4.000000,100.000000,,,,,,,,,,,,,,,,,,,,,,,,,,,,
1703488740.326428,1703488740.327307,2.000000,0.000000,4295.641113,4289.358887,4328.974121,4313.077148,4271.153809,4233.205078,4242.436035,4209.871582,4210.000000,4222.051270,4498.846191,4483.333496,4373.717773,4423.333496,5328.000000,4.000000,96.000000,,,,0.000000,4.000000,4.000000,4.000000,4.000000,4.000000,4.000000,4.000000,4.000000,4.000000,4.000000,4.000000,4.000000,4.000000,4.000000,100.000000,,,,,,,,,,,,,,,,,,,,,,,,,,,,
1703488740.334236,1703488740.335215,3.000000,0.000000,4293.717773,4280.384766,4329.230957,4310.384766,4264.871582,4232.563965,4238.461426,4217.820313,4225.256348,4243.333496,4514.871582,4493.974121,4382.563965,4430.256348,5407.000000,4.000000,96.000000,,,,0.000000,4.000000,4.000000,4.000000,4.000000,4.000000,4.000000,4.000000,4.000000,4.000000,4.000000,4.000000,4.000000,4.000000,4.000000,100.000000,,,,,,,,,,,,,,,,,,,,,,,,,,,,
1703488740.342044,1703488740.343023,4.000000,0.000000,4297.563965,4284.871582,4320.769043,4301.666504,4266.794922,4232.307617,4237.563965,4221.666504,4230.256348,4245.512695,4517.692383,4495.256348,4383.974121,4430.897461,5215.000000,4.000000,96.000000,,,,0.000000,4.000000,4.000000,4.000000,4.000000,4.000000,4.000000,4.000000,4.000000,4.000000,4.000000,4.000000,4.000000,4.000000,4.000000,100.000000,,,,,,,,,,,,,,,,,1.000000,0.000000,0.719346,-0.105103,-0.671021,0.145691,0.913197,-0.346234,0.069833,-11.281803,-43.128071,61.518036
1703488740.349852,1703488740.350931,5.000000,0.000000,4290.769043,4283.461426,4312.563965,4297.820313,4268.205078,4233.589844,4239.487305,4227.820313,4229.743652,4239.743652,4512.563965,4489.102539,4381.025879,4424.743652,5126.000000,4.000000,96.000000,,,,0.000000,4.000000,4.000000,4.000000,4.000000,4.000000,4.000000,4.000000,4.000000,4.000000,4.000000,4.000000,4.000000,4.000000,4.000000,100.000000,,,,,,,,,,,,,,,,,,,,,,,,,,,,
1703488740.357660,1703488740.358739,6.000000,0.000000,4277.563965,4275.897461,4309.230957,4295.769043,4262.436035,4235.256348,4239.615234,4230.897461,4235.000000,4233.333496,4505.897461,4476.025879,4376.666504,4411.153809,2189.000000,4.000000,96.000000,,,,0.000000,4.000000,4.000000,4.000000,4.000000,4.000000,4.000000,4.000000,4.000000,4.000000,4.000000,4.000000,4.000000,4.000000,4.000000,100.000000,,,,,,,,,,,,,,,,,,,,,,,,,,,,
1703488740.365468,1703488740.366447,7.000000,0.000000,4276.794922,4277.051270,4306.153809,4293.333496,4258.333496,4232.307617,4237.948730,4233.461426,4247.307617,4234.615234,4497.051270,4463.333496,4371.794922,4405.769043,5125.000000,4.000000,96.000000,,,,0.000000,4.000000,4.000000,4.000000,4.000000,4.000000,4.000000,4.000000,4.000000,4.000000,4.000000,4.000000,4.000000,4.000000,4.000000,100.000000,,,,,,,,,,,,,,,,,,,,,,,,,,,,
1703488740.373277,1703488740.374255,8.000000,0.000000,4279.615234,4277.563965,4301.922852,4292.563965,4260.128418,4230.256348,4238.846191,4242.436035,4252.948730,4240.384766,4492.692383,4460.512695,4367.820313,4409.615234,5278.000000,4.000000,96.000000,,,,0.000000,4.000000,4.000000,4.000000,4.000000,4.000000,4.000000,4.000000,4.000000,4.000000,4.000000,4.000000,4.000000,4.000000,4.000000,100.000000,,,,,,,,,,,,,,,,,2.000000,0.000000,0.719348,-0.105225,-0.670959,0.145874,0.928824,-0.358931,0.077158,-11.303623,-43.015263,61.582897
1703488740.381085,1703488740.381963,9.000000,0.000000,4274.615234,4272.179688,4296.922852,4292.820313,4262.436035,4234.487305,4240.128418,4243.974121,4246.794922,4231.922852,4486.282227,4459.743652,4363.589844,4407.179688,5320.000000,4.000000,96.000000,,,,0.000000,4.000000,4.000000,4.000000,4.000000,4.000000,4.000000,4.000000,4.000000,4.000000,4.000000,4.000000,4.000000,4.000000,4.000000,100.000000,,,,,,,,,,,,,,,,,,,,,,,,,,,,
1703488740.388893,1703488740.389771,10.000000,0.000000,4272.307617,4274.871582,4294.102539,4292.563965,4260.769043,4234.871582,4237.307617,4236.153809,4238.846191,4218.205078,4475.769043,4454.615234,4359.358887,4403.974121,5838.000000,4.000000,96.000000,,,,0.000000,4.000000,4.000000,4.000000,4.000000,4.000000,4.000000,4.000000,4.000000,4.000000,4.000000,4.000000,4.000000,4.000000,4.000000,100.000000,,,,,,,,,,,,,,,,,,,,,,,,,,,,
1703488740.396701,1703488740.397479,11.000000,0.000000,4277.692383,4281.410156,4301.922852,4296.282227,4257.563965,4229.487305,4236.410156,4231.922852,4233.974121,4220.000000,4472.051270,4454.487305,4357.051270,4408.589844,6262.000000,4.000000,96.000000,,,,0.000000,4.000000,4.000000,4.000000,4.000000,4.000000,4.000000,4.000000,4.000000,4.000000,4.000000,4.000000,4.000000,4.000000,4.000000,100.000000,,,,,,,,,,,,,,,,,,,,,,,,,,,,
1703488740.404509,1703488740.405287,12.000000,0.000000,4283.205078,4283.846191,4312.692383,4302.436035,4259.615234,4230.641113,4241.410156,4233.205078,4233.846191,4231.538574,4478.717773,4460.256348,4357.436035,4410.384766,6758.000000,4.000000,96.000000,,,,0.000000,4.000000,4.000000,4.000000,4.000000,4.000000,4.000000,4.000000,4.000000,4.000000,4.000000,4.000000,4.000000,4.000000,4.000000,100.000000,,,,,,,,,,,,,,,,,3.000000,0.000000,0.719268,-0.105469,-0.671021,0.145813,0.929313,-0.354535,0.066903,-11.156594,-42.963737,61.641277
1703488740.412317,1703488740.412995,13.000000,0.000000,4280.000000,4278.717773,4311.153809,4298.205078,4263.717773,4235.256348,4243.717773,4229.743652,4231.410156,4229.102539,4484.102539,4460.000000,4357.948730,4405.000000,6910.000000,4.000000,96.000000,,,,0.000000,4.000000,4.000000,4.000000,4.000000,4.000000,4.000000,4.000000,4.000000,4.000000,4.000000,4.000000,4.000000,4.000000,4.000000,100.000000,,,,,,,,,,,,,,,,,,,,,,,,,,,,
1703488740.420125,1703488740.420903,14.000000,0.000000,4277.948730,4274.487305,4310.641113,4293.333496,4261.153809,4231.922852,4239.230957,4220.384766,4220.384766,4218.717773,4484.358887,4461.794922,4359.102539,4408.077148,5838.000000,4.000000,96.000000,,,,0.000000,4.000000,4.000000,4.000000,4.000000,4.000000,4.000000,4.000000,4.000000,4.000000,4.000000,4.000000,4.000000,4.000000,4.000000,100.000000,,,,,,,,,,,,,,,,,,,,,,,,,,,,
1703488740.427933,1703488740.428711,15.000000,0.000000,4290.641113,4282.820313,4322.948730,4300.897461,4255.769043,4226.794922,4236.153809,4214.358887,4212.051270,4218.589844,4494.871582,4477.692383,4369.871582,4424.102539,6262.000000,4.000000,96.000000,,,,0.000000,4.000000,4.000000,4.000000,4.000000,4.000000,4.000000,4.000000,4.000000,4.000000,4.000000,4.000000,4.000000,4.000000,4.000000,100.000000,,,,,,,,,,,,,,,,,,,,,,,,,,,,
1703488740.435741,1703488740.436519,16.000000,0.000000,4296.794922,4291.794922,4327.179688,4304.358887,4257.436035,4227.436035,4237.692383,4215.384766,4210.384766,4217.307617,4507.051270,4488.846191,4376.794922,4430.897461,0.000000,4.000000,96.000000,,,,0.000000,4.000000,4.000000,4.000000,4.000000,4.000000,4.000000,4.000000,4.000000,4.000000,4.000000,4.000000,4.000000,4.000000,4.000000,100.000000,,,,,,,,,,,,,,,,,4.000000,0.000000,0.719317,-0.105469,-0.671021,0.145569,0.920523,-0.341839,0.075693,-11.024268,-43.000694,61.777149
1703488740.443549,1703488740.444227,17.000000,0.000000,4284.871582,4288.717773,4317.948730,4297.820313,4263.077148,4231.153809,4235.769043,4220.641113,4211.794922,4219.871582,4508.333496,4488.717773,4367.948730,4424.871582,0.000000,4.000000,96.000000,,,,0.000000,4.000000,4.000000,4.000000,4.000000,4.000000,4.000000,4.000000,4.000000,4.000000,4.000000,4.000000,4.000000,4.000000,4.000000,100.000000,,,,,,,,,,,,,,,,,,,,,,,,,,,,
