title:رشيد اختر, start timestamp:1703406428.498877, stop timestamp:1703406439.234946, headset type:EPOCX, headset serial:E50206EF, headset firmware:720, channels:67, sampling rate:eeg_128;mot_32, samples:1376      , version:2.2, 
Timestamp,OriginalTimestamp,EEG.Counter,EEG.Interpolated,EEG.AF3,EEG.F7,EEG.F3,EEG.FC5,EEG.T7,EEG.P7,EEG.O1,EEG.O2,EEG.P8,EEG.T8,EEG.FC6,EEG.F4,EEG.F8,EEG.AF4,EEG.RawCq,EEG.Battery,EEG.BatteryPercent,MarkerIndex,MarkerType,MarkerValueInt,EEG.MarkerHardware,CQ.AF3,CQ.F7,CQ.F3,CQ.FC5,CQ.T7,CQ.P7,CQ.O1,CQ.O2,CQ.P8,CQ.T8,CQ.FC6,CQ.F4,CQ.F8,CQ.AF4,CQ.Overall,EQ.SampleRateQuality,EQ.OVERALL,EQ.AF3,EQ.F7,EQ.F3,EQ.FC5,EQ.T7,EQ.P7,EQ.O1,EQ.O2,EQ.P8,EQ.T8,EQ.FC6,EQ.F4,EQ.F8,EQ.AF4,MOT.CounterMems,MOT.InterpolatedMems,MOT.Q0,MOT.Q1,MOT.Q2,MOT.Q3,MOT.AccX,MOT.AccY,MOT.AccZ,MOT.MagX,MOT.MagY,MOT.MagZ
1703406428.498877,1703406428.499566,34.000000,0.000000,4206.153809,4172.179688,4266.794922,4238.205078,4166.666504,4199.358887,4217.948730,4174.871582,4161.025879,4166.282227,4615.128418,4453.846191,4410.769043,4511.410156,0.000000,4.000000,79.000000,,,,0.000000,4.000000,4.000000,4.000000,4.000000,4.000000,4.000000,4.000000,4.000000,4.000000,4.000000,4.000000,4.000000,4.000000,4.000000,100.000000,,,,,,,,,,,,,,,,,,,,,,,,,,,,
1703406428.506685,1703406428.507274,35.000000,0.000000,4199.102539,4159.743652,4265.641113,4229.102539,4158.077148,4198.974121,4217.692383,4171.666504,4154.358887,4156.410156,4613.461426,4443.974121,4411.794922,4506.538574,0.000000,4.000000,79.000000,,,,0.000000,4.000000,4.000000,4.000000,4.000000,4.000000,4.000000,4.000000,4.000000,4.000000,4.000000,4.000000,4.000000,4.000000,4.000000,100.000000,,,,,,,,,,,,,,,,,,,,,,,,,,,,
1703406428.514493,1703406428.515082,36.000000,0.000000,4200.641113,4163.077148,4265.897461,4229.615234,4161.025879,4197.307617,4216.282227,4173.589844,4154.615234,4155.128418,4615.384766,4450.000000,4414.102539,4508.846191,0.000000,4.000000,79.000000,,,,0.000000,4.000000,4.000000,4.000000,4.000000,4.000000,4.000000,4.000000,4.000000,4.000000,4.000000,4.000000,4.000000,4.000000,4.000000,100.000000,,,,,,,,,,,,,,,,,9.000000,0.000000,0.607080,0.271973,-0.636353,0.390564,0.984984,-0.164083,0.044927,-12.830579,-44.067181,64.171013
1703406428.522301,1703406428.522790,37.000000,0.000000,4210.641113,4166.922852,4268.461426,4233.077148,4169.230957,4198.589844,4218.589844,4179.230957,4162.307617,4165.769043,4622.820313,4461.410156,4425.256348,4516.025879,0.000000,4.000000,79.000000,,,,0.000000,4.000000,4.000000,4.000000,4.000000,4.000000,4.000000,4.000000,4.000000,4.000000,4.000000,4.000000,4.000000,4.000000,4.000000,100.000000,,,,,,,,,,,,,,,,,,,,,,,,,,,,
1703406428.530109,1703406428.530598,38.000000,0.000000,4212.179688,4156.794922,4269.102539,4227.307617,4168.717773,4197.948730,4218.205078,4175.512695,4168.333496,4171.282227,4628.205078,4461.538574,4438.589844,4520.128418,0.000000,4.000000,79.000000,,,,0.000000,4.000000,4.000000,4.000000,4.000000,4.000000,4.000000,4.000000,4.000000,4.000000,4.000000,4.000000,4.000000,4.000000,4.000000,100.000000,,,,,,,,,,,,,,,,,,,,,,,,,,,,
1703406428.537917,1703406428.538306,39.000000,0.000000,4206.025879,4147.307617,4271.282227,4222.692383,4165.769043,4187.307617,4215.769043,4168.846191,4164.871582,4168.077148,4630.256348,4458.846191,4441.410156,4517.820313,0.000000,4.000000,79.000000,,,,0.000000,4.000000,4.000000,4.000000,4.000000,4.000000,4.000000,4.000000,4.000000,4.000000,4.000000,4.000000,4.000000,4.000000,4.000000,100.000000,,,,,,,,,,,,,,,,,,,,,,,,,,,,
1703406428.545725,1703406428.546214,40.000000,0.000000,4211.794922,4152.948730,4277.820313,4229.102539,4167.820313,4185.641113,4214.358887,4168.333496,4162.563965,4171.666504,4636.282227,4461.153809,4445.769043,4521.153809,0.000000,4.000000,79.000000,,,,0.000000,4.000000,4.000000,4.000000,4.000000,4.000000,4.000000,4.000000,4.000000,4.000000,4.000000,4.000000,4.000000,4.000000,4.000000,100.000000,,,,,,,,,,,,,,,,,10.000000,0.000000,0.607058,0.271606,-0.636230,0.391052,0.987914,-0.156269,0.041997,-12.914188,-44.110462,64.270584
1703406428.553533,1703406428.554022,41.000000,0.000000,4214.102539,4151.153809,4276.922852,4229.358887,4169.230957,4195.384766,4216.025879,4168.717773,4166.025879,4173.333496,4636.025879,4461.666504,4446.282227,4524.102539,0.000000,4.000000,79.000000,,,,0.000000,4.000000,4.000000,4.000000,4.000000,4.000000,4.000000,4.000000,4.000000,4.000000,4.000000,4.000000,4.000000,4.000000,4.000000,100.000000,,,,,,,,,,,,,,,,,,,,,,,,,,,,
1703406428.561341,1703406428.561930,42.000000,0.000000,4202.051270,4136.410156,4271.922852,4224.871582,4166.794922,4192.307617,4216.794922,4171.794922,4168.461426,4169.871582,4632.948730,4459.871582,4441.922852,4519.615234,0.000000,4.000000,79.000000,,,,0.000000,4.000000,4.000000,4.000000,4.000000,4.000000,4.000000,4.000000,4.000000,4.000000,4.000000,4.000000,4.000000,4.000000,4.000000,100.000000,,,,,,,,,,,,,,,,,,,,,,,,,,,,
1703406428.569149,1703406428.569738,43.000000,0.000000,4198.333496,4134.358887,4275.000000,4226.025879,4159.102539,4185.000000,4217.179688,4183.333496,4172.820313,4175.897461,4641.922852,4461.282227,4448.461426,4519.487305,0.000000,4.000000,79.000000,,,,0.000000,4.000000,4.000000,4.000000,4.000000,4.000000,4.000000,4.000000,4.000000,4.000000,4.000000,4.000000,4.000000,4.000000,4.000000,100.000000,,,,,,,,,,,,,,,,,,,,,,,,,,,,
1703406428.576957,1703406428.577646,44.000000,0.000000,4203.461426,4138.846191,4277.692383,4225.128418,4152.692383,4185.769043,4219.487305,4192.820313,4178.461426,4185.641113,4646.282227,4462.179688,4453.589844,4521.153809,0.000000,4.000000,79.000000,,,,0.000000,4.000000,4.000000,4.000000,4.000000,4.000000,4.000000,4.000000,4.000000,4.000000,4.000000,4.000000,4.000000,4.000000,4.000000,100.000000,,,,,,,,,,,,,,,,,11.000000,0.000000,0.606867,0.271240,-0.636230,0.391602,0.970822,-0.169943,0.039067,-12.989436,-44.149418,64.143524
1703406428.584765,1703406428.585454,45.000000,0.000000,4200.512695,4136.410156,4275.000000,4222.051270,4158.974121,4187.563965,4218.333496,4188.974121,4174.871582,4183.589844,4640.769043,4465.897461,4448.077148,4517.563965,0.000000,4.000000,79.000000,,,,0.000000,4.000000,4.000000,4.000000,4.000000,4.000000,4.000000,4.000000,4.000000,4.000000,4.000000,4.000000,4.000000,4.000000,4.000000,100.000000,,,,,,,,,,,,,,,,,,,,,,,,,,,,
1703406428.592573,1703406428.593362,46.000000,0.000000,4202.051270,4136.794922,4280.000000,4229.615234,4169.743652,4190.384766,4216.282227,4185.897461,4171.282227,4168.974121,4649.487305,4473.846191,4452.051270,4519.743652,0.000000,4.000000,79.000000,,,,0.000000,4.000000,4.000000,4.000000,4.000000,4.000000,4.000000,4.000000,4.000000,4.000000,4.000000,4.000000,4.000000,4.000000,4.000000,100.000000,,,,,,,,,,,,,,,,,,,,,,,,,,,,
1703406428.600381,1703406428.601170,47.000000,0.000000,4207.563965,4138.461426,4286.538574,4234.871582,4169.358887,4192.051270,4218.974121,4192.436035,4175.256348,4163.461426,4659.102539,4477.692383,4461.282227,4525.769043,0.000000,4.000000,79.000000,,,,0.000000,4.000000,4.000000,4.000000,4.000000,4.000000,4.000000,4.000000,4.000000,4.000000,4.000000,4.000000,4.000000,4.000000,4.000000,100.000000,,,,,,,,,,,,,,,,,,,,,,,,,,,,
1703406428.608189,1703406428.609078,48.000000,0.000000,4205.000000,4135.000000,4282.307617,4228.846191,4159.743652,4185.641113,4219.871582,4193.846191,4175.256348,4178.333496,4652.692383,4477.307617,4460.897461,4524.871582,0.000000,4.000000,79.000000,,,,0.000000,4.000000,4.000000,4.000000,4.000000,4.000000,4.000000,4.000000,4.000000,4.000000,4.000000,4.000000,4.000000,4.000000,4.000000,100.000000,,,,,,,,,,,,,,,,,12.000000,0.000000,0.606971,0.270752,-0.635925,0.392273,0.974728,-0.181174,0.039067,-13.057158,-44.267807,63.862503
1703406428.615997,1703406428.616885,49.000000,0.000000,4205.512695,4134.230957,4279.487305,4228.333496,4155.512695,4184.358887,4215.512695,4181.410156,4169.487305,4190.897461,4646.666504,4471.794922,4458.589844,4521.922852,0.000000,4.000000,79.000000,,,,0.000000,4.000000,4.000000,4.000000,4.000000,4.000000,4.000000,4.000000,4.000000,4.000000,4.000000,4.000000,4.000000,4.000000,4.000000,100.000000,,,,,,,,,,,,,,,,,,,,,,,,,,,,
1703406428.623806,1703406428.624594,50.000000,0.000000,4209.230957,4135.769043,4284.358887,4230.384766,4158.589844,4189.230957,4214.230957,4168.461426,4162.820313,4181.538574,4645.897461,4468.461426,4453.846191,4521.922852,0.000000,4.000000,79.000000,,,,0.000000,4.000000,4.000000,4.000000,4.000000,4.000000,4.000000,4.000000,4.000000,4.000000,4.000000,4.000000,4.000000,4.000000,4.000000,100.000000,,,,,,,,,,,,,,,,,,,,,,,,,,,,
1703406428.631614,1703406428.632402,51.000000,0.000000,4213.205078,4135.769043,4288.974121,4230.897461,4157.692383,4185.769043,4214.230957,4166.410156,4155.512695,4173.461426,4645.641113,4473.461426,4452.436035,4522.820313,0.000000,4.000000,79.000000,,,,0.000000,4.000000,4.000000,4.000000,4.000000,4.000000,4.000000,4.000000,4.000000,4.000000,4.000000,4.000000,4.000000,4.000000,4.000000,100.000000,,,,,,,,,,,,,,,,,,,,,,,,,,,,
1703406428.639422,1703406428.640110,52.000000,0.000000,4216.794922,4138.589844,4287.179688,4232.948730,4154.871582,4183.717773,4213.589844,4166.922852,4155.769043,4183.077148,4647.692383,4477.820313,4457.820313,4525.769043,0.000000,4.000000,79.000000,,,,0.000000,4.000000,4.000000,4.000000,4.000000,4.000000,4.000000,4.000000,4.000000,4.000000,4.000000,4.000000,4.000000,4.000000,4.000000,100.000000,,,,,,,,,,,,,,,,,13.000000,0.000000,0.607154,0.270508,-0.635742,0.392456,0.981077,-0.195336,0.045416,-12.951443,-44.374363,63.909588
1703406428.647230,1703406428.647918,53.000000,0.000000,4209.615234,4137.948730,4281.922852,4227.820313,4156.922852,4186.538574,4214.487305,4168.077148,4163.974121,4184.487305,4646.794922,4473.846191,4452.436035,4524.358887,0.000000,4.000000,79.000000,,,,0.000000,4.000000,4.000000,4.000000,4.000000,4.000000,4.000000,4.000000,4.000000,4.000000,4.000000,4.000000,4.000000,4.000000,4.000000,100.000000,,,,,,,,,,,,,,,,,,,,,,,,,,,,
1703406428.655038,1703406428.655626,54.000000,0.000000,4200.512695,4135.897461,4280.384766,4222.820313,4157.948730,4185.769043,4216.282227,4176.538574,4170.897461,4176.538574,4646.025879,4474.102539,4447.948730,4521.538574,0.000000,4.000000,79.000000,,,,0.000000,4.000000,4.000000,4.000000,4.000000,4.000000,4.000000,4.000000,4.000000,4.000000,4.000000,4.000000,4.000000,4.000000,4.000000,100.000000,,,,,,,,,,,,,,,,,,,,,,,,,,,,
1703406428.662846,1703406428.663434,55.000000,0.000000,4202.307617,4138.205078,4278.333496,4225.897461,4153.846191,4184.230957,4217.692383,4190.897461,4173.461426,4179.487305,4650.769043,4477.692383,4455.256348,4523.846191,0.000000,4.000000,79.000000,,,,0.000000,4.000000,4.000000,4.000000,4.000000,4.000000,4.000000,4.000000,4.000000,4.000000,4.000000,4.000000,4.000000,4.000000,4.000000,100.000000,,,,,,,,,,,,,,,,,,,,,,,,,,,,
1703406428.670654,1703406428.671142,56.000000,0.000000,4204.743652,4141.282227,4273.974121,4228.461426,4153.717773,4183.589844,4217.820313,4200.641113,4179.615234,4185.512695,4651.410156,4474.102539,4452.436035,4524.230957,0.000000,4.000000,79.000000,,,,0.000000,4.000000,4.000000,4.000000,4.000000,4.000000,4.000000,4.000000,4.000000,4.000000,4.000000,4.000000,4.000000,4.000000,4.000000,100.000000,,,,,,,,,,,,,,,,,14.000000,0.000000,0.607134,0.270142,-0.635803,0.392639,0.979612,-0.167501,0.039067,-12.939632,-44.270260,63.785294
1703406428.678462,1703406428.679050,57.000000,0.000000,4201.538574,4141.538574,4276.666504,4226.794922,4157.307617,4184.871582,4216.282227,4201.922852,4184.615234,4183.974121,4646.794922,4473.333496,4442.820313,4522.179688,0.000000,4.000000,79.000000,,,,0.000000,4.000000,4.000000,4.000000,4.000000,4.000000,4.000000,4.000000,4.000000,4.000000,4.000000,4.000000,4.000000,4.000000,4.000000,100.000000,,,,,,,,,,,,,,,,,,,,,,,,,,,,
1703406428.686270,1703406428.686858,58.000000,0.000000,4200.897461,4139.615234,4279.615234,4229.230957,4155.256348,4185.512695,4216.025879,4197.436035,4178.333496,4184.358887,4645.897461,4472.307617,4444.230957,4521.538574,0.000000,4.000000,79.000000,,,,0.000000,4.000000,4.000000,4.000000,4.000000,4.000000,4.000000,4.000000,4.000000,4.000000,4.000000,4.000000,4.000000,4.000000,4.000000,100.000000,,,,,,,,,,,,,,,,,,,,,,,,,,,,
1703406428.694078,1703406428.694766,59.000000,0.000000,4202.051270,4139.487305,4274.871582,4231.282227,4155.128418,4179.871582,4212.051270,4191.025879,4168.846191,4185.000000,4646.025879,4465.384766,4444.102539,4520.897461,0.000000,4.000000,79.000000,,,,0.000000,4.000000,4.000000,4.000000,4.000000,4.000000,4.000000,4.000000,4.000000,4.000000,4.000000,4.000000,4.000000,4.000000,4.000000,100.000000,,,,,,,,,,,,,,,,,,,,,,,,,,,,
1703406428.701886,1703406428.702574,60.000000,0.000000,4201.282227,4140.000000,4274.230957,4227.307617,4158.461426,4177.692383,4206.666504,4183.974121,4168.461426,4176.794922,4639.358887,4462.563965,4440.384766,4520.641113,0.000000,4.000000,79.000000,,,,0.000000,4.000000,4.000000,4.000000,4.000000,4.000000,4.000000,4.000000,4.000000,4.000000,4.000000,4.000000,4.000000,4.000000,4.000000,100.000000,,,,,,,,,,,,,,,,,15.000000,0.000000,0.607408,0.269958,-0.635620,0.392639,0.973752,-0.174826,0.042486,-13.129003,-44.159901,63.690098
1703406428.709694,1703406428.710482,61.000000,0.000000,4203.974121,4140.641113,4279.487305,4225.897461,4159.615234,4183.205078,4205.384766,4176.666504,4170.641113,4168.974121,4634.743652,4464.358887,4443.205078,4521.153809,0.000000,4.000000,79.000000,,,,0.000000,4.000000,4.000000,4.000000,4.000000,4.000000,4.000000,4.000000,4.000000,4.000000,4.000000,4.000000,4.000000,4.000000,4.000000,100.000000,,,,,,,,,,,,,,,,,,,,,,,,,,,,
1703406428.717502,1703406428.718290,62.000000,0.000000,4208.846191,4146.153809,4279.102539,4231.794922,4164.743652,4180.256348,4203.717773,4168.717773,4164.871582,4167.563965,4639.102539,4462.307617,4442.692383,4521.282227,0.000000,4.000000,79.000000,,,,0.000000,4.000000,4.000000,4.000000,4.000000,4.000000,4.000000,4.000000,4.000000,4.000000,4.000000,4.000000,4.000000,4.000000,4.000000,100.000000,,,,,,,,,,,,,,,,,,,,,,,,,,,,
1703406428.725310,1703406428.726198,63.000000,0.000000,4215.000000,4154.487305,4280.897461,4243.717773,4173.974121,4178.077148,4203.461426,4163.461426,4159.871582,4167.948730,4645.000000,4461.794922,4443.333496,4523.974121,0.000000,4.000000,79.000000,,,,0.000000,4.000000,4.000000,4.000000,4.000000,4.000000,4.000000,4.000000,4.000000,4.000000,4.000000,4.000000,4.000000,4.000000,4.000000,100.000000,,,,,,,,,,,,,,,,,,,,,,,,,,,,
1703406428.733118,1703406428.734006,64.000000,0.000000,4219.230957,4158.333496,4284.871582,4247.820313,4175.641113,4181.410156,4203.717773,4162.051270,4158.846191,4169.743652,4643.077148,4466.153809,4450.128418,4528.333496,4549.000000,4.000000,79.000000,,,,0.000000,4.000000,4.000000,4.000000,4.000000,4.000000,4.000000,4.000000,4.000000,4.000000,4.000000,4.000000,4.000000,4.000000,4.000000,100.000000,,,,,,,,,,,,,,,,,16.000000,0.000000,0.607692,0.269592,-0.635315,0.392944,0.979612,-0.174826,0.039067,-13.099435,-44.277241,63.921089
1703406428.740926,1703406428.741814,65.000000,0.000000,4213.461426,4156.410156,4278.333496,4236.794922,4166.153809,4178.717773,4202.436035,4163.589844,4157.692383,4171.922852,4636.025879,4464.487305,4444.743652,4525.384766,5202.000000,4.000000,79.000000,,,,0.000000,4.000000,4.000000,4.000000,4.000000,4.000000,4.000000,4.000000,4.000000,4.000000,4.000000,4.000000,4.000000,4.000000,4.000000,100.000000,,,,,,,,,,,,,,,,,,,,,,,,,,,,
1703406428.748734,1703406428.749522,66.000000,0.000000,4201.153809,4148.846191,4272.179688,4227.179688,4156.794922,4177.820313,4204.230957,4173.077148,4163.077148,4168.077148,4631.410156,4457.692383,4428.461426,4517.436035,5290.000000,4.000000,79.000000,,,,0.000000,4.000000,4.000000,4.000000,4.000000,4.000000,4.000000,4.000000,4.000000,4.000000,4.000000,4.000000,4.000000,4.000000,4.000000,100.000000,,,,,,,,,,,,,,,,,,,,,,,,,,,,
1703406428.756543,1703406428.757430,67.000000,0.000000,4195.769043,4141.538574,4273.333496,4226.153809,4155.384766,4181.410156,4207.051270,4187.948730,4170.256348,4163.717773,4631.922852,4458.461426,4427.436035,4516.922852,5298.000000,4.000000,79.000000,,,,0.000000,4.000000,4.000000,4.000000,4.000000,4.000000,4.000000,4.000000,4.000000,4.000000,4.000000,4.000000,4.000000,4.000000,4.000000,100.000000,,,,,,,,,,,,,,,,,,,,,,,,,,,,
1703406428.764351,1703406428.765238,68.000000,0.000000,4207.436035,4150.384766,4273.846191,4231.794922,4162.948730,4180.128418,4212.307617,4200.769043,4172.948730,4174.871582,4643.461426,4471.922852,4442.563965,4529.487305,4993.000000,4.000000,79.000000,,,,0.000000,4.000000,4.000000,4.000000,4.000000,4.000000,4.000000,4.000000,4.000000,4.000000,4.000000,4.000000,4.000000,4.000000,4.000000,100.000000,,,,,,,,,,,,,,,,,17.000000,0.000000,0.607970,0.269348,-0.634888,0.393372,0.966915,-0.186058,0.057136,-12.989491,-44.182850,63.912312
1703406428.772159,1703406428.773146,69.000000,0.000000,4217.051270,4165.512695,4273.717773,4238.205078,4170.384766,4177.051270,4213.589844,4202.179688,4172.948730,4182.820313,4652.692383,4478.717773,4450.512695,4537.563965,2860.000000,4.000000,79.000000,,,,0.000000,4.000000,4.000000,4.000000,4.000000,4.000000,4.000000,4.000000,4.000000,4.000000,4.000000,4.000000,4.000000,4.000000,4.000000,100.000000,,,,,,,,,,,,,,,,,,,,,,,,,,,,
1703406428.779967,1703406428.780954,70.000000,0.000000,4203.974121,4153.461426,4274.615234,4229.743652,4160.384766,4179.615234,4206.538574,4190.641113,4171.025879,4169.230957,4641.282227,4466.025879,4439.230957,4527.179688,3193.000000,4.000000,79.000000,,,,0.000000,4.000000,4.000000,4.000000,4.000000,4.000000,4.000000,4.000000,4.000000,4.000000,4.000000,4.000000,4.000000,4.000000,4.000000,100.000000,,,,,,,,,,,,,,,,,,,,,,,,,,,,
1703406428.787775,1703406428.788862,71.000000,0.000000,4192.307617,4137.436035,4272.436035,4220.128418,4150.641113,4183.846191,4205.256348,4179.487305,4165.384766,4156.025879,4621.410156,4454.615234,4419.615234,4512.563965,5374.000000,4.000000,79.000000,,,,0.000000,4.000000,4.000000,4.000000,4.000000,4.000000,4.000000,4.000000,4.000000,4.000000,4.000000,4.000000,4.000000,4.000000,4.000000,100.000000,,,,,,,,,,,,,,,,,,,,,,,,,,,,
1703406428.795583,1703406428.796670,72.000000,0.000000,4205.128418,4154.487305,4274.230957,4230.384766,4162.179688,4188.589844,4210.897461,4179.358887,4165.897461,4168.205078,4627.436035,4459.871582,4421.538574,4516.922852,4727.000000,4.000000,79.000000,,,,0.000000,4.000000,4.000000,4.000000,4.000000,4.000000,4.000000,4.000000,4.000000,4.000000,4.000000,4.000000,4.000000,4.000000,4.000000,100.000000,,,,,,,,,,,,,,,,,18.000000,0.000000,0.608436,0.268982,-0.634521,0.393494,0.984495,-0.181174,0.052252,-12.973876,-44.297901,63.871082
1703406428.803391,1703406428.804378,73.000000,0.000000,4220.641113,4175.128418,4283.205078,4239.615234,4174.102539,4190.769043,4209.102539,4181.794922,4171.538574,4184.487305,4647.563965,4464.871582,4445.384766,4535.000000,5217.000000,4.000000,79.000000,,,,0.000000,4.000000,4.000000,4.000000,4.000000,4.000000,4.000000,4.000000,4.000000,4.000000,4.000000,4.000000,4.000000,4.000000,4.000000,100.000000,,,,,,,,,,,,,,,,,,,,,,,,,,,,
1703406428.811199,1703406428.812186,74.000000,0.000000,4218.846191,4166.794922,4282.820313,4233.846191,4166.922852,4192.307617,4205.000000,4174.615234,4163.461426,4174.487305,4641.666504,4460.641113,4450.512695,4539.743652,5850.000000,4.000000,79.000000,,,,0.000000,4.000000,4.000000,4.000000,4.000000,4.000000,4.000000,4.000000,4.000000,4.000000,4.000000,4.000000,4.000000,4.000000,4.000000,100.000000,,,,,,,,,,,,,,,,,,,,,,,,,,,,
1703406428.819007,1703406428.819894,75.000000,0.000000,4221.922852,4164.102539,4280.256348,4237.051270,4164.743652,4200.256348,4206.025879,4163.077148,4153.589844,4162.307617,4631.666504,4464.743652,4438.461426,4535.512695,6145.000000,4.000000,79.000000,,,,0.000000,4.000000,4.000000,4.000000,4.000000,4.000000,4.000000,4.000000,4.000000,4.000000,4.000000,4.000000,4.000000,4.000000,4.000000,100.000000,,,,,,,,,,,,,,,,,,,,,,,,,,,,
1703406428.826815,1703406428.827702,76.000000,0.000000,4234.871582,4185.897461,4290.384766,4249.871582,4174.487305,4203.846191,4202.820313,4153.717773,4154.230957,4169.615234,4642.820313,4473.333496,4441.922852,4544.102539,6534.000000,4.000000,79.000000,,,,0.000000,4.000000,4.000000,4.000000,4.000000,4.000000,4.000000,4.000000,4.000000,4.000000,4.000000,4.000000,4.000000,4.000000,4.000000,100.000000,,,,,,,,,,,,,,,,,19.000000,0.000000,0.608893,0.268860,-0.634399,0.393066,0.958613,-0.172384,0.049322,-12.893155,-44.384777,63.817307
1703406428.834623,1703406428.835410,77.000000,0.000000,4236.794922,4193.974121,4297.051270,4250.384766,4170.128418,4195.769043,4197.948730,4150.641113,4153.589844,4175.256348,4650.512695,4474.358887,4448.589844,4554.230957,7008.000000,4.000000,79.000000,,,,0.000000,4.000000,4.000000,4.000000,4.000000,4.000000,4.000000,4.000000,4.000000,4.000000,4.000000,4.000000,4.000000,4.000000,4.000000,100.000000,,,,,,,,,,,,,,,,,,,,,,,,,,,,
1703406428.842431,1703406428.843218,78.000000,0.000000,4232.051270,4186.153809,4291.922852,4244.102539,4157.436035,4179.358887,4199.358887,4161.025879,4156.922852,4170.512695,4641.025879,4474.230957,4439.743652,4552.307617,5850.000000,4.000000,79.000000,,,,0.000000,4.000000,4.000000,4.000000,4.000000,4.000000,4.000000,4.000000,4.000000,4.000000,4.000000,4.000000,4.000000,4.000000,4.000000,100.000000,1.000000,91.666664,4.000000,4.000000,4.000000,4.000000,4.000000,3.000000,4.000000,4.000000,4.000000,4.000000,4.000000,4.000000,4.000000,4.000000,,,,,,,,,,,,
1703406428.850239,1703406428.850926,79.000000,0.000000,4230.512695,4183.461426,4289.487305,4238.846191,4155.769043,4169.487305,4197.307617,4179.102539,4169.230957,4170.256348,4636.153809,4474.487305,4432.692383,4549.102539,6145.000000,4.000000,79.000000,,,,0.000000,4.000000,4.000000,4.000000,4.000000,4.000000,4.000000,4.000000,4.000000,4.000000,4.000000,4.000000,4.000000,4.000000,4.000000,100.000000,,,,,,,,,,,,,,,,,,,,,,,,,,,,
1703406428.858047,1703406428.858734,80.000000,0.000000,4222.307617,4176.538574,4282.051270,4233.333496,4159.615234,4168.974121,4191.410156,4186.794922,4168.589844,4164.487305,4631.666504,4466.922852,4428.333496,4545.000000,6534.000000,4.000000,79.000000,,,,0.000000,4.000000,4.000000,4.000000,4.000000,4.000000,4.000000,4.000000,4.000000,4.000000,4.000000,4.000000,4.000000,4.000000,4.000000,100.000000,,,,,,,,,,,,,,,,,20.000000,0.000000,0.609481,0.268494,-0.634216,0.392700,0.977170,-0.168966,0.046392,-13.003839,-44.429630,63.885578
1703406428.865855,1703406428.866442,81.000000,0.000000,4213.846191,4172.051270,4266.922852,4231.538574,4158.461426,4168.333496,4193.205078,4183.589844,4154.487305,4149.871582,4619.230957,4455.769043,4419.102539,4536.025879,7008.000000,4.000000,79.000000,,,,0.000000,4.000000,4.000000,4.000000,4.000000,4.000000,4.000000,4.000000,4.000000,4.000000,4.000000,4.000000,4.000000,4.000000,4.000000,100.000000,,,,,,,,,,,,,,,,,,,,,,,,,,,,
1703406428.873663,1703406428.874250,82.000000,0.000000,4222.820313,4179.743652,4267.051270,4233.589844,4157.307617,4164.358887,4196.538574,4186.666504,4158.974121,4155.512695,4626.282227,4460.128418,4425.256348,4541.410156,5850.000000,4.000000,79.000000,,,,0.000000,4.000000,4.000000,4.000000,4.000000,4.000000,4.000000,4.000000,4.000000,4.000000,4.000000,4.000000,4.000000,4.000000,4.000000,100.000000,,,,,,,,,,,,,,,,,,,,,,,,,,,,
1703406428.881471,1703406428.881958,83.000000,0.000000,4232.179688,4182.051270,4276.025879,4234.102539,4162.563965,4161.794922,4193.205078,4188.461426,4171.666504,4170.384766,4645.384766,4474.102539,4446.282227,4556.410156,6145.000000,4.000000,79.000000,,,,0.000000,4.000000,4.000000,4.000000,4.000000,4.000000,4.000000,4.000000,4.000000,4.000000,4.000000,4.000000,4.000000,4.000000,4.000000,100.000000,,,,,,,,,,,,,,,,,,,,,,,,,,,,
1703406428.889279,1703406428.889766,84.000000,0.000000,4228.589844,4174.871582,4274.743652,4238.077148,4167.051270,4163.846191,4190.769043,4177.948730,4165.000000,4172.692383,4643.589844,4472.692383,4447.436035,4554.743652,6534.000000,4.000000,79.000000,,,,0.000000,4.000000,4.000000,4.000000,4.000000,4.000000,4.000000,4.000000,4.000000,4.000000,4.000000,4.000000,4.000000,4.000000,4.000000,100.000000,,,,,,,,,,,,,,,,,21.000000,0.000000,0.609921,0.268250,-0.633972,0.392578,0.979123,-0.163106,0.049811,-12.936789,-44.403336,63.847019
1703406428.897087,1703406428.897474,85.000000,0.000000,4227.820313,4183.589844,4273.333496,4246.666504,4168.717773,4166.666504,4192.179688,4169.358887,4154.230957,4166.153809,4627.948730,4461.410156,4427.948730,4545.512695,7008.000000,4.000000,79.000000,,,,0.000000,4.000000,4.000000,4.000000,4.000000,4.000000,4.000000,4.000000,4.000000,4.000000,4.000000,4.000000,4.000000,4.000000,4.000000,100.000000,,,,,,,,,,,,,,,,,,,,,,,,,,,,
1703406428.904895,1703406428.905282,86.000000,0.000000,4234.102539,4196.282227,4278.333496,4249.230957,4171.794922,4167.820313,4186.922852,4164.743652,4153.461426,4156.410156,4626.538574,4460.769043,4429.102539,4550.128418,5850.000000,4.000000,79.000000,,,,0.000000,4.000000,4.000000,4.000000,4.000000,4.000000,4.000000,4.000000,4.000000,4.000000,4.000000,4.000000,4.000000,4.000000,4.000000,100.000000,,,,,,,,,,,,,,,,,,,,,,,,,,,,
1703406428.912703,1703406428.912990,87.000000,0.000000,4234.230957,4192.948730,4275.769043,4247.563965,4173.589844,4167.563965,4181.025879,4153.846191,4152.179688,4154.358887,4631.666504,4459.615234,4444.871582,4555.256348,6145.000000,4.000000,79.000000,,,,0.000000,4.000000,4.000000,4.000000,4.000000,4.000000,4.000000,4.000000,4.000000,4.000000,4.000000,4.000000,4.000000,4.000000,4.000000,100.000000,,,,,,,,,,,,,,,,,,,,,,,,,,,,
1703406428.920512,1703406428.920898,88.000000,0.000000,4229.743652,4186.794922,4272.179688,4249.743652,4166.025879,4168.205078,4184.358887,4148.333496,4149.871582,4164.615234,4627.051270,4451.794922,4442.436035,4551.153809,6534.000000,4.000000,79.000000,,,,0.000000,4.000000,4.000000,4.000000,4.000000,4.000000,4.000000,4.000000,4.000000,4.000000,4.000000,4.000000,4.000000,4.000000,4.000000,100.000000,,,,,,,,,,,,,,,,,22.000000,0.000000,0.610126,0.268127,-0.633789,0.392639,0.968380,-0.171896,0.054206,-12.993110,-44.446335,63.795650
1703406428.928320,1703406428.928706,89.000000,0.000000,4230.384766,4186.922852,4277.948730,4250.769043,4157.563965,4169.230957,4183.589844,4150.641113,4152.051270,4169.615234,4624.871582,4455.641113,4436.410156,4551.410156,7008.000000,4.000000,79.000000,,,,0.000000,4.000000,4.000000,4.000000,4.000000,4.000000,4.000000,4.000000,4.000000,4.000000,4.000000,4.000000,4.000000,4.000000,4.000000,100.000000,,,,,,,,,,,,,,,,,,,,,,,,,,,,
1703406428.936128,1703406428.936614,90.000000,0.000000,4235.000000,4189.487305,4280.000000,4249.487305,4157.436035,4169.230957,4176.666504,4157.436035,4154.102539,4164.871582,4629.358887,4463.717773,4443.974121,4557.820313,5850.000000,4.000000,79.000000,,,,0.000000,4.000000,4.000000,4.000000,4.000000,4.000000,4.000000,4.000000,4.000000,4.000000,4.000000,4.000000,4.000000,4.000000,4.000000,100.000000,,,,,,,,,,,,,,,,,,,,,,,,,,,,
1703406428.943936,1703406428.944422,91.000000,0.000000,4231.025879,4188.077148,4275.769043,4249.487305,4157.436035,4174.487305,4175.897461,4175.641113,4159.102539,4167.179688,4630.000000,4463.846191,4444.743652,4558.205078,6145.000000,4.000000,79.000000,,,,0.000000,4.000000,4.000000,4.000000,4.000000,4.000000,4.000000,4.000000,4.000000,4.000000,4.000000,4.000000,4.000000,4.000000,4.000000,100.000000,,,,,,,,,,,,,,,,,,,,,,,,,,,,
1703406428.951744,1703406428.952329,92.000000,0.000000,4216.538574,4177.948730,4272.436035,4243.461426,4153.974121,4183.077148,4184.487305,4192.563965,4167.692383,4166.538574,4620.769043,4464.358887,4430.641113,4550.128418,6534.000000,4.000000,79.000000,,,,0.000000,4.000000,4.000000,4.000000,4.000000,4.000000,4.000000,4.000000,4.000000,4.000000,4.000000,4.000000,4.000000,4.000000,4.000000,100.000000,,,,,,,,,,,,,,,,,23.000000,0.000000,0.610396,0.267822,-0.633545,0.392822,0.982053,-0.171408,0.040044,-12.927133,-44.335033,63.966084
1703406428.959552,1703406428.960137,93.000000,0.000000,4210.256348,4169.871582,4271.666504,4233.846191,4155.897461,4186.794922,4189.230957,4193.461426,4170.128418,4160.000000,4617.692383,4465.769043,4425.384766,4545.384766,7008.000000,4.000000,79.000000,,,,0.000000,4.000000,4.000000,4.000000,4.000000,4.000000,4.000000,4.000000,4.000000,4.000000,4.000000,4.000000,4.000000,4.000000,4.000000,100.000000,,,,,,,,,,,,,,,,,,,,,,,,,,,,
1703406428.967360,1703406428.968045,94.000000,0.000000,4215.384766,4173.333496,4273.974121,4232.563965,4158.717773,4186.153809,4185.128418,4185.000000,4163.974121,4157.820313,4625.256348,4463.846191,4429.102539,4548.461426,5850.000000,4.000000,79.000000,,,,0.000000,4.000000,4.000000,4.000000,4.000000,4.000000,4.000000,4.000000,4.000000,4.000000,4.000000,4.000000,4.000000,4.000000,4.000000,100.000000,,,,,,,,,,,,,,,,,,,,,,,,,,,,
1703406428.975168,1703406428.975853,95.000000,0.000000,4217.563965,4180.512695,4279.230957,4238.205078,4157.563965,4185.897461,4185.512695,4176.282227,4157.307617,4155.769043,4627.307617,4463.717773,4432.436035,4552.179688,6145.000000,4.000000,79.000000,,,,0.000000,4.000000,4.000000,4.000000,4.000000,4.000000,4.000000,4.000000,4.000000,4.000000,4.000000,4.000000,4.000000,4.000000,4.000000,100.000000,,,,,,,,,,,,,,,,,,,,,,,,,,,,
1703406428.982976,1703406428.983761,96.000000,0.000000,4213.846191,4180.897461,4280.641113,4242.436035,4163.717773,4190.000000,4187.692383,4171.282227,4155.512695,4152.179688,4623.077148,4463.461426,4435.897461,4552.051270,6534.000000,4.000000,79.000000,,,,0.000000,4.000000,4.000000,4.000000,4.000000,4.000000,4.000000,4.000000,4.000000,4.000000,4.000000,4.000000,4.000000,4.000000,4.000000,100.000000,,,,,,,,,,,,,,,,,24.000000,0.000000,0.610613,0.267456,-0.633301,0.393127,0.977658,-0.171896,0.051764,-12.934419,-44.384865,63.986145
1703406428.990784,1703406428.991569,97.000000,0.000000,4214.487305,4182.436035,4279.487305,4245.256348,4171.794922,4194.743652,4186.282227,4167.179688,4155.256348,4152.820313,4623.717773,4461.410156,4435.128418,4551.410156,7008.000000,4.000000,79.000000,,,,0.000000,4.000000,4.000000,4.000000,4.000000,4.000000,4.000000,4.000000,4.000000,4.000000,4.000000,4.000000,4.000000,4.000000,4.000000,100.000000,,,,,,,,,,,,,,,,,,,,,,,,,,,,
1703406428.998592,1703406428.999277,98.000000,0.000000,4222.436035,4186.410156,4282.051270,4247.307617,4170.000000,4194.615234,4185.897461,4157.563965,4154.102539,4162.051270,4627.436035,4461.025879,4436.794922,4553.077148,5850.000000,4.000000,79.000000,,,,0.000000,4.000000,4.000000,4.000000,4.000000,4.000000,4.000000,4.000000,4.000000,4.000000,4.000000,4.000000,4.000000,4.000000,4.000000,100.000000,,,,,,,,,,,,,,,,,,,,,,,,,,,,
1703406429.006400,1703406429.007085,99.000000,0.000000,4230.641113,4187.820313,4285.128418,4246.794922,4165.000000,4187.948730,4184.102539,4144.871582,4153.974121,4171.922852,4627.051270,4462.563965,4443.974121,4553.974121,6145.000000,4.000000,79.000000,,,,0.000000,4.000000,4.000000,4.000000,4.000000,4.000000,4.000000,4.000000,4.000000,4.000000,4.000000,4.000000,4.000000,4.000000,4.000000,100.000000,,,,,,,,,,,,,,,,,,,,,,,,,,,,
1703406429.014208,1703406429.014793,100.000000,0.000000,4234.358887,4190.897461,4287.051270,4246.538574,4166.666504,4183.205078,4179.743652,4137.948730,4148.333496,4171.025879,4627.820313,4466.410156,4443.717773,4555.128418,6534.000000,4.000000,79.000000,,,,0.000000,4.000000,4.000000,4.000000,4.000000,4.000000,4.000000,4.000000,4.000000,4.000000,4.000000,4.000000,4.000000,4.000000,4.000000,100.000000,,,,,,,,,,,,,,,,,25.000000,0.000000,0.610930,0.267151,-0.632935,0.393433,0.974728,-0.184593,0.051764,-12.840977,-44.479713,63.937531
1703406429.022016,1703406429.022601,101.000000,0.000000,4236.666504,4198.846191,4288.846191,4250.000000,4170.384766,4191.153809,4179.743652,4143.077148,4142.948730,4165.641113,4632.692383,4472.051270,4441.025879,4561.025879,7008.000000,4.000000,79.000000,,,,0.000000,4.000000,4.000000,4.000000,4.000000,4.000000,4.000000,4.000000,4.000000,4.000000,4.000000,4.000000,4.000000,4.000000,4.000000,100.000000,,,,,,,,,,,,,,,,,,,,,,,,,,,,
1703406429.029824,1703406429.030309,102.000000,0.000000,4238.077148,4199.230957,4288.461426,4253.077148,4166.025879,4198.077148,4183.717773,4162.436035,4151.538574,4170.512695,4636.282227,4478.974121,4445.897461,4565.512695,5850.000000,4.000000,79.000000,,,,0.000000,4.000000,4.000000,4.000000,4.000000,4.000000,4.000000,4.000000,4.000000,4.000000,4.000000,4.000000,4.000000,4.000000,4.000000,100.000000,,,,,,,,,,,,,,,,,,,,,,,,,,,,
1703406429.037632,1703406429.038117,103.000000,0.000000,4231.794922,4187.948730,4283.333496,4247.948730,4158.717773,4192.051270,4184.743652,4179.615234,4160.000000,4170.256348,4635.384766,4477.563965,4441.282227,4559.743652,6145.000000,4.000000,79.000000,,,,0.000000,4.000000,4.000000,4.000000,4.000000,4.000000,4.000000,4.000000,4.000000,4.000000,4.000000,4.000000,4.000000,4.000000,4.000000,100.000000,,,,,,,,,,,,,,,,,,,,,,,,,,,,
1703406429.045440,1703406429.045825,104.000000,0.000000,4223.077148,4181.794922,4276.538574,4241.538574,4159.102539,4188.717773,4189.615234,4181.794922,4159.358887,4157.179688,4630.769043,4466.922852,4429.487305,4553.077148,6534.000000,4.000000,79.000000,,,,0.000000,4.000000,4.000000,4.000000,4.000000,4.000000,4.000000,4.000000,4.000000,4.000000,4.000000,4.000000,4.000000,4.000000,4.000000,100.000000,,,,,,,,,,,,,,,,,26.000000,0.000000,0.611417,0.266724,-0.632568,0.393555,0.970822,-0.175314,0.060066,-12.906879,-44.431740,63.993774
1703406429.053248,1703406429.053633,105.000000,0.000000,4219.102539,4184.230957,4273.461426,4242.051270,4163.846191,4198.333496,4194.487305,4182.692383,4161.410156,4154.102539,4628.077148,4460.641113,4426.153809,4552.179688,7008.000000,4.000000,79.000000,,,,0.000000,4.000000,4.000000,4.000000,4.000000,4.000000,4.000000,4.000000,4.000000,4.000000,4.000000,4.000000,4.000000,4.000000,4.000000,100.000000,,,,,,,,,,,,,,,,,,,,,,,,,,,,
1703406429.061057,1703406429.061341,106.000000,0.000000,4220.769043,4184.615234,4273.077148,4243.333496,4161.794922,4203.974121,4193.461426,4182.307617,4161.153809,4156.025879,4627.948730,4460.769043,4428.077148,4551.794922,5850.000000,4.000000,79.000000,,,,0.000000,4.000000,4.000000,4.000000,4.000000,4.000000,4.000000,4.000000,4.000000,4.000000,4.000000,4.000000,4.000000,4.000000,4.000000,100.000000,,,,,,,,,,,,,,,,,,,,,,,,,,,,
1703406429.068864,1703406429.069149,107.000000,0.000000,4227.820313,4186.025879,4275.384766,4241.922852,4162.563965,4197.820313,4192.563965,4175.897461,4155.897461,4155.769043,4631.922852,4461.410156,4436.538574,4558.077148,6145.000000,4.000000,79.000000,,,,0.000000,4.000000,4.000000,4.000000,4.000000,4.000000,4.000000,4.000000,4.000000,4.000000,4.000000,4.000000,4.000000,4.000000,4.000000,100.000000,,,,,,,,,,,,,,,,,,,,,,,,,,,,
1703406429.076672,1703406429.076857,108.000000,0.000000,4232.692383,4189.615234,4281.666504,4245.769043,4164.487305,4190.897461,4191.410156,4170.384766,4156.538574,4162.436035,4636.025879,4464.487305,4445.000000,4570.128418,6534.000000,4.000000,79.000000,,,,0.000000,4.000000,4.000000,4.000000,4.000000,4.000000,4.000000,4.000000,4.000000,4.000000,4.000000,4.000000,4.000000,4.000000,4.000000,100.000000,,,,,,,,,,,,,,,,,27.000000,0.000000,0.611978,0.266541,-0.632141,0.393494,0.976682,-0.171408,0.066414,-12.982859,-44.355232,64.227730
1703406429.084481,1703406429.084765,109.000000,0.000000,4232.820313,4190.128418,4284.743652,4249.102539,4161.025879,4185.769043,4186.794922,4163.589844,4155.897461,4169.487305,4635.641113,4467.051270,4438.846191,4568.974121,7008.000000,4.000000,79.000000,,,,0.000000,4.000000,4.000000,4.000000,4.000000,4.000000,4.000000,4.000000,4.000000,4.000000,4.000000,4.000000,4.000000,4.000000,4.000000,100.000000,,,,,,,,,,,,,,,,,,,,,,,,,,,,
1703406429.092289,1703406429.092573,110.000000,0.000000,4231.794922,4192.820313,4284.358887,4247.563965,4164.230957,4185.769043,4178.974121,4154.871582,4150.769043,4168.077148,4632.051270,4461.922852,4427.563965,4556.666504,5850.000000,4.000000,79.000000,,,,0.000000,4.000000,4.000000,4.000000,4.000000,4.000000,4.000000,4.000000,4.000000,4.000000,4.000000,4.000000,4.000000,4.000000,4.000000,100.000000,,,,,,,,,,,,,,,,,,,,,,,,,,,,
1703406429.100097,1703406429.100481,111.000000,0.000000,4232.563965,4199.871582,4291.410156,4254.743652,4171.538574,4186.666504,4175.897461,4149.230957,4152.307617,4165.769043,4632.820313,4462.563965,4428.974121,4553.846191,6145.000000,4.000000,79.000000,,,,0.000000,4.000000,4.000000,4.000000,4.000000,4.000000,4.000000,4.000000,4.000000,4.000000,4.000000,4.000000,4.000000,4.000000,4.000000,100.000000,,,,,,,,,,,,,,,,,,,,,,,,,,,,
1703406429.107905,1703406429.108289,112.000000,0.000000,4235.128418,4202.692383,4299.358887,4266.922852,4169.743652,4184.102539,4177.563965,4143.589844,4150.384766,4161.794922,4636.666504,4471.025879,4433.589844,4563.333496,6534.000000,4.000000,79.000000,,,,0.000000,4.000000,4.000000,4.000000,4.000000,4.000000,4.000000,4.000000,4.000000,4.000000,4.000000,4.000000,4.000000,4.000000,4.000000,100.000000,,,,,,,,,,,,,,,,,28.000000,0.000000,0.612539,0.266479,-0.631775,0.393250,0.984984,-0.163594,0.056159,-13.084573,-44.319710,64.454956
1703406429.115713,1703406429.116197,113.000000,0.000000,4237.307617,4204.230957,4296.282227,4263.974121,4165.384766,4183.589844,4175.641113,4138.846191,4141.538574,4156.282227,4635.000000,4471.282227,4432.307617,4570.256348,7008.000000,4.000000,79.000000,,,,0.000000,4.000000,4.000000,4.000000,4.000000,4.000000,4.000000,4.000000,4.000000,4.000000,4.000000,4.000000,4.000000,4.000000,4.000000,100.000000,,,,,,,,,,,,,,,,,,,,,,,,,,,,
1703406429.123521,1703406429.124005,114.000000,0.000000,4233.974121,4198.205078,4288.846191,4249.230957,4161.666504,4182.692383,4171.666504,4144.871582,4142.820313,4157.179688,4631.153809,4466.538574,4430.128418,4564.871582,5850.000000,4.000000,79.000000,,,,0.000000,4.000000,4.000000,4.000000,4.000000,4.000000,4.000000,4.000000,4.000000,4.000000,4.000000,4.000000,4.000000,4.000000,4.000000,100.000000,,,,,,,,,,,,,,,,,,,,,,,,,,,,
1703406429.131329,1703406429.131913,115.000000,0.000000,4227.179688,4185.512695,4286.025879,4240.897461,4161.666504,4182.051270,4174.102539,4155.769043,4151.794922,4157.820313,4630.384766,4464.743652,4427.436035,4553.846191,6145.000000,4.000000,79.000000,,,,0.000000,4.000000,4.000000,4.000000,4.000000,4.000000,4.000000,4.000000,4.000000,4.000000,4.000000,4.000000,4.000000,4.000000,4.000000,100.000000,,,,,,,,,,,,,,,,,,,,,,,,,,,,
1703406429.139137,1703406429.139721,116.000000,0.000000,4225.641113,4188.974121,4285.128418,4244.102539,4166.410156,4183.589844,4179.358887,4163.205078,4154.487305,4154.487305,4630.384766,4461.410156,4428.846191,4552.948730,6534.000000,4.000000,79.000000,,,,0.000000,4.000000,4.000000,4.000000,4.000000,4.000000,4.000000,4.000000,4.000000,4.000000,4.000000,4.000000,4.000000,4.000000,4.000000,100.000000,,,,,,,,,,,,,,,,,29.000000,0.000000,0.613035,0.266296,-0.631409,0.393188,0.966915,-0.160664,0.058601,-13.109448,-44.171074,64.392799
1703406429.146945,1703406429.147629,117.000000,0.000000,4227.563965,4197.179688,4282.436035,4243.205078,4159.487305,4183.333496,4181.025879,4170.769043,4153.461426,4154.871582,4632.563965,4459.230957,4430.384766,4562.948730,7008.000000,4.000000,79.000000,,,,0.000000,4.000000,4.000000,4.000000,4.000000,4.000000,4.000000,4.000000,4.000000,4.000000,4.000000,4.000000,4.000000,4.000000,4.000000,100.000000,,,,,,,,,,,,,,,,,,,,,,,,,,,,
1703406429.154753,1703406429.155437,118.000000,0.000000,4227.820313,4187.820313,4280.641113,4234.871582,4148.333496,4180.641113,4184.102539,4173.974121,4153.974121,4156.794922,4636.666504,4461.153809,4426.538574,4566.922852,5850.000000,4.000000,79.000000,,,,0.000000,4.000000,4.000000,4.000000,4.000000,4.000000,4.000000,4.000000,4.000000,4.000000,4.000000,4.000000,4.000000,4.000000,4.000000,100.000000,,,,,,,,,,,,,,,,,,,,,,,,,,,,
1703406429.162561,1703406429.163344,119.000000,0.000000,4227.948730,4185.897461,4281.410156,4234.871582,4153.717773,4180.512695,4186.410156,4171.410156,4153.461426,4154.871582,4637.436035,4460.769043,4426.922852,4563.717773,6145.000000,4.000000,79.000000,,,,0.000000,4.000000,4.000000,4.000000,4.000000,4.000000,4.000000,4.000000,4.000000,4.000000,4.000000,4.000000,4.000000,4.000000,4.000000,100.000000,,,,,,,,,,,,,,,,,,,,,,,,,,,,
1703406429.170369,1703406429.171253,120.000000,0.000000,4239.102539,4201.153809,4284.102539,4245.256348,4161.794922,4182.179688,4185.256348,4170.641113,4152.436035,4155.256348,4643.717773,4463.205078,4443.846191,4576.282227,6534.000000,4.000000,79.000000,,,,0.000000,4.000000,4.000000,4.000000,4.000000,4.000000,4.000000,4.000000,4.000000,4.000000,4.000000,4.000000,4.000000,4.000000,4.000000,100.000000,,,,,,,,,,,,,,,,,30.000000,0.000000,0.613253,0.266174,-0.631287,0.393127,0.973752,-0.163594,0.058601,-13.248504,-44.170631,64.386848
1703406429.178177,1703406429.179061,121.000000,0.000000,4248.333496,4206.410156,4288.461426,4248.974121,4160.769043,4180.256348,4181.538574,4171.282227,4153.461426,4160.256348,4651.410156,4468.205078,4450.512695,4589.871582,7008.000000,4.000000,79.000000,,,,0.000000,4.000000,4.000000,4.000000,4.000000,4.000000,4.000000,4.000000,4.000000,4.000000,4.000000,4.000000,4.000000,4.000000,4.000000,100.000000,,,,,,,,,,,,,,,,,,,,,,,,,,,,
1703406429.185985,1703406429.186869,122.000000,0.000000,4237.179688,4198.461426,4294.615234,4244.615234,4164.487305,4180.128418,4180.384766,4162.692383,4152.436035,4158.589844,4640.769043,4464.743652,4425.384766,4574.871582,5850.000000,4.000000,79.000000,,,,0.000000,4.000000,4.000000,4.000000,4.000000,4.000000,4.000000,4.000000,4.000000,4.000000,4.000000,4.000000,4.000000,4.000000,4.000000,100.000000,,,,,,,,,,,,,,,,,,,,,,,,,,,,
1703406429.193793,1703406429.194577,123.000000,0.000000,4233.205078,4197.820313,4299.871582,4245.128418,4169.358887,4182.051270,4180.384766,4152.692383,4151.538574,4157.692383,4637.692383,4465.769043,4421.153809,4567.307617,6145.000000,4.000000,79.000000,,,,0.000000,4.000000,4.000000,4.000000,4.000000,4.000000,4.000000,4.000000,4.000000,4.000000,4.000000,4.000000,4.000000,4.000000,4.000000,100.000000,,,,,,,,,,,,,,,,,,,,,,,,,,,,
1703406429.201601,1703406429.202385,124.000000,0.000000,4251.025879,4207.563965,4302.820313,4250.000000,4167.436035,4184.487305,4178.205078,4154.230957,4155.512695,4169.871582,4659.615234,4479.358887,4457.820313,4591.794922,6534.000000,4.000000,79.000000,,,,0.000000,4.000000,4.000000,4.000000,4.000000,4.000000,4.000000,4.000000,4.000000,4.000000,4.000000,4.000000,4.000000,4.000000,4.000000,100.000000,,,,,,,,,,,,,,,,,31.000000,0.000000,0.613749,0.265808,-0.630920,0.393188,0.973752,-0.171896,0.057624,-13.223653,-44.270237,64.598167
1703406429.209409,1703406429.210093,125.000000,0.000000,4260.641113,4222.179688,4303.333496,4252.179688,4169.871582,4186.538574,4175.641113,4149.358887,4154.102539,4177.820313,4666.538574,4479.615234,4471.794922,4606.666504,7008.000000,4.000000,79.000000,,,,0.000000,4.000000,4.000000,4.000000,4.000000,4.000000,4.000000,4.000000,4.000000,4.000000,4.000000,4.000000,4.000000,4.000000,4.000000,100.000000,,,,,,,,,,,,,,,,,,,,,,,,,,,,
1703406429.217217,1703406429.217901,126.000000,0.000000,4248.333496,4222.820313,4302.179688,4251.538574,4175.512695,4181.922852,4172.051270,4140.769043,4147.948730,4170.256348,4648.077148,4465.128418,4443.205078,4590.000000,5850.000000,4.000000,79.000000,,,,0.000000,4.000000,4.000000,4.000000,4.000000,4.000000,4.000000,4.000000,4.000000,4.000000,4.000000,4.000000,4.000000,4.000000,4.000000,100.000000,,,,,,,,,,,,,,,,,,,,,,,,,,,,
1703406429.225026,1703406429.225609,127.000000,0.000000,4236.025879,4208.974121,4298.077148,4248.974121,4170.897461,4178.077148,4174.487305,4154.102539,4151.666504,4164.102539,4637.563965,4461.794922,4424.871582,4573.846191,79.000000,4.000000,79.000000,,,,0.000000,4.000000,4.000000,4.000000,4.000000,4.000000,4.000000,4.000000,4.000000,4.000000,4.000000,4.000000,4.000000,4.000000,4.000000,100.000000,,,,,,,,,,,,,,,,,,,,,,,,,,,,
1703406429.232834,1703406429.233417,0.000000,0.000000,4231.025879,4196.922852,4289.358887,4242.948730,4161.922852,4178.333496,4178.333496,4175.769043,4157.563965,4161.922852,4636.282227,4464.358887,4427.692383,4569.102539,4549.000000,4.000000,79.000000,,,,0.000000,4.000000,4.000000,4.000000,4.000000,4.000000,4.000000,4.000000,4.000000,4.000000,4.000000,4.000000,4.000000,4.000000,4.000000,100.000000,,,,,,,,,,,,,,,,,0.000000,0.000000,0.614219,0.265503,-0.630554,0.393250,0.976193,-0.181174,0.066903,-13.184621,-44.209877,64.605019
1703406429.240641,1703406429.241125,1.000000,0.000000,4228.974121,4190.384766,4283.077148,4235.897461,4160.641113,4175.256348,4175.641113,4182.051270,4153.717773,4153.461426,4632.563965,4460.769043,4427.948730,4570.641113,5202.000000,4.000000,79.000000,,,,0.000000,4.000000,4.000000,4.000000,4.000000,4.000000,4.000000,4.000000,4.000000,4.000000,4.000000,4.000000,4.000000,4.000000,4.000000,100.000000,,,,,,,,,,,,,,,,,,,,,,,,,,,,
1703406429.248450,1703406429.249033,2.000000,0.000000,4230.512695,4185.897461,4288.333496,4233.589844,4157.948730,4169.615234,4175.641113,4181.410156,4152.179688,4150.769043,4632.051270,4461.282227,4427.692383,4574.230957,5288.000000,4.000000,79.000000,,,,0.000000,4.000000,4.000000,4.000000,4.000000,4.000000,4.000000,4.000000,4.000000,4.000000,4.000000,4.000000,4.000000,4.000000,4.000000,100.000000,,,,,,,,,,,,,,,,,,,,,,,,,,,,
1703406429.256258,1703406429.256841,3.000000,0.000000,4230.000000,4185.128418,4295.769043,4233.974121,4150.641113,4169.871582,4181.025879,4180.512695,4157.179688,4160.384766,4635.256348,4466.794922,4428.717773,4575.256348,5298.000000,4.000000,79.000000,,,,0.000000,4.000000,4.000000,4.000000,4.000000,4.000000,4.000000,4.000000,4.000000,4.000000,4.000000,4.000000,4.000000,4.000000,4.000000,100.000000,,,,,,,,,,,,,,,,,,,,,,,,,,,,
1703406429.264066,1703406429.264749,4.000000,0.000000,4229.487305,4188.461426,4295.128418,4237.436035,4155.641113,4176.538574,4182.948730,4173.589844,4155.512695,4167.436035,4641.666504,4468.333496,4433.077148,4580.128418,4988.000000,4.000000,79.000000,,,,0.000000,4.000000,4.000000,4.000000,4.000000,4.000000,4.000000,4.000000,4.000000,4.000000,4.000000,4.000000,4.000000,4.000000,4.000000,100.000000,,,,,,,,,,,,,,,,,1.000000,0.000000,0.614503,0.264954,-0.630432,0.393372,0.974240,-0.167989,0.054206,-13.199492,-44.155556,64.577850
1703406429.271874,1703406429.272557,5.000000,0.000000,4238.333496,4201.153809,4298.974121,4246.538574,4169.358887,4180.128418,4180.384766,4170.128418,4156.922852,4169.487305,4652.307617,4473.077148,4443.717773,4588.846191,2860.000000,4.000000,79.000000,,,,0.000000,4.000000,4.000000,4.000000,4.000000,4.000000,4.000000,4.000000,4.000000,4.000000,4.000000,4.000000,4.000000,4.000000,4.000000,100.000000,,,,,,,,,,,,,,,,,,,,,,,,,,,,
1703406429.279682,1703406429.280465,6.000000,0.000000,4253.077148,4218.333496,4305.384766,4253.589844,4173.333496,4176.922852,4178.589844,4168.077148,4164.743652,4173.974121,4656.153809,4476.666504,4449.871582,4594.871582,3193.000000,4.000000,79.000000,,,,0.000000,4.000000,4.000000,4.000000,4.000000,4.000000,4.000000,4.000000,4.000000,4.000000,4.000000,4.000000,4.000000,4.000000,4.000000,100.000000,,,,,,,,,,,,,,,,,,,,,,,,,,,,
1703406429.287490,1703406429.288273,7.000000,0.000000,4249.230957,4215.769043,4298.717773,4249.871582,4169.102539,4169.487305,4173.205078,4160.000000,4161.794922,4175.769043,4643.846191,4465.128418,4435.897461,4585.897461,5372.000000,4.000000,79.000000,,,,0.000000,4.000000,4.000000,4.000000,4.000000,4.000000,4.000000,4.000000,4.000000,4.000000,4.000000,4.000000,4.000000,4.000000,4.000000,100.000000,,,,,,,,,,,,,,,,,,,,,,,,,,,,
1703406429.295298,1703406429.296181,8.000000,0.000000,4232.436035,4202.820313,4294.230957,4245.897461,4168.205078,4169.230957,4168.846191,4147.051270,4149.487305,4169.102539,4631.410156,4453.717773,4421.538574,4572.051270,4727.000000,4.000000,79.000000,,,,0.000000,4.000000,4.000000,4.000000,4.000000,4.000000,4.000000,4.000000,4.000000,4.000000,4.000000,4.000000,4.000000,4.000000,4.000000,100.000000,,,,,,,,,,,,,,,,,2.000000,0.000000,0.614810,0.264404,-0.630249,0.393555,0.979612,-0.171408,0.063484,-13.112877,-44.073334,64.470062
1703406429.303106,1703406429.303989,9.000000,0.000000,4231.666504,4203.077148,4298.077148,4249.615234,4170.512695,4171.666504,4166.153809,4137.948730,4145.769043,4159.487305,4634.743652,4456.538574,4427.051270,4572.179688,5217.000000,4.000000,79.000000,,,,0.000000,4.000000,4.000000,4.000000,4.000000,4.000000,4.000000,4.000000,4.000000,4.000000,4.000000,4.000000,4.000000,4.000000,4.000000,100.000000,,,,,,,,,,,,,,,,,,,,,,,,,,,,
1703406429.310914,1703406429.311897,10.000000,0.000000,4236.538574,4203.333496,4296.538574,4246.922852,4169.102539,4168.461426,4164.871582,4144.358887,4148.846191,4156.282227,4637.563965,4459.487305,4426.666504,4574.230957,5850.000000,4.000000,79.000000,,,,0.000000,4.000000,4.000000,4.000000,4.000000,4.000000,4.000000,4.000000,4.000000,4.000000,4.000000,4.000000,4.000000,4.000000,4.000000,100.000000,,,,,,,,,,,,,,,,,,,,,,,,,,,,
1703406429.318722,1703406429.319705,11.000000,0.000000,4229.358887,4197.436035,4293.461426,4237.563965,4166.794922,4166.794922,4168.974121,4162.179688,4152.051270,4163.077148,4630.000000,4456.922852,4413.846191,4571.153809,6137.000000,4.000000,79.000000,,,,0.000000,4.000000,4.000000,4.000000,4.000000,4.000000,4.000000,4.000000,4.000000,4.000000,4.000000,4.000000,4.000000,4.000000,4.000000,100.000000,,,,,,,,,,,,,,,,,,,,,,,,,,,,
1703406429.326530,1703406429.327613,12.000000,0.000000,4218.974121,4195.000000,4294.230957,4233.589844,4168.077148,4168.589844,4170.384766,4177.179688,4157.948730,4167.179688,4629.358887,4456.794922,4407.948730,4564.743652,6534.000000,4.000000,79.000000,,,,0.000000,4.000000,4.000000,4.000000,4.000000,4.000000,4.000000,4.000000,4.000000,4.000000,4.000000,4.000000,4.000000,4.000000,4.000000,100.000000,,,,,,,,,,,,,,,,,3.000000,0.000000,0.615212,0.263977,-0.629883,0.393799,0.975217,-0.162129,0.065438,-12.884922,-44.099335,64.523056
1703406429.334338,1703406429.335421,13.000000,0.000000,4217.563965,4193.589844,4290.897461,4234.743652,4164.743652,4163.846191,4169.358887,4179.230957,4158.974121,4158.077148,4633.077148,4456.666504,4408.589844,4559.487305,7007.000000,4.000000,79.000000,,,,0.000000,4.000000,4.000000,4.000000,4.000000,4.000000,4.000000,4.000000,4.000000,4.000000,4.000000,4.000000,4.000000,4.000000,4.000000,100.000000,,,,,,,,,,,,,,,,,,,,,,,,,,,,
1703406429.342146,1703406429.343329,14.000000,0.000000,4222.948730,4190.384766,4290.512695,4233.461426,4154.487305,4157.051270,4172.051270,4175.897461,4153.333496,4150.128418,4630.769043,4457.051270,4407.436035,4560.897461,5850.000000,4.000000,79.000000,,,,0.000000,4.000000,4.000000,4.000000,4.000000,4.000000,4.000000,4.000000,4.000000,4.000000,4.000000,4.000000,4.000000,4.000000,4.000000,100.000000,1.000000,91.666664,4.000000,4.000000,4.000000,4.000000,4.000000,3.000000,4.000000,4.000000,4.000000,4.000000,4.000000,4.000000,4.000000,4.000000,,,,,,,,,,,,
1703406429.349954,1703406429.351237,15.000000,0.000000,4228.333496,4194.871582,4296.794922,4233.717773,4156.922852,4158.717773,4174.487305,4172.948730,4153.205078,4150.769043,4630.641113,4459.743652,4410.641113,4569.230957,6137.000000,4.000000,79.000000,,,,0.000000,4.000000,4.000000,4.000000,4.000000,4.000000,4.000000,4.000000,4.000000,4.000000,4.000000,4.000000,4.000000,4.000000,4.000000,100.000000,,,,,,,,,,,,,,,,,,,,,,,,,,,,
1703406429.357762,1703406429.359045,16.000000,0.000000,4229.358887,4200.769043,4295.128418,4235.256348,4168.461426,4161.410156,4173.205078,4170.000000,4157.179688,4157.051270,4633.461426,4458.717773,4413.974121,4570.897461,0.000000,4.000000,79.000000,,,,0.000000,4.000000,4.000000,4.000000,4.000000,4.000000,4.000000,4.000000,4.000000,4.000000,4.000000,4.000000,4.000000,4.000000,4.000000,100.000000,,,,,,,,,,,,,,,,,4.000000,0.000000,0.615619,0.263611,-0.629639,0.393799,0.974240,-0.182151,0.073251,-12.996430,-44.172733,64.437416
1703406429.365570,1703406429.366853,17.000000,0.000000,4232.179688,4200.256348,4288.974121,4233.846191,4163.205078,4155.769043,4170.384766,4168.974121,4157.820313,4169.230957,4635.384766,4459.358887,4414.871582,4568.974121,0.000000,4.000000,79.000000,,,,0.000000,4.000000,4.000000,4.000000,4.000000,4.000000,4.000000,4.000000,4.000000,4.000000,4.000000,4.000000,4.000000,4.000000,4.000000,100.000000,,,,,,,,,,,,,,,,,,,,,,,,,,,,
1703406429.373378,1703406429.374561,18.000000,0.000000,4230.384766,4191.538574,4288.205078,4232.563965,4157.820313,4150.769043,4165.384766,4166.153809,4156.410156,4168.461426,4635.000000,4457.179688,4416.282227,4570.000000,0.000000,4.000000,79.000000,,,,0.000000,4.000000,4.000000,4.000000,4.000000,4.000000,4.000000,4.000000,4.000000,4.000000,4.000000,4.000000,4.000000,4.000000,4.000000,100.000000,,,,,,,,,,,,,,,,,,,,,,,,,,,,
1703406429.381187,1703406429.382369,19.000000,0.000000,4222.820313,4185.641113,4291.282227,4231.410156,4163.589844,4150.769043,4160.000000,4158.077148,4153.974121,4158.461426,4631.025879,4450.512695,4413.205078,4566.282227,0.000000,4.000000,79.000000,,,,0.000000,4.000000,4.000000,4.000000,4.000000,4.000000,4.000000,4.000000,4.000000,4.000000,4.000000,4.000000,4.000000,4.000000,4.000000,100.000000,,,,,,,,,,,,,,,,,,,,,,,,,,,,
1703406429.388995,1703406429.390077,20.000000,0.000000,4225.641113,4195.512695,4297.051270,4232.563965,4163.846191,4151.282227,4161.282227,4151.794922,4152.179688,4164.487305,4630.384766,4453.205078,4411.025879,4565.641113,0.000000,4.000000,79.000000,,,,0.000000,4.000000,4.000000,4.000000,4.000000,4.000000,4.000000,4.000000,4.000000,4.000000,4.000000,4.000000,4.000000,4.000000,4.000000,100.000000,,,,,,,,,,,,,,,,,5.000000,0.000000,0.615822,0.263428,-0.629517,0.393799,0.977658,-0.180198,0.063973,-12.930120,-44.255463,64.460342
1703406429.396803,1703406429.397985,21.000000,0.000000,4233.974121,4203.717773,4301.282227,4240.256348,4160.769043,4152.436035,4164.102539,4158.461426,4155.000000,4175.769043,4637.948730,4462.307617,4417.307617,4570.512695,0.000000,4.000000,79.000000,,,,0.000000,4.000000,4.000000,4.000000,4.000000,4.000000,4.000000,4.000000,4.000000,4.000000,4.000000,4.000000,4.000000,4.000000,4.000000,100.000000,,,,,,,,,,,,,,,,,,,,,,,,,,,,
1703406429.404611,1703406429.405793,22.000000,0.000000,4235.384766,4200.512695,4303.205078,4245.512695,4167.820313,4148.077148,4163.717773,4170.128418,4158.077148,4174.102539,4642.820313,4465.897461,4420.641113,4575.128418,0.000000,4.000000,79.000000,,,,0.000000,4.000000,4.000000,4.000000,4.000000,4.000000,4.000000,4.000000,4.000000,4.000000,4.000000,4.000000,4.000000,4.000000,4.000000,100.000000,,,,,,,,,,,,,,,,,,,,,,,,,,,,
1703406429.412419,1703406429.413602,23.000000,0.000000,4229.358887,4201.025879,4300.000000,4239.358887,4171.410156,4142.179688,4162.820313,4171.794922,4156.410156,4166.025879,4637.051270,4463.333496,4415.641113,4572.563965,0.000000,4.000000,79.000000,,,,0.000000,4.000000,4.000000,4.000000,4.000000,4.000000,4.000000,4.000000,4.000000,4.000000,4.000000,4.000000,4.000000,4.000000,4.000000,100.000000,,,,,,,,,,,,,,,,,,,,,,,,,,,,
1703406429.420227,1703406429.421310,24.000000,0.000000,4220.000000,4201.153809,4291.153809,4231.153809,4164.615234,4145.641113,4164.871582,4167.692383,4154.615234,4158.974121,4627.948730,4455.128418,4406.922852,4560.384766,0.000000,4.000000,79.000000,,,,0.000000,4.000000,4.000000,4.000000,4.000000,4.000000,4.000000,4.000000,4.000000,4.000000,4.000000,4.000000,4.000000,4.000000,4.000000,100.000000,,,,,,,,,,,,,,,,,6.000000,0.000000,0.616210,0.263123,-0.629150,0.393982,0.972775,-0.185081,0.059578,-13.003775,-44.279915,64.614311
1703406429.428035,1703406429.429118,25.000000,0.000000,4212.692383,4189.230957,4283.846191,4229.615234,4160.384766,4150.897461,4167.307617,4168.205078,4150.641113,4147.948730,4620.128418,4444.615234,4395.512695,4551.410156,0.000000,4.000000,79.000000,,,,0.000000,4.000000,4.000000,4.000000,4.000000,4.000000,4.000000,4.000000,4.000000,4.000000,4.000000,4.000000,4.000000,4.000000,4.000000,100.000000,,,,,,,,,,,,,,,,,,,,,,,,,,,,
1703406429.435843,1703406429.436826,26.000000,0.000000,4212.563965,4180.897461,4282.051270,4229.487305,4155.128418,4151.794922,4168.717773,4168.974121,4144.358887,4136.025879,4613.717773,4440.641113,4388.333496,4551.025879,0.000000,4.000000,79.000000,,,,0.000000,4.000000,4.000000,4.000000,4.000000,4.000000,4.000000,4.000000,4.000000,4.000000,4.000000,4.000000,4.000000,4.000000,4.000000,100.000000,,,,,,,,,,,,,,,,,,,,,,,,,,,,
1703406429.443651,1703406429.444634,27.000000,0.000000,4217.948730,4192.820313,4285.897461,4231.410156,4154.487305,4152.051270,4170.128418,4167.563965,4148.077148,4140.897461,4619.615234,4446.922852,4397.051270,4557.307617,0.000000,4.000000,79.000000,,,,0.000000,4.000000,4.000000,4.000000,4.000000,4.000000,4.000000,4.000000,4.000000,4.000000,4.000000,4.000000,4.000000,4.000000,4.000000,100.000000,,,,,,,,,,,,,,,,,,,,,,,,,,,,
1703406429.451459,1703406429.452342,28.000000,0.000000,4220.641113,4202.307617,4289.487305,4236.025879,4163.717773,4151.538574,4170.128418,4165.512695,4155.641113,4158.717773,4629.615234,4451.153809,4405.128418,4563.717773,0.000000,4.000000,79.000000,,,,0.000000,4.000000,4.000000,4.000000,4.000000,4.000000,4.000000,4.000000,4.000000,4.000000,4.000000,4.000000,4.000000,4.000000,4.000000,100.000000,,,,,,,,,,,,,,,,,7.000000,0.000000,0.616586,0.262878,-0.628845,0.394043,0.968380,-0.174338,0.065438,-13.136731,-44.201923,64.569542
1703406429.459267,1703406429.460150,29.000000,0.000000,4217.436035,4192.179688,4284.102539,4233.717773,4170.256348,4148.589844,4166.794922,4157.948730,4152.436035,4160.769043,4619.743652,4440.641113,4394.743652,4557.307617,0.000000,4.000000,79.000000,,,,0.000000,4.000000,4.000000,4.000000,4.000000,4.000000,4.000000,4.000000,4.000000,4.000000,4.000000,4.000000,4.000000,4.000000,4.000000,100.000000,,,,,,,,,,,,,,,,,,,,,,,,,,,,
1703406429.467075,1703406429.467858,30.000000,0.000000,4214.102539,4187.820313,4279.102539,4234.102539,4170.769043,4150.641113,4165.769043,4151.922852,4148.846191,4148.589844,4611.666504,4430.769043,4388.205078,4550.384766,0.000000,4.000000,79.000000,,,,0.000000,4.000000,4.000000,4.000000,4.000000,4.000000,4.000000,4.000000,4.000000,4.000000,4.000000,4.000000,4.000000,4.000000,4.000000,100.000000,,,,,,,,,,,,,,,,,,,,,,,,,,,,
1703406429.474883,1703406429.475666,31.000000,0.000000,4219.102539,4202.179688,4286.153809,4243.717773,4171.282227,4150.641113,4166.410156,4155.384766,4153.717773,4152.948730,4623.077148,4440.897461,4398.846191,4559.487305,0.000000,4.000000,79.000000,,,,0.000000,4.000000,4.000000,4.000000,4.000000,4.000000,4.000000,4.000000,4.000000,4.000000,4.000000,4.000000,4.000000,4.000000,4.000000,100.000000,,,,,,,,,,,,,,,,,,,,,,,,,,,,
1703406429.482691,1703406429.483374,32.000000,0.000000,4221.410156,4204.487305,4287.948730,4243.974121,4167.436035,4142.563965,4161.282227,4157.563965,4155.000000,4162.179688,4626.282227,4449.615234,4403.077148,4563.974121,0.000000,4.000000,79.000000,,,,0.000000,4.000000,4.000000,4.000000,4.000000,4.000000,4.000000,4.000000,4.000000,4.000000,4.000000,4.000000,4.000000,4.000000,4.000000,100.000000,,,,,,,,,,,,,,,,,8.000000,0.000000,0.617020,0.262207,-0.628662,0.394104,0.972775,-0.171408,0.072763,-13.106391,-44.115063,64.495926
1703406429.490499,1703406429.491282,33.000000,0.000000,4214.230957,4187.436035,4278.717773,4227.820313,4157.179688,4138.846191,4156.025879,4152.692383,4148.461426,4152.307617,4613.846191,4438.077148,4391.153809,4553.205078,0.000000,4.000000,79.000000,,,,0.000000,4.000000,4.000000,4.000000,4.000000,4.000000,4.000000,4.000000,4.000000,4.000000,4.000000,4.000000,4.000000,4.000000,4.000000,100.000000,,,,,,,,,,,,,,,,,,,,,,,,,,,,
1703406429.498307,1703406429.499090,34.000000,0.000000,4209.102539,4182.307617,4278.333496,4217.820313,4152.692383,4139.615234,4155.512695,4153.461426,4145.384766,4144.615234,4612.307617,4434.230957,4387.820313,4550.256348,0.000000,4.000000,79.000000,,,,0.000000,4.000000,4.000000,4.000000,4.000000,4.000000,4.000000,4.000000,4.000000,4.000000,4.000000,4.000000,4.000000,4.000000,4.000000,100.000000,,,,,,,,,,,,,,,,,,,,,,,,,,,,
1703406429.506115,1703406429.506998,35.000000,0.000000,4205.000000,4185.769043,4278.846191,4217.307617,4154.615234,4140.384766,4159.615234,4161.666504,4144.615234,4145.384766,4615.384766,4439.487305,4390.641113,4552.436035,0.000000,4.000000,79.000000,,,,0.000000,4.000000,4.000000,4.000000,4.000000,4.000000,4.000000,4.000000,4.000000,4.000000,4.000000,4.000000,4.000000,4.000000,4.000000,100.000000,,,,,,,,,,,,,,,,,,,,,,,,,,,,
1703406429.513923,1703406429.514806,36.000000,0.000000,4204.743652,4183.589844,4276.282227,4216.794922,4156.153809,4141.538574,4163.333496,4168.077148,4144.743652,4140.256348,4610.256348,4436.410156,4383.846191,4550.000000,0.000000,4.000000,79.000000,,,,0.000000,4.000000,4.000000,4.000000,4.000000,4.000000,4.000000,4.000000,4.000000,4.000000,4.000000,4.000000,4.000000,4.000000,4.000000,100.000000,,,,,,,,,,,,,,,,,9.000000,0.000000,0.617288,0.261353,-0.628601,0.394348,0.973263,-0.168966,0.077158,-13.012419,-43.970226,64.662994
1703406429.521732,1703406429.522713,37.000000,0.000000,4211.282227,4188.333496,4283.077148,4223.077148,4155.897461,4142.436035,4161.538574,4176.025879,4150.897461,4144.358887,4609.871582,4438.077148,4381.410156,4550.128418,0.000000,4.000000,79.000000,,,,0.000000,4.000000,4.000000,4.000000,4.000000,4.000000,4.000000,4.000000,4.000000,4.000000,4.000000,4.000000,4.000000,4.000000,4.000000,100.000000,,,,,,,,,,,,,,,,,,,,,,,,,,,,
1703406429.529539,1703406429.530521,38.000000,0.000000,4218.461426,4200.384766,4286.410156,4230.769043,4154.230957,4141.538574,4157.051270,4181.153809,4157.563965,4156.794922,4618.846191,4446.794922,4395.000000,4557.692383,0.000000,4.000000,79.000000,,,,0.000000,4.000000,4.000000,4.000000,4.000000,4.000000,4.000000,4.000000,4.000000,4.000000,4.000000,4.000000,4.000000,4.000000,4.000000,100.000000,,,,,,,,,,,,,,,,,,,,,,,,,,,,
1703406429.537347,1703406429.538429,39.000000,0.000000,4218.589844,4202.307617,4280.256348,4230.256348,4157.563965,4138.846191,4157.307617,4174.102539,4155.000000,4147.436035,4618.846191,4445.000000,4397.563965,4558.205078,0.000000,4.000000,79.000000,,,,0.000000,4.000000,4.000000,4.000000,4.000000,4.000000,4.000000,4.000000,4.000000,4.000000,4.000000,4.000000,4.000000,4.000000,4.000000,100.000000,,,,,,,,,,,,,,,,,,,,,,,,,,,,
1703406429.545156,1703406429.546237,40.000000,0.000000,4206.794922,4188.717773,4278.461426,4228.589844,4159.871582,4136.153809,4155.897461,4166.538574,4150.256348,4129.743652,4601.282227,4436.282227,4366.538574,4540.641113,0.000000,4.000000,79.000000,,,,0.000000,4.000000,4.000000,4.000000,4.000000,4.000000,4.000000,4.000000,4.000000,4.000000,4.000000,4.000000,4.000000,4.000000,4.000000,100.000000,,,,,,,,,,,,,,,,,10.000000,0.000000,0.617448,0.261047,-0.628418,0.394592,0.979612,-0.177756,0.072763,-12.994510,-44.073204,64.746696
1703406429.552964,1703406429.554145,41.000000,0.000000,4202.692383,4185.897461,4282.307617,4231.025879,4155.256348,4134.102539,4153.205078,4166.666504,4153.077148,4144.871582,4603.589844,4440.256348,4363.974121,4535.641113,0.000000,4.000000,79.000000,,,,0.000000,4.000000,4.000000,4.000000,4.000000,4.000000,4.000000,4.000000,4.000000,4.000000,4.000000,4.000000,4.000000,4.000000,4.000000,100.000000,,,,,,,,,,,,,,,,,,,,,,,,,,,,
1703406429.560772,1703406429.561953,42.000000,0.000000,4216.794922,4196.666504,4283.589844,4232.820313,4153.846191,4133.077148,4154.615234,4160.897461,4154.487305,4165.641113,4630.641113,4447.563965,4411.538574,4556.794922,0.000000,4.000000,79.000000,,,,0.000000,4.000000,4.000000,4.000000,4.000000,4.000000,4.000000,4.000000,4.000000,4.000000,4.000000,4.000000,4.000000,4.000000,4.000000,100.000000,,,,,,,,,,,,,,,,,,,,,,,,,,,,
1703406429.568580,1703406429.569661,43.000000,0.000000,4221.794922,4190.512695,4284.230957,4227.820313,4157.692383,4133.717773,4151.410156,4149.230957,4150.128418,4159.743652,4632.436035,4443.846191,4430.256348,4561.282227,0.000000,4.000000,79.000000,,,,0.000000,4.000000,4.000000,4.000000,4.000000,4.000000,4.000000,4.000000,4.000000,4.000000,4.000000,4.000000,4.000000,4.000000,4.000000,100.000000,,,,,,,,,,,,,,,,,,,,,,,,,,,,
1703406429.576388,1703406429.577469,44.000000,0.000000,4215.512695,4174.102539,4288.205078,4225.512695,4157.307617,4135.897461,4150.000000,4149.230957,4150.000000,4152.692383,4623.846191,4445.256348,4419.358887,4552.179688,0.000000,4.000000,79.000000,,,,0.000000,4.000000,4.000000,4.000000,4.000000,4.000000,4.000000,4.000000,4.000000,4.000000,4.000000,4.000000,4.000000,4.000000,4.000000,100.000000,,,,,,,,,,,,,,,,,11.000000,0.000000,0.617507,0.260925,-0.628296,0.394775,0.983518,-0.182151,0.071298,-13.045059,-44.015881,64.555359
1703406429.584196,1703406429.585177,45.000000,0.000000,4219.102539,4170.256348,4294.230957,4229.230957,4155.384766,4136.922852,4153.589844,4160.128418,4155.897461,4161.282227,4641.153809,4460.000000,4436.410156,4564.743652,0.000000,4.000000,79.000000,,,,0.000000,4.000000,4.000000,4.000000,4.000000,4.000000,4.000000,4.000000,4.000000,4.000000,4.000000,4.000000,4.000000,4.000000,4.000000,100.000000,,,,,,,,,,,,,,,,,,,,,,,,,,,,
1703406429.592004,1703406429.592985,46.000000,0.000000,4221.538574,4173.077148,4292.563965,4228.846191,4157.307617,4133.846191,4153.717773,4170.384766,4158.974121,4168.846191,4648.589844,4465.512695,4444.487305,4572.179688,0.000000,4.000000,79.000000,,,,0.000000,4.000000,4.000000,4.000000,4.000000,4.000000,4.000000,4.000000,4.000000,4.000000,4.000000,4.000000,4.000000,4.000000,4.000000,100.000000,,,,,,,,,,,,,,,,,,,,,,,,,,,,
1703406429.599812,1703406429.600693,47.000000,0.000000,4216.922852,4172.179688,4282.179688,4220.128418,4157.563965,4131.666504,4151.922852,4171.025879,4154.743652,4166.282227,4631.794922,4450.897461,4423.461426,4560.769043,0.000000,4.000000,79.000000,,,,0.000000,4.000000,4.000000,4.000000,4.000000,4.000000,4.000000,4.000000,4.000000,4.000000,4.000000,4.000000,4.000000,4.000000,4.000000,100.000000,,,,,,,,,,,,,,,,,,,,,,,,,,,,
1703406429.607620,1703406429.608501,48.000000,0.000000,4212.436035,4167.051270,4276.794922,4214.615234,4148.717773,4131.666504,4151.410156,4171.538574,4153.717773,4164.487305,4628.333496,4442.179688,4420.897461,4557.436035,0.000000,4.000000,79.000000,,,,0.000000,4.000000,4.000000,4.000000,4.000000,4.000000,4.000000,4.000000,4.000000,4.000000,4.000000,4.000000,4.000000,4.000000,4.000000,100.000000,,,,,,,,,,,,,,,,,12.000000,0.000000,0.617553,0.260925,-0.628174,0.394897,0.981077,-0.183616,0.083506,-13.073887,-44.064293,64.616493
1703406429.615428,1703406429.616209,49.000000,0.000000,4203.974121,4162.692383,4279.230957,4215.256348,4141.153809,4132.692383,4153.205078,4181.025879,4158.846191,4166.666504,4631.922852,4445.641113,4426.410156,4557.307617,0.000000,4.000000,79.000000,,,,0.000000,4.000000,4.000000,4.000000,4.000000,4.000000,4.000000,4.000000,4.000000,4.000000,4.000000,4.000000,4.000000,4.000000,4.000000,100.000000,,,,,,,,,,,,,,,,,,,,,,,,,,,,
1703406429.623236,1703406429.624017,50.000000,0.000000,4203.333496,4161.410156,4280.769043,4213.717773,4148.077148,4134.743652,4155.769043,4183.461426,4158.589844,4168.077148,4628.846191,4447.563965,4420.769043,4555.769043,0.000000,4.000000,79.000000,,,,0.000000,4.000000,4.000000,4.000000,4.000000,4.000000,4.000000,4.000000,4.000000,4.000000,4.000000,4.000000,4.000000,4.000000,4.000000,100.000000,,,,,,,,,,,,,,,,,,,,,,,,,,,,
1703406429.631044,1703406429.631725,51.000000,0.000000,4217.051270,4169.230957,4282.436035,4217.692383,4158.974121,4136.922852,4156.666504,4173.461426,4154.743652,4169.615234,4634.102539,4451.538574,4426.410156,4566.410156,0.000000,4.000000,79.000000,,,,0.000000,4.000000,4.000000,4.000000,4.000000,4.000000,4.000000,4.000000,4.000000,4.000000,4.000000,4.000000,4.000000,4.000000,4.000000,100.000000,,,,,,,,,,,,,,,,,,,,,,,,,,,,
1703406429.638852,1703406429.639533,52.000000,0.000000,4223.589844,4181.282227,4285.897461,4228.589844,4156.666504,4138.461426,4156.025879,4166.794922,4156.666504,4169.871582,4642.563965,4458.333496,4433.461426,4575.897461,0.000000,4.000000,79.000000,,,,0.000000,4.000000,4.000000,4.000000,4.000000,4.000000,4.000000,4.000000,4.000000,4.000000,4.000000,4.000000,4.000000,4.000000,4.000000,100.000000,,,,,,,,,,,,,,,,,13.000000,0.000000,0.617749,0.260864,-0.627930,0.395020,0.966427,-0.181174,0.077646,-13.116498,-44.307865,64.571510
1703406429.646660,1703406429.647241,53.000000,0.000000,4218.461426,4182.948730,4287.692383,4233.333496,4153.077148,4136.666504,4156.282227,4168.333496,4157.820313,4168.717773,4639.358887,4460.512695,4429.230957,4571.153809,0.000000,4.000000,79.000000,,,,0.000000,4.000000,4.000000,4.000000,4.000000,4.000000,4.000000,4.000000,4.000000,4.000000,4.000000,4.000000,4.000000,4.000000,4.000000,100.000000,,,,,,,,,,,,,,,,,,,,,,,,,,,,
1703406429.654468,1703406429.655149,54.000000,0.000000,4215.128418,4173.846191,4288.205078,4229.871582,4155.897461,4133.333496,4153.461426,4168.461426,4154.871582,4169.743652,4635.769043,4457.692383,4428.205078,4569.102539,0.000000,4.000000,79.000000,,,,0.000000,4.000000,4.000000,4.000000,4.000000,4.000000,4.000000,4.000000,4.000000,4.000000,4.000000,4.000000,4.000000,4.000000,4.000000,100.000000,,,,,,,,,,,,,,,,,,,,,,,,,,,,
1703406429.662276,1703406429.662957,55.000000,0.000000,4216.922852,4170.641113,4289.358887,4228.974121,4155.256348,4133.333496,4149.871582,4160.000000,4152.051270,4167.820313,4633.077148,4452.307617,4426.922852,4567.563965,0.000000,4.000000,79.000000,,,,0.000000,4.000000,4.000000,4.000000,4.000000,4.000000,4.000000,4.000000,4.000000,4.000000,4.000000,4.000000,4.000000,4.000000,4.000000,100.000000,,,,,,,,,,,,,,,,,,,,,,,,,,,,
1703406429.670084,1703406429.670865,56.000000,0.000000,4215.256348,4174.487305,4289.871582,4228.077148,4152.820313,4136.922852,4150.256348,4154.230957,4150.641113,4155.769043,4624.615234,4448.461426,4416.025879,4558.589844,0.000000,4.000000,79.000000,,,,0.000000,4.000000,4.000000,4.000000,4.000000,4.000000,4.000000,4.000000,4.000000,4.000000,4.000000,4.000000,4.000000,4.000000,4.000000,100.000000,,,,,,,,,,,,,,,,,14.000000,0.000000,0.617913,0.260437,-0.627869,0.395142,0.993774,-0.180686,0.080088,-13.104848,-44.193745,64.481026
1703406429.677892,1703406429.678673,57.000000,0.000000,4207.692383,4168.333496,4287.179688,4222.563965,4149.743652,4137.307617,4149.102539,4161.794922,4151.153809,4152.179688,4620.769043,4451.025879,4406.282227,4549.743652,0.000000,4.000000,79.000000,,,,0.000000,4.000000,4.000000,4.000000,4.000000,4.000000,4.000000,4.000000,4.000000,4.000000,4.000000,4.000000,4.000000,4.000000,4.000000,100.000000,,,,,,,,,,,,,,,,,,,,,,,,,,,,
1703406429.685701,1703406429.686581,58.000000,0.000000,4208.077148,4165.512695,4287.820313,4225.128418,4150.128418,4137.820313,4148.205078,4173.717773,4155.769043,4166.410156,4628.974121,4457.563965,4415.384766,4554.487305,0.000000,4.000000,79.000000,,,,0.000000,4.000000,4.000000,4.000000,4.000000,4.000000,4.000000,4.000000,4.000000,4.000000,4.000000,4.000000,4.000000,4.000000,4.000000,100.000000,,,,,,,,,,,,,,,,,,,,,,,,,,,,
1703406429.693509,1703406429.694389,59.000000,0.000000,4216.153809,4178.205078,4291.025879,4233.589844,4155.769043,4147.948730,4151.025879,4174.358887,4158.205078,4172.051270,4634.743652,4458.974121,4430.000000,4563.846191,0.000000,4.000000,79.000000,,,,0.000000,4.000000,4.000000,4.000000,4.000000,4.000000,4.000000,4.000000,4.000000,4.000000,4.000000,4.000000,4.000000,4.000000,4.000000,100.000000,,,,,,,,,,,,,,,,,,,,,,,,,,,,
1703406429.701316,1703406429.702297,60.000000,0.000000,4214.230957,4182.820313,4287.948730,4230.512695,4151.025879,4153.461426,4151.666504,4171.410156,4157.820313,4167.948730,4631.922852,4452.692383,4426.794922,4559.230957,0.000000,4.000000,79.000000,,,,0.000000,4.000000,4.000000,4.000000,4.000000,4.000000,4.000000,4.000000,4.000000,4.000000,4.000000,4.000000,4.000000,4.000000,4.000000,100.000000,,,,,,,,,,,,,,,,,15.000000,0.000000,0.617889,0.260254,-0.627930,0.395203,0.973752,-0.186546,0.076670,-13.077697,-44.224369,64.332924
1703406429.709125,1703406429.710105,61.000000,0.000000,4210.512695,4174.871582,4284.743652,4226.282227,4143.461426,4152.307617,4149.230957,4172.563965,4158.974121,4170.256348,4631.794922,4447.820313,4424.358887,4555.897461,0.000000,4.000000,79.000000,,,,0.000000,4.000000,4.000000,4.000000,4.000000,4.000000,4.000000,4.000000,4.000000,4.000000,4.000000,4.000000,4.000000,4.000000,4.000000,100.000000,,,,,,,,,,,,,,,,,,,,,,,,,,,,
1703406429.716933,1703406429.718013,62.000000,0.000000,4212.692383,4170.641113,4285.384766,4230.897461,4149.871582,4160.384766,4147.179688,4166.282227,4149.743652,4152.563965,4631.666504,4446.922852,4426.538574,4559.615234,0.000000,4.000000,79.000000,,,,0.000000,4.000000,4.000000,4.000000,4.000000,4.000000,4.000000,4.000000,4.000000,4.000000,4.000000,4.000000,4.000000,4.000000,4.000000,100.000000,,,,,,,,,,,,,,,,,,,,,,,,,,,,
1703406429.724741,1703406429.725821,63.000000,0.000000,4212.820313,4174.487305,4285.256348,4233.846191,4154.871582,4169.230957,4151.025879,4156.153809,4139.230957,4134.358887,4628.717773,4447.820313,4424.358887,4560.897461,0.000000,4.000000,79.000000,,,,0.000000,4.000000,4.000000,4.000000,4.000000,4.000000,4.000000,4.000000,4.000000,4.000000,4.000000,4.000000,4.000000,4.000000,4.000000,100.000000,,,,,,,,,,,,,,,,,,,,,,,,,,,,
1703406429.732549,1703406429.733529,64.000000,0.000000,4208.461426,4174.358887,4285.128418,4231.922852,4151.794922,4173.589844,4154.230957,4149.487305,4140.769043,4153.717773,4625.897461,4446.538574,4421.794922,4561.025879,4544.000000,4.000000,79.000000,,,,0.000000,4.000000,4.000000,4.000000,4.000000,4.000000,4.000000,4.000000,4.000000,4.000000,4.000000,4.000000,4.000000,4.000000,4.000000,100.000000,,,,,,,,,,,,,,,,,16.000000,0.000000,0.618158,0.259949,-0.627869,0.395081,0.972287,-0.184105,0.067391,-13.103260,-44.135265,64.416298
1703406429.740357,1703406429.741337,65.000000,0.000000,4198.077148,4164.743652,4279.358887,4227.436035,4153.077148,4177.436035,4147.820313,4138.974121,4134.871582,4148.077148,4611.282227,4433.974121,4408.589844,4553.077148,5193.000000,4.000000,79.000000,,,,0.000000,4.000000,4.000000,4.000000,4.000000,4.000000,4.000000,4.000000,4.000000,4.000000,4.000000,4.000000,4.000000,4.000000,4.000000,100.000000,,,,,,,,,,,,,,,,,,,,,,,,,,,,
1703406429.748165,1703406429.749045,66.000000,0.000000,4197.179688,4167.307617,4275.641113,4228.205078,4151.794922,4169.615234,4142.692383,4133.974121,4130.256348,4122.051270,4605.384766,4430.000000,4399.230957,4548.846191,5277.000000,4.000000,79.000000,,,,0.000000,4.000000,4.000000,4.000000,4.000000,4.000000,4.000000,4.000000,4.000000,4.000000,4.000000,4.000000,4.000000,4.000000,4.000000,100.000000,,,,,,,,,,,,,,,,,,,,,,,,,,,,
1703406429.755973,1703406429.756853,67.000000,0.000000,4206.025879,4177.051270,4281.794922,4233.333496,4148.205078,4160.384766,4145.256348,4140.000000,4138.974121,4140.897461,4616.538574,4441.282227,4411.025879,4557.307617,5287.000000,4.000000,79.000000,,,,0.000000,4.000000,4.000000,4.000000,4.000000,4.000000,4.000000,4.000000,4.000000,4.000000,4.000000,4.000000,4.000000,4.000000,4.000000,100.000000,,,,,,,,,,,,,,,,,,,,,,,,,,,,
1703406429.763781,1703406429.764561,68.000000,0.000000,4204.615234,4170.512695,4287.436035,4233.333496,4149.230957,4148.461426,4144.743652,4144.743652,4142.051270,4163.589844,4619.871582,4443.974121,4411.922852,4556.410156,4988.000000,4.000000,79.000000,,,,0.000000,4.000000,4.000000,4.000000,4.000000,4.000000,4.000000,4.000000,4.000000,4.000000,4.000000,4.000000,4.000000,4.000000,4.000000,100.000000,,,,,,,,,,,,,,,,,17.000000,0.000000,0.618512,0.259827,-0.627686,0.394897,0.969357,-0.177268,0.065926,-13.276268,-44.155075,64.591331
1703406429.771589,1703406429.772369,69.000000,0.000000,4206.153809,4172.436035,4290.512695,4238.333496,4151.794922,4109.358887,4133.333496,4149.743652,4141.538574,4158.077148,4621.538574,4446.025879,4404.487305,4554.615234,2874.000000,4.000000,79.000000,,,,0.000000,4.000000,4.000000,4.000000,4.000000,4.000000,4.000000,4.000000,4.000000,4.000000,4.000000,4.000000,4.000000,4.000000,4.000000,100.000000,,,,,,,,,,,,,,,,,,,,,,,,,,,,
1703406429.779397,1703406429.780077,70.000000,0.000000,4221.922852,4198.205078,4294.102539,4250.384766,4161.025879,4069.615479,4120.512695,4164.358887,4154.102539,4162.948730,4634.615234,4458.077148,4418.461426,4571.922852,3193.000000,4.000000,79.000000,,,,0.000000,4.000000,4.000000,4.000000,4.000000,4.000000,4.000000,4.000000,4.000000,4.000000,4.000000,4.000000,4.000000,4.000000,4.000000,100.000000,,,,,,,,,,,,,,,,,,,,,,,,,,,,
1703406429.787205,1703406429.787985,71.000000,0.000000,4220.512695,4209.871582,4286.922852,4251.025879,4167.307617,4060.000000,4117.692383,4169.358887,4157.307617,4166.410156,4629.743652,4451.282227,4418.589844,4573.205078,5372.000000,4.000000,79.000000,,,,0.000000,4.000000,4.000000,4.000000,4.000000,4.000000,4.000000,4.000000,4.000000,4.000000,4.000000,4.000000,4.000000,4.000000,4.000000,100.000000,,,,,,,,,,,,,,,,,,,,,,,,,,,,
1703406429.795013,1703406429.795793,72.000000,0.000000,4203.974121,4203.974121,4273.717773,4243.077148,4163.589844,4046.794922,4121.410156,4158.333496,4142.820313,4148.333496,4604.615234,4428.205078,4391.922852,4552.307617,4727.000000,4.000000,79.000000,,,,0.000000,4.000000,4.000000,4.000000,4.000000,4.000000,4.000000,4.000000,4.000000,4.000000,4.000000,4.000000,4.000000,4.000000,4.000000,100.000000,,,,,,,,,,,,,,,,,18.000000,0.000000,0.618722,0.259583,-0.627502,0.395020,0.968380,-0.167989,0.071298,-13.298641,-44.089565,64.632202
1703406429.802821,1703406429.803601,73.000000,0.000000,4206.794922,4211.794922,4274.230957,4241.538574,4166.922852,4014.230713,4117.820313,4151.025879,4138.333496,4141.538574,4596.922852,4424.871582,4383.205078,4549.871582,5217.000000,4.000000,79.000000,,,,0.000000,4.000000,4.000000,4.000000,4.000000,4.000000,4.000000,4.000000,4.000000,4.000000,4.000000,4.000000,4.000000,4.000000,4.000000,100.000000,,,,,,,,,,,,,,,,,,,,,,,,,,,,
1703406429.810629,1703406429.811309,74.000000,0.000000,4212.948730,4221.794922,4282.436035,4238.717773,4175.769043,3993.205078,4113.974121,4152.692383,4142.820313,4145.256348,4603.205078,4432.820313,4387.051270,4557.948730,5846.000000,4.000000,79.000000,,,,0.000000,4.000000,4.000000,4.000000,4.000000,4.000000,4.000000,4.000000,4.000000,4.000000,4.000000,4.000000,4.000000,4.000000,4.000000,100.000000,,,,,,,,,,,,,,,,,,,,,,,,,,,,
1703406429.818437,1703406429.819217,75.000000,0.000000,4204.102539,4215.128418,4283.974121,4232.436035,4172.820313,3988.205078,4120.769043,4154.743652,4142.563965,4143.077148,4602.436035,4432.051270,4380.256348,4553.974121,6123.000000,4.000000,79.000000,,,,0.000000,4.000000,4.000000,4.000000,4.000000,4.000000,4.000000,4.000000,4.000000,4.000000,4.000000,4.000000,4.000000,4.000000,4.000000,100.000000,,,,,,,,,,,,,,,,,,,,,,,,,,,,
1703406429.826245,1703406429.827026,76.000000,0.000000,4198.717773,4204.743652,4275.897461,4231.794922,4168.205078,3987.307617,4124.487305,4147.436035,4137.692383,4138.589844,4593.717773,4427.307617,4369.487305,4542.948730,6524.000000,4.000000,79.000000,,,,0.000000,4.000000,4.000000,4.000000,4.000000,4.000000,4.000000,4.000000,4.000000,4.000000,4.000000,4.000000,4.000000,4.000000,4.000000,100.000000,,,,,,,,,,,,,,,,,19.000000,0.000000,0.618998,0.259460,-0.627319,0.394958,0.984007,-0.178244,0.082530,-13.335443,-44.263943,64.718979
1703406429.834053,1703406429.834934,77.000000,0.000000,4203.077148,4199.743652,4272.948730,4232.820313,4172.051270,3988.076904,4122.307617,4140.897461,4135.641113,4135.128418,4590.897461,4426.538574,4366.282227,4536.153809,7002.000000,4.000000,79.000000,,,,0.000000,4.000000,4.000000,4.000000,4.000000,4.000000,4.000000,4.000000,4.000000,4.000000,4.000000,4.000000,4.000000,4.000000,4.000000,100.000000,,,,,,,,,,,,,,,,,,,,,,,,,,,,
1703406429.841861,1703406429.842742,78.000000,0.000000,4203.589844,4201.153809,4281.282227,4234.615234,4168.974121,3987.948730,4125.769043,4142.948730,4138.974121,4139.230957,4600.000000,4430.641113,4373.077148,4544.358887,5846.000000,4.000000,79.000000,,,,0.000000,4.000000,4.000000,4.000000,4.000000,4.000000,4.000000,4.000000,4.000000,4.000000,4.000000,4.000000,4.000000,4.000000,4.000000,100.000000,1.000000,91.666664,4.000000,4.000000,4.000000,4.000000,4.000000,3.000000,4.000000,4.000000,4.000000,4.000000,4.000000,4.000000,4.000000,4.000000,,,,,,,,,,,,
1703406429.849670,1703406429.850649,79.000000,0.000000,4199.743652,4201.922852,4282.692383,4239.230957,4158.461426,3987.948730,4127.820313,4140.000000,4137.051270,4138.589844,4603.461426,4428.077148,4377.051270,4553.717773,6123.000000,4.000000,79.000000,,,,0.000000,4.000000,4.000000,4.000000,4.000000,4.000000,4.000000,4.000000,4.000000,4.000000,4.000000,4.000000,4.000000,4.000000,4.000000,100.000000,,,,,,,,,,,,,,,,,,,,,,,,,,,,
1703406429.857478,1703406429.858457,80.000000,0.000000,4208.077148,4200.641113,4280.000000,4246.794922,4157.820313,3990.384521,4125.769043,4133.205078,4134.230957,4137.307617,4599.871582,4426.025879,4377.948730,4552.692383,6524.000000,4.000000,79.000000,,,,0.000000,4.000000,4.000000,4.000000,4.000000,4.000000,4.000000,4.000000,4.000000,4.000000,4.000000,4.000000,4.000000,4.000000,4.000000,100.000000,,,,,,,,,,,,,,,,,20.000000,0.000000,0.619264,0.259399,-0.627197,0.394775,0.969845,-0.182639,0.079600,-13.235232,-44.204216,64.630417
1703406429.865286,1703406429.866365,81.000000,0.000000,4214.743652,4204.102539,4282.692383,4247.948730,4164.743652,3999.230713,4130.000000,4136.538574,4137.692383,4142.307617,4601.666504,4431.538574,4382.179688,4553.205078,7002.000000,4.000000,79.000000,,,,0.000000,4.000000,4.000000,4.000000,4.000000,4.000000,4.000000,4.000000,4.000000,4.000000,4.000000,4.000000,4.000000,4.000000,4.000000,100.000000,,,,,,,,,,,,,,,,,,,,,,,,,,,,
1703406429.873094,1703406429.874173,82.000000,0.000000,4206.666504,4204.102539,4279.487305,4239.358887,4160.384766,4010.512939,4133.589844,4141.025879,4139.871582,4139.230957,4605.769043,4429.102539,4381.282227,4554.615234,5846.000000,4.000000,79.000000,,,,0.000000,4.000000,4.000000,4.000000,4.000000,4.000000,4.000000,4.000000,4.000000,4.000000,4.000000,4.000000,4.000000,4.000000,4.000000,100.000000,,,,,,,,,,,,,,,,,,,,,,,,,,,,
1703406429.880902,1703406429.882081,83.000000,0.000000,4200.769043,4198.333496,4271.153809,4233.333496,4151.153809,4020.256348,4131.922852,4142.436035,4139.358887,4133.333496,4598.589844,4420.256348,4374.102539,4548.205078,6123.000000,4.000000,79.000000,,,,0.000000,4.000000,4.000000,4.000000,4.000000,4.000000,4.000000,4.000000,4.000000,4.000000,4.000000,4.000000,4.000000,4.000000,4.000000,100.000000,,,,,,,,,,,,,,,,,,,,,,,,,,,,
1703406429.888710,1703406429.889889,84.000000,0.000000,4205.769043,4198.974121,4275.000000,4234.615234,4154.230957,4032.307617,4134.230957,4151.282227,4143.333496,4139.230957,4590.128418,4425.000000,4371.410156,4546.666504,6524.000000,4.000000,79.000000,,,,0.000000,4.000000,4.000000,4.000000,4.000000,4.000000,4.000000,4.000000,4.000000,4.000000,4.000000,4.000000,4.000000,4.000000,4.000000,100.000000,,,,,,,,,,,,,,,,,21.000000,0.000000,0.619597,0.259216,-0.627136,0.394470,0.981565,-0.158222,0.078135,-13.361710,-44.033794,64.767372
1703406429.896518,1703406429.897797,85.000000,0.000000,4203.205078,4202.051270,4279.102539,4233.589844,4158.846191,4042.564209,4137.692383,4156.410156,4147.179688,4145.256348,4590.769043,4428.974121,4369.615234,4548.333496,7002.000000,4.000000,79.000000,,,,0.000000,4.000000,4.000000,4.000000,4.000000,4.000000,4.000000,4.000000,4.000000,4.000000,4.000000,4.000000,4.000000,4.000000,4.000000,100.000000,,,,,,,,,,,,,,,,,,,,,,,,,,,,
1703406429.904326,1703406429.905605,86.000000,0.000000,4196.282227,4198.717773,4271.794922,4230.256348,4154.102539,4049.871826,4137.051270,4150.512695,4141.666504,4134.230957,4589.615234,4416.410156,4364.358887,4542.820313,5846.000000,4.000000,79.000000,,,,0.000000,4.000000,4.000000,4.000000,4.000000,4.000000,4.000000,4.000000,4.000000,4.000000,4.000000,4.000000,4.000000,4.000000,4.000000,100.000000,,,,,,,,,,,,,,,,,,,,,,,,,,,,
1703406429.912134,1703406429.913513,87.000000,0.000000,4199.102539,4195.256348,4269.487305,4229.871582,4150.384766,4057.564209,4137.563965,4150.641113,4136.153809,4126.794922,4584.743652,4409.615234,4360.641113,4537.948730,6123.000000,4.000000,79.000000,,,,0.000000,4.000000,4.000000,4.000000,4.000000,4.000000,4.000000,4.000000,4.000000,4.000000,4.000000,4.000000,4.000000,4.000000,4.000000,100.000000,,,,,,,,,,,,,,,,,,,,,,,,,,,,
1703406429.919942,1703406429.921321,88.000000,0.000000,4197.692383,4196.922852,4274.102539,4229.487305,4154.615234,4062.948730,4139.615234,4152.563965,4138.846191,4133.077148,4584.230957,4414.358887,4356.666504,4536.922852,6524.000000,4.000000,79.000000,,,,0.000000,4.000000,4.000000,4.000000,4.000000,4.000000,4.000000,4.000000,4.000000,4.000000,4.000000,4.000000,4.000000,4.000000,4.000000,100.000000,,,,,,,,,,,,,,,,,22.000000,0.000000,0.620120,0.258911,-0.627014,0.394043,0.979123,-0.180198,0.076181,-13.458872,-44.030415,64.740639
1703406429.927750,1703406429.929229,89.000000,0.000000,4188.589844,4199.615234,4274.871582,4229.102539,4156.794922,4065.000000,4137.051270,4142.307617,4139.358887,4131.666504,4584.102539,4413.461426,4355.128418,4534.230957,7002.000000,4.000000,79.000000,,,,0.000000,4.000000,4.000000,4.000000,4.000000,4.000000,4.000000,4.000000,4.000000,4.000000,4.000000,4.000000,4.000000,4.000000,4.000000,100.000000,,,,,,,,,,,,,,,,,,,,,,,,,,,,
1703406429.935558,1703406429.937037,90.000000,0.000000,4187.692383,4198.589844,4274.358887,4232.563965,4153.077148,4072.820557,4135.512695,4134.358887,4136.538574,4127.436035,4582.692383,4410.128418,4359.230957,4534.358887,5846.000000,4.000000,79.000000,,,,0.000000,4.000000,4.000000,4.000000,4.000000,4.000000,4.000000,4.000000,4.000000,4.000000,4.000000,4.000000,4.000000,4.000000,4.000000,100.000000,,,,,,,,,,,,,,,,,,,,,,,,,,,,
1703406429.943366,1703406429.944745,91.000000,0.000000,4192.436035,4196.666504,4279.487305,4235.256348,4153.846191,4091.025635,4136.666504,4138.589844,4136.410156,4133.461426,4584.230957,4412.692383,4362.307617,4536.282227,6123.000000,4.000000,79.000000,,,,0.000000,4.000000,4.000000,4.000000,4.000000,4.000000,4.000000,4.000000,4.000000,4.000000,4.000000,4.000000,4.000000,4.000000,4.000000,100.000000,,,,,,,,,,,,,,,,,,,,,,,,,,,,
1703406429.951174,1703406429.952653,92.000000,0.000000,4195.000000,4199.102539,4284.743652,4232.948730,4156.538574,4105.256348,4138.205078,4142.051270,4137.563965,4139.230957,4587.948730,4419.487305,4369.487305,4539.102539,6524.000000,4.000000,79.000000,,,,0.000000,4.000000,4.000000,4.000000,4.000000,4.000000,4.000000,4.000000,4.000000,4.000000,4.000000,4.000000,4.000000,4.000000,4.000000,100.000000,,,,,,,,,,,,,,,,,23.000000,0.000000,0.620341,0.258789,-0.627075,0.393677,0.969357,-0.178244,0.078623,-13.412985,-44.194038,64.599907
1703406429.958982,1703406429.960461,93.000000,0.000000,4198.205078,4202.307617,4286.025879,4232.692383,4152.820313,4111.282227,4137.820313,4137.948730,4136.666504,4141.794922,4590.897461,4426.666504,4375.512695,4544.487305,7002.000000,4.000000,79.000000,,,,0.000000,4.000000,4.000000,4.000000,4.000000,4.000000,4.000000,4.000000,4.000000,4.000000,4.000000,4.000000,4.000000,4.000000,4.000000,100.000000,,,,,,,,,,,,,,,,,,,,,,,,,,,,
1703406429.966790,1703406429.968269,94.000000,0.000000,4199.871582,4196.666504,4287.436035,4237.051270,4150.384766,4117.051270,4133.205078,4135.256348,4134.487305,4137.692383,4590.128418,4427.948730,4368.589844,4542.948730,5846.000000,4.000000,79.000000,,,,0.000000,4.000000,4.000000,4.000000,4.000000,4.000000,4.000000,4.000000,4.000000,4.000000,4.000000,4.000000,4.000000,4.000000,4.000000,100.000000,,,,,,,,,,,,,,,,,,,,,,,,,,,,
1703406429.974598,1703406429.975977,95.000000,0.000000,4194.743652,4190.897461,4288.077148,4237.051270,4155.769043,4122.307617,4133.974121,4142.948730,4135.512695,4123.333496,4586.922852,4427.820313,4363.974121,4540.256348,6123.000000,4.000000,79.000000,,,,0.000000,4.000000,4.000000,4.000000,4.000000,4.000000,4.000000,4.000000,4.000000,4.000000,4.000000,4.000000,4.000000,4.000000,4.000000,100.000000,,,,,,,,,,,,,,,,,,,,,,,,,,,,
1703406429.982407,1703406429.983785,96.000000,0.000000,4189.358887,4190.897461,4286.410156,4232.179688,4153.846191,4126.922852,4138.333496,4153.846191,4138.589844,4125.384766,4586.794922,4430.000000,4363.205078,4540.512695,6524.000000,4.000000,79.000000,,,,0.000000,4.000000,4.000000,4.000000,4.000000,4.000000,4.000000,4.000000,4.000000,4.000000,4.000000,4.000000,4.000000,4.000000,4.000000,100.000000,,,,,,,,,,,,,,,,,24.000000,0.000000,0.620467,0.258728,-0.627014,0.393616,0.972775,-0.163106,0.077158,-13.221686,-44.107967,64.656586
1703406429.990214,1703406429.991493,97.000000,0.000000,4185.512695,4187.179688,4282.051270,4229.358887,4145.769043,4131.666504,4137.051270,4156.538574,4138.333496,4141.025879,4584.871582,4427.051270,4355.384766,4529.358887,7002.000000,4.000000,79.000000,,,,0.000000,4.000000,4.000000,4.000000,4.000000,4.000000,4.000000,4.000000,4.000000,4.000000,4.000000,4.000000,4.000000,4.000000,4.000000,100.000000,,,,,,,,,,,,,,,,,,,,,,,,,,,,
1703406429.998022,1703406429.999301,98.000000,0.000000,4182.307617,4182.307617,4279.871582,4230.000000,4147.820313,4129.615234,4138.461426,4153.461426,4137.051270,4141.410156,4582.692383,4422.051270,4355.769043,4522.051270,5846.000000,4.000000,79.000000,,,,0.000000,4.000000,4.000000,4.000000,4.000000,4.000000,4.000000,4.000000,4.000000,4.000000,4.000000,4.000000,4.000000,4.000000,4.000000,100.000000,,,,,,,,,,,,,,,,,,,,,,,,,,,,
1703406430.005831,1703406430.007009,99.000000,0.000000,4183.717773,4184.743652,4280.000000,4232.436035,4147.563965,4128.077148,4142.948730,4155.897461,4142.948730,4139.615234,4588.333496,4427.051270,4365.641113,4532.307617,6123.000000,4.000000,79.000000,,,,0.000000,4.000000,4.000000,4.000000,4.000000,4.000000,4.000000,4.000000,4.000000,4.000000,4.000000,4.000000,4.000000,4.000000,4.000000,100.000000,,,,,,,,,,,,,,,,,,,,,,,,,,,,
1703406430.013639,1703406430.014817,100.000000,0.000000,4184.615234,4187.307617,4280.897461,4234.102539,4143.717773,4134.487305,4141.025879,4158.846191,4146.410156,4144.871582,4588.205078,4430.128418,4361.794922,4532.948730,6524.000000,4.000000,79.000000,,,,0.000000,4.000000,4.000000,4.000000,4.000000,4.000000,4.000000,4.000000,4.000000,4.000000,4.000000,4.000000,4.000000,4.000000,4.000000,100.000000,,,,,,,,,,,,,,,,,25.000000,0.000000,0.620656,0.258423,-0.626953,0.393616,0.975705,-0.161641,0.081553,-13.332850,-44.013840,64.557594
1703406430.021447,1703406430.022525,101.000000,0.000000,4180.641113,4183.846191,4281.282227,4233.846191,4147.692383,4135.256348,4136.666504,4149.230957,4139.230957,4140.256348,4579.743652,4421.153809,4356.666504,4518.974121,7002.000000,4.000000,79.000000,,,,0.000000,4.000000,4.000000,4.000000,4.000000,4.000000,4.000000,4.000000,4.000000,4.000000,4.000000,4.000000,4.000000,4.000000,4.000000,100.000000,,,,,,,,,,,,,,,,,,,,,,,,,,,,
1703406430.029255,1703406430.030333,102.000000,0.000000,4182.820313,4183.589844,4281.025879,4232.692383,4152.307617,4134.102539,4136.282227,4140.000000,4136.153809,4135.384766,4582.436035,4419.230957,4365.512695,4523.717773,5846.000000,4.000000,79.000000,,,,0.000000,4.000000,4.000000,4.000000,4.000000,4.000000,4.000000,4.000000,4.000000,4.000000,4.000000,4.000000,4.000000,4.000000,4.000000,100.000000,,,,,,,,,,,,,,,,,,,,,,,,,,,,
1703406430.037063,1703406430.038041,103.000000,0.000000,4187.436035,4192.436035,4282.436035,4231.153809,4153.205078,4138.333496,4138.205078,4141.153809,4137.948730,4141.666504,4589.230957,4429.487305,4368.077148,4538.333496,6123.000000,4.000000,79.000000,,,,0.000000,4.000000,4.000000,4.000000,4.000000,4.000000,4.000000,4.000000,4.000000,4.000000,4.000000,4.000000,4.000000,4.000000,4.000000,100.000000,,,,,,,,,,,,,,,,,,,,,,,,,,,,
1703406430.044871,1703406430.045849,104.000000,0.000000,4187.692383,4200.384766,4284.358887,4232.179688,4152.179688,4136.410156,4138.077148,4139.743652,4135.384766,4138.589844,4586.153809,4428.461426,4363.333496,4536.025879,6524.000000,4.000000,79.000000,,,,0.000000,4.000000,4.000000,4.000000,4.000000,4.000000,4.000000,4.000000,4.000000,4.000000,4.000000,4.000000,4.000000,4.000000,4.000000,100.000000,,,,,,,,,,,,,,,,,26.000000,0.000000,0.620695,0.258423,-0.626953,0.393555,0.981565,-0.174826,0.083995,-13.366232,-44.029121,64.568497
1703406430.052679,1703406430.053557,105.000000,0.000000,4187.692383,4195.384766,4281.282227,4235.128418,4146.410156,4131.410156,4132.179688,4133.333496,4133.461426,4130.000000,4580.512695,4416.794922,4362.563965,4524.743652,7002.000000,4.000000,79.000000,,,,0.000000,4.000000,4.000000,4.000000,4.000000,4.000000,4.000000,4.000000,4.000000,4.000000,4.000000,4.000000,4.000000,4.000000,4.000000,100.000000,,,,,,,,,,,,,,,,,,,,,,,,,,,,
1703406430.060487,1703406430.061465,106.000000,0.000000,4180.384766,4183.974121,4272.692383,4233.589844,4144.615234,4136.025879,4130.256348,4135.000000,4135.769043,4130.897461,4573.589844,4411.666504,4356.410156,4519.743652,5846.000000,4.000000,79.000000,,,,0.000000,4.000000,4.000000,4.000000,4.000000,4.000000,4.000000,4.000000,4.000000,4.000000,4.000000,4.000000,4.000000,4.000000,4.000000,100.000000,,,,,,,,,,,,,,,,,,,,,,,,,,,,
1703406430.068295,1703406430.069273,107.000000,0.000000,4169.871582,4182.436035,4268.461426,4229.230957,4153.974121,4139.871582,4136.410156,4145.512695,4137.051270,4134.358887,4567.820313,4411.666504,4348.461426,4520.256348,6123.000000,4.000000,79.000000,,,,0.000000,4.000000,4.000000,4.000000,4.000000,4.000000,4.000000,4.000000,4.000000,4.000000,4.000000,4.000000,4.000000,4.000000,4.000000,100.000000,,,,,,,,,,,,,,,,,,,,,,,,,,,,
1703406430.076103,1703406430.077181,108.000000,0.000000,4178.589844,4188.461426,4272.436035,4231.153809,4154.487305,4135.256348,4135.641113,4153.333496,4140.000000,4140.256348,4578.205078,4417.179688,4355.641113,4522.563965,6524.000000,4.000000,79.000000,,,,0.000000,4.000000,4.000000,4.000000,4.000000,4.000000,4.000000,4.000000,4.000000,4.000000,4.000000,4.000000,4.000000,4.000000,4.000000,100.000000,,,,,,,,,,,,,,,,,27.000000,0.000000,0.620695,0.258423,-0.626953,0.393555,0.974240,-0.178733,0.078623,-13.379609,-44.059544,64.644981
1703406430.083911,1703406430.084989,109.000000,0.000000,4189.487305,4189.487305,4276.538574,4232.436035,4150.641113,4133.205078,4131.666504,4155.769043,4142.563965,4139.871582,4589.102539,4424.102539,4365.769043,4525.769043,7002.000000,4.000000,79.000000,,,,0.000000,4.000000,4.000000,4.000000,4.000000,4.000000,4.000000,4.000000,4.000000,4.000000,4.000000,4.000000,4.000000,4.000000,4.000000,100.000000,,,,,,,,,,,,,,,,,,,,,,,,,,,,
1703406430.091719,1703406430.092897,110.000000,0.000000,4176.282227,4182.563965,4272.436035,4227.307617,4152.820313,4135.641113,4134.871582,4152.051270,4136.282227,4125.000000,4577.179688,4416.922852,4356.922852,4524.615234,5846.000000,4.000000,79.000000,,,,0.000000,4.000000,4.000000,4.000000,4.000000,4.000000,4.000000,4.000000,4.000000,4.000000,4.000000,4.000000,4.000000,4.000000,4.000000,100.000000,,,,,,,,,,,,,,,,,,,,,,,,,,,,
1703406430.099527,1703406430.100705,111.000000,0.000000,4169.358887,4178.589844,4269.743652,4226.538574,4145.769043,4137.563965,4138.589844,4149.871582,4131.666504,4119.230957,4566.282227,4411.410156,4343.717773,4518.205078,6123.000000,4.000000,79.000000,,,,0.000000,4.000000,4.000000,4.000000,4.000000,4.000000,4.000000,4.000000,4.000000,4.000000,4.000000,4.000000,4.000000,4.000000,4.000000,100.000000,,,,,,,,,,,,,,,,,,,,,,,,,,,,
1703406430.107335,1703406430.108613,112.000000,0.000000,4183.846191,4182.563965,4278.717773,4232.948730,4138.846191,4136.794922,4140.512695,4151.794922,4136.282227,4135.641113,4577.563965,4424.487305,4347.948730,4521.922852,6524.000000,4.000000,79.000000,,,,0.000000,4.000000,4.000000,4.000000,4.000000,4.000000,4.000000,4.000000,4.000000,4.000000,4.000000,4.000000,4.000000,4.000000,4.000000,100.000000,,,,,,,,,,,,,,,,,28.000000,0.000000,0.620685,0.258484,-0.627014,0.393433,0.967403,-0.162129,0.081553,-13.458315,-43.986923,64.647148
1703406430.115143,1703406430.116421,113.000000,0.000000,4190.897461,4188.205078,4285.384766,4236.153809,4148.077148,4136.794922,4140.897461,4152.563965,4138.589844,4144.230957,4588.974121,4434.487305,4357.436035,4535.000000,7002.000000,4.000000,79.000000,,,,0.000000,4.000000,4.000000,4.000000,4.000000,4.000000,4.000000,4.000000,4.000000,4.000000,4.000000,4.000000,4.000000,4.000000,4.000000,100.000000,,,,,,,,,,,,,,,,,,,,,,,,,,,,
1703406430.122951,1703406430.124329,114.000000,0.000000,4186.410156,4186.794922,4285.256348,4234.487305,4155.128418,4136.410156,4140.641113,4155.000000,4136.153809,4136.410156,4585.897461,4430.641113,4356.025879,4534.487305,5846.000000,4.000000,79.000000,,,,0.000000,4.000000,4.000000,4.000000,4.000000,4.000000,4.000000,4.000000,4.000000,4.000000,4.000000,4.000000,4.000000,4.000000,4.000000,100.000000,,,,,,,,,,,,,,,,,,,,,,,,,,,,
1703406430.130759,1703406430.132137,115.000000,0.000000,4185.769043,4183.974121,4284.230957,4233.846191,4151.794922,4135.000000,4141.538574,4151.410156,4135.512695,4134.871582,4582.179688,4429.230957,4353.333496,4527.307617,6123.000000,4.000000,79.000000,,,,0.000000,4.000000,4.000000,4.000000,4.000000,4.000000,4.000000,4.000000,4.000000,4.000000,4.000000,4.000000,4.000000,4.000000,4.000000,100.000000,,,,,,,,,,,,,,,,,,,,,,,,,,,,
1703406430.138567,1703406430.139845,116.000000,0.000000,4187.820313,4194.487305,4284.230957,4235.641113,4153.974121,4135.641113,4139.615234,4141.153809,4135.769043,4139.230957,4585.256348,4431.538574,4356.282227,4530.769043,6524.000000,4.000000,79.000000,,,,0.000000,4.000000,4.000000,4.000000,4.000000,4.000000,4.000000,4.000000,4.000000,4.000000,4.000000,4.000000,4.000000,4.000000,4.000000,100.000000,,,,,,,,,,,,,,,,,29.000000,0.000000,0.620725,0.258667,-0.627014,0.393250,0.964962,-0.168478,0.081553,-13.412483,-44.104897,64.715767
1703406430.146376,1703406430.147653,117.000000,0.000000,4189.487305,4200.897461,4285.512695,4235.384766,4159.358887,4136.153809,4135.128418,4137.820313,4134.358887,4140.769043,4588.974121,4431.025879,4360.897461,4532.692383,7002.000000,4.000000,79.000000,,,,0.000000,4.000000,4.000000,4.000000,4.000000,4.000000,4.000000,4.000000,4.000000,4.000000,4.000000,4.000000,4.000000,4.000000,4.000000,100.000000,,,,,,,,,,,,,,,,,,,,,,,,,,,,
1703406430.154184,1703406430.155361,118.000000,0.000000,4189.487305,4190.000000,4280.897461,4230.641113,4159.102539,4138.717773,4134.871582,4141.025879,4135.000000,4140.000000,4588.589844,4428.205078,4359.230957,4524.358887,5846.000000,4.000000,79.000000,,,,0.000000,4.000000,4.000000,4.000000,4.000000,4.000000,4.000000,4.000000,4.000000,4.000000,4.000000,4.000000,4.000000,4.000000,4.000000,100.000000,,,,,,,,,,,,,,,,,,,,,,,,,,,,
1703406430.161991,1703406430.163169,119.000000,0.000000,4186.794922,4188.717773,4271.922852,4229.358887,4157.820313,4140.512695,4139.102539,4146.538574,4138.589844,4139.615234,4588.974121,4427.436035,4357.563965,4521.794922,6123.000000,4.000000,79.000000,,,,0.000000,4.000000,4.000000,4.000000,4.000000,4.000000,4.000000,4.000000,4.000000,4.000000,4.000000,4.000000,4.000000,4.000000,4.000000,100.000000,,,,,,,,,,,,,,,,,,,,,,,,,,,,
1703406430.169800,1703406430.170877,120.000000,0.000000,4186.410156,4201.922852,4272.051270,4234.358887,4158.717773,4139.102539,4145.897461,4155.000000,4141.922852,4140.769043,4593.205078,4428.333496,4361.025879,4529.871582,6524.000000,4.000000,79.000000,,,,0.000000,4.000000,4.000000,4.000000,4.000000,4.000000,4.000000,4.000000,4.000000,4.000000,4.000000,4.000000,4.000000,4.000000,4.000000,100.000000,,,,,,,,,,,,,,,,,30.000000,0.000000,0.620773,0.259033,-0.626892,0.393127,0.963985,-0.160176,0.078135,-13.371235,-44.261074,64.494194
1703406430.177608,1703406430.178685,121.000000,0.000000,4188.205078,4200.512695,4277.436035,4236.282227,4157.179688,4141.538574,4153.205078,4159.487305,4140.512695,4141.025879,4591.794922,4427.051270,4363.205078,4536.282227,7002.000000,4.000000,79.000000,,,,0.000000,4.000000,4.000000,4.000000,4.000000,4.000000,4.000000,4.000000,4.000000,4.000000,4.000000,4.000000,4.000000,4.000000,4.000000,100.000000,,,,,,,,,,,,,,,,,,,,,,,,,,,,
1703406430.185416,1703406430.186393,122.000000,0.000000,4187.948730,4189.358887,4275.128418,4232.307617,4148.077148,4145.384766,4154.743652,4155.512695,4137.948730,4138.589844,4585.897461,4426.794922,4358.717773,4533.333496,5846.000000,4.000000,79.000000,,,,0.000000,4.000000,4.000000,4.000000,4.000000,4.000000,4.000000,4.000000,4.000000,4.000000,4.000000,4.000000,4.000000,4.000000,4.000000,100.000000,,,,,,,,,,,,,,,,,,,,,,,,,,,,
1703406430.193224,1703406430.194201,123.000000,0.000000,4184.102539,4186.025879,4271.922852,4229.230957,4142.948730,4141.922852,4154.871582,4152.948730,4136.538574,4126.922852,4582.307617,4423.205078,4345.641113,4523.077148,6123.000000,4.000000,79.000000,,,,0.000000,4.000000,4.000000,4.000000,4.000000,4.000000,4.000000,4.000000,4.000000,4.000000,4.000000,4.000000,4.000000,4.000000,4.000000,100.000000,,,,,,,,,,,,,,,,,,,,,,,,,,,,
1703406430.201032,1703406430.201909,124.000000,0.000000,4182.179688,4185.256348,4273.205078,4230.384766,4150.384766,4138.077148,4157.179688,4155.000000,4131.538574,4117.948730,4580.897461,4416.794922,4338.077148,4521.153809,6524.000000,4.000000,79.000000,,,,0.000000,4.000000,4.000000,4.000000,4.000000,4.000000,4.000000,4.000000,4.000000,4.000000,4.000000,4.000000,4.000000,4.000000,4.000000,100.000000,,,,,,,,,,,,,,,,,31.000000,0.000000,0.620645,0.259338,-0.626892,0.393127,0.968380,-0.168478,0.076181,-13.434112,-44.234966,64.578110
1703406430.208840,1703406430.209717,125.000000,0.000000,4182.692383,4185.128418,4273.974121,4232.307617,4157.307617,4140.512695,4155.897461,4151.794922,4126.410156,4128.461426,4581.153809,4415.512695,4345.256348,4522.820313,7002.000000,4.000000,79.000000,,,,0.000000,4.000000,4.000000,4.000000,4.000000,4.000000,4.000000,4.000000,4.000000,4.000000,4.000000,4.000000,4.000000,4.000000,4.000000,100.000000,,,,,,,,,,,,,,,,,,,,,,,,,,,,
1703406430.216648,1703406430.217425,126.000000,0.000000,4184.102539,4184.615234,4275.897461,4231.282227,4155.897461,4141.794922,4154.358887,4142.179688,4124.743652,4135.769043,4584.230957,4419.230957,4355.000000,4520.256348,5846.000000,4.000000,79.000000,,,,0.000000,4.000000,4.000000,4.000000,4.000000,4.000000,4.000000,4.000000,4.000000,4.000000,4.000000,4.000000,4.000000,4.000000,4.000000,100.000000,,,,,,,,,,,,,,,,,,,,,,,,,,,,
1703406430.224456,1703406430.225233,127.000000,0.000000,4192.692383,4189.102539,4281.410156,4231.922852,4154.102539,4140.641113,4154.743652,4135.000000,4124.743652,4129.743652,4592.051270,4424.487305,4357.820313,4528.461426,79.000000,4.000000,79.000000,,,,0.000000,4.000000,4.000000,4.000000,4.000000,4.000000,4.000000,4.000000,4.000000,4.000000,4.000000,4.000000,4.000000,4.000000,4.000000,100.000000,,,,,,,,,,,,,,,,,,,,,,,,,,,,
1703406430.232264,1703406430.232941,0.000000,0.000000,4200.641113,4199.358887,4285.512695,4234.230957,4157.563965,4138.717773,4149.230957,4136.153809,4125.769043,4134.102539,4599.230957,4428.717773,4359.487305,4539.230957,4547.000000,4.000000,79.000000,,,,0.000000,4.000000,4.000000,4.000000,4.000000,4.000000,4.000000,4.000000,4.000000,4.000000,4.000000,4.000000,4.000000,4.000000,4.000000,100.000000,,,,,,,,,,,,,,,,,0.000000,0.000000,0.620669,0.259521,-0.626831,0.393066,0.979123,-0.174338,0.070809,-13.424034,-44.228134,64.753632
1703406430.240072,1703406430.240849,1.000000,0.000000,4201.153809,4199.358887,4286.666504,4233.717773,4165.128418,4137.179688,4145.256348,4135.641113,4126.410156,4147.051270,4600.897461,4430.256348,4363.846191,4537.436035,5197.000000,4.000000,79.000000,,,,0.000000,4.000000,4.000000,4.000000,4.000000,4.000000,4.000000,4.000000,4.000000,4.000000,4.000000,4.000000,4.000000,4.000000,4.000000,100.000000,,,,,,,,,,,,,,,,,,,,,,,,,,,,
1703406430.247880,1703406430.248657,2.000000,0.000000,4199.102539,4190.128418,4287.436035,4233.846191,4166.538574,4137.563965,4149.871582,4133.717773,4127.692383,4148.717773,4600.769043,4432.051270,4366.922852,4535.128418,5277.000000,4.000000,79.000000,,,,0.000000,4.000000,4.000000,4.000000,4.000000,4.000000,4.000000,4.000000,4.000000,4.000000,4.000000,4.000000,4.000000,4.000000,4.000000,100.000000,,,,,,,,,,,,,,,,,,,,,,,,,,,,
1703406430.255688,1703406430.256565,3.000000,0.000000,4195.000000,4187.948730,4285.897461,4234.487305,4158.461426,4137.051270,4153.846191,4146.153809,4135.384766,4144.871582,4603.333496,4436.922852,4367.307617,4538.077148,5285.000000,4.000000,79.000000,,,,0.000000,4.000000,4.000000,4.000000,4.000000,4.000000,4.000000,4.000000,4.000000,4.000000,4.000000,4.000000,4.000000,4.000000,4.000000,100.000000,,,,,,,,,,,,,,,,,,,,,,,,,,,,
1703406430.263496,1703406430.264373,4.000000,0.000000,4186.794922,4183.205078,4278.333496,4231.282227,4155.000000,4140.897461,4156.538574,4161.794922,4141.538574,4141.153809,4603.589844,4435.641113,4361.025879,4529.615234,4993.000000,4.000000,79.000000,,,,0.000000,4.000000,4.000000,4.000000,4.000000,4.000000,4.000000,4.000000,4.000000,4.000000,4.000000,4.000000,4.000000,4.000000,4.000000,100.000000,,,,,,,,,,,,,,,,,1.000000,0.000000,0.620621,0.259583,-0.626892,0.393005,0.979612,-0.169454,0.066414,-13.381630,-44.288654,64.861603
1703406430.271304,1703406430.272281,5.000000,0.000000,4179.358887,4172.307617,4273.077148,4227.948730,4157.820313,4150.512695,4164.487305,4165.128418,4137.563965,4136.794922,4599.102539,4428.717773,4352.820313,4517.307617,2867.000000,4.000000,79.000000,,,,0.000000,4.000000,4.000000,4.000000,4.000000,4.000000,4.000000,4.000000,4.000000,4.000000,4.000000,4.000000,4.000000,4.000000,4.000000,100.000000,,,,,,,,,,,,,,,,,,,,,,,,,,,,
1703406430.279112,1703406430.280088,6.000000,0.000000,4184.102539,4175.128418,4280.128418,4229.743652,4154.871582,4153.717773,4170.769043,4169.743652,4144.102539,4144.358887,4602.563965,4434.102539,4357.051270,4526.410156,3193.000000,4.000000,79.000000,,,,0.000000,4.000000,4.000000,4.000000,4.000000,4.000000,4.000000,4.000000,4.000000,4.000000,4.000000,4.000000,4.000000,4.000000,4.000000,100.000000,,,,,,,,,,,,,,,,,,,,,,,,,,,,
1703406430.286920,1703406430.287996,7.000000,0.000000,4196.282227,4186.666504,4285.897461,4232.179688,4152.948730,4150.897461,4171.410156,4176.282227,4157.179688,4158.461426,4612.563965,4446.153809,4370.384766,4543.461426,5374.000000,4.000000,79.000000,,,,0.000000,4.000000,4.000000,4.000000,4.000000,4.000000,4.000000,4.000000,4.000000,4.000000,4.000000,4.000000,4.000000,4.000000,4.000000,100.000000,,,,,,,,,,,,,,,,,,,,,,,,,,,,
1703406430.294728,1703406430.295804,8.000000,0.000000,4202.563965,4187.436035,4282.692383,4232.436035,4161.666504,4152.307617,4169.102539,4167.051270,4151.153809,4152.436035,4616.538574,4443.846191,4375.769043,4543.461426,4727.000000,4.000000,79.000000,,,,0.000000,4.000000,4.000000,4.000000,4.000000,4.000000,4.000000,4.000000,4.000000,4.000000,4.000000,4.000000,4.000000,4.000000,4.000000,100.000000,,,,,,,,,,,,,,,,,2.000000,0.000000,0.620636,0.259583,-0.626953,0.392883,0.985960,-0.173361,0.071786,-13.476801,-44.293125,64.792107
1703406430.302536,1703406430.303712,9.000000,0.000000,4200.641113,4184.743652,4280.512695,4231.538574,4166.153809,4149.871582,4163.461426,4145.641113,4136.538574,4138.589844,4610.897461,4430.641113,4371.666504,4535.641113,5220.000000,4.000000,79.000000,,,,0.000000,4.000000,4.000000,4.000000,4.000000,4.000000,4.000000,4.000000,4.000000,4.000000,4.000000,4.000000,4.000000,4.000000,4.000000,100.000000,,,,,,,,,,,,,,,,,,,,,,,,,,,,
1703406430.310345,1703406430.311520,10.000000,0.000000,4202.051270,4190.128418,4284.102539,4232.436035,4162.307617,4140.897461,4161.410156,4135.384766,4135.128418,4145.641113,4604.615234,4426.794922,4371.410156,4538.205078,5856.000000,4.000000,79.000000,,,,0.000000,4.000000,4.000000,4.000000,4.000000,4.000000,4.000000,4.000000,4.000000,4.000000,4.000000,4.000000,4.000000,4.000000,4.000000,100.000000,,,,,,,,,,,,,,,,,,,,,,,,,,,,
1703406430.318153,1703406430.319428,11.000000,0.000000,4206.282227,4191.282227,4285.384766,4235.512695,4158.077148,4138.717773,4166.666504,4135.512695,4135.000000,4158.974121,4603.461426,4429.743652,4375.256348,4543.205078,6135.000000,4.000000,79.000000,,,,0.000000,4.000000,4.000000,4.000000,4.000000,4.000000,4.000000,4.000000,4.000000,4.000000,4.000000,4.000000,4.000000,4.000000,4.000000,100.000000,,,,,,,,,,,,,,,,,,,,,,,,,,,,
1703406430.325961,1703406430.327236,12.000000,0.000000,4204.358887,4185.897461,4281.922852,4233.846191,4157.563965,4143.077148,4168.974121,4129.615234,4126.282227,4156.666504,4602.692383,4428.846191,4373.205078,4540.256348,6533.000000,4.000000,79.000000,,,,0.000000,4.000000,4.000000,4.000000,4.000000,4.000000,4.000000,4.000000,4.000000,4.000000,4.000000,4.000000,4.000000,4.000000,4.000000,100.000000,,,,,,,,,,,,,,,,,3.000000,0.000000,0.620612,0.260010,-0.626953,0.392639,0.964962,-0.180198,0.079111,-13.712454,-44.230476,64.779564
1703406430.333769,1703406430.334944,13.000000,0.000000,4204.487305,4185.256348,4283.205078,4234.230957,4162.948730,4141.666504,4164.743652,4122.563965,4127.179688,4146.794922,4601.666504,4430.000000,4371.153809,4536.794922,7008.000000,4.000000,79.000000,,,,0.000000,4.000000,4.000000,4.000000,4.000000,4.000000,4.000000,4.000000,4.000000,4.000000,4.000000,4.000000,4.000000,4.000000,4.000000,100.000000,,,,,,,,,,,,,,,,,,,,,,,,,,,,
1703406430.341577,1703406430.342752,14.000000,0.000000,4204.358887,4187.692383,4287.948730,4240.512695,4164.487305,4140.512695,4164.102539,4129.230957,4134.102539,4142.948730,4601.025879,4433.205078,4373.077148,4538.589844,5856.000000,4.000000,79.000000,,,,0.000000,4.000000,4.000000,4.000000,4.000000,4.000000,4.000000,4.000000,4.000000,4.000000,4.000000,4.000000,4.000000,4.000000,4.000000,100.000000,1.000000,75.000000,4.000000,4.000000,4.000000,4.000000,4.000000,1.000000,4.000000,4.000000,4.000000,4.000000,4.000000,4.000000,4.000000,4.000000,,,,,,,,,,,,
1703406430.349385,1703406430.350460,15.000000,0.000000,4195.384766,4180.000000,4286.410156,4238.333496,4155.384766,4142.051270,4168.461426,4146.922852,4135.897461,4146.410156,4600.128418,4433.077148,4368.333496,4533.974121,6135.000000,4.000000,79.000000,,,,0.000000,4.000000,4.000000,4.000000,4.000000,4.000000,4.000000,4.000000,4.000000,4.000000,4.000000,4.000000,4.000000,4.000000,4.000000,100.000000,,,,,,,,,,,,,,,,,,,,,,,,,,,,
1703406430.357193,1703406430.358268,16.000000,0.000000,4193.717773,4171.666504,4281.922852,4231.410156,4148.846191,4138.333496,4169.615234,4163.589844,4142.948730,4154.230957,4600.256348,4432.179688,4363.846191,4528.077148,0.000000,4.000000,79.000000,,,,0.000000,4.000000,4.000000,4.000000,4.000000,4.000000,4.000000,4.000000,4.000000,4.000000,4.000000,4.000000,4.000000,4.000000,4.000000,100.000000,,,,,,,,,,,,,,,,,4.000000,0.000000,0.620723,0.260498,-0.626831,0.392334,0.975217,-0.155292,0.074228,-13.774542,-44.157429,64.801605
1703406430.365001,1703406430.365976,17.000000,0.000000,4198.333496,4176.153809,4281.410156,4233.589844,4154.871582,4142.563965,4174.487305,4169.487305,4151.794922,4156.153809,4602.051270,4434.102539,4365.769043,4530.256348,0.000000,4.000000,79.000000,,,,0.000000,4.000000,4.000000,4.000000,4.000000,4.000000,4.000000,4.000000,4.000000,4.000000,4.000000,4.000000,4.000000,4.000000,4.000000,100.000000,,,,,,,,,,,,,,,,,,,,,,,,,,,,
1703406430.372809,1703406430.373784,18.000000,0.000000,4189.487305,4174.615234,4278.717773,4230.769043,4155.384766,4150.256348,4178.461426,4165.256348,4147.692383,4145.128418,4601.153809,4433.974121,4359.487305,4526.410156,0.000000,4.000000,79.000000,,,,0.000000,4.000000,4.000000,4.000000,4.000000,4.000000,4.000000,4.000000,4.000000,4.000000,4.000000,4.000000,4.000000,4.000000,4.000000,100.000000,,,,,,,,,,,,,,,,,,,,,,,,,,,,
1703406430.380617,1703406430.381492,19.000000,0.000000,4185.256348,4171.025879,4272.563965,4223.077148,4153.205078,4145.641113,4176.282227,4157.563965,4141.282227,4142.820313,4598.333496,4429.230957,4355.256348,4522.179688,0.000000,4.000000,79.000000,,,,0.000000,4.000000,4.000000,4.000000,4.000000,4.000000,4.000000,4.000000,4.000000,4.000000,4.000000,4.000000,4.000000,4.000000,4.000000,100.000000,,,,,,,,,,,,,,,,,,,,,,,,,,,,
1703406430.388425,1703406430.389400,20.000000,0.000000,4202.051270,4184.615234,4274.871582,4230.256348,4159.230957,4138.589844,4174.743652,4148.077148,4142.820313,4150.384766,4598.846191,4428.205078,4367.436035,4533.974121,0.000000,4.000000,79.000000,,,,0.000000,4.000000,4.000000,4.000000,4.000000,4.000000,4.000000,4.000000,4.000000,4.000000,4.000000,4.000000,4.000000,4.000000,4.000000,100.000000,,,,,,,,,,,,,,,,,5.000000,0.000000,0.620929,0.260742,-0.626526,0.392334,0.969845,-0.173361,0.066903,-13.697087,-44.175022,64.688110
1703406430.396233,1703406430.397209,21.000000,0.000000,4204.743652,4187.820313,4280.769043,4236.153809,4161.538574,4139.230957,4173.589844,4136.666504,4134.871582,4144.358887,4591.282227,4429.358887,4360.000000,4536.153809,0.000000,4.000000,79.000000,,,,0.000000,4.000000,4.000000,4.000000,4.000000,4.000000,4.000000,4.000000,4.000000,4.000000,4.000000,4.000000,4.000000,4.000000,4.000000,100.000000,,,,,,,,,,,,,,,,,,,,,,,,,,,,
1703406430.404041,1703406430.405117,22.000000,0.000000,4187.436035,4170.384766,4281.538574,4227.179688,4158.333496,4144.358887,4174.615234,4132.948730,4125.000000,4131.153809,4580.256348,4428.461426,4340.000000,4523.077148,0.000000,4.000000,79.000000,,,,0.000000,4.000000,4.000000,4.000000,4.000000,4.000000,4.000000,4.000000,4.000000,4.000000,4.000000,4.000000,4.000000,4.000000,4.000000,100.000000,,,,,,,,,,,,,,,,,,,,,,,,,,,,
1703406430.411849,1703406430.412925,23.000000,0.000000,4193.589844,4173.846191,4283.333496,4228.974121,4158.205078,4146.282227,4178.461426,4134.743652,4129.102539,4138.461426,4590.769043,4434.358887,4360.769043,4532.307617,0.000000,4.000000,79.000000,,,,0.000000,4.000000,4.000000,4.000000,4.000000,4.000000,4.000000,4.000000,4.000000,4.000000,4.000000,4.000000,4.000000,4.000000,4.000000,100.000000,,,,,,,,,,,,,,,,,,,,,,,,,,,,
1703406430.419657,1703406430.420733,24.000000,0.000000,4218.333496,4187.051270,4289.487305,4239.871582,4161.410156,4143.077148,4175.641113,4133.846191,4136.538574,4154.230957,4614.102539,4445.128418,4401.538574,4555.256348,0.000000,4.000000,79.000000,,,,0.000000,4.000000,4.000000,4.000000,4.000000,4.000000,4.000000,4.000000,4.000000,4.000000,4.000000,4.000000,4.000000,4.000000,4.000000,100.000000,,,,,,,,,,,,,,,,,6.000000,0.000000,0.621045,0.260742,-0.626526,0.392151,0.985472,-0.177756,0.093761,-13.694046,-44.257519,64.735970
1703406430.427465,1703406430.428441,25.000000,0.000000,4219.102539,4176.922852,4292.820313,4235.769043,4160.641113,4143.461426,4173.077148,4135.641113,4136.025879,4154.487305,4620.641113,4449.230957,4411.410156,4556.666504,0.000000,4.000000,79.000000,,,,0.000000,4.000000,4.000000,4.000000,4.000000,4.000000,4.000000,4.000000,4.000000,4.000000,4.000000,4.000000,4.000000,4.000000,4.000000,100.000000,,,,,,,,,,,,,,,,,,,,,,,,,,,,
1703406430.435273,1703406430.436249,26.000000,0.000000,4202.436035,4162.307617,4293.461426,4227.820313,4155.641113,4151.025879,4178.589844,4143.846191,4135.128418,4154.743652,4619.358887,4452.307617,4407.307617,4550.256348,0.000000,4.000000,79.000000,,,,0.000000,4.000000,4.000000,4.000000,4.000000,4.000000,4.000000,4.000000,4.000000,4.000000,4.000000,4.000000,4.000000,4.000000,4.000000,100.000000,,,,,,,,,,,,,,,,,,,,,,,,,,,,
1703406430.443081,1703406430.443957,27.000000,0.000000,4203.077148,4158.974121,4295.512695,4231.922852,4153.077148,4156.794922,4179.358887,4156.410156,4145.256348,4165.384766,4631.922852,4460.128418,4423.077148,4556.538574,0.000000,4.000000,79.000000,,,,0.000000,4.000000,4.000000,4.000000,4.000000,4.000000,4.000000,4.000000,4.000000,4.000000,4.000000,4.000000,4.000000,4.000000,4.000000,100.000000,,,,,,,,,,,,,,,,,,,,,,,,,,,,
1703406430.450889,1703406430.451765,28.000000,0.000000,4209.230957,4152.692383,4296.410156,4232.051270,4152.820313,4163.717773,4178.461426,4169.615234,4157.563965,4173.974121,4642.563965,4466.410156,4438.846191,4562.692383,0.000000,4.000000,79.000000,,,,0.000000,4.000000,4.000000,4.000000,4.000000,4.000000,4.000000,4.000000,4.000000,4.000000,4.000000,4.000000,4.000000,4.000000,4.000000,100.000000,,,,,,,,,,,,,,,,,7.000000,0.000000,0.620950,0.260986,-0.626709,0.391846,0.984007,-0.170919,0.080576,-13.724641,-44.181767,64.845703
1703406430.458697,1703406430.459473,29.000000,0.000000,4193.974121,4138.077148,4291.153809,4220.641113,4150.128418,4166.282227,4187.563965,4173.461426,4157.563965,4172.179688,4634.615234,4462.179688,4432.563965,4550.641113,0.000000,4.000000,79.000000,,,,0.000000,4.000000,4.000000,4.000000,4.000000,4.000000,4.000000,4.000000,4.000000,4.000000,4.000000,4.000000,4.000000,4.000000,4.000000,100.000000,,,,,,,,,,,,,,,,,,,,,,,,,,,,
1703406430.466505,1703406430.467381,30.000000,0.000000,4180.384766,4130.384766,4281.282227,4215.512695,4149.358887,4160.256348,4188.461426,4164.871582,4150.769043,4164.358887,4623.589844,4448.974121,4425.897461,4541.922852,0.000000,4.000000,79.000000,,,,0.000000,4.000000,4.000000,4.000000,4.000000,4.000000,4.000000,4.000000,4.000000,4.000000,4.000000,4.000000,4.000000,4.000000,4.000000,100.000000,,,,,,,,,,,,,,,,,,,,,,,,,,,,
1703406430.474314,1703406430.475189,31.000000,0.000000,4185.769043,4134.743652,4276.538574,4223.974121,4152.563965,4162.948730,4183.461426,4157.307617,4151.410156,4158.974121,4624.487305,4440.641113,4431.922852,4548.846191,0.000000,4.000000,79.000000,,,,0.000000,4.000000,4.000000,4.000000,4.000000,4.000000,4.000000,4.000000,4.000000,4.000000,4.000000,4.000000,4.000000,4.000000,4.000000,100.000000,,,,,,,,,,,,,,,,,,,,,,,,,,,,
1703406430.482122,1703406430.483097,32.000000,0.000000,4187.179688,4138.589844,4277.692383,4228.333496,4151.922852,4175.000000,4192.563965,4157.179688,4153.846191,4157.307617,4626.794922,4444.871582,4433.717773,4547.692383,0.000000,4.000000,79.000000,,,,0.000000,4.000000,4.000000,4.000000,4.000000,4.000000,4.000000,4.000000,4.000000,4.000000,4.000000,4.000000,4.000000,4.000000,4.000000,100.000000,,,,,,,,,,,,,,,,,8.000000,0.000000,0.620888,0.261169,-0.626770,0.391724,0.983030,-0.168966,0.083018,-13.702177,-44.163589,64.811134
1703406430.489930,1703406430.490905,33.000000,0.000000,4180.769043,4134.743652,4275.000000,4223.846191,4150.384766,4176.282227,4201.538574,4156.538574,4144.615234,4151.922852,4619.743652,4442.692383,4426.282227,4538.077148,0.000000,4.000000,79.000000,,,,0.000000,4.000000,4.000000,4.000000,4.000000,4.000000,4.000000,4.000000,4.000000,4.000000,4.000000,4.000000,4.000000,4.000000,4.000000,100.000000,,,,,,,,,,,,,,,,,,,,,,,,,,,,
1703406430.497738,1703406430.498813,34.000000,0.000000,4181.666504,4134.487305,4271.282227,4223.589844,4151.794922,4172.051270,4194.487305,4150.897461,4133.333496,4147.948730,4613.333496,4431.025879,4425.769043,4537.692383,0.000000,4.000000,79.000000,,,,0.000000,4.000000,4.000000,4.000000,4.000000,4.000000,4.000000,4.000000,4.000000,4.000000,4.000000,4.000000,4.000000,4.000000,4.000000,100.000000,,,,,,,,,,,,,,,,,,,,,,,,,,,,
1703406430.505546,1703406430.506621,35.000000,0.000000,4185.000000,4137.948730,4276.153809,4231.282227,4155.256348,4178.077148,4191.410156,4148.717773,4138.205078,4157.563965,4616.538574,4432.820313,4428.974121,4542.563965,0.000000,4.000000,79.000000,,,,0.000000,4.000000,4.000000,4.000000,4.000000,4.000000,4.000000,4.000000,4.000000,4.000000,4.000000,4.000000,4.000000,4.000000,4.000000,100.000000,,,,,,,,,,,,,,,,,,,,,,,,,,,,
1703406430.513354,1703406430.514329,36.000000,0.000000,4186.666504,4141.153809,4282.436035,4241.538574,4157.563965,4180.897461,4197.179688,4152.179688,4150.384766,4169.743652,4625.256348,4443.205078,4428.077148,4545.128418,0.000000,4.000000,79.000000,,,,0.000000,4.000000,4.000000,4.000000,4.000000,4.000000,4.000000,4.000000,4.000000,4.000000,4.000000,4.000000,4.000000,4.000000,4.000000,100.000000,,,,,,,,,,,,,,,,,9.000000,0.000000,0.620914,0.261108,-0.626770,0.391724,0.964962,-0.165548,0.072763,-13.615293,-44.080563,64.846687
1703406430.521162,1703406430.522137,37.000000,0.000000,4196.025879,4152.179688,4283.717773,4247.307617,4156.666504,4177.563965,4193.589844,4152.820313,4151.538574,4171.282227,4631.794922,4450.512695,4432.692383,4552.179688,0.000000,4.000000,79.000000,,,,0.000000,4.000000,4.000000,4.000000,4.000000,4.000000,4.000000,4.000000,4.000000,4.000000,4.000000,4.000000,4.000000,4.000000,4.000000,100.000000,,,,,,,,,,,,,,,,,,,,,,,,,,,,
