title:عمار اختر, start timestamp:1703503341.212106, stop timestamp:1703503352.049683, headset type:EPOCX, headset serial:E50206EF, headset firmware:720, channels:67, sampling rate:eeg_128;mot_32, samples:1389      , version:2.2, 
Timestamp,OriginalTimestamp,EEG.Counter,EEG.Interpolated,EEG.AF3,EEG.F7,EEG.F3,EEG.FC5,EEG.T7,EEG.P7,EEG.O1,EEG.O2,EEG.P8,EEG.T8,EEG.FC6,EEG.F4,EEG.F8,EEG.AF4,EEG.RawCq,EEG.Battery,EEG.BatteryPercent,MarkerIndex,MarkerType,MarkerValueInt,EEG.MarkerHardware,CQ.AF3,CQ.F7,CQ.F3,CQ.FC5,CQ.T7,CQ.P7,CQ.O1,CQ.O2,CQ.P8,CQ.T8,CQ.FC6,CQ.F4,CQ.F8,CQ.AF4,CQ.Overall,EQ.SampleRateQuality,EQ.OVERALL,EQ.AF3,EQ.F7,EQ.F3,EQ.FC5,EQ.T7,EQ.P7,EQ.O1,EQ.O2,EQ.P8,EQ.T8,EQ.FC6,EQ.F4,EQ.F8,EQ.AF4,MOT.CounterMems,MOT.InterpolatedMems,MOT.Q0,MOT.Q1,MOT.Q2,MOT.Q3,MOT.AccX,MOT.AccY,MOT.AccZ,MOT.MagX,MOT.MagY,MOT.MagZ
1703503341.212106,1703503341.212570,100.000000,0.000000,4273.077148,4250.384766,4297.692383,4202.948730,4250.512695,4254.743652,4262.948730,4251.666504,4224.358887,4248.846191,4392.051270,4452.051270,4377.820313,4384.871582,6935.000000,3.000000,63.000000,,,,0.000000,4.000000,4.000000,4.000000,4.000000,4.000000,4.000000,4.000000,4.000000,4.000000,4.000000,4.000000,4.000000,4.000000,4.000000,100.000000,,,,,,,,,,,,,,,,,25.000000,0.000000,0.445049,0.534058,-0.447327,0.562683,0.989867,-0.030765,0.028324,-14.689473,-37.782192,60.227566
1703503341.219915,1703503341.220278,101.000000,0.000000,4270.512695,4252.948730,4290.384766,4200.128418,4252.563965,4264.615234,4266.538574,4257.692383,4230.384766,4246.153809,4392.436035,4442.820313,4377.563965,4380.128418,7287.000000,3.000000,63.000000,,,,0.000000,4.000000,4.000000,4.000000,4.000000,4.000000,4.000000,4.000000,4.000000,4.000000,4.000000,4.000000,4.000000,4.000000,4.000000,100.000000,,,,,,,,,,,,,,,,,,,,,,,,,,,,
1703503341.227723,1703503341.228186,102.000000,0.000000,4277.051270,4253.461426,4295.128418,4199.358887,4247.563965,4260.128418,4268.333496,4262.436035,4233.461426,4256.025879,4398.205078,4447.436035,4381.794922,4383.333496,6132.000000,3.000000,63.000000,,,,0.000000,4.000000,4.000000,4.000000,4.000000,4.000000,4.000000,4.000000,4.000000,4.000000,4.000000,4.000000,4.000000,4.000000,4.000000,100.000000,,,,,,,,,,,,,,,,,,,,,,,,,,,,
1703503341.235531,1703503341.235994,103.000000,0.000000,4279.487305,4255.384766,4299.230957,4197.948730,4247.692383,4256.922852,4267.179688,4260.512695,4229.230957,4253.205078,4393.589844,4453.846191,4379.487305,4380.128418,6387.000000,3.000000,63.000000,,,,0.000000,4.000000,4.000000,4.000000,4.000000,4.000000,4.000000,4.000000,4.000000,4.000000,4.000000,4.000000,4.000000,4.000000,4.000000,100.000000,,,,,,,,,,,,,,,,,,,,,,,,,,,,
1703503341.243339,1703503341.243902,104.000000,0.000000,4277.820313,4258.974121,4293.974121,4198.846191,4250.000000,4262.051270,4271.153809,4248.974121,4219.871582,4232.307617,4381.666504,4445.897461,4372.436035,4369.871582,6935.000000,3.000000,63.000000,,,,0.000000,4.000000,4.000000,4.000000,4.000000,4.000000,4.000000,4.000000,4.000000,4.000000,4.000000,4.000000,4.000000,4.000000,4.000000,100.000000,,,,,,,,,,,,,,,,,26.000000,0.000000,0.445120,0.534241,-0.446960,0.562744,0.989867,-0.031254,0.024417,-14.637193,-37.753975,60.138145
1703503341.251147,1703503341.251710,105.000000,0.000000,4281.794922,4260.384766,4296.025879,4210.256348,4252.436035,4265.384766,4277.051270,4244.871582,4220.641113,4238.717773,4386.922852,4446.282227,4375.641113,4377.307617,7287.000000,3.000000,63.000000,,,,0.000000,4.000000,4.000000,4.000000,4.000000,4.000000,4.000000,4.000000,4.000000,4.000000,4.000000,4.000000,4.000000,4.000000,4.000000,100.000000,,,,,,,,,,,,,,,,,,,,,,,,,,,,
1703503341.258955,1703503341.259618,106.000000,0.000000,4288.589844,4264.871582,4307.692383,4226.410156,4260.000000,4265.512695,4279.230957,4245.384766,4226.922852,4256.538574,4398.333496,4456.922852,4383.333496,4388.846191,6132.000000,3.000000,63.000000,,,,0.000000,4.000000,4.000000,4.000000,4.000000,4.000000,4.000000,4.000000,4.000000,4.000000,4.000000,4.000000,4.000000,4.000000,4.000000,100.000000,,,,,,,,,,,,,,,,,,,,,,,,,,,,
1703503341.266763,1703503341.267426,107.000000,0.000000,4296.282227,4274.487305,4315.000000,4236.666504,4265.384766,4266.282227,4280.512695,4236.282227,4217.563965,4241.153809,4390.128418,4453.205078,4379.615234,4385.897461,6387.000000,3.000000,63.000000,,,,0.000000,4.000000,4.000000,4.000000,4.000000,4.000000,4.000000,4.000000,4.000000,4.000000,4.000000,4.000000,4.000000,4.000000,4.000000,100.000000,,,,,,,,,,,,,,,,,,,,,,,,,,,,
1703503341.274571,1703503341.275333,108.000000,0.000000,4294.743652,4278.077148,4311.282227,4236.282227,4264.487305,4266.153809,4280.512695,4235.769043,4209.743652,4230.641113,4387.820313,4445.256348,4379.615234,4388.461426,6935.000000,3.000000,63.000000,,,,0.000000,4.000000,4.000000,4.000000,4.000000,4.000000,4.000000,4.000000,4.000000,4.000000,4.000000,4.000000,4.000000,4.000000,4.000000,100.000000,,,,,,,,,,,,,,,,,27.000000,0.000000,0.445219,0.534363,-0.446716,0.562744,0.991332,-0.017092,0.030765,-14.756806,-37.728577,60.140995
1703503341.282379,1703503341.283141,109.000000,0.000000,4279.615234,4269.102539,4303.846191,4235.256348,4263.974121,4264.871582,4278.974121,4248.846191,4220.512695,4250.256348,4402.436035,4448.846191,4389.230957,4391.666504,7287.000000,3.000000,63.000000,,,,0.000000,4.000000,4.000000,4.000000,4.000000,4.000000,4.000000,4.000000,4.000000,4.000000,4.000000,4.000000,4.000000,4.000000,4.000000,100.000000,,,,,,,,,,,,,,,,,,,,,,,,,,,,
1703503341.290187,1703503341.290949,110.000000,0.000000,4277.307617,4262.436035,4302.436035,4239.358887,4264.871582,4263.205078,4278.333496,4250.384766,4223.333496,4254.615234,4402.307617,4455.384766,4387.563965,4385.512695,6132.000000,3.000000,63.000000,,,,0.000000,4.000000,4.000000,4.000000,4.000000,4.000000,4.000000,4.000000,4.000000,4.000000,4.000000,4.000000,4.000000,4.000000,4.000000,100.000000,,,,,,,,,,,,,,,,,,,,,,,,,,,,
1703503341.297995,1703503341.298757,111.000000,0.000000,4293.205078,4269.871582,4311.153809,4238.717773,4261.794922,4261.153809,4278.077148,4246.282227,4213.846191,4238.333496,4391.153809,4458.717773,4379.230957,4389.615234,6387.000000,3.000000,63.000000,,,,0.000000,4.000000,4.000000,4.000000,4.000000,4.000000,4.000000,4.000000,4.000000,4.000000,4.000000,4.000000,4.000000,4.000000,4.000000,100.000000,,,,,,,,,,,,,,,,,,,,,,,,,,,,
1703503341.305803,1703503341.306465,112.000000,0.000000,4293.717773,4269.871582,4312.051270,4232.307617,4259.358887,4260.769043,4276.153809,4257.692383,4225.384766,4247.436035,4400.384766,4459.871582,4386.794922,4396.282227,6935.000000,3.000000,63.000000,,,,0.000000,4.000000,4.000000,4.000000,4.000000,4.000000,4.000000,4.000000,4.000000,4.000000,4.000000,4.000000,4.000000,4.000000,4.000000,100.000000,,,,,,,,,,,,,,,,,28.000000,0.000000,0.445426,0.534485,-0.446594,0.562561,0.985472,-0.025394,0.033207,-14.681126,-37.805717,60.126896
1703503341.313611,1703503341.314273,113.000000,0.000000,4277.820313,4262.051270,4298.974121,4230.256348,4263.333496,4263.205078,4273.461426,4272.948730,4249.743652,4270.769043,4424.871582,4463.461426,4403.589844,4396.538574,7287.000000,3.000000,63.000000,,,,0.000000,4.000000,4.000000,4.000000,4.000000,4.000000,4.000000,4.000000,4.000000,4.000000,4.000000,4.000000,4.000000,4.000000,4.000000,100.000000,,,,,,,,,,,,,,,,,,,,,,,,,,,,
1703503341.321419,1703503341.321981,114.000000,0.000000,4275.000000,4260.641113,4299.358887,4234.615234,4263.717773,4262.692383,4274.102539,4266.794922,4241.153809,4260.000000,4419.102539,4463.077148,4397.179688,4395.512695,6132.000000,3.000000,63.000000,,,,0.000000,4.000000,4.000000,4.000000,4.000000,4.000000,4.000000,4.000000,4.000000,4.000000,4.000000,4.000000,4.000000,4.000000,4.000000,100.000000,,,,,,,,,,,,,,,,,,,,,,,,,,,,
1703503341.329227,1703503341.329890,115.000000,0.000000,4280.128418,4261.666504,4311.282227,4238.333496,4260.256348,4259.615234,4276.922852,4247.307617,4212.051270,4231.666504,4387.948730,4450.128418,4372.948730,4383.461426,6387.000000,3.000000,63.000000,,,,0.000000,4.000000,4.000000,4.000000,4.000000,4.000000,4.000000,4.000000,4.000000,4.000000,4.000000,4.000000,4.000000,4.000000,4.000000,100.000000,,,,,,,,,,,,,,,,,,,,,,,,,,,,
1703503341.337035,1703503341.337698,116.000000,0.000000,4277.179688,4260.641113,4312.563965,4241.666504,4260.641113,4260.128418,4277.051270,4240.384766,4209.102539,4226.666504,4383.461426,4439.615234,4364.358887,4373.974121,6935.000000,3.000000,63.000000,,,,0.000000,4.000000,4.000000,4.000000,4.000000,4.000000,4.000000,4.000000,4.000000,4.000000,4.000000,4.000000,4.000000,4.000000,4.000000,100.000000,,,,,,,,,,,,,,,,,29.000000,0.000000,0.445515,0.534424,-0.446655,0.562500,0.981565,-0.015139,0.026370,-14.763014,-37.691814,60.164207
1703503341.344843,1703503341.345606,117.000000,0.000000,4275.897461,4259.102539,4309.230957,4246.025879,4262.820313,4262.179688,4276.025879,4241.025879,4218.846191,4237.948730,4400.641113,4446.794922,4373.589844,4380.256348,7287.000000,3.000000,63.000000,,,,0.000000,4.000000,4.000000,4.000000,4.000000,4.000000,4.000000,4.000000,4.000000,4.000000,4.000000,4.000000,4.000000,4.000000,4.000000,100.000000,,,,,,,,,,,,,,,,,,,,,,,,,,,,
1703503341.352651,1703503341.353414,118.000000,0.000000,4277.436035,4260.897461,4310.512695,4251.538574,4264.358887,4261.410156,4276.153809,4236.538574,4218.077148,4242.563965,4404.743652,4457.563965,4383.205078,4388.589844,6132.000000,3.000000,63.000000,,,,0.000000,4.000000,4.000000,4.000000,4.000000,4.000000,4.000000,4.000000,4.000000,4.000000,4.000000,4.000000,4.000000,4.000000,4.000000,100.000000,,,,,,,,,,,,,,,,,,,,,,,,,,,,
1703503341.360459,1703503341.361322,119.000000,0.000000,4280.769043,4265.641113,4315.897461,4259.743652,4263.717773,4260.000000,4275.256348,4228.974121,4209.615234,4230.897461,4395.769043,4455.256348,4378.461426,4386.922852,6387.000000,3.000000,63.000000,,,,0.000000,4.000000,4.000000,4.000000,4.000000,4.000000,4.000000,4.000000,4.000000,4.000000,4.000000,4.000000,4.000000,4.000000,4.000000,100.000000,,,,,,,,,,,,,,,,,,,,,,,,,,,,
1703503341.368267,1703503341.369130,120.000000,0.000000,4290.769043,4266.666504,4320.641113,4265.384766,4261.922852,4259.358887,4272.307617,4228.461426,4208.589844,4226.794922,4398.974121,4452.051270,4372.692383,4384.615234,6935.000000,3.000000,63.000000,,,,0.000000,4.000000,4.000000,4.000000,4.000000,4.000000,4.000000,4.000000,4.000000,4.000000,4.000000,4.000000,4.000000,4.000000,4.000000,100.000000,,,,,,,,,,,,,,,,,30.000000,0.000000,0.445666,0.534363,-0.446655,0.562439,0.987425,-0.021487,0.038091,-14.870046,-37.755966,60.197788
1703503341.376075,1703503341.376939,121.000000,0.000000,4293.846191,4261.922852,4317.948730,4260.128418,4263.717773,4260.384766,4274.871582,4240.384766,4223.589844,4247.692383,4420.128418,4463.589844,4388.717773,4395.000000,7287.000000,3.000000,63.000000,,,,0.000000,4.000000,4.000000,4.000000,4.000000,4.000000,4.000000,4.000000,4.000000,4.000000,4.000000,4.000000,4.000000,4.000000,4.000000,100.000000,,,,,,,,,,,,,,,,,,,,,,,,,,,,
1703503341.383884,1703503341.384647,122.000000,0.000000,4283.461426,4259.102539,4306.410156,4250.641113,4264.743652,4262.692383,4277.692383,4251.025879,4236.282227,4260.384766,4428.974121,4468.077148,4401.538574,4404.102539,6132.000000,3.000000,63.000000,,,,0.000000,4.000000,4.000000,4.000000,4.000000,4.000000,4.000000,4.000000,4.000000,4.000000,4.000000,4.000000,4.000000,4.000000,4.000000,100.000000,,,,,,,,,,,,,,,,,,,,,,,,,,,,
1703503341.391692,1703503341.392555,123.000000,0.000000,4276.282227,4261.666504,4297.948730,4250.897461,4261.922852,4263.077148,4272.307617,4248.461426,4231.153809,4248.974121,4407.563965,4449.358887,4385.769043,4391.794922,6387.000000,3.000000,63.000000,,,,0.000000,4.000000,4.000000,4.000000,4.000000,4.000000,4.000000,4.000000,4.000000,4.000000,4.000000,4.000000,4.000000,4.000000,4.000000,100.000000,,,,,,,,,,,,,,,,,,,,,,,,,,,,
1703503341.399500,1703503341.400363,124.000000,0.000000,4277.179688,4255.769043,4296.410156,4253.717773,4260.256348,4261.410156,4267.179688,4243.077148,4225.897461,4240.384766,4393.077148,4438.717773,4369.615234,4375.128418,6935.000000,3.000000,63.000000,,,,0.000000,4.000000,4.000000,4.000000,4.000000,4.000000,4.000000,4.000000,4.000000,4.000000,4.000000,4.000000,4.000000,4.000000,4.000000,100.000000,,,,,,,,,,,,,,,,,31.000000,0.000000,0.445585,0.534302,-0.446655,0.562561,0.989379,-0.018069,0.031254,-14.866374,-37.663704,60.178009
1703503341.407308,1703503341.408270,125.000000,0.000000,4278.846191,4248.974121,4297.436035,4250.000000,4263.205078,4261.666504,4267.563965,4248.846191,4231.922852,4239.230957,4407.307617,4447.051270,4374.871582,4382.051270,7287.000000,3.000000,63.000000,,,,0.000000,4.000000,4.000000,4.000000,4.000000,4.000000,4.000000,4.000000,4.000000,4.000000,4.000000,4.000000,4.000000,4.000000,4.000000,100.000000,,,,,,,,,,,,,,,,,,,,,,,,,,,,
1703503341.415116,1703503341.416078,126.000000,0.000000,4279.358887,4256.153809,4295.769043,4247.436035,4260.769043,4260.000000,4266.025879,4250.512695,4232.563965,4232.436035,4411.922852,4447.179688,4384.102539,4395.384766,6132.000000,3.000000,63.000000,,,,0.000000,4.000000,4.000000,4.000000,4.000000,4.000000,4.000000,4.000000,4.000000,4.000000,4.000000,4.000000,4.000000,4.000000,4.000000,100.000000,,,,,,,,,,,,,,,,,,,,,,,,,,,,
1703503341.422924,1703503341.423986,127.000000,0.000000,4278.205078,4260.000000,4293.974121,4249.230957,4253.333496,4258.077148,4263.589844,4239.615234,4221.410156,4228.974121,4399.230957,4439.487305,4382.563965,4390.128418,63.000000,3.000000,63.000000,,,,0.000000,4.000000,4.000000,4.000000,4.000000,4.000000,4.000000,4.000000,4.000000,4.000000,4.000000,4.000000,4.000000,4.000000,4.000000,100.000000,,,,,,,,,,,,,,,,,,,,,,,,,,,,
1703503341.430732,1703503341.431794,0.000000,0.000000,4277.692383,4251.666504,4295.769043,4251.282227,4256.794922,4256.666504,4263.846191,4234.230957,4216.666504,4230.128418,4400.897461,4441.410156,4376.538574,4383.846191,5308.000000,3.000000,63.000000,,,,0.000000,4.000000,4.000000,4.000000,4.000000,4.000000,4.000000,4.000000,4.000000,4.000000,4.000000,4.000000,4.000000,4.000000,4.000000,100.000000,,,,,,,,,,,,,,,,,0.000000,0.000000,0.445520,0.534241,-0.446716,0.562622,0.998657,-0.030277,0.021975,-15.129737,-37.613998,60.360207
1703503341.438540,1703503341.439702,1.000000,0.000000,4279.871582,4246.922852,4296.922852,4249.358887,4260.256348,4252.563965,4261.282227,4231.538574,4215.769043,4232.563965,4408.333496,4442.692383,4376.922852,4389.102539,5561.000000,3.000000,63.000000,,,,0.000000,4.000000,4.000000,4.000000,4.000000,4.000000,4.000000,4.000000,4.000000,4.000000,4.000000,4.000000,4.000000,4.000000,4.000000,100.000000,,,,,,,,,,,,,,,,,,,,,,,,,,,,
1703503341.446348,1703503341.447510,2.000000,0.000000,4275.512695,4247.307617,4295.128418,4247.820313,4254.487305,4247.820313,4259.615234,4221.794922,4206.794922,4230.897461,4398.333496,4432.692383,4371.794922,4385.641113,5450.000000,3.000000,63.000000,,,,0.000000,4.000000,4.000000,4.000000,4.000000,4.000000,4.000000,4.000000,4.000000,4.000000,4.000000,4.000000,4.000000,4.000000,4.000000,100.000000,,,,,,,,,,,,,,,,,,,,,,,,,,,,
1703503341.454156,1703503341.455418,3.000000,0.000000,4269.743652,4247.179688,4295.256348,4255.256348,4253.461426,4247.436035,4261.794922,4219.871582,4205.000000,4228.461426,4397.563965,4429.358887,4348.717773,4377.051270,5440.000000,3.000000,63.000000,,,,0.000000,4.000000,4.000000,4.000000,4.000000,4.000000,4.000000,4.000000,4.000000,4.000000,4.000000,4.000000,4.000000,4.000000,4.000000,100.000000,,,,,,,,,,,,,,,,,,,,,,,,,,,,
1703503341.461964,1703503341.463226,4.000000,0.000000,4274.743652,4250.384766,4300.897461,4264.358887,4256.282227,4248.974121,4262.307617,4228.461426,4215.128418,4230.384766,4420.512695,4436.666504,4319.871582,4381.922852,5332.000000,3.000000,63.000000,,,,0.000000,4.000000,4.000000,4.000000,4.000000,4.000000,4.000000,4.000000,4.000000,4.000000,4.000000,4.000000,4.000000,4.000000,4.000000,100.000000,,,,,,,,,,,,,,,,,1.000000,0.000000,0.445377,0.534180,-0.446777,0.562744,1.002564,-0.042486,0.024905,-14.983430,-37.552601,60.224186
1703503341.469772,1703503341.470934,5.000000,0.000000,4282.563965,4253.205078,4304.871582,4265.384766,4256.922852,4249.615234,4262.948730,4234.358887,4218.589844,4236.282227,4440.128418,4443.461426,4302.051270,4392.179688,4911.000000,3.000000,63.000000,,,,0.000000,4.000000,4.000000,4.000000,4.000000,4.000000,4.000000,4.000000,4.000000,4.000000,4.000000,4.000000,4.000000,4.000000,4.000000,100.000000,,,,,,,,,,,,,,,,,,,,,,,,,,,,
1703503341.477580,1703503341.478742,6.000000,0.000000,4275.641113,4248.846191,4298.077148,4261.410156,4257.436035,4250.769043,4262.307617,4243.205078,4218.205078,4243.205078,4443.589844,4442.307617,4291.538574,4392.820313,4176.000000,3.000000,63.000000,,,,0.000000,4.000000,4.000000,4.000000,4.000000,4.000000,4.000000,4.000000,4.000000,4.000000,4.000000,4.000000,4.000000,4.000000,4.000000,100.000000,,,,,,,,,,,,,,,,,,,,,,,,,,,,
1703503341.485388,1703503341.486450,7.000000,0.000000,4265.384766,4244.487305,4286.410156,4257.692383,4254.230957,4251.153809,4262.436035,4253.333496,4214.487305,4230.769043,4434.102539,4430.512695,4270.384766,4382.563965,5051.000000,3.000000,63.000000,,,,0.000000,4.000000,4.000000,4.000000,4.000000,4.000000,4.000000,4.000000,4.000000,4.000000,4.000000,4.000000,4.000000,4.000000,4.000000,100.000000,,,,,,,,,,,,,,,,,,,,,,,,,,,,
1703503341.493196,1703503341.494258,8.000000,0.000000,4270.384766,4246.282227,4285.769043,4259.871582,4249.487305,4251.153809,4263.717773,4251.666504,4210.256348,4219.871582,4434.102539,4428.077148,4258.589844,4383.461426,4958.000000,3.000000,63.000000,,,,0.000000,4.000000,4.000000,4.000000,4.000000,4.000000,4.000000,4.000000,4.000000,4.000000,4.000000,4.000000,4.000000,4.000000,4.000000,100.000000,,,,,,,,,,,,,,,,,2.000000,0.000000,0.445129,0.534119,-0.447021,0.562805,0.984495,-0.038091,0.028812,-15.168420,-37.464005,60.335102
1703503341.501004,1703503341.501966,9.000000,0.000000,4280.641113,4250.000000,4295.769043,4266.025879,4249.615234,4251.410156,4265.128418,4245.384766,4210.641113,4233.461426,4442.307617,4441.666504,4269.358887,4395.897461,5559.000000,3.000000,63.000000,,,,0.000000,4.000000,4.000000,4.000000,4.000000,4.000000,4.000000,4.000000,4.000000,4.000000,4.000000,4.000000,4.000000,4.000000,4.000000,100.000000,,,,,,,,,,,,,,,,,,,,,,,,,,,,
1703503341.508812,1703503341.509774,10.000000,0.000000,4278.589844,4247.307617,4297.692383,4263.589844,4249.358887,4248.205078,4261.922852,4253.717773,4207.563965,4240.384766,4440.000000,4445.512695,4268.717773,4394.230957,6135.000000,3.000000,63.000000,,,,0.000000,4.000000,4.000000,4.000000,4.000000,4.000000,4.000000,4.000000,4.000000,4.000000,4.000000,4.000000,4.000000,4.000000,4.000000,100.000000,,,,,,,,,,,,,,,,,,,,,,,,,,,,
1703503341.516621,1703503341.517482,11.000000,0.000000,4271.922852,4246.538574,4290.641113,4259.358887,4253.846191,4248.974121,4260.769043,4242.179688,4206.666504,4238.589844,4437.948730,4434.743652,4258.333496,4388.846191,6389.000000,3.000000,63.000000,,,,0.000000,4.000000,4.000000,4.000000,4.000000,4.000000,4.000000,4.000000,4.000000,4.000000,4.000000,4.000000,4.000000,4.000000,4.000000,100.000000,,,,,,,,,,,,,,,,,,,,,,,,,,,,
1703503341.524428,1703503341.525290,12.000000,0.000000,4279.102539,4257.179688,4293.333496,4270.256348,4263.717773,4258.589844,4268.077148,4169.743652,4215.256348,4247.820313,4433.846191,4418.717773,4261.538574,4392.436035,6937.000000,3.000000,63.000000,,,,0.000000,4.000000,4.000000,4.000000,4.000000,4.000000,4.000000,4.000000,4.000000,4.000000,4.000000,4.000000,4.000000,4.000000,4.000000,100.000000,,,,,,,,,,,,,,,,,3.000000,0.000000,0.445210,0.534180,-0.447021,0.562683,0.988402,-0.031742,0.035649,-15.151578,-37.500938,60.518257
1703503341.532236,1703503341.532998,13.000000,0.000000,4292.307617,4266.282227,4305.641113,4283.589844,4265.128418,4265.128418,4269.358887,4093.205078,4218.589844,4255.128418,4422.179688,4404.102539,4267.307617,4392.436035,7291.000000,3.000000,63.000000,,,,0.000000,4.000000,4.000000,4.000000,4.000000,4.000000,4.000000,4.000000,4.000000,4.000000,4.000000,4.000000,4.000000,4.000000,4.000000,100.000000,,,,,,,,,,,,,,,,,,,,,,,,,,,,
1703503341.540045,1703503341.540806,14.000000,0.000000,4296.922852,4265.641113,4311.538574,4285.256348,4264.358887,4262.563965,4267.179688,4080.897461,4214.615234,4254.230957,4421.282227,4405.128418,4264.358887,4391.794922,6135.000000,3.000000,63.000000,,,,0.000000,4.000000,4.000000,4.000000,4.000000,4.000000,4.000000,4.000000,4.000000,4.000000,4.000000,4.000000,4.000000,4.000000,4.000000,100.000000,,,,,,,,,,,,,,,,,,,,,,,,,,,,
1703503341.547853,1703503341.548514,15.000000,0.000000,4295.641113,4264.230957,4311.025879,4281.666504,4264.230957,4261.025879,4268.077148,4095.512939,4215.641113,4256.794922,4428.077148,4413.205078,4262.436035,4397.051270,6389.000000,3.000000,63.000000,,,,0.000000,4.000000,4.000000,4.000000,4.000000,4.000000,4.000000,4.000000,4.000000,4.000000,4.000000,4.000000,4.000000,4.000000,4.000000,100.000000,,,,,,,,,,,,,,,,,,,,,,,,,,,,
1703503341.555661,1703503341.556322,16.000000,0.000000,4291.153809,4264.358887,4310.256348,4280.128418,4262.307617,4262.436035,4269.102539,4094.615479,4219.615234,4258.846191,4434.230957,4418.077148,4271.538574,4401.410156,0.000000,3.000000,63.000000,,,,0.000000,4.000000,4.000000,4.000000,4.000000,4.000000,4.000000,4.000000,4.000000,4.000000,4.000000,4.000000,4.000000,4.000000,4.000000,100.000000,,,,,,,,,,,,,,,,,4.000000,0.000000,0.445152,0.534241,-0.447083,0.562622,0.994262,-0.023929,0.025394,-15.086420,-37.534180,60.516430
1703503341.563469,1703503341.564030,17.000000,0.000000,4291.538574,4263.589844,4312.179688,4281.538574,4262.563965,4261.794922,4273.205078,4101.025879,4220.897461,4261.922852,4440.641113,4424.102539,4277.692383,4398.205078,0.000000,3.000000,63.000000,,,,0.000000,4.000000,4.000000,4.000000,4.000000,4.000000,4.000000,4.000000,4.000000,4.000000,4.000000,4.000000,4.000000,4.000000,4.000000,100.000000,,,,,,,,,,,,,,,,,,,,,,,,,,,,
1703503341.571277,1703503341.571838,18.000000,0.000000,4293.717773,4265.256348,4310.641113,4276.538574,4263.461426,4262.307617,4277.820313,4114.487305,4225.256348,4265.769043,4436.025879,4418.333496,4269.615234,4389.230957,0.000000,3.000000,63.000000,,,,0.000000,4.000000,4.000000,4.000000,4.000000,4.000000,4.000000,4.000000,4.000000,4.000000,4.000000,4.000000,4.000000,4.000000,4.000000,100.000000,,,,,,,,,,,,,,,,,,,,,,,,,,,,
1703503341.579085,1703503341.579546,19.000000,0.000000,4282.820313,4261.025879,4299.358887,4265.256348,4262.051270,4265.512695,4277.948730,4120.256348,4232.307617,4260.769043,4425.897461,4401.794922,4258.717773,4379.487305,0.000000,3.000000,63.000000,,,,0.000000,4.000000,4.000000,4.000000,4.000000,4.000000,4.000000,4.000000,4.000000,4.000000,4.000000,4.000000,4.000000,4.000000,4.000000,100.000000,,,,,,,,,,,,,,,,,,,,,,,,,,,,
1703503341.586893,1703503341.587354,20.000000,0.000000,4271.794922,4249.230957,4286.922852,4260.128418,4260.000000,4267.948730,4277.179688,4124.102539,4234.743652,4251.538574,4421.538574,4392.948730,4252.051270,4369.230957,0.000000,3.000000,63.000000,,,,0.000000,4.000000,4.000000,4.000000,4.000000,4.000000,4.000000,4.000000,4.000000,4.000000,4.000000,4.000000,4.000000,4.000000,4.000000,100.000000,,,,,,,,,,,,,,,,,5.000000,0.000000,0.445152,0.534241,-0.447083,0.562622,0.998169,-0.033207,0.028324,-14.911112,-37.730759,60.564789
1703503341.594701,1703503341.595062,21.000000,0.000000,4275.384766,4246.794922,4279.743652,4260.128418,4261.794922,4267.948730,4279.102539,4123.846191,4232.436035,4248.461426,4420.000000,4388.974121,4251.794922,4358.717773,0.000000,3.000000,63.000000,,,,0.000000,4.000000,4.000000,4.000000,4.000000,4.000000,4.000000,4.000000,4.000000,4.000000,4.000000,4.000000,4.000000,4.000000,4.000000,100.000000,,,,,,,,,,,,,,,,,,,,,,,,,,,,
1703503341.602509,1703503341.602970,22.000000,0.000000,4275.641113,4249.358887,4278.077148,4257.436035,4264.230957,4265.769043,4278.461426,4120.000000,4233.846191,4248.717773,4417.563965,4384.871582,4253.205078,4356.282227,0.000000,3.000000,63.000000,,,,0.000000,4.000000,4.000000,4.000000,4.000000,4.000000,4.000000,4.000000,4.000000,4.000000,4.000000,4.000000,4.000000,4.000000,4.000000,100.000000,,,,,,,,,,,,,,,,,,,,,,,,,,,,
1703503341.610317,1703503341.610778,23.000000,0.000000,4276.538574,4248.205078,4284.871582,4260.897461,4263.717773,4264.230957,4276.025879,4117.692383,4233.846191,4250.512695,4417.563965,4387.436035,4256.410156,4365.641113,0.000000,3.000000,63.000000,,,,0.000000,4.000000,4.000000,4.000000,4.000000,4.000000,4.000000,4.000000,4.000000,4.000000,4.000000,4.000000,4.000000,4.000000,4.000000,100.000000,,,,,,,,,,,,,,,,,,,,,,,,,,,,
1703503341.618125,1703503341.618686,24.000000,0.000000,4289.743652,4249.230957,4293.333496,4267.307617,4263.333496,4263.589844,4269.487305,4120.641113,4233.333496,4258.846191,4424.871582,4400.512695,4266.025879,4376.153809,0.000000,3.000000,63.000000,,,,0.000000,4.000000,4.000000,4.000000,4.000000,4.000000,4.000000,4.000000,4.000000,4.000000,4.000000,4.000000,4.000000,4.000000,4.000000,100.000000,,,,,,,,,,,,,,,,,6.000000,0.000000,0.445063,0.534302,-0.447021,0.562683,0.997680,-0.028324,0.040532,-15.036667,-37.674351,60.591644
1703503341.625933,1703503341.626494,25.000000,0.000000,4297.051270,4251.025879,4298.717773,4264.743652,4260.641113,4261.538574,4262.692383,4119.871582,4235.641113,4262.436035,4432.692383,4411.666504,4274.230957,4382.179688,0.000000,3.000000,63.000000,,,,0.000000,4.000000,4.000000,4.000000,4.000000,4.000000,4.000000,4.000000,4.000000,4.000000,4.000000,4.000000,4.000000,4.000000,4.000000,100.000000,,,,,,,,,,,,,,,,,,,,,,,,,,,,
1703503341.633741,1703503341.634402,26.000000,0.000000,4292.051270,4249.743652,4299.743652,4261.025879,4257.179688,4258.974121,4262.820313,4108.589844,4228.846191,4252.436035,4430.128418,4405.769043,4272.692383,4383.205078,0.000000,3.000000,63.000000,,,,0.000000,4.000000,4.000000,4.000000,4.000000,4.000000,4.000000,4.000000,4.000000,4.000000,4.000000,4.000000,4.000000,4.000000,4.000000,100.000000,,,,,,,,,,,,,,,,,,,,,,,,,,,,
1703503341.641549,1703503341.642210,27.000000,0.000000,4286.282227,4247.692383,4296.538574,4258.974121,4253.077148,4256.922852,4263.077148,4102.820313,4216.025879,4242.307617,4419.871582,4398.077148,4265.128418,4377.307617,0.000000,3.000000,63.000000,,,,0.000000,4.000000,4.000000,4.000000,4.000000,4.000000,4.000000,4.000000,4.000000,4.000000,4.000000,4.000000,4.000000,4.000000,4.000000,100.000000,,,,,,,,,,,,,,,,,,,,,,,,,,,,
1703503341.649357,1703503341.650118,28.000000,0.000000,4281.922852,4247.820313,4293.205078,4258.589844,4249.615234,4257.179688,4266.282227,4110.256348,4211.794922,4240.769043,4417.307617,4403.333496,4259.230957,4367.820313,0.000000,3.000000,63.000000,,,,0.000000,4.000000,4.000000,4.000000,4.000000,4.000000,4.000000,4.000000,4.000000,4.000000,4.000000,4.000000,4.000000,4.000000,4.000000,100.000000,,,,,,,,,,,,,,,,,7.000000,0.000000,0.444932,0.534424,-0.447083,0.562622,0.985960,-0.029789,0.021975,-15.166334,-37.740250,60.632481
1703503341.657165,1703503341.657926,29.000000,0.000000,4279.230957,4246.153809,4287.307617,4258.461426,4251.025879,4260.769043,4272.692383,4120.769043,4217.948730,4244.487305,4423.846191,4402.820313,4260.000000,4364.487305,0.000000,3.000000,63.000000,,,,0.000000,4.000000,4.000000,4.000000,4.000000,4.000000,4.000000,4.000000,4.000000,4.000000,4.000000,4.000000,4.000000,4.000000,4.000000,100.000000,,,,,,,,,,,,,,,,,,,,,,,,,,,,
1703503341.664973,1703503341.665834,30.000000,0.000000,4278.333496,4240.769043,4280.769043,4253.846191,4252.179688,4262.563965,4276.666504,4132.051270,4223.974121,4245.128418,4431.153809,4395.128418,4255.000000,4367.307617,0.000000,3.000000,63.000000,,,,0.000000,4.000000,4.000000,4.000000,4.000000,4.000000,4.000000,4.000000,4.000000,4.000000,4.000000,4.000000,4.000000,4.000000,4.000000,100.000000,,,,,,,,,,,,,,,,,,,,,,,,,,,,
1703503341.672781,1703503341.673641,31.000000,0.000000,4276.282227,4238.717773,4278.205078,4252.820313,4250.512695,4261.282227,4277.436035,4150.769043,4233.846191,4250.384766,4443.974121,4400.897461,4221.666504,4368.461426,0.000000,3.000000,63.000000,,,,0.000000,4.000000,4.000000,4.000000,4.000000,4.000000,4.000000,4.000000,4.000000,4.000000,4.000000,4.000000,4.000000,4.000000,4.000000,100.000000,,,,,,,,,,,,,,,,,,,,,,,,,,,,
1703503341.680590,1703503341.681350,32.000000,0.000000,4275.128418,4240.512695,4279.871582,4260.384766,4253.846191,4262.179688,4277.563965,4171.538574,4251.538574,4272.051270,4478.333496,4414.230957,4181.538574,4375.384766,0.000000,3.000000,63.000000,,,,0.000000,4.000000,4.000000,4.000000,4.000000,4.000000,4.000000,4.000000,4.000000,4.000000,4.000000,4.000000,4.000000,4.000000,4.000000,100.000000,,,,,,,,,,,,,,,,,8.000000,0.000000,0.444851,0.534607,-0.447021,0.562561,0.999145,-0.033696,0.026370,-15.233034,-37.632893,60.702564
1703503341.688398,1703503341.689158,33.000000,0.000000,4277.051270,4244.230957,4288.717773,4266.666504,4261.153809,4265.128418,4280.769043,4175.897461,4256.666504,4279.615234,4501.794922,4418.333496,4162.051270,4384.615234,0.000000,3.000000,63.000000,,,,0.000000,4.000000,4.000000,4.000000,4.000000,4.000000,4.000000,4.000000,4.000000,4.000000,4.000000,4.000000,4.000000,4.000000,4.000000,100.000000,1.000000,83.333336,4.000000,4.000000,4.000000,4.000000,4.000000,4.000000,4.000000,3.000000,4.000000,4.000000,4.000000,4.000000,3.000000,4.000000,,,,,,,,,,,,
1703503341.696206,1703503341.696866,34.000000,0.000000,4278.717773,4249.102539,4293.205078,4265.897461,4263.077148,4265.512695,4277.948730,4163.461426,4246.538574,4262.692383,4487.436035,4415.128418,4152.307617,4383.077148,0.000000,3.000000,63.000000,,,,0.000000,4.000000,4.000000,4.000000,4.000000,4.000000,4.000000,4.000000,4.000000,4.000000,4.000000,4.000000,4.000000,4.000000,4.000000,100.000000,,,,,,,,,,,,,,,,,,,,,,,,,,,,
1703503341.704014,1703503341.704674,35.000000,0.000000,4275.128418,4246.538574,4283.589844,4264.487305,4260.641113,4262.179688,4266.410156,4149.230957,4238.717773,4258.077148,4472.436035,4410.000000,4145.897461,4373.589844,0.000000,3.000000,63.000000,,,,0.000000,4.000000,4.000000,4.000000,4.000000,4.000000,4.000000,4.000000,4.000000,4.000000,4.000000,4.000000,4.000000,4.000000,4.000000,100.000000,,,,,,,,,,,,,,,,,,,,,,,,,,,,
1703503341.711822,1703503341.712382,36.000000,0.000000,4273.205078,4239.615234,4279.871582,4267.179688,4259.871582,4257.563965,4260.769043,4140.897461,4237.051270,4267.948730,4477.307617,4403.974121,4148.717773,4369.487305,0.000000,3.000000,63.000000,,,,0.000000,4.000000,4.000000,4.000000,4.000000,4.000000,4.000000,4.000000,4.000000,4.000000,4.000000,4.000000,4.000000,4.000000,4.000000,100.000000,,,,,,,,,,,,,,,,,9.000000,0.000000,0.444729,0.534912,-0.446777,0.562561,0.977170,-0.023440,0.019045,-15.326397,-37.469601,60.748974
1703503341.719630,1703503341.720190,37.000000,0.000000,4277.436035,4245.641113,4290.512695,4271.538574,4261.666504,4251.794922,4263.461426,4136.410156,4233.846191,4266.922852,4481.922852,4403.846191,4161.282227,4380.128418,0.000000,3.000000,63.000000,,,,0.000000,4.000000,4.000000,4.000000,4.000000,4.000000,4.000000,4.000000,4.000000,4.000000,4.000000,4.000000,4.000000,4.000000,4.000000,100.000000,,,,,,,,,,,,,,,,,,,,,,,,,,,,
1703503341.727438,1703503341.727898,38.000000,0.000000,4280.128418,4253.077148,4297.820313,4273.974121,4259.615234,4248.461426,4261.025879,4133.205078,4227.948730,4260.256348,4480.128418,4417.948730,4175.000000,4394.487305,0.000000,3.000000,63.000000,,,,0.000000,4.000000,4.000000,4.000000,4.000000,4.000000,4.000000,4.000000,4.000000,4.000000,4.000000,4.000000,4.000000,4.000000,4.000000,100.000000,,,,,,,,,,,,,,,,,,,,,,,,,,,,
1703503341.735246,1703503341.735706,39.000000,0.000000,4284.743652,4249.743652,4300.897461,4278.461426,4260.128418,4253.717773,4258.589844,4137.307617,4236.153809,4266.922852,4491.794922,4436.922852,4194.487305,4404.743652,0.000000,3.000000,63.000000,,,,0.000000,4.000000,4.000000,4.000000,4.000000,4.000000,4.000000,4.000000,4.000000,4.000000,4.000000,4.000000,4.000000,4.000000,4.000000,100.000000,,,,,,,,,,,,,,,,,,,,,,,,,,,,
1703503341.743054,1703503341.743414,40.000000,0.000000,4292.948730,4257.051270,4305.128418,4290.128418,4270.384766,4265.384766,4269.102539,4155.641113,4251.666504,4282.307617,4506.922852,4445.512695,4214.871582,4413.974121,0.000000,3.000000,63.000000,,,,0.000000,4.000000,4.000000,4.000000,4.000000,4.000000,4.000000,4.000000,4.000000,4.000000,4.000000,4.000000,4.000000,4.000000,4.000000,100.000000,,,,,,,,,,,,,,,,,10.000000,0.000000,0.444885,0.534973,-0.446472,0.562622,1.006471,-0.032719,0.034184,-15.360424,-37.405975,60.840744
1703503341.750862,1703503341.751222,41.000000,0.000000,4297.436035,4272.179688,4306.025879,4301.794922,4278.205078,4271.410156,4280.000000,4170.000000,4252.436035,4283.717773,4502.436035,4441.666504,4218.974121,4412.948730,0.000000,3.000000,63.000000,,,,0.000000,4.000000,4.000000,4.000000,4.000000,4.000000,4.000000,4.000000,4.000000,4.000000,4.000000,4.000000,4.000000,4.000000,4.000000,100.000000,,,,,,,,,,,,,,,,,,,,,,,,,,,,
1703503341.758670,1703503341.758930,42.000000,0.000000,4297.436035,4272.179688,4303.974121,4306.025879,4275.512695,4268.846191,4281.538574,4171.666504,4250.641113,4277.307617,4502.436035,4442.563965,4229.358887,4413.974121,0.000000,3.000000,63.000000,,,,0.000000,4.000000,4.000000,4.000000,4.000000,4.000000,4.000000,4.000000,4.000000,4.000000,4.000000,4.000000,4.000000,4.000000,4.000000,100.000000,,,,,,,,,,,,,,,,,,,,,,,,,,,,
1703503341.766478,1703503341.766838,43.000000,0.000000,4293.333496,4263.077148,4301.538574,4298.846191,4268.333496,4265.769043,4280.384766,4176.282227,4257.436035,4282.307617,4512.307617,4450.641113,4248.461426,4422.051270,0.000000,3.000000,63.000000,,,,0.000000,4.000000,4.000000,4.000000,4.000000,4.000000,4.000000,4.000000,4.000000,4.000000,4.000000,4.000000,4.000000,4.000000,4.000000,100.000000,,,,,,,,,,,,,,,,,,,,,,,,,,,,
1703503341.774286,1703503341.774646,44.000000,0.000000,4289.358887,4261.410156,4296.282227,4291.282227,4265.000000,4266.282227,4282.051270,4178.205078,4252.948730,4282.307617,4502.436035,4447.051270,4248.077148,4416.538574,0.000000,3.000000,63.000000,,,,0.000000,4.000000,4.000000,4.000000,4.000000,4.000000,4.000000,4.000000,4.000000,4.000000,4.000000,4.000000,4.000000,4.000000,4.000000,100.000000,,,,,,,,,,,,,,,,,11.000000,0.000000,0.444992,0.534729,-0.446350,0.562866,0.989867,-0.041997,0.021975,-15.441049,-37.382046,60.756668
1703503341.782094,1703503341.782553,45.000000,0.000000,4291.025879,4263.205078,4295.384766,4293.461426,4269.358887,4267.692383,4282.436035,4172.436035,4243.717773,4271.538574,4484.871582,4440.897461,4241.282227,4408.846191,0.000000,3.000000,63.000000,,,,0.000000,4.000000,4.000000,4.000000,4.000000,4.000000,4.000000,4.000000,4.000000,4.000000,4.000000,4.000000,4.000000,4.000000,4.000000,100.000000,,,,,,,,,,,,,,,,,,,,,,,,,,,,
1703503341.789902,1703503341.790361,46.000000,0.000000,4294.102539,4264.102539,4301.410156,4296.025879,4275.000000,4266.153809,4281.410156,4168.846191,4247.820313,4272.948730,4486.282227,4444.487305,4250.000000,4413.974121,0.000000,3.000000,63.000000,,,,0.000000,4.000000,4.000000,4.000000,4.000000,4.000000,4.000000,4.000000,4.000000,4.000000,4.000000,4.000000,4.000000,4.000000,4.000000,100.000000,,,,,,,,,,,,,,,,,,,,,,,,,,,,
1703503341.797710,1703503341.798269,47.000000,0.000000,4294.743652,4269.358887,4302.179688,4292.051270,4277.436035,4265.128418,4278.461426,4164.615234,4251.153809,4281.922852,4490.256348,4442.563965,4258.717773,4415.897461,0.000000,3.000000,63.000000,,,,0.000000,4.000000,4.000000,4.000000,4.000000,4.000000,4.000000,4.000000,4.000000,4.000000,4.000000,4.000000,4.000000,4.000000,4.000000,100.000000,,,,,,,,,,,,,,,,,,,,,,,,,,,,
1703503341.805518,1703503341.806077,48.000000,0.000000,4293.333496,4273.589844,4297.692383,4286.153809,4275.384766,4263.461426,4271.538574,4153.461426,4242.563965,4272.179688,4476.025879,4428.846191,4251.153809,4404.615234,0.000000,3.000000,63.000000,,,,0.000000,4.000000,4.000000,4.000000,4.000000,4.000000,4.000000,4.000000,4.000000,4.000000,4.000000,4.000000,4.000000,4.000000,4.000000,100.000000,,,,,,,,,,,,,,,,,12.000000,0.000000,0.444984,0.534607,-0.446350,0.562988,0.987914,-0.028812,0.035161,-15.513610,-37.327171,60.631001
1703503341.813326,1703503341.813985,49.000000,0.000000,4294.230957,4272.692383,4303.205078,4282.179688,4268.846191,4254.615234,4261.666504,4137.948730,4230.256348,4249.230957,4462.692383,4419.615234,4245.256348,4397.179688,0.000000,3.000000,63.000000,,,,0.000000,4.000000,4.000000,4.000000,4.000000,4.000000,4.000000,4.000000,4.000000,4.000000,4.000000,4.000000,4.000000,4.000000,4.000000,100.000000,,,,,,,,,,,,,,,,,,,,,,,,,,,,
1703503341.821134,1703503341.821793,50.000000,0.000000,4301.025879,4273.205078,4313.717773,4279.102539,4264.358887,4244.615234,4253.077148,4132.692383,4226.666504,4248.846191,4472.179688,4431.282227,4258.974121,4413.333496,0.000000,3.000000,63.000000,,,,0.000000,4.000000,4.000000,4.000000,4.000000,4.000000,4.000000,4.000000,4.000000,4.000000,4.000000,4.000000,4.000000,4.000000,4.000000,100.000000,,,,,,,,,,,,,,,,,,,,,,,,,,,,
1703503341.828942,1703503341.829701,51.000000,0.000000,4307.051270,4277.051270,4312.948730,4276.794922,4263.205078,4242.436035,4248.077148,4141.153809,4230.384766,4262.436035,4482.692383,4441.538574,4270.641113,4429.743652,0.000000,3.000000,63.000000,,,,0.000000,4.000000,4.000000,4.000000,4.000000,4.000000,4.000000,4.000000,4.000000,4.000000,4.000000,4.000000,4.000000,4.000000,4.000000,100.000000,,,,,,,,,,,,,,,,,,,,,,,,,,,,
1703503341.836751,1703503341.837509,52.000000,0.000000,4311.794922,4283.205078,4309.102539,4278.333496,4261.025879,4245.769043,4248.589844,4151.794922,4233.846191,4264.230957,4480.256348,4439.230957,4267.948730,4428.205078,0.000000,3.000000,63.000000,,,,0.000000,4.000000,4.000000,4.000000,4.000000,4.000000,4.000000,4.000000,4.000000,4.000000,4.000000,4.000000,4.000000,4.000000,4.000000,100.000000,,,,,,,,,,,,,,,,,13.000000,0.000000,0.445151,0.534302,-0.446472,0.563049,0.988402,-0.026370,0.030277,-15.328916,-37.294456,60.701237
1703503341.844559,1703503341.845417,53.000000,0.000000,4313.077148,4280.641113,4313.461426,4276.794922,4258.589844,4247.051270,4256.794922,4162.692383,4244.358887,4266.922852,4487.179688,4446.922852,4274.230957,4434.102539,0.000000,3.000000,63.000000,,,,0.000000,4.000000,4.000000,4.000000,4.000000,4.000000,4.000000,4.000000,4.000000,4.000000,4.000000,4.000000,4.000000,4.000000,4.000000,100.000000,,,,,,,,,,,,,,,,,,,,,,,,,,,,
1703503341.852367,1703503341.853225,54.000000,0.000000,4302.692383,4265.512695,4311.282227,4266.025879,4259.487305,4250.256348,4262.948730,4174.230957,4249.230957,4268.717773,4495.512695,4454.871582,4280.384766,4436.794922,0.000000,3.000000,63.000000,,,,0.000000,4.000000,4.000000,4.000000,4.000000,4.000000,4.000000,4.000000,4.000000,4.000000,4.000000,4.000000,4.000000,4.000000,4.000000,100.000000,,,,,,,,,,,,,,,,,,,,,,,,,,,,
1703503341.860175,1703503341.861133,55.000000,0.000000,4291.025879,4257.436035,4295.769043,4260.128418,4261.282227,4258.333496,4264.743652,4176.410156,4237.820313,4253.077148,4480.384766,4436.922852,4264.615234,4414.743652,0.000000,3.000000,63.000000,,,,0.000000,4.000000,4.000000,4.000000,4.000000,4.000000,4.000000,4.000000,4.000000,4.000000,4.000000,4.000000,4.000000,4.000000,4.000000,100.000000,,,,,,,,,,,,,,,,,,,,,,,,,,,,
1703503341.867983,1703503341.868941,56.000000,0.000000,4292.692383,4262.563965,4289.871582,4262.948730,4259.230957,4260.256348,4268.974121,4175.512695,4227.436035,4241.282227,4461.410156,4422.307617,4253.717773,4402.436035,0.000000,3.000000,63.000000,,,,0.000000,4.000000,4.000000,4.000000,4.000000,4.000000,4.000000,4.000000,4.000000,4.000000,4.000000,4.000000,4.000000,4.000000,4.000000,100.000000,,,,,,,,,,,,,,,,,14.000000,0.000000,0.445308,0.534058,-0.446838,0.562866,0.990355,-0.020999,0.023929,-15.546024,-37.198345,60.714447
1703503341.875791,1703503341.876649,57.000000,0.000000,4297.692383,4262.692383,4299.358887,4261.794922,4257.692383,4253.461426,4269.358887,4186.282227,4236.153809,4255.512695,4469.102539,4440.000000,4268.077148,4415.897461,0.000000,3.000000,63.000000,,,,0.000000,4.000000,4.000000,4.000000,4.000000,4.000000,4.000000,4.000000,4.000000,4.000000,4.000000,4.000000,4.000000,4.000000,4.000000,100.000000,,,,,,,,,,,,,,,,,,,,,,,,,,,,
1703503341.883599,1703503341.884457,58.000000,0.000000,4292.307617,4258.077148,4298.974121,4258.077148,4255.769043,4247.948730,4262.948730,4187.948730,4243.589844,4260.384766,4478.717773,4449.487305,4277.563965,4416.922852,0.000000,3.000000,63.000000,,,,0.000000,4.000000,4.000000,4.000000,4.000000,4.000000,4.000000,4.000000,4.000000,4.000000,4.000000,4.000000,4.000000,4.000000,4.000000,100.000000,,,,,,,,,,,,,,,,,,,,,,,,,,,,
1703503341.891407,1703503341.892165,59.000000,0.000000,4288.589844,4258.974121,4288.717773,4259.102539,4252.436035,4246.282227,4257.692383,4165.256348,4226.538574,4235.256348,4455.897461,4422.436035,4259.358887,4397.436035,0.000000,3.000000,63.000000,,,,0.000000,4.000000,4.000000,4.000000,4.000000,4.000000,4.000000,4.000000,4.000000,4.000000,4.000000,4.000000,4.000000,4.000000,4.000000,100.000000,,,,,,,,,,,,,,,,,,,,,,,,,,,,
1703503341.899215,1703503341.899973,60.000000,0.000000,4292.820313,4261.794922,4291.666504,4260.512695,4256.666504,4246.025879,4257.436035,4148.461426,4218.717773,4228.077148,4438.461426,4410.384766,4255.000000,4396.666504,0.000000,3.000000,63.000000,,,,0.000000,4.000000,4.000000,4.000000,4.000000,4.000000,4.000000,4.000000,4.000000,4.000000,4.000000,4.000000,4.000000,4.000000,4.000000,100.000000,,,,,,,,,,,,,,,,,15.000000,0.000000,0.445475,0.533997,-0.446899,0.562744,0.982053,-0.028812,0.023929,-15.741422,-37.161842,60.593002
1703503341.907023,1703503341.907681,61.000000,0.000000,4297.307617,4263.974121,4303.205078,4264.102539,4265.512695,4250.256348,4257.692383,4151.922852,4229.487305,4243.717773,4457.948730,4435.897461,4282.820313,4412.820313,0.000000,3.000000,63.000000,,,,0.000000,4.000000,4.000000,4.000000,4.000000,4.000000,4.000000,4.000000,4.000000,4.000000,4.000000,4.000000,4.000000,4.000000,4.000000,100.000000,,,,,,,,,,,,,,,,,,,,,,,,,,,,
1703503341.914831,1703503341.915589,62.000000,0.000000,4298.077148,4266.410156,4302.051270,4271.025879,4263.974121,4251.153809,4258.077148,4154.102539,4227.051270,4243.205078,4468.846191,4445.256348,4292.692383,4413.461426,0.000000,3.000000,63.000000,,,,0.000000,4.000000,4.000000,4.000000,4.000000,4.000000,4.000000,4.000000,4.000000,4.000000,4.000000,4.000000,4.000000,4.000000,4.000000,100.000000,,,,,,,,,,,,,,,,,,,,,,,,,,,,
1703503341.922639,1703503341.923397,63.000000,0.000000,4295.128418,4265.641113,4296.538574,4271.922852,4260.641113,4248.974121,4257.436035,4149.358887,4216.282227,4235.384766,4457.692383,4432.948730,4283.974121,4410.128418,0.000000,3.000000,63.000000,,,,0.000000,4.000000,4.000000,4.000000,4.000000,4.000000,4.000000,4.000000,4.000000,4.000000,4.000000,4.000000,4.000000,4.000000,4.000000,100.000000,,,,,,,,,,,,,,,,,,,,,,,,,,,,
1703503341.930447,1703503341.931305,64.000000,0.000000,4297.692383,4263.461426,4301.922852,4273.717773,4263.461426,4256.282227,4259.871582,4154.615234,4217.820313,4237.948730,4456.922852,4438.461426,4290.128418,4417.563965,5318.000000,3.000000,63.000000,,,,0.000000,4.000000,4.000000,4.000000,4.000000,4.000000,4.000000,4.000000,4.000000,4.000000,4.000000,4.000000,4.000000,4.000000,4.000000,100.000000,,,,,,,,,,,,,,,,,16.000000,0.000000,0.445382,0.533997,-0.446838,0.562866,0.995239,-0.021487,0.036137,-15.650613,-37.212326,60.783699
1703503341.938255,1703503341.939113,65.000000,0.000000,4306.666504,4265.641113,4306.153809,4280.000000,4265.641113,4264.871582,4268.205078,4173.589844,4224.743652,4243.846191,4468.974121,4453.077148,4305.512695,4426.794922,5561.000000,3.000000,63.000000,,,,0.000000,4.000000,4.000000,4.000000,4.000000,4.000000,4.000000,4.000000,4.000000,4.000000,4.000000,4.000000,4.000000,4.000000,4.000000,100.000000,,,,,,,,,,,,,,,,,,,,,,,,,,,,
1703503341.946063,1703503341.946922,66.000000,0.000000,4298.589844,4259.102539,4295.641113,4271.538574,4265.641113,4262.307617,4268.589844,4186.922852,4224.743652,4245.000000,4474.102539,4448.974121,4310.512695,4422.563965,5460.000000,3.000000,63.000000,,,,0.000000,4.000000,4.000000,4.000000,4.000000,4.000000,4.000000,4.000000,4.000000,4.000000,4.000000,4.000000,4.000000,4.000000,4.000000,100.000000,,,,,,,,,,,,,,,,,,,,,,,,,,,,
1703503341.953871,1703503341.954630,67.000000,0.000000,4279.102539,4245.384766,4284.487305,4258.846191,4263.205078,4260.897461,4263.333496,4187.307617,4226.153809,4238.205078,4464.615234,4435.128418,4299.230957,4408.333496,5447.000000,3.000000,63.000000,,,,0.000000,4.000000,4.000000,4.000000,4.000000,4.000000,4.000000,4.000000,4.000000,4.000000,4.000000,4.000000,4.000000,4.000000,4.000000,100.000000,,,,,,,,,,,,,,,,,,,,,,,,,,,,
1703503341.961679,1703503341.962438,68.000000,0.000000,4282.948730,4251.538574,4290.256348,4268.717773,4262.436035,4265.897461,4269.871582,4194.615234,4236.025879,4237.307617,4461.282227,4438.717773,4295.769043,4408.077148,5333.000000,3.000000,63.000000,,,,0.000000,4.000000,4.000000,4.000000,4.000000,4.000000,4.000000,4.000000,4.000000,4.000000,4.000000,4.000000,4.000000,4.000000,4.000000,100.000000,,,,,,,,,,,,,,,,,17.000000,0.000000,0.445379,0.534241,-0.446472,0.562927,0.988402,-0.043462,0.023929,-15.702218,-37.424427,60.655331
1703503341.969487,1703503341.970146,69.000000,0.000000,4297.820313,4263.589844,4301.922852,4280.641113,4264.871582,4266.922852,4277.820313,4214.358887,4249.743652,4257.307617,4476.410156,4457.436035,4307.436035,4425.000000,4911.000000,3.000000,63.000000,,,,0.000000,4.000000,4.000000,4.000000,4.000000,4.000000,4.000000,4.000000,4.000000,4.000000,4.000000,4.000000,4.000000,4.000000,4.000000,100.000000,,,,,,,,,,,,,,,,,,,,,,,,,,,,
1703503341.977296,1703503341.977954,70.000000,0.000000,4298.717773,4261.794922,4306.538574,4277.563965,4265.769043,4262.051270,4270.128418,4220.641113,4256.794922,4270.512695,4486.410156,4466.538574,4298.846191,4432.820313,4176.000000,3.000000,63.000000,,,,0.000000,4.000000,4.000000,4.000000,4.000000,4.000000,4.000000,4.000000,4.000000,4.000000,4.000000,4.000000,4.000000,4.000000,4.000000,100.000000,,,,,,,,,,,,,,,,,,,,,,,,,,,,
1703503341.985103,1703503341.985662,71.000000,0.000000,4299.743652,4266.025879,4305.897461,4281.025879,4263.974121,4256.410156,4260.000000,4203.846191,4248.589844,4261.538574,4478.333496,4460.384766,4272.948730,4427.307617,5063.000000,3.000000,63.000000,,,,0.000000,4.000000,4.000000,4.000000,4.000000,4.000000,4.000000,4.000000,4.000000,4.000000,4.000000,4.000000,4.000000,4.000000,4.000000,100.000000,,,,,,,,,,,,,,,,,,,,,,,,,,,,
1703503341.992912,1703503341.993570,72.000000,0.000000,4309.358887,4277.692383,4311.410156,4295.897461,4263.717773,4256.025879,4262.179688,4188.077148,4237.436035,4256.922852,4473.077148,4458.077148,4276.282227,4430.897461,4963.000000,3.000000,63.000000,,,,0.000000,4.000000,4.000000,4.000000,4.000000,4.000000,4.000000,4.000000,4.000000,4.000000,4.000000,4.000000,4.000000,4.000000,4.000000,100.000000,,,,,,,,,,,,,,,,,18.000000,0.000000,0.445376,0.534485,-0.446106,0.562988,0.990844,-0.022952,0.037602,-15.498663,-37.431984,60.556465
1703503342.000720,1703503342.001378,73.000000,0.000000,4315.769043,4282.948730,4321.794922,4307.179688,4270.897461,4261.922852,4265.256348,4185.384766,4237.436035,4261.666504,4483.205078,4465.769043,4298.974121,4443.205078,5562.000000,3.000000,63.000000,,,,0.000000,4.000000,4.000000,4.000000,4.000000,4.000000,4.000000,4.000000,4.000000,4.000000,4.000000,4.000000,4.000000,4.000000,4.000000,100.000000,,,,,,,,,,,,,,,,,,,,,,,,,,,,
1703503342.008528,1703503342.009285,74.000000,0.000000,4323.461426,4289.615234,4331.794922,4315.384766,4279.230957,4264.871582,4265.769043,4180.128418,4241.282227,4262.948730,4491.922852,4477.436035,4310.769043,4456.666504,6155.000000,3.000000,63.000000,,,,0.000000,4.000000,4.000000,4.000000,4.000000,4.000000,4.000000,4.000000,4.000000,4.000000,4.000000,4.000000,4.000000,4.000000,4.000000,100.000000,,,,,,,,,,,,,,,,,,,,,,,,,,,,
1703503342.016336,1703503342.017093,75.000000,0.000000,4333.717773,4300.000000,4341.282227,4323.461426,4280.256348,4262.307617,4264.871582,4171.666504,4233.333496,4255.512695,4482.948730,4485.512695,4312.179688,4463.589844,6394.000000,3.000000,63.000000,,,,0.000000,4.000000,4.000000,4.000000,4.000000,4.000000,4.000000,4.000000,4.000000,4.000000,4.000000,4.000000,4.000000,4.000000,4.000000,100.000000,,,,,,,,,,,,,,,,,,,,,,,,,,,,
1703503342.024144,1703503342.025001,76.000000,0.000000,4331.666504,4299.102539,4337.948730,4327.051270,4279.487305,4261.282227,4263.077148,4177.692383,4231.282227,4248.333496,4474.615234,4480.128418,4311.282227,4456.282227,6938.000000,3.000000,63.000000,,,,0.000000,4.000000,4.000000,4.000000,4.000000,4.000000,4.000000,4.000000,4.000000,4.000000,4.000000,4.000000,4.000000,4.000000,4.000000,100.000000,,,,,,,,,,,,,,,,,19.000000,0.000000,0.445551,0.534607,-0.445862,0.562927,0.985472,-0.035161,0.031254,-15.382130,-37.538784,60.500816
1703503342.031952,1703503342.032809,77.000000,0.000000,4321.666504,4290.000000,4329.102539,4325.256348,4281.282227,4262.820313,4269.102539,4197.179688,4242.692383,4249.743652,4483.205078,4475.512695,4317.820313,4448.846191,7306.000000,3.000000,63.000000,,,,0.000000,4.000000,4.000000,4.000000,4.000000,4.000000,4.000000,4.000000,4.000000,4.000000,4.000000,4.000000,4.000000,4.000000,4.000000,100.000000,,,,,,,,,,,,,,,,,,,,,,,,,,,,
1703503342.039760,1703503342.040717,78.000000,0.000000,4313.461426,4280.769043,4323.846191,4316.794922,4280.897461,4265.641113,4278.333496,4217.051270,4256.666504,4266.922852,4495.128418,4485.897461,4334.487305,4453.205078,6155.000000,3.000000,63.000000,,,,0.000000,4.000000,4.000000,4.000000,4.000000,4.000000,4.000000,4.000000,4.000000,4.000000,4.000000,4.000000,4.000000,4.000000,4.000000,100.000000,,,,,,,,,,,,,,,,,,,,,,,,,,,,
1703503342.047568,1703503342.048625,79.000000,0.000000,4308.461426,4273.333496,4316.025879,4308.461426,4278.077148,4274.230957,4286.025879,4238.333496,4272.051270,4289.871582,4502.051270,4493.846191,4348.589844,4459.615234,6394.000000,3.000000,63.000000,,,,0.000000,4.000000,4.000000,4.000000,4.000000,4.000000,4.000000,4.000000,4.000000,4.000000,4.000000,4.000000,4.000000,4.000000,4.000000,100.000000,,,,,,,,,,,,,,,,,,,,,,,,,,,,
1703503342.055376,1703503342.056433,80.000000,0.000000,4306.410156,4277.307617,4311.410156,4309.871582,4278.461426,4283.333496,4290.256348,4251.153809,4276.410156,4292.307617,4495.897461,4483.717773,4345.512695,4448.846191,6938.000000,3.000000,63.000000,,,,0.000000,4.000000,4.000000,4.000000,4.000000,4.000000,4.000000,4.000000,4.000000,4.000000,4.000000,4.000000,4.000000,4.000000,4.000000,100.000000,,,,,,,,,,,,,,,,,20.000000,0.000000,0.445701,0.534546,-0.445862,0.562866,0.991820,-0.021975,0.016115,-15.277250,-37.418240,60.450737
1703503342.063184,1703503342.064242,81.000000,0.000000,4301.153809,4277.692383,4308.205078,4308.717773,4275.128418,4277.307617,4286.666504,4244.102539,4267.820313,4280.384766,4478.846191,4470.256348,4336.794922,4432.436035,7306.000000,3.000000,63.000000,,,,0.000000,4.000000,4.000000,4.000000,4.000000,4.000000,4.000000,4.000000,4.000000,4.000000,4.000000,4.000000,4.000000,4.000000,4.000000,100.000000,,,,,,,,,,,,,,,,,,,,,,,,,,,,
1703503342.070992,1703503342.071950,82.000000,0.000000,4291.922852,4263.846191,4301.153809,4296.153809,4268.077148,4267.051270,4281.282227,4229.358887,4258.589844,4265.512695,4462.563965,4466.282227,4331.666504,4425.769043,6155.000000,3.000000,63.000000,,,,0.000000,4.000000,4.000000,4.000000,4.000000,4.000000,4.000000,4.000000,4.000000,4.000000,4.000000,4.000000,4.000000,4.000000,4.000000,100.000000,,,,,,,,,,,,,,,,,,,,,,,,,,,,
1703503342.078800,1703503342.079758,83.000000,0.000000,4293.205078,4264.487305,4299.487305,4293.077148,4271.538574,4270.128418,4280.256348,4219.487305,4250.384766,4250.897461,4451.538574,4462.051270,4325.641113,4423.461426,6394.000000,3.000000,63.000000,,,,0.000000,4.000000,4.000000,4.000000,4.000000,4.000000,4.000000,4.000000,4.000000,4.000000,4.000000,4.000000,4.000000,4.000000,4.000000,100.000000,,,,,,,,,,,,,,,,,,,,,,,,,,,,
1703503342.086608,1703503342.087466,84.000000,0.000000,4306.282227,4280.897461,4311.025879,4305.641113,4281.025879,4271.922852,4278.589844,4213.205078,4244.487305,4250.897461,4453.589844,4465.641113,4335.769043,4431.282227,6938.000000,3.000000,63.000000,,,,0.000000,4.000000,4.000000,4.000000,4.000000,4.000000,4.000000,4.000000,4.000000,4.000000,4.000000,4.000000,4.000000,4.000000,4.000000,100.000000,,,,,,,,,,,,,,,,,21.000000,0.000000,0.445880,0.534424,-0.445984,0.562744,0.985960,-0.020510,0.034184,-15.249525,-37.509750,60.505661
1703503342.094416,1703503342.095274,85.000000,0.000000,4317.051270,4284.358887,4323.077148,4315.000000,4279.743652,4263.846191,4275.897461,4200.641113,4235.256348,4251.922852,4460.256348,4475.769043,4351.153809,4442.948730,7306.000000,3.000000,63.000000,,,,0.000000,4.000000,4.000000,4.000000,4.000000,4.000000,4.000000,4.000000,4.000000,4.000000,4.000000,4.000000,4.000000,4.000000,4.000000,100.000000,,,,,,,,,,,,,,,,,,,,,,,,,,,,
1703503342.102224,1703503342.102982,86.000000,0.000000,4318.461426,4278.589844,4327.820313,4316.922852,4277.563965,4262.051270,4274.102539,4184.487305,4220.769043,4237.692383,4456.922852,4475.000000,4350.769043,4444.230957,6155.000000,3.000000,63.000000,,,,0.000000,4.000000,4.000000,4.000000,4.000000,4.000000,4.000000,4.000000,4.000000,4.000000,4.000000,4.000000,4.000000,4.000000,4.000000,100.000000,,,,,,,,,,,,,,,,,,,,,,,,,,,,
1703503342.110032,1703503342.110790,87.000000,0.000000,4313.333496,4279.871582,4328.589844,4314.102539,4276.025879,4264.615234,4268.077148,4181.282227,4214.743652,4229.487305,4450.256348,4474.743652,4350.512695,4440.897461,6394.000000,3.000000,63.000000,,,,0.000000,4.000000,4.000000,4.000000,4.000000,4.000000,4.000000,4.000000,4.000000,4.000000,4.000000,4.000000,4.000000,4.000000,4.000000,100.000000,,,,,,,,,,,,,,,,,,,,,,,,,,,,
1703503342.117840,1703503342.118498,88.000000,0.000000,4311.410156,4283.333496,4327.051270,4312.436035,4271.282227,4261.794922,4261.538574,4189.615234,4214.230957,4229.615234,4448.589844,4476.025879,4351.922852,4438.717773,6938.000000,3.000000,63.000000,,,,0.000000,4.000000,4.000000,4.000000,4.000000,4.000000,4.000000,4.000000,4.000000,4.000000,4.000000,4.000000,4.000000,4.000000,4.000000,100.000000,,,,,,,,,,,,,,,,,22.000000,0.000000,0.445912,0.534180,-0.446167,0.562805,0.986937,-0.020999,0.032230,-15.207906,-37.475441,60.488430
1703503342.125648,1703503342.126306,89.000000,0.000000,4309.102539,4280.769043,4318.461426,4311.282227,4270.897461,4261.282227,4265.000000,4197.820313,4212.307617,4223.461426,4444.487305,4463.333496,4341.153809,4430.256348,7306.000000,3.000000,63.000000,,,,0.000000,4.000000,4.000000,4.000000,4.000000,4.000000,4.000000,4.000000,4.000000,4.000000,4.000000,4.000000,4.000000,4.000000,4.000000,100.000000,,,,,,,,,,,,,,,,,,,,,,,,,,,,
1703503342.133457,1703503342.134014,90.000000,0.000000,4295.897461,4269.615234,4301.794922,4301.410156,4269.871582,4263.717773,4274.615234,4207.820313,4218.717773,4225.641113,4436.282227,4445.769043,4337.563965,4414.230957,6155.000000,3.000000,63.000000,,,,0.000000,4.000000,4.000000,4.000000,4.000000,4.000000,4.000000,4.000000,4.000000,4.000000,4.000000,4.000000,4.000000,4.000000,4.000000,100.000000,,,,,,,,,,,,,,,,,,,,,,,,,,,,
1703503342.141265,1703503342.141822,91.000000,0.000000,4286.794922,4261.666504,4289.230957,4290.384766,4267.436035,4263.974121,4277.820313,4216.794922,4231.282227,4237.051270,4436.025879,4439.358887,4351.282227,4402.948730,6394.000000,3.000000,63.000000,,,,0.000000,4.000000,4.000000,4.000000,4.000000,4.000000,4.000000,4.000000,4.000000,4.000000,4.000000,4.000000,4.000000,4.000000,4.000000,100.000000,,,,,,,,,,,,,,,,,,,,,,,,,,,,
1703503342.149073,1703503342.149530,92.000000,0.000000,4292.436035,4263.974121,4289.743652,4292.436035,4273.461426,4265.769043,4277.051270,4219.615234,4244.230957,4246.153809,4448.205078,4447.307617,4364.871582,4410.897461,6938.000000,3.000000,63.000000,,,,0.000000,4.000000,4.000000,4.000000,4.000000,4.000000,4.000000,4.000000,4.000000,4.000000,4.000000,4.000000,4.000000,4.000000,4.000000,100.000000,,,,,,,,,,,,,,,,,23.000000,0.000000,0.445912,0.533936,-0.446228,0.562988,0.984984,-0.018069,0.027835,-15.203782,-37.361229,60.556252
1703503342.156881,1703503342.157338,93.000000,0.000000,4295.512695,4268.589844,4294.871582,4299.487305,4276.282227,4265.256348,4273.077148,4221.282227,4252.820313,4253.077148,4455.512695,4457.436035,4370.256348,4424.743652,7306.000000,3.000000,63.000000,,,,0.000000,4.000000,4.000000,4.000000,4.000000,4.000000,4.000000,4.000000,4.000000,4.000000,4.000000,4.000000,4.000000,4.000000,4.000000,100.000000,,,,,,,,,,,,,,,,,,,,,,,,,,,,
1703503342.164689,1703503342.165046,94.000000,0.000000,4291.666504,4271.282227,4292.948730,4296.794922,4274.487305,4262.051270,4265.128418,4221.922852,4250.000000,4249.230957,4448.205078,4453.717773,4369.743652,4419.743652,6155.000000,3.000000,63.000000,,,,0.000000,4.000000,4.000000,4.000000,4.000000,4.000000,4.000000,4.000000,4.000000,4.000000,4.000000,4.000000,4.000000,4.000000,4.000000,100.000000,,,,,,,,,,,,,,,,,,,,,,,,,,,,
1703503342.172497,1703503342.172954,95.000000,0.000000,4290.769043,4269.487305,4291.282227,4292.436035,4277.179688,4261.666504,4265.769043,4218.077148,4245.256348,4241.922852,4443.846191,4442.692383,4370.128418,4409.102539,6394.000000,3.000000,63.000000,,,,0.000000,4.000000,4.000000,4.000000,4.000000,4.000000,4.000000,4.000000,4.000000,4.000000,4.000000,4.000000,4.000000,4.000000,4.000000,100.000000,,,,,,,,,,,,,,,,,,,,,,,,,,,,
1703503342.180305,1703503342.180762,96.000000,0.000000,4293.077148,4270.256348,4296.666504,4299.615234,4278.077148,4262.051270,4271.025879,4214.230957,4249.358887,4250.256348,4445.769043,4447.179688,4373.077148,4411.153809,6938.000000,3.000000,63.000000,,,,0.000000,4.000000,4.000000,4.000000,4.000000,4.000000,4.000000,4.000000,4.000000,4.000000,4.000000,4.000000,4.000000,4.000000,4.000000,100.000000,,,,,,,,,,,,,,,,,24.000000,0.000000,0.445871,0.533752,-0.446411,0.563049,0.984984,-0.041997,0.020022,-15.016737,-37.458439,60.517296
1703503342.188113,1703503342.188670,97.000000,0.000000,4297.948730,4281.153809,4302.563965,4309.871582,4273.974121,4261.282227,4268.205078,4212.948730,4248.974121,4255.256348,4444.230957,4458.461426,4374.615234,4417.179688,7306.000000,3.000000,63.000000,,,,0.000000,4.000000,4.000000,4.000000,4.000000,4.000000,4.000000,4.000000,4.000000,4.000000,4.000000,4.000000,4.000000,4.000000,4.000000,100.000000,1.000000,75.000000,4.000000,4.000000,4.000000,4.000000,4.000000,4.000000,4.000000,1.000000,4.000000,4.000000,4.000000,4.000000,4.000000,4.000000,,,,,,,,,,,,
1703503342.195921,1703503342.196478,98.000000,0.000000,4296.410156,4279.743652,4303.461426,4304.743652,4269.358887,4260.897461,4263.717773,4205.384766,4236.025879,4240.769043,4443.717773,4453.974121,4378.205078,4416.538574,6155.000000,3.000000,63.000000,,,,0.000000,4.000000,4.000000,4.000000,4.000000,4.000000,4.000000,4.000000,4.000000,4.000000,4.000000,4.000000,4.000000,4.000000,4.000000,100.000000,,,,,,,,,,,,,,,,,,,,,,,,,,,,
1703503342.203729,1703503342.204386,99.000000,0.000000,4285.641113,4264.102539,4298.077148,4293.333496,4264.743652,4261.922852,4266.025879,4200.128418,4228.205078,4236.538574,4446.410156,4444.102539,4385.000000,4414.487305,6394.000000,3.000000,63.000000,,,,0.000000,4.000000,4.000000,4.000000,4.000000,4.000000,4.000000,4.000000,4.000000,4.000000,4.000000,4.000000,4.000000,4.000000,4.000000,100.000000,,,,,,,,,,,,,,,,,,,,,,,,,,,,
1703503342.211537,1703503342.212194,100.000000,0.000000,4277.307617,4260.384766,4291.153809,4293.077148,4263.717773,4262.692383,4266.025879,4204.487305,4231.538574,4242.692383,4437.436035,4443.205078,4377.051270,4406.153809,6938.000000,3.000000,63.000000,,,,0.000000,4.000000,4.000000,4.000000,4.000000,4.000000,4.000000,4.000000,4.000000,4.000000,4.000000,4.000000,4.000000,4.000000,4.000000,100.000000,,,,,,,,,,,,,,,,,25.000000,0.000000,0.445776,0.533447,-0.446716,0.563171,0.989379,-0.035161,0.035649,-15.098397,-37.412598,60.482231
1703503342.219345,1703503342.220101,101.000000,0.000000,4276.153809,4262.820313,4287.436035,4294.615234,4264.871582,4261.794922,4265.384766,4213.205078,4231.794922,4235.641113,4430.512695,4446.538574,4367.692383,4398.077148,7306.000000,3.000000,63.000000,,,,0.000000,4.000000,4.000000,4.000000,4.000000,4.000000,4.000000,4.000000,4.000000,4.000000,4.000000,4.000000,4.000000,4.000000,4.000000,100.000000,,,,,,,,,,,,,,,,,,,,,,,,,,,,
1703503342.227153,1703503342.227909,102.000000,0.000000,4276.153809,4260.641113,4288.205078,4293.589844,4264.358887,4261.282227,4270.769043,4225.384766,4230.384766,4232.307617,4443.974121,4449.358887,4380.897461,4407.436035,6155.000000,3.000000,63.000000,,,,0.000000,4.000000,4.000000,4.000000,4.000000,4.000000,4.000000,4.000000,4.000000,4.000000,4.000000,4.000000,4.000000,4.000000,4.000000,100.000000,,,,,,,,,,,,,,,,,,,,,,,,,,,,
1703503342.234961,1703503342.235817,103.000000,0.000000,4276.410156,4263.205078,4290.128418,4294.743652,4263.205078,4261.410156,4273.077148,4231.025879,4233.205078,4240.384766,4447.436035,4444.102539,4386.538574,4408.077148,6394.000000,3.000000,63.000000,,,,0.000000,4.000000,4.000000,4.000000,4.000000,4.000000,4.000000,4.000000,4.000000,4.000000,4.000000,4.000000,4.000000,4.000000,4.000000,100.000000,,,,,,,,,,,,,,,,,,,,,,,,,,,,
1703503342.242769,1703503342.243625,104.000000,0.000000,4279.102539,4263.846191,4285.128418,4295.769043,4266.794922,4261.153809,4268.205078,4221.922852,4233.461426,4236.666504,4432.563965,4433.717773,4374.743652,4392.948730,6938.000000,3.000000,63.000000,,,,0.000000,4.000000,4.000000,4.000000,4.000000,4.000000,4.000000,4.000000,4.000000,4.000000,4.000000,4.000000,4.000000,4.000000,4.000000,100.000000,,,,,,,,,,,,,,,,,26.000000,0.000000,0.445670,0.533447,-0.446899,0.563110,0.997192,-0.035649,0.024417,-14.988557,-37.388004,60.517342
1703503342.250577,1703503342.251333,105.000000,0.000000,4280.256348,4259.871582,4281.153809,4294.487305,4267.436035,4260.256348,4263.717773,4213.846191,4236.666504,4230.897461,4431.153809,4437.820313,4378.974121,4397.307617,7306.000000,3.000000,63.000000,,,,0.000000,4.000000,4.000000,4.000000,4.000000,4.000000,4.000000,4.000000,4.000000,4.000000,4.000000,4.000000,4.000000,4.000000,4.000000,100.000000,,,,,,,,,,,,,,,,,,,,,,,,,,,,
1703503342.258385,1703503342.259141,106.000000,0.000000,4281.538574,4265.256348,4286.922852,4294.615234,4268.333496,4259.615234,4263.846191,4222.692383,4248.589844,4247.436035,4449.871582,4456.410156,4403.974121,4415.769043,6155.000000,3.000000,63.000000,,,,0.000000,4.000000,4.000000,4.000000,4.000000,4.000000,4.000000,4.000000,4.000000,4.000000,4.000000,4.000000,4.000000,4.000000,4.000000,100.000000,,,,,,,,,,,,,,,,,,,,,,,,,,,,
1703503342.266194,1703503342.266849,107.000000,0.000000,4283.717773,4275.641113,4289.230957,4297.820313,4272.948730,4257.948730,4263.077148,4231.410156,4256.282227,4264.615234,4461.666504,4459.871582,4413.461426,4417.307617,6394.000000,3.000000,63.000000,,,,0.000000,4.000000,4.000000,4.000000,4.000000,4.000000,4.000000,4.000000,4.000000,4.000000,4.000000,4.000000,4.000000,4.000000,4.000000,100.000000,,,,,,,,,,,,,,,,,,,,,,,,,,,,
1703503342.274001,1703503342.274657,108.000000,0.000000,4279.743652,4272.436035,4283.205078,4301.666504,4271.025879,4257.051270,4265.384766,4220.256348,4246.282227,4253.589844,4448.077148,4443.077148,4397.436035,4403.846191,6938.000000,3.000000,63.000000,,,,0.000000,4.000000,4.000000,4.000000,4.000000,4.000000,4.000000,4.000000,4.000000,4.000000,4.000000,4.000000,4.000000,4.000000,4.000000,100.000000,,,,,,,,,,,,,,,,,27.000000,0.000000,0.445593,0.533447,-0.446899,0.563171,0.990844,-0.041509,0.030277,-14.923035,-37.532536,60.548943
1703503342.281809,1703503342.282365,109.000000,0.000000,4279.358887,4264.743652,4285.641113,4307.436035,4268.974121,4260.000000,4270.769043,4202.948730,4233.589844,4234.615234,4428.717773,4436.410156,4389.615234,4397.563965,7306.000000,3.000000,63.000000,,,,0.000000,4.000000,4.000000,4.000000,4.000000,4.000000,4.000000,4.000000,4.000000,4.000000,4.000000,4.000000,4.000000,4.000000,4.000000,100.000000,,,,,,,,,,,,,,,,,,,,,,,,,,,,
1703503342.289618,1703503342.290173,110.000000,0.000000,4285.769043,4265.769043,4291.538574,4307.051270,4273.333496,4260.769043,4272.692383,4203.974121,4227.692383,4230.512695,4428.589844,4446.025879,4400.384766,4407.307617,6155.000000,3.000000,63.000000,,,,0.000000,4.000000,4.000000,4.000000,4.000000,4.000000,4.000000,4.000000,4.000000,4.000000,4.000000,4.000000,4.000000,4.000000,4.000000,100.000000,,,,,,,,,,,,,,,,,,,,,,,,,,,,
1703503342.297426,1703503342.297881,111.000000,0.000000,4285.897461,4265.641113,4291.025879,4300.000000,4269.102539,4262.436035,4276.666504,4222.692383,4222.692383,4228.846191,4433.589844,4450.256348,4404.102539,4418.077148,6394.000000,3.000000,63.000000,,,,0.000000,4.000000,4.000000,4.000000,4.000000,4.000000,4.000000,4.000000,4.000000,4.000000,4.000000,4.000000,4.000000,4.000000,4.000000,100.000000,,,,,,,,,,,,,,,,,,,,,,,,,,,,
1703503342.305234,1703503342.305689,112.000000,0.000000,4278.846191,4260.897461,4291.025879,4296.410156,4260.641113,4260.769043,4282.436035,4234.358887,4227.436035,4231.025879,4430.128418,4450.256348,4400.512695,4414.102539,6938.000000,3.000000,63.000000,,,,0.000000,4.000000,4.000000,4.000000,4.000000,4.000000,4.000000,4.000000,4.000000,4.000000,4.000000,4.000000,4.000000,4.000000,4.000000,100.000000,,,,,,,,,,,,,,,,,28.000000,0.000000,0.445605,0.533386,-0.446960,0.563171,1.005005,-0.028812,0.031742,-14.930732,-37.645950,60.544048
1703503342.313042,1703503342.313397,113.000000,0.000000,4279.102539,4260.256348,4292.692383,4299.102539,4260.512695,4252.948730,4281.153809,4233.589844,4224.487305,4232.436035,4424.487305,4452.948730,4399.487305,4408.589844,7306.000000,3.000000,63.000000,,,,0.000000,4.000000,4.000000,4.000000,4.000000,4.000000,4.000000,4.000000,4.000000,4.000000,4.000000,4.000000,4.000000,4.000000,4.000000,100.000000,,,,,,,,,,,,,,,,,,,,,,,,,,,,
1703503342.320850,1703503342.321205,114.000000,0.000000,4285.000000,4263.077148,4294.358887,4299.743652,4262.051270,4255.128418,4278.846191,4229.102539,4205.256348,4212.563965,4416.538574,4454.871582,4394.102539,4412.436035,6155.000000,3.000000,63.000000,,,,0.000000,4.000000,4.000000,4.000000,4.000000,4.000000,4.000000,4.000000,4.000000,4.000000,4.000000,4.000000,4.000000,4.000000,4.000000,100.000000,,,,,,,,,,,,,,,,,,,,,,,,,,,,
1703503342.328658,1703503342.328913,115.000000,0.000000,4283.333496,4262.307617,4295.897461,4297.820313,4263.333496,4265.769043,4285.512695,4228.974121,4203.333496,4202.563965,4414.487305,4459.743652,4394.743652,4416.282227,6394.000000,3.000000,63.000000,,,,0.000000,4.000000,4.000000,4.000000,4.000000,4.000000,4.000000,4.000000,4.000000,4.000000,4.000000,4.000000,4.000000,4.000000,4.000000,100.000000,,,,,,,,,,,,,,,,,,,,,,,,,,,,
1703503342.336466,1703503342.336721,116.000000,0.000000,4281.410156,4260.641113,4297.307617,4301.025879,4266.666504,4266.794922,4289.102539,4226.794922,4214.230957,4212.948730,4415.641113,4459.487305,4397.307617,4412.820313,6938.000000,3.000000,63.000000,,,,0.000000,4.000000,4.000000,4.000000,4.000000,4.000000,4.000000,4.000000,4.000000,4.000000,4.000000,4.000000,4.000000,4.000000,4.000000,100.000000,,,,,,,,,,,,,,,,,29.000000,0.000000,0.445466,0.533386,-0.447021,0.563232,0.987425,-0.041021,0.032719,-14.837658,-37.764687,60.689644
1703503342.344274,1703503342.344430,117.000000,0.000000,4289.358887,4268.846191,4303.077148,4308.333496,4270.128418,4261.282227,4281.666504,4220.512695,4211.410156,4208.974121,4411.153809,4452.820313,4393.205078,4412.820313,7306.000000,3.000000,63.000000,,,,0.000000,4.000000,4.000000,4.000000,4.000000,4.000000,4.000000,4.000000,4.000000,4.000000,4.000000,4.000000,4.000000,4.000000,4.000000,100.000000,,,,,,,,,,,,,,,,,,,,,,,,,,,,
1703503342.352082,1703503342.352337,118.000000,0.000000,4300.128418,4281.282227,4310.897461,4315.256348,4276.282227,4264.615234,4278.461426,4223.589844,4216.410156,4211.282227,4419.358887,4461.666504,4402.820313,4421.794922,6155.000000,3.000000,63.000000,,,,0.000000,4.000000,4.000000,4.000000,4.000000,4.000000,4.000000,4.000000,4.000000,4.000000,4.000000,4.000000,4.000000,4.000000,4.000000,100.000000,,,,,,,,,,,,,,,,,,,,,,,,,,,,
1703503342.359890,1703503342.360145,119.000000,0.000000,4298.589844,4276.666504,4309.358887,4312.179688,4274.102539,4264.102539,4276.666504,4230.128418,4234.615234,4240.512695,4433.077148,4472.692383,4419.743652,4422.948730,6394.000000,3.000000,63.000000,,,,0.000000,4.000000,4.000000,4.000000,4.000000,4.000000,4.000000,4.000000,4.000000,4.000000,4.000000,4.000000,4.000000,4.000000,4.000000,100.000000,,,,,,,,,,,,,,,,,,,,,,,,,,,,
1703503342.367698,1703503342.368053,120.000000,0.000000,4286.025879,4262.179688,4298.589844,4299.615234,4263.846191,4252.820313,4265.897461,4230.512695,4238.717773,4252.436035,4424.871582,4458.589844,4413.974121,4407.692383,6938.000000,3.000000,63.000000,,,,0.000000,4.000000,4.000000,4.000000,4.000000,4.000000,4.000000,4.000000,4.000000,4.000000,4.000000,4.000000,4.000000,4.000000,4.000000,100.000000,,,,,,,,,,,,,,,,,30.000000,0.000000,0.445405,0.533386,-0.447083,0.563232,0.983518,-0.034672,0.039556,-14.920559,-37.754887,60.487343
1703503342.375506,1703503342.375861,121.000000,0.000000,4279.358887,4260.512695,4292.692383,4293.461426,4261.153809,4246.794922,4266.025879,4228.846191,4233.333496,4237.179688,4409.230957,4442.563965,4396.410156,4392.692383,7306.000000,3.000000,63.000000,,,,0.000000,4.000000,4.000000,4.000000,4.000000,4.000000,4.000000,4.000000,4.000000,4.000000,4.000000,4.000000,4.000000,4.000000,4.000000,100.000000,,,,,,,,,,,,,,,,,,,,,,,,,,,,
1703503342.383314,1703503342.383769,122.000000,0.000000,4277.692383,4261.794922,4291.538574,4295.769043,4261.922852,4251.538574,4278.717773,4231.922852,4232.948730,4233.205078,4414.871582,4444.102539,4401.666504,4397.179688,6155.000000,3.000000,63.000000,,,,0.000000,4.000000,4.000000,4.000000,4.000000,4.000000,4.000000,4.000000,4.000000,4.000000,4.000000,4.000000,4.000000,4.000000,4.000000,100.000000,,,,,,,,,,,,,,,,,,,,,,,,,,,,
1703503342.391122,1703503342.391577,123.000000,0.000000,4274.230957,4256.025879,4283.205078,4296.410156,4259.358887,4259.615234,4280.641113,4240.897461,4231.666504,4236.025879,4424.358887,4446.794922,4417.307617,4406.922852,6394.000000,3.000000,63.000000,,,,0.000000,4.000000,4.000000,4.000000,4.000000,4.000000,4.000000,4.000000,4.000000,4.000000,4.000000,4.000000,4.000000,4.000000,4.000000,100.000000,,,,,,,,,,,,,,,,,,,,,,,,,,,,
1703503342.398930,1703503342.399485,124.000000,0.000000,4274.358887,4258.205078,4276.794922,4292.563965,4258.333496,4261.922852,4278.974121,4248.589844,4224.230957,4225.128418,4416.410156,4443.846191,4411.666504,4401.153809,6938.000000,3.000000,63.000000,,,,0.000000,4.000000,4.000000,4.000000,4.000000,4.000000,4.000000,4.000000,4.000000,4.000000,4.000000,4.000000,4.000000,4.000000,4.000000,100.000000,,,,,,,,,,,,,,,,,31.000000,0.000000,0.445360,0.533386,-0.447205,0.563171,0.985472,-0.029789,0.027835,-14.845170,-37.762730,60.571945
1703503342.406738,1703503342.407293,125.000000,0.000000,4273.974121,4261.153809,4277.820313,4292.692383,4260.000000,4262.179688,4284.230957,4246.922852,4218.846191,4213.589844,4407.692383,4442.307617,4400.128418,4395.897461,7306.000000,3.000000,63.000000,,,,0.000000,4.000000,4.000000,4.000000,4.000000,4.000000,4.000000,4.000000,4.000000,4.000000,4.000000,4.000000,4.000000,4.000000,4.000000,100.000000,,,,,,,,,,,,,,,,,,,,,,,,,,,,
1703503342.414546,1703503342.415201,126.000000,0.000000,4266.410156,4256.282227,4275.897461,4292.692383,4262.948730,4261.153809,4285.000000,4235.897461,4211.922852,4210.256348,4406.794922,4439.230957,4399.358887,4399.230957,6155.000000,3.000000,63.000000,,,,0.000000,4.000000,4.000000,4.000000,4.000000,4.000000,4.000000,4.000000,4.000000,4.000000,4.000000,4.000000,4.000000,4.000000,4.000000,100.000000,,,,,,,,,,,,,,,,,,,,,,,,,,,,
1703503342.422354,1703503342.423009,127.000000,0.000000,4272.563965,4262.948730,4282.051270,4293.846191,4264.102539,4258.974121,4281.538574,4225.897461,4203.974121,4209.871582,4408.846191,4442.051270,4401.282227,4401.153809,63.000000,3.000000,63.000000,,,,0.000000,4.000000,4.000000,4.000000,4.000000,4.000000,4.000000,4.000000,4.000000,4.000000,4.000000,4.000000,4.000000,4.000000,4.000000,100.000000,,,,,,,,,,,,,,,,,,,,,,,,,,,,
1703503342.430163,1703503342.430717,0.000000,0.000000,4294.743652,4278.717773,4301.666504,4299.743652,4263.205078,4260.000000,4280.512695,4224.230957,4208.205078,4219.743652,4423.589844,4457.307617,4411.922852,4411.794922,5318.000000,3.000000,63.000000,,,,0.000000,4.000000,4.000000,4.000000,4.000000,4.000000,4.000000,4.000000,4.000000,4.000000,4.000000,4.000000,4.000000,4.000000,4.000000,100.000000,,,,,,,,,,,,,,,,,0.000000,0.000000,0.445306,0.533508,-0.447266,0.563049,0.987914,-0.031742,0.024417,-14.760653,-37.669792,60.548084
1703503342.437971,1703503342.438525,1.000000,0.000000,4302.692383,4284.487305,4312.692383,4306.538574,4264.743652,4262.179688,4278.461426,4228.717773,4218.205078,4233.077148,4441.794922,4473.333496,4428.846191,4428.717773,5561.000000,3.000000,63.000000,,,,0.000000,4.000000,4.000000,4.000000,4.000000,4.000000,4.000000,4.000000,4.000000,4.000000,4.000000,4.000000,4.000000,4.000000,4.000000,100.000000,,,,,,,,,,,,,,,,,,,,,,,,,,,,
1703503342.445778,1703503342.446233,2.000000,0.000000,4298.333496,4289.871582,4311.025879,4315.512695,4270.000000,4266.025879,4278.333496,4237.307617,4230.641113,4241.153809,4452.948730,4484.743652,4440.512695,4437.563965,5460.000000,3.000000,63.000000,,,,0.000000,4.000000,4.000000,4.000000,4.000000,4.000000,4.000000,4.000000,4.000000,4.000000,4.000000,4.000000,4.000000,4.000000,4.000000,100.000000,,,,,,,,,,,,,,,,,,,,,,,,,,,,
1703503342.453587,1703503342.454041,3.000000,0.000000,4295.641113,4294.615234,4310.128418,4320.000000,4268.077148,4261.282227,4277.692383,4248.333496,4252.436035,4255.256348,4468.589844,4488.974121,4448.717773,4440.000000,5449.000000,3.000000,63.000000,,,,0.000000,4.000000,4.000000,4.000000,4.000000,4.000000,4.000000,4.000000,4.000000,4.000000,4.000000,4.000000,4.000000,4.000000,4.000000,100.000000,,,,,,,,,,,,,,,,,,,,,,,,,,,,
1703503342.461395,1703503342.461749,4.000000,0.000000,4295.000000,4288.974121,4309.615234,4314.230957,4261.922852,4251.025879,4273.333496,4259.487305,4268.717773,4271.538574,4478.333496,4486.282227,4451.410156,4435.769043,5333.000000,3.000000,63.000000,,,,0.000000,4.000000,4.000000,4.000000,4.000000,4.000000,4.000000,4.000000,4.000000,4.000000,4.000000,4.000000,4.000000,4.000000,4.000000,100.000000,,,,,,,,,,,,,,,,,1.000000,0.000000,0.445352,0.533752,-0.447083,0.562927,0.980100,-0.038091,0.030277,-14.767920,-37.702812,60.493275
1703503342.469203,1703503342.469557,5.000000,0.000000,4292.948730,4288.205078,4302.692383,4309.615234,4268.461426,4252.436035,4271.794922,4272.307617,4270.641113,4274.615234,4478.333496,4490.256348,4451.410156,4432.692383,4911.000000,3.000000,63.000000,,,,0.000000,4.000000,4.000000,4.000000,4.000000,4.000000,4.000000,4.000000,4.000000,4.000000,4.000000,4.000000,4.000000,4.000000,4.000000,100.000000,,,,,,,,,,,,,,,,,,,,,,,,,,,,
1703503342.477011,1703503342.477265,6.000000,0.000000,4285.000000,4292.563965,4296.410156,4311.282227,4275.128418,4259.358887,4280.256348,4277.563965,4263.717773,4258.717773,4477.692383,4491.922852,4449.743652,4430.897461,4176.000000,3.000000,63.000000,,,,0.000000,4.000000,4.000000,4.000000,4.000000,4.000000,4.000000,4.000000,4.000000,4.000000,4.000000,4.000000,4.000000,4.000000,4.000000,100.000000,,,,,,,,,,,,,,,,,,,,,,,,,,,,
1703503342.484819,1703503342.485173,7.000000,0.000000,4278.461426,4290.128418,4294.358887,4313.589844,4276.282227,4266.282227,4293.205078,4270.641113,4256.025879,4246.794922,4471.666504,4479.230957,4443.717773,4423.717773,5063.000000,3.000000,63.000000,,,,0.000000,4.000000,4.000000,4.000000,4.000000,4.000000,4.000000,4.000000,4.000000,4.000000,4.000000,4.000000,4.000000,4.000000,4.000000,100.000000,,,,,,,,,,,,,,,,,,,,,,,,,,,,
1703503342.492627,1703503342.492981,8.000000,0.000000,4282.307617,4292.820313,4293.717773,4320.384766,4286.538574,4277.948730,4299.358887,4266.282227,4254.358887,4254.743652,4465.769043,4475.897461,4440.512695,4422.563965,4961.000000,3.000000,63.000000,,,,0.000000,4.000000,4.000000,4.000000,4.000000,4.000000,4.000000,4.000000,4.000000,4.000000,4.000000,4.000000,4.000000,4.000000,4.000000,100.000000,,,,,,,,,,,,,,,,,2.000000,0.000000,0.445467,0.533630,-0.446960,0.563049,0.997680,-0.031742,0.037114,-14.974463,-37.849197,60.543945
1703503342.500435,1703503342.500889,9.000000,0.000000,4291.666504,4304.102539,4300.000000,4329.230957,4296.282227,4284.615234,4297.948730,4264.230957,4250.256348,4255.000000,4469.487305,4488.717773,4439.743652,4430.128418,5566.000000,3.000000,63.000000,,,,0.000000,4.000000,4.000000,4.000000,4.000000,4.000000,4.000000,4.000000,4.000000,4.000000,4.000000,4.000000,4.000000,4.000000,4.000000,100.000000,,,,,,,,,,,,,,,,,,,,,,,,,,,,
1703503342.508243,1703503342.508698,10.000000,0.000000,4299.102539,4310.000000,4311.666504,4330.512695,4296.410156,4281.153809,4297.436035,4258.717773,4241.025879,4241.025879,4480.128418,4498.333496,4446.538574,4436.410156,6148.000000,3.000000,63.000000,,,,0.000000,4.000000,4.000000,4.000000,4.000000,4.000000,4.000000,4.000000,4.000000,4.000000,4.000000,4.000000,4.000000,4.000000,4.000000,100.000000,,,,,,,,,,,,,,,,,,,,,,,,,,,,
1703503342.516051,1703503342.516506,11.000000,0.000000,4301.410156,4311.153809,4316.025879,4327.563965,4292.948730,4277.820313,4298.333496,4260.384766,4243.077148,4243.333496,4489.743652,4501.794922,4457.436035,4443.589844,6399.000000,3.000000,63.000000,,,,0.000000,4.000000,4.000000,4.000000,4.000000,4.000000,4.000000,4.000000,4.000000,4.000000,4.000000,4.000000,4.000000,4.000000,4.000000,100.000000,,,,,,,,,,,,,,,,,,,,,,,,,,,,
1703503342.523859,1703503342.524214,12.000000,0.000000,4297.820313,4309.230957,4311.666504,4322.051270,4287.051270,4272.692383,4289.230957,4263.205078,4249.358887,4255.512695,4492.307617,4499.487305,4450.512695,4447.820313,6952.000000,3.000000,63.000000,,,,0.000000,4.000000,4.000000,4.000000,4.000000,4.000000,4.000000,4.000000,4.000000,4.000000,4.000000,4.000000,4.000000,4.000000,4.000000,100.000000,,,,,,,,,,,,,,,,,3.000000,0.000000,0.445450,0.533386,-0.446960,0.563293,0.997192,-0.030765,0.022952,-15.093682,-37.780945,60.656219
1703503342.531667,1703503342.532122,13.000000,0.000000,4294.358887,4300.641113,4312.692383,4314.743652,4278.846191,4259.358887,4278.974121,4252.179688,4245.641113,4251.410156,4487.692383,4493.974121,4439.743652,4441.922852,7307.000000,3.000000,63.000000,,,,0.000000,4.000000,4.000000,4.000000,4.000000,4.000000,4.000000,4.000000,4.000000,4.000000,4.000000,4.000000,4.000000,4.000000,4.000000,100.000000,,,,,,,,,,,,,,,,,,,,,,,,,,,,
1703503342.539475,1703503342.539930,14.000000,0.000000,4295.512695,4292.307617,4318.846191,4309.102539,4271.410156,4251.153809,4276.666504,4244.743652,4243.846191,4246.282227,4481.538574,4487.820313,4441.282227,4434.615234,6148.000000,3.000000,63.000000,,,,0.000000,4.000000,4.000000,4.000000,4.000000,4.000000,4.000000,4.000000,4.000000,4.000000,4.000000,4.000000,4.000000,4.000000,4.000000,100.000000,,,,,,,,,,,,,,,,,,,,,,,,,,,,
1703503342.547283,1703503342.547838,15.000000,0.000000,4291.153809,4292.820313,4315.256348,4300.000000,4264.743652,4247.820313,4269.615234,4247.436035,4250.256348,4250.769043,4476.282227,4479.358887,4434.871582,4429.743652,6399.000000,3.000000,63.000000,,,,0.000000,4.000000,4.000000,4.000000,4.000000,4.000000,4.000000,4.000000,4.000000,4.000000,4.000000,4.000000,4.000000,4.000000,4.000000,100.000000,,,,,,,,,,,,,,,,,,,,,,,,,,,,
1703503342.555091,1703503342.555646,16.000000,0.000000,4283.205078,4294.871582,4308.717773,4294.615234,4262.692383,4245.769043,4264.871582,4248.846191,4248.589844,4245.641113,4472.307617,4473.333496,4421.538574,4423.205078,0.000000,3.000000,63.000000,,,,0.000000,4.000000,4.000000,4.000000,4.000000,4.000000,4.000000,4.000000,4.000000,4.000000,4.000000,4.000000,4.000000,4.000000,4.000000,100.000000,,,,,,,,,,,,,,,,,4.000000,0.000000,0.445381,0.533264,-0.447021,0.563416,0.975217,-0.026859,0.036626,-15.200981,-37.802849,60.590595
1703503342.562899,1703503342.563453,17.000000,0.000000,4276.410156,4287.563965,4303.205078,4296.538574,4266.666504,4248.205078,4273.333496,4245.641113,4237.692383,4227.948730,4463.846191,4465.384766,4412.179688,4408.589844,0.000000,3.000000,63.000000,,,,0.000000,4.000000,4.000000,4.000000,4.000000,4.000000,4.000000,4.000000,4.000000,4.000000,4.000000,4.000000,4.000000,4.000000,4.000000,100.000000,,,,,,,,,,,,,,,,,,,,,,,,,,,,
1703503342.570707,1703503342.571162,18.000000,0.000000,4265.641113,4278.461426,4286.538574,4272.179688,4262.563965,4251.538574,4277.820313,4237.051270,4228.333496,4217.051270,4447.563965,4445.897461,4397.563965,4388.974121,0.000000,3.000000,63.000000,,,,0.000000,4.000000,4.000000,4.000000,4.000000,4.000000,4.000000,4.000000,4.000000,4.000000,4.000000,4.000000,4.000000,4.000000,4.000000,100.000000,,,,,,,,,,,,,,,,,,,,,,,,,,,,
1703503342.578515,1703503342.579069,19.000000,0.000000,4256.410156,4274.615234,4270.000000,4227.948730,4251.666504,4252.692383,4273.846191,4231.410156,4221.282227,4212.692383,4436.282227,4429.102539,4382.563965,4376.410156,0.000000,3.000000,63.000000,,,,0.000000,4.000000,4.000000,4.000000,4.000000,4.000000,4.000000,4.000000,4.000000,4.000000,4.000000,4.000000,4.000000,4.000000,4.000000,100.000000,,,,,,,,,,,,,,,,,,,,,,,,,,,,
1703503342.586324,1703503342.586877,20.000000,0.000000,4258.333496,4275.384766,4272.692383,4217.179688,4252.563965,4250.512695,4275.897461,4235.897461,4216.153809,4206.794922,4438.974121,4427.948730,4382.563965,4373.589844,0.000000,3.000000,63.000000,,,,0.000000,4.000000,4.000000,4.000000,4.000000,4.000000,4.000000,4.000000,4.000000,4.000000,4.000000,4.000000,4.000000,4.000000,4.000000,100.000000,,,,,,,,,,,,,,,,,5.000000,0.000000,0.445513,0.532898,-0.447327,0.563416,0.990844,-0.038579,0.028812,-15.180882,-37.722565,60.748203
1703503342.594132,1703503342.594785,21.000000,0.000000,4263.589844,4277.436035,4280.000000,4230.128418,4263.461426,4250.641113,4280.128418,4244.230957,4221.538574,4211.922852,4447.436035,4437.436035,4394.102539,4382.820313,0.000000,3.000000,63.000000,,,,0.000000,4.000000,4.000000,4.000000,4.000000,4.000000,4.000000,4.000000,4.000000,4.000000,4.000000,4.000000,4.000000,4.000000,4.000000,100.000000,,,,,,,,,,,,,,,,,,,,,,,,,,,,
1703503342.601940,1703503342.602593,22.000000,0.000000,4262.692383,4277.692383,4281.410156,4230.384766,4264.615234,4254.358887,4278.717773,4244.102539,4223.461426,4220.384766,4450.641113,4445.128418,4397.820313,4388.974121,0.000000,3.000000,63.000000,,,,0.000000,4.000000,4.000000,4.000000,4.000000,4.000000,4.000000,4.000000,4.000000,4.000000,4.000000,4.000000,4.000000,4.000000,4.000000,100.000000,,,,,,,,,,,,,,,,,,,,,,,,,,,,
1703503342.609748,1703503342.610501,23.000000,0.000000,4266.282227,4284.358887,4289.358887,4233.589844,4260.512695,4259.487305,4277.563965,4234.358887,4215.769043,4217.692383,4454.230957,4446.794922,4398.717773,4391.025879,0.000000,3.000000,63.000000,,,,0.000000,4.000000,4.000000,4.000000,4.000000,4.000000,4.000000,4.000000,4.000000,4.000000,4.000000,4.000000,4.000000,4.000000,4.000000,100.000000,,,,,,,,,,,,,,,,,,,,,,,,,,,,
1703503342.617556,1703503342.618309,24.000000,0.000000,4275.897461,4293.589844,4297.436035,4246.410156,4265.769043,4261.025879,4280.512695,4229.871582,4215.000000,4214.743652,4463.717773,4448.846191,4408.205078,4401.153809,0.000000,3.000000,63.000000,,,,0.000000,4.000000,4.000000,4.000000,4.000000,4.000000,4.000000,4.000000,4.000000,4.000000,4.000000,4.000000,4.000000,4.000000,4.000000,100.000000,,,,,,,,,,,,,,,,,6.000000,0.000000,0.445584,0.532776,-0.447632,0.563232,1.004029,-0.015627,0.034672,-15.179461,-37.583641,60.840050
1703503342.625364,1703503342.626217,25.000000,0.000000,4278.589844,4292.948730,4294.871582,4248.205078,4267.051270,4254.871582,4276.922852,4236.794922,4218.717773,4217.820313,4469.615234,4450.641113,4411.538574,4403.846191,0.000000,3.000000,63.000000,,,,0.000000,4.000000,4.000000,4.000000,4.000000,4.000000,4.000000,4.000000,4.000000,4.000000,4.000000,4.000000,4.000000,4.000000,4.000000,100.000000,,,,,,,,,,,,,,,,,,,,,,,,,,,,
1703503342.633172,1703503342.634025,26.000000,0.000000,4273.717773,4283.846191,4289.487305,4243.461426,4261.922852,4247.820313,4268.333496,4246.282227,4220.384766,4221.025879,4471.282227,4452.307617,4407.051270,4401.153809,0.000000,3.000000,63.000000,,,,0.000000,4.000000,4.000000,4.000000,4.000000,4.000000,4.000000,4.000000,4.000000,4.000000,4.000000,4.000000,4.000000,4.000000,4.000000,100.000000,,,,,,,,,,,,,,,,,,,,,,,,,,,,
1703503342.640980,1703503342.641733,27.000000,0.000000,4275.384766,4279.487305,4291.538574,4247.692383,4260.256348,4250.128418,4270.769043,4256.922852,4232.692383,4230.384766,4480.128418,4460.128418,4411.666504,4409.487305,0.000000,3.000000,63.000000,,,,0.000000,4.000000,4.000000,4.000000,4.000000,4.000000,4.000000,4.000000,4.000000,4.000000,4.000000,4.000000,4.000000,4.000000,4.000000,100.000000,,,,,,,,,,,,,,,,,,,,,,,,,,,,
1703503342.648788,1703503342.649541,28.000000,0.000000,4280.512695,4281.666504,4296.410156,4255.897461,4262.563965,4259.615234,4278.974121,4271.282227,4253.333496,4249.358887,4494.871582,4471.538574,4423.333496,4417.307617,0.000000,3.000000,63.000000,,,,0.000000,4.000000,4.000000,4.000000,4.000000,4.000000,4.000000,4.000000,4.000000,4.000000,4.000000,4.000000,4.000000,4.000000,4.000000,100.000000,,,,,,,,,,,,,,,,,7.000000,0.000000,0.445811,0.532715,-0.447632,0.563110,0.998657,-0.026370,0.026859,-15.211515,-37.608612,60.722713
1703503342.656596,1703503342.657249,29.000000,0.000000,4274.230957,4281.794922,4296.666504,4261.410156,4264.102539,4264.487305,4279.102539,4280.641113,4263.974121,4257.948730,4500.897461,4478.205078,4427.436035,4413.461426,0.000000,3.000000,63.000000,,,,0.000000,4.000000,4.000000,4.000000,4.000000,4.000000,4.000000,4.000000,4.000000,4.000000,4.000000,4.000000,4.000000,4.000000,4.000000,100.000000,,,,,,,,,,,,,,,,,,,,,,,,,,,,
1703503342.664404,1703503342.665057,30.000000,0.000000,4264.615234,4279.487305,4294.358887,4261.794922,4265.769043,4263.333496,4277.436035,4283.333496,4265.256348,4255.384766,4497.436035,4474.871582,4424.615234,4408.974121,0.000000,3.000000,63.000000,,,,0.000000,4.000000,4.000000,4.000000,4.000000,4.000000,4.000000,4.000000,4.000000,4.000000,4.000000,4.000000,4.000000,4.000000,4.000000,100.000000,,,,,,,,,,,,,,,,,,,,,,,,,,,,
1703503342.672212,1703503342.672765,31.000000,0.000000,4263.461426,4278.846191,4287.820313,4263.333496,4270.512695,4264.230957,4280.128418,4285.256348,4266.922852,4260.128418,4499.871582,4468.717773,4426.410156,4407.563965,0.000000,3.000000,63.000000,,,,0.000000,4.000000,4.000000,4.000000,4.000000,4.000000,4.000000,4.000000,4.000000,4.000000,4.000000,4.000000,4.000000,4.000000,4.000000,100.000000,,,,,,,,,,,,,,,,,,,,,,,,,,,,
1703503342.680020,1703503342.680573,32.000000,0.000000,4263.205078,4280.000000,4281.025879,4265.641113,4269.743652,4264.615234,4280.128418,4281.282227,4261.153809,4255.128418,4499.102539,4463.974121,4424.743652,4400.897461,0.000000,3.000000,63.000000,,,,0.000000,4.000000,4.000000,4.000000,4.000000,4.000000,4.000000,4.000000,4.000000,4.000000,4.000000,4.000000,4.000000,4.000000,4.000000,100.000000,,,,,,,,,,,,,,,,,8.000000,0.000000,0.445776,0.532898,-0.447449,0.563110,0.992797,-0.031254,0.034184,-15.240364,-37.764416,60.667107
1703503342.687828,1703503342.688281,33.000000,0.000000,4258.717773,4274.102539,4279.230957,4264.230957,4264.230957,4261.025879,4278.333496,4276.282227,4249.102539,4237.436035,4488.205078,4460.769043,4415.641113,4395.641113,0.000000,3.000000,63.000000,,,,0.000000,4.000000,4.000000,4.000000,4.000000,4.000000,4.000000,4.000000,4.000000,4.000000,4.000000,4.000000,4.000000,4.000000,4.000000,100.000000,1.000000,75.000000,4.000000,4.000000,4.000000,4.000000,4.000000,4.000000,4.000000,1.000000,4.000000,4.000000,4.000000,4.000000,4.000000,4.000000,,,,,,,,,,,,
1703503342.695636,1703503342.696089,34.000000,0.000000,4257.307617,4264.230957,4281.794922,4265.384766,4263.461426,4257.692383,4280.256348,4277.563965,4248.205078,4238.717773,4489.871582,4463.077148,4413.974121,4398.974121,0.000000,3.000000,63.000000,,,,0.000000,4.000000,4.000000,4.000000,4.000000,4.000000,4.000000,4.000000,4.000000,4.000000,4.000000,4.000000,4.000000,4.000000,4.000000,100.000000,,,,,,,,,,,,,,,,,,,,,,,,,,,,
1703503342.703444,1703503342.703797,35.000000,0.000000,4260.000000,4267.179688,4286.153809,4272.692383,4268.077148,4261.666504,4283.846191,4271.794922,4247.307617,4245.384766,4496.025879,4463.589844,4418.333496,4401.666504,0.000000,3.000000,63.000000,,,,0.000000,4.000000,4.000000,4.000000,4.000000,4.000000,4.000000,4.000000,4.000000,4.000000,4.000000,4.000000,4.000000,4.000000,4.000000,100.000000,,,,,,,,,,,,,,,,,,,,,,,,,,,,
1703503342.711252,1703503342.711605,36.000000,0.000000,4262.563965,4279.102539,4290.769043,4282.692383,4272.948730,4266.666504,4284.102539,4260.769043,4233.589844,4234.230957,4491.666504,4457.436035,4416.666504,4397.307617,0.000000,3.000000,63.000000,,,,0.000000,4.000000,4.000000,4.000000,4.000000,4.000000,4.000000,4.000000,4.000000,4.000000,4.000000,4.000000,4.000000,4.000000,4.000000,100.000000,,,,,,,,,,,,,,,,,9.000000,0.000000,0.445774,0.533142,-0.447083,0.563171,0.991820,-0.034184,0.029300,-15.282994,-37.754642,60.683731
1703503342.719060,1703503342.719313,37.000000,0.000000,4265.512695,4283.717773,4296.410156,4289.230957,4275.000000,4263.717773,4279.871582,4256.538574,4224.615234,4224.358887,4486.282227,4457.179688,4410.769043,4393.589844,0.000000,3.000000,63.000000,,,,0.000000,4.000000,4.000000,4.000000,4.000000,4.000000,4.000000,4.000000,4.000000,4.000000,4.000000,4.000000,4.000000,4.000000,4.000000,100.000000,,,,,,,,,,,,,,,,,,,,,,,,,,,,
1703503342.726869,1703503342.727221,38.000000,0.000000,4273.333496,4290.769043,4301.153809,4296.922852,4280.000000,4260.384766,4281.410156,4260.384766,4230.384766,4227.948730,4493.333496,4467.948730,4415.256348,4399.615234,0.000000,3.000000,63.000000,,,,0.000000,4.000000,4.000000,4.000000,4.000000,4.000000,4.000000,4.000000,4.000000,4.000000,4.000000,4.000000,4.000000,4.000000,4.000000,100.000000,,,,,,,,,,,,,,,,,,,,,,,,,,,,
1703503342.734676,1703503342.735029,39.000000,0.000000,4280.897461,4305.384766,4300.769043,4307.820313,4290.128418,4266.153809,4289.615234,4276.666504,4248.461426,4246.025879,4509.871582,4480.256348,4432.820313,4409.230957,0.000000,3.000000,63.000000,,,,0.000000,4.000000,4.000000,4.000000,4.000000,4.000000,4.000000,4.000000,4.000000,4.000000,4.000000,4.000000,4.000000,4.000000,4.000000,100.000000,,,,,,,,,,,,,,,,,,,,,,,,,,,,
1703503342.742484,1703503342.742937,40.000000,0.000000,4279.615234,4311.410156,4296.025879,4314.102539,4296.153809,4275.769043,4295.512695,4301.153809,4270.256348,4271.025879,4525.641113,4488.205078,4445.512695,4414.102539,0.000000,3.000000,63.000000,,,,0.000000,4.000000,4.000000,4.000000,4.000000,4.000000,4.000000,4.000000,4.000000,4.000000,4.000000,4.000000,4.000000,4.000000,4.000000,100.000000,,,,,,,,,,,,,,,,,10.000000,0.000000,0.445751,0.533264,-0.446960,0.563171,0.999634,-0.024905,0.041509,-15.204695,-37.679176,60.715359
1703503342.750293,1703503342.750745,41.000000,0.000000,4279.358887,4308.333496,4296.410156,4314.743652,4296.153809,4281.153809,4296.282227,4316.282227,4286.794922,4283.333496,4541.538574,4494.743652,4450.641113,4421.666504,0.000000,3.000000,63.000000,,,,0.000000,4.000000,4.000000,4.000000,4.000000,4.000000,4.000000,4.000000,4.000000,4.000000,4.000000,4.000000,4.000000,4.000000,4.000000,100.000000,,,,,,,,,,,,,,,,,,,,,,,,,,,,
1703503342.758101,1703503342.758653,42.000000,0.000000,4277.436035,4303.205078,4298.461426,4311.538574,4295.897461,4281.153809,4294.615234,4314.743652,4290.256348,4283.077148,4547.948730,4497.307617,4454.230957,4426.410156,0.000000,3.000000,63.000000,,,,0.000000,4.000000,4.000000,4.000000,4.000000,4.000000,4.000000,4.000000,4.000000,4.000000,4.000000,4.000000,4.000000,4.000000,4.000000,100.000000,,,,,,,,,,,,,,,,,,,,,,,,,,,,
1703503342.765909,1703503342.766461,43.000000,0.000000,4268.717773,4295.769043,4293.846191,4308.846191,4293.717773,4278.974121,4295.256348,4302.307617,4277.051270,4275.641113,4533.846191,4489.358887,4444.487305,4416.153809,0.000000,3.000000,63.000000,,,,0.000000,4.000000,4.000000,4.000000,4.000000,4.000000,4.000000,4.000000,4.000000,4.000000,4.000000,4.000000,4.000000,4.000000,4.000000,100.000000,,,,,,,,,,,,,,,,,,,,,,,,,,,,
1703503342.773717,1703503342.774369,44.000000,0.000000,4262.948730,4292.563965,4291.410156,4308.461426,4289.358887,4277.692383,4295.000000,4294.487305,4264.743652,4264.102539,4518.333496,4478.589844,4427.692383,4407.051270,0.000000,3.000000,63.000000,,,,0.000000,4.000000,4.000000,4.000000,4.000000,4.000000,4.000000,4.000000,4.000000,4.000000,4.000000,4.000000,4.000000,4.000000,4.000000,100.000000,,,,,,,,,,,,,,,,,11.000000,0.000000,0.445796,0.533508,-0.446777,0.563049,1.003541,-0.028324,0.032719,-15.050892,-37.744595,60.827156
1703503342.781525,1703503342.782177,45.000000,0.000000,4263.205078,4292.179688,4298.846191,4308.205078,4284.871582,4278.974121,4292.692383,4294.358887,4265.897461,4257.692383,4514.743652,4477.051270,4420.512695,4407.692383,0.000000,3.000000,63.000000,,,,0.000000,4.000000,4.000000,4.000000,4.000000,4.000000,4.000000,4.000000,4.000000,4.000000,4.000000,4.000000,4.000000,4.000000,4.000000,100.000000,,,,,,,,,,,,,,,,,,,,,,,,,,,,
1703503342.789333,1703503342.790084,46.000000,0.000000,4262.436035,4290.512695,4301.666504,4307.307617,4280.256348,4273.846191,4291.794922,4287.307617,4260.128418,4246.153809,4506.794922,4474.358887,4413.333496,4399.487305,0.000000,3.000000,63.000000,,,,0.000000,4.000000,4.000000,4.000000,4.000000,4.000000,4.000000,4.000000,4.000000,4.000000,4.000000,4.000000,4.000000,4.000000,4.000000,100.000000,,,,,,,,,,,,,,,,,,,,,,,,,,,,
1703503342.797141,1703503342.797892,47.000000,0.000000,4262.948730,4291.153809,4297.179688,4307.820313,4278.589844,4265.512695,4291.282227,4274.871582,4245.128418,4233.205078,4500.384766,4466.538574,4408.461426,4393.589844,0.000000,3.000000,63.000000,,,,0.000000,4.000000,4.000000,4.000000,4.000000,4.000000,4.000000,4.000000,4.000000,4.000000,4.000000,4.000000,4.000000,4.000000,4.000000,100.000000,,,,,,,,,,,,,,,,,,,,,,,,,,,,
1703503342.804949,1703503342.805800,48.000000,0.000000,4272.692383,4296.666504,4304.871582,4317.051270,4284.871582,4268.974121,4292.051270,4269.102539,4241.794922,4237.436035,4503.974121,4469.230957,4410.512695,4401.922852,0.000000,3.000000,63.000000,,,,0.000000,4.000000,4.000000,4.000000,4.000000,4.000000,4.000000,4.000000,4.000000,4.000000,4.000000,4.000000,4.000000,4.000000,4.000000,100.000000,,,,,,,,,,,,,,,,,12.000000,0.000000,0.445947,0.533691,-0.446716,0.562805,0.988402,-0.030277,0.025394,-15.129136,-37.803467,60.711105
1703503342.812757,1703503342.813608,49.000000,0.000000,4282.307617,4305.512695,4320.000000,4331.153809,4293.717773,4278.846191,4294.230957,4269.487305,4248.846191,4248.717773,4513.846191,4484.102539,4416.153809,4410.384766,0.000000,3.000000,63.000000,,,,0.000000,4.000000,4.000000,4.000000,4.000000,4.000000,4.000000,4.000000,4.000000,4.000000,4.000000,4.000000,4.000000,4.000000,4.000000,100.000000,,,,,,,,,,,,,,,,,,,,,,,,,,,,
1703503342.820565,1703503342.821316,50.000000,0.000000,4283.461426,4313.717773,4324.615234,4337.563965,4297.307617,4279.743652,4295.897461,4278.846191,4256.282227,4255.256348,4530.128418,4493.205078,4424.871582,4415.256348,0.000000,3.000000,63.000000,,,,0.000000,4.000000,4.000000,4.000000,4.000000,4.000000,4.000000,4.000000,4.000000,4.000000,4.000000,4.000000,4.000000,4.000000,4.000000,100.000000,,,,,,,,,,,,,,,,,,,,,,,,,,,,
1703503342.828373,1703503342.829124,51.000000,0.000000,4280.641113,4314.230957,4316.666504,4335.897461,4295.897461,4276.025879,4292.179688,4297.436035,4268.461426,4265.128418,4537.820313,4490.641113,4429.615234,4417.179688,0.000000,3.000000,63.000000,,,,0.000000,4.000000,4.000000,4.000000,4.000000,4.000000,4.000000,4.000000,4.000000,4.000000,4.000000,4.000000,4.000000,4.000000,4.000000,100.000000,,,,,,,,,,,,,,,,,,,,,,,,,,,,
1703503342.836181,1703503342.836832,52.000000,0.000000,4278.461426,4308.077148,4309.743652,4336.153809,4296.282227,4277.051270,4289.743652,4313.717773,4283.205078,4272.051270,4542.563965,4493.974121,4434.358887,4420.000000,0.000000,3.000000,63.000000,,,,0.000000,4.000000,4.000000,4.000000,4.000000,4.000000,4.000000,4.000000,4.000000,4.000000,4.000000,4.000000,4.000000,4.000000,4.000000,100.000000,,,,,,,,,,,,,,,,,13.000000,0.000000,0.445811,0.533691,-0.447083,0.562622,0.989379,-0.035649,0.033696,-15.049556,-37.623119,60.723328
1703503342.843989,1703503342.844640,53.000000,0.000000,4278.461426,4306.153809,4313.717773,4338.974121,4297.820313,4279.102539,4294.743652,4323.846191,4288.333496,4274.487305,4555.641113,4509.358887,4441.410156,4427.692383,0.000000,3.000000,63.000000,,,,0.000000,4.000000,4.000000,4.000000,4.000000,4.000000,4.000000,4.000000,4.000000,4.000000,4.000000,4.000000,4.000000,4.000000,4.000000,100.000000,,,,,,,,,,,,,,,,,,,,,,,,,,,,
1703503342.851797,1703503342.852348,54.000000,0.000000,4276.410156,4304.871582,4316.410156,4338.333496,4295.897461,4280.256348,4297.948730,4332.051270,4292.692383,4283.846191,4559.358887,4518.717773,4444.102539,4430.641113,0.000000,3.000000,63.000000,,,,0.000000,4.000000,4.000000,4.000000,4.000000,4.000000,4.000000,4.000000,4.000000,4.000000,4.000000,4.000000,4.000000,4.000000,4.000000,100.000000,,,,,,,,,,,,,,,,,,,,,,,,,,,,
1703503342.859605,1703503342.860156,55.000000,0.000000,4275.512695,4298.077148,4314.358887,4335.512695,4293.717773,4279.358887,4295.512695,4330.000000,4295.641113,4288.974121,4553.589844,4515.000000,4440.384766,4428.077148,0.000000,3.000000,63.000000,,,,0.000000,4.000000,4.000000,4.000000,4.000000,4.000000,4.000000,4.000000,4.000000,4.000000,4.000000,4.000000,4.000000,4.000000,4.000000,100.000000,,,,,,,,,,,,,,,,,,,,,,,,,,,,
1703503342.867413,1703503342.867864,56.000000,0.000000,4276.922852,4298.846191,4317.436035,4333.974121,4291.282227,4281.410156,4294.487305,4317.051270,4289.102539,4284.487305,4554.358887,4510.641113,4438.974121,4429.358887,0.000000,3.000000,63.000000,,,,0.000000,4.000000,4.000000,4.000000,4.000000,4.000000,4.000000,4.000000,4.000000,4.000000,4.000000,4.000000,4.000000,4.000000,4.000000,100.000000,,,,,,,,,,,,,,,,,14.000000,0.000000,0.445635,0.533569,-0.447327,0.562683,0.988402,-0.021975,0.029789,-14.911266,-37.560810,60.784328
1703503342.875221,1703503342.875672,57.000000,0.000000,4278.205078,4305.256348,4317.948730,4334.743652,4292.436035,4286.025879,4295.769043,4308.846191,4286.153809,4283.461426,4556.666504,4510.512695,4439.102539,4433.333496,0.000000,3.000000,63.000000,,,,0.000000,4.000000,4.000000,4.000000,4.000000,4.000000,4.000000,4.000000,4.000000,4.000000,4.000000,4.000000,4.000000,4.000000,4.000000,100.000000,,,,,,,,,,,,,,,,,,,,,,,,,,,,
1703503342.883030,1703503342.883380,58.000000,0.000000,4276.794922,4303.077148,4311.922852,4337.436035,4295.128418,4283.974121,4294.871582,4306.922852,4284.358887,4279.102539,4548.205078,4507.179688,4432.051270,4428.846191,0.000000,3.000000,63.000000,,,,0.000000,4.000000,4.000000,4.000000,4.000000,4.000000,4.000000,4.000000,4.000000,4.000000,4.000000,4.000000,4.000000,4.000000,4.000000,100.000000,,,,,,,,,,,,,,,,,,,,,,,,,,,,
1703503342.890838,1703503342.891288,59.000000,0.000000,4277.436035,4299.487305,4311.282227,4340.641113,4295.769043,4282.692383,4293.205078,4293.333496,4272.563965,4265.641113,4535.769043,4498.974121,4419.743652,4422.563965,0.000000,3.000000,63.000000,,,,0.000000,4.000000,4.000000,4.000000,4.000000,4.000000,4.000000,4.000000,4.000000,4.000000,4.000000,4.000000,4.000000,4.000000,4.000000,100.000000,,,,,,,,,,,,,,,,,,,,,,,,,,,,
1703503342.898646,1703503342.899096,60.000000,0.000000,4279.743652,4303.205078,4314.615234,4343.333496,4295.897461,4284.615234,4290.641113,4274.615234,4260.128418,4251.922852,4526.410156,4492.563965,4411.025879,4422.051270,0.000000,3.000000,63.000000,,,,0.000000,4.000000,4.000000,4.000000,4.000000,4.000000,4.000000,4.000000,4.000000,4.000000,4.000000,4.000000,4.000000,4.000000,4.000000,100.000000,,,,,,,,,,,,,,,,,15.000000,0.000000,0.445593,0.533386,-0.447510,0.562744,0.977170,-0.030277,0.020999,-14.703473,-37.671394,60.672562
1703503342.906454,1703503342.906904,61.000000,0.000000,4279.102539,4306.922852,4319.615234,4342.948730,4294.615234,4281.025879,4286.025879,4275.641113,4262.051270,4251.922852,4522.820313,4493.205078,4410.256348,4422.948730,0.000000,3.000000,63.000000,,,,0.000000,4.000000,4.000000,4.000000,4.000000,4.000000,4.000000,4.000000,4.000000,4.000000,4.000000,4.000000,4.000000,4.000000,4.000000,100.000000,,,,,,,,,,,,,,,,,,,,,,,,,,,,
1703503342.914262,1703503342.914612,62.000000,0.000000,4280.000000,4309.230957,4323.846191,4343.461426,4297.563965,4278.077148,4282.692383,4290.641113,4269.230957,4264.743652,4532.563965,4495.128418,4417.820313,4425.641113,0.000000,3.000000,63.000000,,,,0.000000,4.000000,4.000000,4.000000,4.000000,4.000000,4.000000,4.000000,4.000000,4.000000,4.000000,4.000000,4.000000,4.000000,4.000000,100.000000,,,,,,,,,,,,,,,,,,,,,,,,,,,,
1703503342.922070,1703503342.922520,63.000000,0.000000,4278.846191,4305.384766,4317.563965,4340.897461,4294.871582,4280.256348,4281.538574,4296.922852,4267.436035,4259.358887,4539.615234,4492.692383,4420.512695,4426.922852,0.000000,3.000000,63.000000,,,,0.000000,4.000000,4.000000,4.000000,4.000000,4.000000,4.000000,4.000000,4.000000,4.000000,4.000000,4.000000,4.000000,4.000000,4.000000,100.000000,,,,,,,,,,,,,,,,,,,,,,,,,,,,
1703503342.929878,1703503342.930328,64.000000,0.000000,4270.128418,4296.922852,4307.948730,4331.025879,4281.922852,4278.333496,4281.025879,4294.102539,4261.025879,4243.205078,4528.077148,4491.666504,4410.641113,4417.948730,5317.000000,3.000000,63.000000,,,,0.000000,4.000000,4.000000,4.000000,4.000000,4.000000,4.000000,4.000000,4.000000,4.000000,4.000000,4.000000,4.000000,4.000000,4.000000,100.000000,,,,,,,,,,,,,,,,,16.000000,0.000000,0.445559,0.533325,-0.447693,0.562683,0.990355,-0.030765,0.021975,-14.516459,-37.604256,60.738640
1703503342.937686,1703503342.938236,65.000000,0.000000,4258.974121,4292.436035,4305.512695,4321.794922,4277.563965,4276.025879,4280.512695,4295.384766,4262.307617,4252.051270,4519.102539,4488.717773,4402.307617,4407.307617,5561.000000,3.000000,63.000000,,,,0.000000,4.000000,4.000000,4.000000,4.000000,4.000000,4.000000,4.000000,4.000000,4.000000,4.000000,4.000000,4.000000,4.000000,4.000000,100.000000,,,,,,,,,,,,,,,,,,,,,,,,,,,,
1703503342.945494,1703503342.946044,66.000000,0.000000,4257.307617,4288.589844,4306.922852,4322.307617,4281.153809,4278.717773,4280.512695,4298.205078,4265.256348,4258.717773,4519.487305,4478.205078,4399.487305,4404.871582,5460.000000,3.000000,63.000000,,,,0.000000,4.000000,4.000000,4.000000,4.000000,4.000000,4.000000,4.000000,4.000000,4.000000,4.000000,4.000000,4.000000,4.000000,4.000000,100.000000,,,,,,,,,,,,,,,,,,,,,,,,,,,,
1703503342.953302,1703503342.953952,67.000000,0.000000,4262.436035,4286.153809,4306.025879,4324.743652,4281.153809,4278.846191,4280.128418,4294.487305,4264.230957,4248.205078,4519.358887,4478.846191,4398.589844,4406.025879,5444.000000,3.000000,63.000000,,,,0.000000,4.000000,4.000000,4.000000,4.000000,4.000000,4.000000,4.000000,4.000000,4.000000,4.000000,4.000000,4.000000,4.000000,4.000000,100.000000,,,,,,,,,,,,,,,,,,,,,,,,,,,,
1703503342.961110,1703503342.961760,68.000000,0.000000,4260.384766,4288.846191,4304.487305,4321.282227,4279.615234,4277.179688,4279.743652,4293.717773,4270.384766,4256.666504,4525.000000,4493.461426,4403.333496,4411.666504,5332.000000,3.000000,63.000000,,,,0.000000,4.000000,4.000000,4.000000,4.000000,4.000000,4.000000,4.000000,4.000000,4.000000,4.000000,4.000000,4.000000,4.000000,4.000000,100.000000,,,,,,,,,,,,,,,,,17.000000,0.000000,0.445448,0.533264,-0.447876,0.562683,0.993285,-0.031742,0.026370,-14.581480,-37.560497,60.698109
1703503342.968918,1703503342.969668,69.000000,0.000000,4263.717773,4292.820313,4310.384766,4323.205078,4280.769043,4278.974121,4279.487305,4298.846191,4273.974121,4268.974121,4538.589844,4498.846191,4407.436035,4420.000000,4911.000000,3.000000,63.000000,,,,0.000000,4.000000,4.000000,4.000000,4.000000,4.000000,4.000000,4.000000,4.000000,4.000000,4.000000,4.000000,4.000000,4.000000,4.000000,100.000000,,,,,,,,,,,,,,,,,,,,,,,,,,,,
1703503342.976726,1703503342.977476,70.000000,0.000000,4275.512695,4296.282227,4316.666504,4330.897461,4283.205078,4282.179688,4279.102539,4296.282227,4265.769043,4259.358887,4539.743652,4490.000000,4403.077148,4420.000000,4176.000000,3.000000,63.000000,,,,0.000000,4.000000,4.000000,4.000000,4.000000,4.000000,4.000000,4.000000,4.000000,4.000000,4.000000,4.000000,4.000000,4.000000,4.000000,100.000000,,,,,,,,,,,,,,,,,,,,,,,,,,,,
1703503342.984534,1703503342.985384,71.000000,0.000000,4273.461426,4294.871582,4313.589844,4329.487305,4281.666504,4279.102539,4279.743652,4281.666504,4261.666504,4252.563965,4526.282227,4482.436035,4394.358887,4412.436035,5051.000000,3.000000,63.000000,,,,0.000000,4.000000,4.000000,4.000000,4.000000,4.000000,4.000000,4.000000,4.000000,4.000000,4.000000,4.000000,4.000000,4.000000,4.000000,100.000000,,,,,,,,,,,,,,,,,,,,,,,,,,,,
1703503342.992342,1703503342.993192,72.000000,0.000000,4263.589844,4289.487305,4307.307617,4322.692383,4279.871582,4274.358887,4280.000000,4274.871582,4262.307617,4257.307617,4526.794922,4482.051270,4390.000000,4411.153809,4954.000000,3.000000,63.000000,,,,0.000000,4.000000,4.000000,4.000000,4.000000,4.000000,4.000000,4.000000,4.000000,4.000000,4.000000,4.000000,4.000000,4.000000,4.000000,100.000000,,,,,,,,,,,,,,,,,18.000000,0.000000,0.445317,0.533142,-0.447998,0.562805,0.999634,-0.023929,0.028812,-14.473332,-37.687778,60.878300
1703503343.000150,1703503343.001099,73.000000,0.000000,4265.897461,4292.692383,4313.461426,4325.512695,4282.948730,4276.025879,4280.769043,4286.666504,4263.589844,4261.153809,4544.871582,4491.794922,4395.769043,4424.358887,5554.000000,3.000000,63.000000,,,,0.000000,4.000000,4.000000,4.000000,4.000000,4.000000,4.000000,4.000000,4.000000,4.000000,4.000000,4.000000,4.000000,4.000000,4.000000,100.000000,,,,,,,,,,,,,,,,,,,,,,,,,,,,
1703503343.007958,1703503343.008907,74.000000,0.000000,4269.230957,4297.820313,4323.974121,4330.256348,4285.512695,4282.179688,4282.307617,4296.153809,4265.000000,4261.922852,4550.000000,4502.051270,4397.563965,4433.589844,6130.000000,3.000000,63.000000,,,,0.000000,4.000000,4.000000,4.000000,4.000000,4.000000,4.000000,4.000000,4.000000,4.000000,4.000000,4.000000,4.000000,4.000000,4.000000,100.000000,,,,,,,,,,,,,,,,,,,,,,,,,,,,
1703503343.015767,1703503343.016615,75.000000,0.000000,4263.589844,4287.563965,4318.333496,4324.230957,4280.384766,4276.538574,4280.000000,4294.230957,4265.384766,4258.205078,4537.436035,4496.153809,4386.025879,4426.666504,6392.000000,3.000000,63.000000,,,,0.000000,4.000000,4.000000,4.000000,4.000000,4.000000,4.000000,4.000000,4.000000,4.000000,4.000000,4.000000,4.000000,4.000000,4.000000,100.000000,,,,,,,,,,,,,,,,,,,,,,,,,,,,
1703503343.023574,1703503343.024423,76.000000,0.000000,4260.384766,4278.461426,4308.333496,4319.487305,4276.282227,4266.153809,4277.948730,4300.000000,4265.512695,4254.871582,4535.256348,4490.000000,4381.794922,4417.307617,6932.000000,3.000000,63.000000,,,,0.000000,4.000000,4.000000,4.000000,4.000000,4.000000,4.000000,4.000000,4.000000,4.000000,4.000000,4.000000,4.000000,4.000000,4.000000,100.000000,,,,,,,,,,,,,,,,,19.000000,0.000000,0.445203,0.533264,-0.448120,0.562683,0.994750,-0.027347,0.024905,-14.609332,-37.785667,60.757133
1703503343.031382,1703503343.032131,77.000000,0.000000,4262.692383,4286.153809,4311.794922,4323.205078,4278.589844,4271.025879,4280.384766,4311.025879,4267.563965,4253.077148,4544.102539,4492.307617,4385.256348,4415.128418,7299.000000,3.000000,63.000000,,,,0.000000,4.000000,4.000000,4.000000,4.000000,4.000000,4.000000,4.000000,4.000000,4.000000,4.000000,4.000000,4.000000,4.000000,4.000000,100.000000,,,,,,,,,,,,,,,,,,,,,,,,,,,,
1703503343.039191,1703503343.039939,78.000000,0.000000,4262.692383,4293.205078,4314.871582,4326.666504,4279.358887,4280.769043,4279.102539,4308.333496,4267.820313,4250.512695,4540.000000,4489.102539,4382.563965,4415.769043,6130.000000,3.000000,63.000000,,,,0.000000,4.000000,4.000000,4.000000,4.000000,4.000000,4.000000,4.000000,4.000000,4.000000,4.000000,4.000000,4.000000,4.000000,4.000000,100.000000,,,,,,,,,,,,,,,,,,,,,,,,,,,,
1703503343.046999,1703503343.047648,79.000000,0.000000,4260.897461,4288.461426,4312.948730,4326.025879,4282.563965,4281.025879,4277.820313,4296.794922,4265.128418,4247.948730,4524.871582,4482.179688,4373.461426,4414.743652,6392.000000,3.000000,63.000000,,,,0.000000,4.000000,4.000000,4.000000,4.000000,4.000000,4.000000,4.000000,4.000000,4.000000,4.000000,4.000000,4.000000,4.000000,4.000000,100.000000,,,,,,,,,,,,,,,,,,,,,,,,,,,,
1703503343.054807,1703503343.055455,80.000000,0.000000,4263.717773,4290.512695,4317.563965,4327.307617,4290.769043,4280.000000,4287.436035,4293.717773,4264.230957,4247.179688,4525.512695,4480.897461,4367.179688,4416.282227,6932.000000,3.000000,63.000000,,,,0.000000,4.000000,4.000000,4.000000,4.000000,4.000000,4.000000,4.000000,4.000000,4.000000,4.000000,4.000000,4.000000,4.000000,4.000000,100.000000,,,,,,,,,,,,,,,,,20.000000,0.000000,0.444898,0.533325,-0.448120,0.562866,0.986449,-0.033696,0.020022,-14.515066,-37.873768,60.648087
1703503343.062615,1703503343.063164,81.000000,0.000000,4265.000000,4294.102539,4317.179688,4328.333496,4289.615234,4283.205078,4291.794922,4295.512695,4261.025879,4245.384766,4535.256348,4480.000000,4360.512695,4414.230957,7299.000000,3.000000,63.000000,,,,0.000000,4.000000,4.000000,4.000000,4.000000,4.000000,4.000000,4.000000,4.000000,4.000000,4.000000,4.000000,4.000000,4.000000,4.000000,100.000000,,,,,,,,,,,,,,,,,,,,,,,,,,,,
1703503343.070423,1703503343.071072,82.000000,0.000000,4262.820313,4287.563965,4308.717773,4326.410156,4279.871582,4281.922852,4280.512695,4287.436035,4248.717773,4234.871582,4524.358887,4469.871582,4338.974121,4402.948730,6130.000000,3.000000,63.000000,,,,0.000000,4.000000,4.000000,4.000000,4.000000,4.000000,4.000000,4.000000,4.000000,4.000000,4.000000,4.000000,4.000000,4.000000,4.000000,100.000000,,,,,,,,,,,,,,,,,,,,,,,,,,,,
1703503343.078231,1703503343.078880,83.000000,0.000000,4263.461426,4286.666504,4311.153809,4326.922852,4282.948730,4279.358887,4277.692383,4281.538574,4242.563965,4232.436035,4519.615234,4468.077148,4322.179688,4401.666504,6392.000000,3.000000,63.000000,,,,0.000000,4.000000,4.000000,4.000000,4.000000,4.000000,4.000000,4.000000,4.000000,4.000000,4.000000,4.000000,4.000000,4.000000,4.000000,100.000000,,,,,,,,,,,,,,,,,,,,,,,,,,,,
1703503343.086039,1703503343.086688,84.000000,0.000000,4266.282227,4291.794922,4320.512695,4326.538574,4288.974121,4278.974121,4284.743652,4288.077148,4251.025879,4249.102539,4545.000000,4480.384766,4321.282227,4415.128418,6932.000000,3.000000,63.000000,,,,0.000000,4.000000,4.000000,4.000000,4.000000,4.000000,4.000000,4.000000,4.000000,4.000000,4.000000,4.000000,4.000000,4.000000,4.000000,100.000000,,,,,,,,,,,,,,,,,21.000000,0.000000,0.444702,0.533386,-0.448242,0.562866,0.984984,-0.042974,0.020510,-14.513559,-37.786392,60.633278
1703503343.093847,1703503343.094396,85.000000,0.000000,4269.487305,4292.948730,4324.358887,4327.436035,4282.948730,4279.615234,4282.179688,4295.641113,4263.205078,4261.922852,4566.666504,4489.615234,4322.948730,4425.512695,7299.000000,3.000000,63.000000,,,,0.000000,4.000000,4.000000,4.000000,4.000000,4.000000,4.000000,4.000000,4.000000,4.000000,4.000000,4.000000,4.000000,4.000000,4.000000,100.000000,,,,,,,,,,,,,,,,,,,,,,,,,,,,
1703503343.101655,1703503343.102204,86.000000,0.000000,4273.717773,4293.333496,4324.615234,4335.769043,4278.846191,4276.153809,4276.153809,4301.153809,4270.384766,4266.282227,4568.333496,4493.974121,4319.230957,4433.461426,6130.000000,3.000000,63.000000,,,,0.000000,4.000000,4.000000,4.000000,4.000000,4.000000,4.000000,4.000000,4.000000,4.000000,4.000000,4.000000,4.000000,4.000000,4.000000,100.000000,,,,,,,,,,,,,,,,,,,,,,,,,,,,
1703503343.109463,1703503343.109912,87.000000,0.000000,4277.563965,4296.666504,4331.538574,4343.205078,4280.769043,4268.333496,4276.922852,4308.461426,4274.615234,4275.384766,4575.512695,4506.410156,4316.410156,4442.436035,6392.000000,3.000000,63.000000,,,,0.000000,4.000000,4.000000,4.000000,4.000000,4.000000,4.000000,4.000000,4.000000,4.000000,4.000000,4.000000,4.000000,4.000000,4.000000,100.000000,,,,,,,,,,,,,,,,,,,,,,,,,,,,
1703503343.117271,1703503343.117720,88.000000,0.000000,4280.000000,4300.512695,4335.512695,4343.205078,4283.077148,4268.333496,4277.436035,4317.436035,4281.666504,4286.153809,4593.077148,4519.358887,4320.256348,4448.205078,6932.000000,3.000000,63.000000,,,,0.000000,4.000000,4.000000,4.000000,4.000000,4.000000,4.000000,4.000000,4.000000,4.000000,4.000000,4.000000,4.000000,4.000000,4.000000,100.000000,,,,,,,,,,,,,,,,,22.000000,0.000000,0.444432,0.533508,-0.448364,0.562866,0.989379,-0.040532,0.014650,-14.562203,-37.791084,60.469952
1703503343.125079,1703503343.125428,89.000000,0.000000,4283.077148,4302.692383,4331.153809,4341.794922,4282.179688,4273.717773,4277.051270,4317.948730,4278.461426,4277.948730,4597.820313,4514.743652,4317.948730,4449.871582,7299.000000,3.000000,63.000000,,,,0.000000,4.000000,4.000000,4.000000,4.000000,4.000000,4.000000,4.000000,4.000000,4.000000,4.000000,4.000000,4.000000,4.000000,4.000000,100.000000,,,,,,,,,,,,,,,,,,,,,,,,,,,,
1703503343.132887,1703503343.133336,90.000000,0.000000,4284.615234,4303.589844,4332.051270,4341.922852,4280.384766,4276.538574,4278.333496,4312.563965,4270.256348,4265.897461,4586.922852,4506.666504,4309.358887,4444.230957,6130.000000,3.000000,63.000000,,,,0.000000,4.000000,4.000000,4.000000,4.000000,4.000000,4.000000,4.000000,4.000000,4.000000,4.000000,4.000000,4.000000,4.000000,4.000000,100.000000,,,,,,,,,,,,,,,,,,,,,,,,,,,,
1703503343.140695,1703503343.141144,91.000000,0.000000,4277.820313,4300.897461,4330.769043,4338.205078,4284.487305,4277.563965,4278.974121,4313.974121,4270.384766,4274.743652,4582.051270,4505.256348,4305.000000,4433.589844,6392.000000,3.000000,63.000000,,,,0.000000,4.000000,4.000000,4.000000,4.000000,4.000000,4.000000,4.000000,4.000000,4.000000,4.000000,4.000000,4.000000,4.000000,4.000000,100.000000,,,,,,,,,,,,,,,,,,,,,,,,,,,,
1703503343.148503,1703503343.149052,92.000000,0.000000,4270.641113,4295.897461,4318.461426,4331.922852,4292.692383,4281.153809,4282.436035,4317.307617,4270.128418,4279.743652,4581.538574,4495.641113,4300.641113,4426.410156,6932.000000,3.000000,63.000000,,,,0.000000,4.000000,4.000000,4.000000,4.000000,4.000000,4.000000,4.000000,4.000000,4.000000,4.000000,4.000000,4.000000,4.000000,4.000000,100.000000,,,,,,,,,,,,,,,,,23.000000,0.000000,0.444518,0.533630,-0.448364,0.562683,0.999145,-0.027347,0.009767,-14.522650,-37.795311,60.439625
1703503343.156311,1703503343.156860,93.000000,0.000000,4271.410156,4294.102539,4314.615234,4336.410156,4297.948730,4289.102539,4289.358887,4318.205078,4273.077148,4275.384766,4580.384766,4488.974121,4297.179688,4431.410156,7299.000000,3.000000,63.000000,,,,0.000000,4.000000,4.000000,4.000000,4.000000,4.000000,4.000000,4.000000,4.000000,4.000000,4.000000,4.000000,4.000000,4.000000,4.000000,100.000000,,,,,,,,,,,,,,,,,,,,,,,,,,,,
1703503343.164119,1703503343.164768,94.000000,0.000000,4274.102539,4297.820313,4324.871582,4349.358887,4298.461426,4295.000000,4295.128418,4319.102539,4278.077148,4277.179688,4586.922852,4497.307617,4297.820313,4444.743652,6130.000000,3.000000,63.000000,,,,0.000000,4.000000,4.000000,4.000000,4.000000,4.000000,4.000000,4.000000,4.000000,4.000000,4.000000,4.000000,4.000000,4.000000,4.000000,100.000000,,,,,,,,,,,,,,,,,,,,,,,,,,,,
1703503343.171927,1703503343.172576,95.000000,0.000000,4272.948730,4295.897461,4328.077148,4350.256348,4296.025879,4289.230957,4291.538574,4317.692383,4270.512695,4273.846191,4587.051270,4501.538574,4289.487305,4445.641113,6392.000000,3.000000,63.000000,,,,0.000000,4.000000,4.000000,4.000000,4.000000,4.000000,4.000000,4.000000,4.000000,4.000000,4.000000,4.000000,4.000000,4.000000,4.000000,100.000000,,,,,,,,,,,,,,,,,,,,,,,,,,,,
1703503343.179736,1703503343.180484,96.000000,0.000000,4270.769043,4291.538574,4322.563965,4339.102539,4294.230957,4281.410156,4283.589844,4310.256348,4263.974121,4266.153809,4580.000000,4496.153809,4282.307617,4436.153809,6932.000000,3.000000,63.000000,,,,0.000000,4.000000,4.000000,4.000000,4.000000,4.000000,4.000000,4.000000,4.000000,4.000000,4.000000,4.000000,4.000000,4.000000,4.000000,100.000000,,,,,,,,,,,,,,,,,24.000000,0.000000,0.444486,0.533875,-0.448181,0.562622,0.979123,-0.026859,0.018557,-14.370384,-37.782448,60.428993
1703503343.187544,1703503343.188392,97.000000,0.000000,4271.794922,4298.974121,4324.871582,4342.820313,4295.897461,4286.666504,4288.846191,4308.077148,4274.358887,4274.230957,4590.128418,4500.256348,4292.051270,4438.589844,7299.000000,3.000000,63.000000,,,,0.000000,4.000000,4.000000,4.000000,4.000000,4.000000,4.000000,4.000000,4.000000,4.000000,4.000000,4.000000,4.000000,4.000000,4.000000,100.000000,1.000000,75.000000,4.000000,4.000000,4.000000,4.000000,4.000000,4.000000,4.000000,1.000000,4.000000,4.000000,4.000000,4.000000,4.000000,4.000000,,,,,,,,,,,,
1703503343.195351,1703503343.196200,98.000000,0.000000,4282.948730,4308.205078,4334.358887,4361.025879,4298.589844,4294.358887,4297.948730,4318.205078,4284.230957,4289.615234,4611.410156,4515.256348,4294.871582,4456.666504,6130.000000,3.000000,63.000000,,,,0.000000,4.000000,4.000000,4.000000,4.000000,4.000000,4.000000,4.000000,4.000000,4.000000,4.000000,4.000000,4.000000,4.000000,4.000000,100.000000,,,,,,,,,,,,,,,,,,,,,,,,,,,,
1703503343.203160,1703503343.204008,99.000000,0.000000,4295.641113,4311.153809,4344.358887,4371.025879,4303.589844,4294.358887,4294.871582,4327.436035,4285.641113,4292.307617,4625.256348,4530.769043,4287.692383,4473.461426,6392.000000,3.000000,63.000000,,,,0.000000,4.000000,4.000000,4.000000,4.000000,4.000000,4.000000,4.000000,4.000000,4.000000,4.000000,4.000000,4.000000,4.000000,4.000000,100.000000,,,,,,,,,,,,,,,,,,,,,,,,,,,,
1703503343.210968,1703503343.211716,100.000000,0.000000,4298.717773,4315.512695,4353.717773,4377.563965,4309.487305,4294.871582,4295.128418,4331.922852,4291.538574,4295.384766,4632.307617,4540.512695,4290.897461,4478.461426,6932.000000,3.000000,63.000000,,,,0.000000,4.000000,4.000000,4.000000,4.000000,4.000000,4.000000,4.000000,4.000000,4.000000,4.000000,4.000000,4.000000,4.000000,4.000000,100.000000,,,,,,,,,,,,,,,,,25.000000,0.000000,0.444628,0.533936,-0.447815,0.562744,0.986449,-0.021975,0.025882,-14.333346,-37.804203,60.386093
1703503343.218776,1703503343.219524,101.000000,0.000000,4302.179688,4322.948730,4358.333496,4389.230957,4313.846191,4300.769043,4305.000000,4340.256348,4300.384766,4309.102539,4636.282227,4547.948730,4301.794922,4484.871582,7299.000000,3.000000,63.000000,,,,0.000000,4.000000,4.000000,4.000000,4.000000,4.000000,4.000000,4.000000,4.000000,4.000000,4.000000,4.000000,4.000000,4.000000,4.000000,100.000000,,,,,,,,,,,,,,,,,,,,,,,,,,,,
1703503343.226584,1703503343.227232,102.000000,0.000000,4306.025879,4324.743652,4358.205078,4390.384766,4314.102539,4301.153809,4305.897461,4349.871582,4304.102539,4313.974121,4634.615234,4552.051270,4304.743652,4490.897461,6130.000000,3.000000,63.000000,,,,0.000000,4.000000,4.000000,4.000000,4.000000,4.000000,4.000000,4.000000,4.000000,4.000000,4.000000,4.000000,4.000000,4.000000,4.000000,100.000000,,,,,,,,,,,,,,,,,,,,,,,,,,,,
1703503343.234392,1703503343.235040,103.000000,0.000000,4299.487305,4319.743652,4354.487305,4384.487305,4309.615234,4295.641113,4296.282227,4345.897461,4296.153809,4297.563965,4623.974121,4543.077148,4297.820313,4478.846191,6392.000000,3.000000,63.000000,,,,0.000000,4.000000,4.000000,4.000000,4.000000,4.000000,4.000000,4.000000,4.000000,4.000000,4.000000,4.000000,4.000000,4.000000,4.000000,100.000000,,,,,,,,,,,,,,,,,,,,,,,,,,,,
