title:نوار اختر, start timestamp:1703161360.632561, stop timestamp:1703161371.407671, headset type:EPOCX, headset serial:E50206EF, headset firmware:720, channels:67, sampling rate:eeg_128;mot_32, samples:1381      , version:2.2, 
Timestamp,OriginalTimestamp,EEG.Counter,EEG.Interpolated,EEG.AF3,EEG.F7,EEG.F3,EEG.FC5,EEG.T7,EEG.P7,EEG.O1,EEG.O2,EEG.P8,EEG.T8,EEG.FC6,EEG.F4,EEG.F8,EEG.AF4,EEG.RawCq,EEG.Battery,EEG.BatteryPercent,MarkerIndex,MarkerType,MarkerValueInt,EEG.MarkerHardware,CQ.AF3,CQ.F7,CQ.F3,CQ.FC5,CQ.T7,CQ.P7,CQ.O1,CQ.O2,CQ.P8,CQ.T8,CQ.FC6,CQ.F4,CQ.F8,CQ.AF4,CQ.Overall,EQ.SampleRateQuality,EQ.OVERALL,EQ.AF3,EQ.F7,EQ.F3,EQ.FC5,EQ.T7,EQ.P7,EQ.O1,EQ.O2,EQ.P8,EQ.T8,EQ.FC6,EQ.F4,EQ.F8,EQ.AF4,MOT.CounterMems,MOT.InterpolatedMems,MOT.Q0,MOT.Q1,MOT.Q2,MOT.Q3,MOT.AccX,MOT.AccY,MOT.AccZ,MOT.MagX,MOT.MagY,MOT.MagZ
1703161360.632561,1703161360.632320,26.000000,0.000000,4174.615234,4137.563965,4262.436035,4218.461426,4121.410156,4110.256348,4122.436035,4139.358887,4117.307617,4154.102539,4663.974121,4460.384766,4407.563965,4551.538574,0.000000,4.000000,80.000000,,,,0.000000,4.000000,4.000000,4.000000,4.000000,4.000000,4.000000,4.000000,4.000000,4.000000,4.000000,4.000000,4.000000,4.000000,4.000000,100.000000,,,,,,,,,,,,,,,,,,,,,,,,,,,,
1703161360.640369,1703161360.640228,27.000000,0.000000,4171.410156,4142.563965,4258.717773,4218.461426,4125.256348,4112.307617,4115.769043,4136.282227,4115.769043,4149.743652,4656.538574,4454.358887,4401.666504,4546.153809,0.000000,4.000000,80.000000,,,,0.000000,4.000000,4.000000,4.000000,4.000000,4.000000,4.000000,4.000000,4.000000,4.000000,4.000000,4.000000,4.000000,4.000000,4.000000,100.000000,,,,,,,,,,,,,,,,,,,,,,,,,,,,
1703161360.648178,1703161360.648037,28.000000,0.000000,4170.641113,4141.538574,4250.384766,4217.179688,4125.897461,4117.692383,4113.589844,4134.487305,4104.743652,4139.487305,4649.487305,4445.897461,4400.128418,4542.051270,0.000000,4.000000,80.000000,,,,0.000000,4.000000,4.000000,4.000000,4.000000,4.000000,4.000000,4.000000,4.000000,4.000000,4.000000,4.000000,4.000000,4.000000,4.000000,100.000000,,,,,,,,,,,,,,,,,7.000000,0.000000,0.556427,0.445190,-0.469849,0.520996,0.989867,0.050299,0.153827,-17.219099,-32.495544,65.278412
1703161360.655985,1703161360.655944,29.000000,0.000000,4159.743652,4136.538574,4243.461426,4216.025879,4125.897461,4123.846191,4119.230957,4135.769043,4105.641113,4133.461426,4637.948730,4434.487305,4388.846191,4527.563965,0.000000,4.000000,80.000000,,,,0.000000,4.000000,4.000000,4.000000,4.000000,4.000000,4.000000,4.000000,4.000000,4.000000,4.000000,4.000000,4.000000,4.000000,4.000000,100.000000,,,,,,,,,,,,,,,,,,,,,,,,,,,,
1703161360.663793,1703161360.663752,30.000000,0.000000,4149.102539,4135.512695,4243.717773,4214.615234,4128.846191,4124.358887,4121.153809,4137.692383,4122.307617,4131.410156,4632.051270,4430.641113,4380.000000,4517.820313,0.000000,4.000000,80.000000,,,,0.000000,4.000000,4.000000,4.000000,4.000000,4.000000,4.000000,4.000000,4.000000,4.000000,4.000000,4.000000,4.000000,4.000000,4.000000,100.000000,,,,,,,,,,,,,,,,,,,,,,,,,,,,
1703161360.671602,1703161360.671660,31.000000,0.000000,4158.077148,4143.589844,4247.563965,4213.333496,4127.692383,4122.436035,4120.256348,4139.615234,4136.922852,4134.487305,4639.615234,4439.871582,4390.128418,4527.051270,0.000000,4.000000,80.000000,,,,0.000000,4.000000,4.000000,4.000000,4.000000,4.000000,4.000000,4.000000,4.000000,4.000000,4.000000,4.000000,4.000000,4.000000,4.000000,100.000000,,,,,,,,,,,,,,,,,,,,,,,,,,,,
1703161360.679410,1703161360.679468,32.000000,0.000000,4170.000000,4151.666504,4249.615234,4212.820313,4125.769043,4123.077148,4122.563965,4142.820313,4140.641113,4140.512695,4640.000000,4446.538574,4388.974121,4532.948730,0.000000,4.000000,80.000000,,,,0.000000,4.000000,4.000000,4.000000,4.000000,4.000000,4.000000,4.000000,4.000000,4.000000,4.000000,4.000000,4.000000,4.000000,4.000000,100.000000,,,,,,,,,,,,,,,,,8.000000,0.000000,0.556699,0.445129,-0.469788,0.520813,0.979612,0.046881,0.155292,-17.213856,-32.395988,65.300568
1703161360.687218,1703161360.687376,33.000000,0.000000,4163.333496,4149.230957,4249.102539,4208.205078,4132.051270,4120.000000,4120.256348,4137.692383,4133.333496,4140.256348,4626.666504,4437.051270,4368.589844,4521.922852,0.000000,4.000000,80.000000,,,,0.000000,4.000000,4.000000,4.000000,4.000000,4.000000,4.000000,4.000000,4.000000,4.000000,4.000000,4.000000,4.000000,4.000000,4.000000,100.000000,,,,,,,,,,,,,,,,,,,,,,,,,,,,
1703161360.695026,1703161360.695184,34.000000,0.000000,4158.077148,4145.897461,4245.512695,4199.871582,4134.871582,4114.743652,4111.282227,4124.615234,4125.256348,4133.461426,4627.436035,4427.820313,4371.794922,4518.974121,0.000000,4.000000,80.000000,,,,0.000000,4.000000,4.000000,4.000000,4.000000,4.000000,4.000000,4.000000,4.000000,4.000000,4.000000,4.000000,4.000000,4.000000,4.000000,100.000000,,,,,,,,,,,,,,,,,,,,,,,,,,,,
1703161360.702834,1703161360.703092,35.000000,0.000000,4173.717773,4154.358887,4248.333496,4201.282227,4125.000000,4113.974121,4112.307617,4125.384766,4124.102539,4136.922852,4647.692383,4437.563965,4394.230957,4534.743652,0.000000,4.000000,80.000000,,,,0.000000,4.000000,4.000000,4.000000,4.000000,4.000000,4.000000,4.000000,4.000000,4.000000,4.000000,4.000000,4.000000,4.000000,4.000000,100.000000,,,,,,,,,,,,,,,,,,,,,,,,,,,,
1703161360.710642,1703161360.710900,36.000000,0.000000,4188.205078,4164.487305,4260.897461,4212.051270,4123.333496,4114.615234,4119.102539,4139.615234,4127.179688,4147.307617,4659.743652,4455.128418,4405.641113,4550.256348,0.000000,4.000000,80.000000,,,,0.000000,4.000000,4.000000,4.000000,4.000000,4.000000,4.000000,4.000000,4.000000,4.000000,4.000000,4.000000,4.000000,4.000000,4.000000,100.000000,,,,,,,,,,,,,,,,,9.000000,0.000000,0.556845,0.444946,-0.469788,0.520813,0.984984,0.061531,0.148944,-17.075804,-32.439724,65.453842
1703161360.718450,1703161360.718708,37.000000,0.000000,4187.436035,4164.358887,4267.436035,4212.436035,4130.641113,4108.717773,4113.461426,4141.153809,4125.897461,4145.256348,4660.641113,4462.051270,4406.282227,4556.410156,0.000000,4.000000,80.000000,,,,0.000000,4.000000,4.000000,4.000000,4.000000,4.000000,4.000000,4.000000,4.000000,4.000000,4.000000,4.000000,4.000000,4.000000,4.000000,100.000000,,,,,,,,,,,,,,,,,,,,,,,,,,,,
1703161360.726258,1703161360.726516,38.000000,0.000000,4185.641113,4163.846191,4264.358887,4209.102539,4126.025879,4102.436035,4105.897461,4128.717773,4114.743652,4137.307617,4659.615234,4461.153809,4405.641113,4555.769043,0.000000,4.000000,80.000000,,,,0.000000,4.000000,4.000000,4.000000,4.000000,4.000000,4.000000,4.000000,4.000000,4.000000,4.000000,4.000000,4.000000,4.000000,4.000000,100.000000,,,,,,,,,,,,,,,,,,,,,,,,,,,,
1703161360.734066,1703161360.734224,39.000000,0.000000,4188.974121,4167.563965,4265.256348,4212.820313,4121.666504,4103.717773,4106.025879,4122.051270,4103.846191,4134.615234,4657.563965,4459.615234,4405.512695,4551.666504,0.000000,4.000000,80.000000,,,,0.000000,4.000000,4.000000,4.000000,4.000000,4.000000,4.000000,4.000000,4.000000,4.000000,4.000000,4.000000,4.000000,4.000000,4.000000,100.000000,,,,,,,,,,,,,,,,,,,,,,,,,,,,
1703161360.741874,1703161360.742032,40.000000,0.000000,4184.615234,4164.358887,4262.179688,4210.769043,4128.974121,4109.487305,4109.743652,4120.641113,4102.692383,4128.717773,4651.666504,4449.871582,4400.128418,4544.615234,0.000000,4.000000,80.000000,,,,0.000000,4.000000,4.000000,4.000000,4.000000,4.000000,4.000000,4.000000,4.000000,4.000000,4.000000,4.000000,4.000000,4.000000,4.000000,100.000000,,,,,,,,,,,,,,,,,10.000000,0.000000,0.556780,0.444885,-0.469788,0.520935,0.976682,0.059089,0.146014,-16.951557,-32.262417,65.625130
1703161360.749682,1703161360.749740,41.000000,0.000000,4171.153809,4150.384766,4250.128418,4196.538574,4127.563965,4117.820313,4117.436035,4120.897461,4109.615234,4121.153809,4645.000000,4436.410156,4391.410156,4532.563965,0.000000,4.000000,80.000000,,,,0.000000,4.000000,4.000000,4.000000,4.000000,4.000000,4.000000,4.000000,4.000000,4.000000,4.000000,4.000000,4.000000,4.000000,4.000000,100.000000,,,,,,,,,,,,,,,,,,,,,,,,,,,,
1703161360.757490,1703161360.757548,42.000000,0.000000,4161.922852,4141.794922,4244.743652,4188.205078,4121.666504,4124.358887,4123.205078,4129.230957,4119.102539,4126.153809,4638.077148,4431.153809,4386.282227,4524.102539,0.000000,4.000000,80.000000,,,,0.000000,4.000000,4.000000,4.000000,4.000000,4.000000,4.000000,4.000000,4.000000,4.000000,4.000000,4.000000,4.000000,4.000000,4.000000,100.000000,,,,,,,,,,,,,,,,,,,,,,,,,,,,
1703161360.765298,1703161360.765256,43.000000,0.000000,4161.538574,4139.615234,4243.974121,4187.307617,4125.000000,4125.000000,4121.538574,4141.666504,4129.743652,4135.000000,4631.666504,4433.461426,4382.436035,4520.384766,0.000000,4.000000,80.000000,,,,0.000000,4.000000,4.000000,4.000000,4.000000,4.000000,4.000000,4.000000,4.000000,4.000000,4.000000,4.000000,4.000000,4.000000,4.000000,100.000000,,,,,,,,,,,,,,,,,,,,,,,,,,,,
1703161360.773106,1703161360.773064,44.000000,0.000000,4164.871582,4136.410156,4241.153809,4185.256348,4126.538574,4125.000000,4121.410156,4148.077148,4139.487305,4136.666504,4640.384766,4439.230957,4382.820313,4522.307617,0.000000,4.000000,80.000000,,,,0.000000,4.000000,4.000000,4.000000,4.000000,4.000000,4.000000,4.000000,4.000000,4.000000,4.000000,4.000000,4.000000,4.000000,4.000000,100.000000,,,,,,,,,,,,,,,,,11.000000,0.000000,0.556869,0.444702,-0.469788,0.520996,0.993774,0.054694,0.156269,-16.906401,-32.386177,65.679283
1703161360.780914,1703161360.780772,45.000000,0.000000,4168.077148,4144.487305,4242.307617,4189.871582,4123.846191,4126.410156,4123.205078,4143.846191,4140.769043,4134.871582,4650.128418,4443.205078,4387.436035,4527.692383,0.000000,4.000000,80.000000,,,,0.000000,4.000000,4.000000,4.000000,4.000000,4.000000,4.000000,4.000000,4.000000,4.000000,4.000000,4.000000,4.000000,4.000000,4.000000,100.000000,,,,,,,,,,,,,,,,,,,,,,,,,,,,
1703161360.788722,1703161360.788580,46.000000,0.000000,4170.512695,4152.563965,4248.589844,4199.743652,4124.358887,4124.358887,4122.436035,4141.282227,4139.615234,4141.153809,4645.384766,4445.256348,4391.794922,4533.846191,0.000000,4.000000,80.000000,,,,0.000000,4.000000,4.000000,4.000000,4.000000,4.000000,4.000000,4.000000,4.000000,4.000000,4.000000,4.000000,4.000000,4.000000,4.000000,100.000000,,,,,,,,,,,,,,,,,,,,,,,,,,,,
1703161360.796530,1703161360.796288,47.000000,0.000000,4172.179688,4145.769043,4253.077148,4202.051270,4125.897461,4123.205078,4122.436035,4147.436035,4142.307617,4153.333496,4646.153809,4449.615234,4393.205078,4539.230957,0.000000,4.000000,80.000000,,,,0.000000,4.000000,4.000000,4.000000,4.000000,4.000000,4.000000,4.000000,4.000000,4.000000,4.000000,4.000000,4.000000,4.000000,4.000000,100.000000,,,,,,,,,,,,,,,,,,,,,,,,,,,,
1703161360.804338,1703161360.804196,48.000000,0.000000,4171.153809,4136.282227,4253.333496,4192.820313,4124.358887,4122.179688,4121.666504,4153.333496,4144.102539,4152.948730,4650.000000,4450.384766,4388.846191,4534.871582,0.000000,4.000000,80.000000,,,,0.000000,4.000000,4.000000,4.000000,4.000000,4.000000,4.000000,4.000000,4.000000,4.000000,4.000000,4.000000,4.000000,4.000000,4.000000,100.000000,,,,,,,,,,,,,,,,,12.000000,0.000000,0.557083,0.444641,-0.469727,0.520874,0.987425,0.062019,0.149921,-16.999094,-32.247559,65.561356
1703161360.812147,1703161360.812004,49.000000,0.000000,4167.948730,4134.871582,4248.846191,4183.461426,4121.410156,4114.871582,4120.000000,4153.974121,4140.512695,4141.922852,4644.358887,4445.128418,4379.230957,4524.358887,0.000000,4.000000,80.000000,,,,0.000000,4.000000,4.000000,4.000000,4.000000,4.000000,4.000000,4.000000,4.000000,4.000000,4.000000,4.000000,4.000000,4.000000,4.000000,100.000000,,,,,,,,,,,,,,,,,,,,,,,,,,,,
1703161360.819955,1703161360.819912,50.000000,0.000000,4166.922852,4137.948730,4245.641113,4186.025879,4120.000000,4108.717773,4120.769043,4149.615234,4132.436035,4137.692383,4641.794922,4444.871582,4380.897461,4523.333496,0.000000,4.000000,80.000000,,,,0.000000,4.000000,4.000000,4.000000,4.000000,4.000000,4.000000,4.000000,4.000000,4.000000,4.000000,4.000000,4.000000,4.000000,4.000000,100.000000,,,,,,,,,,,,,,,,,,,,,,,,,,,,
1703161360.827762,1703161360.827721,51.000000,0.000000,4171.794922,4144.487305,4250.769043,4196.153809,4121.282227,4107.692383,4120.512695,4144.102539,4125.641113,4144.871582,4648.846191,4448.461426,4391.922852,4532.179688,0.000000,4.000000,80.000000,,,,0.000000,4.000000,4.000000,4.000000,4.000000,4.000000,4.000000,4.000000,4.000000,4.000000,4.000000,4.000000,4.000000,4.000000,4.000000,100.000000,,,,,,,,,,,,,,,,,,,,,,,,,,,,
1703161360.835571,1703161360.835629,52.000000,0.000000,4179.615234,4152.307617,4255.256348,4204.102539,4124.871582,4109.743652,4118.974121,4133.974121,4122.948730,4148.077148,4650.897461,4447.948730,4396.666504,4538.205078,0.000000,4.000000,80.000000,,,,0.000000,4.000000,4.000000,4.000000,4.000000,4.000000,4.000000,4.000000,4.000000,4.000000,4.000000,4.000000,4.000000,4.000000,4.000000,100.000000,,,,,,,,,,,,,,,,,13.000000,0.000000,0.557251,0.444580,-0.469788,0.520691,0.981077,0.052741,0.150897,-17.065851,-32.256138,65.521881
1703161360.843379,1703161360.843437,53.000000,0.000000,4180.000000,4154.230957,4253.333496,4205.128418,4129.358887,4116.794922,4122.051270,4123.205078,4120.769043,4142.051270,4648.461426,4443.461426,4397.948730,4533.589844,0.000000,4.000000,80.000000,,,,0.000000,4.000000,4.000000,4.000000,4.000000,4.000000,4.000000,4.000000,4.000000,4.000000,4.000000,4.000000,4.000000,4.000000,4.000000,100.000000,,,,,,,,,,,,,,,,,,,,,,,,,,,,
1703161360.851187,1703161360.851345,54.000000,0.000000,4170.512695,4151.922852,4248.077148,4203.333496,4134.487305,4126.922852,4126.282227,4125.641113,4120.128418,4136.922852,4646.410156,4436.282227,4392.436035,4525.000000,0.000000,4.000000,80.000000,,,,0.000000,4.000000,4.000000,4.000000,4.000000,4.000000,4.000000,4.000000,4.000000,4.000000,4.000000,4.000000,4.000000,4.000000,4.000000,100.000000,,,,,,,,,,,,,,,,,,,,,,,,,,,,
1703161360.858995,1703161360.859153,55.000000,0.000000,4165.512695,4148.077148,4244.358887,4201.025879,4140.384766,4129.358887,4125.897461,4135.128418,4126.282227,4136.282227,4643.461426,4428.974121,4382.436035,4521.922852,0.000000,4.000000,80.000000,,,,0.000000,4.000000,4.000000,4.000000,4.000000,4.000000,4.000000,4.000000,4.000000,4.000000,4.000000,4.000000,4.000000,4.000000,4.000000,100.000000,,,,,,,,,,,,,,,,,,,,,,,,,,,,
1703161360.866803,1703161360.867061,56.000000,0.000000,4169.230957,4143.717773,4246.025879,4200.128418,4135.384766,4128.333496,4122.948730,4143.846191,4139.487305,4141.922852,4646.153809,4431.922852,4385.256348,4525.256348,0.000000,4.000000,80.000000,,,,0.000000,4.000000,4.000000,4.000000,4.000000,4.000000,4.000000,4.000000,4.000000,4.000000,4.000000,4.000000,4.000000,4.000000,4.000000,100.000000,,,,,,,,,,,,,,,,,14.000000,0.000000,0.557531,0.444458,-0.469910,0.520386,0.984495,0.064949,0.153339,-17.059267,-32.213856,65.553032
1703161360.874611,1703161360.874870,57.000000,0.000000,4167.563965,4139.743652,4246.153809,4198.974121,4125.897461,4131.922852,4121.410156,4151.922852,4146.666504,4148.461426,4646.410156,4441.153809,4387.948730,4522.820313,0.000000,4.000000,80.000000,,,,0.000000,4.000000,4.000000,4.000000,4.000000,4.000000,4.000000,4.000000,4.000000,4.000000,4.000000,4.000000,4.000000,4.000000,4.000000,100.000000,1.000000,100.000000,4.000000,4.000000,4.000000,4.000000,4.000000,4.000000,4.000000,4.000000,4.000000,4.000000,4.000000,4.000000,4.000000,4.000000,,,,,,,,,,,,
1703161360.882419,1703161360.882778,58.000000,0.000000,4163.717773,4138.717773,4243.589844,4200.000000,4131.794922,4132.179688,4120.256348,4151.153809,4145.256348,4148.589844,4643.333496,4439.871582,4385.000000,4520.512695,0.000000,4.000000,80.000000,,,,0.000000,4.000000,4.000000,4.000000,4.000000,4.000000,4.000000,4.000000,4.000000,4.000000,4.000000,4.000000,4.000000,4.000000,4.000000,100.000000,,,,,,,,,,,,,,,,,,,,,,,,,,,,
1703161360.890227,1703161360.890585,59.000000,0.000000,4169.358887,4141.922852,4243.717773,4202.307617,4137.179688,4127.563965,4116.922852,4142.179688,4140.384766,4141.538574,4643.205078,4433.589844,4388.077148,4524.615234,0.000000,4.000000,80.000000,,,,0.000000,4.000000,4.000000,4.000000,4.000000,4.000000,4.000000,4.000000,4.000000,4.000000,4.000000,4.000000,4.000000,4.000000,4.000000,100.000000,,,,,,,,,,,,,,,,,,,,,,,,,,,,
1703161360.898035,1703161360.898493,60.000000,0.000000,4165.897461,4137.307617,4241.410156,4201.025879,4126.410156,4123.333496,4111.282227,4136.153809,4131.666504,4133.205078,4635.000000,4430.384766,4385.000000,4517.307617,0.000000,4.000000,80.000000,,,,0.000000,4.000000,4.000000,4.000000,4.000000,4.000000,4.000000,4.000000,4.000000,4.000000,4.000000,4.000000,4.000000,4.000000,4.000000,100.000000,,,,,,,,,,,,,,,,,15.000000,0.000000,0.557699,0.444397,-0.469971,0.520203,0.983030,0.048834,0.141619,-17.203341,-32.309135,65.514389
1703161360.905843,1703161360.906301,61.000000,0.000000,4152.051270,4124.743652,4235.384766,4195.512695,4117.692383,4119.871582,4110.000000,4137.179688,4129.102539,4128.589844,4625.128418,4428.974121,4371.282227,4504.743652,0.000000,4.000000,80.000000,,,,0.000000,4.000000,4.000000,4.000000,4.000000,4.000000,4.000000,4.000000,4.000000,4.000000,4.000000,4.000000,4.000000,4.000000,4.000000,100.000000,,,,,,,,,,,,,,,,,,,,,,,,,,,,
1703161360.913651,1703161360.914209,62.000000,0.000000,4157.307617,4125.000000,4240.256348,4198.077148,4121.025879,4119.102539,4118.333496,4146.666504,4131.794922,4128.333496,4630.512695,4436.538574,4373.077148,4514.615234,0.000000,4.000000,80.000000,,,,0.000000,4.000000,4.000000,4.000000,4.000000,4.000000,4.000000,4.000000,4.000000,4.000000,4.000000,4.000000,4.000000,4.000000,4.000000,100.000000,,,,,,,,,,,,,,,,,,,,,,,,,,,,
1703161360.921459,1703161360.922017,63.000000,0.000000,4180.256348,4142.820313,4255.641113,4212.179688,4123.974121,4122.563965,4124.487305,4151.922852,4126.538574,4136.025879,4644.871582,4451.153809,4391.922852,4536.410156,0.000000,4.000000,80.000000,,,,0.000000,4.000000,4.000000,4.000000,4.000000,4.000000,4.000000,4.000000,4.000000,4.000000,4.000000,4.000000,4.000000,4.000000,4.000000,100.000000,,,,,,,,,,,,,,,,,,,,,,,,,,,,
1703161360.929267,1703161360.929725,64.000000,0.000000,4189.871582,4154.615234,4260.769043,4220.128418,4124.743652,4122.179688,4117.820313,4141.410156,4119.615234,4146.538574,4651.153809,4454.871582,4401.025879,4541.794922,5227.000000,4.000000,80.000000,,,,0.000000,4.000000,4.000000,4.000000,4.000000,4.000000,4.000000,4.000000,4.000000,4.000000,4.000000,4.000000,4.000000,4.000000,4.000000,100.000000,,,,,,,,,,,,,,,,,16.000000,0.000000,0.557618,0.444641,-0.469971,0.520081,0.989867,0.060554,0.152362,-17.166340,-32.311558,65.596291
1703161360.937075,1703161360.937633,65.000000,0.000000,4185.512695,4152.436035,4255.384766,4218.333496,4128.589844,4119.230957,4112.436035,4132.692383,4122.179688,4148.461426,4650.384766,4446.538574,4399.871582,4537.948730,5337.000000,4.000000,80.000000,,,,0.000000,4.000000,4.000000,4.000000,4.000000,4.000000,4.000000,4.000000,4.000000,4.000000,4.000000,4.000000,4.000000,4.000000,4.000000,100.000000,,,,,,,,,,,,,,,,,,,,,,,,,,,,
1703161360.944883,1703161360.945442,66.000000,0.000000,4183.333496,4152.179688,4250.769043,4217.948730,4135.128418,4127.563965,4117.307617,4135.128418,4124.358887,4140.256348,4648.333496,4438.461426,4398.461426,4537.051270,5267.000000,4.000000,80.000000,,,,0.000000,4.000000,4.000000,4.000000,4.000000,4.000000,4.000000,4.000000,4.000000,4.000000,4.000000,4.000000,4.000000,4.000000,4.000000,100.000000,,,,,,,,,,,,,,,,,,,,,,,,,,,,
1703161360.952691,1703161360.953350,67.000000,0.000000,4182.436035,4151.538574,4250.128418,4218.205078,4136.538574,4135.384766,4123.717773,4136.666504,4126.282227,4135.256348,4647.692383,4437.948730,4398.846191,4535.128418,5245.000000,4.000000,80.000000,,,,0.000000,4.000000,4.000000,4.000000,4.000000,4.000000,4.000000,4.000000,4.000000,4.000000,4.000000,4.000000,4.000000,4.000000,4.000000,100.000000,,,,,,,,,,,,,,,,,,,,,,,,,,,,
1703161360.960499,1703161360.961158,68.000000,0.000000,4180.384766,4146.025879,4252.051270,4215.769043,4132.692383,4132.307617,4122.436035,4137.563965,4136.282227,4143.846191,4647.436035,4445.641113,4398.974121,4534.102539,5090.000000,4.000000,80.000000,,,,0.000000,4.000000,4.000000,4.000000,4.000000,4.000000,4.000000,4.000000,4.000000,4.000000,4.000000,4.000000,4.000000,4.000000,4.000000,100.000000,,,,,,,,,,,,,,,,,17.000000,0.000000,0.557626,0.444702,-0.469971,0.520020,0.983030,0.052741,0.154804,-17.283039,-32.430401,65.486656
1703161360.968308,1703161360.969066,69.000000,0.000000,4181.025879,4146.794922,4252.051270,4216.794922,4134.743652,4132.051270,4115.641113,4139.102539,4140.128418,4149.615234,4648.974121,4447.051270,4398.461426,4534.487305,5140.000000,4.000000,80.000000,,,,0.000000,4.000000,4.000000,4.000000,4.000000,4.000000,4.000000,4.000000,4.000000,4.000000,4.000000,4.000000,4.000000,4.000000,4.000000,100.000000,,,,,,,,,,,,,,,,,,,,,,,,,,,,
1703161360.976116,1703161360.976874,70.000000,0.000000,4183.974121,4155.128418,4250.384766,4221.666504,4137.692383,4138.846191,4113.846191,4142.307617,4143.717773,4150.897461,4657.820313,4442.179688,4403.717773,4537.692383,5035.000000,4.000000,80.000000,,,,0.000000,4.000000,4.000000,4.000000,4.000000,4.000000,4.000000,4.000000,4.000000,4.000000,4.000000,4.000000,4.000000,4.000000,4.000000,100.000000,,,,,,,,,,,,,,,,,,,,,,,,,,,,
1703161360.983924,1703161360.984682,71.000000,0.000000,4183.333496,4156.410156,4249.871582,4219.743652,4138.717773,4137.307617,4118.333496,4151.153809,4154.871582,4156.153809,4661.153809,4444.743652,4406.410156,4539.487305,5240.000000,4.000000,80.000000,,,,0.000000,4.000000,4.000000,4.000000,4.000000,4.000000,4.000000,4.000000,4.000000,4.000000,4.000000,4.000000,4.000000,4.000000,4.000000,100.000000,,,,,,,,,,,,,,,,,,,,,,,,,,,,
1703161360.991732,1703161360.992390,72.000000,0.000000,4174.102539,4146.410156,4247.436035,4215.000000,4137.051270,4127.692383,4120.256348,4154.358887,4152.563965,4150.128418,4648.589844,4445.000000,4396.410156,4532.692383,5003.000000,4.000000,80.000000,,,,0.000000,4.000000,4.000000,4.000000,4.000000,4.000000,4.000000,4.000000,4.000000,4.000000,4.000000,4.000000,4.000000,4.000000,4.000000,100.000000,,,,,,,,,,,,,,,,,18.000000,0.000000,0.557635,0.444763,-0.469971,0.519958,0.972775,0.043951,0.148944,-17.354734,-32.504028,65.537994
1703161360.999540,1703161361.000198,73.000000,0.000000,4168.717773,4140.769043,4245.897461,4213.974121,4127.179688,4122.692383,4120.256348,4152.307617,4140.897461,4138.846191,4641.282227,4440.512695,4388.974121,4529.487305,5242.000000,4.000000,80.000000,,,,0.000000,4.000000,4.000000,4.000000,4.000000,4.000000,4.000000,4.000000,4.000000,4.000000,4.000000,4.000000,4.000000,4.000000,4.000000,100.000000,,,,,,,,,,,,,,,,,,,,,,,,,,,,
1703161361.007348,1703161361.007906,74.000000,0.000000,4175.000000,4141.282227,4249.615234,4216.410156,4122.307617,4122.563965,4124.230957,4150.128418,4136.794922,4137.820313,4648.333496,4441.282227,4394.230957,4534.871582,5804.000000,4.000000,80.000000,,,,0.000000,4.000000,4.000000,4.000000,4.000000,4.000000,4.000000,4.000000,4.000000,4.000000,4.000000,4.000000,4.000000,4.000000,4.000000,100.000000,,,,,,,,,,,,,,,,,,,,,,,,,,,,
1703161361.015156,1703161361.015815,75.000000,0.000000,4177.820313,4140.128418,4249.102539,4217.436035,4126.922852,4121.282227,4123.205078,4143.717773,4130.256348,4136.794922,4646.410156,4441.922852,4394.615234,4531.666504,6132.000000,4.000000,80.000000,,,,0.000000,4.000000,4.000000,4.000000,4.000000,4.000000,4.000000,4.000000,4.000000,4.000000,4.000000,4.000000,4.000000,4.000000,4.000000,100.000000,,,,,,,,,,,,,,,,,,,,,,,,,,,,
1703161361.022964,1703161361.023623,76.000000,0.000000,4178.205078,4141.410156,4247.179688,4218.205078,4124.358887,4116.282227,4113.974121,4136.410156,4115.897461,4124.487305,4636.538574,4442.307617,4389.487305,4528.205078,6559.000000,4.000000,80.000000,,,,0.000000,4.000000,4.000000,4.000000,4.000000,4.000000,4.000000,4.000000,4.000000,4.000000,4.000000,4.000000,4.000000,4.000000,4.000000,100.000000,,,,,,,,,,,,,,,,,19.000000,0.000000,0.557632,0.444702,-0.470032,0.519958,0.978147,0.054206,0.156757,-17.119261,-32.403625,65.534195
1703161361.030772,1703161361.031531,77.000000,0.000000,4183.717773,4149.102539,4253.461426,4222.820313,4119.871582,4115.000000,4108.846191,4128.717773,4105.256348,4120.897461,4640.512695,4444.871582,4393.461426,4534.743652,6733.000000,4.000000,80.000000,,,,0.000000,4.000000,4.000000,4.000000,4.000000,4.000000,4.000000,4.000000,4.000000,4.000000,4.000000,4.000000,4.000000,4.000000,4.000000,100.000000,,,,,,,,,,,,,,,,,,,,,,,,,,,,
1703161361.038580,1703161361.039339,78.000000,0.000000,4190.256348,4157.563965,4260.769043,4229.230957,4126.666504,4118.974121,4109.230957,4122.692383,4109.615234,4133.205078,4648.077148,4443.846191,4402.692383,4542.051270,5804.000000,4.000000,80.000000,,,,0.000000,4.000000,4.000000,4.000000,4.000000,4.000000,4.000000,4.000000,4.000000,4.000000,4.000000,4.000000,4.000000,4.000000,4.000000,100.000000,,,,,,,,,,,,,,,,,,,,,,,,,,,,
1703161361.046388,1703161361.047247,79.000000,0.000000,4193.461426,4160.000000,4261.538574,4233.333496,4132.307617,4120.641113,4110.128418,4128.461426,4129.102539,4141.922852,4650.512695,4444.743652,4408.974121,4548.846191,6132.000000,4.000000,80.000000,,,,0.000000,4.000000,4.000000,4.000000,4.000000,4.000000,4.000000,4.000000,4.000000,4.000000,4.000000,4.000000,4.000000,4.000000,4.000000,100.000000,,,,,,,,,,,,,,,,,,,,,,,,,,,,
1703161361.054196,1703161361.055055,80.000000,0.000000,4190.384766,4158.846191,4258.846191,4231.922852,4131.410156,4121.538574,4111.794922,4138.205078,4138.846191,4140.512695,4652.436035,4448.333496,4412.179688,4547.307617,6559.000000,4.000000,80.000000,,,,0.000000,4.000000,4.000000,4.000000,4.000000,4.000000,4.000000,4.000000,4.000000,4.000000,4.000000,4.000000,4.000000,4.000000,4.000000,100.000000,,,,,,,,,,,,,,,,,20.000000,0.000000,0.557569,0.444580,-0.470154,0.520020,0.979123,0.067879,0.153827,-17.157335,-32.429928,65.480774
1703161361.062004,1703161361.062963,81.000000,0.000000,4185.256348,4156.025879,4257.820313,4228.461426,4133.846191,4127.307617,4112.692383,4137.436035,4132.051270,4137.436035,4656.153809,4448.333496,4412.948730,4540.256348,6733.000000,4.000000,80.000000,,,,0.000000,4.000000,4.000000,4.000000,4.000000,4.000000,4.000000,4.000000,4.000000,4.000000,4.000000,4.000000,4.000000,4.000000,4.000000,100.000000,,,,,,,,,,,,,,,,,,,,,,,,,,,,
1703161361.069812,1703161361.070771,82.000000,0.000000,4187.307617,4157.307617,4260.256348,4231.410156,4138.974121,4130.769043,4109.871582,4134.358887,4132.948730,4140.897461,4658.974121,4448.717773,4414.230957,4545.641113,5804.000000,4.000000,80.000000,,,,0.000000,4.000000,4.000000,4.000000,4.000000,4.000000,4.000000,4.000000,4.000000,4.000000,4.000000,4.000000,4.000000,4.000000,4.000000,100.000000,,,,,,,,,,,,,,,,,,,,,,,,,,,,
1703161361.077620,1703161361.078679,83.000000,0.000000,4192.179688,4159.358887,4261.922852,4233.077148,4140.769043,4126.794922,4106.666504,4136.922852,4142.820313,4144.871582,4658.205078,4450.256348,4412.820313,4550.000000,6132.000000,4.000000,80.000000,,,,0.000000,4.000000,4.000000,4.000000,4.000000,4.000000,4.000000,4.000000,4.000000,4.000000,4.000000,4.000000,4.000000,4.000000,4.000000,100.000000,,,,,,,,,,,,,,,,,,,,,,,,,,,,
1703161361.085428,1703161361.086487,84.000000,0.000000,4182.307617,4149.871582,4255.256348,4223.461426,4134.358887,4126.282227,4107.820313,4141.666504,4142.436035,4143.461426,4654.358887,4447.051270,4404.230957,4539.615234,6559.000000,4.000000,80.000000,,,,0.000000,4.000000,4.000000,4.000000,4.000000,4.000000,4.000000,4.000000,4.000000,4.000000,4.000000,4.000000,4.000000,4.000000,4.000000,100.000000,,,,,,,,,,,,,,,,,21.000000,0.000000,0.557567,0.444519,-0.470215,0.520020,0.981565,0.061043,0.151386,-17.141602,-32.370270,65.466026
1703161361.093236,1703161361.094195,85.000000,0.000000,4169.743652,4139.358887,4246.282227,4213.846191,4126.410156,4128.461426,4113.974121,4146.538574,4139.615234,4143.333496,4653.846191,4444.358887,4400.256348,4535.000000,6733.000000,4.000000,80.000000,,,,0.000000,4.000000,4.000000,4.000000,4.000000,4.000000,4.000000,4.000000,4.000000,4.000000,4.000000,4.000000,4.000000,4.000000,4.000000,100.000000,,,,,,,,,,,,,,,,,,,,,,,,,,,,
1703161361.101044,1703161361.102003,86.000000,0.000000,4168.205078,4132.563965,4246.282227,4215.512695,4123.846191,4125.256348,4119.615234,4146.538574,4137.692383,4140.769043,4653.077148,4445.256348,4398.461426,4539.487305,5804.000000,4.000000,80.000000,,,,0.000000,4.000000,4.000000,4.000000,4.000000,4.000000,4.000000,4.000000,4.000000,4.000000,4.000000,4.000000,4.000000,4.000000,4.000000,100.000000,,,,,,,,,,,,,,,,,,,,,,,,,,,,
1703161361.108853,1703161361.109711,87.000000,0.000000,4167.179688,4128.077148,4248.846191,4215.769043,4121.794922,4122.179688,4121.153809,4140.384766,4126.666504,4130.128418,4642.563965,4444.358887,4392.436035,4536.794922,6132.000000,4.000000,80.000000,,,,0.000000,4.000000,4.000000,4.000000,4.000000,4.000000,4.000000,4.000000,4.000000,4.000000,4.000000,4.000000,4.000000,4.000000,4.000000,100.000000,,,,,,,,,,,,,,,,,,,,,,,,,,,,
1703161361.116660,1703161361.117519,88.000000,0.000000,4167.051270,4131.410156,4249.102539,4213.589844,4118.974121,4121.282227,4120.769043,4135.897461,4115.384766,4122.179688,4639.102539,4443.077148,4392.307617,4535.128418,6559.000000,4.000000,80.000000,,,,0.000000,4.000000,4.000000,4.000000,4.000000,4.000000,4.000000,4.000000,4.000000,4.000000,4.000000,4.000000,4.000000,4.000000,4.000000,100.000000,,,,,,,,,,,,,,,,,22.000000,0.000000,0.557632,0.444580,-0.470215,0.519897,0.976193,0.051276,0.159687,-17.410774,-32.333241,65.436096
1703161361.124468,1703161361.125227,89.000000,0.000000,4175.512695,4143.846191,4253.974121,4221.410156,4127.692383,4121.025879,4121.538574,4131.025879,4112.051270,4123.974121,4642.563965,4443.717773,4397.051270,4542.307617,6733.000000,4.000000,80.000000,,,,0.000000,4.000000,4.000000,4.000000,4.000000,4.000000,4.000000,4.000000,4.000000,4.000000,4.000000,4.000000,4.000000,4.000000,4.000000,100.000000,,,,,,,,,,,,,,,,,,,,,,,,,,,,
1703161361.132277,1703161361.133035,90.000000,0.000000,4185.128418,4151.922852,4262.179688,4231.410156,4139.487305,4124.743652,4124.615234,4129.102539,4117.051270,4130.769043,4646.282227,4449.871582,4403.717773,4551.153809,5804.000000,4.000000,80.000000,,,,0.000000,4.000000,4.000000,4.000000,4.000000,4.000000,4.000000,4.000000,4.000000,4.000000,4.000000,4.000000,4.000000,4.000000,4.000000,100.000000,,,,,,,,,,,,,,,,,,,,,,,,,,,,
1703161361.140085,1703161361.140743,91.000000,0.000000,4190.128418,4153.974121,4263.974121,4233.717773,4135.897461,4127.307617,4124.871582,4134.102539,4122.820313,4136.538574,4655.384766,4454.102539,4411.282227,4557.307617,6132.000000,4.000000,80.000000,,,,0.000000,4.000000,4.000000,4.000000,4.000000,4.000000,4.000000,4.000000,4.000000,4.000000,4.000000,4.000000,4.000000,4.000000,4.000000,100.000000,,,,,,,,,,,,,,,,,,,,,,,,,,,,
1703161361.147893,1703161361.148551,92.000000,0.000000,4198.717773,4164.743652,4262.820313,4235.128418,4134.102539,4129.358887,4123.974121,4134.615234,4123.205078,4143.589844,4663.333496,4450.769043,4421.666504,4563.077148,6559.000000,4.000000,80.000000,,,,0.000000,4.000000,4.000000,4.000000,4.000000,4.000000,4.000000,4.000000,4.000000,4.000000,4.000000,4.000000,4.000000,4.000000,4.000000,100.000000,,,,,,,,,,,,,,,,,23.000000,0.000000,0.557694,0.444458,-0.470459,0.519714,0.974240,0.057624,0.142596,-17.436363,-32.416584,65.442482
1703161361.155701,1703161361.156259,93.000000,0.000000,4201.153809,4169.102539,4265.769043,4236.922852,4141.410156,4131.666504,4122.820313,4128.717773,4123.205078,4148.717773,4664.358887,4453.846191,4427.179688,4567.692383,6733.000000,4.000000,80.000000,,,,0.000000,4.000000,4.000000,4.000000,4.000000,4.000000,4.000000,4.000000,4.000000,4.000000,4.000000,4.000000,4.000000,4.000000,4.000000,100.000000,,,,,,,,,,,,,,,,,,,,,,,,,,,,
1703161361.163509,1703161361.164067,94.000000,0.000000,4192.051270,4160.128418,4263.589844,4234.230957,4140.256348,4126.922852,4115.897461,4126.025879,4126.538574,4145.256348,4659.871582,4457.179688,4422.692383,4563.333496,5804.000000,4.000000,80.000000,,,,0.000000,4.000000,4.000000,4.000000,4.000000,4.000000,4.000000,4.000000,4.000000,4.000000,4.000000,4.000000,4.000000,4.000000,4.000000,100.000000,,,,,,,,,,,,,,,,,,,,,,,,,,,,
1703161361.171317,1703161361.171775,95.000000,0.000000,4184.230957,4155.000000,4254.102539,4229.615234,4137.307617,4123.077148,4112.051270,4128.333496,4129.743652,4139.102539,4650.769043,4448.333496,4410.641113,4551.410156,6132.000000,4.000000,80.000000,,,,0.000000,4.000000,4.000000,4.000000,4.000000,4.000000,4.000000,4.000000,4.000000,4.000000,4.000000,4.000000,4.000000,4.000000,4.000000,100.000000,,,,,,,,,,,,,,,,,,,,,,,,,,,,
1703161361.179125,1703161361.179583,96.000000,0.000000,4176.025879,4150.641113,4248.205078,4222.051270,4136.282227,4127.436035,4117.563965,4132.179688,4128.974121,4135.000000,4641.282227,4437.307617,4398.717773,4541.922852,6559.000000,4.000000,80.000000,,,,0.000000,4.000000,4.000000,4.000000,4.000000,4.000000,4.000000,4.000000,4.000000,4.000000,4.000000,4.000000,4.000000,4.000000,4.000000,100.000000,,,,,,,,,,,,,,,,,24.000000,0.000000,0.557813,0.444458,-0.470520,0.519531,0.977658,0.068856,0.147967,-17.326061,-32.408260,65.414902
1703161361.186933,1703161361.187291,97.000000,0.000000,4168.461426,4143.846191,4246.922852,4215.641113,4128.205078,4127.307617,4121.538574,4136.794922,4128.974121,4128.717773,4639.743652,4435.128418,4390.512695,4538.461426,6733.000000,4.000000,80.000000,,,,0.000000,4.000000,4.000000,4.000000,4.000000,4.000000,4.000000,4.000000,4.000000,4.000000,4.000000,4.000000,4.000000,4.000000,4.000000,100.000000,,,,,,,,,,,,,,,,,,,,,,,,,,,,
1703161361.194741,1703161361.195200,98.000000,0.000000,4163.077148,4142.948730,4245.000000,4215.897461,4123.846191,4122.179688,4121.794922,4139.871582,4128.974121,4123.717773,4637.692383,4433.717773,4380.128418,4532.436035,5804.000000,4.000000,80.000000,,,,0.000000,4.000000,4.000000,4.000000,4.000000,4.000000,4.000000,4.000000,4.000000,4.000000,4.000000,4.000000,4.000000,4.000000,4.000000,100.000000,,,,,,,,,,,,,,,,,,,,,,,,,,,,
1703161361.202549,1703161361.203008,99.000000,0.000000,4156.922852,4140.512695,4241.410156,4214.230957,4125.897461,4123.589844,4120.256348,4139.487305,4125.000000,4123.589844,4627.563965,4430.000000,4373.846191,4523.974121,6132.000000,4.000000,80.000000,,,,0.000000,4.000000,4.000000,4.000000,4.000000,4.000000,4.000000,4.000000,4.000000,4.000000,4.000000,4.000000,4.000000,4.000000,4.000000,100.000000,,,,,,,,,,,,,,,,,,,,,,,,,,,,
1703161361.210357,1703161361.210816,100.000000,0.000000,4159.230957,4135.256348,4244.358887,4213.333496,4122.820313,4121.410156,4115.512695,4138.077148,4122.563965,4121.538574,4624.102539,4434.358887,4375.128418,4528.461426,6559.000000,4.000000,80.000000,,,,0.000000,4.000000,4.000000,4.000000,4.000000,4.000000,4.000000,4.000000,4.000000,4.000000,4.000000,4.000000,4.000000,4.000000,4.000000,100.000000,,,,,,,,,,,,,,,,,25.000000,0.000000,0.557924,0.444397,-0.470581,0.519409,0.967892,0.060554,0.147479,-17.393456,-32.450768,65.473412
1703161361.218165,1703161361.218524,101.000000,0.000000,4170.384766,4144.615234,4252.948730,4223.205078,4123.333496,4113.974121,4115.000000,4137.051270,4124.487305,4119.743652,4631.794922,4441.794922,4379.615234,4539.230957,6733.000000,4.000000,80.000000,,,,0.000000,4.000000,4.000000,4.000000,4.000000,4.000000,4.000000,4.000000,4.000000,4.000000,4.000000,4.000000,4.000000,4.000000,4.000000,100.000000,,,,,,,,,,,,,,,,,,,,,,,,,,,,
1703161361.225973,1703161361.226432,102.000000,0.000000,4175.000000,4154.871582,4256.410156,4233.077148,4126.922852,4112.307617,4115.897461,4134.487305,4120.128418,4122.179688,4634.615234,4444.487305,4382.563965,4540.512695,5804.000000,4.000000,80.000000,,,,0.000000,4.000000,4.000000,4.000000,4.000000,4.000000,4.000000,4.000000,4.000000,4.000000,4.000000,4.000000,4.000000,4.000000,4.000000,100.000000,,,,,,,,,,,,,,,,,,,,,,,,,,,,
1703161361.233781,1703161361.234240,103.000000,0.000000,4172.948730,4152.436035,4252.179688,4229.871582,4123.461426,4111.794922,4108.717773,4128.205078,4108.077148,4118.974121,4631.282227,4442.307617,4383.077148,4538.461426,6132.000000,4.000000,80.000000,,,,0.000000,4.000000,4.000000,4.000000,4.000000,4.000000,4.000000,4.000000,4.000000,4.000000,4.000000,4.000000,4.000000,4.000000,4.000000,100.000000,,,,,,,,,,,,,,,,,,,,,,,,,,,,
1703161361.241589,1703161361.242148,104.000000,0.000000,4171.025879,4148.974121,4248.077148,4222.307617,4122.051270,4111.282227,4105.000000,4122.436035,4101.410156,4111.282227,4631.025879,4437.692383,4380.897461,4535.769043,6559.000000,4.000000,80.000000,,,,0.000000,4.000000,4.000000,4.000000,4.000000,4.000000,4.000000,4.000000,4.000000,4.000000,4.000000,4.000000,4.000000,4.000000,4.000000,100.000000,,,,,,,,,,,,,,,,,26.000000,0.000000,0.558161,0.444092,-0.470520,0.519470,1.006959,0.056648,0.148944,-17.420776,-32.489025,65.609406
1703161361.249397,1703161361.249956,105.000000,0.000000,4166.794922,4150.256348,4247.948730,4217.820313,4126.153809,4116.922852,4108.077148,4118.461426,4102.692383,4110.256348,4627.948730,4432.563965,4375.641113,4530.128418,6733.000000,4.000000,80.000000,,,,0.000000,4.000000,4.000000,4.000000,4.000000,4.000000,4.000000,4.000000,4.000000,4.000000,4.000000,4.000000,4.000000,4.000000,4.000000,100.000000,,,,,,,,,,,,,,,,,,,,,,,,,,,,
1703161361.257205,1703161361.257864,106.000000,0.000000,4165.769043,4152.948730,4248.333496,4219.230957,4129.743652,4123.846191,4107.563965,4120.512695,4110.256348,4118.589844,4630.641113,4433.461426,4381.153809,4531.282227,5804.000000,4.000000,80.000000,,,,0.000000,4.000000,4.000000,4.000000,4.000000,4.000000,4.000000,4.000000,4.000000,4.000000,4.000000,4.000000,4.000000,4.000000,4.000000,100.000000,,,,,,,,,,,,,,,,,,,,,,,,,,,,
1703161361.265013,1703161361.265672,107.000000,0.000000,4170.000000,4155.512695,4248.717773,4228.333496,4134.743652,4123.589844,4105.769043,4133.589844,4128.846191,4133.077148,4650.256348,4443.717773,4397.051270,4539.871582,6132.000000,4.000000,80.000000,,,,0.000000,4.000000,4.000000,4.000000,4.000000,4.000000,4.000000,4.000000,4.000000,4.000000,4.000000,4.000000,4.000000,4.000000,4.000000,100.000000,,,,,,,,,,,,,,,,,,,,,,,,,,,,
1703161361.272822,1703161361.273579,108.000000,0.000000,4172.436035,4156.538574,4249.358887,4231.538574,4139.230957,4123.077148,4105.769043,4142.692383,4143.205078,4143.846191,4661.666504,4448.717773,4404.487305,4542.179688,6559.000000,4.000000,80.000000,,,,0.000000,4.000000,4.000000,4.000000,4.000000,4.000000,4.000000,4.000000,4.000000,4.000000,4.000000,4.000000,4.000000,4.000000,4.000000,100.000000,,,,,,,,,,,,,,,,,27.000000,0.000000,0.558101,0.443787,-0.470947,0.519409,0.983030,0.055671,0.143084,-17.395365,-32.523453,65.565132
1703161361.280630,1703161361.281387,109.000000,0.000000,4166.666504,4150.769043,4245.384766,4223.205078,4138.205078,4126.538574,4110.512695,4140.769043,4142.179688,4138.461426,4650.512695,4441.922852,4396.794922,4538.717773,6733.000000,4.000000,80.000000,,,,0.000000,4.000000,4.000000,4.000000,4.000000,4.000000,4.000000,4.000000,4.000000,4.000000,4.000000,4.000000,4.000000,4.000000,4.000000,100.000000,,,,,,,,,,,,,,,,,,,,,,,,,,,,
1703161361.288437,1703161361.289095,110.000000,0.000000,4155.512695,4143.077148,4240.128418,4217.692383,4137.563965,4132.179688,4121.922852,4142.563965,4140.512695,4125.641113,4638.205078,4435.128418,4387.436035,4536.282227,5804.000000,4.000000,80.000000,,,,0.000000,4.000000,4.000000,4.000000,4.000000,4.000000,4.000000,4.000000,4.000000,4.000000,4.000000,4.000000,4.000000,4.000000,4.000000,100.000000,,,,,,,,,,,,,,,,,,,,,,,,,,,,
1703161361.296246,1703161361.296903,111.000000,0.000000,4150.641113,4133.205078,4236.282227,4215.128418,4136.794922,4133.717773,4126.410156,4146.538574,4141.153809,4116.153809,4630.256348,4432.692383,4378.333496,4529.358887,6132.000000,4.000000,80.000000,,,,0.000000,4.000000,4.000000,4.000000,4.000000,4.000000,4.000000,4.000000,4.000000,4.000000,4.000000,4.000000,4.000000,4.000000,4.000000,100.000000,,,,,,,,,,,,,,,,,,,,,,,,,,,,
1703161361.304054,1703161361.304611,112.000000,0.000000,4151.794922,4122.563965,4234.743652,4209.487305,4126.922852,4126.666504,4123.205078,4144.615234,4138.461426,4108.077148,4625.512695,4431.153809,4367.563965,4521.538574,6559.000000,4.000000,80.000000,,,,0.000000,4.000000,4.000000,4.000000,4.000000,4.000000,4.000000,4.000000,4.000000,4.000000,4.000000,4.000000,4.000000,4.000000,4.000000,100.000000,,,,,,,,,,,,,,,,,28.000000,0.000000,0.557983,0.443604,-0.471191,0.519470,0.980100,0.053717,0.144549,-17.305828,-32.487778,65.508621
1703161361.311862,1703161361.312419,113.000000,0.000000,4152.307617,4124.358887,4237.436035,4211.410156,4118.974121,4122.051270,4124.615234,4141.794922,4137.820313,4103.846191,4627.179688,4432.179688,4365.897461,4525.384766,6733.000000,4.000000,80.000000,,,,0.000000,4.000000,4.000000,4.000000,4.000000,4.000000,4.000000,4.000000,4.000000,4.000000,4.000000,4.000000,4.000000,4.000000,4.000000,100.000000,,,,,,,,,,,,,,,,,,,,,,,,,,,,
1703161361.319670,1703161361.320128,114.000000,0.000000,4153.077148,4135.641113,4242.692383,4216.922852,4121.922852,4120.384766,4125.128418,4138.846191,4136.025879,4105.128418,4628.717773,4431.538574,4370.000000,4535.384766,5804.000000,4.000000,80.000000,,,,0.000000,4.000000,4.000000,4.000000,4.000000,4.000000,4.000000,4.000000,4.000000,4.000000,4.000000,4.000000,4.000000,4.000000,4.000000,100.000000,,,,,,,,,,,,,,,,,,,,,,,,,,,,
1703161361.327478,1703161361.327936,115.000000,0.000000,4156.538574,4137.692383,4244.615234,4217.179688,4127.307617,4114.358887,4117.051270,4135.384766,4129.358887,4107.692383,4628.846191,4431.153809,4373.205078,4535.641113,6132.000000,4.000000,80.000000,,,,0.000000,4.000000,4.000000,4.000000,4.000000,4.000000,4.000000,4.000000,4.000000,4.000000,4.000000,4.000000,4.000000,4.000000,4.000000,100.000000,,,,,,,,,,,,,,,,,,,,,,,,,,,,
1703161361.335286,1703161361.335644,116.000000,0.000000,4164.230957,4134.615234,4246.666504,4222.436035,4127.563965,4114.230957,4110.000000,4137.436035,4126.538574,4110.128418,4633.717773,4439.871582,4379.358887,4537.179688,6559.000000,4.000000,80.000000,,,,0.000000,4.000000,4.000000,4.000000,4.000000,4.000000,4.000000,4.000000,4.000000,4.000000,4.000000,4.000000,4.000000,4.000000,4.000000,100.000000,,,,,,,,,,,,,,,,,29.000000,0.000000,0.557755,0.443481,-0.471375,0.519653,0.973752,0.062508,0.148944,-17.358580,-32.422333,65.457756
1703161361.343094,1703161361.343452,117.000000,0.000000,4170.256348,4139.871582,4249.615234,4229.230957,4122.948730,4120.641113,4108.333496,4131.794922,4122.307617,4111.282227,4636.666504,4442.436035,4384.102539,4544.230957,6733.000000,4.000000,80.000000,,,,0.000000,4.000000,4.000000,4.000000,4.000000,4.000000,4.000000,4.000000,4.000000,4.000000,4.000000,4.000000,4.000000,4.000000,4.000000,100.000000,,,,,,,,,,,,,,,,,,,,,,,,,,,,
1703161361.350902,1703161361.351160,118.000000,0.000000,4168.589844,4141.025879,4248.717773,4228.333496,4125.128418,4120.897461,4106.282227,4123.589844,4117.179688,4113.589844,4636.666504,4432.563965,4381.538574,4541.666504,5804.000000,4.000000,80.000000,,,,0.000000,4.000000,4.000000,4.000000,4.000000,4.000000,4.000000,4.000000,4.000000,4.000000,4.000000,4.000000,4.000000,4.000000,4.000000,100.000000,,,,,,,,,,,,,,,,,,,,,,,,,,,,
1703161361.358710,1703161361.358968,119.000000,0.000000,4167.051270,4139.487305,4247.179688,4224.230957,4136.666504,4122.820313,4106.538574,4130.256348,4125.897461,4121.410156,4644.487305,4434.615234,4387.307617,4542.692383,6132.000000,4.000000,80.000000,,,,0.000000,4.000000,4.000000,4.000000,4.000000,4.000000,4.000000,4.000000,4.000000,4.000000,4.000000,4.000000,4.000000,4.000000,4.000000,100.000000,,,,,,,,,,,,,,,,,,,,,,,,,,,,
1703161361.366518,1703161361.366676,120.000000,0.000000,4171.153809,4143.589844,4248.461426,4220.641113,4140.769043,4124.487305,4107.051270,4145.256348,4139.487305,4131.922852,4654.230957,4446.282227,4396.794922,4554.743652,6559.000000,4.000000,80.000000,,,,0.000000,4.000000,4.000000,4.000000,4.000000,4.000000,4.000000,4.000000,4.000000,4.000000,4.000000,4.000000,4.000000,4.000000,4.000000,100.000000,,,,,,,,,,,,,,,,,30.000000,0.000000,0.557633,0.443420,-0.471375,0.519836,0.975217,0.048346,0.149921,-17.339388,-32.463432,65.261978
1703161361.374326,1703161361.374484,121.000000,0.000000,4170.000000,4140.128418,4247.948730,4217.436035,4128.717773,4113.077148,4103.717773,4153.205078,4143.077148,4135.128418,4647.692383,4444.487305,4389.487305,4553.717773,6733.000000,4.000000,80.000000,,,,0.000000,4.000000,4.000000,4.000000,4.000000,4.000000,4.000000,4.000000,4.000000,4.000000,4.000000,4.000000,4.000000,4.000000,4.000000,100.000000,1.000000,100.000000,4.000000,4.000000,4.000000,4.000000,4.000000,4.000000,4.000000,4.000000,4.000000,4.000000,4.000000,4.000000,4.000000,4.000000,,,,,,,,,,,,
1703161361.382134,1703161361.382192,122.000000,0.000000,4165.384766,4133.717773,4244.102539,4217.307617,4119.871582,4108.589844,4105.128418,4151.410156,4137.948730,4129.102539,4635.897461,4438.846191,4380.384766,4542.307617,5804.000000,4.000000,80.000000,,,,0.000000,4.000000,4.000000,4.000000,4.000000,4.000000,4.000000,4.000000,4.000000,4.000000,4.000000,4.000000,4.000000,4.000000,4.000000,100.000000,,,,,,,,,,,,,,,,,,,,,,,,,,,,
1703161361.389942,1703161361.390100,123.000000,0.000000,4162.948730,4135.512695,4238.333496,4216.153809,4122.948730,4117.563965,4108.205078,4142.179688,4128.333496,4122.436035,4633.717773,4436.282227,4381.666504,4540.000000,6132.000000,4.000000,80.000000,,,,0.000000,4.000000,4.000000,4.000000,4.000000,4.000000,4.000000,4.000000,4.000000,4.000000,4.000000,4.000000,4.000000,4.000000,4.000000,100.000000,,,,,,,,,,,,,,,,,,,,,,,,,,,,
1703161361.397750,1703161361.397908,124.000000,0.000000,4158.077148,4137.563965,4233.077148,4213.333496,4125.897461,4119.743652,4107.307617,4132.948730,4119.871582,4121.922852,4632.179688,4429.743652,4377.436035,4537.692383,6559.000000,4.000000,80.000000,,,,0.000000,4.000000,4.000000,4.000000,4.000000,4.000000,4.000000,4.000000,4.000000,4.000000,4.000000,4.000000,4.000000,4.000000,4.000000,100.000000,,,,,,,,,,,,,,,,,31.000000,0.000000,0.557730,0.443298,-0.471375,0.519836,0.994750,0.060066,0.151874,-17.322115,-32.500423,65.369118
1703161361.405558,1703161361.405816,125.000000,0.000000,4156.922852,4137.307617,4232.820313,4217.051270,4125.128418,4118.461426,4114.102539,4133.333496,4118.461426,4124.358887,4634.871582,4427.436035,4374.230957,4535.641113,6733.000000,4.000000,80.000000,,,,0.000000,4.000000,4.000000,4.000000,4.000000,4.000000,4.000000,4.000000,4.000000,4.000000,4.000000,4.000000,4.000000,4.000000,4.000000,100.000000,,,,,,,,,,,,,,,,,,,,,,,,,,,,
1703161361.413366,1703161361.413624,126.000000,0.000000,4162.563965,4137.051270,4237.307617,4217.820313,4124.487305,4117.563965,4121.025879,4138.717773,4120.769043,4127.948730,4638.974121,4429.871582,4378.461426,4540.000000,5804.000000,4.000000,80.000000,,,,0.000000,4.000000,4.000000,4.000000,4.000000,4.000000,4.000000,4.000000,4.000000,4.000000,4.000000,4.000000,4.000000,4.000000,4.000000,100.000000,,,,,,,,,,,,,,,,,,,,,,,,,,,,
1703161361.421174,1703161361.421532,127.000000,0.000000,4165.384766,4136.025879,4240.000000,4214.615234,4123.205078,4115.769043,4117.692383,4139.871582,4123.717773,4135.897461,4634.743652,4434.230957,4376.922852,4538.846191,80.000000,4.000000,80.000000,,,,0.000000,4.000000,4.000000,4.000000,4.000000,4.000000,4.000000,4.000000,4.000000,4.000000,4.000000,4.000000,4.000000,4.000000,4.000000,100.000000,,,,,,,,,,,,,,,,,,,,,,,,,,,,
1703161361.428982,1703161361.429440,0.000000,0.000000,4166.666504,4142.179688,4243.589844,4221.282227,4124.102539,4118.205078,4118.589844,4141.794922,4128.205078,4139.358887,4638.333496,4442.563965,4376.922852,4541.666504,5227.000000,4.000000,80.000000,,,,0.000000,4.000000,4.000000,4.000000,4.000000,4.000000,4.000000,4.000000,4.000000,4.000000,4.000000,4.000000,4.000000,4.000000,4.000000,100.000000,,,,,,,,,,,,,,,,,0.000000,0.000000,0.557901,0.443298,-0.471375,0.519653,0.991332,0.060554,0.139665,-17.339905,-32.383713,65.365540
1703161361.436791,1703161361.437249,1.000000,0.000000,4174.102539,4153.205078,4252.051270,4233.846191,4132.307617,4120.897461,4121.666504,4149.487305,4128.589844,4137.563965,4652.820313,4448.461426,4385.384766,4555.384766,5337.000000,4.000000,80.000000,,,,0.000000,4.000000,4.000000,4.000000,4.000000,4.000000,4.000000,4.000000,4.000000,4.000000,4.000000,4.000000,4.000000,4.000000,4.000000,100.000000,,,,,,,,,,,,,,,,,,,,,,,,,,,,
1703161361.444599,1703161361.445057,2.000000,0.000000,4182.436035,4157.436035,4255.256348,4237.436035,4139.615234,4118.846191,4113.846191,4149.743652,4129.102539,4143.077148,4655.769043,4446.922852,4391.153809,4560.128418,5267.000000,4.000000,80.000000,,,,0.000000,4.000000,4.000000,4.000000,4.000000,4.000000,4.000000,4.000000,4.000000,4.000000,4.000000,4.000000,4.000000,4.000000,4.000000,100.000000,,,,,,,,,,,,,,,,,,,,,,,,,,,,
1703161361.452407,1703161361.452965,3.000000,0.000000,4183.461426,4157.692383,4250.897461,4234.743652,4138.205078,4118.974121,4107.820313,4138.717773,4132.820313,4151.025879,4651.922852,4446.025879,4393.974121,4553.589844,5248.000000,4.000000,80.000000,,,,0.000000,4.000000,4.000000,4.000000,4.000000,4.000000,4.000000,4.000000,4.000000,4.000000,4.000000,4.000000,4.000000,4.000000,4.000000,100.000000,,,,,,,,,,,,,,,,,,,,,,,,,,,,
1703161361.460215,1703161361.460773,4.000000,0.000000,4184.871582,4159.230957,4254.871582,4236.025879,4137.436035,4121.922852,4111.025879,4141.538574,4138.333496,4154.871582,4659.358887,4453.333496,4399.743652,4556.538574,5090.000000,4.000000,80.000000,,,,0.000000,4.000000,4.000000,4.000000,4.000000,4.000000,4.000000,4.000000,4.000000,4.000000,4.000000,4.000000,4.000000,4.000000,4.000000,100.000000,,,,,,,,,,,,,,,,,1.000000,0.000000,0.558085,0.443359,-0.471436,0.519348,0.988402,0.054206,0.156269,-17.505913,-32.512009,65.295647
1703161361.468023,1703161361.468680,5.000000,0.000000,4187.948730,4157.179688,4259.871582,4238.461426,4137.948730,4122.563965,4110.897461,4153.589844,4143.461426,4155.000000,4663.077148,4457.820313,4400.641113,4563.717773,5140.000000,4.000000,80.000000,,,,0.000000,4.000000,4.000000,4.000000,4.000000,4.000000,4.000000,4.000000,4.000000,4.000000,4.000000,4.000000,4.000000,4.000000,4.000000,100.000000,,,,,,,,,,,,,,,,,,,,,,,,,,,,
1703161361.475831,1703161361.476488,6.000000,0.000000,4182.307617,4149.102539,4254.230957,4232.179688,4132.051270,4122.948730,4110.897461,4154.871582,4143.717773,4149.230957,4655.128418,4451.153809,4394.871582,4556.922852,5035.000000,4.000000,80.000000,,,,0.000000,4.000000,4.000000,4.000000,4.000000,4.000000,4.000000,4.000000,4.000000,4.000000,4.000000,4.000000,4.000000,4.000000,4.000000,100.000000,,,,,,,,,,,,,,,,,,,,,,,,,,,,
1703161361.483639,1703161361.484396,7.000000,0.000000,4168.461426,4139.871582,4245.000000,4219.743652,4126.538574,4121.666504,4112.179688,4154.102539,4140.897461,4143.461426,4645.384766,4437.692383,4385.000000,4544.102539,5238.000000,4.000000,80.000000,,,,0.000000,4.000000,4.000000,4.000000,4.000000,4.000000,4.000000,4.000000,4.000000,4.000000,4.000000,4.000000,4.000000,4.000000,4.000000,100.000000,,,,,,,,,,,,,,,,,,,,,,,,,,,,
1703161361.491447,1703161361.492204,8.000000,0.000000,4159.102539,4132.563965,4237.179688,4214.358887,4125.000000,4120.128418,4108.846191,4151.025879,4134.871582,4135.769043,4630.769043,4430.000000,4369.871582,4532.948730,4996.000000,4.000000,80.000000,,,,0.000000,4.000000,4.000000,4.000000,4.000000,4.000000,4.000000,4.000000,4.000000,4.000000,4.000000,4.000000,4.000000,4.000000,4.000000,100.000000,,,,,,,,,,,,,,,,,2.000000,0.000000,0.558491,0.443237,-0.471069,0.519348,0.967892,0.062019,0.162129,-17.555323,-32.577473,65.282753
1703161361.499255,1703161361.499912,9.000000,0.000000,4156.025879,4130.641113,4235.128418,4216.282227,4124.102539,4121.538574,4107.563965,4140.128418,4127.436035,4124.487305,4619.487305,4429.102539,4362.563965,4527.307617,5235.000000,4.000000,80.000000,,,,0.000000,4.000000,4.000000,4.000000,4.000000,4.000000,4.000000,4.000000,4.000000,4.000000,4.000000,4.000000,4.000000,4.000000,4.000000,100.000000,,,,,,,,,,,,,,,,,,,,,,,,,,,,
1703161361.507063,1703161361.507820,10.000000,0.000000,4155.897461,4131.282227,4240.128418,4215.128418,4125.897461,4119.743652,4105.384766,4137.948730,4124.615234,4123.846191,4626.153809,4428.589844,4368.461426,4529.615234,5809.000000,4.000000,80.000000,,,,0.000000,4.000000,4.000000,4.000000,4.000000,4.000000,4.000000,4.000000,4.000000,4.000000,4.000000,4.000000,4.000000,4.000000,4.000000,100.000000,,,,,,,,,,,,,,,,,,,,,,,,,,,,
1703161361.514871,1703161361.515629,11.000000,0.000000,4164.871582,4136.410156,4245.256348,4220.512695,4125.000000,4118.077148,4104.487305,4142.179688,4125.897461,4131.025879,4637.051270,4434.615234,4377.051270,4535.897461,6133.000000,4.000000,80.000000,,,,0.000000,4.000000,4.000000,4.000000,4.000000,4.000000,4.000000,4.000000,4.000000,4.000000,4.000000,4.000000,4.000000,4.000000,4.000000,100.000000,,,,,,,,,,,,,,,,,,,,,,,,,,,,
1703161361.522679,1703161361.523537,12.000000,0.000000,4171.153809,4142.051270,4247.051270,4233.077148,4124.230957,4122.436035,4114.487305,4140.769043,4126.922852,4135.256348,4637.179688,4441.794922,4381.794922,4540.128418,6561.000000,4.000000,80.000000,,,,0.000000,4.000000,4.000000,4.000000,4.000000,4.000000,4.000000,4.000000,4.000000,4.000000,4.000000,4.000000,4.000000,4.000000,4.000000,100.000000,,,,,,,,,,,,,,,,,3.000000,0.000000,0.558704,0.443176,-0.471008,0.519226,0.977170,0.050787,0.157734,-17.549789,-32.619728,65.404480
1703161361.530487,1703161361.531345,13.000000,0.000000,4164.230957,4139.102539,4247.307617,4231.025879,4127.307617,4122.436035,4121.538574,4137.948730,4122.820313,4132.436035,4631.666504,4438.333496,4377.948730,4533.717773,6735.000000,4.000000,80.000000,,,,0.000000,4.000000,4.000000,4.000000,4.000000,4.000000,4.000000,4.000000,4.000000,4.000000,4.000000,4.000000,4.000000,4.000000,4.000000,100.000000,,,,,,,,,,,,,,,,,,,,,,,,,,,,
1703161361.538295,1703161361.539253,14.000000,0.000000,4162.563965,4138.333496,4245.512695,4223.589844,4130.512695,4116.282227,4112.948730,4135.000000,4117.051270,4124.743652,4626.282227,4430.256348,4370.128418,4527.563965,5809.000000,4.000000,80.000000,,,,0.000000,4.000000,4.000000,4.000000,4.000000,4.000000,4.000000,4.000000,4.000000,4.000000,4.000000,4.000000,4.000000,4.000000,4.000000,100.000000,,,,,,,,,,,,,,,,,,,,,,,,,,,,
1703161361.546103,1703161361.547061,15.000000,0.000000,4170.897461,4143.461426,4246.666504,4230.384766,4134.871582,4117.948730,4108.717773,4133.205078,4116.922852,4126.922852,4630.897461,4429.743652,4374.358887,4533.717773,6133.000000,4.000000,80.000000,,,,0.000000,4.000000,4.000000,4.000000,4.000000,4.000000,4.000000,4.000000,4.000000,4.000000,4.000000,4.000000,4.000000,4.000000,4.000000,100.000000,,,,,,,,,,,,,,,,,,,,,,,,,,,,
1703161361.553911,1703161361.554869,16.000000,0.000000,4174.102539,4142.307617,4250.000000,4232.692383,4136.666504,4122.563965,4118.333496,4137.436035,4127.820313,4138.205078,4644.487305,4437.307617,4386.153809,4541.922852,0.000000,4.000000,80.000000,,,,0.000000,4.000000,4.000000,4.000000,4.000000,4.000000,4.000000,4.000000,4.000000,4.000000,4.000000,4.000000,4.000000,4.000000,4.000000,100.000000,,,,,,,,,,,,,,,,,4.000000,0.000000,0.558857,0.442932,-0.471191,0.519104,0.980100,0.053229,0.147479,-17.494812,-32.574421,65.397362
1703161361.561719,1703161361.562578,17.000000,0.000000,4171.666504,4137.948730,4248.461426,4221.410156,4127.563965,4118.077148,4119.102539,4141.282227,4137.820313,4134.487305,4643.461426,4441.666504,4383.717773,4540.641113,0.000000,4.000000,80.000000,,,,0.000000,4.000000,4.000000,4.000000,4.000000,4.000000,4.000000,4.000000,4.000000,4.000000,4.000000,4.000000,4.000000,4.000000,4.000000,100.000000,,,,,,,,,,,,,,,,,,,,,,,,,,,,
1703161361.569528,1703161361.570386,18.000000,0.000000,4168.461426,4136.410156,4245.512695,4215.512695,4118.974121,4109.615234,4109.871582,4140.512695,4133.717773,4121.922852,4633.205078,4436.153809,4377.179688,4534.230957,0.000000,4.000000,80.000000,,,,0.000000,4.000000,4.000000,4.000000,4.000000,4.000000,4.000000,4.000000,4.000000,4.000000,4.000000,4.000000,4.000000,4.000000,4.000000,100.000000,,,,,,,,,,,,,,,,,,,,,,,,,,,,
1703161361.577335,1703161361.578094,19.000000,0.000000,4166.538574,4134.743652,4243.461426,4218.333496,4123.589844,4106.410156,4106.282227,4139.102539,4124.487305,4119.358887,4630.128418,4426.666504,4374.230957,4529.102539,0.000000,4.000000,80.000000,,,,0.000000,4.000000,4.000000,4.000000,4.000000,4.000000,4.000000,4.000000,4.000000,4.000000,4.000000,4.000000,4.000000,4.000000,4.000000,100.000000,,,,,,,,,,,,,,,,,,,,,,,,,,,,
1703161361.585143,1703161361.586002,20.000000,0.000000,4167.307617,4132.692383,4243.077148,4218.717773,4125.512695,4110.769043,4111.922852,4138.717773,4122.563965,4113.461426,4617.948730,4426.666504,4361.410156,4523.205078,0.000000,4.000000,80.000000,,,,0.000000,4.000000,4.000000,4.000000,4.000000,4.000000,4.000000,4.000000,4.000000,4.000000,4.000000,4.000000,4.000000,4.000000,4.000000,100.000000,,,,,,,,,,,,,,,,,5.000000,0.000000,0.558893,0.442627,-0.471436,0.519104,0.990355,0.071786,0.158222,-17.461996,-32.516979,65.374290
1703161361.592952,1703161361.593810,21.000000,0.000000,4167.051270,4130.256348,4246.410156,4216.666504,4120.897461,4114.615234,4118.461426,4139.230957,4124.358887,4109.358887,4613.077148,4430.769043,4358.846191,4523.461426,0.000000,4.000000,80.000000,,,,0.000000,4.000000,4.000000,4.000000,4.000000,4.000000,4.000000,4.000000,4.000000,4.000000,4.000000,4.000000,4.000000,4.000000,4.000000,100.000000,,,,,,,,,,,,,,,,,,,,,,,,,,,,
1703161361.600760,1703161361.601718,22.000000,0.000000,4160.512695,4125.897461,4243.077148,4214.102539,4121.282227,4109.871582,4113.333496,4139.102539,4122.820313,4113.717773,4629.743652,4427.820313,4371.666504,4527.051270,0.000000,4.000000,80.000000,,,,0.000000,4.000000,4.000000,4.000000,4.000000,4.000000,4.000000,4.000000,4.000000,4.000000,4.000000,4.000000,4.000000,4.000000,4.000000,100.000000,,,,,,,,,,,,,,,,,,,,,,,,,,,,
1703161361.608568,1703161361.609526,23.000000,0.000000,4153.077148,4120.897461,4235.128418,4211.538574,4118.846191,4109.102539,4104.871582,4137.820313,4121.538574,4110.128418,4631.025879,4426.153809,4368.717773,4521.410156,0.000000,4.000000,80.000000,,,,0.000000,4.000000,4.000000,4.000000,4.000000,4.000000,4.000000,4.000000,4.000000,4.000000,4.000000,4.000000,4.000000,4.000000,4.000000,100.000000,,,,,,,,,,,,,,,,,,,,,,,,,,,,
1703161361.616376,1703161361.617434,24.000000,0.000000,4155.384766,4120.000000,4238.589844,4211.538574,4118.589844,4116.538574,4105.384766,4138.589844,4122.051270,4107.948730,4618.589844,4431.410156,4358.205078,4517.563965,0.000000,4.000000,80.000000,,,,0.000000,4.000000,4.000000,4.000000,4.000000,4.000000,4.000000,4.000000,4.000000,4.000000,4.000000,4.000000,4.000000,4.000000,4.000000,100.000000,,,,,,,,,,,,,,,,,6.000000,0.000000,0.558778,0.442505,-0.471619,0.519165,0.980588,0.057136,0.149921,-17.482464,-32.415279,65.353531
1703161361.624184,1703161361.625242,25.000000,0.000000,4169.871582,4130.769043,4250.000000,4219.615234,4130.641113,4121.794922,4112.179688,4141.410156,4123.589844,4118.974121,4629.230957,4442.051270,4368.846191,4529.615234,0.000000,4.000000,80.000000,,,,0.000000,4.000000,4.000000,4.000000,4.000000,4.000000,4.000000,4.000000,4.000000,4.000000,4.000000,4.000000,4.000000,4.000000,4.000000,100.000000,,,,,,,,,,,,,,,,,,,,,,,,,,,,
1703161361.631992,1703161361.633150,26.000000,0.000000,4178.077148,4140.128418,4255.897461,4227.051270,4133.717773,4120.128418,4113.205078,4142.307617,4131.025879,4128.974121,4641.153809,4448.974121,4381.153809,4542.436035,0.000000,4.000000,80.000000,,,,0.000000,4.000000,4.000000,4.000000,4.000000,4.000000,4.000000,4.000000,4.000000,4.000000,4.000000,4.000000,4.000000,4.000000,4.000000,100.000000,,,,,,,,,,,,,,,,,,,,,,,,,,,,
1703161361.639800,1703161361.640958,27.000000,0.000000,4170.128418,4133.205078,4252.563965,4222.307617,4123.846191,4115.256348,4107.179688,4140.897461,4136.666504,4133.717773,4639.230957,4444.102539,4383.717773,4539.102539,0.000000,4.000000,80.000000,,,,0.000000,4.000000,4.000000,4.000000,4.000000,4.000000,4.000000,4.000000,4.000000,4.000000,4.000000,4.000000,4.000000,4.000000,4.000000,100.000000,,,,,,,,,,,,,,,,,,,,,,,,,,,,
1703161361.647608,1703161361.648866,28.000000,0.000000,4171.538574,4128.846191,4251.794922,4220.769043,4128.077148,4113.846191,4106.666504,4146.282227,4142.179688,4145.641113,4649.487305,4445.000000,4392.436035,4540.769043,0.000000,4.000000,80.000000,,,,0.000000,4.000000,4.000000,4.000000,4.000000,4.000000,4.000000,4.000000,4.000000,4.000000,4.000000,4.000000,4.000000,4.000000,4.000000,100.000000,,,,,,,,,,,,,,,,,7.000000,0.000000,0.558718,0.442444,-0.471680,0.519226,0.976193,0.058113,0.151874,-17.484217,-32.473751,65.318176
1703161361.655416,1703161361.656674,29.000000,0.000000,4182.307617,4140.128418,4254.615234,4226.410156,4134.871582,4118.205078,4116.410156,4157.948730,4154.487305,4153.077148,4661.666504,4456.538574,4397.307617,4552.179688,0.000000,4.000000,80.000000,,,,0.000000,4.000000,4.000000,4.000000,4.000000,4.000000,4.000000,4.000000,4.000000,4.000000,4.000000,4.000000,4.000000,4.000000,4.000000,100.000000,,,,,,,,,,,,,,,,,,,,,,,,,,,,
1703161361.663224,1703161361.664382,30.000000,0.000000,4181.153809,4142.179688,4253.333496,4223.461426,4131.410156,4123.589844,4120.256348,4157.692383,4155.000000,4143.077148,4652.563965,4451.410156,4388.717773,4547.563965,0.000000,4.000000,80.000000,,,,0.000000,4.000000,4.000000,4.000000,4.000000,4.000000,4.000000,4.000000,4.000000,4.000000,4.000000,4.000000,4.000000,4.000000,4.000000,100.000000,,,,,,,,,,,,,,,,,,,,,,,,,,,,
1703161361.671032,1703161361.672190,31.000000,0.000000,4173.077148,4133.846191,4247.179688,4215.897461,4134.743652,4123.717773,4113.717773,4144.230957,4139.487305,4133.461426,4636.666504,4436.025879,4379.871582,4535.512695,0.000000,4.000000,80.000000,,,,0.000000,4.000000,4.000000,4.000000,4.000000,4.000000,4.000000,4.000000,4.000000,4.000000,4.000000,4.000000,4.000000,4.000000,4.000000,100.000000,,,,,,,,,,,,,,,,,,,,,,,,,,,,
1703161361.678840,1703161361.679898,32.000000,0.000000,4173.846191,4133.717773,4245.256348,4218.333496,4137.179688,4121.410156,4112.563965,4138.333496,4135.128418,4136.922852,4632.692383,4436.282227,4382.820313,4536.922852,0.000000,4.000000,80.000000,,,,0.000000,4.000000,4.000000,4.000000,4.000000,4.000000,4.000000,4.000000,4.000000,4.000000,4.000000,4.000000,4.000000,4.000000,4.000000,100.000000,,,,,,,,,,,,,,,,,8.000000,0.000000,0.558558,0.442444,-0.471802,0.519287,0.985472,0.048346,0.162129,-17.419128,-32.376377,65.336357
1703161361.686648,1703161361.687706,33.000000,0.000000,4181.153809,4137.948730,4248.205078,4222.436035,4127.820313,4118.589844,4112.307617,4139.102539,4137.948730,4134.871582,4636.666504,4440.897461,4386.282227,4540.384766,0.000000,4.000000,80.000000,,,,0.000000,4.000000,4.000000,4.000000,4.000000,4.000000,4.000000,4.000000,4.000000,4.000000,4.000000,4.000000,4.000000,4.000000,4.000000,100.000000,,,,,,,,,,,,,,,,,,,,,,,,,,,,
1703161361.694456,1703161361.695414,34.000000,0.000000,4182.307617,4139.230957,4247.948730,4219.487305,4124.102539,4116.538574,4109.871582,4137.179688,4125.512695,4122.692383,4640.256348,4438.846191,4383.205078,4538.589844,0.000000,4.000000,80.000000,,,,0.000000,4.000000,4.000000,4.000000,4.000000,4.000000,4.000000,4.000000,4.000000,4.000000,4.000000,4.000000,4.000000,4.000000,4.000000,100.000000,,,,,,,,,,,,,,,,,,,,,,,,,,,,
1703161361.702264,1703161361.703222,35.000000,0.000000,4177.051270,4135.384766,4248.589844,4217.948730,4125.641113,4115.512695,4115.384766,4133.205078,4110.000000,4118.077148,4637.179688,4437.563965,4381.153809,4539.871582,0.000000,4.000000,80.000000,,,,0.000000,4.000000,4.000000,4.000000,4.000000,4.000000,4.000000,4.000000,4.000000,4.000000,4.000000,4.000000,4.000000,4.000000,4.000000,100.000000,,,,,,,,,,,,,,,,,,,,,,,,,,,,
1703161361.710072,1703161361.710930,36.000000,0.000000,4173.077148,4130.641113,4246.025879,4215.384766,4122.436035,4112.948730,4117.692383,4128.077148,4108.974121,4119.102539,4629.615234,4438.333496,4379.358887,4538.974121,0.000000,4.000000,80.000000,,,,0.000000,4.000000,4.000000,4.000000,4.000000,4.000000,4.000000,4.000000,4.000000,4.000000,4.000000,4.000000,4.000000,4.000000,4.000000,100.000000,,,,,,,,,,,,,,,,,9.000000,0.000000,0.558554,0.442261,-0.472046,0.519226,0.997192,0.054206,0.150897,-17.460548,-32.272072,65.386055
1703161361.717880,1703161361.718738,37.000000,0.000000,4177.051270,4132.307617,4245.000000,4216.794922,4120.897461,4110.128418,4112.436035,4129.102539,4115.000000,4122.051270,4632.179688,4440.000000,4383.077148,4536.794922,0.000000,4.000000,80.000000,,,,0.000000,4.000000,4.000000,4.000000,4.000000,4.000000,4.000000,4.000000,4.000000,4.000000,4.000000,4.000000,4.000000,4.000000,4.000000,100.000000,,,,,,,,,,,,,,,,,,,,,,,,,,,,
1703161361.725688,1703161361.726446,38.000000,0.000000,4185.384766,4138.846191,4257.179688,4226.794922,4128.461426,4113.077148,4115.256348,4137.948730,4126.025879,4133.717773,4644.358887,4449.102539,4392.692383,4544.615234,0.000000,4.000000,80.000000,,,,0.000000,4.000000,4.000000,4.000000,4.000000,4.000000,4.000000,4.000000,4.000000,4.000000,4.000000,4.000000,4.000000,4.000000,4.000000,100.000000,,,,,,,,,,,,,,,,,,,,,,,,,,,,
1703161361.733497,1703161361.734254,39.000000,0.000000,4191.153809,4141.922852,4266.025879,4234.230957,4135.256348,4120.128418,4117.820313,4144.230957,4136.282227,4143.717773,4651.922852,4457.820313,4397.563965,4555.641113,0.000000,4.000000,80.000000,,,,0.000000,4.000000,4.000000,4.000000,4.000000,4.000000,4.000000,4.000000,4.000000,4.000000,4.000000,4.000000,4.000000,4.000000,4.000000,100.000000,,,,,,,,,,,,,,,,,,,,,,,,,,,,
1703161361.741305,1703161361.741962,40.000000,0.000000,4190.641113,4140.897461,4261.538574,4230.128418,4132.179688,4121.666504,4112.051270,4143.461426,4138.846191,4143.205078,4650.128418,4456.922852,4397.179688,4557.436035,0.000000,4.000000,80.000000,,,,0.000000,4.000000,4.000000,4.000000,4.000000,4.000000,4.000000,4.000000,4.000000,4.000000,4.000000,4.000000,4.000000,4.000000,4.000000,100.000000,,,,,,,,,,,,,,,,,10.000000,0.000000,0.558542,0.441956,-0.472412,0.519165,0.988402,0.063973,0.149432,-17.481161,-32.411533,65.480782
1703161361.749112,1703161361.749770,41.000000,0.000000,4185.000000,4137.563965,4258.205078,4226.794922,4131.153809,4119.102539,4114.487305,4144.487305,4138.974121,4142.563965,4644.615234,4450.769043,4396.153809,4552.948730,0.000000,4.000000,80.000000,,,,0.000000,4.000000,4.000000,4.000000,4.000000,4.000000,4.000000,4.000000,4.000000,4.000000,4.000000,4.000000,4.000000,4.000000,4.000000,100.000000,,,,,,,,,,,,,,,,,,,,,,,,,,,,
1703161361.756921,1703161361.757478,42.000000,0.000000,4183.974121,4136.410156,4259.743652,4231.282227,4130.512695,4121.025879,4122.307617,4148.461426,4139.230957,4140.769043,4640.897461,4447.436035,4391.538574,4550.256348,0.000000,4.000000,80.000000,,,,0.000000,4.000000,4.000000,4.000000,4.000000,4.000000,4.000000,4.000000,4.000000,4.000000,4.000000,4.000000,4.000000,4.000000,4.000000,100.000000,,,,,,,,,,,,,,,,,,,,,,,,,,,,
1703161361.764729,1703161361.765286,43.000000,0.000000,4186.794922,4146.666504,4259.871582,4234.743652,4127.820313,4122.051270,4119.487305,4152.179688,4139.871582,4136.666504,4643.974121,4449.487305,4390.384766,4553.333496,0.000000,4.000000,80.000000,,,,0.000000,4.000000,4.000000,4.000000,4.000000,4.000000,4.000000,4.000000,4.000000,4.000000,4.000000,4.000000,4.000000,4.000000,4.000000,100.000000,,,,,,,,,,,,,,,,,,,,,,,,,,,,
1703161361.772537,1703161361.772994,44.000000,0.000000,4187.563965,4151.538574,4260.384766,4233.077148,4131.153809,4120.769043,4116.666504,4151.153809,4139.871582,4137.820313,4648.974121,4450.384766,4395.384766,4555.641113,0.000000,4.000000,80.000000,,,,0.000000,4.000000,4.000000,4.000000,4.000000,4.000000,4.000000,4.000000,4.000000,4.000000,4.000000,4.000000,4.000000,4.000000,4.000000,100.000000,,,,,,,,,,,,,,,,,11.000000,0.000000,0.558466,0.441589,-0.472778,0.519226,0.970333,0.043462,0.149921,-17.366379,-32.453712,65.482704
1703161361.780345,1703161361.780802,45.000000,0.000000,4180.512695,4140.384766,4254.871582,4224.230957,4135.641113,4122.051270,4115.897461,4141.282227,4132.051270,4135.000000,4639.871582,4441.794922,4387.820313,4545.128418,0.000000,4.000000,80.000000,,,,0.000000,4.000000,4.000000,4.000000,4.000000,4.000000,4.000000,4.000000,4.000000,4.000000,4.000000,4.000000,4.000000,4.000000,4.000000,100.000000,,,,,,,,,,,,,,,,,,,,,,,,,,,,
1703161361.788153,1703161361.788510,46.000000,0.000000,4170.256348,4131.538574,4245.897461,4215.256348,4131.153809,4124.230957,4114.358887,4135.256348,4121.153809,4126.410156,4625.256348,4429.615234,4378.333496,4532.948730,0.000000,4.000000,80.000000,,,,0.000000,4.000000,4.000000,4.000000,4.000000,4.000000,4.000000,4.000000,4.000000,4.000000,4.000000,4.000000,4.000000,4.000000,4.000000,100.000000,,,,,,,,,,,,,,,,,,,,,,,,,,,,
1703161361.795961,1703161361.796418,47.000000,0.000000,4168.077148,4136.153809,4245.000000,4216.153809,4125.512695,4125.384766,4116.153809,4135.384766,4118.589844,4121.538574,4624.102539,4427.563965,4378.717773,4533.846191,0.000000,4.000000,80.000000,,,,0.000000,4.000000,4.000000,4.000000,4.000000,4.000000,4.000000,4.000000,4.000000,4.000000,4.000000,4.000000,4.000000,4.000000,4.000000,100.000000,,,,,,,,,,,,,,,,,,,,,,,,,,,,
1703161361.803769,1703161361.804226,48.000000,0.000000,4172.820313,4137.820313,4244.871582,4220.641113,4131.282227,4125.641113,4115.384766,4132.179688,4117.563965,4119.743652,4625.769043,4431.794922,4374.358887,4534.871582,0.000000,4.000000,80.000000,,,,0.000000,4.000000,4.000000,4.000000,4.000000,4.000000,4.000000,4.000000,4.000000,4.000000,4.000000,4.000000,4.000000,4.000000,4.000000,100.000000,,,,,,,,,,,,,,,,,12.000000,0.000000,0.558285,0.441223,-0.473267,0.519287,0.975217,0.067391,0.149432,-17.429741,-32.575008,65.534439
1703161361.811577,1703161361.812135,49.000000,0.000000,4179.358887,4136.794922,4248.077148,4226.025879,4136.538574,4122.692383,4110.256348,4131.025879,4113.717773,4125.256348,4628.974121,4436.538574,4380.128418,4535.512695,0.000000,4.000000,80.000000,,,,0.000000,4.000000,4.000000,4.000000,4.000000,4.000000,4.000000,4.000000,4.000000,4.000000,4.000000,4.000000,4.000000,4.000000,4.000000,100.000000,,,,,,,,,,,,,,,,,,,,,,,,,,,,
1703161361.819385,1703161361.819943,50.000000,0.000000,4188.333496,4148.205078,4261.153809,4233.589844,4132.179688,4118.589844,4109.871582,4137.051270,4118.974121,4139.230957,4644.743652,4446.282227,4397.179688,4545.512695,0.000000,4.000000,80.000000,,,,0.000000,4.000000,4.000000,4.000000,4.000000,4.000000,4.000000,4.000000,4.000000,4.000000,4.000000,4.000000,4.000000,4.000000,4.000000,100.000000,,,,,,,,,,,,,,,,,,,,,,,,,,,,
1703161361.827193,1703161361.827851,51.000000,0.000000,4190.128418,4150.000000,4266.410156,4235.256348,4128.077148,4117.307617,4111.666504,4140.897461,4133.461426,4142.051270,4653.077148,4450.000000,4395.769043,4545.897461,0.000000,4.000000,80.000000,,,,0.000000,4.000000,4.000000,4.000000,4.000000,4.000000,4.000000,4.000000,4.000000,4.000000,4.000000,4.000000,4.000000,4.000000,4.000000,100.000000,,,,,,,,,,,,,,,,,,,,,,,,,,,,
1703161361.835001,1703161361.835659,52.000000,0.000000,4183.333496,4141.282227,4260.384766,4233.974121,4136.025879,4119.743652,4109.743652,4141.666504,4139.358887,4138.205078,4646.538574,4447.948730,4386.922852,4537.948730,0.000000,4.000000,80.000000,,,,0.000000,4.000000,4.000000,4.000000,4.000000,4.000000,4.000000,4.000000,4.000000,4.000000,4.000000,4.000000,4.000000,4.000000,4.000000,100.000000,,,,,,,,,,,,,,,,,13.000000,0.000000,0.558276,0.440979,-0.473572,0.519226,0.980100,0.063973,0.146991,-17.620100,-32.634174,65.530991
1703161361.842809,1703161361.843566,53.000000,0.000000,4185.000000,4147.820313,4262.692383,4237.179688,4139.871582,4121.538574,4110.384766,4147.179688,4137.692383,4146.922852,4647.820313,4455.256348,4396.282227,4547.692383,0.000000,4.000000,80.000000,,,,0.000000,4.000000,4.000000,4.000000,4.000000,4.000000,4.000000,4.000000,4.000000,4.000000,4.000000,4.000000,4.000000,4.000000,4.000000,100.000000,,,,,,,,,,,,,,,,,,,,,,,,,,,,
1703161361.850617,1703161361.851374,54.000000,0.000000,4191.538574,4155.897461,4267.307617,4237.436035,4132.436035,4121.666504,4112.692383,4157.307617,4146.538574,4156.666504,4659.615234,4465.641113,4406.794922,4558.974121,0.000000,4.000000,80.000000,,,,0.000000,4.000000,4.000000,4.000000,4.000000,4.000000,4.000000,4.000000,4.000000,4.000000,4.000000,4.000000,4.000000,4.000000,4.000000,100.000000,,,,,,,,,,,,,,,,,,,,,,,,,,,,
1703161361.858425,1703161361.859282,55.000000,0.000000,4185.897461,4146.282227,4259.615234,4234.230957,4137.563965,4123.205078,4109.743652,4156.794922,4153.333496,4151.666504,4661.666504,4461.153809,4402.051270,4550.128418,0.000000,4.000000,80.000000,,,,0.000000,4.000000,4.000000,4.000000,4.000000,4.000000,4.000000,4.000000,4.000000,4.000000,4.000000,4.000000,4.000000,4.000000,4.000000,100.000000,,,,,,,,,,,,,,,,,,,,,,,,,,,,
1703161361.866233,1703161361.867090,56.000000,0.000000,4175.000000,4139.358887,4249.615234,4231.922852,4142.948730,4123.077148,4107.563965,4144.487305,4140.384766,4140.512695,4648.333496,4445.384766,4391.794922,4535.128418,0.000000,4.000000,80.000000,,,,0.000000,4.000000,4.000000,4.000000,4.000000,4.000000,4.000000,4.000000,4.000000,4.000000,4.000000,4.000000,4.000000,4.000000,4.000000,100.000000,,,,,,,,,,,,,,,,,14.000000,0.000000,0.558320,0.440857,-0.473633,0.519226,0.985960,0.066414,0.148456,-17.491423,-32.604092,65.577896
1703161361.874041,1703161361.874798,57.000000,0.000000,4168.589844,4140.897461,4246.153809,4225.512695,4136.666504,4122.051270,4110.256348,4136.922852,4125.000000,4131.282227,4633.717773,4432.051270,4383.461426,4525.769043,0.000000,4.000000,80.000000,,,,0.000000,4.000000,4.000000,4.000000,4.000000,4.000000,4.000000,4.000000,4.000000,4.000000,4.000000,4.000000,4.000000,4.000000,4.000000,100.000000,1.000000,100.000000,4.000000,4.000000,4.000000,4.000000,4.000000,4.000000,4.000000,4.000000,4.000000,4.000000,4.000000,4.000000,4.000000,4.000000,,,,,,,,,,,,
1703161361.881849,1703161361.882606,58.000000,0.000000,4163.974121,4135.897461,4245.256348,4219.487305,4137.436035,4123.717773,4111.794922,4133.974121,4118.077148,4125.384766,4627.563965,4427.179688,4380.641113,4520.000000,0.000000,4.000000,80.000000,,,,0.000000,4.000000,4.000000,4.000000,4.000000,4.000000,4.000000,4.000000,4.000000,4.000000,4.000000,4.000000,4.000000,4.000000,4.000000,100.000000,,,,,,,,,,,,,,,,,,,,,,,,,,,,
1703161361.889657,1703161361.890314,59.000000,0.000000,4158.717773,4130.769043,4245.128418,4218.205078,4140.384766,4123.589844,4108.846191,4125.897461,4108.333496,4121.282227,4626.538574,4426.410156,4382.179688,4519.743652,0.000000,4.000000,80.000000,,,,0.000000,4.000000,4.000000,4.000000,4.000000,4.000000,4.000000,4.000000,4.000000,4.000000,4.000000,4.000000,4.000000,4.000000,4.000000,100.000000,,,,,,,,,,,,,,,,,,,,,,,,,,,,
1703161361.897466,1703161361.898122,60.000000,0.000000,4155.512695,4129.487305,4246.025879,4218.589844,4133.461426,4122.179688,4111.794922,4121.153809,4103.077148,4121.025879,4626.282227,4431.538574,4381.794922,4519.871582,0.000000,4.000000,80.000000,,,,0.000000,4.000000,4.000000,4.000000,4.000000,4.000000,4.000000,4.000000,4.000000,4.000000,4.000000,4.000000,4.000000,4.000000,4.000000,100.000000,,,,,,,,,,,,,,,,,15.000000,0.000000,0.558220,0.440918,-0.473694,0.519226,0.984984,0.045904,0.158222,-17.442282,-32.527016,65.553436
1703161361.905274,1703161361.905830,61.000000,0.000000,4160.641113,4131.025879,4248.846191,4225.512695,4132.436035,4123.974121,4116.922852,4122.436035,4106.922852,4127.051270,4631.794922,4440.512695,4381.410156,4521.666504,0.000000,4.000000,80.000000,,,,0.000000,4.000000,4.000000,4.000000,4.000000,4.000000,4.000000,4.000000,4.000000,4.000000,4.000000,4.000000,4.000000,4.000000,4.000000,100.000000,,,,,,,,,,,,,,,,,,,,,,,,,,,,
1703161361.913082,1703161361.913638,62.000000,0.000000,4170.512695,4137.436035,4254.871582,4232.179688,4136.794922,4125.000000,4114.487305,4121.153809,4108.974121,4133.333496,4643.077148,4443.717773,4388.077148,4532.436035,0.000000,4.000000,80.000000,,,,0.000000,4.000000,4.000000,4.000000,4.000000,4.000000,4.000000,4.000000,4.000000,4.000000,4.000000,4.000000,4.000000,4.000000,4.000000,100.000000,,,,,,,,,,,,,,,,,,,,,,,,,,,,
1703161361.920890,1703161361.921346,63.000000,0.000000,4172.051270,4138.717773,4259.615234,4226.922852,4133.717773,4121.538574,4109.487305,4126.153809,4114.871582,4139.358887,4647.820313,4446.922852,4397.436035,4540.897461,0.000000,4.000000,80.000000,,,,0.000000,4.000000,4.000000,4.000000,4.000000,4.000000,4.000000,4.000000,4.000000,4.000000,4.000000,4.000000,4.000000,4.000000,4.000000,100.000000,,,,,,,,,,,,,,,,,,,,,,,,,,,,
1703161361.928698,1703161361.929154,64.000000,0.000000,4168.461426,4136.538574,4261.922852,4224.615234,4132.307617,4119.615234,4108.846191,4138.333496,4128.846191,4148.077148,4649.487305,4455.897461,4398.717773,4539.871582,5230.000000,4.000000,80.000000,,,,0.000000,4.000000,4.000000,4.000000,4.000000,4.000000,4.000000,4.000000,4.000000,4.000000,4.000000,4.000000,4.000000,4.000000,4.000000,100.000000,,,,,,,,,,,,,,,,,16.000000,0.000000,0.558255,0.440796,-0.473633,0.519348,0.981565,0.049322,0.148944,-17.381386,-32.507645,65.598091
1703161361.936506,1703161361.936863,65.000000,0.000000,4170.641113,4138.461426,4262.179688,4227.820313,4135.769043,4122.436035,4115.128418,4143.974121,4140.000000,4156.282227,4655.897461,4461.282227,4397.563965,4540.641113,5340.000000,4.000000,80.000000,,,,0.000000,4.000000,4.000000,4.000000,4.000000,4.000000,4.000000,4.000000,4.000000,4.000000,4.000000,4.000000,4.000000,4.000000,4.000000,100.000000,,,,,,,,,,,,,,,,,,,,,,,,,,,,
1703161361.944314,1703161361.944670,66.000000,0.000000,4169.871582,4139.615234,4259.230957,4223.846191,4136.025879,4123.974121,4121.025879,4144.102539,4142.692383,4156.538574,4660.256348,4458.077148,4400.512695,4543.333496,5267.000000,4.000000,80.000000,,,,0.000000,4.000000,4.000000,4.000000,4.000000,4.000000,4.000000,4.000000,4.000000,4.000000,4.000000,4.000000,4.000000,4.000000,4.000000,100.000000,,,,,,,,,,,,,,,,,,,,,,,,,,,,
1703161361.952122,1703161361.952379,67.000000,0.000000,4165.128418,4138.846191,4258.333496,4221.922852,4136.794922,4123.461426,4117.179688,4142.051270,4139.743652,4153.077148,4656.153809,4452.563965,4400.128418,4540.000000,5248.000000,4.000000,80.000000,,,,0.000000,4.000000,4.000000,4.000000,4.000000,4.000000,4.000000,4.000000,4.000000,4.000000,4.000000,4.000000,4.000000,4.000000,4.000000,100.000000,,,,,,,,,,,,,,,,,,,,,,,,,,,,
1703161361.959930,1703161361.960287,68.000000,0.000000,4167.948730,4141.922852,4259.230957,4226.922852,4138.461426,4123.205078,4110.128418,4141.153809,4138.717773,4155.000000,4653.205078,4450.000000,4399.487305,4539.615234,5095.000000,4.000000,80.000000,,,,0.000000,4.000000,4.000000,4.000000,4.000000,4.000000,4.000000,4.000000,4.000000,4.000000,4.000000,4.000000,4.000000,4.000000,4.000000,100.000000,,,,,,,,,,,,,,,,,17.000000,0.000000,0.558356,0.440674,-0.473694,0.519287,0.976193,0.046881,0.156269,-17.426580,-32.390213,65.621620
1703161361.967738,1703161361.968095,69.000000,0.000000,4173.846191,4150.000000,4261.794922,4231.410156,4138.846191,4124.871582,4115.128418,4143.077148,4142.307617,4156.410156,4654.102539,4452.692383,4402.948730,4546.666504,5148.000000,4.000000,80.000000,,,,0.000000,4.000000,4.000000,4.000000,4.000000,4.000000,4.000000,4.000000,4.000000,4.000000,4.000000,4.000000,4.000000,4.000000,4.000000,100.000000,,,,,,,,,,,,,,,,,,,,,,,,,,,,
1703161361.975546,1703161361.976003,70.000000,0.000000,4171.282227,4147.307617,4262.307617,4227.051270,4138.333496,4124.871582,4123.077148,4141.794922,4138.077148,4147.563965,4648.974121,4452.436035,4397.563965,4543.205078,5038.000000,4.000000,80.000000,,,,0.000000,4.000000,4.000000,4.000000,4.000000,4.000000,4.000000,4.000000,4.000000,4.000000,4.000000,4.000000,4.000000,4.000000,4.000000,100.000000,,,,,,,,,,,,,,,,,,,,,,,,,,,,
1703161361.983354,1703161361.983811,71.000000,0.000000,4163.717773,4135.384766,4257.179688,4218.974121,4133.846191,4126.282227,4122.948730,4137.307617,4124.615234,4136.153809,4644.615234,4444.102539,4390.641113,4536.410156,5245.000000,4.000000,80.000000,,,,0.000000,4.000000,4.000000,4.000000,4.000000,4.000000,4.000000,4.000000,4.000000,4.000000,4.000000,4.000000,4.000000,4.000000,4.000000,100.000000,,,,,,,,,,,,,,,,,,,,,,,,,,,,
1703161361.991162,1703161361.991719,72.000000,0.000000,4169.615234,4141.410156,4255.512695,4224.615234,4134.615234,4131.922852,4124.102539,4138.974121,4118.077148,4135.256348,4643.846191,4442.563965,4397.051270,4543.205078,5006.000000,4.000000,80.000000,,,,0.000000,4.000000,4.000000,4.000000,4.000000,4.000000,4.000000,4.000000,4.000000,4.000000,4.000000,4.000000,4.000000,4.000000,4.000000,100.000000,,,,,,,,,,,,,,,,,18.000000,0.000000,0.558612,0.440369,-0.473877,0.519104,0.987914,0.052252,0.156269,-17.483923,-32.384525,65.609459
1703161361.998970,1703161361.999527,73.000000,0.000000,4179.487305,4156.794922,4262.307617,4234.871582,4140.641113,4131.666504,4125.897461,4137.692383,4122.051270,4138.717773,4641.794922,4448.205078,4397.563965,4550.512695,5238.000000,4.000000,80.000000,,,,0.000000,4.000000,4.000000,4.000000,4.000000,4.000000,4.000000,4.000000,4.000000,4.000000,4.000000,4.000000,4.000000,4.000000,4.000000,100.000000,,,,,,,,,,,,,,,,,,,,,,,,,,,,
1703161362.006778,1703161362.007435,74.000000,0.000000,4180.897461,4163.205078,4265.128418,4233.589844,4138.846191,4123.717773,4118.846191,4125.000000,4121.153809,4135.384766,4640.000000,4446.153809,4387.948730,4548.077148,5809.000000,4.000000,80.000000,,,,0.000000,4.000000,4.000000,4.000000,4.000000,4.000000,4.000000,4.000000,4.000000,4.000000,4.000000,4.000000,4.000000,4.000000,4.000000,100.000000,,,,,,,,,,,,,,,,,,,,,,,,,,,,
1703161362.014586,1703161362.015243,75.000000,0.000000,4183.461426,4170.000000,4265.128418,4235.641113,4135.128418,4120.512695,4110.128418,4121.153809,4114.871582,4135.512695,4640.384766,4445.769043,4389.358887,4549.230957,6138.000000,4.000000,80.000000,,,,0.000000,4.000000,4.000000,4.000000,4.000000,4.000000,4.000000,4.000000,4.000000,4.000000,4.000000,4.000000,4.000000,4.000000,4.000000,100.000000,,,,,,,,,,,,,,,,,,,,,,,,,,,,
1703161362.022394,1703161362.023151,76.000000,0.000000,4188.717773,4178.717773,4269.743652,4249.615234,4137.820313,4123.205078,4109.871582,4133.589844,4118.717773,4146.794922,4648.589844,4457.179688,4397.692383,4555.384766,6568.000000,4.000000,80.000000,,,,0.000000,4.000000,4.000000,4.000000,4.000000,4.000000,4.000000,4.000000,4.000000,4.000000,4.000000,4.000000,4.000000,4.000000,4.000000,100.000000,,,,,,,,,,,,,,,,,19.000000,0.000000,0.558588,0.440430,-0.474182,0.518799,0.972775,0.055671,0.143572,-17.502197,-32.379406,65.681847
1703161362.030202,1703161362.030959,77.000000,0.000000,4186.282227,4175.897461,4270.384766,4249.230957,4139.615234,4123.846191,4112.179688,4141.410156,4131.666504,4155.641113,4660.641113,4463.717773,4404.102539,4557.051270,6741.000000,4.000000,80.000000,,,,0.000000,4.000000,4.000000,4.000000,4.000000,4.000000,4.000000,4.000000,4.000000,4.000000,4.000000,4.000000,4.000000,4.000000,4.000000,100.000000,,,,,,,,,,,,,,,,,,,,,,,,,,,,
1703161362.038010,1703161362.038767,78.000000,0.000000,4182.820313,4172.179688,4272.051270,4238.333496,4137.820313,4121.282227,4115.128418,4142.563965,4138.461426,4155.128418,4665.512695,4461.922852,4410.641113,4557.436035,5809.000000,4.000000,80.000000,,,,0.000000,4.000000,4.000000,4.000000,4.000000,4.000000,4.000000,4.000000,4.000000,4.000000,4.000000,4.000000,4.000000,4.000000,4.000000,100.000000,,,,,,,,,,,,,,,,,,,,,,,,,,,,
1703161362.045818,1703161362.046575,79.000000,0.000000,4188.333496,4173.589844,4280.000000,4241.538574,4136.666504,4120.897461,4121.153809,4151.153809,4138.205078,4153.077148,4662.436035,4464.358887,4410.512695,4558.205078,6138.000000,4.000000,80.000000,,,,0.000000,4.000000,4.000000,4.000000,4.000000,4.000000,4.000000,4.000000,4.000000,4.000000,4.000000,4.000000,4.000000,4.000000,4.000000,100.000000,,,,,,,,,,,,,,,,,,,,,,,,,,,,
1703161362.053626,1703161362.054283,80.000000,0.000000,4187.563965,4171.922852,4276.794922,4244.871582,4138.077148,4123.205078,4120.512695,4154.871582,4139.358887,4154.230957,4659.871582,4466.538574,4402.948730,4556.282227,6568.000000,4.000000,80.000000,,,,0.000000,4.000000,4.000000,4.000000,4.000000,4.000000,4.000000,4.000000,4.000000,4.000000,4.000000,4.000000,4.000000,4.000000,4.000000,100.000000,,,,,,,,,,,,,,,,,20.000000,0.000000,0.558784,0.440247,-0.474121,0.518799,0.979123,0.051764,0.152362,-17.601978,-32.341465,65.713661
1703161362.061435,1703161362.062091,81.000000,0.000000,4179.358887,4170.641113,4265.641113,4236.410156,4139.743652,4124.102539,4113.333496,4146.025879,4142.179688,4155.897461,4656.922852,4459.743652,4400.128418,4555.769043,6741.000000,4.000000,80.000000,,,,0.000000,4.000000,4.000000,4.000000,4.000000,4.000000,4.000000,4.000000,4.000000,4.000000,4.000000,4.000000,4.000000,4.000000,4.000000,100.000000,,,,,,,,,,,,,,,,,,,,,,,,,,,,
1703161362.069243,1703161362.069799,82.000000,0.000000,4176.153809,4168.461426,4260.512695,4231.025879,4139.487305,4122.948730,4110.384766,4140.641113,4141.666504,4151.794922,4649.230957,4449.871582,4397.692383,4551.794922,5809.000000,4.000000,80.000000,,,,0.000000,4.000000,4.000000,4.000000,4.000000,4.000000,4.000000,4.000000,4.000000,4.000000,4.000000,4.000000,4.000000,4.000000,4.000000,100.000000,,,,,,,,,,,,,,,,,,,,,,,,,,,,
1703161362.077051,1703161362.077707,83.000000,0.000000,4173.589844,4168.205078,4260.128418,4233.717773,4140.512695,4128.717773,4110.256348,4142.307617,4138.461426,4144.615234,4639.358887,4444.871582,4388.589844,4541.153809,6138.000000,4.000000,80.000000,,,,0.000000,4.000000,4.000000,4.000000,4.000000,4.000000,4.000000,4.000000,4.000000,4.000000,4.000000,4.000000,4.000000,4.000000,4.000000,100.000000,,,,,,,,,,,,,,,,,,,,,,,,,,,,
1703161362.084859,1703161362.085515,84.000000,0.000000,4167.692383,4165.384766,4261.282227,4232.563965,4140.128418,4136.666504,4114.230957,4139.871582,4134.487305,4142.179688,4638.846191,4446.025879,4386.538574,4537.948730,6568.000000,4.000000,80.000000,,,,0.000000,4.000000,4.000000,4.000000,4.000000,4.000000,4.000000,4.000000,4.000000,4.000000,4.000000,4.000000,4.000000,4.000000,4.000000,100.000000,,,,,,,,,,,,,,,,,21.000000,0.000000,0.558800,0.439819,-0.474365,0.518921,0.999145,0.046881,0.148456,-17.591780,-32.290653,65.642296
1703161362.092667,1703161362.093423,85.000000,0.000000,4172.179688,4166.922852,4264.230957,4233.461426,4137.563965,4138.333496,4120.641113,4135.256348,4128.717773,4141.666504,4645.769043,4449.102539,4394.743652,4547.692383,6741.000000,4.000000,80.000000,,,,0.000000,4.000000,4.000000,4.000000,4.000000,4.000000,4.000000,4.000000,4.000000,4.000000,4.000000,4.000000,4.000000,4.000000,4.000000,100.000000,,,,,,,,,,,,,,,,,,,,,,,,,,,,
1703161362.100475,1703161362.101231,86.000000,0.000000,4186.538574,4182.307617,4265.512695,4246.282227,4142.692383,4134.615234,4118.974121,4136.282227,4123.589844,4137.179688,4646.025879,4449.102539,4399.743652,4555.641113,5809.000000,4.000000,80.000000,,,,0.000000,4.000000,4.000000,4.000000,4.000000,4.000000,4.000000,4.000000,4.000000,4.000000,4.000000,4.000000,4.000000,4.000000,4.000000,100.000000,,,,,,,,,,,,,,,,,,,,,,,,,,,,
1703161362.108283,1703161362.109139,87.000000,0.000000,4186.666504,4184.615234,4265.000000,4250.512695,4147.051270,4128.077148,4115.256348,4132.820313,4119.615234,4134.487305,4643.589844,4448.974121,4395.512695,4551.794922,6138.000000,4.000000,80.000000,,,,0.000000,4.000000,4.000000,4.000000,4.000000,4.000000,4.000000,4.000000,4.000000,4.000000,4.000000,4.000000,4.000000,4.000000,4.000000,100.000000,,,,,,,,,,,,,,,,,,,,,,,,,,,,
1703161362.116091,1703161362.116948,88.000000,0.000000,4179.487305,4173.846191,4268.077148,4246.153809,4141.282227,4124.102539,4119.871582,4126.153809,4118.461426,4137.563965,4649.871582,4453.461426,4398.974121,4551.153809,6568.000000,4.000000,80.000000,,,,0.000000,4.000000,4.000000,4.000000,4.000000,4.000000,4.000000,4.000000,4.000000,4.000000,4.000000,4.000000,4.000000,4.000000,4.000000,100.000000,,,,,,,,,,,,,,,,,22.000000,0.000000,0.558698,0.439758,-0.474609,0.518860,0.985472,0.059578,0.145526,-17.615934,-32.278255,65.528061
1703161362.123899,1703161362.124756,89.000000,0.000000,4189.871582,4180.384766,4277.179688,4248.461426,4141.794922,4123.461426,4123.077148,4131.282227,4122.179688,4142.307617,4661.282227,4460.897461,4411.282227,4563.846191,6741.000000,4.000000,80.000000,,,,0.000000,4.000000,4.000000,4.000000,4.000000,4.000000,4.000000,4.000000,4.000000,4.000000,4.000000,4.000000,4.000000,4.000000,4.000000,100.000000,,,,,,,,,,,,,,,,,,,,,,,,,,,,
1703161362.131707,1703161362.132464,90.000000,0.000000,4199.743652,4188.717773,4282.179688,4252.051270,4153.717773,4122.948730,4121.153809,4140.512695,4124.615234,4144.102539,4668.077148,4465.897461,4415.256348,4574.487305,5809.000000,4.000000,80.000000,,,,0.000000,4.000000,4.000000,4.000000,4.000000,4.000000,4.000000,4.000000,4.000000,4.000000,4.000000,4.000000,4.000000,4.000000,4.000000,100.000000,,,,,,,,,,,,,,,,,,,,,,,,,,,,
1703161362.139515,1703161362.140272,91.000000,0.000000,4195.512695,4173.974121,4279.230957,4250.000000,4153.205078,4121.922852,4121.794922,4139.871582,4125.641113,4139.487305,4670.256348,4471.025879,4415.384766,4572.948730,6138.000000,4.000000,80.000000,,,,0.000000,4.000000,4.000000,4.000000,4.000000,4.000000,4.000000,4.000000,4.000000,4.000000,4.000000,4.000000,4.000000,4.000000,4.000000,100.000000,,,,,,,,,,,,,,,,,,,,,,,,,,,,
1703161362.147323,1703161362.147980,92.000000,0.000000,4192.051270,4165.769043,4278.077148,4248.205078,4139.102539,4120.000000,4122.436035,4137.179688,4127.820313,4136.410156,4664.871582,4474.358887,4413.333496,4572.051270,6568.000000,4.000000,80.000000,,,,0.000000,4.000000,4.000000,4.000000,4.000000,4.000000,4.000000,4.000000,4.000000,4.000000,4.000000,4.000000,4.000000,4.000000,4.000000,100.000000,,,,,,,,,,,,,,,,,23.000000,0.000000,0.558483,0.439575,-0.475098,0.518799,0.972775,0.045416,0.140642,-17.637674,-32.400429,65.475258
1703161362.155131,1703161362.155788,93.000000,0.000000,4191.666504,4172.948730,4281.153809,4249.743652,4134.487305,4117.948730,4119.743652,4140.769043,4127.179688,4137.436035,4654.743652,4468.717773,4403.333496,4572.179688,6741.000000,4.000000,80.000000,,,,0.000000,4.000000,4.000000,4.000000,4.000000,4.000000,4.000000,4.000000,4.000000,4.000000,4.000000,4.000000,4.000000,4.000000,4.000000,100.000000,,,,,,,,,,,,,,,,,,,,,,,,,,,,
1703161362.162939,1703161362.163496,94.000000,0.000000,4186.666504,4165.384766,4276.794922,4248.077148,4140.000000,4120.384766,4115.384766,4142.563965,4129.102539,4131.794922,4649.615234,4462.436035,4395.128418,4561.153809,5809.000000,4.000000,80.000000,,,,0.000000,4.000000,4.000000,4.000000,4.000000,4.000000,4.000000,4.000000,4.000000,4.000000,4.000000,4.000000,4.000000,4.000000,4.000000,100.000000,,,,,,,,,,,,,,,,,,,,,,,,,,,,
1703161362.170747,1703161362.171404,95.000000,0.000000,4179.102539,4153.589844,4265.769043,4242.436035,4141.025879,4124.358887,4110.256348,4142.436035,4136.922852,4125.256348,4648.205078,4456.666504,4395.897461,4553.333496,6138.000000,4.000000,80.000000,,,,0.000000,4.000000,4.000000,4.000000,4.000000,4.000000,4.000000,4.000000,4.000000,4.000000,4.000000,4.000000,4.000000,4.000000,4.000000,100.000000,,,,,,,,,,,,,,,,,,,,,,,,,,,,
1703161362.178555,1703161362.179212,96.000000,0.000000,4173.589844,4155.000000,4260.000000,4237.436035,4137.692383,4124.102539,4107.563965,4140.128418,4136.538574,4124.615234,4639.358887,4444.743652,4390.641113,4553.333496,6568.000000,4.000000,80.000000,,,,0.000000,4.000000,4.000000,4.000000,4.000000,4.000000,4.000000,4.000000,4.000000,4.000000,4.000000,4.000000,4.000000,4.000000,4.000000,100.000000,,,,,,,,,,,,,,,,,24.000000,0.000000,0.558198,0.439392,-0.475403,0.518982,0.979612,0.048346,0.154804,-17.523907,-32.460384,65.461067
1703161362.186363,1703161362.187120,97.000000,0.000000,4170.128418,4162.051270,4261.153809,4235.512695,4137.820313,4128.974121,4108.846191,4133.589844,4124.615234,4123.205078,4625.512695,4438.846191,4377.820313,4549.871582,6741.000000,4.000000,80.000000,,,,0.000000,4.000000,4.000000,4.000000,4.000000,4.000000,4.000000,4.000000,4.000000,4.000000,4.000000,4.000000,4.000000,4.000000,4.000000,100.000000,,,,,,,,,,,,,,,,,,,,,,,,,,,,
1703161362.194171,1703161362.195028,98.000000,0.000000,4170.512695,4162.436035,4263.205078,4233.974121,4140.384766,4133.846191,4110.000000,4132.179688,4122.051270,4126.410156,4621.922852,4443.077148,4374.871582,4548.974121,5809.000000,4.000000,80.000000,,,,0.000000,4.000000,4.000000,4.000000,4.000000,4.000000,4.000000,4.000000,4.000000,4.000000,4.000000,4.000000,4.000000,4.000000,4.000000,100.000000,,,,,,,,,,,,,,,,,,,,,,,,,,,,
1703161362.201980,1703161362.202837,99.000000,0.000000,4173.333496,4160.897461,4261.538574,4233.974121,4140.512695,4128.717773,4108.589844,4135.256348,4128.333496,4135.641113,4627.179688,4442.179688,4381.666504,4550.769043,6138.000000,4.000000,80.000000,,,,0.000000,4.000000,4.000000,4.000000,4.000000,4.000000,4.000000,4.000000,4.000000,4.000000,4.000000,4.000000,4.000000,4.000000,4.000000,100.000000,,,,,,,,,,,,,,,,,,,,,,,,,,,,
1703161362.209787,1703161362.210645,100.000000,0.000000,4178.974121,4165.256348,4263.077148,4239.743652,4138.333496,4122.948730,4108.717773,4134.230957,4125.256348,4141.538574,4635.384766,4445.512695,4389.230957,4556.025879,6568.000000,4.000000,80.000000,,,,0.000000,4.000000,4.000000,4.000000,4.000000,4.000000,4.000000,4.000000,4.000000,4.000000,4.000000,4.000000,4.000000,4.000000,4.000000,100.000000,,,,,,,,,,,,,,,,,25.000000,0.000000,0.557862,0.439392,-0.475464,0.519287,0.987425,0.031254,0.159687,-17.388184,-32.431015,65.364960
1703161362.217595,1703161362.218553,101.000000,0.000000,4192.820313,4174.102539,4274.487305,4247.436035,4138.846191,4123.846191,4111.922852,4135.897461,4126.922852,4147.307617,4650.128418,4461.794922,4401.794922,4572.307617,6741.000000,4.000000,80.000000,,,,0.000000,4.000000,4.000000,4.000000,4.000000,4.000000,4.000000,4.000000,4.000000,4.000000,4.000000,4.000000,4.000000,4.000000,4.000000,100.000000,,,,,,,,,,,,,,,,,,,,,,,,,,,,
1703161362.225404,1703161362.226361,102.000000,0.000000,4203.974121,4184.615234,4282.948730,4251.153809,4142.692383,4124.358887,4113.461426,4144.102539,4135.256348,4156.025879,4657.820313,4469.871582,4408.205078,4584.487305,5809.000000,4.000000,80.000000,,,,0.000000,4.000000,4.000000,4.000000,4.000000,4.000000,4.000000,4.000000,4.000000,4.000000,4.000000,4.000000,4.000000,4.000000,4.000000,100.000000,,,,,,,,,,,,,,,,,,,,,,,,,,,,
1703161362.233212,1703161362.234268,103.000000,0.000000,4204.102539,4187.948730,4281.666504,4250.769043,4143.974121,4122.307617,4111.794922,4147.820313,4131.282227,4158.974121,4656.794922,4468.461426,4405.384766,4582.051270,6138.000000,4.000000,80.000000,,,,0.000000,4.000000,4.000000,4.000000,4.000000,4.000000,4.000000,4.000000,4.000000,4.000000,4.000000,4.000000,4.000000,4.000000,4.000000,100.000000,,,,,,,,,,,,,,,,,,,,,,,,,,,,
1703161362.241020,1703161362.242076,104.000000,0.000000,4200.769043,4185.641113,4279.871582,4249.615234,4144.487305,4120.128418,4110.769043,4142.948730,4125.512695,4158.846191,4661.794922,4470.128418,4411.538574,4583.589844,6568.000000,4.000000,80.000000,,,,0.000000,4.000000,4.000000,4.000000,4.000000,4.000000,4.000000,4.000000,4.000000,4.000000,4.000000,4.000000,4.000000,4.000000,4.000000,100.000000,,,,,,,,,,,,,,,,,26.000000,0.000000,0.557907,0.439209,-0.475647,0.519226,0.993285,0.041509,0.158222,-17.416031,-32.554581,65.461800
1703161362.248828,1703161362.249785,105.000000,0.000000,4200.000000,4184.615234,4281.410156,4250.128418,4144.871582,4118.333496,4109.743652,4141.153809,4134.487305,4163.717773,4664.102539,4467.948730,4413.205078,4582.948730,6741.000000,4.000000,80.000000,,,,0.000000,4.000000,4.000000,4.000000,4.000000,4.000000,4.000000,4.000000,4.000000,4.000000,4.000000,4.000000,4.000000,4.000000,4.000000,100.000000,,,,,,,,,,,,,,,,,,,,,,,,,,,,
1703161362.256636,1703161362.257592,106.000000,0.000000,4201.153809,4185.384766,4277.436035,4250.256348,4140.512695,4121.282227,4108.717773,4148.205078,4140.897461,4167.692383,4656.410156,4462.436035,4402.436035,4573.846191,5809.000000,4.000000,80.000000,,,,0.000000,4.000000,4.000000,4.000000,4.000000,4.000000,4.000000,4.000000,4.000000,4.000000,4.000000,4.000000,4.000000,4.000000,4.000000,100.000000,,,,,,,,,,,,,,,,,,,,,,,,,,,,
1703161362.264444,1703161362.265301,107.000000,0.000000,4197.563965,4187.307617,4269.871582,4250.256348,4141.282227,4124.615234,4109.615234,4152.948730,4138.205078,4169.487305,4653.461426,4461.922852,4400.256348,4568.333496,6138.000000,4.000000,80.000000,,,,0.000000,4.000000,4.000000,4.000000,4.000000,4.000000,4.000000,4.000000,4.000000,4.000000,4.000000,4.000000,4.000000,4.000000,4.000000,100.000000,,,,,,,,,,,,,,,,,,,,,,,,,,,,
1703161362.272252,1703161362.273109,108.000000,0.000000,4191.666504,4183.717773,4262.563965,4250.384766,4150.641113,4125.256348,4110.769043,4147.051270,4141.410156,4168.077148,4653.846191,4458.333496,4401.666504,4564.743652,6568.000000,4.000000,80.000000,,,,0.000000,4.000000,4.000000,4.000000,4.000000,4.000000,4.000000,4.000000,4.000000,4.000000,4.000000,4.000000,4.000000,4.000000,4.000000,100.000000,,,,,,,,,,,,,,,,,27.000000,0.000000,0.558017,0.439087,-0.475830,0.519043,0.968380,0.051764,0.146991,-17.374428,-32.599121,65.415619
1703161362.280060,1703161362.280817,109.000000,0.000000,4180.128418,4169.871582,4253.589844,4242.436035,4152.436035,4128.205078,4108.717773,4138.717773,4137.051270,4160.000000,4640.897461,4443.717773,4389.871582,4550.769043,6741.000000,4.000000,80.000000,,,,0.000000,4.000000,4.000000,4.000000,4.000000,4.000000,4.000000,4.000000,4.000000,4.000000,4.000000,4.000000,4.000000,4.000000,4.000000,100.000000,,,,,,,,,,,,,,,,,,,,,,,,,,,,
1703161362.287868,1703161362.288625,110.000000,0.000000,4168.717773,4160.769043,4245.897461,4231.538574,4143.077148,4128.461426,4106.282227,4135.897461,4124.743652,4150.384766,4627.179688,4433.461426,4379.871582,4537.436035,5809.000000,4.000000,80.000000,,,,0.000000,4.000000,4.000000,4.000000,4.000000,4.000000,4.000000,4.000000,4.000000,4.000000,4.000000,4.000000,4.000000,4.000000,4.000000,100.000000,,,,,,,,,,,,,,,,,,,,,,,,,,,,
1703161362.295676,1703161362.296333,111.000000,0.000000,4174.615234,4166.410156,4246.666504,4235.000000,4137.051270,4124.358887,4107.563965,4136.410156,4128.205078,4148.717773,4632.179688,4436.538574,4382.820313,4542.948730,6138.000000,4.000000,80.000000,,,,0.000000,4.000000,4.000000,4.000000,4.000000,4.000000,4.000000,4.000000,4.000000,4.000000,4.000000,4.000000,4.000000,4.000000,4.000000,100.000000,,,,,,,,,,,,,,,,,,,,,,,,,,,,
1703161362.303484,1703161362.304141,112.000000,0.000000,4185.384766,4170.897461,4257.948730,4245.000000,4140.000000,4125.769043,4110.128418,4137.563965,4134.230957,4154.487305,4645.769043,4444.487305,4389.102539,4555.000000,6568.000000,4.000000,80.000000,,,,0.000000,4.000000,4.000000,4.000000,4.000000,4.000000,4.000000,4.000000,4.000000,4.000000,4.000000,4.000000,4.000000,4.000000,4.000000,100.000000,,,,,,,,,,,,,,,,,28.000000,0.000000,0.558279,0.438904,-0.475891,0.518860,0.981565,0.034184,0.146502,-17.436985,-32.655876,65.307388
1703161362.311292,1703161362.311849,113.000000,0.000000,4185.384766,4168.333496,4265.256348,4247.179688,4141.922852,4128.589844,4109.487305,4139.230957,4124.487305,4154.230957,4647.307617,4449.615234,4396.410156,4556.025879,6741.000000,4.000000,80.000000,,,,0.000000,4.000000,4.000000,4.000000,4.000000,4.000000,4.000000,4.000000,4.000000,4.000000,4.000000,4.000000,4.000000,4.000000,4.000000,100.000000,,,,,,,,,,,,,,,,,,,,,,,,,,,,
1703161362.319100,1703161362.319657,114.000000,0.000000,4189.871582,4170.000000,4265.000000,4248.974121,4138.205078,4123.461426,4108.717773,4139.102539,4120.256348,4151.025879,4643.205078,4457.307617,4398.333496,4555.641113,5809.000000,4.000000,80.000000,,,,0.000000,4.000000,4.000000,4.000000,4.000000,4.000000,4.000000,4.000000,4.000000,4.000000,4.000000,4.000000,4.000000,4.000000,4.000000,100.000000,,,,,,,,,,,,,,,,,,,,,,,,,,,,
1703161362.326908,1703161362.327365,115.000000,0.000000,4200.256348,4173.461426,4269.743652,4250.641113,4136.794922,4120.000000,4105.128418,4139.743652,4125.641113,4156.153809,4650.256348,4461.666504,4396.410156,4563.205078,6138.000000,4.000000,80.000000,,,,0.000000,4.000000,4.000000,4.000000,4.000000,4.000000,4.000000,4.000000,4.000000,4.000000,4.000000,4.000000,4.000000,4.000000,4.000000,100.000000,,,,,,,,,,,,,,,,,,,,,,,,,,,,
1703161362.334716,1703161362.335173,116.000000,0.000000,4199.102539,4171.282227,4277.436035,4249.615234,4138.077148,4119.358887,4099.487305,4137.436035,4116.538574,4157.179688,4657.051270,4460.384766,4400.384766,4565.256348,6568.000000,4.000000,80.000000,,,,0.000000,4.000000,4.000000,4.000000,4.000000,4.000000,4.000000,4.000000,4.000000,4.000000,4.000000,4.000000,4.000000,4.000000,4.000000,100.000000,,,,,,,,,,,,,,,,,29.000000,0.000000,0.558422,0.438782,-0.475769,0.518921,0.992797,0.050299,0.155292,-17.476620,-32.656956,65.226646
1703161362.342524,1703161362.342881,117.000000,0.000000,4195.512695,4169.487305,4279.615234,4255.897461,4135.769043,4115.256348,4102.820313,4135.769043,4112.307617,4153.077148,4657.948730,4465.128418,4409.615234,4565.769043,6741.000000,4.000000,80.000000,,,,0.000000,4.000000,4.000000,4.000000,4.000000,4.000000,4.000000,4.000000,4.000000,4.000000,4.000000,4.000000,4.000000,4.000000,4.000000,100.000000,,,,,,,,,,,,,,,,,,,,,,,,,,,,
1703161362.350332,1703161362.350689,118.000000,0.000000,4203.589844,4174.743652,4279.743652,4264.487305,4135.897461,4113.717773,4104.230957,4143.717773,4130.256348,4161.922852,4661.025879,4470.641113,4416.282227,4573.589844,5809.000000,4.000000,80.000000,,,,0.000000,4.000000,4.000000,4.000000,4.000000,4.000000,4.000000,4.000000,4.000000,4.000000,4.000000,4.000000,4.000000,4.000000,4.000000,100.000000,,,,,,,,,,,,,,,,,,,,,,,,,,,,
1703161362.358141,1703161362.358397,119.000000,0.000000,4202.563965,4177.179688,4277.179688,4261.153809,4141.538574,4119.102539,4097.820313,4153.717773,4142.948730,4172.820313,4657.563965,4466.794922,4409.358887,4566.666504,6138.000000,4.000000,80.000000,,,,0.000000,4.000000,4.000000,4.000000,4.000000,4.000000,4.000000,4.000000,4.000000,4.000000,4.000000,4.000000,4.000000,4.000000,4.000000,100.000000,,,,,,,,,,,,,,,,,,,,,,,,,,,,
1703161362.365949,1703161362.366305,120.000000,0.000000,4189.871582,4169.615234,4267.051270,4250.641113,4141.794922,4122.948730,4098.974121,4152.692383,4140.384766,4163.846191,4649.487305,4457.692383,4398.333496,4554.871582,6568.000000,4.000000,80.000000,,,,0.000000,4.000000,4.000000,4.000000,4.000000,4.000000,4.000000,4.000000,4.000000,4.000000,4.000000,4.000000,4.000000,4.000000,4.000000,100.000000,,,,,,,,,,,,,,,,,30.000000,0.000000,0.558727,0.438599,-0.475647,0.518860,0.993285,0.038091,0.152362,-17.428959,-32.607925,65.070648
1703161362.373757,1703161362.374113,121.000000,0.000000,4185.000000,4164.871582,4258.589844,4245.769043,4139.230957,4126.410156,4106.282227,4141.666504,4137.307617,4151.922852,4644.230957,4447.948730,4397.436035,4550.897461,6741.000000,4.000000,80.000000,,,,0.000000,4.000000,4.000000,4.000000,4.000000,4.000000,4.000000,4.000000,4.000000,4.000000,4.000000,4.000000,4.000000,4.000000,4.000000,100.000000,1.000000,100.000000,4.000000,4.000000,4.000000,4.000000,4.000000,4.000000,4.000000,4.000000,4.000000,4.000000,4.000000,4.000000,4.000000,4.000000,,,,,,,,,,,,
1703161362.381565,1703161362.382021,122.000000,0.000000,4184.743652,4166.666504,4255.128418,4247.051270,4142.948730,4134.358887,4112.179688,4134.102539,4136.666504,4151.922852,4637.307617,4439.615234,4396.794922,4541.794922,5809.000000,4.000000,80.000000,,,,0.000000,4.000000,4.000000,4.000000,4.000000,4.000000,4.000000,4.000000,4.000000,4.000000,4.000000,4.000000,4.000000,4.000000,4.000000,100.000000,,,,,,,,,,,,,,,,,,,,,,,,,,,,
1703161362.389373,1703161362.389829,123.000000,0.000000,4185.128418,4167.948730,4257.948730,4251.922852,4148.974121,4140.512695,4119.743652,4137.307617,4137.051270,4153.589844,4639.230957,4440.000000,4394.871582,4540.256348,6138.000000,4.000000,80.000000,,,,0.000000,4.000000,4.000000,4.000000,4.000000,4.000000,4.000000,4.000000,4.000000,4.000000,4.000000,4.000000,4.000000,4.000000,4.000000,100.000000,,,,,,,,,,,,,,,,,,,,,,,,,,,,
1703161362.397181,1703161362.397737,124.000000,0.000000,4190.769043,4170.000000,4264.871582,4259.230957,4153.333496,4140.641113,4122.563965,4140.897461,4137.692383,4154.743652,4648.077148,4449.615234,4399.615234,4553.974121,6568.000000,4.000000,80.000000,,,,0.000000,4.000000,4.000000,4.000000,4.000000,4.000000,4.000000,4.000000,4.000000,4.000000,4.000000,4.000000,4.000000,4.000000,4.000000,100.000000,,,,,,,,,,,,,,,,,31.000000,0.000000,0.559002,0.438477,-0.475769,0.518555,0.985472,0.044439,0.157246,-17.319395,-32.797134,65.163589
1703161362.404989,1703161362.405545,125.000000,0.000000,4197.307617,4170.128418,4265.897461,4261.410156,4154.743652,4138.589844,4119.487305,4138.333496,4138.205078,4156.025879,4643.589844,4457.820313,4401.282227,4556.025879,6741.000000,4.000000,80.000000,,,,0.000000,4.000000,4.000000,4.000000,4.000000,4.000000,4.000000,4.000000,4.000000,4.000000,4.000000,4.000000,4.000000,4.000000,4.000000,100.000000,,,,,,,,,,,,,,,,,,,,,,,,,,,,
1703161362.412797,1703161362.413453,126.000000,0.000000,4199.230957,4169.871582,4267.179688,4259.358887,4151.282227,4133.461426,4122.051270,4141.025879,4137.436035,4155.256348,4644.102539,4458.846191,4401.282227,4551.666504,5809.000000,4.000000,80.000000,,,,0.000000,4.000000,4.000000,4.000000,4.000000,4.000000,4.000000,4.000000,4.000000,4.000000,4.000000,4.000000,4.000000,4.000000,4.000000,100.000000,,,,,,,,,,,,,,,,,,,,,,,,,,,,
1703161362.420605,1703161362.421261,127.000000,0.000000,4200.512695,4172.051270,4276.410156,4260.897461,4150.641113,4127.179688,4125.512695,4150.384766,4134.743652,4153.974121,4659.871582,4459.358887,4409.615234,4560.128418,80.000000,4.000000,80.000000,,,,0.000000,4.000000,4.000000,4.000000,4.000000,4.000000,4.000000,4.000000,4.000000,4.000000,4.000000,4.000000,4.000000,4.000000,4.000000,100.000000,,,,,,,,,,,,,,,,,,,,,,,,,,,,
1703161362.428413,1703161362.428969,0.000000,0.000000,4203.717773,4172.051270,4283.077148,4264.487305,4153.974121,4128.974121,4124.871582,4155.000000,4137.692383,4158.461426,4666.410156,4470.128418,4418.717773,4571.153809,5230.000000,4.000000,80.000000,,,,0.000000,4.000000,4.000000,4.000000,4.000000,4.000000,4.000000,4.000000,4.000000,4.000000,4.000000,4.000000,4.000000,4.000000,4.000000,100.000000,,,,,,,,,,,,,,,,,0.000000,0.000000,0.559155,0.438293,-0.475891,0.518433,0.975217,0.053229,0.152851,-17.437456,-32.800755,65.163895
1703161362.436221,1703161362.436777,1.000000,0.000000,4203.717773,4169.615234,4281.153809,4263.205078,4149.358887,4131.153809,4122.820313,4152.051270,4133.717773,4161.025879,4659.487305,4476.666504,4413.974121,4569.358887,5340.000000,4.000000,80.000000,,,,0.000000,4.000000,4.000000,4.000000,4.000000,4.000000,4.000000,4.000000,4.000000,4.000000,4.000000,4.000000,4.000000,4.000000,4.000000,100.000000,,,,,,,,,,,,,,,,,,,,,,,,,,,,
1703161362.444029,1703161362.444485,2.000000,0.000000,4203.589844,4170.256348,4279.487305,4260.897461,4141.025879,4123.717773,4114.743652,4142.436035,4113.717773,4151.282227,4653.333496,4468.974121,4407.436035,4562.692383,5268.000000,4.000000,80.000000,,,,0.000000,4.000000,4.000000,4.000000,4.000000,4.000000,4.000000,4.000000,4.000000,4.000000,4.000000,4.000000,4.000000,4.000000,4.000000,100.000000,,,,,,,,,,,,,,,,,,,,,,,,,,,,
1703161362.451837,1703161362.452293,3.000000,0.000000,4202.563965,4169.871582,4280.641113,4260.128418,4139.615234,4118.589844,4110.641113,4134.487305,4107.563965,4140.128418,4647.307617,4463.205078,4408.333496,4560.128418,5250.000000,4.000000,80.000000,,,,0.000000,4.000000,4.000000,4.000000,4.000000,4.000000,4.000000,4.000000,4.000000,4.000000,4.000000,4.000000,4.000000,4.000000,4.000000,100.000000,,,,,,,,,,,,,,,,,,,,,,,,,,,,
1703161362.459645,1703161362.460001,4.000000,0.000000,4199.871582,4167.436035,4277.436035,4255.769043,4142.820313,4121.922852,4111.794922,4136.025879,4121.922852,4139.871582,4643.589844,4462.820313,4405.769043,4560.000000,5090.000000,4.000000,80.000000,,,,0.000000,4.000000,4.000000,4.000000,4.000000,4.000000,4.000000,4.000000,4.000000,4.000000,4.000000,4.000000,4.000000,4.000000,4.000000,100.000000,,,,,,,,,,,,,,,,,1.000000,0.000000,0.559189,0.438171,-0.475830,0.518555,0.982542,0.043951,0.145526,-17.377045,-32.754013,65.280838
1703161362.467453,1703161362.467809,5.000000,0.000000,4199.615234,4168.461426,4269.871582,4249.871582,4149.743652,4128.077148,4109.615234,4138.846191,4129.358887,4147.563965,4648.077148,4457.948730,4401.794922,4556.282227,5148.000000,4.000000,80.000000,,,,0.000000,4.000000,4.000000,4.000000,4.000000,4.000000,4.000000,4.000000,4.000000,4.000000,4.000000,4.000000,4.000000,4.000000,4.000000,100.000000,,,,,,,,,,,,,,,,,,,,,,,,,,,,
1703161362.475261,1703161362.475517,6.000000,0.000000,4196.666504,4165.256348,4263.333496,4248.974121,4151.153809,4134.358887,4112.307617,4135.897461,4126.922852,4147.820313,4646.153809,4447.179688,4398.846191,4551.025879,5038.000000,4.000000,80.000000,,,,0.000000,4.000000,4.000000,4.000000,4.000000,4.000000,4.000000,4.000000,4.000000,4.000000,4.000000,4.000000,4.000000,4.000000,4.000000,100.000000,,,,,,,,,,,,,,,,,,,,,,,,,,,,
1703161362.483069,1703161362.483325,7.000000,0.000000,4189.743652,4160.512695,4262.820313,4248.077148,4148.205078,4137.948730,4115.641113,4135.128418,4129.358887,4142.948730,4636.410156,4442.820313,4400.000000,4550.769043,5248.000000,4.000000,80.000000,,,,0.000000,4.000000,4.000000,4.000000,4.000000,4.000000,4.000000,4.000000,4.000000,4.000000,4.000000,4.000000,4.000000,4.000000,4.000000,100.000000,,,,,,,,,,,,,,,,,,,,,,,,,,,,
1703161362.490877,1703161362.491033,8.000000,0.000000,4186.025879,4161.922852,4263.461426,4245.384766,4148.717773,4136.666504,4112.948730,4136.922852,4134.743652,4146.153809,4634.871582,4447.820313,4406.922852,4551.025879,5011.000000,4.000000,80.000000,,,,0.000000,4.000000,4.000000,4.000000,4.000000,4.000000,4.000000,4.000000,4.000000,4.000000,4.000000,4.000000,4.000000,4.000000,4.000000,100.000000,,,,,,,,,,,,,,,,,2.000000,0.000000,0.559389,0.438049,-0.475708,0.518555,0.992309,0.043951,0.164083,-17.356007,-32.711945,65.269424
1703161362.498685,1703161362.498941,9.000000,0.000000,4186.410156,4161.538574,4262.179688,4245.641113,4147.051270,4137.179688,4114.743652,4135.769043,4138.333496,4154.871582,4642.692383,4450.769043,4410.128418,4551.153809,5238.000000,4.000000,80.000000,,,,0.000000,4.000000,4.000000,4.000000,4.000000,4.000000,4.000000,4.000000,4.000000,4.000000,4.000000,4.000000,4.000000,4.000000,4.000000,100.000000,,,,,,,,,,,,,,,,,,,,,,,,,,,,
1703161362.506493,1703161362.506750,10.000000,0.000000,4185.897461,4157.692383,4261.922852,4246.153809,4145.128418,4136.794922,4121.666504,4136.666504,4139.871582,4156.025879,4648.077148,4448.333496,4409.615234,4553.461426,5808.000000,4.000000,80.000000,,,,0.000000,4.000000,4.000000,4.000000,4.000000,4.000000,4.000000,4.000000,4.000000,4.000000,4.000000,4.000000,4.000000,4.000000,4.000000,100.000000,,,,,,,,,,,,,,,,,,,,,,,,,,,,
1703161362.514301,1703161362.514558,11.000000,0.000000,4186.538574,4158.077148,4263.333496,4244.743652,4148.205078,4129.358887,4121.922852,4140.128418,4140.000000,4153.589844,4648.461426,4450.256348,4411.025879,4553.589844,6143.000000,4.000000,80.000000,,,,0.000000,4.000000,4.000000,4.000000,4.000000,4.000000,4.000000,4.000000,4.000000,4.000000,4.000000,4.000000,4.000000,4.000000,4.000000,100.000000,,,,,,,,,,,,,,,,,,,,,,,,,,,,
1703161362.522110,1703161362.522266,12.000000,0.000000,4189.230957,4159.230957,4264.615234,4245.641113,4146.153809,4123.717773,4120.641113,4142.179688,4135.769043,4156.282227,4648.333496,4458.846191,4411.538574,4553.717773,6554.000000,4.000000,80.000000,,,,0.000000,4.000000,4.000000,4.000000,4.000000,4.000000,4.000000,4.000000,4.000000,4.000000,4.000000,4.000000,4.000000,4.000000,4.000000,100.000000,,,,,,,,,,,,,,,,,3.000000,0.000000,0.559459,0.438110,-0.475769,0.518372,0.982053,0.058601,0.157734,-17.270405,-32.707417,65.242477
1703161362.529918,1703161362.530174,13.000000,0.000000,4188.974121,4154.102539,4266.538574,4246.282227,4136.410156,4122.563965,4122.179688,4143.205078,4127.051270,4150.897461,4640.256348,4461.922852,4405.769043,4553.717773,6741.000000,4.000000,80.000000,,,,0.000000,4.000000,4.000000,4.000000,4.000000,4.000000,4.000000,4.000000,4.000000,4.000000,4.000000,4.000000,4.000000,4.000000,4.000000,100.000000,,,,,,,,,,,,,,,,,,,,,,,,,,,,
1703161362.537726,1703161362.537982,14.000000,0.000000,4191.410156,4155.384766,4270.512695,4245.512695,4136.025879,4119.487305,4122.563965,4141.666504,4117.179688,4138.974121,4633.205078,4458.077148,4401.282227,4553.589844,5808.000000,4.000000,80.000000,,,,0.000000,4.000000,4.000000,4.000000,4.000000,4.000000,4.000000,4.000000,4.000000,4.000000,4.000000,4.000000,4.000000,4.000000,4.000000,100.000000,,,,,,,,,,,,,,,,,,,,,,,,,,,,
1703161362.545534,1703161362.545890,15.000000,0.000000,4199.358887,4165.256348,4276.153809,4248.589844,4143.333496,4117.051270,4123.974121,4133.717773,4108.589844,4136.794922,4637.436035,4456.538574,4405.128418,4555.128418,6143.000000,4.000000,80.000000,,,,0.000000,4.000000,4.000000,4.000000,4.000000,4.000000,4.000000,4.000000,4.000000,4.000000,4.000000,4.000000,4.000000,4.000000,4.000000,100.000000,,,,,,,,,,,,,,,,,,,,,,,,,,,,
1703161362.553342,1703161362.553699,16.000000,0.000000,4204.102539,4167.563965,4277.051270,4251.538574,4143.077148,4119.871582,4120.512695,4125.128418,4107.179688,4139.615234,4640.512695,4455.128418,4408.717773,4556.410156,0.000000,4.000000,80.000000,,,,0.000000,4.000000,4.000000,4.000000,4.000000,4.000000,4.000000,4.000000,4.000000,4.000000,4.000000,4.000000,4.000000,4.000000,4.000000,100.000000,,,,,,,,,,,,,,,,,4.000000,0.000000,0.559628,0.438110,-0.475769,0.518188,0.980100,0.059089,0.148944,-17.343365,-32.553341,65.234894
1703161362.561150,1703161362.561607,17.000000,0.000000,4201.794922,4163.974121,4270.897461,4249.743652,4142.820313,4122.692383,4112.307617,4124.230957,4117.436035,4135.384766,4634.102539,4450.512695,4402.307617,4554.615234,0.000000,4.000000,80.000000,,,,0.000000,4.000000,4.000000,4.000000,4.000000,4.000000,4.000000,4.000000,4.000000,4.000000,4.000000,4.000000,4.000000,4.000000,4.000000,100.000000,,,,,,,,,,,,,,,,,,,,,,,,,,,,
1703161362.568958,1703161362.569415,18.000000,0.000000,4198.717773,4166.794922,4264.102539,4248.589844,4145.512695,4122.051270,4110.000000,4127.820313,4132.436035,4134.358887,4626.922852,4445.897461,4394.358887,4552.563965,0.000000,4.000000,80.000000,,,,0.000000,4.000000,4.000000,4.000000,4.000000,4.000000,4.000000,4.000000,4.000000,4.000000,4.000000,4.000000,4.000000,4.000000,4.000000,100.000000,,,,,,,,,,,,,,,,,,,,,,,,,,,,
1703161362.576766,1703161362.577323,19.000000,0.000000,4197.820313,4168.205078,4263.205078,4248.589844,4147.692383,4129.230957,4116.538574,4130.512695,4138.077148,4139.358887,4629.487305,4443.461426,4397.051270,4550.384766,0.000000,4.000000,80.000000,,,,0.000000,4.000000,4.000000,4.000000,4.000000,4.000000,4.000000,4.000000,4.000000,4.000000,4.000000,4.000000,4.000000,4.000000,4.000000,100.000000,,,,,,,,,,,,,,,,,,,,,,,,,,,,
1703161362.584574,1703161362.585131,20.000000,0.000000,4192.948730,4156.538574,4261.794922,4245.769043,4145.512695,4140.512695,4123.205078,4133.333496,4136.794922,4138.333496,4632.948730,4442.820313,4399.102539,4546.410156,0.000000,4.000000,80.000000,,,,0.000000,4.000000,4.000000,4.000000,4.000000,4.000000,4.000000,4.000000,4.000000,4.000000,4.000000,4.000000,4.000000,4.000000,4.000000,100.000000,,,,,,,,,,,,,,,,,5.000000,0.000000,0.559745,0.438171,-0.475708,0.518066,0.987425,0.054206,0.146502,-17.325695,-32.664673,65.228073
1703161362.592382,1703161362.593039,21.000000,0.000000,4184.487305,4150.512695,4259.743652,4244.358887,4140.512695,4138.974121,4123.461426,4136.666504,4137.692383,4138.205078,4630.512695,4444.230957,4395.641113,4548.589844,0.000000,4.000000,80.000000,,,,0.000000,4.000000,4.000000,4.000000,4.000000,4.000000,4.000000,4.000000,4.000000,4.000000,4.000000,4.000000,4.000000,4.000000,4.000000,100.000000,,,,,,,,,,,,,,,,,,,,,,,,,,,,
1703161362.600190,1703161362.600847,22.000000,0.000000,4186.538574,4162.692383,4260.769043,4247.948730,4140.256348,4130.384766,4119.743652,4136.025879,4135.512695,4140.256348,4628.589844,4442.948730,4395.769043,4552.692383,0.000000,4.000000,80.000000,,,,0.000000,4.000000,4.000000,4.000000,4.000000,4.000000,4.000000,4.000000,4.000000,4.000000,4.000000,4.000000,4.000000,4.000000,4.000000,100.000000,,,,,,,,,,,,,,,,,,,,,,,,,,,,
1703161362.607998,1703161362.608754,23.000000,0.000000,4196.410156,4171.794922,4262.820313,4247.820313,4147.948730,4129.871582,4118.205078,4132.179688,4128.333496,4142.692383,4633.717773,4445.256348,4398.717773,4552.179688,0.000000,4.000000,80.000000,,,,0.000000,4.000000,4.000000,4.000000,4.000000,4.000000,4.000000,4.000000,4.000000,4.000000,4.000000,4.000000,4.000000,4.000000,4.000000,100.000000,,,,,,,,,,,,,,,,,,,,,,,,,,,,
1703161362.615806,1703161362.616562,24.000000,0.000000,4202.307617,4168.077148,4269.615234,4245.769043,4148.589844,4129.230957,4122.179688,4141.282227,4133.846191,4153.205078,4651.282227,4463.077148,4407.051270,4558.205078,0.000000,4.000000,80.000000,,,,0.000000,4.000000,4.000000,4.000000,4.000000,4.000000,4.000000,4.000000,4.000000,4.000000,4.000000,4.000000,4.000000,4.000000,4.000000,100.000000,,,,,,,,,,,,,,,,,6.000000,0.000000,0.559897,0.438049,-0.475708,0.518005,0.972287,0.048346,0.154804,-17.459793,-32.614872,65.205269
1703161362.623614,1703161362.624270,25.000000,0.000000,4211.538574,4171.153809,4281.794922,4257.692383,4142.820313,4122.948730,4122.948730,4156.410156,4146.282227,4163.333496,4666.153809,4477.563965,4420.512695,4574.871582,0.000000,4.000000,80.000000,,,,0.000000,4.000000,4.000000,4.000000,4.000000,4.000000,4.000000,4.000000,4.000000,4.000000,4.000000,4.000000,4.000000,4.000000,4.000000,100.000000,,,,,,,,,,,,,,,,,,,,,,,,,,,,
1703161362.631422,1703161362.632078,26.000000,0.000000,4217.436035,4183.846191,4284.743652,4265.897461,4146.922852,4120.256348,4115.512695,4147.307617,4128.717773,4150.384766,4653.077148,4468.205078,4413.846191,4576.025879,0.000000,4.000000,80.000000,,,,0.000000,4.000000,4.000000,4.000000,4.000000,4.000000,4.000000,4.000000,4.000000,4.000000,4.000000,4.000000,4.000000,4.000000,4.000000,100.000000,,,,,,,,,,,,,,,,,,,,,,,,,,,,
1703161362.639230,1703161362.639787,27.000000,0.000000,4208.333496,4188.717773,4275.512695,4255.384766,4150.000000,4118.846191,4109.743652,4123.974121,4102.563965,4134.487305,4631.282227,4453.589844,4391.794922,4558.333496,0.000000,4.000000,80.000000,,,,0.000000,4.000000,4.000000,4.000000,4.000000,4.000000,4.000000,4.000000,4.000000,4.000000,4.000000,4.000000,4.000000,4.000000,4.000000,100.000000,,,,,,,,,,,,,,,,,,,,,,,,,,,,
1703161362.647038,1703161362.647695,28.000000,0.000000,4201.922852,4187.948730,4268.974121,4253.717773,4146.410156,4118.461426,4112.179688,4119.615234,4108.589844,4136.922852,4632.948730,4451.410156,4384.487305,4553.077148,0.000000,4.000000,80.000000,,,,0.000000,4.000000,4.000000,4.000000,4.000000,4.000000,4.000000,4.000000,4.000000,4.000000,4.000000,4.000000,4.000000,4.000000,4.000000,100.000000,,,,,,,,,,,,,,,,,7.000000,0.000000,0.560053,0.437988,-0.475647,0.517944,0.982542,0.040044,0.152851,-17.547146,-32.703384,65.334740
1703161362.654846,1703161362.655503,29.000000,0.000000,4203.077148,4187.436035,4267.563965,4259.871582,4146.025879,4119.743652,4112.051270,4125.641113,4122.563965,4133.846191,4632.307617,4449.487305,4386.153809,4553.717773,0.000000,4.000000,80.000000,,,,0.000000,4.000000,4.000000,4.000000,4.000000,4.000000,4.000000,4.000000,4.000000,4.000000,4.000000,4.000000,4.000000,4.000000,4.000000,100.000000,,,,,,,,,,,,,,,,,,,,,,,,,,,,
