title:حلاق اختر, start timestamp:1703153207.803704, stop timestamp:1703153218.680310, headset type:EPOCX, headset serial:E50206EF, headset firmware:720, channels:67, sampling rate:eeg_128;mot_32, samples:1394      , version:2.2, 
Timestamp,OriginalTimestamp,EEG.Counter,EEG.Interpolated,EEG.AF3,EEG.F7,EEG.F3,EEG.FC5,EEG.T7,EEG.P7,EEG.O1,EEG.O2,EEG.P8,EEG.T8,EEG.FC6,EEG.F4,EEG.F8,EEG.AF4,EEG.RawCq,EEG.Battery,EEG.BatteryPercent,MarkerIndex,MarkerType,MarkerValueInt,EEG.MarkerHardware,CQ.AF3,CQ.F7,CQ.F3,CQ.FC5,CQ.T7,CQ.P7,CQ.O1,CQ.O2,CQ.P8,CQ.T8,CQ.FC6,CQ.F4,CQ.F8,CQ.AF4,CQ.Overall,EQ.SampleRateQuality,EQ.OVERALL,EQ.AF3,EQ.F7,EQ.F3,EQ.FC5,EQ.T7,EQ.P7,EQ.O1,EQ.O2,EQ.P8,EQ.T8,EQ.FC6,EQ.F4,EQ.F8,EQ.AF4,MOT.CounterMems,MOT.InterpolatedMems,MOT.Q0,MOT.Q1,MOT.Q2,MOT.Q3,MOT.AccX,MOT.AccY,MOT.AccZ,MOT.MagX,MOT.MagY,MOT.MagZ
1703153207.803704,1703153207.804390,117.000000,0.000000,4225.769043,4210.769043,4279.358887,4261.922852,4216.153809,4197.820313,4312.948730,4167.307617,4098.205078,4180.641113,4536.410156,4457.692383,4369.487305,4465.897461,7147.000000,4.000000,89.000000,,,,0.000000,4.000000,4.000000,4.000000,4.000000,4.000000,4.000000,0.000000,4.000000,4.000000,4.000000,4.000000,4.000000,4.000000,4.000000,66.666664,,,,,,,,,,,,,,,,,,,,,,,,,,,,
1703153207.811512,1703153207.812098,118.000000,0.000000,4217.948730,4211.794922,4279.358887,4262.051270,4216.025879,4201.666504,4313.589844,4167.307617,4100.256348,4180.897461,4541.666504,4457.179688,4371.666504,4455.897461,5958.000000,4.000000,89.000000,,,,0.000000,4.000000,4.000000,4.000000,4.000000,4.000000,4.000000,0.000000,4.000000,4.000000,4.000000,4.000000,4.000000,4.000000,4.000000,66.666664,,,,,,,,,,,,,,,,,,,,,,,,,,,,
1703153207.819320,1703153207.819906,119.000000,0.000000,4228.589844,4213.717773,4280.384766,4262.179688,4216.410156,4204.487305,4313.205078,4175.000000,4109.487305,4190.256348,4553.333496,4465.769043,4377.563965,4461.025879,6351.000000,4.000000,89.000000,,,,0.000000,4.000000,4.000000,4.000000,4.000000,4.000000,4.000000,0.000000,4.000000,4.000000,4.000000,4.000000,4.000000,4.000000,4.000000,66.666664,,,,,,,,,,,,,,,,,,,,,,,,,,,,
1703153207.827128,1703153207.827614,120.000000,0.000000,4228.205078,4215.000000,4278.205078,4261.922852,4219.615234,4205.000000,4313.333496,4182.563965,4116.922852,4192.692383,4554.743652,4469.871582,4380.256348,4475.256348,6763.000000,4.000000,89.000000,,,,0.000000,4.000000,4.000000,4.000000,4.000000,4.000000,4.000000,0.000000,4.000000,4.000000,4.000000,4.000000,4.000000,4.000000,4.000000,66.666664,,,,,,,,,,,,,,,,,30.000000,0.000000,0.638463,0.407288,-0.544434,0.360657,0.992797,0.128434,0.082041,-16.504833,-30.792320,65.384743
1703153207.834936,1703153207.835422,121.000000,0.000000,4217.563965,4215.000000,4275.769043,4263.205078,4219.358887,4207.563965,4311.794922,4177.179688,4114.102539,4186.666504,4546.666504,4464.871582,4375.256348,4471.282227,7147.000000,4.000000,89.000000,,,,0.000000,4.000000,4.000000,4.000000,4.000000,4.000000,4.000000,0.000000,4.000000,4.000000,4.000000,4.000000,4.000000,4.000000,4.000000,66.666664,,,,,,,,,,,,,,,,,,,,,,,,,,,,
1703153207.842744,1703153207.843130,122.000000,0.000000,4214.615234,4215.256348,4277.051270,4263.974121,4214.358887,4206.666504,4310.384766,4174.743652,4115.256348,4186.922852,4547.307617,4462.563965,4376.282227,4461.666504,5958.000000,4.000000,89.000000,,,,0.000000,4.000000,4.000000,4.000000,4.000000,4.000000,4.000000,0.000000,4.000000,4.000000,4.000000,4.000000,4.000000,4.000000,4.000000,66.666664,,,,,,,,,,,,,,,,,,,,,,,,,,,,
1703153207.850552,1703153207.850938,123.000000,0.000000,4214.230957,4216.153809,4279.358887,4263.974121,4217.307617,4201.538574,4309.102539,4178.461426,4122.051270,4189.487305,4552.948730,4462.820313,4381.666504,4463.717773,6351.000000,4.000000,89.000000,,,,0.000000,4.000000,4.000000,4.000000,4.000000,4.000000,4.000000,0.000000,4.000000,4.000000,4.000000,4.000000,4.000000,4.000000,4.000000,66.666664,,,,,,,,,,,,,,,,,,,,,,,,,,,,
1703153207.858360,1703153207.858646,124.000000,0.000000,4212.692383,4214.102539,4280.384766,4263.717773,4225.384766,4202.051270,4309.102539,4182.307617,4127.436035,4193.461426,4556.538574,4463.846191,4387.692383,4480.256348,6763.000000,4.000000,89.000000,,,,0.000000,4.000000,4.000000,4.000000,4.000000,4.000000,4.000000,0.000000,4.000000,4.000000,4.000000,4.000000,4.000000,4.000000,4.000000,66.666664,,,,,,,,,,,,,,,,,31.000000,0.000000,0.638355,0.407104,-0.544617,0.360779,0.993285,0.139665,0.082041,-16.471018,-30.729755,65.179604
1703153207.866168,1703153207.866554,125.000000,0.000000,4223.974121,4215.384766,4284.743652,4269.230957,4222.307617,4209.230957,4313.461426,4191.025879,4135.000000,4202.436035,4563.846191,4473.974121,4394.871582,4491.282227,7147.000000,4.000000,89.000000,,,,0.000000,4.000000,4.000000,4.000000,4.000000,4.000000,4.000000,0.000000,4.000000,4.000000,4.000000,4.000000,4.000000,4.000000,4.000000,66.666664,,,,,,,,,,,,,,,,,,,,,,,,,,,,
1703153207.873976,1703153207.874363,126.000000,0.000000,4233.205078,4225.769043,4282.948730,4276.666504,4215.000000,4213.461426,4313.333496,4196.538574,4140.000000,4208.846191,4569.743652,4480.128418,4397.051270,4482.820313,5958.000000,4.000000,89.000000,,,,0.000000,4.000000,4.000000,4.000000,4.000000,4.000000,4.000000,0.000000,4.000000,4.000000,4.000000,4.000000,4.000000,4.000000,4.000000,66.666664,,,,,,,,,,,,,,,,,,,,,,,,,,,,
1703153207.881784,1703153207.882271,127.000000,0.000000,4224.487305,4230.641113,4279.615234,4276.410156,4220.256348,4210.897461,4311.153809,4191.666504,4139.487305,4208.589844,4571.794922,4477.307617,4396.538574,4484.871582,89.000000,4.000000,89.000000,,,,0.000000,4.000000,4.000000,4.000000,4.000000,4.000000,4.000000,0.000000,4.000000,4.000000,4.000000,4.000000,4.000000,4.000000,4.000000,66.666664,,,,,,,,,,,,,,,,,,,,,,,,,,,,
1703153207.889592,1703153207.890079,0.000000,0.000000,4221.410156,4229.487305,4286.025879,4275.512695,4230.512695,4209.615234,4314.743652,4187.051270,4140.384766,4210.256348,4572.179688,4476.922852,4398.846191,4496.922852,5275.000000,4.000000,89.000000,,,,0.000000,4.000000,4.000000,4.000000,4.000000,4.000000,4.000000,0.000000,4.000000,4.000000,4.000000,4.000000,4.000000,4.000000,4.000000,66.666664,,,,,,,,,,,,,,,,,0.000000,0.000000,0.638338,0.407104,-0.544556,0.360901,0.984495,0.125015,0.083995,-16.540583,-30.723446,65.211647
1703153207.897400,1703153207.897987,1.000000,0.000000,4230.128418,4231.922852,4287.307617,4278.846191,4230.641113,4214.487305,4315.384766,4185.256348,4140.769043,4212.179688,4570.897461,4476.666504,4404.358887,4492.692383,5597.000000,4.000000,89.000000,,,,0.000000,4.000000,4.000000,4.000000,4.000000,4.000000,4.000000,0.000000,4.000000,4.000000,4.000000,4.000000,4.000000,4.000000,4.000000,66.666664,,,,,,,,,,,,,,,,,,,,,,,,,,,,
1703153207.905208,1703153207.905795,2.000000,0.000000,4233.974121,4231.922852,4285.000000,4280.384766,4229.743652,4217.436035,4313.333496,4179.743652,4138.333496,4206.282227,4568.846191,4473.974121,4408.077148,4490.641113,5417.000000,4.000000,89.000000,,,,0.000000,4.000000,4.000000,4.000000,4.000000,4.000000,4.000000,0.000000,4.000000,4.000000,4.000000,4.000000,4.000000,4.000000,4.000000,66.666664,,,,,,,,,,,,,,,,,,,,,,,,,,,,
1703153207.913016,1703153207.913703,3.000000,0.000000,4236.153809,4230.897461,4288.205078,4278.846191,4233.077148,4213.205078,4314.230957,4176.666504,4136.410156,4201.410156,4570.384766,4476.153809,4407.436035,4492.051270,5410.000000,4.000000,89.000000,,,,0.000000,4.000000,4.000000,4.000000,4.000000,4.000000,4.000000,0.000000,4.000000,4.000000,4.000000,4.000000,4.000000,4.000000,4.000000,66.666664,,,,,,,,,,,,,,,,,,,,,,,,,,,,
1703153207.920824,1703153207.921511,4.000000,0.000000,4234.615234,4232.436035,4288.846191,4275.641113,4230.000000,4212.179688,4313.589844,4181.538574,4143.461426,4204.102539,4574.743652,4483.974121,4405.384766,4478.717773,5232.000000,4.000000,89.000000,,,,0.000000,4.000000,4.000000,4.000000,4.000000,4.000000,4.000000,0.000000,4.000000,4.000000,4.000000,4.000000,4.000000,4.000000,4.000000,66.666664,,,,,,,,,,,,,,,,,1.000000,0.000000,0.638312,0.407227,-0.544495,0.360901,0.986937,0.125504,0.077158,-16.569857,-30.684435,65.123810
1703153207.928632,1703153207.929418,5.000000,0.000000,4232.948730,4232.179688,4291.538574,4276.025879,4225.897461,4214.871582,4311.794922,4187.948730,4149.102539,4207.436035,4577.051270,4487.436035,4404.743652,4484.743652,5265.000000,4.000000,89.000000,,,,0.000000,4.000000,4.000000,4.000000,4.000000,4.000000,4.000000,0.000000,4.000000,4.000000,4.000000,4.000000,4.000000,4.000000,4.000000,66.666664,,,,,,,,,,,,,,,,,,,,,,,,,,,,
1703153207.936441,1703153207.937226,6.000000,0.000000,4239.102539,4227.948730,4294.743652,4273.717773,4227.948730,4215.512695,4311.153809,4187.563965,4151.794922,4209.230957,4577.179688,4481.666504,4406.410156,4509.102539,0.000000,4.000000,89.000000,,,,0.000000,4.000000,4.000000,4.000000,4.000000,4.000000,4.000000,0.000000,4.000000,4.000000,4.000000,4.000000,4.000000,4.000000,4.000000,66.666664,,,,,,,,,,,,,,,,,,,,,,,,,,,,
1703153207.944249,1703153207.945134,7.000000,0.000000,4236.282227,4227.948730,4287.820313,4267.307617,4231.794922,4217.948730,4312.436035,4186.410156,4154.102539,4209.487305,4574.871582,4477.948730,4405.897461,4504.102539,5083.000000,4.000000,89.000000,,,,0.000000,4.000000,4.000000,4.000000,4.000000,4.000000,4.000000,0.000000,4.000000,4.000000,4.000000,4.000000,4.000000,4.000000,4.000000,66.666664,,,,,,,,,,,,,,,,,,,,,,,,,,,,
1703153207.952057,1703153207.952942,8.000000,0.000000,4228.717773,4232.820313,4286.153809,4268.846191,4229.743652,4216.025879,4313.846191,4186.794922,4148.589844,4203.205078,4571.794922,4479.230957,4405.897461,4491.153809,5394.000000,4.000000,89.000000,,,,0.000000,4.000000,4.000000,4.000000,4.000000,4.000000,4.000000,0.000000,4.000000,4.000000,4.000000,4.000000,4.000000,4.000000,4.000000,66.666664,,,,,,,,,,,,,,,,,2.000000,0.000000,0.638399,0.407471,-0.544250,0.360840,0.979123,0.127457,0.076181,-16.329538,-30.682659,65.044762
1703153207.959865,1703153207.960650,9.000000,0.000000,4235.128418,4229.102539,4292.051270,4272.307617,4220.256348,4205.384766,4311.922852,4184.102539,4141.794922,4200.769043,4573.461426,4476.538574,4407.820313,4494.743652,5305.000000,4.000000,89.000000,,,,0.000000,4.000000,4.000000,4.000000,4.000000,4.000000,4.000000,0.000000,4.000000,4.000000,4.000000,4.000000,4.000000,4.000000,4.000000,66.666664,,,,,,,,,,,,,,,,,,,,,,,,,,,,
1703153207.967673,1703153207.968458,10.000000,0.000000,4240.256348,4220.128418,4295.000000,4270.769043,4216.922852,4200.897461,4312.436035,4180.641113,4142.692383,4199.615234,4570.128418,4475.128418,4403.589844,4488.717773,5943.000000,4.000000,89.000000,,,,0.000000,4.000000,4.000000,4.000000,4.000000,4.000000,4.000000,0.000000,4.000000,4.000000,4.000000,4.000000,4.000000,4.000000,4.000000,66.666664,,,,,,,,,,,,,,,,,,,,,,,,,,,,
1703153207.975481,1703153207.976166,11.000000,0.000000,4228.974121,4218.717773,4292.179688,4271.410156,4226.025879,4205.256348,4313.461426,4181.153809,4140.512695,4193.717773,4559.743652,4477.307617,4394.358887,4481.282227,6354.000000,4.000000,89.000000,,,,0.000000,4.000000,4.000000,4.000000,4.000000,4.000000,4.000000,0.000000,4.000000,4.000000,4.000000,4.000000,4.000000,4.000000,4.000000,66.666664,,,,,,,,,,,,,,,,,,,,,,,,,,,,
1703153207.983289,1703153207.983974,12.000000,0.000000,4223.974121,4219.871582,4286.410156,4269.358887,4224.871582,4204.871582,4313.333496,4182.436035,4133.974121,4193.589844,4556.153809,4473.077148,4390.384766,4491.922852,6761.000000,4.000000,89.000000,,,,0.000000,4.000000,4.000000,4.000000,4.000000,4.000000,4.000000,0.000000,4.000000,4.000000,4.000000,4.000000,4.000000,4.000000,4.000000,66.666664,,,,,,,,,,,,,,,,,3.000000,0.000000,0.638455,0.407654,-0.544128,0.360718,0.991332,0.120132,0.077158,-16.529917,-30.664392,65.190285
1703153207.991097,1703153207.991682,13.000000,0.000000,4233.333496,4215.000000,4284.871582,4264.615234,4216.282227,4200.384766,4315.000000,4177.563965,4132.820313,4193.333496,4558.205078,4464.358887,4389.230957,4493.461426,7155.000000,4.000000,89.000000,,,,0.000000,4.000000,4.000000,4.000000,4.000000,4.000000,4.000000,0.000000,4.000000,4.000000,4.000000,4.000000,4.000000,4.000000,4.000000,66.666664,,,,,,,,,,,,,,,,,,,,,,,,,,,,
1703153207.998905,1703153207.999490,14.000000,0.000000,4235.512695,4216.410156,4287.179688,4272.436035,4221.025879,4200.384766,4312.820313,4176.410156,4140.769043,4191.538574,4566.666504,4466.153809,4393.717773,4483.717773,5943.000000,4.000000,89.000000,,,,0.000000,4.000000,4.000000,4.000000,4.000000,4.000000,4.000000,0.000000,4.000000,4.000000,4.000000,4.000000,4.000000,4.000000,4.000000,66.666664,,,,,,,,,,,,,,,,,,,,,,,,,,,,
1703153208.006713,1703153208.007198,15.000000,0.000000,4235.384766,4224.230957,4292.948730,4280.512695,4226.410156,4202.051270,4312.436035,4185.512695,4152.179688,4200.769043,4576.410156,4476.666504,4402.820313,4490.897461,6354.000000,4.000000,89.000000,,,,0.000000,4.000000,4.000000,4.000000,4.000000,4.000000,4.000000,0.000000,4.000000,4.000000,4.000000,4.000000,4.000000,4.000000,4.000000,66.666664,,,,,,,,,,,,,,,,,,,,,,,,,,,,
1703153208.014521,1703153208.015006,16.000000,0.000000,4237.307617,4221.666504,4291.410156,4270.641113,4219.358887,4202.948730,4315.384766,4183.461426,4150.512695,4202.692383,4565.512695,4470.512695,4391.922852,4486.922852,0.000000,4.000000,89.000000,,,,0.000000,4.000000,4.000000,4.000000,4.000000,4.000000,4.000000,0.000000,4.000000,4.000000,4.000000,4.000000,4.000000,4.000000,4.000000,66.666664,,,,,,,,,,,,,,,,,4.000000,0.000000,0.638758,0.407532,-0.543945,0.360596,0.976193,0.127457,0.080576,-16.510260,-30.664619,65.271263
1703153208.022329,1703153208.022714,17.000000,0.000000,4224.615234,4211.538574,4281.922852,4261.282227,4214.743652,4202.307617,4314.487305,4173.461426,4143.846191,4189.358887,4550.128418,4460.000000,4380.512695,4458.974121,0.000000,4.000000,89.000000,,,,0.000000,4.000000,4.000000,4.000000,4.000000,4.000000,4.000000,0.000000,4.000000,4.000000,4.000000,4.000000,4.000000,4.000000,4.000000,66.666664,,,,,,,,,,,,,,,,,,,,,,,,,,,,
1703153208.030137,1703153208.030623,18.000000,0.000000,4221.282227,4216.922852,4287.948730,4269.102539,4218.717773,4202.179688,4313.077148,4177.436035,4148.974121,4183.974121,4555.641113,4466.025879,4391.794922,4457.692383,0.000000,4.000000,89.000000,,,,0.000000,4.000000,4.000000,4.000000,4.000000,4.000000,4.000000,0.000000,4.000000,4.000000,4.000000,4.000000,4.000000,4.000000,4.000000,66.666664,,,,,,,,,,,,,,,,,,,,,,,,,,,,
1703153208.037945,1703153208.038431,19.000000,0.000000,4247.820313,4229.230957,4299.230957,4278.461426,4219.102539,4203.333496,4314.102539,4187.051270,4153.461426,4192.307617,4565.769043,4473.077148,4398.589844,4489.487305,0.000000,4.000000,89.000000,,,,0.000000,4.000000,4.000000,4.000000,4.000000,4.000000,4.000000,0.000000,4.000000,4.000000,4.000000,4.000000,4.000000,4.000000,4.000000,66.666664,,,,,,,,,,,,,,,,,,,,,,,,,,,,
1703153208.045753,1703153208.046239,20.000000,0.000000,4261.666504,4225.384766,4291.794922,4276.153809,4220.897461,4201.153809,4314.871582,4187.307617,4150.641113,4198.077148,4564.743652,4468.974121,4390.128418,4497.436035,0.000000,4.000000,89.000000,,,,0.000000,4.000000,4.000000,4.000000,4.000000,4.000000,4.000000,0.000000,4.000000,4.000000,4.000000,4.000000,4.000000,4.000000,4.000000,66.666664,,,,,,,,,,,,,,,,,5.000000,0.000000,0.639100,0.407349,-0.543762,0.360474,0.987425,0.121597,0.079600,-16.209232,-30.781492,65.244133
1703153208.053561,1703153208.053947,21.000000,0.000000,4245.512695,4222.820313,4285.769043,4274.615234,4226.410156,4199.743652,4314.230957,4183.846191,4151.410156,4195.641113,4563.974121,4464.102539,4388.205078,4481.282227,0.000000,4.000000,89.000000,,,,0.000000,4.000000,4.000000,4.000000,4.000000,4.000000,4.000000,0.000000,4.000000,4.000000,4.000000,4.000000,4.000000,4.000000,4.000000,66.666664,,,,,,,,,,,,,,,,,,,,,,,,,,,,
1703153208.061369,1703153208.061755,22.000000,0.000000,4244.102539,4231.666504,4293.974121,4278.589844,4226.794922,4205.384766,4312.307617,4185.897461,4162.436035,4200.897461,4573.974121,4473.974121,4404.102539,4493.974121,0.000000,4.000000,89.000000,,,,0.000000,4.000000,4.000000,4.000000,4.000000,4.000000,4.000000,0.000000,4.000000,4.000000,4.000000,4.000000,4.000000,4.000000,4.000000,66.666664,,,,,,,,,,,,,,,,,,,,,,,,,,,,
1703153208.069177,1703153208.069463,23.000000,0.000000,4262.179688,4235.641113,4302.692383,4284.230957,4225.897461,4212.307617,4313.205078,4189.743652,4166.922852,4214.615234,4585.256348,4486.410156,4415.256348,4510.256348,0.000000,4.000000,89.000000,,,,0.000000,4.000000,4.000000,4.000000,4.000000,4.000000,4.000000,0.000000,4.000000,4.000000,4.000000,4.000000,4.000000,4.000000,4.000000,66.666664,,,,,,,,,,,,,,,,,,,,,,,,,,,,
1703153208.076985,1703153208.077271,24.000000,0.000000,4266.025879,4238.333496,4303.717773,4291.025879,4233.205078,4215.512695,4313.461426,4190.641113,4162.820313,4215.128418,4587.051270,4485.384766,4412.563965,4505.128418,0.000000,4.000000,89.000000,,,,0.000000,4.000000,4.000000,4.000000,4.000000,4.000000,4.000000,0.000000,4.000000,4.000000,4.000000,4.000000,4.000000,4.000000,4.000000,66.666664,,,,,,,,,,,,,,,,,6.000000,0.000000,0.639139,0.407288,-0.543762,0.360474,0.995239,0.126969,0.079600,-16.221643,-30.770008,65.319717
1703153208.084793,1703153208.084979,25.000000,0.000000,4261.538574,4245.128418,4300.384766,4293.333496,4236.922852,4212.692383,4313.846191,4188.717773,4161.666504,4205.897461,4584.102539,4478.974121,4411.410156,4508.205078,0.000000,4.000000,89.000000,,,,0.000000,4.000000,4.000000,4.000000,4.000000,4.000000,4.000000,0.000000,4.000000,4.000000,4.000000,4.000000,4.000000,4.000000,4.000000,66.666664,,,,,,,,,,,,,,,,,,,,,,,,,,,,
1703153208.092601,1703153208.092887,26.000000,0.000000,4260.384766,4247.563965,4301.410156,4290.384766,4231.538574,4207.436035,4316.025879,4186.025879,4166.153809,4201.922852,4583.205078,4475.384766,4412.692383,4509.230957,0.000000,4.000000,89.000000,,,,0.000000,4.000000,4.000000,4.000000,4.000000,4.000000,4.000000,0.000000,4.000000,4.000000,4.000000,4.000000,4.000000,4.000000,4.000000,66.666664,,,,,,,,,,,,,,,,,,,,,,,,,,,,
1703153208.100409,1703153208.100695,27.000000,0.000000,4257.307617,4239.871582,4302.820313,4291.922852,4240.641113,4210.128418,4314.102539,4191.922852,4169.743652,4202.436035,4585.512695,4479.487305,4411.666504,4500.000000,0.000000,4.000000,89.000000,,,,0.000000,4.000000,4.000000,4.000000,4.000000,4.000000,4.000000,0.000000,4.000000,4.000000,4.000000,4.000000,4.000000,4.000000,4.000000,66.666664,,,,,,,,,,,,,,,,,,,,,,,,,,,,
1703153208.108218,1703153208.108603,28.000000,0.000000,4255.897461,4238.589844,4302.051270,4294.871582,4248.846191,4219.102539,4313.846191,4198.077148,4170.769043,4201.922852,4589.358887,4486.410156,4409.871582,4503.974121,0.000000,4.000000,89.000000,,,,0.000000,4.000000,4.000000,4.000000,4.000000,4.000000,4.000000,0.000000,4.000000,4.000000,4.000000,4.000000,4.000000,4.000000,4.000000,66.666664,,,,,,,,,,,,,,,,,7.000000,0.000000,0.639113,0.407166,-0.543884,0.360474,0.989379,0.132340,0.083506,-16.182812,-30.759674,65.421082
1703153208.116026,1703153208.116411,29.000000,0.000000,4258.205078,4240.000000,4300.897461,4290.256348,4236.410156,4216.794922,4315.128418,4192.692383,4170.769043,4202.179688,4586.282227,4483.461426,4405.641113,4503.205078,0.000000,4.000000,89.000000,,,,0.000000,4.000000,4.000000,4.000000,4.000000,4.000000,4.000000,0.000000,4.000000,4.000000,4.000000,4.000000,4.000000,4.000000,4.000000,66.666664,,,,,,,,,,,,,,,,,,,,,,,,,,,,
1703153208.123834,1703153208.124319,30.000000,0.000000,4261.666504,4237.692383,4297.948730,4287.563965,4229.230957,4208.846191,4312.179688,4190.000000,4174.358887,4207.436035,4584.358887,4478.461426,4406.410156,4485.897461,0.000000,4.000000,89.000000,,,,0.000000,4.000000,4.000000,4.000000,4.000000,4.000000,4.000000,0.000000,4.000000,4.000000,4.000000,4.000000,4.000000,4.000000,4.000000,66.666664,,,,,,,,,,,,,,,,,,,,,,,,,,,,
1703153208.131642,1703153208.132127,31.000000,0.000000,4263.717773,4242.051270,4297.948730,4292.436035,4232.051270,4212.692383,4313.333496,4194.358887,4175.769043,4209.230957,4586.922852,4480.384766,4410.512695,4485.769043,0.000000,4.000000,89.000000,,,,0.000000,4.000000,4.000000,4.000000,4.000000,4.000000,4.000000,0.000000,4.000000,4.000000,4.000000,4.000000,4.000000,4.000000,4.000000,66.666664,,,,,,,,,,,,,,,,,,,,,,,,,,,,
1703153208.139450,1703153208.140034,32.000000,0.000000,4262.563965,4242.820313,4300.769043,4294.487305,4233.974121,4218.589844,4315.512695,4196.410156,4170.641113,4202.436035,4585.769043,4482.820313,4404.230957,4505.512695,0.000000,4.000000,89.000000,,,,0.000000,4.000000,4.000000,4.000000,4.000000,4.000000,4.000000,0.000000,4.000000,4.000000,4.000000,4.000000,4.000000,4.000000,4.000000,66.666664,,,,,,,,,,,,,,,,,8.000000,0.000000,0.639052,0.407043,-0.544006,0.360535,0.985960,0.135270,0.082041,-16.397865,-30.733707,65.128975
1703153208.147258,1703153208.147842,33.000000,0.000000,4263.205078,4237.948730,4301.025879,4291.282227,4239.615234,4217.179688,4313.077148,4196.794922,4173.846191,4201.153809,4583.205078,4489.487305,4396.666504,4506.153809,0.000000,4.000000,89.000000,,,,0.000000,4.000000,4.000000,4.000000,4.000000,4.000000,4.000000,0.000000,4.000000,4.000000,4.000000,4.000000,4.000000,4.000000,4.000000,66.666664,,,,,,,,,,,,,,,,,,,,,,,,,,,,
1703153208.155066,1703153208.155551,34.000000,0.000000,4266.794922,4244.102539,4301.025879,4295.000000,4248.974121,4217.692383,4311.410156,4193.333496,4177.436035,4203.846191,4578.077148,4488.333496,4400.128418,4496.538574,0.000000,4.000000,89.000000,,,,0.000000,4.000000,4.000000,4.000000,4.000000,4.000000,4.000000,0.000000,4.000000,4.000000,4.000000,4.000000,4.000000,4.000000,4.000000,66.666664,,,,,,,,,,,,,,,,,,,,,,,,,,,,
1703153208.162874,1703153208.163459,35.000000,0.000000,4261.282227,4249.487305,4297.307617,4297.307617,4246.410156,4220.769043,4312.307617,4185.256348,4170.384766,4202.179688,4571.025879,4472.820313,4402.692383,4498.717773,0.000000,4.000000,89.000000,,,,0.000000,4.000000,4.000000,4.000000,4.000000,4.000000,4.000000,0.000000,4.000000,4.000000,4.000000,4.000000,4.000000,4.000000,4.000000,66.666664,,,,,,,,,,,,,,,,,,,,,,,,,,,,
1703153208.170682,1703153208.171267,36.000000,0.000000,4246.794922,4234.487305,4290.256348,4285.769043,4235.000000,4218.589844,4315.512695,4184.871582,4164.743652,4197.051270,4565.256348,4467.436035,4392.436035,4493.589844,0.000000,4.000000,89.000000,,,,0.000000,4.000000,4.000000,4.000000,4.000000,4.000000,4.000000,0.000000,4.000000,4.000000,4.000000,4.000000,4.000000,4.000000,4.000000,66.666664,,,,,,,,,,,,,,,,,9.000000,0.000000,0.638983,0.407043,-0.544006,0.360657,0.985472,0.125992,0.072274,-16.658077,-30.727003,65.082741
1703153208.178490,1703153208.179075,37.000000,0.000000,4246.153809,4224.615234,4289.743652,4278.974121,4234.230957,4216.922852,4314.102539,4193.333496,4169.102539,4197.179688,4567.563965,4474.358887,4389.102539,4490.769043,0.000000,4.000000,89.000000,,,,0.000000,4.000000,4.000000,4.000000,4.000000,4.000000,4.000000,0.000000,4.000000,4.000000,4.000000,4.000000,4.000000,4.000000,4.000000,66.666664,,,,,,,,,,,,,,,,,,,,,,,,,,,,
1703153208.186298,1703153208.186783,38.000000,0.000000,4259.743652,4232.692383,4291.538574,4288.205078,4241.794922,4220.384766,4310.769043,4198.589844,4180.256348,4207.051270,4578.846191,4482.179688,4404.615234,4503.974121,0.000000,4.000000,89.000000,,,,0.000000,4.000000,4.000000,4.000000,4.000000,4.000000,4.000000,0.000000,4.000000,4.000000,4.000000,4.000000,4.000000,4.000000,4.000000,66.666664,1.000000,58.333332,4.000000,4.000000,4.000000,4.000000,4.000000,4.000000,0.000000,4.000000,3.000000,4.000000,4.000000,4.000000,4.000000,4.000000,,,,,,,,,,,,
1703153208.194106,1703153208.194591,39.000000,0.000000,4262.820313,4232.948730,4290.641113,4292.563965,4239.487305,4220.128418,4314.871582,4196.922852,4183.205078,4209.743652,4580.641113,4483.589844,4406.153809,4497.948730,0.000000,4.000000,89.000000,,,,0.000000,4.000000,4.000000,4.000000,4.000000,4.000000,4.000000,0.000000,4.000000,4.000000,4.000000,4.000000,4.000000,4.000000,4.000000,66.666664,,,,,,,,,,,,,,,,,,,,,,,,,,,,
1703153208.201914,1703153208.202299,40.000000,0.000000,4247.948730,4229.743652,4287.436035,4283.077148,4232.179688,4216.153809,4317.307617,4196.538574,4178.974121,4202.436035,4577.563965,4476.666504,4392.692383,4486.282227,0.000000,4.000000,89.000000,,,,0.000000,4.000000,4.000000,4.000000,4.000000,4.000000,4.000000,0.000000,4.000000,4.000000,4.000000,4.000000,4.000000,4.000000,4.000000,66.666664,,,,,,,,,,,,,,,,,10.000000,0.000000,0.638962,0.406860,-0.544006,0.360901,0.983518,0.118178,0.074228,-16.708937,-30.720970,65.124466
1703153208.209722,1703153208.210107,41.000000,0.000000,4243.205078,4228.974121,4287.436035,4277.307617,4235.512695,4216.922852,4313.205078,4195.256348,4176.666504,4201.538574,4580.384766,4473.717773,4392.307617,4503.589844,0.000000,4.000000,89.000000,,,,0.000000,4.000000,4.000000,4.000000,4.000000,4.000000,4.000000,0.000000,4.000000,4.000000,4.000000,4.000000,4.000000,4.000000,4.000000,66.666664,,,,,,,,,,,,,,,,,,,,,,,,,,,,
1703153208.217530,1703153208.217815,42.000000,0.000000,4257.563965,4228.205078,4291.025879,4284.487305,4238.333496,4220.641113,4311.666504,4191.282227,4177.563965,4204.743652,4581.666504,4476.666504,4400.897461,4514.487305,0.000000,4.000000,89.000000,,,,0.000000,4.000000,4.000000,4.000000,4.000000,4.000000,4.000000,0.000000,4.000000,4.000000,4.000000,4.000000,4.000000,4.000000,4.000000,66.666664,,,,,,,,,,,,,,,,,,,,,,,,,,,,
1703153208.225338,1703153208.225723,43.000000,0.000000,4263.077148,4231.794922,4293.205078,4293.205078,4232.051270,4218.974121,4314.358887,4192.692383,4182.692383,4207.307617,4584.871582,4480.384766,4409.615234,4507.436035,0.000000,4.000000,89.000000,,,,0.000000,4.000000,4.000000,4.000000,4.000000,4.000000,4.000000,0.000000,4.000000,4.000000,4.000000,4.000000,4.000000,4.000000,4.000000,66.666664,,,,,,,,,,,,,,,,,,,,,,,,,,,,
1703153208.233146,1703153208.233532,44.000000,0.000000,4264.743652,4236.153809,4301.922852,4296.025879,4232.563965,4213.717773,4314.871582,4194.871582,4183.974121,4207.179688,4584.615234,4488.717773,4411.025879,4502.051270,0.000000,4.000000,89.000000,,,,0.000000,4.000000,4.000000,4.000000,4.000000,4.000000,4.000000,0.000000,4.000000,4.000000,4.000000,4.000000,4.000000,4.000000,4.000000,66.666664,,,,,,,,,,,,,,,,,11.000000,0.000000,0.638850,0.406982,-0.544006,0.360962,0.990844,0.118178,0.083018,-16.604710,-30.748873,65.028687
1703153208.240954,1703153208.241340,45.000000,0.000000,4271.410156,4236.666504,4305.128418,4295.384766,4236.410156,4216.025879,4312.307617,4186.794922,4175.256348,4203.589844,4574.871582,4493.461426,4404.230957,4495.897461,0.000000,4.000000,89.000000,,,,0.000000,4.000000,4.000000,4.000000,4.000000,4.000000,4.000000,0.000000,4.000000,4.000000,4.000000,4.000000,4.000000,4.000000,4.000000,66.666664,,,,,,,,,,,,,,,,,,,,,,,,,,,,
1703153208.248762,1703153208.249048,46.000000,0.000000,4271.025879,4235.128418,4298.461426,4292.563965,4233.461426,4217.563965,4313.846191,4181.025879,4170.512695,4196.922852,4568.205078,4483.974121,4399.743652,4494.615234,0.000000,4.000000,89.000000,,,,0.000000,4.000000,4.000000,4.000000,4.000000,4.000000,4.000000,0.000000,4.000000,4.000000,4.000000,4.000000,4.000000,4.000000,4.000000,66.666664,,,,,,,,,,,,,,,,,,,,,,,,,,,,
1703153208.256570,1703153208.256856,47.000000,0.000000,4267.820313,4232.820313,4298.589844,4291.282227,4233.461426,4207.948730,4314.487305,4184.358887,4173.589844,4191.282227,4570.256348,4476.922852,4396.922852,4496.282227,0.000000,4.000000,89.000000,,,,0.000000,4.000000,4.000000,4.000000,4.000000,4.000000,4.000000,0.000000,4.000000,4.000000,4.000000,4.000000,4.000000,4.000000,4.000000,66.666664,,,,,,,,,,,,,,,,,,,,,,,,,,,,
1703153208.264378,1703153208.264564,48.000000,0.000000,4269.615234,4230.512695,4302.820313,4293.589844,4234.358887,4206.538574,4310.512695,4187.051270,4173.846191,4194.102539,4575.897461,4487.051270,4394.487305,4496.666504,0.000000,4.000000,89.000000,,,,0.000000,4.000000,4.000000,4.000000,4.000000,4.000000,4.000000,0.000000,4.000000,4.000000,4.000000,4.000000,4.000000,4.000000,4.000000,66.666664,,,,,,,,,,,,,,,,,12.000000,0.000000,0.638867,0.406982,-0.543945,0.361023,0.990355,0.135270,0.078135,-16.810905,-30.723986,65.175819
1703153208.272186,1703153208.272472,49.000000,0.000000,4273.974121,4233.333496,4301.794922,4295.384766,4231.410156,4215.000000,4312.692383,4189.615234,4171.794922,4195.769043,4579.102539,4494.487305,4396.922852,4503.717773,0.000000,4.000000,89.000000,,,,0.000000,4.000000,4.000000,4.000000,4.000000,4.000000,4.000000,0.000000,4.000000,4.000000,4.000000,4.000000,4.000000,4.000000,4.000000,66.666664,,,,,,,,,,,,,,,,,,,,,,,,,,,,
1703153208.279995,1703153208.280280,50.000000,0.000000,4272.436035,4233.333496,4300.769043,4293.461426,4233.333496,4215.000000,4313.717773,4188.717773,4169.871582,4187.948730,4573.333496,4486.282227,4396.282227,4502.820313,0.000000,4.000000,89.000000,,,,0.000000,4.000000,4.000000,4.000000,4.000000,4.000000,4.000000,0.000000,4.000000,4.000000,4.000000,4.000000,4.000000,4.000000,4.000000,66.666664,,,,,,,,,,,,,,,,,,,,,,,,,,,,
1703153208.287803,1703153208.288188,51.000000,0.000000,4263.589844,4229.743652,4296.410156,4291.282227,4236.922852,4213.717773,4310.000000,4187.051270,4172.307617,4187.051270,4568.077148,4482.307617,4391.538574,4481.410156,0.000000,4.000000,89.000000,,,,0.000000,4.000000,4.000000,4.000000,4.000000,4.000000,4.000000,0.000000,4.000000,4.000000,4.000000,4.000000,4.000000,4.000000,4.000000,66.666664,,,,,,,,,,,,,,,,,,,,,,,,,,,,
1703153208.295611,1703153208.295996,52.000000,0.000000,4262.948730,4240.897461,4293.461426,4294.230957,4234.871582,4219.487305,4311.794922,4189.871582,4174.487305,4197.692383,4572.563965,4490.512695,4395.897461,4479.102539,0.000000,4.000000,89.000000,,,,0.000000,4.000000,4.000000,4.000000,4.000000,4.000000,4.000000,0.000000,4.000000,4.000000,4.000000,4.000000,4.000000,4.000000,4.000000,66.666664,,,,,,,,,,,,,,,,,13.000000,0.000000,0.638888,0.407166,-0.543945,0.360779,0.975705,0.126480,0.076181,-16.746481,-30.701588,65.074905
1703153208.303419,1703153208.303903,53.000000,0.000000,4268.846191,4249.358887,4296.666504,4298.461426,4234.102539,4219.615234,4313.333496,4189.487305,4177.179688,4204.743652,4578.077148,4493.461426,4404.358887,4500.000000,0.000000,4.000000,89.000000,,,,0.000000,4.000000,4.000000,4.000000,4.000000,4.000000,4.000000,0.000000,4.000000,4.000000,4.000000,4.000000,4.000000,4.000000,4.000000,66.666664,,,,,,,,,,,,,,,,,,,,,,,,,,,,
1703153208.311227,1703153208.311711,54.000000,0.000000,4264.871582,4239.487305,4297.179688,4296.153809,4237.436035,4217.051270,4312.307617,4187.179688,4179.743652,4198.717773,4575.641113,4491.666504,4400.512695,4498.717773,0.000000,4.000000,89.000000,,,,0.000000,4.000000,4.000000,4.000000,4.000000,4.000000,4.000000,0.000000,4.000000,4.000000,4.000000,4.000000,4.000000,4.000000,4.000000,66.666664,,,,,,,,,,,,,,,,,,,,,,,,,,,,
1703153208.319035,1703153208.319619,55.000000,0.000000,4263.333496,4234.358887,4291.410156,4292.692383,4235.897461,4213.333496,4311.538574,4185.128418,4177.051270,4188.974121,4569.615234,4491.922852,4392.563965,4483.589844,0.000000,4.000000,89.000000,,,,0.000000,4.000000,4.000000,4.000000,4.000000,4.000000,4.000000,0.000000,4.000000,4.000000,4.000000,4.000000,4.000000,4.000000,4.000000,66.666664,,,,,,,,,,,,,,,,,,,,,,,,,,,,
1703153208.326843,1703153208.327427,56.000000,0.000000,4270.769043,4239.358887,4286.538574,4290.769043,4231.922852,4206.153809,4311.153809,4185.000000,4173.333496,4189.871582,4568.333496,4491.410156,4394.487305,4491.153809,0.000000,4.000000,89.000000,,,,0.000000,4.000000,4.000000,4.000000,4.000000,4.000000,4.000000,0.000000,4.000000,4.000000,4.000000,4.000000,4.000000,4.000000,4.000000,66.666664,,,,,,,,,,,,,,,,,14.000000,0.000000,0.638884,0.407227,-0.543945,0.360718,0.976193,0.131364,0.082041,-17.055166,-30.781427,65.117416
1703153208.334651,1703153208.335135,57.000000,0.000000,4268.205078,4237.179688,4286.410156,4284.743652,4233.205078,4207.820313,4314.615234,4184.102539,4171.666504,4191.282227,4567.563965,4483.846191,4393.589844,4501.410156,0.000000,4.000000,89.000000,,,,0.000000,4.000000,4.000000,4.000000,4.000000,4.000000,4.000000,0.000000,4.000000,4.000000,4.000000,4.000000,4.000000,4.000000,4.000000,66.666664,,,,,,,,,,,,,,,,,,,,,,,,,,,,
1703153208.342459,1703153208.342943,58.000000,0.000000,4258.589844,4230.000000,4283.717773,4277.820313,4233.077148,4210.769043,4313.846191,4183.846191,4176.666504,4186.410156,4563.461426,4472.436035,4387.307617,4490.897461,0.000000,4.000000,89.000000,,,,0.000000,4.000000,4.000000,4.000000,4.000000,4.000000,4.000000,0.000000,4.000000,4.000000,4.000000,4.000000,4.000000,4.000000,4.000000,66.666664,,,,,,,,,,,,,,,,,,,,,,,,,,,,
1703153208.350267,1703153208.350651,59.000000,0.000000,4263.974121,4227.820313,4278.077148,4276.282227,4225.512695,4203.589844,4310.384766,4184.871582,4182.820313,4187.692383,4563.589844,4470.897461,4388.589844,4487.051270,0.000000,4.000000,89.000000,,,,0.000000,4.000000,4.000000,4.000000,4.000000,4.000000,4.000000,0.000000,4.000000,4.000000,4.000000,4.000000,4.000000,4.000000,4.000000,66.666664,,,,,,,,,,,,,,,,,,,,,,,,,,,,
1703153208.358075,1703153208.358459,60.000000,0.000000,4275.256348,4231.538574,4278.717773,4279.487305,4224.102539,4201.922852,4312.820313,4187.179688,4179.487305,4190.256348,4566.153809,4476.666504,4388.205078,4490.512695,0.000000,4.000000,89.000000,,,,0.000000,4.000000,4.000000,4.000000,4.000000,4.000000,4.000000,0.000000,4.000000,4.000000,4.000000,4.000000,4.000000,4.000000,4.000000,66.666664,,,,,,,,,,,,,,,,,15.000000,0.000000,0.638876,0.407349,-0.543823,0.360779,0.977658,0.119644,0.075204,-16.649651,-30.753284,65.189003
1703153208.365883,1703153208.366167,61.000000,0.000000,4270.128418,4236.794922,4280.897461,4280.384766,4230.769043,4205.256348,4314.487305,4193.077148,4176.025879,4191.410156,4570.897461,4482.307617,4390.384766,4489.615234,0.000000,4.000000,89.000000,,,,0.000000,4.000000,4.000000,4.000000,4.000000,4.000000,4.000000,0.000000,4.000000,4.000000,4.000000,4.000000,4.000000,4.000000,4.000000,66.666664,,,,,,,,,,,,,,,,,,,,,,,,,,,,
1703153208.373691,1703153208.373975,62.000000,0.000000,4268.077148,4233.846191,4285.384766,4277.051270,4231.666504,4201.410156,4311.025879,4196.922852,4184.358887,4195.769043,4575.384766,4490.641113,4398.461426,4492.307617,0.000000,4.000000,89.000000,,,,0.000000,4.000000,4.000000,4.000000,4.000000,4.000000,4.000000,0.000000,4.000000,4.000000,4.000000,4.000000,4.000000,4.000000,4.000000,66.666664,,,,,,,,,,,,,,,,,,,,,,,,,,,,
1703153208.381499,1703153208.381683,63.000000,0.000000,4276.538574,4229.743652,4293.461426,4276.794922,4228.461426,4205.641113,4307.948730,4196.922852,4190.897461,4192.436035,4570.128418,4494.871582,4396.153809,4494.871582,0.000000,4.000000,89.000000,,,,0.000000,4.000000,4.000000,4.000000,4.000000,4.000000,4.000000,0.000000,4.000000,4.000000,4.000000,4.000000,4.000000,4.000000,4.000000,66.666664,,,,,,,,,,,,,,,,,,,,,,,,,,,,
1703153208.389307,1703153208.389491,64.000000,0.000000,4279.615234,4234.358887,4296.025879,4280.897461,4229.358887,4215.769043,4310.897461,4194.743652,4185.384766,4184.871582,4566.794922,4492.820313,4393.461426,4495.769043,5277.000000,4.000000,89.000000,,,,0.000000,4.000000,4.000000,4.000000,4.000000,4.000000,4.000000,0.000000,4.000000,4.000000,4.000000,4.000000,4.000000,4.000000,4.000000,66.666664,,,,,,,,,,,,,,,,,16.000000,0.000000,0.638979,0.407349,-0.543701,0.360779,0.982053,0.116713,0.075204,-16.384686,-30.894623,65.320107
1703153208.397115,1703153208.397199,65.000000,0.000000,4277.436035,4233.461426,4290.128418,4280.769043,4229.102539,4210.384766,4312.436035,4188.205078,4178.974121,4185.641113,4571.153809,4488.205078,4395.384766,4491.025879,5599.000000,4.000000,89.000000,,,,0.000000,4.000000,4.000000,4.000000,4.000000,4.000000,4.000000,0.000000,4.000000,4.000000,4.000000,4.000000,4.000000,4.000000,4.000000,66.666664,,,,,,,,,,,,,,,,,,,,,,,,,,,,
1703153208.404923,1703153208.405007,66.000000,0.000000,4273.333496,4222.307617,4283.205078,4272.179688,4224.743652,4200.641113,4308.461426,4182.051270,4181.153809,4188.846191,4570.512695,4487.692383,4392.948730,4487.948730,5414.000000,4.000000,89.000000,,,,0.000000,4.000000,4.000000,4.000000,4.000000,4.000000,4.000000,0.000000,4.000000,4.000000,4.000000,4.000000,4.000000,4.000000,4.000000,66.666664,,,,,,,,,,,,,,,,,,,,,,,,,,,,
1703153208.412731,1703153208.412715,67.000000,0.000000,4262.179688,4215.128418,4281.410156,4264.615234,4220.000000,4199.230957,4309.743652,4182.948730,4181.153809,4183.717773,4559.102539,4485.384766,4385.384766,4485.769043,5415.000000,4.000000,89.000000,,,,0.000000,4.000000,4.000000,4.000000,4.000000,4.000000,4.000000,0.000000,4.000000,4.000000,4.000000,4.000000,4.000000,4.000000,4.000000,66.666664,,,,,,,,,,,,,,,,,,,,,,,,,,,,
1703153208.420539,1703153208.420523,68.000000,0.000000,4256.922852,4218.205078,4280.128418,4264.487305,4218.974121,4200.641113,4312.307617,4184.871582,4170.769043,4174.615234,4550.769043,4474.358887,4377.436035,4478.846191,5232.000000,4.000000,89.000000,,,,0.000000,4.000000,4.000000,4.000000,4.000000,4.000000,4.000000,0.000000,4.000000,4.000000,4.000000,4.000000,4.000000,4.000000,4.000000,66.666664,,,,,,,,,,,,,,,,,17.000000,0.000000,0.639139,0.407288,-0.543640,0.360657,0.985960,0.118178,0.093273,-16.229549,-30.821827,65.238098
1703153208.428347,1703153208.428232,69.000000,0.000000,4258.205078,4219.615234,4271.025879,4265.769043,4219.102539,4199.487305,4309.871582,4183.205078,4169.358887,4174.230957,4554.487305,4468.589844,4373.461426,4472.307617,5265.000000,4.000000,89.000000,,,,0.000000,4.000000,4.000000,4.000000,4.000000,4.000000,4.000000,0.000000,4.000000,4.000000,4.000000,4.000000,4.000000,4.000000,4.000000,66.666664,,,,,,,,,,,,,,,,,,,,,,,,,,,,
1703153208.436155,1703153208.436140,70.000000,0.000000,4252.051270,4216.282227,4265.128418,4262.820313,4218.333496,4202.563965,4311.025879,4182.820313,4170.512695,4171.922852,4547.563965,4469.615234,4362.563965,4461.666504,0.000000,4.000000,89.000000,,,,0.000000,4.000000,4.000000,4.000000,4.000000,4.000000,4.000000,0.000000,4.000000,4.000000,4.000000,4.000000,4.000000,4.000000,4.000000,66.666664,,,,,,,,,,,,,,,,,,,,,,,,,,,,
1703153208.443963,1703153208.443948,71.000000,0.000000,4243.846191,4213.077148,4263.846191,4261.025879,4223.846191,4210.000000,4311.282227,4182.820313,4159.358887,4158.589844,4530.641113,4461.282227,4348.461426,4448.846191,5083.000000,4.000000,89.000000,,,,0.000000,4.000000,4.000000,4.000000,4.000000,4.000000,4.000000,0.000000,4.000000,4.000000,4.000000,4.000000,4.000000,4.000000,4.000000,66.666664,,,,,,,,,,,,,,,,,,,,,,,,,,,,
1703153208.451771,1703153208.451856,72.000000,0.000000,4240.769043,4213.205078,4262.820313,4261.410156,4229.102539,4214.230957,4307.948730,4183.333496,4159.102539,4157.563965,4536.666504,4456.282227,4355.384766,4448.846191,5389.000000,4.000000,89.000000,,,,0.000000,4.000000,4.000000,4.000000,4.000000,4.000000,4.000000,0.000000,4.000000,4.000000,4.000000,4.000000,4.000000,4.000000,4.000000,66.666664,,,,,,,,,,,,,,,,,18.000000,0.000000,0.639351,0.407227,-0.543518,0.360535,0.982542,0.133805,0.076181,-16.123262,-30.789644,65.364288
1703153208.459580,1703153208.459664,73.000000,0.000000,4250.512695,4217.051270,4265.641113,4259.743652,4222.436035,4210.769043,4308.846191,4183.974121,4174.102539,4174.230957,4554.358887,4465.128418,4375.128418,4463.077148,5288.000000,4.000000,89.000000,,,,0.000000,4.000000,4.000000,4.000000,4.000000,4.000000,4.000000,0.000000,4.000000,4.000000,4.000000,4.000000,4.000000,4.000000,4.000000,66.666664,,,,,,,,,,,,,,,,,,,,,,,,,,,,
1703153208.467388,1703153208.467572,74.000000,0.000000,4264.487305,4219.102539,4268.974121,4259.102539,4213.846191,4204.615234,4308.589844,4189.615234,4181.410156,4190.384766,4563.333496,4477.692383,4385.128418,4480.641113,5945.000000,4.000000,89.000000,,,,0.000000,4.000000,4.000000,4.000000,4.000000,4.000000,4.000000,0.000000,4.000000,4.000000,4.000000,4.000000,4.000000,4.000000,4.000000,66.666664,,,,,,,,,,,,,,,,,,,,,,,,,,,,
1703153208.475196,1703153208.475380,75.000000,0.000000,4267.436035,4219.743652,4277.179688,4263.589844,4215.256348,4202.563965,4308.974121,4198.717773,4184.743652,4200.641113,4574.615234,4488.846191,4393.205078,4490.769043,6359.000000,4.000000,89.000000,,,,0.000000,4.000000,4.000000,4.000000,4.000000,4.000000,4.000000,0.000000,4.000000,4.000000,4.000000,4.000000,4.000000,4.000000,4.000000,66.666664,,,,,,,,,,,,,,,,,,,,,,,,,,,,
1703153208.483004,1703153208.483288,76.000000,0.000000,4267.820313,4226.410156,4282.948730,4265.897461,4219.358887,4200.897461,4311.922852,4203.333496,4195.512695,4205.641113,4586.282227,4496.410156,4406.410156,4490.256348,6761.000000,4.000000,89.000000,,,,0.000000,4.000000,4.000000,4.000000,4.000000,4.000000,4.000000,0.000000,4.000000,4.000000,4.000000,4.000000,4.000000,4.000000,4.000000,66.666664,,,,,,,,,,,,,,,,,19.000000,0.000000,0.639433,0.407288,-0.543457,0.360413,0.984495,0.130875,0.081553,-16.160936,-30.727346,65.111191
1703153208.490812,1703153208.491096,77.000000,0.000000,4278.205078,4233.717773,4283.717773,4266.282227,4217.820313,4200.641113,4311.153809,4203.205078,4198.846191,4206.538574,4589.743652,4500.641113,4415.897461,4493.974121,7154.000000,4.000000,89.000000,,,,0.000000,4.000000,4.000000,4.000000,4.000000,4.000000,4.000000,0.000000,4.000000,4.000000,4.000000,4.000000,4.000000,4.000000,4.000000,66.666664,,,,,,,,,,,,,,,,,,,,,,,,,,,,
1703153208.498620,1703153208.499004,78.000000,0.000000,4284.871582,4230.641113,4288.589844,4270.128418,4215.256348,4201.410156,4307.692383,4195.128418,4186.538574,4198.974121,4583.077148,4500.000000,4408.589844,4500.897461,5945.000000,4.000000,89.000000,,,,0.000000,4.000000,4.000000,4.000000,4.000000,4.000000,4.000000,0.000000,4.000000,4.000000,4.000000,4.000000,4.000000,4.000000,4.000000,66.666664,,,,,,,,,,,,,,,,,,,,,,,,,,,,
1703153208.506428,1703153208.506812,79.000000,0.000000,4272.307617,4223.717773,4288.205078,4270.256348,4215.897461,4198.974121,4306.282227,4183.333496,4176.153809,4188.205078,4570.128418,4489.743652,4390.256348,4493.589844,6359.000000,4.000000,89.000000,,,,0.000000,4.000000,4.000000,4.000000,4.000000,4.000000,4.000000,0.000000,4.000000,4.000000,4.000000,4.000000,4.000000,4.000000,4.000000,66.666664,,,,,,,,,,,,,,,,,,,,,,,,,,,,
1703153208.514236,1703153208.514720,80.000000,0.000000,4266.410156,4228.589844,4283.077148,4270.000000,4218.077148,4199.615234,4309.743652,4183.717773,4183.205078,4188.846191,4565.641113,4486.794922,4389.871582,4482.692383,6761.000000,4.000000,89.000000,,,,0.000000,4.000000,4.000000,4.000000,4.000000,4.000000,4.000000,0.000000,4.000000,4.000000,4.000000,4.000000,4.000000,4.000000,4.000000,66.666664,,,,,,,,,,,,,,,,,20.000000,0.000000,0.639497,0.407349,-0.543457,0.360229,0.975705,0.134782,0.074716,-16.328175,-30.621279,65.050072
1703153208.522044,1703153208.522528,81.000000,0.000000,4272.820313,4232.692383,4284.358887,4271.794922,4217.051270,4201.538574,4309.871582,4195.641113,4191.666504,4192.563965,4571.153809,4493.205078,4400.128418,4487.307617,7154.000000,4.000000,89.000000,,,,0.000000,4.000000,4.000000,4.000000,4.000000,4.000000,4.000000,0.000000,4.000000,4.000000,4.000000,4.000000,4.000000,4.000000,4.000000,66.666664,,,,,,,,,,,,,,,,,,,,,,,,,,,,
1703153208.529852,1703153208.530236,82.000000,0.000000,4265.256348,4222.436035,4283.589844,4268.077148,4216.025879,4197.820313,4308.974121,4201.282227,4187.436035,4186.410156,4572.820313,4493.717773,4394.358887,4505.000000,5945.000000,4.000000,89.000000,,,,0.000000,4.000000,4.000000,4.000000,4.000000,4.000000,4.000000,0.000000,4.000000,4.000000,4.000000,4.000000,4.000000,4.000000,4.000000,66.666664,,,,,,,,,,,,,,,,,,,,,,,,,,,,
1703153208.537660,1703153208.538044,83.000000,0.000000,4256.025879,4214.615234,4275.897461,4263.461426,4216.794922,4196.153809,4312.051270,4195.128418,4179.871582,4177.692383,4565.128418,4487.948730,4380.256348,4500.256348,6359.000000,4.000000,89.000000,,,,0.000000,4.000000,4.000000,4.000000,4.000000,4.000000,4.000000,0.000000,4.000000,4.000000,4.000000,4.000000,4.000000,4.000000,4.000000,66.666664,,,,,,,,,,,,,,,,,,,,,,,,,,,,
1703153208.545468,1703153208.545752,84.000000,0.000000,4264.230957,4215.897461,4273.333496,4265.000000,4216.153809,4203.589844,4311.153809,4191.538574,4180.897461,4178.077148,4563.205078,4487.820313,4380.512695,4474.743652,6761.000000,4.000000,89.000000,,,,0.000000,4.000000,4.000000,4.000000,4.000000,4.000000,4.000000,0.000000,4.000000,4.000000,4.000000,4.000000,4.000000,4.000000,4.000000,66.666664,,,,,,,,,,,,,,,,,21.000000,0.000000,0.639518,0.407532,-0.543335,0.360168,0.986937,0.127457,0.077646,-16.445358,-30.525818,64.995064
1703153208.553276,1703153208.553560,85.000000,0.000000,4266.025879,4218.205078,4279.615234,4268.205078,4216.538574,4205.000000,4308.461426,4197.436035,4186.153809,4181.666504,4568.589844,4491.794922,4390.384766,4474.871582,7154.000000,4.000000,89.000000,,,,0.000000,4.000000,4.000000,4.000000,4.000000,4.000000,4.000000,0.000000,4.000000,4.000000,4.000000,4.000000,4.000000,4.000000,4.000000,66.666664,,,,,,,,,,,,,,,,,,,,,,,,,,,,
1703153208.561084,1703153208.561268,86.000000,0.000000,4260.256348,4225.512695,4286.025879,4273.846191,4218.717773,4201.794922,4309.487305,4202.307617,4187.436035,4187.820313,4574.615234,4491.666504,4395.128418,4495.897461,5945.000000,4.000000,89.000000,,,,0.000000,4.000000,4.000000,4.000000,4.000000,4.000000,4.000000,0.000000,4.000000,4.000000,4.000000,4.000000,4.000000,4.000000,4.000000,66.666664,,,,,,,,,,,,,,,,,,,,,,,,,,,,
1703153208.568892,1703153208.569176,87.000000,0.000000,4266.922852,4234.358887,4284.487305,4281.922852,4219.358887,4204.230957,4310.769043,4199.230957,4192.307617,4197.179688,4579.871582,4493.589844,4396.922852,4502.051270,6359.000000,4.000000,89.000000,,,,0.000000,4.000000,4.000000,4.000000,4.000000,4.000000,4.000000,0.000000,4.000000,4.000000,4.000000,4.000000,4.000000,4.000000,4.000000,66.666664,,,,,,,,,,,,,,,,,,,,,,,,,,,,
1703153208.576700,1703153208.576984,88.000000,0.000000,4273.974121,4234.230957,4283.461426,4281.153809,4218.333496,4203.461426,4312.179688,4192.563965,4194.743652,4192.563965,4573.717773,4494.102539,4389.615234,4493.333496,6761.000000,4.000000,89.000000,,,,0.000000,4.000000,4.000000,4.000000,4.000000,4.000000,4.000000,0.000000,4.000000,4.000000,4.000000,4.000000,4.000000,4.000000,4.000000,66.666664,,,,,,,,,,,,,,,,,22.000000,0.000000,0.639717,0.407410,-0.543152,0.360229,0.982053,0.136247,0.071298,-16.434155,-30.623236,64.928894
1703153208.584508,1703153208.584892,89.000000,0.000000,4270.769043,4227.051270,4287.051270,4271.794922,4215.641113,4200.384766,4312.820313,4185.897461,4187.563965,4184.871582,4566.153809,4488.077148,4384.615234,4490.897461,7154.000000,4.000000,89.000000,,,,0.000000,4.000000,4.000000,4.000000,4.000000,4.000000,4.000000,0.000000,4.000000,4.000000,4.000000,4.000000,4.000000,4.000000,4.000000,66.666664,,,,,,,,,,,,,,,,,,,,,,,,,,,,
1703153208.592316,1703153208.592700,90.000000,0.000000,4265.256348,4219.871582,4282.179688,4267.307617,4212.179688,4203.205078,4311.922852,4184.615234,4186.282227,4193.205078,4567.179688,4482.692383,4393.205078,4495.897461,5945.000000,4.000000,89.000000,,,,0.000000,4.000000,4.000000,4.000000,4.000000,4.000000,4.000000,0.000000,4.000000,4.000000,4.000000,4.000000,4.000000,4.000000,4.000000,66.666664,,,,,,,,,,,,,,,,,,,,,,,,,,,,
1703153208.600124,1703153208.600608,91.000000,0.000000,4261.410156,4216.666504,4275.641113,4270.512695,4216.410156,4203.077148,4313.846191,4185.769043,4184.871582,4193.846191,4560.384766,4479.615234,4390.128418,4489.871582,6359.000000,4.000000,89.000000,,,,0.000000,4.000000,4.000000,4.000000,4.000000,4.000000,4.000000,0.000000,4.000000,4.000000,4.000000,4.000000,4.000000,4.000000,4.000000,66.666664,,,,,,,,,,,,,,,,,,,,,,,,,,,,
1703153208.607932,1703153208.608417,92.000000,0.000000,4253.205078,4218.717773,4278.077148,4271.666504,4217.179688,4199.743652,4313.589844,4186.153809,4182.820313,4186.282227,4556.794922,4482.436035,4384.871582,4482.436035,6761.000000,4.000000,89.000000,,,,0.000000,4.000000,4.000000,4.000000,4.000000,4.000000,4.000000,0.000000,4.000000,4.000000,4.000000,4.000000,4.000000,4.000000,4.000000,66.666664,,,,,,,,,,,,,,,,,23.000000,0.000000,0.639808,0.407349,-0.543091,0.360229,0.986937,0.113295,0.079600,-16.490740,-30.660912,65.136002
1703153208.615740,1703153208.616325,93.000000,0.000000,4245.512695,4218.974121,4286.666504,4268.589844,4205.512695,4206.666504,4312.563965,4189.358887,4192.692383,4192.179688,4566.153809,4487.692383,4390.897461,4489.615234,7154.000000,4.000000,89.000000,,,,0.000000,4.000000,4.000000,4.000000,4.000000,4.000000,4.000000,0.000000,4.000000,4.000000,4.000000,4.000000,4.000000,4.000000,4.000000,66.666664,,,,,,,,,,,,,,,,,,,,,,,,,,,,
1703153208.623548,1703153208.624133,94.000000,0.000000,4244.871582,4216.025879,4289.230957,4269.102539,4203.461426,4215.897461,4312.820313,4185.897461,4194.743652,4193.974121,4561.025879,4479.743652,4383.205078,4488.974121,5945.000000,4.000000,89.000000,,,,0.000000,4.000000,4.000000,4.000000,4.000000,4.000000,4.000000,0.000000,4.000000,4.000000,4.000000,4.000000,4.000000,4.000000,4.000000,66.666664,,,,,,,,,,,,,,,,,,,,,,,,,,,,
1703153208.631357,1703153208.632041,95.000000,0.000000,4240.897461,4217.307617,4282.692383,4273.717773,4215.000000,4214.615234,4311.538574,4183.077148,4189.487305,4188.589844,4552.948730,4474.102539,4376.666504,4477.436035,6359.000000,4.000000,89.000000,,,,0.000000,4.000000,4.000000,4.000000,4.000000,4.000000,4.000000,0.000000,4.000000,4.000000,4.000000,4.000000,4.000000,4.000000,4.000000,66.666664,,,,,,,,,,,,,,,,,,,,,,,,,,,,
1703153208.639165,1703153208.639849,96.000000,0.000000,4234.102539,4225.769043,4284.871582,4280.128418,4218.974121,4212.051270,4314.487305,4193.461426,4200.256348,4199.615234,4568.717773,4486.922852,4394.871582,4483.846191,6761.000000,4.000000,89.000000,,,,0.000000,4.000000,4.000000,4.000000,4.000000,4.000000,4.000000,0.000000,4.000000,4.000000,4.000000,4.000000,4.000000,4.000000,4.000000,66.666664,,,,,,,,,,,,,,,,,24.000000,0.000000,0.639928,0.407349,-0.543152,0.359924,0.992309,0.125504,0.077646,-16.291666,-30.744822,64.922401
1703153208.646973,1703153208.647757,97.000000,0.000000,4237.179688,4234.871582,4294.743652,4285.769043,4215.641113,4216.025879,4313.333496,4203.589844,4210.512695,4212.051270,4583.717773,4496.282227,4405.256348,4501.922852,7154.000000,4.000000,89.000000,,,,0.000000,4.000000,4.000000,4.000000,4.000000,4.000000,4.000000,0.000000,4.000000,4.000000,4.000000,4.000000,4.000000,4.000000,4.000000,66.666664,,,,,,,,,,,,,,,,,,,,,,,,,,,,
1703153208.654781,1703153208.655565,98.000000,0.000000,4237.179688,4229.871582,4292.820313,4285.000000,4216.153809,4215.512695,4311.153809,4200.512695,4205.512695,4206.282227,4576.410156,4488.077148,4396.025879,4506.922852,5945.000000,4.000000,89.000000,,,,0.000000,4.000000,4.000000,4.000000,4.000000,4.000000,4.000000,0.000000,4.000000,4.000000,4.000000,4.000000,4.000000,4.000000,4.000000,66.666664,,,,,,,,,,,,,,,,,,,,,,,,,,,,
1703153208.662589,1703153208.663473,99.000000,0.000000,4220.897461,4218.717773,4282.436035,4281.153809,4218.205078,4203.974121,4315.384766,4189.615234,4193.205078,4190.769043,4559.487305,4471.153809,4387.307617,4496.025879,6359.000000,4.000000,89.000000,,,,0.000000,4.000000,4.000000,4.000000,4.000000,4.000000,4.000000,0.000000,4.000000,4.000000,4.000000,4.000000,4.000000,4.000000,4.000000,66.666664,,,,,,,,,,,,,,,,,,,,,,,,,,,,
1703153208.670397,1703153208.671281,100.000000,0.000000,4210.000000,4217.436035,4276.666504,4280.000000,4215.256348,4197.692383,4316.025879,4183.974121,4182.692383,4181.538574,4555.512695,4465.512695,4383.589844,4488.077148,6761.000000,4.000000,89.000000,,,,0.000000,4.000000,4.000000,4.000000,4.000000,4.000000,4.000000,0.000000,4.000000,4.000000,4.000000,4.000000,4.000000,4.000000,4.000000,66.666664,,,,,,,,,,,,,,,,,25.000000,0.000000,0.639954,0.406982,-0.543274,0.360107,0.983030,0.123550,0.082041,-16.595833,-30.703672,65.113495
1703153208.678205,1703153208.679189,101.000000,0.000000,4213.846191,4219.615234,4279.102539,4278.205078,4207.307617,4202.948730,4313.974121,4182.692383,4180.769043,4182.051270,4556.922852,4471.666504,4378.205078,4489.487305,7154.000000,4.000000,89.000000,,,,0.000000,4.000000,4.000000,4.000000,4.000000,4.000000,4.000000,0.000000,4.000000,4.000000,4.000000,4.000000,4.000000,4.000000,4.000000,66.666664,,,,,,,,,,,,,,,,,,,,,,,,,,,,
1703153208.686013,1703153208.686997,102.000000,0.000000,4218.205078,4212.948730,4281.794922,4276.282227,4200.512695,4204.487305,4313.205078,4182.948730,4183.974121,4186.025879,4551.410156,4469.743652,4375.641113,4490.256348,5945.000000,4.000000,89.000000,,,,0.000000,4.000000,4.000000,4.000000,4.000000,4.000000,4.000000,0.000000,4.000000,4.000000,4.000000,4.000000,4.000000,4.000000,4.000000,66.666664,1.000000,58.333332,4.000000,4.000000,4.000000,4.000000,4.000000,4.000000,0.000000,4.000000,3.000000,4.000000,4.000000,4.000000,4.000000,4.000000,,,,,,,,,,,,
1703153208.693821,1703153208.694905,103.000000,0.000000,4215.000000,4206.282227,4277.820313,4268.717773,4202.948730,4198.717773,4313.717773,4186.025879,4184.230957,4189.230957,4553.589844,4467.948730,4381.666504,4485.769043,6359.000000,4.000000,89.000000,,,,0.000000,4.000000,4.000000,4.000000,4.000000,4.000000,4.000000,0.000000,4.000000,4.000000,4.000000,4.000000,4.000000,4.000000,4.000000,66.666664,,,,,,,,,,,,,,,,,,,,,,,,,,,,
1703153208.701629,1703153208.702713,104.000000,0.000000,4211.282227,4210.256348,4275.000000,4261.666504,4204.487305,4199.102539,4316.410156,4187.179688,4185.641113,4188.333496,4557.692383,4470.000000,4381.025879,4478.461426,6761.000000,4.000000,89.000000,,,,0.000000,4.000000,4.000000,4.000000,4.000000,4.000000,4.000000,0.000000,4.000000,4.000000,4.000000,4.000000,4.000000,4.000000,4.000000,66.666664,,,,,,,,,,,,,,,,,26.000000,0.000000,0.639929,0.406860,-0.543274,0.360291,0.983030,0.130875,0.077646,-16.786249,-30.833305,65.118813
1703153208.709437,1703153208.710421,105.000000,0.000000,4220.128418,4216.025879,4278.205078,4269.358887,4201.794922,4204.615234,4315.769043,4185.641113,4195.384766,4190.512695,4557.051270,4471.538574,4378.589844,4483.589844,7154.000000,4.000000,89.000000,,,,0.000000,4.000000,4.000000,4.000000,4.000000,4.000000,4.000000,0.000000,4.000000,4.000000,4.000000,4.000000,4.000000,4.000000,4.000000,66.666664,,,,,,,,,,,,,,,,,,,,,,,,,,,,
1703153208.717245,1703153208.718329,106.000000,0.000000,4239.615234,4217.179688,4284.871582,4278.717773,4208.333496,4202.051270,4313.589844,4185.897461,4201.794922,4198.846191,4563.589844,4480.000000,4390.384766,4496.666504,5945.000000,4.000000,89.000000,,,,0.000000,4.000000,4.000000,4.000000,4.000000,4.000000,4.000000,0.000000,4.000000,4.000000,4.000000,4.000000,4.000000,4.000000,4.000000,66.666664,,,,,,,,,,,,,,,,,,,,,,,,,,,,
1703153208.725053,1703153208.726137,107.000000,0.000000,4252.948730,4222.563965,4292.436035,4279.743652,4218.846191,4200.384766,4312.436035,4191.538574,4199.871582,4201.410156,4571.538574,4491.410156,4402.436035,4506.794922,6359.000000,4.000000,89.000000,,,,0.000000,4.000000,4.000000,4.000000,4.000000,4.000000,4.000000,0.000000,4.000000,4.000000,4.000000,4.000000,4.000000,4.000000,4.000000,66.666664,,,,,,,,,,,,,,,,,,,,,,,,,,,,
1703153208.732861,1703153208.734045,108.000000,0.000000,4251.153809,4233.205078,4299.358887,4285.897461,4219.871582,4210.256348,4312.563965,4199.743652,4207.179688,4207.820313,4579.230957,4497.051270,4407.179688,4520.641113,6761.000000,4.000000,89.000000,,,,0.000000,4.000000,4.000000,4.000000,4.000000,4.000000,4.000000,0.000000,4.000000,4.000000,4.000000,4.000000,4.000000,4.000000,4.000000,66.666664,,,,,,,,,,,,,,,,,27.000000,0.000000,0.639856,0.406921,-0.543274,0.360352,0.997680,0.120132,0.079111,-16.690958,-30.816641,65.206932
1703153208.740669,1703153208.741853,109.000000,0.000000,4245.897461,4236.282227,4304.358887,4293.589844,4217.179688,4218.589844,4316.153809,4203.461426,4213.846191,4214.102539,4583.077148,4494.358887,4407.692383,4525.000000,7154.000000,4.000000,89.000000,,,,0.000000,4.000000,4.000000,4.000000,4.000000,4.000000,4.000000,0.000000,4.000000,4.000000,4.000000,4.000000,4.000000,4.000000,4.000000,66.666664,,,,,,,,,,,,,,,,,,,,,,,,,,,,
1703153208.748477,1703153208.749661,110.000000,0.000000,4246.666504,4226.025879,4303.461426,4291.282227,4219.358887,4217.563965,4317.436035,4199.358887,4209.230957,4209.102539,4575.384766,4485.384766,4402.051270,4512.051270,5945.000000,4.000000,89.000000,,,,0.000000,4.000000,4.000000,4.000000,4.000000,4.000000,4.000000,0.000000,4.000000,4.000000,4.000000,4.000000,4.000000,4.000000,4.000000,66.666664,,,,,,,,,,,,,,,,,,,,,,,,,,,,
1703153208.756285,1703153208.757370,111.000000,0.000000,4245.512695,4223.846191,4297.307617,4288.333496,4220.256348,4215.897461,4315.897461,4196.153809,4205.512695,4203.717773,4566.025879,4479.230957,4394.487305,4499.743652,6359.000000,4.000000,89.000000,,,,0.000000,4.000000,4.000000,4.000000,4.000000,4.000000,4.000000,0.000000,4.000000,4.000000,4.000000,4.000000,4.000000,4.000000,4.000000,66.666664,,,,,,,,,,,,,,,,,,,,,,,,,,,,
1703153208.764093,1703153208.765178,112.000000,0.000000,4233.974121,4230.512695,4292.307617,4289.358887,4218.974121,4216.153809,4317.179688,4195.384766,4203.846191,4202.820313,4560.384766,4476.922852,4391.538574,4489.487305,6761.000000,4.000000,89.000000,,,,0.000000,4.000000,4.000000,4.000000,4.000000,4.000000,4.000000,0.000000,4.000000,4.000000,4.000000,4.000000,4.000000,4.000000,4.000000,66.666664,,,,,,,,,,,,,,,,,28.000000,0.000000,0.640032,0.407104,-0.543091,0.360107,0.991820,0.121597,0.083995,-16.505196,-30.784977,65.269569
1703153208.771901,1703153208.772886,113.000000,0.000000,4222.436035,4224.743652,4289.743652,4289.487305,4221.666504,4215.128418,4316.922852,4198.205078,4204.230957,4204.487305,4561.666504,4476.922852,4391.794922,4484.871582,7154.000000,4.000000,89.000000,,,,0.000000,4.000000,4.000000,4.000000,4.000000,4.000000,4.000000,0.000000,4.000000,4.000000,4.000000,4.000000,4.000000,4.000000,4.000000,66.666664,,,,,,,,,,,,,,,,,,,,,,,,,,,,
1703153208.779709,1703153208.780694,114.000000,0.000000,4223.461426,4215.769043,4292.820313,4289.743652,4218.589844,4215.769043,4315.256348,4207.179688,4214.230957,4209.615234,4571.410156,4480.641113,4394.230957,4490.000000,5945.000000,4.000000,89.000000,,,,0.000000,4.000000,4.000000,4.000000,4.000000,4.000000,4.000000,0.000000,4.000000,4.000000,4.000000,4.000000,4.000000,4.000000,4.000000,66.666664,,,,,,,,,,,,,,,,,,,,,,,,,,,,
1703153208.787517,1703153208.788402,115.000000,0.000000,4229.615234,4216.922852,4292.563965,4289.743652,4216.282227,4222.692383,4315.256348,4208.717773,4222.179688,4208.846191,4573.846191,4484.358887,4392.820313,4480.641113,6359.000000,4.000000,89.000000,,,,0.000000,4.000000,4.000000,4.000000,4.000000,4.000000,4.000000,0.000000,4.000000,4.000000,4.000000,4.000000,4.000000,4.000000,4.000000,66.666664,,,,,,,,,,,,,,,,,,,,,,,,,,,,
1703153208.795325,1703153208.796210,116.000000,0.000000,4230.512695,4217.179688,4283.461426,4288.974121,4224.358887,4228.077148,4315.897461,4202.179688,4211.410156,4202.692383,4563.333496,4484.871582,4387.179688,4466.282227,6761.000000,4.000000,89.000000,,,,0.000000,4.000000,4.000000,4.000000,4.000000,4.000000,4.000000,0.000000,4.000000,4.000000,4.000000,4.000000,4.000000,4.000000,4.000000,66.666664,,,,,,,,,,,,,,,,,29.000000,0.000000,0.640018,0.407288,-0.543091,0.359924,0.983030,0.122085,0.078623,-16.254675,-30.723146,65.359283
1703153208.803133,1703153208.803918,117.000000,0.000000,4230.641113,4219.487305,4283.461426,4291.794922,4231.794922,4229.358887,4316.410156,4201.282227,4201.025879,4202.051270,4558.205078,4482.051270,4387.436035,4479.615234,7154.000000,4.000000,89.000000,,,,0.000000,4.000000,4.000000,4.000000,4.000000,4.000000,4.000000,0.000000,4.000000,4.000000,4.000000,4.000000,4.000000,4.000000,4.000000,66.666664,,,,,,,,,,,,,,,,,,,,,,,,,,,,
1703153208.810942,1703153208.811726,118.000000,0.000000,4235.000000,4228.333496,4293.846191,4296.153809,4230.897461,4228.974121,4315.769043,4204.871582,4206.666504,4205.512695,4566.025879,4477.563965,4392.692383,4509.615234,5945.000000,4.000000,89.000000,,,,0.000000,4.000000,4.000000,4.000000,4.000000,4.000000,4.000000,0.000000,4.000000,4.000000,4.000000,4.000000,4.000000,4.000000,4.000000,66.666664,,,,,,,,,,,,,,,,,,,,,,,,,,,,
1703153208.818750,1703153208.819434,119.000000,0.000000,4240.256348,4230.641113,4297.436035,4297.051270,4228.077148,4225.384766,4318.974121,4204.615234,4217.563965,4208.461426,4573.846191,4479.871582,4397.051270,4517.563965,6359.000000,4.000000,89.000000,,,,0.000000,4.000000,4.000000,4.000000,4.000000,4.000000,4.000000,0.000000,4.000000,4.000000,4.000000,4.000000,4.000000,4.000000,4.000000,66.666664,,,,,,,,,,,,,,,,,,,,,,,,,,,,
1703153208.826558,1703153208.827242,120.000000,0.000000,4244.615234,4230.512695,4296.922852,4294.743652,4230.000000,4218.717773,4323.846191,4199.615234,4218.717773,4211.794922,4574.615234,4489.487305,4399.358887,4502.820313,6761.000000,4.000000,89.000000,,,,0.000000,4.000000,4.000000,4.000000,4.000000,4.000000,4.000000,0.000000,4.000000,4.000000,4.000000,4.000000,4.000000,4.000000,4.000000,66.666664,,,,,,,,,,,,,,,,,30.000000,0.000000,0.640066,0.407349,-0.543030,0.359863,0.977170,0.116713,0.076670,-16.329208,-30.750832,65.190018
1703153208.834366,1703153208.834950,121.000000,0.000000,4245.641113,4233.717773,4303.589844,4298.205078,4234.487305,4216.538574,4320.512695,4199.102539,4216.025879,4213.717773,4579.743652,4496.538574,4405.897461,4506.794922,7154.000000,4.000000,89.000000,,,,0.000000,4.000000,4.000000,4.000000,4.000000,4.000000,4.000000,0.000000,4.000000,4.000000,4.000000,4.000000,4.000000,4.000000,4.000000,66.666664,,,,,,,,,,,,,,,,,,,,,,,,,,,,
1703153208.842174,1703153208.842858,122.000000,0.000000,4249.743652,4236.153809,4312.179688,4306.025879,4236.794922,4222.820313,4315.256348,4202.820313,4219.102539,4217.307617,4586.410156,4497.436035,4409.102539,4512.948730,5945.000000,4.000000,89.000000,,,,0.000000,4.000000,4.000000,4.000000,4.000000,4.000000,4.000000,0.000000,4.000000,4.000000,4.000000,4.000000,4.000000,4.000000,4.000000,66.666664,,,,,,,,,,,,,,,,,,,,,,,,,,,,
1703153208.849982,1703153208.850666,123.000000,0.000000,4251.538574,4237.436035,4305.256348,4303.974121,4234.871582,4226.153809,4317.436035,4205.641113,4219.615234,4218.717773,4583.589844,4491.410156,4400.384766,4492.820313,6359.000000,4.000000,89.000000,,,,0.000000,4.000000,4.000000,4.000000,4.000000,4.000000,4.000000,0.000000,4.000000,4.000000,4.000000,4.000000,4.000000,4.000000,4.000000,66.666664,,,,,,,,,,,,,,,,,,,,,,,,,,,,
1703153208.857790,1703153208.858574,124.000000,0.000000,4245.128418,4233.461426,4299.743652,4294.615234,4232.051270,4221.282227,4323.974121,4206.410156,4219.102539,4212.179688,4577.948730,4489.871582,4393.333496,4488.077148,6761.000000,4.000000,89.000000,,,,0.000000,4.000000,4.000000,4.000000,4.000000,4.000000,4.000000,0.000000,4.000000,4.000000,4.000000,4.000000,4.000000,4.000000,4.000000,66.666664,,,,,,,,,,,,,,,,,31.000000,0.000000,0.640277,0.407288,-0.542908,0.359741,0.978147,0.125015,0.082530,-16.346287,-30.775749,65.487686
1703153208.865598,1703153208.866382,125.000000,0.000000,4245.384766,4232.179688,4307.307617,4294.743652,4232.307617,4217.307617,4320.897461,4206.922852,4217.948730,4202.436035,4574.358887,4493.077148,4392.051270,4502.948730,7154.000000,4.000000,89.000000,,,,0.000000,4.000000,4.000000,4.000000,4.000000,4.000000,4.000000,0.000000,4.000000,4.000000,4.000000,4.000000,4.000000,4.000000,4.000000,66.666664,,,,,,,,,,,,,,,,,,,,,,,,,,,,
1703153208.873406,1703153208.874290,126.000000,0.000000,4251.922852,4231.794922,4304.487305,4296.025879,4233.333496,4219.230957,4316.794922,4213.461426,4217.307617,4200.512695,4577.692383,4491.538574,4394.615234,4498.205078,5945.000000,4.000000,89.000000,,,,0.000000,4.000000,4.000000,4.000000,4.000000,4.000000,4.000000,0.000000,4.000000,4.000000,4.000000,4.000000,4.000000,4.000000,4.000000,66.666664,,,,,,,,,,,,,,,,,,,,,,,,,,,,
1703153208.881214,1703153208.882098,127.000000,0.000000,4245.897461,4223.077148,4294.743652,4286.153809,4232.051270,4221.282227,4324.743652,4216.794922,4219.358887,4204.102539,4582.563965,4487.179688,4395.000000,4483.333496,89.000000,4.000000,89.000000,,,,0.000000,4.000000,4.000000,4.000000,4.000000,4.000000,4.000000,0.000000,4.000000,4.000000,4.000000,4.000000,4.000000,4.000000,4.000000,66.666664,,,,,,,,,,,,,,,,,,,,,,,,,,,,
1703153208.889022,1703153208.889806,0.000000,0.000000,4232.179688,4216.538574,4288.717773,4276.410156,4228.846191,4219.743652,4328.333496,4210.128418,4216.666504,4201.666504,4576.538574,4477.820313,4390.000000,4483.974121,5277.000000,4.000000,89.000000,,,,0.000000,4.000000,4.000000,4.000000,4.000000,4.000000,4.000000,0.000000,4.000000,4.000000,4.000000,4.000000,4.000000,4.000000,4.000000,66.666664,,,,,,,,,,,,,,,,,0.000000,0.000000,0.640372,0.407166,-0.542847,0.359802,0.988890,0.135270,0.069833,-16.328325,-30.631506,65.522247
1703153208.896830,1703153208.897614,1.000000,0.000000,4232.436035,4220.128418,4283.717773,4276.538574,4230.000000,4216.794922,4324.102539,4205.769043,4214.230957,4196.794922,4566.538574,4471.794922,4386.794922,4490.256348,5599.000000,4.000000,89.000000,,,,0.000000,4.000000,4.000000,4.000000,4.000000,4.000000,4.000000,0.000000,4.000000,4.000000,4.000000,4.000000,4.000000,4.000000,4.000000,66.666664,,,,,,,,,,,,,,,,,,,,,,,,,,,,
1703153208.904638,1703153208.905322,2.000000,0.000000,4241.410156,4220.256348,4283.333496,4279.743652,4231.794922,4213.077148,4321.922852,4204.102539,4210.256348,4193.205078,4560.256348,4471.153809,4384.230957,4486.025879,5415.000000,4.000000,89.000000,,,,0.000000,4.000000,4.000000,4.000000,4.000000,4.000000,4.000000,0.000000,4.000000,4.000000,4.000000,4.000000,4.000000,4.000000,4.000000,66.666664,,,,,,,,,,,,,,,,,,,,,,,,,,,,
1703153208.912446,1703153208.913130,3.000000,0.000000,4245.384766,4216.794922,4285.128418,4279.230957,4228.333496,4215.256348,4318.846191,4200.897461,4203.717773,4193.333496,4559.871582,4469.102539,4384.743652,4486.153809,5415.000000,4.000000,89.000000,,,,0.000000,4.000000,4.000000,4.000000,4.000000,4.000000,4.000000,0.000000,4.000000,4.000000,4.000000,4.000000,4.000000,4.000000,4.000000,66.666664,,,,,,,,,,,,,,,,,,,,,,,,,,,,
1703153208.920254,1703153208.920838,4.000000,0.000000,4256.282227,4224.615234,4290.256348,4284.871582,4228.461426,4219.102539,4319.615234,4198.077148,4205.641113,4197.179688,4562.820313,4471.922852,4387.307617,4491.538574,5232.000000,4.000000,89.000000,,,,0.000000,4.000000,4.000000,4.000000,4.000000,4.000000,4.000000,0.000000,4.000000,4.000000,4.000000,4.000000,4.000000,4.000000,4.000000,66.666664,,,,,,,,,,,,,,,,,1.000000,0.000000,0.640303,0.407166,-0.542969,0.359741,0.992797,0.126480,0.078623,-16.195492,-30.851690,65.353355
1703153208.928062,1703153208.928646,5.000000,0.000000,4265.384766,4231.025879,4298.717773,4295.000000,4234.102539,4217.948730,4322.820313,4201.282227,4214.358887,4199.871582,4566.794922,4483.333496,4390.384766,4486.282227,5265.000000,4.000000,89.000000,,,,0.000000,4.000000,4.000000,4.000000,4.000000,4.000000,4.000000,0.000000,4.000000,4.000000,4.000000,4.000000,4.000000,4.000000,4.000000,66.666664,,,,,,,,,,,,,,,,,,,,,,,,,,,,
1703153208.935870,1703153208.936354,6.000000,0.000000,4252.563965,4230.000000,4300.769043,4291.025879,4228.974121,4217.307617,4323.077148,4210.769043,4218.333496,4203.077148,4575.897461,4491.794922,4398.717773,4491.153809,0.000000,4.000000,89.000000,,,,0.000000,4.000000,4.000000,4.000000,4.000000,4.000000,4.000000,0.000000,4.000000,4.000000,4.000000,4.000000,4.000000,4.000000,4.000000,66.666664,,,,,,,,,,,,,,,,,,,,,,,,,,,,
1703153208.943678,1703153208.944162,7.000000,0.000000,4242.051270,4231.025879,4299.230957,4281.025879,4219.358887,4216.922852,4326.282227,4212.948730,4216.794922,4199.230957,4577.692383,4482.307617,4396.410156,4509.871582,5086.000000,4.000000,89.000000,,,,0.000000,4.000000,4.000000,4.000000,4.000000,4.000000,4.000000,0.000000,4.000000,4.000000,4.000000,4.000000,4.000000,4.000000,4.000000,66.666664,,,,,,,,,,,,,,,,,,,,,,,,,,,,
1703153208.951486,1703153208.951870,8.000000,0.000000,4255.256348,4226.153809,4297.948730,4279.487305,4222.179688,4212.820313,4326.922852,4208.974121,4215.641113,4192.948730,4567.692383,4472.820313,4383.461426,4507.307617,5384.000000,4.000000,89.000000,,,,0.000000,4.000000,4.000000,4.000000,4.000000,4.000000,4.000000,0.000000,4.000000,4.000000,4.000000,4.000000,4.000000,4.000000,4.000000,66.666664,,,,,,,,,,,,,,,,,2.000000,0.000000,0.640199,0.407166,-0.543091,0.359741,0.981565,0.136735,0.073739,-16.075943,-30.799854,65.118019
1703153208.959294,1703153208.959678,9.000000,0.000000,4267.179688,4220.128418,4295.512695,4281.538574,4222.307617,4211.666504,4323.974121,4208.205078,4216.922852,4198.717773,4571.666504,4484.102539,4389.743652,4495.128418,5302.000000,4.000000,89.000000,,,,0.000000,4.000000,4.000000,4.000000,4.000000,4.000000,4.000000,0.000000,4.000000,4.000000,4.000000,4.000000,4.000000,4.000000,4.000000,66.666664,,,,,,,,,,,,,,,,,,,,,,,,,,,,
1703153208.967102,1703153208.967386,10.000000,0.000000,4261.794922,4228.077148,4298.333496,4283.974121,4215.897461,4217.563965,4325.128418,4209.743652,4220.128418,4206.922852,4581.410156,4489.230957,4403.589844,4504.487305,5961.000000,4.000000,89.000000,,,,0.000000,4.000000,4.000000,4.000000,4.000000,4.000000,4.000000,0.000000,4.000000,4.000000,4.000000,4.000000,4.000000,4.000000,4.000000,66.666664,,,,,,,,,,,,,,,,,,,,,,,,,,,,
1703153208.974910,1703153208.975194,11.000000,0.000000,4253.205078,4231.153809,4299.358887,4283.846191,4223.205078,4221.922852,4324.871582,4208.974121,4218.846191,4203.205078,4573.077148,4474.743652,4399.743652,4511.666504,6366.000000,4.000000,89.000000,,,,0.000000,4.000000,4.000000,4.000000,4.000000,4.000000,4.000000,0.000000,4.000000,4.000000,4.000000,4.000000,4.000000,4.000000,4.000000,66.666664,,,,,,,,,,,,,,,,,,,,,,,,,,,,
1703153208.982719,1703153208.982902,12.000000,0.000000,4250.512695,4219.487305,4295.256348,4278.589844,4231.153809,4218.589844,4322.820313,4208.205078,4214.871582,4195.769043,4565.256348,4472.051270,4391.153809,4500.128418,6765.000000,4.000000,89.000000,,,,0.000000,4.000000,4.000000,4.000000,4.000000,4.000000,4.000000,0.000000,4.000000,4.000000,4.000000,4.000000,4.000000,4.000000,4.000000,66.666664,,,,,,,,,,,,,,,,,3.000000,0.000000,0.639954,0.407227,-0.543213,0.359924,0.984984,0.111342,0.076181,-16.168348,-30.603201,65.139549
1703153208.990527,1703153208.990810,13.000000,0.000000,4249.615234,4219.230957,4298.461426,4278.333496,4221.666504,4214.230957,4321.922852,4211.410156,4219.743652,4194.102539,4569.358887,4481.282227,4392.820313,4495.000000,7154.000000,4.000000,89.000000,,,,0.000000,4.000000,4.000000,4.000000,4.000000,4.000000,4.000000,0.000000,4.000000,4.000000,4.000000,4.000000,4.000000,4.000000,4.000000,66.666664,,,,,,,,,,,,,,,,,,,,,,,,,,,,
1703153208.998335,1703153208.998618,14.000000,0.000000,4245.256348,4223.589844,4297.692383,4281.410156,4214.615234,4213.846191,4326.153809,4213.205078,4221.025879,4197.692383,4570.512695,4481.410156,4393.846191,4493.589844,5961.000000,4.000000,89.000000,,,,0.000000,4.000000,4.000000,4.000000,4.000000,4.000000,4.000000,0.000000,4.000000,4.000000,4.000000,4.000000,4.000000,4.000000,4.000000,66.666664,,,,,,,,,,,,,,,,,,,,,,,,,,,,
1703153209.006143,1703153209.006527,15.000000,0.000000,4246.282227,4217.179688,4294.230957,4280.641113,4219.230957,4214.487305,4329.102539,4208.846191,4207.436035,4199.871582,4561.666504,4475.512695,4385.897461,4479.871582,6366.000000,4.000000,89.000000,,,,0.000000,4.000000,4.000000,4.000000,4.000000,4.000000,4.000000,0.000000,4.000000,4.000000,4.000000,4.000000,4.000000,4.000000,4.000000,66.666664,,,,,,,,,,,,,,,,,,,,,,,,,,,,
1703153209.013951,1703153209.014335,16.000000,0.000000,4247.692383,4214.358887,4296.794922,4277.563965,4217.051270,4211.025879,4324.743652,4202.692383,4206.025879,4199.615234,4560.769043,4474.487305,4383.077148,4477.820313,0.000000,4.000000,89.000000,,,,0.000000,4.000000,4.000000,4.000000,4.000000,4.000000,4.000000,0.000000,4.000000,4.000000,4.000000,4.000000,4.000000,4.000000,4.000000,66.666664,,,,,,,,,,,,,,,,,4.000000,0.000000,0.639790,0.407104,-0.543335,0.360168,0.984984,0.132340,0.081065,-16.051514,-30.576216,65.142265
1703153209.021759,1703153209.022243,17.000000,0.000000,4236.153809,4215.000000,4297.179688,4274.358887,4214.102539,4203.974121,4323.589844,4203.077148,4214.230957,4196.025879,4567.051270,4475.256348,4387.051270,4490.384766,0.000000,4.000000,89.000000,,,,0.000000,4.000000,4.000000,4.000000,4.000000,4.000000,4.000000,0.000000,4.000000,4.000000,4.000000,4.000000,4.000000,4.000000,4.000000,66.666664,,,,,,,,,,,,,,,,,,,,,,,,,,,,
1703153209.029567,1703153209.030051,18.000000,0.000000,4228.205078,4215.641113,4294.743652,4275.897461,4218.461426,4203.589844,4326.410156,4203.974121,4207.692383,4191.025879,4564.358887,4469.487305,4383.205078,4482.307617,0.000000,4.000000,89.000000,,,,0.000000,4.000000,4.000000,4.000000,4.000000,4.000000,4.000000,0.000000,4.000000,4.000000,4.000000,4.000000,4.000000,4.000000,4.000000,66.666664,,,,,,,,,,,,,,,,,,,,,,,,,,,,
1703153209.037375,1703153209.037958,19.000000,0.000000,4241.282227,4212.436035,4293.846191,4275.512695,4217.820313,4212.179688,4326.153809,4201.153809,4204.743652,4193.717773,4563.461426,4468.205078,4380.512695,4473.846191,0.000000,4.000000,89.000000,,,,0.000000,4.000000,4.000000,4.000000,4.000000,4.000000,4.000000,0.000000,4.000000,4.000000,4.000000,4.000000,4.000000,4.000000,4.000000,66.666664,,,,,,,,,,,,,,,,,,,,,,,,,,,,
1703153209.045183,1703153209.045766,20.000000,0.000000,4256.025879,4204.871582,4293.077148,4270.512695,4212.436035,4217.692383,4328.717773,4204.230957,4217.307617,4195.000000,4564.358887,4473.205078,4382.692383,4488.846191,0.000000,4.000000,89.000000,,,,0.000000,4.000000,4.000000,4.000000,4.000000,4.000000,4.000000,0.000000,4.000000,4.000000,4.000000,4.000000,4.000000,4.000000,4.000000,66.666664,,,,,,,,,,,,,,,,,5.000000,0.000000,0.639834,0.406982,-0.543213,0.360413,0.978147,0.124039,0.079111,-15.896363,-30.718594,65.061371
1703153209.052991,1703153209.053674,21.000000,0.000000,4251.410156,4208.205078,4290.641113,4272.436035,4213.461426,4214.871582,4328.846191,4208.974121,4227.436035,4193.846191,4565.769043,4476.538574,4385.256348,4495.641113,0.000000,4.000000,89.000000,,,,0.000000,4.000000,4.000000,4.000000,4.000000,4.000000,4.000000,0.000000,4.000000,4.000000,4.000000,4.000000,4.000000,4.000000,4.000000,66.666664,,,,,,,,,,,,,,,,,,,,,,,,,,,,
1703153209.060799,1703153209.061482,22.000000,0.000000,4251.153809,4219.102539,4298.717773,4280.000000,4217.948730,4208.846191,4324.615234,4215.769043,4225.897461,4199.615234,4577.436035,4487.051270,4394.102539,4495.000000,0.000000,4.000000,89.000000,,,,0.000000,4.000000,4.000000,4.000000,4.000000,4.000000,4.000000,0.000000,4.000000,4.000000,4.000000,4.000000,4.000000,4.000000,4.000000,66.666664,,,,,,,,,,,,,,,,,,,,,,,,,,,,
1703153209.068607,1703153209.069390,23.000000,0.000000,4266.410156,4216.153809,4310.512695,4281.538574,4217.179688,4206.282227,4325.769043,4215.897461,4217.948730,4197.948730,4580.769043,4497.179688,4396.538574,4499.743652,0.000000,4.000000,89.000000,,,,0.000000,4.000000,4.000000,4.000000,4.000000,4.000000,4.000000,0.000000,4.000000,4.000000,4.000000,4.000000,4.000000,4.000000,4.000000,66.666664,,,,,,,,,,,,,,,,,,,,,,,,,,,,
1703153209.076415,1703153209.077198,24.000000,0.000000,4270.512695,4210.641113,4304.358887,4280.897461,4215.256348,4205.512695,4327.692383,4205.512695,4212.436035,4191.282227,4569.102539,4493.333496,4390.384766,4494.102539,0.000000,4.000000,89.000000,,,,0.000000,4.000000,4.000000,4.000000,4.000000,4.000000,4.000000,0.000000,4.000000,4.000000,4.000000,4.000000,4.000000,4.000000,4.000000,66.666664,,,,,,,,,,,,,,,,,6.000000,0.000000,0.639709,0.407043,-0.543274,0.360474,0.984984,0.119644,0.073739,-16.090059,-30.780067,65.255234
1703153209.084223,1703153209.084906,25.000000,0.000000,4262.563965,4217.307617,4295.769043,4280.384766,4216.025879,4203.846191,4329.743652,4202.179688,4211.538574,4193.077148,4568.461426,4487.307617,4391.538574,4488.077148,0.000000,4.000000,89.000000,,,,0.000000,4.000000,4.000000,4.000000,4.000000,4.000000,4.000000,0.000000,4.000000,4.000000,4.000000,4.000000,4.000000,4.000000,4.000000,66.666664,,,,,,,,,,,,,,,,,,,,,,,,,,,,
1703153209.092031,1703153209.092714,26.000000,0.000000,4261.794922,4218.461426,4297.051270,4276.153809,4215.897461,4200.256348,4330.000000,4204.230957,4205.641113,4189.871582,4571.794922,4488.974121,4392.692383,4490.256348,0.000000,4.000000,89.000000,,,,0.000000,4.000000,4.000000,4.000000,4.000000,4.000000,4.000000,0.000000,4.000000,4.000000,4.000000,4.000000,4.000000,4.000000,4.000000,66.666664,,,,,,,,,,,,,,,,,,,,,,,,,,,,
1703153209.099839,1703153209.100422,27.000000,0.000000,4265.128418,4211.538574,4299.102539,4274.102539,4215.128418,4197.820313,4326.794922,4200.000000,4198.589844,4181.538574,4560.769043,4488.461426,4386.794922,4492.051270,0.000000,4.000000,89.000000,,,,0.000000,4.000000,4.000000,4.000000,4.000000,4.000000,4.000000,0.000000,4.000000,4.000000,4.000000,4.000000,4.000000,4.000000,4.000000,66.666664,,,,,,,,,,,,,,,,,,,,,,,,,,,,
1703153209.107647,1703153209.108230,28.000000,0.000000,4267.563965,4212.563965,4299.487305,4276.153809,4213.846191,4200.897461,4327.820313,4194.615234,4203.077148,4181.410156,4553.333496,4481.153809,4384.743652,4487.563965,0.000000,4.000000,89.000000,,,,0.000000,4.000000,4.000000,4.000000,4.000000,4.000000,4.000000,0.000000,4.000000,4.000000,4.000000,4.000000,4.000000,4.000000,4.000000,66.666664,,,,,,,,,,,,,,,,,7.000000,0.000000,0.639722,0.407104,-0.543335,0.360291,0.983518,0.130875,0.080088,-16.281054,-30.768728,65.246376
1703153209.115455,1703153209.115938,29.000000,0.000000,4269.871582,4215.641113,4300.000000,4275.256348,4212.820313,4204.871582,4329.358887,4197.436035,4210.128418,4185.384766,4559.615234,4482.436035,4389.487305,4485.256348,0.000000,4.000000,89.000000,,,,0.000000,4.000000,4.000000,4.000000,4.000000,4.000000,4.000000,0.000000,4.000000,4.000000,4.000000,4.000000,4.000000,4.000000,4.000000,66.666664,,,,,,,,,,,,,,,,,,,,,,,,,,,,
1703153209.123263,1703153209.123746,30.000000,0.000000,4264.743652,4214.230957,4303.077148,4275.256348,4213.846191,4204.871582,4330.384766,4204.102539,4209.102539,4188.461426,4569.615234,4495.128418,4396.025879,4486.922852,0.000000,4.000000,89.000000,,,,0.000000,4.000000,4.000000,4.000000,4.000000,4.000000,4.000000,0.000000,4.000000,4.000000,4.000000,4.000000,4.000000,4.000000,4.000000,66.666664,,,,,,,,,,,,,,,,,,,,,,,,,,,,
1703153209.131071,1703153209.131454,31.000000,0.000000,4259.743652,4213.974121,4305.641113,4275.897461,4216.538574,4207.436035,4331.025879,4204.487305,4209.615234,4191.025879,4572.179688,4497.820313,4398.461426,4489.871582,0.000000,4.000000,89.000000,,,,0.000000,4.000000,4.000000,4.000000,4.000000,4.000000,4.000000,0.000000,4.000000,4.000000,4.000000,4.000000,4.000000,4.000000,4.000000,66.666664,,,,,,,,,,,,,,,,,,,,,,,,,,,,
1703153209.138879,1703153209.139262,32.000000,0.000000,4263.589844,4214.615234,4298.846191,4269.358887,4217.307617,4212.436035,4329.487305,4201.538574,4212.692383,4192.563965,4569.871582,4485.512695,4396.922852,4497.820313,0.000000,4.000000,89.000000,,,,0.000000,4.000000,4.000000,4.000000,4.000000,4.000000,4.000000,0.000000,4.000000,4.000000,4.000000,4.000000,4.000000,4.000000,4.000000,66.666664,,,,,,,,,,,,,,,,,8.000000,0.000000,0.639635,0.407104,-0.543396,0.360352,0.983518,0.132829,0.074716,-16.552948,-30.758522,65.155075
1703153209.146687,1703153209.146970,33.000000,0.000000,4266.922852,4215.000000,4291.282227,4264.487305,4215.641113,4207.563965,4329.358887,4201.153809,4206.538574,4189.487305,4568.717773,4477.051270,4393.974121,4498.461426,0.000000,4.000000,89.000000,,,,0.000000,4.000000,4.000000,4.000000,4.000000,4.000000,4.000000,0.000000,4.000000,4.000000,4.000000,4.000000,4.000000,4.000000,4.000000,66.666664,,,,,,,,,,,,,,,,,,,,,,,,,,,,
1703153209.154495,1703153209.154878,34.000000,0.000000,4263.717773,4216.153809,4293.077148,4272.436035,4213.717773,4199.487305,4327.563965,4202.563965,4206.153809,4189.230957,4571.025879,4480.641113,4390.897461,4493.717773,0.000000,4.000000,89.000000,,,,0.000000,4.000000,4.000000,4.000000,4.000000,4.000000,4.000000,0.000000,4.000000,4.000000,4.000000,4.000000,4.000000,4.000000,4.000000,66.666664,,,,,,,,,,,,,,,,,,,,,,,,,,,,
1703153209.162304,1703153209.162687,35.000000,0.000000,4264.102539,4220.512695,4297.563965,4281.282227,4214.358887,4201.282227,4325.641113,4202.948730,4216.538574,4193.205078,4575.512695,4489.615234,4394.487305,4493.333496,0.000000,4.000000,89.000000,,,,0.000000,4.000000,4.000000,4.000000,4.000000,4.000000,4.000000,0.000000,4.000000,4.000000,4.000000,4.000000,4.000000,4.000000,4.000000,66.666664,,,,,,,,,,,,,,,,,,,,,,,,,,,,
1703153209.170112,1703153209.170595,36.000000,0.000000,4271.538574,4222.436035,4298.974121,4280.384766,4217.692383,4202.179688,4326.922852,4200.769043,4211.410156,4193.333496,4574.615234,4490.512695,4399.230957,4492.563965,0.000000,4.000000,89.000000,,,,0.000000,4.000000,4.000000,4.000000,4.000000,4.000000,4.000000,0.000000,4.000000,4.000000,4.000000,4.000000,4.000000,4.000000,4.000000,66.666664,,,,,,,,,,,,,,,,,9.000000,0.000000,0.639454,0.407227,-0.543396,0.360535,0.981565,0.108900,0.078623,-16.664320,-30.799335,65.106232
1703153209.177920,1703153209.178403,37.000000,0.000000,4272.051270,4222.563965,4298.333496,4278.717773,4217.820313,4199.487305,4328.205078,4199.487305,4203.717773,4197.307617,4575.897461,4486.025879,4400.512695,4496.666504,0.000000,4.000000,89.000000,,,,0.000000,4.000000,4.000000,4.000000,4.000000,4.000000,4.000000,0.000000,4.000000,4.000000,4.000000,4.000000,4.000000,4.000000,4.000000,66.666664,,,,,,,,,,,,,,,,,,,,,,,,,,,,
1703153209.185728,1703153209.186311,38.000000,0.000000,4267.563965,4224.102539,4299.102539,4279.743652,4215.256348,4198.205078,4329.615234,4200.384766,4215.256348,4198.717773,4577.307617,4490.128418,4397.563965,4499.487305,0.000000,4.000000,89.000000,,,,0.000000,4.000000,4.000000,4.000000,4.000000,4.000000,4.000000,0.000000,4.000000,4.000000,4.000000,4.000000,4.000000,4.000000,4.000000,66.666664,1.000000,58.333332,4.000000,4.000000,4.000000,4.000000,4.000000,4.000000,0.000000,4.000000,3.000000,4.000000,4.000000,4.000000,4.000000,4.000000,,,,,,,,,,,,
1703153209.193536,1703153209.194119,39.000000,0.000000,4271.922852,4221.922852,4297.307617,4277.051270,4214.487305,4200.769043,4328.717773,4201.410156,4221.025879,4194.102539,4572.563965,4493.846191,4392.307617,4493.974121,0.000000,4.000000,89.000000,,,,0.000000,4.000000,4.000000,4.000000,4.000000,4.000000,4.000000,0.000000,4.000000,4.000000,4.000000,4.000000,4.000000,4.000000,4.000000,66.666664,,,,,,,,,,,,,,,,,,,,,,,,,,,,
1703153209.201344,1703153209.202027,40.000000,0.000000,4281.538574,4216.410156,4294.230957,4272.563965,4215.128418,4206.794922,4327.307617,4202.948730,4215.256348,4193.846191,4577.307617,4494.230957,4396.922852,4498.974121,0.000000,4.000000,89.000000,,,,0.000000,4.000000,4.000000,4.000000,4.000000,4.000000,4.000000,0.000000,4.000000,4.000000,4.000000,4.000000,4.000000,4.000000,4.000000,66.666664,,,,,,,,,,,,,,,,,10.000000,0.000000,0.639368,0.407227,-0.543457,0.360596,0.979123,0.115248,0.074228,-16.581223,-30.702736,65.278946
1703153209.209152,1703153209.209835,41.000000,0.000000,4279.358887,4216.666504,4298.589844,4273.846191,4214.615234,4206.538574,4327.051270,4202.051270,4210.897461,4193.205078,4584.615234,4497.820313,4402.820313,4509.615234,0.000000,4.000000,89.000000,,,,0.000000,4.000000,4.000000,4.000000,4.000000,4.000000,4.000000,0.000000,4.000000,4.000000,4.000000,4.000000,4.000000,4.000000,4.000000,66.666664,,,,,,,,,,,,,,,,,,,,,,,,,,,,
1703153209.216960,1703153209.217743,42.000000,0.000000,4264.615234,4220.384766,4298.077148,4275.512695,4213.717773,4199.615234,4326.922852,4199.871582,4210.000000,4191.410156,4581.794922,4494.102539,4402.563965,4503.589844,0.000000,4.000000,89.000000,,,,0.000000,4.000000,4.000000,4.000000,4.000000,4.000000,4.000000,0.000000,4.000000,4.000000,4.000000,4.000000,4.000000,4.000000,4.000000,66.666664,,,,,,,,,,,,,,,,,,,,,,,,,,,,
1703153209.224768,1703153209.225551,43.000000,0.000000,4261.666504,4218.974121,4292.307617,4272.307617,4213.589844,4193.846191,4329.871582,4201.153809,4209.871582,4193.717773,4578.461426,4489.615234,4400.512695,4494.615234,0.000000,4.000000,89.000000,,,,0.000000,4.000000,4.000000,4.000000,4.000000,4.000000,4.000000,0.000000,4.000000,4.000000,4.000000,4.000000,4.000000,4.000000,4.000000,66.666664,,,,,,,,,,,,,,,,,,,,,,,,,,,,
1703153209.232576,1703153209.233459,44.000000,0.000000,4275.384766,4219.358887,4292.692383,4274.871582,4216.282227,4198.461426,4332.051270,4203.846191,4210.128418,4195.256348,4583.205078,4491.538574,4402.179688,4493.461426,0.000000,4.000000,89.000000,,,,0.000000,4.000000,4.000000,4.000000,4.000000,4.000000,4.000000,0.000000,4.000000,4.000000,4.000000,4.000000,4.000000,4.000000,4.000000,66.666664,,,,,,,,,,,,,,,,,11.000000,0.000000,0.639268,0.407166,-0.543701,0.360474,0.984007,0.124039,0.085460,-16.706432,-30.649128,65.167717
1703153209.240384,1703153209.241267,45.000000,0.000000,4271.282227,4219.871582,4294.358887,4281.282227,4217.307617,4210.128418,4328.589844,4203.974121,4213.589844,4199.102539,4585.641113,4493.461426,4403.974121,4491.025879,0.000000,4.000000,89.000000,,,,0.000000,4.000000,4.000000,4.000000,4.000000,4.000000,4.000000,0.000000,4.000000,4.000000,4.000000,4.000000,4.000000,4.000000,4.000000,66.666664,,,,,,,,,,,,,,,,,,,,,,,,,,,,
1703153209.248192,1703153209.249175,46.000000,0.000000,4252.692383,4216.922852,4291.410156,4275.769043,4213.717773,4211.794922,4327.436035,4203.205078,4220.256348,4203.846191,4579.358887,4489.743652,4401.025879,4489.358887,0.000000,4.000000,89.000000,,,,0.000000,4.000000,4.000000,4.000000,4.000000,4.000000,4.000000,0.000000,4.000000,4.000000,4.000000,4.000000,4.000000,4.000000,4.000000,66.666664,,,,,,,,,,,,,,,,,,,,,,,,,,,,
1703153209.256000,1703153209.256983,47.000000,0.000000,4256.410156,4220.512695,4283.974121,4265.641113,4213.333496,4207.051270,4327.307617,4202.948730,4218.717773,4197.307617,4574.487305,4481.153809,4398.846191,4489.230957,0.000000,4.000000,89.000000,,,,0.000000,4.000000,4.000000,4.000000,4.000000,4.000000,4.000000,0.000000,4.000000,4.000000,4.000000,4.000000,4.000000,4.000000,4.000000,66.666664,,,,,,,,,,,,,,,,,,,,,,,,,,,,
1703153209.263808,1703153209.264890,48.000000,0.000000,4266.922852,4221.922852,4281.025879,4266.153809,4219.871582,4211.282227,4328.077148,4200.128418,4201.538574,4183.333496,4568.717773,4471.794922,4390.256348,4479.102539,0.000000,4.000000,89.000000,,,,0.000000,4.000000,4.000000,4.000000,4.000000,4.000000,4.000000,0.000000,4.000000,4.000000,4.000000,4.000000,4.000000,4.000000,4.000000,66.666664,,,,,,,,,,,,,,,,,12.000000,0.000000,0.639363,0.407043,-0.543762,0.360352,0.993774,0.125992,0.070809,-16.785789,-30.600882,65.067612
1703153209.271616,1703153209.272698,49.000000,0.000000,4262.692383,4216.153809,4284.871582,4273.461426,4223.333496,4218.846191,4330.384766,4196.153809,4184.871582,4172.307617,4555.384766,4468.589844,4375.128418,4464.358887,0.000000,4.000000,89.000000,,,,0.000000,4.000000,4.000000,4.000000,4.000000,4.000000,4.000000,0.000000,4.000000,4.000000,4.000000,4.000000,4.000000,4.000000,4.000000,66.666664,,,,,,,,,,,,,,,,,,,,,,,,,,,,
1703153209.279424,1703153209.280407,50.000000,0.000000,4258.846191,4214.743652,4287.692383,4278.077148,4217.436035,4214.230957,4327.820313,4200.256348,4191.666504,4173.589844,4555.512695,4477.436035,4378.461426,4466.666504,0.000000,4.000000,89.000000,,,,0.000000,4.000000,4.000000,4.000000,4.000000,4.000000,4.000000,0.000000,4.000000,4.000000,4.000000,4.000000,4.000000,4.000000,4.000000,66.666664,,,,,,,,,,,,,,,,,,,,,,,,,,,,
1703153209.287232,1703153209.288214,51.000000,0.000000,4267.948730,4224.102539,4292.563965,4276.410156,4212.820313,4209.615234,4327.179688,4199.615234,4203.717773,4186.153809,4568.589844,4485.256348,4393.205078,4477.307617,0.000000,4.000000,89.000000,,,,0.000000,4.000000,4.000000,4.000000,4.000000,4.000000,4.000000,0.000000,4.000000,4.000000,4.000000,4.000000,4.000000,4.000000,4.000000,66.666664,,,,,,,,,,,,,,,,,,,,,,,,,,,,
1703153209.295040,1703153209.295923,52.000000,0.000000,4275.641113,4228.974121,4298.589844,4272.563965,4215.769043,4210.641113,4327.179688,4189.871582,4198.846191,4192.563965,4570.384766,4482.051270,4395.769043,4476.922852,0.000000,4.000000,89.000000,,,,0.000000,4.000000,4.000000,4.000000,4.000000,4.000000,4.000000,0.000000,4.000000,4.000000,4.000000,4.000000,4.000000,4.000000,4.000000,66.666664,,,,,,,,,,,,,,,,,13.000000,0.000000,0.639350,0.406982,-0.543823,0.360352,0.971310,0.127457,0.068368,-16.740543,-30.490795,64.827515
1703153209.302848,1703153209.303831,53.000000,0.000000,4279.358887,4232.179688,4301.538574,4280.384766,4217.563965,4209.358887,4325.897461,4191.922852,4203.846191,4196.794922,4574.102539,4489.615234,4404.230957,4488.461426,0.000000,4.000000,89.000000,,,,0.000000,4.000000,4.000000,4.000000,4.000000,4.000000,4.000000,0.000000,4.000000,4.000000,4.000000,4.000000,4.000000,4.000000,4.000000,66.666664,,,,,,,,,,,,,,,,,,,,,,,,,,,,
1703153209.310656,1703153209.311639,54.000000,0.000000,4292.820313,4242.563965,4309.487305,4291.922852,4214.230957,4203.333496,4329.358887,4204.102539,4220.000000,4207.051270,4590.641113,4507.820313,4420.384766,4513.846191,0.000000,4.000000,89.000000,,,,0.000000,4.000000,4.000000,4.000000,4.000000,4.000000,4.000000,0.000000,4.000000,4.000000,4.000000,4.000000,4.000000,4.000000,4.000000,66.666664,,,,,,,,,,,,,,,,,,,,,,,,,,,,
1703153209.318464,1703153209.319447,55.000000,0.000000,4299.102539,4247.307617,4315.769043,4288.974121,4215.128418,4199.487305,4329.487305,4209.487305,4218.846191,4213.205078,4599.871582,4513.205078,4422.436035,4513.846191,0.000000,4.000000,89.000000,,,,0.000000,4.000000,4.000000,4.000000,4.000000,4.000000,4.000000,0.000000,4.000000,4.000000,4.000000,4.000000,4.000000,4.000000,4.000000,66.666664,,,,,,,,,,,,,,,,,,,,,,,,,,,,
1703153209.326272,1703153209.327155,56.000000,0.000000,4290.128418,4247.436035,4312.820313,4287.307617,4220.641113,4210.641113,4326.410156,4211.666504,4213.846191,4212.307617,4597.179688,4509.615234,4421.025879,4502.563965,0.000000,4.000000,89.000000,,,,0.000000,4.000000,4.000000,4.000000,4.000000,4.000000,4.000000,0.000000,4.000000,4.000000,4.000000,4.000000,4.000000,4.000000,4.000000,66.666664,,,,,,,,,,,,,,,,,14.000000,0.000000,0.639311,0.407043,-0.543823,0.360352,0.980100,0.130875,0.070809,-16.616489,-30.508381,64.894768
1703153209.334081,1703153209.334963,57.000000,0.000000,4287.179688,4244.615234,4306.153809,4289.102539,4220.256348,4218.333496,4326.666504,4215.384766,4219.358887,4207.563965,4589.102539,4506.153809,4418.974121,4507.948730,0.000000,4.000000,89.000000,,,,0.000000,4.000000,4.000000,4.000000,4.000000,4.000000,4.000000,0.000000,4.000000,4.000000,4.000000,4.000000,4.000000,4.000000,4.000000,66.666664,,,,,,,,,,,,,,,,,,,,,,,,,,,,
1703153209.341889,1703153209.342671,58.000000,0.000000,4290.384766,4237.436035,4298.589844,4281.922852,4218.461426,4207.563965,4329.743652,4213.846191,4216.282227,4203.077148,4583.974121,4501.025879,4412.692383,4510.256348,0.000000,4.000000,89.000000,,,,0.000000,4.000000,4.000000,4.000000,4.000000,4.000000,4.000000,0.000000,4.000000,4.000000,4.000000,4.000000,4.000000,4.000000,4.000000,66.666664,,,,,,,,,,,,,,,,,,,,,,,,,,,,
1703153209.349697,1703153209.350479,59.000000,0.000000,4279.871582,4238.717773,4297.436035,4281.025879,4216.922852,4203.205078,4330.769043,4208.846191,4203.974121,4195.128418,4580.128418,4493.846191,4406.025879,4495.256348,0.000000,4.000000,89.000000,,,,0.000000,4.000000,4.000000,4.000000,4.000000,4.000000,4.000000,0.000000,4.000000,4.000000,4.000000,4.000000,4.000000,4.000000,4.000000,66.666664,,,,,,,,,,,,,,,,,,,,,,,,,,,,
1703153209.357505,1703153209.358187,60.000000,0.000000,4270.897461,4246.538574,4301.153809,4287.692383,4217.307617,4215.128418,4328.461426,4205.641113,4205.769043,4185.769043,4577.051270,4488.974121,4397.436035,4488.717773,0.000000,4.000000,89.000000,,,,0.000000,4.000000,4.000000,4.000000,4.000000,4.000000,4.000000,0.000000,4.000000,4.000000,4.000000,4.000000,4.000000,4.000000,4.000000,66.666664,,,,,,,,,,,,,,,,,15.000000,0.000000,0.639207,0.407288,-0.543762,0.360352,0.986449,0.122574,0.076670,-16.454840,-30.607544,64.788620
1703153209.365313,1703153209.365995,61.000000,0.000000,4282.948730,4248.077148,4301.025879,4285.512695,4226.922852,4216.794922,4327.307617,4204.487305,4213.461426,4190.128418,4578.846191,4493.333496,4398.205078,4497.307617,0.000000,4.000000,89.000000,,,,0.000000,4.000000,4.000000,4.000000,4.000000,4.000000,4.000000,0.000000,4.000000,4.000000,4.000000,4.000000,4.000000,4.000000,4.000000,66.666664,,,,,,,,,,,,,,,,,,,,,,,,,,,,
1703153209.373121,1703153209.373703,62.000000,0.000000,4294.487305,4244.743652,4301.922852,4281.153809,4230.000000,4203.974121,4326.922852,4201.922852,4207.820313,4193.717773,4577.948730,4495.512695,4402.948730,4494.871582,0.000000,4.000000,89.000000,,,,0.000000,4.000000,4.000000,4.000000,4.000000,4.000000,4.000000,0.000000,4.000000,4.000000,4.000000,4.000000,4.000000,4.000000,4.000000,66.666664,,,,,,,,,,,,,,,,,,,,,,,,,,,,
1703153209.380929,1703153209.381611,63.000000,0.000000,4292.692383,4240.000000,4298.974121,4281.410156,4216.282227,4201.282227,4326.666504,4198.205078,4199.615234,4184.615234,4572.563965,4489.615234,4397.820313,4489.102539,0.000000,4.000000,89.000000,,,,0.000000,4.000000,4.000000,4.000000,4.000000,4.000000,4.000000,0.000000,4.000000,4.000000,4.000000,4.000000,4.000000,4.000000,4.000000,66.666664,,,,,,,,,,,,,,,,,,,,,,,,,,,,
1703153209.388737,1703153209.389420,64.000000,0.000000,4290.128418,4238.205078,4294.102539,4277.692383,4210.897461,4204.487305,4329.615234,4199.102539,4199.871582,4183.205078,4575.641113,4488.974121,4394.871582,4492.307617,5277.000000,4.000000,89.000000,,,,0.000000,4.000000,4.000000,4.000000,4.000000,4.000000,4.000000,0.000000,4.000000,4.000000,4.000000,4.000000,4.000000,4.000000,4.000000,66.666664,,,,,,,,,,,,,,,,,16.000000,0.000000,0.639233,0.407654,-0.543579,0.360168,0.972775,0.123062,0.077646,-16.142691,-30.580122,64.859756
1703153209.396545,1703153209.397228,65.000000,0.000000,4287.820313,4246.282227,4292.179688,4276.794922,4219.615234,4202.307617,4329.743652,4199.230957,4198.717773,4187.948730,4581.153809,4490.384766,4402.820313,4496.153809,5604.000000,4.000000,89.000000,,,,0.000000,4.000000,4.000000,4.000000,4.000000,4.000000,4.000000,0.000000,4.000000,4.000000,4.000000,4.000000,4.000000,4.000000,4.000000,66.666664,,,,,,,,,,,,,,,,,,,,,,,,,,,,
1703153209.404353,1703153209.404936,66.000000,0.000000,4287.307617,4250.256348,4293.589844,4281.153809,4218.589844,4201.025879,4326.410156,4199.743652,4198.717773,4185.769043,4582.307617,4493.974121,4408.717773,4500.256348,5420.000000,4.000000,89.000000,,,,0.000000,4.000000,4.000000,4.000000,4.000000,4.000000,4.000000,0.000000,4.000000,4.000000,4.000000,4.000000,4.000000,4.000000,4.000000,66.666664,,,,,,,,,,,,,,,,,,,,,,,,,,,,
1703153209.412161,1703153209.412844,67.000000,0.000000,4297.436035,4247.307617,4301.538574,4283.846191,4212.692383,4204.743652,4327.563965,4203.205078,4205.641113,4188.589844,4586.666504,4504.230957,4409.615234,4508.717773,5415.000000,4.000000,89.000000,,,,0.000000,4.000000,4.000000,4.000000,4.000000,4.000000,4.000000,0.000000,4.000000,4.000000,4.000000,4.000000,4.000000,4.000000,4.000000,66.666664,,,,,,,,,,,,,,,,,,,,,,,,,,,,
1703153209.419969,1703153209.420652,68.000000,0.000000,4298.974121,4245.897461,4303.077148,4283.205078,4215.641113,4205.000000,4328.205078,4205.256348,4207.948730,4198.846191,4589.358887,4502.692383,4412.948730,4511.666504,5232.000000,4.000000,89.000000,,,,0.000000,4.000000,4.000000,4.000000,4.000000,4.000000,4.000000,0.000000,4.000000,4.000000,4.000000,4.000000,4.000000,4.000000,4.000000,66.666664,,,,,,,,,,,,,,,,,17.000000,0.000000,0.639380,0.407776,-0.543396,0.360046,0.985960,0.119644,0.068368,-16.028421,-30.472111,64.890450
1703153209.427777,1703153209.428560,69.000000,0.000000,4280.512695,4239.230957,4293.974121,4278.846191,4215.512695,4199.358887,4327.692383,4199.230957,4201.410156,4197.436035,4581.282227,4491.538574,4407.051270,4494.487305,5265.000000,4.000000,89.000000,,,,0.000000,4.000000,4.000000,4.000000,4.000000,4.000000,4.000000,0.000000,4.000000,4.000000,4.000000,4.000000,4.000000,4.000000,4.000000,66.666664,,,,,,,,,,,,,,,,,,,,,,,,,,,,
1703153209.435585,1703153209.436368,70.000000,0.000000,4270.769043,4232.563965,4293.717773,4278.077148,4210.769043,4199.358887,4328.205078,4189.358887,4197.051270,4185.384766,4569.358887,4487.307617,4391.666504,4481.922852,0.000000,4.000000,89.000000,,,,0.000000,4.000000,4.000000,4.000000,4.000000,4.000000,4.000000,0.000000,4.000000,4.000000,4.000000,4.000000,4.000000,4.000000,4.000000,66.666664,,,,,,,,,,,,,,,,,,,,,,,,,,,,
1703153209.443393,1703153209.444275,71.000000,0.000000,4266.922852,4235.256348,4297.179688,4279.230957,4211.666504,4202.179688,4327.820313,4191.794922,4197.436035,4182.179688,4565.512695,4483.333496,4387.563965,4490.256348,5090.000000,4.000000,89.000000,,,,0.000000,4.000000,4.000000,4.000000,4.000000,4.000000,4.000000,0.000000,4.000000,4.000000,4.000000,4.000000,4.000000,4.000000,4.000000,66.666664,,,,,,,,,,,,,,,,,,,,,,,,,,,,
1703153209.451201,1703153209.452083,72.000000,0.000000,4252.692383,4236.538574,4290.512695,4276.794922,4215.256348,4200.769043,4330.256348,4201.794922,4195.512695,4187.179688,4566.153809,4474.102539,4392.179688,4494.743652,5387.000000,4.000000,89.000000,,,,0.000000,4.000000,4.000000,4.000000,4.000000,4.000000,4.000000,0.000000,4.000000,4.000000,4.000000,4.000000,4.000000,4.000000,4.000000,66.666664,,,,,,,,,,,,,,,,,18.000000,0.000000,0.639552,0.407532,-0.543457,0.359924,0.994262,0.119155,0.072274,-16.325579,-30.458233,64.834740
1703153209.459009,1703153209.459991,73.000000,0.000000,4245.384766,4230.897461,4284.615234,4275.256348,4210.641113,4201.153809,4331.025879,4202.563965,4196.282227,4188.717773,4566.410156,4472.948730,4394.230957,4493.846191,5302.000000,4.000000,89.000000,,,,0.000000,4.000000,4.000000,4.000000,4.000000,4.000000,4.000000,0.000000,4.000000,4.000000,4.000000,4.000000,4.000000,4.000000,4.000000,66.666664,,,,,,,,,,,,,,,,,,,,,,,,,,,,
1703153209.466817,1703153209.467799,74.000000,0.000000,4245.256348,4233.077148,4291.153809,4275.897461,4207.179688,4202.179688,4328.589844,4197.307617,4196.922852,4186.794922,4565.256348,4473.205078,4392.820313,4500.641113,5961.000000,4.000000,89.000000,,,,0.000000,4.000000,4.000000,4.000000,4.000000,4.000000,4.000000,0.000000,4.000000,4.000000,4.000000,4.000000,4.000000,4.000000,4.000000,66.666664,,,,,,,,,,,,,,,,,,,,,,,,,,,,
1703153209.474625,1703153209.475507,75.000000,0.000000,4245.897461,4242.948730,4291.538574,4276.025879,4213.461426,4202.179688,4327.692383,4196.666504,4194.615234,4183.589844,4558.589844,4464.358887,4387.179688,4497.307617,6359.000000,4.000000,89.000000,,,,0.000000,4.000000,4.000000,4.000000,4.000000,4.000000,4.000000,0.000000,4.000000,4.000000,4.000000,4.000000,4.000000,4.000000,4.000000,66.666664,,,,,,,,,,,,,,,,,,,,,,,,,,,,
1703153209.482433,1703153209.483315,76.000000,0.000000,4249.230957,4241.410156,4282.692383,4276.025879,4218.461426,4205.897461,4329.102539,4198.974121,4200.897461,4188.589844,4561.025879,4466.282227,4388.846191,4491.282227,6765.000000,4.000000,89.000000,,,,0.000000,4.000000,4.000000,4.000000,4.000000,4.000000,4.000000,0.000000,4.000000,4.000000,4.000000,4.000000,4.000000,4.000000,4.000000,66.666664,,,,,,,,,,,,,,,,,19.000000,0.000000,0.639461,0.407349,-0.543701,0.359924,0.984495,0.122574,0.081065,-16.443022,-30.545742,64.801262
1703153209.490241,1703153209.491023,77.000000,0.000000,4240.384766,4239.102539,4283.589844,4276.410156,4214.615234,4209.358887,4330.384766,4200.256348,4208.589844,4194.871582,4568.846191,4472.307617,4394.615234,4493.205078,7159.000000,4.000000,89.000000,,,,0.000000,4.000000,4.000000,4.000000,4.000000,4.000000,4.000000,0.000000,4.000000,4.000000,4.000000,4.000000,4.000000,4.000000,4.000000,66.666664,,,,,,,,,,,,,,,,,,,,,,,,,,,,
1703153209.498049,1703153209.498831,78.000000,0.000000,4228.205078,4245.897461,4287.692383,4276.282227,4212.692383,4210.512695,4327.948730,4202.692383,4205.897461,4191.410156,4566.666504,4464.743652,4390.769043,4486.410156,5961.000000,4.000000,89.000000,,,,0.000000,4.000000,4.000000,4.000000,4.000000,4.000000,4.000000,0.000000,4.000000,4.000000,4.000000,4.000000,4.000000,4.000000,4.000000,66.666664,,,,,,,,,,,,,,,,,,,,,,,,,,,,
1703153209.505857,1703153209.506539,79.000000,0.000000,4238.846191,4242.948730,4285.256348,4273.461426,4216.538574,4209.743652,4328.589844,4198.205078,4198.846191,4190.641113,4562.563965,4461.153809,4383.974121,4485.384766,6359.000000,4.000000,89.000000,,,,0.000000,4.000000,4.000000,4.000000,4.000000,4.000000,4.000000,0.000000,4.000000,4.000000,4.000000,4.000000,4.000000,4.000000,4.000000,66.666664,,,,,,,,,,,,,,,,,,,,,,,,,,,,
1703153209.513666,1703153209.514347,80.000000,0.000000,4248.974121,4232.563965,4287.179688,4268.846191,4217.307617,4206.153809,4330.384766,4190.000000,4191.282227,4189.871582,4558.589844,4465.384766,4380.897461,4492.307617,6765.000000,4.000000,89.000000,,,,0.000000,4.000000,4.000000,4.000000,4.000000,4.000000,4.000000,0.000000,4.000000,4.000000,4.000000,4.000000,4.000000,4.000000,4.000000,66.666664,,,,,,,,,,,,,,,,,20.000000,0.000000,0.639509,0.407166,-0.543701,0.360046,0.978147,0.122574,0.074716,-16.098719,-30.457834,64.904472
1703153209.521474,1703153209.522055,81.000000,0.000000,4236.025879,4232.563965,4286.922852,4265.641113,4212.179688,4205.128418,4324.358887,4192.051270,4188.974121,4189.487305,4553.846191,4460.769043,4381.538574,4485.641113,7159.000000,4.000000,89.000000,,,,0.000000,4.000000,4.000000,4.000000,4.000000,4.000000,4.000000,0.000000,4.000000,4.000000,4.000000,4.000000,4.000000,4.000000,4.000000,66.666664,,,,,,,,,,,,,,,,,,,,,,,,,,,,
1703153209.529282,1703153209.529863,82.000000,0.000000,4228.846191,4237.436035,4279.487305,4263.846191,4210.128418,4205.128418,4325.000000,4198.717773,4199.358887,4190.641113,4555.128418,4455.897461,4386.538574,4469.743652,5961.000000,4.000000,89.000000,,,,0.000000,4.000000,4.000000,4.000000,4.000000,4.000000,4.000000,0.000000,4.000000,4.000000,4.000000,4.000000,4.000000,4.000000,4.000000,66.666664,,,,,,,,,,,,,,,,,,,,,,,,,,,,
1703153209.537090,1703153209.537571,83.000000,0.000000,4231.666504,4244.230957,4279.487305,4266.538574,4216.282227,4202.436035,4330.384766,4196.922852,4203.974121,4189.743652,4560.641113,4460.000000,4391.666504,4455.000000,6359.000000,4.000000,89.000000,,,,0.000000,4.000000,4.000000,4.000000,4.000000,4.000000,4.000000,0.000000,4.000000,4.000000,4.000000,4.000000,4.000000,4.000000,4.000000,66.666664,,,,,,,,,,,,,,,,,,,,,,,,,,,,
1703153209.544898,1703153209.545379,84.000000,0.000000,4232.179688,4249.743652,4285.128418,4274.102539,4219.358887,4206.794922,4325.897461,4195.256348,4200.769043,4194.743652,4568.461426,4468.205078,4395.512695,4453.974121,6765.000000,4.000000,89.000000,,,,0.000000,4.000000,4.000000,4.000000,4.000000,4.000000,4.000000,0.000000,4.000000,4.000000,4.000000,4.000000,4.000000,4.000000,4.000000,66.666664,,,,,,,,,,,,,,,,,21.000000,0.000000,0.639458,0.407166,-0.543640,0.360229,0.978147,0.125504,0.075204,-15.888847,-30.462051,65.114021
1703153209.552706,1703153209.553088,85.000000,0.000000,4241.666504,4250.641113,4290.769043,4279.487305,4220.512695,4215.384766,4322.436035,4199.615234,4201.282227,4200.128418,4568.974121,4472.948730,4397.307617,4458.974121,7159.000000,4.000000,89.000000,,,,0.000000,4.000000,4.000000,4.000000,4.000000,4.000000,4.000000,0.000000,4.000000,4.000000,4.000000,4.000000,4.000000,4.000000,4.000000,66.666664,,,,,,,,,,,,,,,,,,,,,,,,,,,,
1703153209.560514,1703153209.560895,86.000000,0.000000,4249.743652,4252.436035,4291.794922,4277.436035,4223.974121,4212.820313,4324.871582,4201.794922,4203.846191,4196.153809,4563.205078,4471.282227,4401.410156,4455.512695,5961.000000,4.000000,89.000000,,,,0.000000,4.000000,4.000000,4.000000,4.000000,4.000000,4.000000,0.000000,4.000000,4.000000,4.000000,4.000000,4.000000,4.000000,4.000000,66.666664,,,,,,,,,,,,,,,,,,,,,,,,,,,,
1703153209.568322,1703153209.568604,87.000000,0.000000,4245.897461,4255.128418,4292.692383,4274.743652,4222.179688,4209.615234,4327.436035,4200.897461,4209.102539,4197.563965,4571.666504,4475.128418,4410.000000,4455.384766,6359.000000,4.000000,89.000000,,,,0.000000,4.000000,4.000000,4.000000,4.000000,4.000000,4.000000,0.000000,4.000000,4.000000,4.000000,4.000000,4.000000,4.000000,4.000000,66.666664,,,,,,,,,,,,,,,,,,,,,,,,,,,,
1703153209.576130,1703153209.576512,88.000000,0.000000,4247.820313,4256.410156,4301.410156,4278.333496,4225.897461,4213.846191,4327.820313,4203.717773,4214.487305,4206.282227,4579.487305,4481.666504,4408.717773,4464.487305,6765.000000,4.000000,89.000000,,,,0.000000,4.000000,4.000000,4.000000,4.000000,4.000000,4.000000,0.000000,4.000000,4.000000,4.000000,4.000000,4.000000,4.000000,4.000000,66.666664,,,,,,,,,,,,,,,,,22.000000,0.000000,0.639540,0.407227,-0.543457,0.360291,0.982053,0.125015,0.079111,-15.949963,-30.599180,65.052620
1703153209.583938,1703153209.584320,89.000000,0.000000,4253.333496,4253.974121,4302.948730,4281.282227,4236.538574,4220.000000,4326.666504,4208.461426,4216.666504,4204.230957,4571.153809,4478.333496,4397.948730,4471.794922,7159.000000,4.000000,89.000000,,,,0.000000,4.000000,4.000000,4.000000,4.000000,4.000000,4.000000,0.000000,4.000000,4.000000,4.000000,4.000000,4.000000,4.000000,4.000000,66.666664,,,,,,,,,,,,,,,,,,,,,,,,,,,,
1703153209.591746,1703153209.592228,90.000000,0.000000,4249.871582,4249.871582,4299.102539,4278.846191,4231.282227,4220.769043,4327.563965,4207.436035,4213.333496,4199.358887,4567.051270,4473.974121,4396.666504,4469.487305,5961.000000,4.000000,89.000000,,,,0.000000,4.000000,4.000000,4.000000,4.000000,4.000000,4.000000,0.000000,4.000000,4.000000,4.000000,4.000000,4.000000,4.000000,4.000000,66.666664,,,,,,,,,,,,,,,,,,,,,,,,,,,,
1703153209.599554,1703153209.600036,91.000000,0.000000,4245.769043,4251.025879,4303.846191,4277.051270,4215.897461,4211.282227,4329.230957,4198.846191,4206.025879,4200.512695,4570.000000,4475.384766,4399.615234,4464.615234,6359.000000,4.000000,89.000000,,,,0.000000,4.000000,4.000000,4.000000,4.000000,4.000000,4.000000,0.000000,4.000000,4.000000,4.000000,4.000000,4.000000,4.000000,4.000000,66.666664,,,,,,,,,,,,,,,,,,,,,,,,,,,,
1703153209.607362,1703153209.607944,92.000000,0.000000,4248.717773,4253.717773,4310.000000,4277.948730,4215.128418,4203.589844,4328.974121,4196.666504,4203.461426,4199.871582,4570.256348,4478.717773,4400.000000,4470.256348,6765.000000,4.000000,89.000000,,,,0.000000,4.000000,4.000000,4.000000,4.000000,4.000000,4.000000,0.000000,4.000000,4.000000,4.000000,4.000000,4.000000,4.000000,4.000000,66.666664,,,,,,,,,,,,,,,,,23.000000,0.000000,0.639708,0.407288,-0.543335,0.360107,0.980100,0.122085,0.076181,-15.988299,-30.605928,65.264023
1703153209.615170,1703153209.615752,93.000000,0.000000,4257.436035,4249.102539,4311.153809,4280.897461,4219.358887,4206.282227,4328.205078,4201.153809,4204.102539,4196.794922,4570.000000,4480.000000,4393.974121,4473.333496,7159.000000,4.000000,89.000000,,,,0.000000,4.000000,4.000000,4.000000,4.000000,4.000000,4.000000,0.000000,4.000000,4.000000,4.000000,4.000000,4.000000,4.000000,4.000000,66.666664,,,,,,,,,,,,,,,,,,,,,,,,,,,,
1703153209.622978,1703153209.623660,94.000000,0.000000,4263.333496,4248.077148,4308.333496,4283.077148,4218.077148,4211.282227,4327.307617,4202.563965,4205.384766,4197.307617,4570.256348,4478.846191,4390.256348,4470.897461,5961.000000,4.000000,89.000000,,,,0.000000,4.000000,4.000000,4.000000,4.000000,4.000000,4.000000,0.000000,4.000000,4.000000,4.000000,4.000000,4.000000,4.000000,4.000000,66.666664,,,,,,,,,,,,,,,,,,,,,,,,,,,,
1703153209.630786,1703153209.631468,95.000000,0.000000,4263.333496,4257.179688,4305.512695,4281.410156,4218.205078,4213.333496,4329.358887,4199.615234,4200.384766,4195.128418,4568.589844,4476.922852,4398.077148,4481.153809,6359.000000,4.000000,89.000000,,,,0.000000,4.000000,4.000000,4.000000,4.000000,4.000000,4.000000,0.000000,4.000000,4.000000,4.000000,4.000000,4.000000,4.000000,4.000000,66.666664,,,,,,,,,,,,,,,,,,,,,,,,,,,,
1703153209.638594,1703153209.639376,96.000000,0.000000,4265.384766,4261.282227,4308.205078,4282.436035,4219.358887,4215.128418,4329.743652,4197.179688,4192.563965,4187.563965,4568.589844,4479.358887,4401.153809,4491.410156,6765.000000,4.000000,89.000000,,,,0.000000,4.000000,4.000000,4.000000,4.000000,4.000000,4.000000,0.000000,4.000000,4.000000,4.000000,4.000000,4.000000,4.000000,4.000000,66.666664,,,,,,,,,,,,,,,,,24.000000,0.000000,0.639695,0.407471,-0.543335,0.359924,0.984984,0.126969,0.072274,-16.039469,-30.678669,65.320953
1703153209.646402,1703153209.647184,97.000000,0.000000,4270.000000,4261.153809,4314.102539,4289.615234,4224.102539,4215.000000,4326.025879,4198.461426,4193.589844,4191.025879,4573.974121,4488.589844,4400.897461,4495.128418,7159.000000,4.000000,89.000000,,,,0.000000,4.000000,4.000000,4.000000,4.000000,4.000000,4.000000,0.000000,4.000000,4.000000,4.000000,4.000000,4.000000,4.000000,4.000000,66.666664,,,,,,,,,,,,,,,,,,,,,,,,,,,,
1703153209.654210,1703153209.654892,98.000000,0.000000,4276.153809,4262.563965,4313.974121,4294.358887,4233.333496,4214.487305,4329.102539,4196.025879,4200.512695,4199.871582,4575.641113,4489.487305,4403.717773,4501.922852,5961.000000,4.000000,89.000000,,,,0.000000,4.000000,4.000000,4.000000,4.000000,4.000000,4.000000,0.000000,4.000000,4.000000,4.000000,4.000000,4.000000,4.000000,4.000000,66.666664,,,,,,,,,,,,,,,,,,,,,,,,,,,,
1703153209.662018,1703153209.662700,99.000000,0.000000,4280.641113,4266.282227,4308.846191,4293.461426,4233.717773,4212.948730,4329.358887,4193.461426,4210.000000,4199.871582,4576.538574,4485.000000,4404.230957,4506.282227,6359.000000,4.000000,89.000000,,,,0.000000,4.000000,4.000000,4.000000,4.000000,4.000000,4.000000,0.000000,4.000000,4.000000,4.000000,4.000000,4.000000,4.000000,4.000000,66.666664,,,,,,,,,,,,,,,,,,,,,,,,,,,,
1703153209.669826,1703153209.670408,100.000000,0.000000,4283.205078,4265.128418,4308.077148,4287.051270,4224.615234,4207.948730,4323.461426,4199.615234,4215.256348,4200.512695,4578.974121,4487.692383,4406.922852,4503.461426,6765.000000,4.000000,89.000000,,,,0.000000,4.000000,4.000000,4.000000,4.000000,4.000000,4.000000,0.000000,4.000000,4.000000,4.000000,4.000000,4.000000,4.000000,4.000000,66.666664,,,,,,,,,,,,,,,,,25.000000,0.000000,0.639721,0.407593,-0.543213,0.359924,0.993774,0.120620,0.082041,-16.002190,-30.827469,65.238861
1703153209.677634,1703153209.678216,101.000000,0.000000,4282.179688,4261.666504,4307.436035,4279.743652,4217.692383,4203.717773,4322.948730,4201.538574,4208.205078,4202.820313,4576.410156,4484.358887,4411.794922,4497.820313,7159.000000,4.000000,89.000000,,,,0.000000,4.000000,4.000000,4.000000,4.000000,4.000000,4.000000,0.000000,4.000000,4.000000,4.000000,4.000000,4.000000,4.000000,4.000000,66.666664,,,,,,,,,,,,,,,,,,,,,,,,,,,,
1703153209.685443,1703153209.685924,102.000000,0.000000,4271.538574,4264.871582,4302.051270,4283.846191,4217.307617,4201.410156,4325.897461,4199.102539,4207.051270,4201.666504,4578.077148,4478.077148,4412.051270,4497.692383,5961.000000,4.000000,89.000000,,,,0.000000,4.000000,4.000000,4.000000,4.000000,4.000000,4.000000,0.000000,4.000000,4.000000,4.000000,4.000000,4.000000,4.000000,4.000000,66.666664,1.000000,58.333332,4.000000,4.000000,4.000000,4.000000,4.000000,4.000000,0.000000,4.000000,3.000000,4.000000,4.000000,4.000000,4.000000,4.000000,,,,,,,,,,,,
1703153209.693251,1703153209.693732,103.000000,0.000000,4266.922852,4266.922852,4305.512695,4292.692383,4226.153809,4206.666504,4328.846191,4202.179688,4217.307617,4202.051270,4581.794922,4482.051270,4408.333496,4499.615234,6359.000000,4.000000,89.000000,,,,0.000000,4.000000,4.000000,4.000000,4.000000,4.000000,4.000000,0.000000,4.000000,4.000000,4.000000,4.000000,4.000000,4.000000,4.000000,66.666664,,,,,,,,,,,,,,,,,,,,,,,,,,,,
1703153209.701059,1703153209.701440,104.000000,0.000000,4276.666504,4263.077148,4313.461426,4286.922852,4229.615234,4216.025879,4328.461426,4203.846191,4219.230957,4203.333496,4575.512695,4481.666504,4409.358887,4501.153809,6765.000000,4.000000,89.000000,,,,0.000000,4.000000,4.000000,4.000000,4.000000,4.000000,4.000000,0.000000,4.000000,4.000000,4.000000,4.000000,4.000000,4.000000,4.000000,66.666664,,,,,,,,,,,,,,,,,26.000000,0.000000,0.639798,0.407471,-0.543213,0.359924,0.989867,0.122085,0.085948,-16.018637,-30.794722,65.414978
1703153209.708867,1703153209.709348,105.000000,0.000000,4280.256348,4261.922852,4308.846191,4281.922852,4220.897461,4219.487305,4327.692383,4198.461426,4213.077148,4202.051270,4570.897461,4476.794922,4412.820313,4506.282227,7159.000000,4.000000,89.000000,,,,0.000000,4.000000,4.000000,4.000000,4.000000,4.000000,4.000000,0.000000,4.000000,4.000000,4.000000,4.000000,4.000000,4.000000,4.000000,66.666664,,,,,,,,,,,,,,,,,,,,,,,,,,,,
1703153209.716675,1703153209.717156,106.000000,0.000000,4274.230957,4265.384766,4305.256348,4289.230957,4222.051270,4223.077148,4329.743652,4191.025879,4204.871582,4198.717773,4571.025879,4475.000000,4407.948730,4504.743652,5961.000000,4.000000,89.000000,,,,0.000000,4.000000,4.000000,4.000000,4.000000,4.000000,4.000000,0.000000,4.000000,4.000000,4.000000,4.000000,4.000000,4.000000,4.000000,66.666664,,,,,,,,,,,,,,,,,,,,,,,,,,,,
1703153209.724483,1703153209.725064,107.000000,0.000000,4275.000000,4262.820313,4312.179688,4291.153809,4232.307617,4231.538574,4330.512695,4187.307617,4203.461426,4197.051270,4571.410156,4475.512695,4403.846191,4497.051270,6359.000000,4.000000,89.000000,,,,0.000000,4.000000,4.000000,4.000000,4.000000,4.000000,4.000000,0.000000,4.000000,4.000000,4.000000,4.000000,4.000000,4.000000,4.000000,66.666664,,,,,,,,,,,,,,,,,,,,,,,,,,,,
1703153209.732291,1703153209.732873,108.000000,0.000000,4286.153809,4265.384766,4319.358887,4291.794922,4233.205078,4237.179688,4329.102539,4192.179688,4213.461426,4200.641113,4576.025879,4483.974121,4406.794922,4503.205078,6765.000000,4.000000,89.000000,,,,0.000000,4.000000,4.000000,4.000000,4.000000,4.000000,4.000000,0.000000,4.000000,4.000000,4.000000,4.000000,4.000000,4.000000,4.000000,66.666664,,,,,,,,,,,,,,,,,27.000000,0.000000,0.639712,0.407471,-0.543274,0.359985,0.992797,0.122574,0.086925,-15.983439,-30.848583,65.406815
1703153209.740099,1703153209.740781,109.000000,0.000000,4293.205078,4271.666504,4318.846191,4294.102539,4231.922852,4237.436035,4325.769043,4197.692383,4212.820313,4199.871582,4576.794922,4483.846191,4406.153809,4522.307617,7159.000000,4.000000,89.000000,,,,0.000000,4.000000,4.000000,4.000000,4.000000,4.000000,4.000000,0.000000,4.000000,4.000000,4.000000,4.000000,4.000000,4.000000,4.000000,66.666664,,,,,,,,,,,,,,,,,,,,,,,,,,,,
1703153209.747907,1703153209.748589,110.000000,0.000000,4286.794922,4266.153809,4313.205078,4286.153809,4232.948730,4236.794922,4325.641113,4199.487305,4205.000000,4197.820313,4574.358887,4477.307617,4405.384766,4524.743652,5961.000000,4.000000,89.000000,,,,0.000000,4.000000,4.000000,4.000000,4.000000,4.000000,4.000000,0.000000,4.000000,4.000000,4.000000,4.000000,4.000000,4.000000,4.000000,66.666664,,,,,,,,,,,,,,,,,,,,,,,,,,,,
1703153209.755715,1703153209.756497,111.000000,0.000000,4282.563965,4265.897461,4314.743652,4284.743652,4229.615234,4233.333496,4328.205078,4203.717773,4211.922852,4201.153809,4576.922852,4488.846191,4409.743652,4510.512695,6359.000000,4.000000,89.000000,,,,0.000000,4.000000,4.000000,4.000000,4.000000,4.000000,4.000000,0.000000,4.000000,4.000000,4.000000,4.000000,4.000000,4.000000,4.000000,66.666664,,,,,,,,,,,,,,,,,,,,,,,,,,,,
1703153209.763523,1703153209.764305,112.000000,0.000000,4285.512695,4271.410156,4318.333496,4292.692383,4229.230957,4230.512695,4323.846191,4206.794922,4221.666504,4202.820313,4582.692383,4493.717773,4416.153809,4512.692383,6765.000000,4.000000,89.000000,,,,0.000000,4.000000,4.000000,4.000000,4.000000,4.000000,4.000000,0.000000,4.000000,4.000000,4.000000,4.000000,4.000000,4.000000,4.000000,66.666664,,,,,,,,,,,,,,,,,28.000000,0.000000,0.639587,0.407288,-0.543518,0.360046,0.989867,0.129899,0.063973,-16.168428,-30.697058,65.516129
1703153209.771331,1703153209.772213,113.000000,0.000000,4276.025879,4265.256348,4309.871582,4287.436035,4226.794922,4229.871582,4321.794922,4204.743652,4216.153809,4202.051270,4584.743652,4477.692383,4420.769043,4527.563965,7159.000000,4.000000,89.000000,,,,0.000000,4.000000,4.000000,4.000000,4.000000,4.000000,4.000000,0.000000,4.000000,4.000000,4.000000,4.000000,4.000000,4.000000,4.000000,66.666664,,,,,,,,,,,,,,,,,,,,,,,,,,,,
1703153209.779139,1703153209.780021,114.000000,0.000000,4260.641113,4259.487305,4297.948730,4277.820313,4222.436035,4229.871582,4328.205078,4201.922852,4206.922852,4201.410156,4577.436035,4470.769043,4417.820313,4522.948730,5961.000000,4.000000,89.000000,,,,0.000000,4.000000,4.000000,4.000000,4.000000,4.000000,4.000000,0.000000,4.000000,4.000000,4.000000,4.000000,4.000000,4.000000,4.000000,66.666664,,,,,,,,,,,,,,,,,,,,,,,,,,,,
1703153209.786947,1703153209.787929,115.000000,0.000000,4258.846191,4262.179688,4295.384766,4280.641113,4223.589844,4232.692383,4329.615234,4200.769043,4209.487305,4201.538574,4578.589844,4477.436035,4413.077148,4514.230957,6359.000000,4.000000,89.000000,,,,0.000000,4.000000,4.000000,4.000000,4.000000,4.000000,4.000000,0.000000,4.000000,4.000000,4.000000,4.000000,4.000000,4.000000,4.000000,66.666664,,,,,,,,,,,,,,,,,,,,,,,,,,,,
1703153209.794755,1703153209.795737,116.000000,0.000000,4261.538574,4266.538574,4303.717773,4287.563965,4226.153809,4234.615234,4328.589844,4195.641113,4208.846191,4201.153809,4583.461426,4476.025879,4413.589844,4519.871582,6765.000000,4.000000,89.000000,,,,0.000000,4.000000,4.000000,4.000000,4.000000,4.000000,4.000000,0.000000,4.000000,4.000000,4.000000,4.000000,4.000000,4.000000,4.000000,66.666664,,,,,,,,,,,,,,,,,29.000000,0.000000,0.639436,0.407227,-0.543701,0.360107,0.977658,0.125504,0.059089,-16.168253,-30.927353,65.547852
1703153209.802563,1703153209.803645,117.000000,0.000000,4262.307617,4270.897461,4308.205078,4290.897461,4229.230957,4231.282227,4329.487305,4190.512695,4201.025879,4199.358887,4574.615234,4470.641113,4414.230957,4520.897461,7159.000000,4.000000,89.000000,,,,0.000000,4.000000,4.000000,4.000000,4.000000,4.000000,4.000000,0.000000,4.000000,4.000000,4.000000,4.000000,4.000000,4.000000,4.000000,66.666664,,,,,,,,,,,,,,,,,,,,,,,,,,,,
1703153209.810371,1703153209.811453,118.000000,0.000000,4271.153809,4270.384766,4305.897461,4291.922852,4228.077148,4229.358887,4329.487305,4196.794922,4210.000000,4203.717773,4573.974121,4478.974121,4417.051270,4516.922852,5961.000000,4.000000,89.000000,,,,0.000000,4.000000,4.000000,4.000000,4.000000,4.000000,4.000000,0.000000,4.000000,4.000000,4.000000,4.000000,4.000000,4.000000,4.000000,66.666664,,,,,,,,,,,,,,,,,,,,,,,,,,,,
1703153209.818179,1703153209.819361,119.000000,0.000000,4278.589844,4263.974121,4306.538574,4289.871582,4225.641113,4233.846191,4329.615234,4203.846191,4221.922852,4207.436035,4585.256348,4488.077148,4419.487305,4514.871582,6359.000000,4.000000,89.000000,,,,0.000000,4.000000,4.000000,4.000000,4.000000,4.000000,4.000000,0.000000,4.000000,4.000000,4.000000,4.000000,4.000000,4.000000,4.000000,66.666664,,,,,,,,,,,,,,,,,,,,,,,,,,,,
1703153209.825987,1703153209.827169,120.000000,0.000000,4271.153809,4261.794922,4301.410156,4285.128418,4228.333496,4235.128418,4328.846191,4202.051270,4209.743652,4202.436035,4576.922852,4477.948730,4411.153809,4511.794922,6765.000000,4.000000,89.000000,,,,0.000000,4.000000,4.000000,4.000000,4.000000,4.000000,4.000000,0.000000,4.000000,4.000000,4.000000,4.000000,4.000000,4.000000,4.000000,66.666664,,,,,,,,,,,,,,,,,30.000000,0.000000,0.639211,0.407227,-0.543884,0.360229,0.987914,0.126480,0.075693,-16.334761,-30.934616,65.493065
1703153209.833795,1703153209.834877,121.000000,0.000000,4261.922852,4261.282227,4299.230957,4286.025879,4226.410156,4226.922852,4330.128418,4200.641113,4200.512695,4196.025879,4565.000000,4469.487305,4402.563965,4521.025879,7159.000000,4.000000,89.000000,,,,0.000000,4.000000,4.000000,4.000000,4.000000,4.000000,4.000000,0.000000,4.000000,4.000000,4.000000,4.000000,4.000000,4.000000,4.000000,66.666664,,,,,,,,,,,,,,,,,,,,,,,,,,,,
