title:ليال اختر, start timestamp:1703407768.369099, stop timestamp:1703407779.144210, headset type:EPOCX, headset serial:E50206EF, headset firmware:720, channels:67, sampling rate:eeg_128;mot_32, samples:1381      , version:2.2, 
Timestamp,OriginalTimestamp,EEG.Counter,EEG.Interpolated,EEG.AF3,EEG.F7,EEG.F3,EEG.FC5,EEG.T7,EEG.P7,EEG.O1,EEG.O2,EEG.P8,EEG.T8,EEG.FC6,EEG.F4,EEG.F8,EEG.AF4,EEG.RawCq,EEG.Battery,EEG.BatteryPercent,MarkerIndex,MarkerType,MarkerValueInt,EEG.MarkerHardware,CQ.AF3,CQ.F7,CQ.F3,CQ.FC5,CQ.T7,CQ.P7,CQ.O1,CQ.O2,CQ.P8,CQ.T8,CQ.FC6,CQ.F4,CQ.F8,CQ.AF4,CQ.Overall,EQ.SampleRateQuality,EQ.OVERALL,EQ.AF3,EQ.F7,EQ.F3,EQ.FC5,EQ.T7,EQ.P7,EQ.O1,EQ.O2,EQ.P8,EQ.T8,EQ.FC6,EQ.F4,EQ.F8,EQ.AF4,MOT.CounterMems,MOT.InterpolatedMems,MOT.Q0,MOT.Q1,MOT.Q2,MOT.Q3,MOT.AccX,MOT.AccY,MOT.AccZ,MOT.MagX,MOT.MagY,MOT.MagZ
1703407768.369099,1703407768.369485,71.000000,0.000000,4166.025879,4149.743652,4251.410156,4220.000000,4140.384766,4138.077148,4122.179688,4140.769043,4141.794922,4146.538574,4567.179688,4427.051270,4357.307617,4472.436035,5048.000000,4.000000,75.000000,,,,0.000000,4.000000,4.000000,4.000000,4.000000,4.000000,4.000000,4.000000,4.000000,4.000000,4.000000,4.000000,4.000000,4.000000,4.000000,100.000000,,,,,,,,,,,,,,,,,,,,,,,,,,,,
1703407768.376907,1703407768.377393,72.000000,0.000000,4159.743652,4146.538574,4252.179688,4216.025879,4142.307617,4133.717773,4116.794922,4137.563965,4139.871582,4138.333496,4564.615234,4428.077148,4353.846191,4467.820313,4829.000000,4.000000,75.000000,,,,0.000000,4.000000,4.000000,4.000000,4.000000,4.000000,4.000000,4.000000,4.000000,4.000000,4.000000,4.000000,4.000000,4.000000,4.000000,100.000000,,,,,,,,,,,,,,,,,18.000000,0.000000,0.725915,-0.155090,-0.663086,-0.096497,0.986449,-0.093273,0.076670,-14.815784,-41.661533,65.463219
1703407768.384715,1703407768.385201,73.000000,0.000000,4155.897461,4148.974121,4251.282227,4220.769043,4155.897461,4134.615234,4117.948730,4132.436035,4137.692383,4136.538574,4563.333496,4426.410156,4352.692383,4462.563965,5100.000000,4.000000,75.000000,,,,0.000000,4.000000,4.000000,4.000000,4.000000,4.000000,4.000000,4.000000,4.000000,4.000000,4.000000,4.000000,4.000000,4.000000,4.000000,100.000000,,,,,,,,,,,,,,,,,,,,,,,,,,,,
1703407768.392523,1703407768.393109,74.000000,0.000000,4156.794922,4147.179688,4249.743652,4225.512695,4156.282227,4135.384766,4117.051270,4125.128418,4129.102539,4136.282227,4557.179688,4418.717773,4346.666504,4455.256348,5903.000000,4.000000,75.000000,,,,0.000000,4.000000,4.000000,4.000000,4.000000,4.000000,4.000000,4.000000,4.000000,4.000000,4.000000,4.000000,4.000000,4.000000,4.000000,100.000000,,,,,,,,,,,,,,,,,,,,,,,,,,,,
1703407768.400331,1703407768.400917,75.000000,0.000000,4157.179688,4144.487305,4250.769043,4217.307617,4150.897461,4136.538574,4115.769043,4122.307617,4126.025879,4139.743652,4556.153809,4420.769043,4342.948730,4456.282227,6095.000000,4.000000,75.000000,,,,0.000000,4.000000,4.000000,4.000000,4.000000,4.000000,4.000000,4.000000,4.000000,4.000000,4.000000,4.000000,4.000000,4.000000,4.000000,100.000000,,,,,,,,,,,,,,,,,,,,,,,,,,,,
1703407768.408139,1703407768.408824,76.000000,0.000000,4153.461426,4142.820313,4257.436035,4207.948730,4151.922852,4139.871582,4120.384766,4130.256348,4133.077148,4145.897461,4562.051270,4430.512695,4347.051270,4463.846191,6604.000000,4.000000,75.000000,,,,0.000000,4.000000,4.000000,4.000000,4.000000,4.000000,4.000000,4.000000,4.000000,4.000000,4.000000,4.000000,4.000000,4.000000,4.000000,100.000000,,,,,,,,,,,,,,,,,19.000000,0.000000,0.725872,-0.155029,-0.663147,-0.096497,0.986937,-0.089855,0.068856,-14.700873,-41.745380,65.383568
1703407768.415947,1703407768.416632,77.000000,0.000000,4159.615234,4141.538574,4262.692383,4211.922852,4148.846191,4139.615234,4119.487305,4134.615234,4135.128418,4145.641113,4564.615234,4429.230957,4354.230957,4477.307617,7182.000000,4.000000,75.000000,,,,0.000000,4.000000,4.000000,4.000000,4.000000,4.000000,4.000000,4.000000,4.000000,4.000000,4.000000,4.000000,4.000000,4.000000,4.000000,100.000000,,,,,,,,,,,,,,,,,,,,,,,,,,,,
1703407768.423755,1703407768.424341,78.000000,0.000000,4167.436035,4144.871582,4259.615234,4220.641113,4146.794922,4137.948730,4109.102539,4134.743652,4134.871582,4141.025879,4566.666504,4427.436035,4357.692383,4485.000000,5903.000000,4.000000,75.000000,,,,0.000000,4.000000,4.000000,4.000000,4.000000,4.000000,4.000000,4.000000,4.000000,4.000000,4.000000,4.000000,4.000000,4.000000,4.000000,100.000000,,,,,,,,,,,,,,,,,,,,,,,,,,,,
1703407768.431563,1703407768.432149,79.000000,0.000000,4163.077148,4147.948730,4254.871582,4220.256348,4153.589844,4139.358887,4105.128418,4137.051270,4139.102539,4139.102539,4569.487305,4431.153809,4355.256348,4477.179688,6095.000000,4.000000,75.000000,,,,0.000000,4.000000,4.000000,4.000000,4.000000,4.000000,4.000000,4.000000,4.000000,4.000000,4.000000,4.000000,4.000000,4.000000,4.000000,100.000000,,,,,,,,,,,,,,,,,,,,,,,,,,,,
1703407768.439371,1703407768.439857,80.000000,0.000000,4157.820313,4146.025879,4252.179688,4215.897461,4157.436035,4142.179688,4108.589844,4139.743652,4142.051270,4144.487305,4568.333496,4427.692383,4355.641113,4471.025879,6604.000000,4.000000,75.000000,,,,0.000000,4.000000,4.000000,4.000000,4.000000,4.000000,4.000000,4.000000,4.000000,4.000000,4.000000,4.000000,4.000000,4.000000,4.000000,100.000000,,,,,,,,,,,,,,,,,20.000000,0.000000,0.725833,-0.155212,-0.663147,-0.096497,0.992309,-0.104993,0.069344,-14.714119,-41.587509,65.295212
1703407768.447179,1703407768.447665,81.000000,0.000000,4152.692383,4145.384766,4248.333496,4217.820313,4153.461426,4140.384766,4106.282227,4139.487305,4141.282227,4152.179688,4569.487305,4426.410156,4361.282227,4467.179688,7182.000000,4.000000,75.000000,,,,0.000000,4.000000,4.000000,4.000000,4.000000,4.000000,4.000000,4.000000,4.000000,4.000000,4.000000,4.000000,4.000000,4.000000,4.000000,100.000000,,,,,,,,,,,,,,,,,,,,,,,,,,,,
1703407768.454987,1703407768.455373,82.000000,0.000000,4145.384766,4142.820313,4245.128418,4217.948730,4151.794922,4136.025879,4098.461426,4132.051270,4140.512695,4148.974121,4571.410156,4430.769043,4360.256348,4462.436035,5903.000000,4.000000,75.000000,,,,0.000000,4.000000,4.000000,4.000000,4.000000,4.000000,4.000000,4.000000,4.000000,4.000000,4.000000,4.000000,4.000000,4.000000,4.000000,100.000000,,,,,,,,,,,,,,,,,,,,,,,,,,,,
1703407768.462795,1703407768.463281,83.000000,0.000000,4142.563965,4136.666504,4245.769043,4213.077148,4150.128418,4135.000000,4097.051270,4125.897461,4138.077148,4140.769043,4568.846191,4424.358887,4356.282227,4458.333496,6095.000000,4.000000,75.000000,,,,0.000000,4.000000,4.000000,4.000000,4.000000,4.000000,4.000000,4.000000,4.000000,4.000000,4.000000,4.000000,4.000000,4.000000,4.000000,100.000000,,,,,,,,,,,,,,,,,,,,,,,,,,,,
1703407768.470604,1703407768.471089,84.000000,0.000000,4142.436035,4139.230957,4250.384766,4214.102539,4141.025879,4136.410156,4099.358887,4128.205078,4131.922852,4141.410156,4567.563965,4416.538574,4357.436035,4449.358887,6604.000000,4.000000,75.000000,,,,0.000000,4.000000,4.000000,4.000000,4.000000,4.000000,4.000000,4.000000,4.000000,4.000000,4.000000,4.000000,4.000000,4.000000,4.000000,100.000000,,,,,,,,,,,,,,,,,21.000000,0.000000,0.725738,-0.155396,-0.663208,-0.096497,0.982053,-0.091808,0.070809,-14.759374,-41.612091,65.349022
1703407768.478412,1703407768.478897,85.000000,0.000000,4145.769043,4141.794922,4253.077148,4219.230957,4140.897461,4136.922852,4095.128174,4127.436035,4127.179688,4140.769043,4568.846191,4416.922852,4354.615234,4447.948730,7182.000000,4.000000,75.000000,,,,0.000000,4.000000,4.000000,4.000000,4.000000,4.000000,4.000000,4.000000,4.000000,4.000000,4.000000,4.000000,4.000000,4.000000,4.000000,100.000000,,,,,,,,,,,,,,,,,,,,,,,,,,,,
1703407768.486220,1703407768.486605,86.000000,0.000000,4153.461426,4138.846191,4247.436035,4220.256348,4155.897461,4136.410156,4089.358887,4124.230957,4130.769043,4138.333496,4565.384766,4417.051270,4350.256348,4453.974121,5903.000000,4.000000,75.000000,,,,0.000000,4.000000,4.000000,4.000000,4.000000,4.000000,4.000000,4.000000,4.000000,4.000000,4.000000,4.000000,4.000000,4.000000,4.000000,100.000000,,,,,,,,,,,,,,,,,,,,,,,,,,,,
1703407768.494028,1703407768.494513,87.000000,0.000000,4150.128418,4139.358887,4244.358887,4215.641113,4160.000000,4136.025879,4090.897461,4133.461426,4138.461426,4143.717773,4562.051270,4417.307617,4352.948730,4447.563965,6095.000000,4.000000,75.000000,,,,0.000000,4.000000,4.000000,4.000000,4.000000,4.000000,4.000000,4.000000,4.000000,4.000000,4.000000,4.000000,4.000000,4.000000,4.000000,100.000000,1.000000,91.666664,4.000000,4.000000,4.000000,4.000000,4.000000,4.000000,4.000000,4.000000,4.000000,4.000000,4.000000,4.000000,4.000000,3.000000,,,,,,,,,,,,
1703407768.501836,1703407768.502322,88.000000,0.000000,4143.974121,4138.717773,4248.846191,4214.487305,4149.487305,4135.897461,4092.435791,4140.256348,4139.743652,4142.692383,4562.179688,4418.589844,4352.820313,4435.641113,6604.000000,4.000000,75.000000,,,,0.000000,4.000000,4.000000,4.000000,4.000000,4.000000,4.000000,4.000000,4.000000,4.000000,4.000000,4.000000,4.000000,4.000000,4.000000,100.000000,,,,,,,,,,,,,,,,,22.000000,0.000000,0.725751,-0.155334,-0.663208,-0.096497,0.979123,-0.091320,0.063973,-14.700103,-41.567551,65.497452
1703407768.509644,1703407768.510230,89.000000,0.000000,4149.743652,4137.307617,4249.102539,4213.974121,4148.461426,4138.205078,4091.666748,4131.922852,4135.256348,4136.794922,4559.871582,4417.051270,4345.769043,4444.871582,7182.000000,4.000000,75.000000,,,,0.000000,4.000000,4.000000,4.000000,4.000000,4.000000,4.000000,4.000000,4.000000,4.000000,4.000000,4.000000,4.000000,4.000000,4.000000,100.000000,,,,,,,,,,,,,,,,,,,,,,,,,,,,
1703407768.517452,1703407768.518038,90.000000,0.000000,4150.256348,4136.538574,4243.846191,4204.358887,4152.692383,4140.256348,4092.179443,4126.282227,4128.461426,4137.179688,4554.487305,4416.538574,4342.948730,4447.820313,5903.000000,4.000000,75.000000,,,,0.000000,4.000000,4.000000,4.000000,4.000000,4.000000,4.000000,4.000000,4.000000,4.000000,4.000000,4.000000,4.000000,4.000000,4.000000,100.000000,,,,,,,,,,,,,,,,,,,,,,,,,,,,
1703407768.525260,1703407768.525946,91.000000,0.000000,4143.589844,4133.974121,4242.820313,4198.846191,4146.025879,4137.948730,4091.153809,4125.897461,4120.384766,4137.179688,4553.333496,4417.820313,4345.769043,4436.410156,6095.000000,4.000000,75.000000,,,,0.000000,4.000000,4.000000,4.000000,4.000000,4.000000,4.000000,4.000000,4.000000,4.000000,4.000000,4.000000,4.000000,4.000000,4.000000,100.000000,,,,,,,,,,,,,,,,,,,,,,,,,,,,
1703407768.533068,1703407768.533854,92.000000,0.000000,4151.922852,4136.153809,4246.282227,4210.769043,4145.897461,4135.128418,4088.333252,4126.410156,4125.128418,4136.922852,4560.769043,4419.615234,4349.102539,4447.563965,6604.000000,4.000000,75.000000,,,,0.000000,4.000000,4.000000,4.000000,4.000000,4.000000,4.000000,4.000000,4.000000,4.000000,4.000000,4.000000,4.000000,4.000000,4.000000,100.000000,,,,,,,,,,,,,,,,,23.000000,0.000000,0.725695,-0.155334,-0.663269,-0.096497,0.981565,-0.087901,0.067391,-14.680093,-41.660793,65.381042
1703407768.540876,1703407768.541663,93.000000,0.000000,4162.436035,4145.256348,4252.563965,4221.410156,4154.871582,4135.512695,4087.435791,4134.871582,4144.230957,4149.743652,4569.615234,4428.589844,4358.589844,4467.948730,7182.000000,4.000000,75.000000,,,,0.000000,4.000000,4.000000,4.000000,4.000000,4.000000,4.000000,4.000000,4.000000,4.000000,4.000000,4.000000,4.000000,4.000000,4.000000,100.000000,,,,,,,,,,,,,,,,,,,,,,,,,,,,
1703407768.548684,1703407768.549471,94.000000,0.000000,4151.153809,4145.128418,4257.820313,4217.692383,4152.179688,4137.820313,4087.692383,4143.717773,4151.410156,4158.846191,4573.717773,4438.077148,4362.563965,4458.205078,5903.000000,4.000000,75.000000,,,,0.000000,4.000000,4.000000,4.000000,4.000000,4.000000,4.000000,4.000000,4.000000,4.000000,4.000000,4.000000,4.000000,4.000000,4.000000,100.000000,,,,,,,,,,,,,,,,,,,,,,,,,,,,
1703407768.556492,1703407768.557379,95.000000,0.000000,4142.051270,4138.717773,4254.615234,4214.358887,4144.230957,4138.333496,4084.358887,4141.025879,4140.641113,4146.153809,4573.717773,4432.820313,4350.384766,4438.974121,6095.000000,4.000000,75.000000,,,,0.000000,4.000000,4.000000,4.000000,4.000000,4.000000,4.000000,4.000000,4.000000,4.000000,4.000000,4.000000,4.000000,4.000000,4.000000,100.000000,,,,,,,,,,,,,,,,,,,,,,,,,,,,
1703407768.564300,1703407768.565188,96.000000,0.000000,4149.743652,4141.794922,4251.538574,4214.871582,4151.538574,4135.128418,4079.487061,4135.897461,4139.487305,4135.128418,4566.922852,4420.128418,4340.641113,4436.538574,6604.000000,4.000000,75.000000,,,,0.000000,4.000000,4.000000,4.000000,4.000000,4.000000,4.000000,4.000000,4.000000,4.000000,4.000000,4.000000,4.000000,4.000000,4.000000,100.000000,,,,,,,,,,,,,,,,,24.000000,0.000000,0.725679,-0.155151,-0.663330,-0.096497,0.988402,-0.106458,0.072763,-14.628750,-41.528049,65.442940
1703407768.572108,1703407768.573095,97.000000,0.000000,4153.461426,4145.641113,4255.384766,4213.205078,4158.205078,4134.487305,4077.692383,4137.179688,4143.077148,4138.461426,4561.282227,4415.128418,4345.256348,4432.179688,7182.000000,4.000000,75.000000,,,,0.000000,4.000000,4.000000,4.000000,4.000000,4.000000,4.000000,4.000000,4.000000,4.000000,4.000000,4.000000,4.000000,4.000000,4.000000,100.000000,,,,,,,,,,,,,,,,,,,,,,,,,,,,
1703407768.579916,1703407768.580903,98.000000,0.000000,4146.410156,4140.641113,4254.487305,4212.563965,4150.000000,4136.794922,4080.256348,4137.948730,4129.358887,4142.179688,4560.897461,4415.128418,4346.922852,4424.102539,5903.000000,4.000000,75.000000,,,,0.000000,4.000000,4.000000,4.000000,4.000000,4.000000,4.000000,4.000000,4.000000,4.000000,4.000000,4.000000,4.000000,4.000000,4.000000,100.000000,,,,,,,,,,,,,,,,,,,,,,,,,,,,
1703407768.587724,1703407768.588611,99.000000,0.000000,4148.589844,4138.846191,4247.820313,4213.974121,4147.692383,4137.948730,4085.897461,4133.846191,4122.563965,4140.384766,4562.563965,4414.743652,4343.333496,4430.769043,6095.000000,4.000000,75.000000,,,,0.000000,4.000000,4.000000,4.000000,4.000000,4.000000,4.000000,4.000000,4.000000,4.000000,4.000000,4.000000,4.000000,4.000000,4.000000,100.000000,,,,,,,,,,,,,,,,,,,,,,,,,,,,
1703407768.595532,1703407768.596419,100.000000,0.000000,4153.589844,4140.769043,4245.641113,4215.384766,4153.333496,4142.820313,4086.281982,4126.666504,4128.077148,4131.538574,4557.051270,4411.666504,4341.922852,4434.487305,6604.000000,4.000000,75.000000,,,,0.000000,4.000000,4.000000,4.000000,4.000000,4.000000,4.000000,4.000000,4.000000,4.000000,4.000000,4.000000,4.000000,4.000000,4.000000,100.000000,,,,,,,,,,,,,,,,,25.000000,0.000000,0.725846,-0.155151,-0.663147,-0.096497,0.989867,-0.103040,0.076670,-14.565875,-41.475243,65.515312
1703407768.603340,1703407768.604127,101.000000,0.000000,4151.410156,4137.436035,4246.666504,4211.922852,4156.153809,4151.410156,4083.333252,4122.820313,4123.974121,4125.897461,4551.666504,4412.051270,4342.820313,4431.666504,7182.000000,4.000000,75.000000,,,,0.000000,4.000000,4.000000,4.000000,4.000000,4.000000,4.000000,4.000000,4.000000,4.000000,4.000000,4.000000,4.000000,4.000000,4.000000,100.000000,,,,,,,,,,,,,,,,,,,,,,,,,,,,
1703407768.611148,1703407768.612036,102.000000,0.000000,4163.717773,4136.794922,4244.743652,4213.974121,4157.820313,4152.436035,4080.512939,4128.589844,4125.384766,4135.641113,4558.974121,4421.153809,4350.128418,4446.025879,5903.000000,4.000000,75.000000,,,,0.000000,4.000000,4.000000,4.000000,4.000000,4.000000,4.000000,4.000000,4.000000,4.000000,4.000000,4.000000,4.000000,4.000000,4.000000,100.000000,,,,,,,,,,,,,,,,,,,,,,,,,,,,
1703407768.618956,1703407768.619844,103.000000,0.000000,4175.641113,4141.025879,4245.897461,4224.871582,4156.794922,4144.615234,4076.666748,4137.051270,4138.333496,4143.589844,4571.025879,4429.743652,4359.102539,4462.692383,6095.000000,4.000000,75.000000,,,,0.000000,4.000000,4.000000,4.000000,4.000000,4.000000,4.000000,4.000000,4.000000,4.000000,4.000000,4.000000,4.000000,4.000000,4.000000,100.000000,,,,,,,,,,,,,,,,,,,,,,,,,,,,
1703407768.626764,1703407768.627752,104.000000,0.000000,4169.743652,4141.410156,4255.512695,4223.974121,4152.563965,4140.897461,4073.333252,4136.666504,4139.487305,4139.230957,4572.307617,4431.153809,4357.179688,4458.846191,6604.000000,4.000000,75.000000,,,,0.000000,4.000000,4.000000,4.000000,4.000000,4.000000,4.000000,4.000000,4.000000,4.000000,4.000000,4.000000,4.000000,4.000000,4.000000,100.000000,,,,,,,,,,,,,,,,,26.000000,0.000000,0.725828,-0.155457,-0.663086,-0.096558,0.982053,-0.080088,0.078135,-14.392621,-41.577721,65.597115
1703407768.634573,1703407768.635560,105.000000,0.000000,4162.563965,4139.102539,4260.256348,4217.692383,4151.538574,4145.000000,4074.871826,4134.871582,4134.230957,4142.307617,4568.589844,4430.128418,4353.077148,4455.384766,7182.000000,4.000000,75.000000,,,,0.000000,4.000000,4.000000,4.000000,4.000000,4.000000,4.000000,4.000000,4.000000,4.000000,4.000000,4.000000,4.000000,4.000000,4.000000,100.000000,,,,,,,,,,,,,,,,,,,,,,,,,,,,
1703407768.642381,1703407768.643468,106.000000,0.000000,4170.897461,4141.794922,4255.128418,4227.436035,4156.922852,4153.974121,4081.666748,4146.153809,4146.025879,4153.974121,4580.384766,4434.358887,4360.128418,4471.025879,5903.000000,4.000000,75.000000,,,,0.000000,4.000000,4.000000,4.000000,4.000000,4.000000,4.000000,4.000000,4.000000,4.000000,4.000000,4.000000,4.000000,4.000000,4.000000,100.000000,,,,,,,,,,,,,,,,,,,,,,,,,,,,
1703407768.650189,1703407768.651276,107.000000,0.000000,4181.025879,4143.974121,4250.769043,4235.897461,4156.794922,4163.077148,4086.794922,4155.384766,4160.769043,4157.692383,4589.871582,4431.666504,4365.897461,4480.256348,6095.000000,4.000000,75.000000,,,,0.000000,4.000000,4.000000,4.000000,4.000000,4.000000,4.000000,4.000000,4.000000,4.000000,4.000000,4.000000,4.000000,4.000000,4.000000,100.000000,,,,,,,,,,,,,,,,,,,,,,,,,,,,
1703407768.657997,1703407768.659085,108.000000,0.000000,4172.948730,4139.743652,4250.512695,4227.820313,4150.384766,4160.897461,4083.205078,4147.051270,4154.102539,4155.128418,4575.897461,4420.000000,4359.358887,4459.487305,6604.000000,4.000000,75.000000,,,,0.000000,4.000000,4.000000,4.000000,4.000000,4.000000,4.000000,4.000000,4.000000,4.000000,4.000000,4.000000,4.000000,4.000000,4.000000,100.000000,,,,,,,,,,,,,,,,,27.000000,0.000000,0.725686,-0.155640,-0.663208,-0.096497,0.987914,-0.095226,0.067879,-14.403358,-41.503281,65.504066
1703407768.665805,1703407768.666793,109.000000,0.000000,4164.743652,4140.000000,4256.025879,4225.512695,4151.410156,4153.717773,4074.102539,4138.333496,4141.794922,4148.205078,4566.538574,4420.512695,4353.077148,4439.230957,7182.000000,4.000000,75.000000,,,,0.000000,4.000000,4.000000,4.000000,4.000000,4.000000,4.000000,4.000000,4.000000,4.000000,4.000000,4.000000,4.000000,4.000000,4.000000,100.000000,,,,,,,,,,,,,,,,,,,,,,,,,,,,
1703407768.673613,1703407768.674601,110.000000,0.000000,4167.051270,4144.487305,4263.333496,4235.512695,4162.820313,4157.692383,4073.076904,4138.461426,4138.589844,4146.153809,4572.692383,4429.102539,4356.538574,4443.974121,5903.000000,4.000000,75.000000,,,,0.000000,4.000000,4.000000,4.000000,4.000000,4.000000,4.000000,4.000000,4.000000,4.000000,4.000000,4.000000,4.000000,4.000000,4.000000,100.000000,,,,,,,,,,,,,,,,,,,,,,,,,,,,
1703407768.681421,1703407768.682309,111.000000,0.000000,4164.358887,4142.948730,4257.948730,4234.487305,4167.307617,4169.230957,4079.743652,4138.461426,4137.436035,4146.410156,4571.153809,4423.205078,4360.641113,4444.358887,6095.000000,4.000000,75.000000,,,,0.000000,4.000000,4.000000,4.000000,4.000000,4.000000,4.000000,4.000000,4.000000,4.000000,4.000000,4.000000,4.000000,4.000000,4.000000,100.000000,,,,,,,,,,,,,,,,,,,,,,,,,,,,
1703407768.689229,1703407768.690117,112.000000,0.000000,4149.743652,4137.692383,4246.282227,4217.692383,4161.153809,4177.563965,4086.410156,4137.692383,4132.436035,4141.794922,4565.256348,4415.256348,4357.692383,4434.871582,6604.000000,4.000000,75.000000,,,,0.000000,4.000000,4.000000,4.000000,4.000000,4.000000,4.000000,4.000000,4.000000,4.000000,4.000000,4.000000,4.000000,4.000000,4.000000,100.000000,,,,,,,,,,,,,,,,,28.000000,0.000000,0.725769,-0.155518,-0.663208,-0.096069,0.993285,-0.090831,0.075204,-14.463023,-41.602951,65.503662
1703407768.697037,1703407768.697825,113.000000,0.000000,4151.153809,4137.307617,4244.871582,4210.384766,4163.589844,4185.641113,4094.871826,4138.461426,4133.974121,4144.615234,4576.282227,4422.692383,4360.128418,4446.282227,7182.000000,4.000000,75.000000,,,,0.000000,4.000000,4.000000,4.000000,4.000000,4.000000,4.000000,4.000000,4.000000,4.000000,4.000000,4.000000,4.000000,4.000000,4.000000,100.000000,,,,,,,,,,,,,,,,,,,,,,,,,,,,
1703407768.704845,1703407768.705733,114.000000,0.000000,4173.717773,4142.692383,4251.538574,4222.948730,4164.487305,4187.692383,4097.051270,4142.563965,4144.743652,4153.846191,4590.000000,4433.974121,4371.794922,4463.333496,5903.000000,4.000000,75.000000,,,,0.000000,4.000000,4.000000,4.000000,4.000000,4.000000,4.000000,4.000000,4.000000,4.000000,4.000000,4.000000,4.000000,4.000000,4.000000,100.000000,,,,,,,,,,,,,,,,,,,,,,,,,,,,
1703407768.712653,1703407768.713541,115.000000,0.000000,4188.846191,4152.307617,4266.666504,4236.282227,4155.897461,4176.282227,4092.692383,4152.051270,4154.102539,4154.871582,4598.717773,4449.102539,4382.692383,4470.128418,6095.000000,4.000000,75.000000,,,,0.000000,4.000000,4.000000,4.000000,4.000000,4.000000,4.000000,4.000000,4.000000,4.000000,4.000000,4.000000,4.000000,4.000000,4.000000,100.000000,,,,,,,,,,,,,,,,,,,,,,,,,,,,
1703407768.720461,1703407768.721449,116.000000,0.000000,4195.897461,4163.974121,4286.282227,4242.820313,4156.153809,4166.794922,4090.769287,4159.615234,4155.000000,4153.077148,4608.846191,4469.358887,4389.230957,4485.641113,6604.000000,4.000000,75.000000,,,,0.000000,4.000000,4.000000,4.000000,4.000000,4.000000,4.000000,4.000000,4.000000,4.000000,4.000000,4.000000,4.000000,4.000000,4.000000,100.000000,,,,,,,,,,,,,,,,,29.000000,0.000000,0.725692,-0.155579,-0.663330,-0.095703,0.987914,-0.103040,0.079600,-14.416720,-41.709324,65.453293
1703407768.728269,1703407768.729257,117.000000,0.000000,4203.205078,4171.282227,4289.487305,4248.846191,4164.743652,4166.922852,4090.256348,4161.025879,4151.410156,4154.871582,4612.820313,4476.922852,4391.666504,4490.641113,7182.000000,4.000000,75.000000,,,,0.000000,4.000000,4.000000,4.000000,4.000000,4.000000,4.000000,4.000000,4.000000,4.000000,4.000000,4.000000,4.000000,4.000000,4.000000,100.000000,,,,,,,,,,,,,,,,,,,,,,,,,,,,
1703407768.736077,1703407768.737165,118.000000,0.000000,4201.666504,4171.410156,4280.512695,4248.205078,4162.948730,4166.794922,4090.000000,4160.769043,4149.615234,4154.487305,4611.025879,4470.897461,4390.512695,4478.717773,5903.000000,4.000000,75.000000,,,,0.000000,4.000000,4.000000,4.000000,4.000000,4.000000,4.000000,4.000000,4.000000,4.000000,4.000000,4.000000,4.000000,4.000000,4.000000,100.000000,,,,,,,,,,,,,,,,,,,,,,,,,,,,
1703407768.743885,1703407768.744974,119.000000,0.000000,4180.897461,4162.692383,4271.282227,4233.974121,4151.922852,4166.025879,4089.487061,4149.358887,4142.179688,4150.641113,4596.666504,4449.871582,4378.717773,4470.256348,6095.000000,4.000000,75.000000,,,,0.000000,4.000000,4.000000,4.000000,4.000000,4.000000,4.000000,4.000000,4.000000,4.000000,4.000000,4.000000,4.000000,4.000000,4.000000,100.000000,,,,,,,,,,,,,,,,,,,,,,,,,,,,
1703407768.751693,1703407768.752882,120.000000,0.000000,4163.077148,4152.563965,4254.871582,4224.358887,4151.922852,4168.077148,4084.615479,4133.846191,4133.717773,4147.051270,4573.846191,4423.205078,4360.897461,4457.563965,6604.000000,4.000000,75.000000,,,,0.000000,4.000000,4.000000,4.000000,4.000000,4.000000,4.000000,4.000000,4.000000,4.000000,4.000000,4.000000,4.000000,4.000000,4.000000,100.000000,,,,,,,,,,,,,,,,,30.000000,0.000000,0.725687,-0.155640,-0.663330,-0.095642,0.981077,-0.087413,0.070321,-14.475049,-41.788391,65.507965
1703407768.759501,1703407768.760690,121.000000,0.000000,4173.333496,4151.794922,4245.384766,4229.102539,4158.461426,4169.487305,4082.179443,4137.307617,4145.000000,4148.461426,4572.948730,4418.589844,4357.692383,4447.179688,7182.000000,4.000000,75.000000,,,,0.000000,4.000000,4.000000,4.000000,4.000000,4.000000,4.000000,4.000000,4.000000,4.000000,4.000000,4.000000,4.000000,4.000000,4.000000,100.000000,,,,,,,,,,,,,,,,,,,,,,,,,,,,
1703407768.767310,1703407768.768498,122.000000,0.000000,4187.436035,4156.410156,4255.256348,4233.333496,4159.871582,4169.102539,4087.692383,4143.589844,4153.589844,4151.666504,4586.025879,4429.358887,4363.077148,4460.512695,5903.000000,4.000000,75.000000,,,,0.000000,4.000000,4.000000,4.000000,4.000000,4.000000,4.000000,4.000000,4.000000,4.000000,4.000000,4.000000,4.000000,4.000000,4.000000,100.000000,,,,,,,,,,,,,,,,,,,,,,,,,,,,
1703407768.775118,1703407768.776305,123.000000,0.000000,4180.128418,4158.974121,4265.128418,4233.205078,4162.179688,4172.179688,4086.025635,4141.410156,4143.205078,4145.384766,4576.794922,4428.846191,4358.205078,4460.384766,6095.000000,4.000000,75.000000,,,,0.000000,4.000000,4.000000,4.000000,4.000000,4.000000,4.000000,4.000000,4.000000,4.000000,4.000000,4.000000,4.000000,4.000000,4.000000,100.000000,,,,,,,,,,,,,,,,,,,,,,,,,,,,
1703407768.782925,1703407768.784014,124.000000,0.000000,4167.563965,4158.589844,4262.692383,4234.743652,4168.846191,4172.307617,4080.000000,4144.615234,4139.743652,4138.589844,4563.589844,4424.871582,4349.487305,4431.922852,6604.000000,4.000000,75.000000,,,,0.000000,4.000000,4.000000,4.000000,4.000000,4.000000,4.000000,4.000000,4.000000,4.000000,4.000000,4.000000,4.000000,4.000000,4.000000,100.000000,,,,,,,,,,,,,,,,,31.000000,0.000000,0.725602,-0.155701,-0.663391,-0.095764,0.984495,-0.092785,0.073251,-14.594211,-41.792885,65.573837
1703407768.790734,1703407768.791822,125.000000,0.000000,4167.563965,4156.282227,4255.128418,4232.051270,4164.102539,4171.153809,4086.794922,4145.512695,4144.743652,4140.384766,4567.820313,4425.128418,4347.051270,4428.205078,7182.000000,4.000000,75.000000,,,,0.000000,4.000000,4.000000,4.000000,4.000000,4.000000,4.000000,4.000000,4.000000,4.000000,4.000000,4.000000,4.000000,4.000000,4.000000,100.000000,,,,,,,,,,,,,,,,,,,,,,,,,,,,
1703407768.798542,1703407768.799530,126.000000,0.000000,4168.974121,4153.717773,4251.153809,4225.384766,4149.743652,4177.051270,4093.718018,4136.025879,4141.282227,4142.051270,4568.205078,4421.538574,4347.563965,4445.000000,5903.000000,4.000000,75.000000,,,,0.000000,4.000000,4.000000,4.000000,4.000000,4.000000,4.000000,4.000000,4.000000,4.000000,4.000000,4.000000,4.000000,4.000000,4.000000,100.000000,,,,,,,,,,,,,,,,,,,,,,,,,,,,
1703407768.806350,1703407768.807338,127.000000,0.000000,4166.666504,4152.948730,4255.641113,4223.846191,4155.384766,4183.077148,4090.769287,4141.794922,4142.307617,4146.153809,4571.025879,4424.743652,4355.512695,4445.897461,75.000000,4.000000,75.000000,,,,0.000000,4.000000,4.000000,4.000000,4.000000,4.000000,4.000000,4.000000,4.000000,4.000000,4.000000,4.000000,4.000000,4.000000,4.000000,100.000000,,,,,,,,,,,,,,,,,,,,,,,,,,,,
1703407768.814158,1703407768.815046,0.000000,0.000000,4169.358887,4156.666504,4261.153809,4226.282227,4170.000000,4181.153809,4091.281982,4162.692383,4157.179688,4161.666504,4589.871582,4440.384766,4371.538574,4446.153809,4889.000000,4.000000,75.000000,,,,0.000000,4.000000,4.000000,4.000000,4.000000,4.000000,4.000000,4.000000,4.000000,4.000000,4.000000,4.000000,4.000000,4.000000,4.000000,100.000000,,,,,,,,,,,,,,,,,0.000000,0.000000,0.725564,-0.155396,-0.663452,-0.096130,0.987425,-0.089855,0.079111,-14.568123,-41.846931,65.599785
1703407768.821966,1703407768.822854,1.000000,0.000000,4180.897461,4164.615234,4262.436035,4231.666504,4163.974121,4170.384766,4094.358887,4171.282227,4167.436035,4172.563965,4605.897461,4456.153809,4381.025879,4457.692383,5427.000000,4.000000,75.000000,,,,0.000000,4.000000,4.000000,4.000000,4.000000,4.000000,4.000000,4.000000,4.000000,4.000000,4.000000,4.000000,4.000000,4.000000,4.000000,100.000000,,,,,,,,,,,,,,,,,,,,,,,,,,,,
1703407768.829774,1703407768.830562,2.000000,0.000000,4190.256348,4165.641113,4269.743652,4236.025879,4148.205078,4156.410156,4088.974365,4171.794922,4164.615234,4167.179688,4605.641113,4464.615234,4382.051270,4466.794922,5227.000000,4.000000,75.000000,,,,0.000000,4.000000,4.000000,4.000000,4.000000,4.000000,4.000000,4.000000,4.000000,4.000000,4.000000,4.000000,4.000000,4.000000,4.000000,100.000000,,,,,,,,,,,,,,,,,,,,,,,,,,,,
1703407768.837582,1703407768.838370,3.000000,0.000000,4187.307617,4160.000000,4275.769043,4231.794922,4145.512695,4147.179688,4080.641113,4167.051270,4155.384766,4155.384766,4593.461426,4459.358887,4374.487305,4464.230957,5307.000000,4.000000,75.000000,,,,0.000000,4.000000,4.000000,4.000000,4.000000,4.000000,4.000000,4.000000,4.000000,4.000000,4.000000,4.000000,4.000000,4.000000,4.000000,100.000000,,,,,,,,,,,,,,,,,,,,,,,,,,,,
1703407768.845390,1703407768.846078,4.000000,0.000000,4187.307617,4163.461426,4273.333496,4230.256348,4156.410156,4151.153809,4081.666748,4155.512695,4151.410156,4147.692383,4581.794922,4448.846191,4365.769043,4460.769043,5106.000000,4.000000,75.000000,,,,0.000000,4.000000,4.000000,4.000000,4.000000,4.000000,4.000000,4.000000,4.000000,4.000000,4.000000,4.000000,4.000000,4.000000,4.000000,100.000000,,,,,,,,,,,,,,,,,1.000000,0.000000,0.725546,-0.155029,-0.663513,-0.096436,0.989379,-0.079111,0.069344,-14.477977,-41.912239,65.556473
1703407768.853198,1703407768.853886,5.000000,0.000000,4188.333496,4172.179688,4269.743652,4235.384766,4162.436035,4162.051270,4086.410156,4151.538574,4155.128418,4147.692383,4581.794922,4445.000000,4366.153809,4458.846191,4545.000000,4.000000,75.000000,,,,0.000000,4.000000,4.000000,4.000000,4.000000,4.000000,4.000000,4.000000,4.000000,4.000000,4.000000,4.000000,4.000000,4.000000,4.000000,100.000000,,,,,,,,,,,,,,,,,,,,,,,,,,,,
1703407768.861006,1703407768.861594,6.000000,0.000000,4175.769043,4168.333496,4266.153809,4231.282227,4155.897461,4163.205078,4085.000000,4154.102539,4151.666504,4149.487305,4583.589844,4441.666504,4366.410156,4455.256348,3121.000000,4.000000,75.000000,,,,0.000000,4.000000,4.000000,4.000000,4.000000,4.000000,4.000000,4.000000,4.000000,4.000000,4.000000,4.000000,4.000000,4.000000,4.000000,100.000000,,,,,,,,,,,,,,,,,,,,,,,,,,,,
1703407768.868814,1703407768.869402,7.000000,0.000000,4169.743652,4165.512695,4265.897461,4229.358887,4156.025879,4162.179688,4084.358887,4152.179688,4148.077148,4155.128418,4583.333496,4439.487305,4368.333496,4458.077148,5048.000000,4.000000,75.000000,,,,0.000000,4.000000,4.000000,4.000000,4.000000,4.000000,4.000000,4.000000,4.000000,4.000000,4.000000,4.000000,4.000000,4.000000,4.000000,100.000000,,,,,,,,,,,,,,,,,,,,,,,,,,,,
1703407768.876622,1703407768.877110,8.000000,0.000000,4185.641113,4179.487305,4275.769043,4244.230957,4172.307617,4166.538574,4084.487061,4151.794922,4152.948730,4161.538574,4594.615234,4449.102539,4381.794922,4470.128418,4829.000000,4.000000,75.000000,,,,0.000000,4.000000,4.000000,4.000000,4.000000,4.000000,4.000000,4.000000,4.000000,4.000000,4.000000,4.000000,4.000000,4.000000,4.000000,100.000000,,,,,,,,,,,,,,,,,2.000000,0.000000,0.725619,-0.154907,-0.663452,-0.096497,0.988890,-0.086925,0.086436,-14.580179,-41.804348,65.550827
1703407768.884430,1703407768.884918,9.000000,0.000000,4197.948730,4185.769043,4284.871582,4254.102539,4178.717773,4170.256348,4084.102539,4155.128418,4154.102539,4159.743652,4607.692383,4462.692383,4392.563965,4474.230957,5108.000000,4.000000,75.000000,,,,0.000000,4.000000,4.000000,4.000000,4.000000,4.000000,4.000000,4.000000,4.000000,4.000000,4.000000,4.000000,4.000000,4.000000,4.000000,100.000000,,,,,,,,,,,,,,,,,,,,,,,,,,,,
1703407768.892238,1703407768.892626,10.000000,0.000000,4193.974121,4176.794922,4279.230957,4244.358887,4170.512695,4170.512695,4086.538574,4150.128418,4151.666504,4159.487305,4607.948730,4462.436035,4390.384766,4467.563965,5913.000000,4.000000,75.000000,,,,0.000000,4.000000,4.000000,4.000000,4.000000,4.000000,4.000000,4.000000,4.000000,4.000000,4.000000,4.000000,4.000000,4.000000,4.000000,100.000000,,,,,,,,,,,,,,,,,,,,,,,,,,,,
1703407768.900046,1703407768.900434,11.000000,0.000000,4182.307617,4171.025879,4268.333496,4232.307617,4170.128418,4172.307617,4089.487061,4146.153809,4153.077148,4163.717773,4599.102539,4444.615234,4381.794922,4458.333496,6097.000000,4.000000,75.000000,,,,0.000000,4.000000,4.000000,4.000000,4.000000,4.000000,4.000000,4.000000,4.000000,4.000000,4.000000,4.000000,4.000000,4.000000,4.000000,100.000000,,,,,,,,,,,,,,,,,,,,,,,,,,,,
1703407768.907854,1703407768.908142,12.000000,0.000000,4170.512695,4164.743652,4259.871582,4230.897461,4174.743652,4173.077148,4089.615479,4148.077148,4153.589844,4153.077148,4584.102539,4426.666504,4370.256348,4441.666504,6604.000000,4.000000,75.000000,,,,0.000000,4.000000,4.000000,4.000000,4.000000,4.000000,4.000000,4.000000,4.000000,4.000000,4.000000,4.000000,4.000000,4.000000,4.000000,100.000000,,,,,,,,,,,,,,,,,3.000000,0.000000,0.725537,-0.155029,-0.663513,-0.096497,0.980588,-0.092296,0.066414,-14.622162,-41.957245,65.545746
1703407768.915662,1703407768.916050,13.000000,0.000000,4168.461426,4156.282227,4260.512695,4231.794922,4169.743652,4169.871582,4090.769287,4152.436035,4152.436035,4142.820313,4579.230957,4428.333496,4366.666504,4436.153809,7182.000000,4.000000,75.000000,,,,0.000000,4.000000,4.000000,4.000000,4.000000,4.000000,4.000000,4.000000,4.000000,4.000000,4.000000,4.000000,4.000000,4.000000,4.000000,100.000000,,,,,,,,,,,,,,,,,,,,,,,,,,,,
1703407768.923470,1703407768.923858,14.000000,0.000000,4175.384766,4161.922852,4273.205078,4233.589844,4163.077148,4166.922852,4088.333252,4159.743652,4156.794922,4154.871582,4594.102539,4444.230957,4376.666504,4448.846191,5913.000000,4.000000,75.000000,,,,0.000000,4.000000,4.000000,4.000000,4.000000,4.000000,4.000000,4.000000,4.000000,4.000000,4.000000,4.000000,4.000000,4.000000,4.000000,100.000000,,,,,,,,,,,,,,,,,,,,,,,,,,,,
1703407768.931279,1703407768.931766,15.000000,0.000000,4173.333496,4170.256348,4276.410156,4234.102539,4157.692383,4158.333496,4079.615479,4161.282227,4157.563965,4164.487305,4598.461426,4449.743652,4379.230957,4448.333496,6097.000000,4.000000,75.000000,,,,0.000000,4.000000,4.000000,4.000000,4.000000,4.000000,4.000000,4.000000,4.000000,4.000000,4.000000,4.000000,4.000000,4.000000,4.000000,100.000000,,,,,,,,,,,,,,,,,,,,,,,,,,,,
1703407768.939087,1703407768.939575,16.000000,0.000000,4163.974121,4166.153809,4268.974121,4230.769043,4151.282227,4150.000000,4077.564209,4154.487305,4154.230957,4156.410156,4589.743652,4443.974121,4371.922852,4443.589844,0.000000,4.000000,75.000000,,,,0.000000,4.000000,4.000000,4.000000,4.000000,4.000000,4.000000,4.000000,4.000000,4.000000,4.000000,4.000000,4.000000,4.000000,4.000000,100.000000,,,,,,,,,,,,,,,,,4.000000,0.000000,0.725572,-0.154907,-0.663513,-0.096436,0.974240,-0.091808,0.083506,-14.776612,-42.028187,65.574501
1703407768.946895,1703407768.947483,17.000000,0.000000,4173.333496,4165.641113,4269.487305,4229.743652,4148.717773,4151.153809,4077.820557,4151.538574,4156.282227,4153.205078,4591.153809,4443.846191,4373.461426,4458.461426,0.000000,4.000000,75.000000,,,,0.000000,4.000000,4.000000,4.000000,4.000000,4.000000,4.000000,4.000000,4.000000,4.000000,4.000000,4.000000,4.000000,4.000000,4.000000,100.000000,,,,,,,,,,,,,,,,,,,,,,,,,,,,
1703407768.954703,1703407768.955291,18.000000,0.000000,4184.487305,4170.000000,4271.922852,4234.487305,4153.846191,4155.384766,4076.666748,4155.256348,4156.410156,4158.717773,4594.230957,4445.128418,4377.820313,4461.538574,0.000000,4.000000,75.000000,,,,0.000000,4.000000,4.000000,4.000000,4.000000,4.000000,4.000000,4.000000,4.000000,4.000000,4.000000,4.000000,4.000000,4.000000,4.000000,100.000000,,,,,,,,,,,,,,,,,,,,,,,,,,,,
1703407768.962511,1703407768.963199,19.000000,0.000000,4174.358887,4170.897461,4268.717773,4240.512695,4165.000000,4156.153809,4077.435791,4156.153809,4152.692383,4160.641113,4591.538574,4443.333496,4376.153809,4446.666504,0.000000,4.000000,75.000000,,,,0.000000,4.000000,4.000000,4.000000,4.000000,4.000000,4.000000,4.000000,4.000000,4.000000,4.000000,4.000000,4.000000,4.000000,4.000000,100.000000,,,,,,,,,,,,,,,,,,,,,,,,,,,,
1703407768.970319,1703407768.971007,20.000000,0.000000,4169.102539,4172.307617,4270.897461,4239.871582,4172.051270,4155.512695,4075.128174,4153.333496,4150.256348,4159.871582,4592.307617,4446.794922,4373.461426,4446.025879,0.000000,4.000000,75.000000,,,,0.000000,4.000000,4.000000,4.000000,4.000000,4.000000,4.000000,4.000000,4.000000,4.000000,4.000000,4.000000,4.000000,4.000000,4.000000,100.000000,,,,,,,,,,,,,,,,,5.000000,0.000000,0.725614,-0.154785,-0.663513,-0.096313,0.984495,-0.096203,0.071786,-14.782284,-41.892036,65.667053
1703407768.978127,1703407768.978915,21.000000,0.000000,4173.974121,4171.025879,4276.794922,4234.487305,4168.589844,4154.230957,4074.102539,4153.717773,4153.717773,4162.436035,4593.589844,4451.538574,4370.384766,4447.436035,0.000000,4.000000,75.000000,,,,0.000000,4.000000,4.000000,4.000000,4.000000,4.000000,4.000000,4.000000,4.000000,4.000000,4.000000,4.000000,4.000000,4.000000,4.000000,100.000000,,,,,,,,,,,,,,,,,,,,,,,,,,,,
1703407768.985935,1703407768.986723,22.000000,0.000000,4171.666504,4168.205078,4278.205078,4233.974121,4166.666504,4154.615234,4081.923096,4155.128418,4155.128418,4165.384766,4591.538574,4445.641113,4369.743652,4440.769043,0.000000,4.000000,75.000000,,,,0.000000,4.000000,4.000000,4.000000,4.000000,4.000000,4.000000,4.000000,4.000000,4.000000,4.000000,4.000000,4.000000,4.000000,4.000000,100.000000,,,,,,,,,,,,,,,,,,,,,,,,,,,,
1703407768.993743,1703407768.994431,23.000000,0.000000,4167.692383,4170.512695,4275.641113,4236.282227,4170.256348,4158.589844,4086.410156,4151.153809,4145.897461,4159.615234,4587.436035,4435.000000,4368.846191,4435.000000,0.000000,4.000000,75.000000,,,,0.000000,4.000000,4.000000,4.000000,4.000000,4.000000,4.000000,4.000000,4.000000,4.000000,4.000000,4.000000,4.000000,4.000000,4.000000,100.000000,1.000000,91.666664,4.000000,4.000000,4.000000,4.000000,4.000000,4.000000,4.000000,4.000000,4.000000,4.000000,4.000000,4.000000,4.000000,3.000000,,,,,,,,,,,,
1703407769.001551,1703407769.002239,24.000000,0.000000,4169.487305,4167.436035,4269.487305,4232.692383,4167.436035,4160.512695,4083.589844,4146.922852,4141.153809,4152.563965,4582.179688,4430.512695,4364.487305,4431.666504,0.000000,4.000000,75.000000,,,,0.000000,4.000000,4.000000,4.000000,4.000000,4.000000,4.000000,4.000000,4.000000,4.000000,4.000000,4.000000,4.000000,4.000000,4.000000,100.000000,,,,,,,,,,,,,,,,,6.000000,0.000000,0.725575,-0.154968,-0.663513,-0.096313,0.996215,-0.101087,0.073251,-14.720722,-41.869499,65.733681
1703407769.009359,1703407769.009947,25.000000,0.000000,4168.077148,4158.077148,4264.487305,4226.538574,4159.871582,4160.384766,4084.743652,4150.641113,4150.512695,4154.871582,4585.000000,4429.871582,4364.487305,4439.743652,0.000000,4.000000,75.000000,,,,0.000000,4.000000,4.000000,4.000000,4.000000,4.000000,4.000000,4.000000,4.000000,4.000000,4.000000,4.000000,4.000000,4.000000,4.000000,100.000000,,,,,,,,,,,,,,,,,,,,,,,,,,,,
1703407769.017167,1703407769.017755,26.000000,0.000000,4167.179688,4158.846191,4262.692383,4226.922852,4158.205078,4159.871582,4089.615479,4155.256348,4157.948730,4157.948730,4587.692383,4432.692383,4368.077148,4439.871582,0.000000,4.000000,75.000000,,,,0.000000,4.000000,4.000000,4.000000,4.000000,4.000000,4.000000,4.000000,4.000000,4.000000,4.000000,4.000000,4.000000,4.000000,4.000000,100.000000,,,,,,,,,,,,,,,,,,,,,,,,,,,,
1703407769.024975,1703407769.025463,27.000000,0.000000,4173.461426,4166.538574,4265.897461,4231.025879,4162.307617,4157.820313,4089.358887,4154.230957,4155.512695,4161.922852,4584.358887,4439.102539,4370.256348,4427.563965,0.000000,4.000000,75.000000,,,,0.000000,4.000000,4.000000,4.000000,4.000000,4.000000,4.000000,4.000000,4.000000,4.000000,4.000000,4.000000,4.000000,4.000000,4.000000,100.000000,,,,,,,,,,,,,,,,,,,,,,,,,,,,
1703407769.032783,1703407769.033271,28.000000,0.000000,4183.846191,4172.179688,4277.692383,4233.974121,4168.333496,4156.025879,4084.230713,4152.436035,4152.692383,4167.692383,4592.179688,4448.589844,4375.256348,4450.000000,0.000000,4.000000,75.000000,,,,0.000000,4.000000,4.000000,4.000000,4.000000,4.000000,4.000000,4.000000,4.000000,4.000000,4.000000,4.000000,4.000000,4.000000,4.000000,100.000000,,,,,,,,,,,,,,,,,7.000000,0.000000,0.725650,-0.155212,-0.663391,-0.096191,0.989867,-0.074228,0.068856,-14.798650,-41.682549,65.760315
1703407769.040591,1703407769.040979,29.000000,0.000000,4187.436035,4173.461426,4286.025879,4235.128418,4170.897461,4150.128418,4079.871826,4152.948730,4154.615234,4171.666504,4602.820313,4458.205078,4380.769043,4487.307617,0.000000,4.000000,75.000000,,,,0.000000,4.000000,4.000000,4.000000,4.000000,4.000000,4.000000,4.000000,4.000000,4.000000,4.000000,4.000000,4.000000,4.000000,4.000000,100.000000,,,,,,,,,,,,,,,,,,,,,,,,,,,,
1703407769.048399,1703407769.048787,30.000000,0.000000,4189.487305,4173.333496,4287.307617,4237.692383,4163.077148,4139.102539,4078.333252,4156.153809,4157.307617,4168.461426,4602.563965,4462.563965,4381.153809,4481.025879,0.000000,4.000000,75.000000,,,,0.000000,4.000000,4.000000,4.000000,4.000000,4.000000,4.000000,4.000000,4.000000,4.000000,4.000000,4.000000,4.000000,4.000000,4.000000,100.000000,,,,,,,,,,,,,,,,,,,,,,,,,,,,
1703407769.056207,1703407769.056495,31.000000,0.000000,4198.846191,4177.820313,4290.641113,4234.230957,4155.384766,4136.025879,4078.205078,4156.538574,4147.179688,4158.205078,4600.384766,4459.871582,4380.128418,4467.820313,0.000000,4.000000,75.000000,,,,0.000000,4.000000,4.000000,4.000000,4.000000,4.000000,4.000000,4.000000,4.000000,4.000000,4.000000,4.000000,4.000000,4.000000,4.000000,100.000000,,,,,,,,,,,,,,,,,,,,,,,,,,,,
1703407769.064016,1703407769.064403,32.000000,0.000000,4197.563965,4181.794922,4291.538574,4230.512695,4158.974121,4143.589844,4077.948730,4154.230957,4133.974121,4153.333496,4603.974121,4460.000000,4382.563965,4482.563965,0.000000,4.000000,75.000000,,,,0.000000,4.000000,4.000000,4.000000,4.000000,4.000000,4.000000,4.000000,4.000000,4.000000,4.000000,4.000000,4.000000,4.000000,4.000000,100.000000,,,,,,,,,,,,,,,,,8.000000,0.000000,0.725663,-0.155151,-0.663391,-0.096191,0.983518,-0.079111,0.079600,-14.718785,-41.614292,65.717613
1703407769.071823,1703407769.072211,33.000000,0.000000,4186.922852,4179.358887,4285.641113,4235.384766,4159.871582,4145.000000,4078.718018,4156.922852,4143.461426,4155.769043,4602.563965,4462.820313,4382.179688,4475.256348,0.000000,4.000000,75.000000,,,,0.000000,4.000000,4.000000,4.000000,4.000000,4.000000,4.000000,4.000000,4.000000,4.000000,4.000000,4.000000,4.000000,4.000000,4.000000,100.000000,,,,,,,,,,,,,,,,,,,,,,,,,,,,
1703407769.079631,1703407769.080119,34.000000,0.000000,4187.051270,4175.897461,4282.820313,4237.563965,4156.922852,4141.153809,4081.153809,4159.230957,4157.563965,4161.282227,4598.205078,4460.512695,4377.436035,4453.077148,0.000000,4.000000,75.000000,,,,0.000000,4.000000,4.000000,4.000000,4.000000,4.000000,4.000000,4.000000,4.000000,4.000000,4.000000,4.000000,4.000000,4.000000,4.000000,100.000000,,,,,,,,,,,,,,,,,,,,,,,,,,,,
1703407769.087440,1703407769.087927,35.000000,0.000000,4185.512695,4173.846191,4279.487305,4231.794922,4154.871582,4143.717773,4080.000000,4155.384766,4155.769043,4167.051270,4598.077148,4459.102539,4375.512695,4456.282227,0.000000,4.000000,75.000000,,,,0.000000,4.000000,4.000000,4.000000,4.000000,4.000000,4.000000,4.000000,4.000000,4.000000,4.000000,4.000000,4.000000,4.000000,4.000000,100.000000,,,,,,,,,,,,,,,,,,,,,,,,,,,,
1703407769.095248,1703407769.095835,36.000000,0.000000,4179.102539,4169.743652,4276.794922,4230.384766,4153.077148,4145.128418,4075.641113,4155.512695,4154.743652,4171.922852,4604.230957,4465.384766,4380.000000,4464.743652,0.000000,4.000000,75.000000,,,,0.000000,4.000000,4.000000,4.000000,4.000000,4.000000,4.000000,4.000000,4.000000,4.000000,4.000000,4.000000,4.000000,4.000000,4.000000,100.000000,,,,,,,,,,,,,,,,,9.000000,0.000000,0.725639,-0.154968,-0.663452,-0.096252,0.995239,-0.097668,0.075204,-14.680240,-41.719532,65.845856
1703407769.103056,1703407769.103644,37.000000,0.000000,4185.897461,4171.666504,4284.358887,4235.512695,4159.358887,4142.307617,4077.948730,4157.436035,4158.589844,4168.077148,4607.179688,4466.153809,4382.948730,4464.743652,0.000000,4.000000,75.000000,,,,0.000000,4.000000,4.000000,4.000000,4.000000,4.000000,4.000000,4.000000,4.000000,4.000000,4.000000,4.000000,4.000000,4.000000,4.000000,100.000000,,,,,,,,,,,,,,,,,,,,,,,,,,,,
1703407769.110864,1703407769.111552,38.000000,0.000000,4186.922852,4174.615234,4285.256348,4236.153809,4170.128418,4144.743652,4085.769287,4148.974121,4151.922852,4156.410156,4595.256348,4450.256348,4375.897461,4457.948730,0.000000,4.000000,75.000000,,,,0.000000,4.000000,4.000000,4.000000,4.000000,4.000000,4.000000,4.000000,4.000000,4.000000,4.000000,4.000000,4.000000,4.000000,4.000000,100.000000,,,,,,,,,,,,,,,,,,,,,,,,,,,,
1703407769.118672,1703407769.119360,39.000000,0.000000,4174.230957,4168.974121,4273.717773,4234.102539,4171.025879,4152.179688,4085.897461,4137.563965,4140.000000,4146.794922,4581.025879,4437.051270,4364.743652,4445.897461,0.000000,4.000000,75.000000,,,,0.000000,4.000000,4.000000,4.000000,4.000000,4.000000,4.000000,4.000000,4.000000,4.000000,4.000000,4.000000,4.000000,4.000000,4.000000,100.000000,,,,,,,,,,,,,,,,,,,,,,,,,,,,
1703407769.126480,1703407769.127268,40.000000,0.000000,4176.794922,4168.205078,4271.410156,4231.794922,4165.000000,4154.871582,4083.205078,4137.051270,4140.897461,4150.000000,4581.410156,4437.563965,4360.641113,4442.820313,0.000000,4.000000,75.000000,,,,0.000000,4.000000,4.000000,4.000000,4.000000,4.000000,4.000000,4.000000,4.000000,4.000000,4.000000,4.000000,4.000000,4.000000,4.000000,100.000000,,,,,,,,,,,,,,,,,10.000000,0.000000,0.725652,-0.154907,-0.663452,-0.096252,0.979123,-0.077158,0.072763,-14.828882,-41.697578,65.844604
1703407769.134288,1703407769.135076,41.000000,0.000000,4187.563965,4171.153809,4281.282227,4231.538574,4164.358887,4147.948730,4082.435791,4145.512695,4153.717773,4162.563965,4586.794922,4442.179688,4364.358887,4446.922852,0.000000,4.000000,75.000000,,,,0.000000,4.000000,4.000000,4.000000,4.000000,4.000000,4.000000,4.000000,4.000000,4.000000,4.000000,4.000000,4.000000,4.000000,4.000000,100.000000,,,,,,,,,,,,,,,,,,,,,,,,,,,,
1703407769.142096,1703407769.142984,42.000000,0.000000,4184.743652,4168.205078,4281.538574,4237.051270,4165.000000,4140.512695,4081.538574,4152.563965,4157.948730,4160.769043,4584.615234,4445.384766,4362.436035,4441.538574,0.000000,4.000000,75.000000,,,,0.000000,4.000000,4.000000,4.000000,4.000000,4.000000,4.000000,4.000000,4.000000,4.000000,4.000000,4.000000,4.000000,4.000000,4.000000,100.000000,,,,,,,,,,,,,,,,,,,,,,,,,,,,
1703407769.149904,1703407769.150793,43.000000,0.000000,4177.948730,4167.820313,4271.666504,4238.846191,4166.666504,4138.717773,4083.718018,4155.384766,4151.922852,4152.436035,4582.692383,4441.410156,4359.871582,4445.641113,0.000000,4.000000,75.000000,,,,0.000000,4.000000,4.000000,4.000000,4.000000,4.000000,4.000000,4.000000,4.000000,4.000000,4.000000,4.000000,4.000000,4.000000,4.000000,100.000000,,,,,,,,,,,,,,,,,,,,,,,,,,,,
1703407769.157712,1703407769.158701,44.000000,0.000000,4183.333496,4172.051270,4267.051270,4235.512695,4169.743652,4141.410156,4084.871826,4156.666504,4152.051270,4154.102539,4586.025879,4436.282227,4364.102539,4462.948730,0.000000,4.000000,75.000000,,,,0.000000,4.000000,4.000000,4.000000,4.000000,4.000000,4.000000,4.000000,4.000000,4.000000,4.000000,4.000000,4.000000,4.000000,4.000000,100.000000,,,,,,,,,,,,,,,,,11.000000,0.000000,0.725697,-0.154846,-0.663452,-0.096008,0.984495,-0.083018,0.075204,-14.845994,-41.777821,65.643471
1703407769.165520,1703407769.166508,45.000000,0.000000,4184.358887,4172.307617,4269.487305,4233.589844,4165.641113,4142.436035,4080.897461,4155.512695,4154.743652,4155.641113,4584.615234,4436.410156,4362.820313,4456.538574,0.000000,4.000000,75.000000,,,,0.000000,4.000000,4.000000,4.000000,4.000000,4.000000,4.000000,4.000000,4.000000,4.000000,4.000000,4.000000,4.000000,4.000000,4.000000,100.000000,,,,,,,,,,,,,,,,,,,,,,,,,,,,
1703407769.173328,1703407769.174316,46.000000,0.000000,4176.410156,4175.256348,4275.512695,4235.384766,4166.538574,4141.794922,4078.846191,4154.871582,4155.128418,4156.282227,4586.282227,4439.358887,4362.051270,4446.282227,0.000000,4.000000,75.000000,,,,0.000000,4.000000,4.000000,4.000000,4.000000,4.000000,4.000000,4.000000,4.000000,4.000000,4.000000,4.000000,4.000000,4.000000,4.000000,100.000000,,,,,,,,,,,,,,,,,,,,,,,,,,,,
1703407769.181136,1703407769.182124,47.000000,0.000000,4177.436035,4183.461426,4281.538574,4240.000000,4176.794922,4147.051270,4080.769287,4150.897461,4155.256348,4161.410156,4595.384766,4442.820313,4371.538574,4452.436035,0.000000,4.000000,75.000000,,,,0.000000,4.000000,4.000000,4.000000,4.000000,4.000000,4.000000,4.000000,4.000000,4.000000,4.000000,4.000000,4.000000,4.000000,4.000000,100.000000,,,,,,,,,,,,,,,,,,,,,,,,,,,,
1703407769.188944,1703407769.189832,48.000000,0.000000,4187.692383,4182.051270,4281.282227,4245.384766,4176.922852,4151.153809,4078.846191,4141.794922,4153.717773,4159.743652,4595.000000,4445.384766,4372.436035,4452.179688,0.000000,4.000000,75.000000,,,,0.000000,4.000000,4.000000,4.000000,4.000000,4.000000,4.000000,4.000000,4.000000,4.000000,4.000000,4.000000,4.000000,4.000000,4.000000,100.000000,,,,,,,,,,,,,,,,,12.000000,0.000000,0.725732,-0.154907,-0.663391,-0.096069,0.989867,-0.101575,0.086436,-14.761395,-41.916706,65.662460
1703407769.196752,1703407769.197640,49.000000,0.000000,4188.205078,4170.128418,4271.922852,4247.179688,4169.871582,4145.769043,4077.179443,4137.563965,4152.820313,4154.102539,4583.974121,4436.410156,4359.230957,4442.948730,0.000000,4.000000,75.000000,,,,0.000000,4.000000,4.000000,4.000000,4.000000,4.000000,4.000000,4.000000,4.000000,4.000000,4.000000,4.000000,4.000000,4.000000,4.000000,100.000000,,,,,,,,,,,,,,,,,,,,,,,,,,,,
1703407769.204560,1703407769.205349,50.000000,0.000000,4176.025879,4165.000000,4267.692383,4244.102539,4173.077148,4143.461426,4081.923096,4138.589844,4149.230957,4151.538574,4582.051270,4425.512695,4353.461426,4437.307617,0.000000,4.000000,75.000000,,,,0.000000,4.000000,4.000000,4.000000,4.000000,4.000000,4.000000,4.000000,4.000000,4.000000,4.000000,4.000000,4.000000,4.000000,4.000000,100.000000,,,,,,,,,,,,,,,,,,,,,,,,,,,,
1703407769.212368,1703407769.213157,51.000000,0.000000,4170.256348,4169.743652,4272.307617,4244.615234,4175.256348,4150.512695,4086.153809,4131.282227,4136.025879,4143.461426,4583.333496,4424.871582,4352.563965,4432.436035,0.000000,4.000000,75.000000,,,,0.000000,4.000000,4.000000,4.000000,4.000000,4.000000,4.000000,4.000000,4.000000,4.000000,4.000000,4.000000,4.000000,4.000000,4.000000,100.000000,,,,,,,,,,,,,,,,,,,,,,,,,,,,
1703407769.220176,1703407769.220865,52.000000,0.000000,4175.769043,4169.871582,4271.153809,4245.897461,4168.077148,4152.179688,4086.281982,4124.743652,4128.333496,4141.025879,4578.461426,4427.820313,4352.692383,4434.102539,0.000000,4.000000,75.000000,,,,0.000000,4.000000,4.000000,4.000000,4.000000,4.000000,4.000000,4.000000,4.000000,4.000000,4.000000,4.000000,4.000000,4.000000,4.000000,100.000000,,,,,,,,,,,,,,,,,13.000000,0.000000,0.725776,-0.155151,-0.663330,-0.095764,0.980100,-0.083995,0.072763,-14.735255,-42.008369,65.646217
1703407769.227985,1703407769.228673,53.000000,0.000000,4190.641113,4168.846191,4274.743652,4244.487305,4166.410156,4150.256348,4089.102539,4134.358887,4141.666504,4152.948730,4590.128418,4441.666504,4366.410156,4455.000000,0.000000,4.000000,75.000000,,,,0.000000,4.000000,4.000000,4.000000,4.000000,4.000000,4.000000,4.000000,4.000000,4.000000,4.000000,4.000000,4.000000,4.000000,4.000000,100.000000,,,,,,,,,,,,,,,,,,,,,,,,,,,,
1703407769.235793,1703407769.236381,54.000000,0.000000,4210.897461,4177.820313,4287.820313,4249.102539,4170.641113,4154.102539,4091.153809,4147.820313,4154.871582,4164.358887,4614.358887,4465.641113,4385.256348,4481.282227,0.000000,4.000000,75.000000,,,,0.000000,4.000000,4.000000,4.000000,4.000000,4.000000,4.000000,4.000000,4.000000,4.000000,4.000000,4.000000,4.000000,4.000000,4.000000,100.000000,,,,,,,,,,,,,,,,,,,,,,,,,,,,
1703407769.243600,1703407769.244189,55.000000,0.000000,4218.846191,4186.922852,4291.794922,4254.871582,4172.948730,4151.153809,4088.076904,4153.846191,4154.615234,4169.615234,4620.256348,4478.717773,4393.461426,4496.794922,0.000000,4.000000,75.000000,,,,0.000000,4.000000,4.000000,4.000000,4.000000,4.000000,4.000000,4.000000,4.000000,4.000000,4.000000,4.000000,4.000000,4.000000,4.000000,100.000000,,,,,,,,,,,,,,,,,,,,,,,,,,,,
1703407769.251409,1703407769.251897,56.000000,0.000000,4215.256348,4185.384766,4285.256348,4253.461426,4167.692383,4142.948730,4086.153809,4155.769043,4154.230957,4170.256348,4616.282227,4476.282227,4391.282227,4497.563965,0.000000,4.000000,75.000000,,,,0.000000,4.000000,4.000000,4.000000,4.000000,4.000000,4.000000,4.000000,4.000000,4.000000,4.000000,4.000000,4.000000,4.000000,4.000000,100.000000,,,,,,,,,,,,,,,,,14.000000,0.000000,0.725758,-0.155457,-0.663269,-0.095825,0.994262,-0.089366,0.079111,-14.711730,-42.007530,65.464928
1703407769.259217,1703407769.259705,57.000000,0.000000,4215.512695,4182.692383,4277.563965,4247.692383,4160.512695,4139.615234,4085.000000,4153.077148,4153.077148,4161.410156,4614.615234,4467.563965,4384.743652,4490.641113,0.000000,4.000000,75.000000,,,,0.000000,4.000000,4.000000,4.000000,4.000000,4.000000,4.000000,4.000000,4.000000,4.000000,4.000000,4.000000,4.000000,4.000000,4.000000,100.000000,,,,,,,,,,,,,,,,,,,,,,,,,,,,
1703407769.267025,1703407769.267413,58.000000,0.000000,4221.538574,4185.256348,4273.077148,4243.205078,4166.025879,4138.589844,4083.205078,4149.743652,4149.743652,4153.974121,4607.563965,4461.025879,4380.897461,4498.589844,0.000000,4.000000,75.000000,,,,0.000000,4.000000,4.000000,4.000000,4.000000,4.000000,4.000000,4.000000,4.000000,4.000000,4.000000,4.000000,4.000000,4.000000,4.000000,100.000000,,,,,,,,,,,,,,,,,,,,,,,,,,,,
1703407769.274833,1703407769.275221,59.000000,0.000000,4219.487305,4186.153809,4275.512695,4247.307617,4173.846191,4138.077148,4084.487061,4147.820313,4152.563965,4157.179688,4602.692383,4461.538574,4382.820313,4512.051270,0.000000,4.000000,75.000000,,,,0.000000,4.000000,4.000000,4.000000,4.000000,4.000000,4.000000,4.000000,4.000000,4.000000,4.000000,4.000000,4.000000,4.000000,4.000000,100.000000,,,,,,,,,,,,,,,,,,,,,,,,,,,,
1703407769.282641,1703407769.282929,60.000000,0.000000,4210.897461,4184.487305,4282.179688,4255.641113,4168.974121,4139.102539,4086.281982,4141.538574,4151.025879,4157.051270,4603.846191,4462.051270,4381.538574,4500.769043,0.000000,4.000000,75.000000,,,,0.000000,4.000000,4.000000,4.000000,4.000000,4.000000,4.000000,4.000000,4.000000,4.000000,4.000000,4.000000,4.000000,4.000000,4.000000,100.000000,,,,,,,,,,,,,,,,,15.000000,0.000000,0.725894,-0.155457,-0.663147,-0.095642,0.981565,-0.104505,0.075204,-14.657224,-42.056778,65.518433
1703407769.290449,1703407769.290837,61.000000,0.000000,4211.282227,4183.461426,4282.563965,4255.128418,4164.358887,4138.205078,4086.281982,4136.794922,4139.230957,4148.461426,4597.051270,4452.948730,4371.538574,4475.128418,0.000000,4.000000,75.000000,,,,0.000000,4.000000,4.000000,4.000000,4.000000,4.000000,4.000000,4.000000,4.000000,4.000000,4.000000,4.000000,4.000000,4.000000,4.000000,100.000000,,,,,,,,,,,,,,,,,,,,,,,,,,,,
1703407769.298257,1703407769.298645,62.000000,0.000000,4215.769043,4184.230957,4283.077148,4251.538574,4172.307617,4140.512695,4088.589844,4140.384766,4140.384766,4146.794922,4595.769043,4450.897461,4370.641113,4470.897461,0.000000,4.000000,75.000000,,,,0.000000,4.000000,4.000000,4.000000,4.000000,4.000000,4.000000,4.000000,4.000000,4.000000,4.000000,4.000000,4.000000,4.000000,4.000000,100.000000,,,,,,,,,,,,,,,,,,,,,,,,,,,,
1703407769.306065,1703407769.306553,63.000000,0.000000,4213.846191,4186.282227,4287.436035,4254.487305,4175.384766,4148.717773,4093.589844,4143.461426,4150.384766,4154.487305,4598.589844,4458.461426,4376.025879,4481.282227,0.000000,4.000000,75.000000,,,,0.000000,4.000000,4.000000,4.000000,4.000000,4.000000,4.000000,4.000000,4.000000,4.000000,4.000000,4.000000,4.000000,4.000000,4.000000,100.000000,,,,,,,,,,,,,,,,,,,,,,,,,,,,
1703407769.313873,1703407769.314361,64.000000,0.000000,4210.256348,4183.846191,4284.487305,4251.922852,4167.820313,4151.025879,4099.358887,4143.205078,4150.128418,4154.487305,4589.358887,4458.461426,4368.717773,4476.153809,4889.000000,4.000000,75.000000,,,,0.000000,4.000000,4.000000,4.000000,4.000000,4.000000,4.000000,4.000000,4.000000,4.000000,4.000000,4.000000,4.000000,4.000000,4.000000,100.000000,,,,,,,,,,,,,,,,,16.000000,0.000000,0.725875,-0.155396,-0.663208,-0.095459,0.985960,-0.106947,0.072274,-14.641501,-42.017765,65.649925
1703407769.321681,1703407769.322269,65.000000,0.000000,4216.922852,4182.051270,4280.769043,4242.820313,4171.410156,4152.563965,4102.692383,4149.743652,4157.820313,4157.563965,4591.666504,4457.436035,4367.307617,4468.846191,5427.000000,4.000000,75.000000,,,,0.000000,4.000000,4.000000,4.000000,4.000000,4.000000,4.000000,4.000000,4.000000,4.000000,4.000000,4.000000,4.000000,4.000000,4.000000,100.000000,,,,,,,,,,,,,,,,,,,,,,,,,,,,
1703407769.329489,1703407769.330078,66.000000,0.000000,4213.333496,4185.384766,4285.641113,4243.717773,4187.436035,4160.769043,4105.512695,4156.666504,4171.153809,4172.051270,4613.333496,4465.641113,4383.205078,4486.794922,5225.000000,4.000000,75.000000,,,,0.000000,4.000000,4.000000,4.000000,4.000000,4.000000,4.000000,4.000000,4.000000,4.000000,4.000000,4.000000,4.000000,4.000000,4.000000,100.000000,,,,,,,,,,,,,,,,,,,,,,,,,,,,
1703407769.337297,1703407769.337986,67.000000,0.000000,4200.128418,4186.410156,4287.436035,4255.000000,4192.563965,4163.333496,4110.769043,4153.717773,4165.769043,4175.128418,4613.974121,4465.384766,4386.410156,4497.179688,5300.000000,4.000000,75.000000,,,,0.000000,4.000000,4.000000,4.000000,4.000000,4.000000,4.000000,4.000000,4.000000,4.000000,4.000000,4.000000,4.000000,4.000000,4.000000,100.000000,,,,,,,,,,,,,,,,,,,,,,,,,,,,
1703407769.345105,1703407769.345794,68.000000,0.000000,4208.717773,4184.358887,4283.974121,4261.153809,4178.205078,4156.922852,4110.384766,4150.256348,4151.538574,4162.563965,4599.358887,4456.538574,4376.666504,4477.051270,5083.000000,4.000000,75.000000,,,,0.000000,4.000000,4.000000,4.000000,4.000000,4.000000,4.000000,4.000000,4.000000,4.000000,4.000000,4.000000,4.000000,4.000000,4.000000,100.000000,,,,,,,,,,,,,,,,,17.000000,0.000000,0.726043,-0.155396,-0.663025,-0.095459,0.989867,-0.095715,0.072763,-14.694017,-41.999325,65.668266
1703407769.352913,1703407769.353701,69.000000,0.000000,4219.871582,4182.307617,4285.384766,4255.000000,4170.256348,4153.846191,4107.179688,4153.717773,4152.436035,4160.641113,4608.717773,4463.333496,4382.179688,4477.051270,4545.000000,4.000000,75.000000,,,,0.000000,4.000000,4.000000,4.000000,4.000000,4.000000,4.000000,4.000000,4.000000,4.000000,4.000000,4.000000,4.000000,4.000000,4.000000,100.000000,,,,,,,,,,,,,,,,,,,,,,,,,,,,
1703407769.360721,1703407769.361509,70.000000,0.000000,4207.692383,4175.512695,4288.333496,4246.410156,4177.051270,4155.512695,4109.358887,4155.641113,4160.512695,4168.077148,4619.615234,4469.102539,4387.820313,4492.436035,3122.000000,4.000000,75.000000,,,,0.000000,4.000000,4.000000,4.000000,4.000000,4.000000,4.000000,4.000000,4.000000,4.000000,4.000000,4.000000,4.000000,4.000000,4.000000,100.000000,,,,,,,,,,,,,,,,,,,,,,,,,,,,
1703407769.368529,1703407769.369317,71.000000,0.000000,4199.615234,4167.820313,4284.102539,4249.102539,4181.153809,4161.922852,4111.666504,4155.384766,4165.897461,4168.846191,4612.179688,4462.820313,4381.153809,4480.512695,5048.000000,4.000000,75.000000,,,,0.000000,4.000000,4.000000,4.000000,4.000000,4.000000,4.000000,4.000000,4.000000,4.000000,4.000000,4.000000,4.000000,4.000000,4.000000,100.000000,,,,,,,,,,,,,,,,,,,,,,,,,,,,
1703407769.376337,1703407769.377125,72.000000,0.000000,4213.333496,4167.948730,4286.153809,4250.769043,4171.153809,4164.358887,4108.461426,4158.974121,4171.538574,4168.461426,4613.077148,4468.461426,4383.461426,4472.307617,4829.000000,4.000000,75.000000,,,,0.000000,4.000000,4.000000,4.000000,4.000000,4.000000,4.000000,4.000000,4.000000,4.000000,4.000000,4.000000,4.000000,4.000000,4.000000,100.000000,,,,,,,,,,,,,,,,,18.000000,0.000000,0.726131,-0.155762,-0.662842,-0.095459,0.974728,-0.089855,0.074228,-14.791283,-42.032726,65.684769
1703407769.384146,1703407769.384833,73.000000,0.000000,4218.846191,4167.436035,4291.538574,4243.846191,4161.666504,4158.205078,4108.846191,4163.589844,4168.461426,4171.282227,4621.282227,4477.563965,4390.384766,4488.333496,5111.000000,4.000000,75.000000,,,,0.000000,4.000000,4.000000,4.000000,4.000000,4.000000,4.000000,4.000000,4.000000,4.000000,4.000000,4.000000,4.000000,4.000000,4.000000,100.000000,,,,,,,,,,,,,,,,,,,,,,,,,,,,
1703407769.391954,1703407769.392641,74.000000,0.000000,4214.358887,4167.436035,4293.717773,4249.230957,4175.641113,4161.922852,4115.512695,4167.563965,4169.358887,4180.384766,4625.512695,4475.641113,4394.230957,4495.641113,5911.000000,4.000000,75.000000,,,,0.000000,4.000000,4.000000,4.000000,4.000000,4.000000,4.000000,4.000000,4.000000,4.000000,4.000000,4.000000,4.000000,4.000000,4.000000,100.000000,,,,,,,,,,,,,,,,,,,,,,,,,,,,
1703407769.399762,1703407769.400349,75.000000,0.000000,4218.461426,4172.563965,4299.487305,4262.179688,4187.179688,4173.717773,4119.230957,4172.563965,4179.743652,4184.743652,4629.102539,4478.077148,4398.333496,4493.333496,6097.000000,4.000000,75.000000,,,,0.000000,4.000000,4.000000,4.000000,4.000000,4.000000,4.000000,4.000000,4.000000,4.000000,4.000000,4.000000,4.000000,4.000000,4.000000,100.000000,,,,,,,,,,,,,,,,,,,,,,,,,,,,
1703407769.407570,1703407769.408157,76.000000,0.000000,4215.128418,4167.692383,4300.512695,4257.179688,4175.000000,4172.948730,4118.333496,4169.102539,4178.974121,4174.743652,4625.128418,4477.820313,4394.615234,4491.282227,6604.000000,4.000000,75.000000,,,,0.000000,4.000000,4.000000,4.000000,4.000000,4.000000,4.000000,4.000000,4.000000,4.000000,4.000000,4.000000,4.000000,4.000000,4.000000,100.000000,,,,,,,,,,,,,,,,,19.000000,0.000000,0.726028,-0.155945,-0.662903,-0.095520,0.969845,-0.089855,0.075693,-14.828821,-42.179451,65.482964
1703407769.415378,1703407769.415865,77.000000,0.000000,4208.974121,4160.897461,4290.512695,4244.358887,4165.897461,4171.922852,4119.102539,4159.871582,4167.051270,4168.205078,4616.282227,4467.563965,4387.179688,4487.948730,7182.000000,4.000000,75.000000,,,,0.000000,4.000000,4.000000,4.000000,4.000000,4.000000,4.000000,4.000000,4.000000,4.000000,4.000000,4.000000,4.000000,4.000000,4.000000,100.000000,,,,,,,,,,,,,,,,,,,,,,,,,,,,
1703407769.423186,1703407769.423673,78.000000,0.000000,4212.563965,4163.077148,4283.461426,4246.410156,4171.025879,4183.846191,4124.615234,4159.102539,4163.717773,4174.615234,4616.666504,4466.153809,4385.641113,4486.922852,5911.000000,4.000000,75.000000,,,,0.000000,4.000000,4.000000,4.000000,4.000000,4.000000,4.000000,4.000000,4.000000,4.000000,4.000000,4.000000,4.000000,4.000000,4.000000,100.000000,,,,,,,,,,,,,,,,,,,,,,,,,,,,
1703407769.430994,1703407769.431382,79.000000,0.000000,4218.461426,4160.512695,4283.205078,4247.820313,4173.589844,4186.282227,4126.538574,4159.615234,4165.897461,4170.256348,4611.794922,4462.307617,4380.128418,4481.153809,6097.000000,4.000000,75.000000,,,,0.000000,4.000000,4.000000,4.000000,4.000000,4.000000,4.000000,4.000000,4.000000,4.000000,4.000000,4.000000,4.000000,4.000000,4.000000,100.000000,,,,,,,,,,,,,,,,,,,,,,,,,,,,
1703407769.438802,1703407769.439189,80.000000,0.000000,4216.666504,4151.538574,4280.512695,4238.717773,4167.179688,4176.538574,4126.153809,4155.897461,4160.128418,4156.282227,4598.333496,4445.256348,4369.743652,4478.846191,6604.000000,4.000000,75.000000,,,,0.000000,4.000000,4.000000,4.000000,4.000000,4.000000,4.000000,4.000000,4.000000,4.000000,4.000000,4.000000,4.000000,4.000000,4.000000,100.000000,,,,,,,,,,,,,,,,,20.000000,0.000000,0.726097,-0.155884,-0.662842,-0.095520,0.995727,-0.102552,0.076670,-14.862606,-42.111507,65.517998
1703407769.446610,1703407769.446898,81.000000,0.000000,4211.153809,4152.820313,4279.487305,4237.179688,4160.384766,4172.179688,4129.615234,4151.153809,4153.717773,4160.512695,4596.025879,4441.153809,4368.717773,4490.769043,7182.000000,4.000000,75.000000,,,,0.000000,4.000000,4.000000,4.000000,4.000000,4.000000,4.000000,4.000000,4.000000,4.000000,4.000000,4.000000,4.000000,4.000000,4.000000,100.000000,,,,,,,,,,,,,,,,,,,,,,,,,,,,
1703407769.454418,1703407769.454706,82.000000,0.000000,4216.410156,4164.230957,4283.717773,4244.487305,4161.666504,4172.436035,4134.487305,4153.717773,4158.974121,4170.128418,4602.820313,4455.641113,4377.692383,4508.077148,5911.000000,4.000000,75.000000,,,,0.000000,4.000000,4.000000,4.000000,4.000000,4.000000,4.000000,4.000000,4.000000,4.000000,4.000000,4.000000,4.000000,4.000000,4.000000,100.000000,,,,,,,,,,,,,,,,,,,,,,,,,,,,
1703407769.462226,1703407769.462414,83.000000,0.000000,4231.153809,4169.743652,4286.410156,4248.589844,4169.615234,4174.743652,4135.769043,4165.641113,4171.153809,4169.743652,4610.897461,4471.666504,4389.358887,4520.769043,6097.000000,4.000000,75.000000,,,,0.000000,4.000000,4.000000,4.000000,4.000000,4.000000,4.000000,4.000000,4.000000,4.000000,4.000000,4.000000,4.000000,4.000000,4.000000,100.000000,,,,,,,,,,,,,,,,,,,,,,,,,,,,
1703407769.470034,1703407769.470222,84.000000,0.000000,4230.512695,4168.077148,4287.307617,4247.307617,4170.384766,4175.897461,4134.615234,4166.282227,4169.358887,4171.538574,4617.820313,4474.487305,4394.230957,4518.974121,6604.000000,4.000000,75.000000,,,,0.000000,4.000000,4.000000,4.000000,4.000000,4.000000,4.000000,4.000000,4.000000,4.000000,4.000000,4.000000,4.000000,4.000000,4.000000,100.000000,,,,,,,,,,,,,,,,,21.000000,0.000000,0.726168,-0.155701,-0.662842,-0.095276,0.981565,-0.098645,0.062508,-14.926345,-42.067024,65.566200
1703407769.477842,1703407769.477930,85.000000,0.000000,4218.846191,4166.538574,4284.230957,4244.615234,4166.153809,4173.846191,4137.307617,4154.487305,4154.615234,4170.641113,4616.410156,4465.512695,4386.025879,4511.666504,7182.000000,4.000000,75.000000,,,,0.000000,4.000000,4.000000,4.000000,4.000000,4.000000,4.000000,4.000000,4.000000,4.000000,4.000000,4.000000,4.000000,4.000000,4.000000,100.000000,,,,,,,,,,,,,,,,,,,,,,,,,,,,
1703407769.485650,1703407769.485838,86.000000,0.000000,4222.436035,4168.717773,4285.000000,4245.897461,4170.000000,4172.563965,4138.846191,4152.820313,4152.436035,4163.461426,4608.461426,4459.743652,4379.358887,4505.128418,5911.000000,4.000000,75.000000,,,,0.000000,4.000000,4.000000,4.000000,4.000000,4.000000,4.000000,4.000000,4.000000,4.000000,4.000000,4.000000,4.000000,4.000000,4.000000,100.000000,,,,,,,,,,,,,,,,,,,,,,,,,,,,
1703407769.493458,1703407769.493646,87.000000,0.000000,4223.846191,4171.282227,4291.410156,4250.512695,4171.282227,4171.538574,4134.743652,4154.615234,4157.051270,4164.102539,4603.461426,4460.897461,4382.436035,4497.563965,6097.000000,4.000000,75.000000,,,,0.000000,4.000000,4.000000,4.000000,4.000000,4.000000,4.000000,4.000000,4.000000,4.000000,4.000000,4.000000,4.000000,4.000000,4.000000,100.000000,1.000000,100.000000,4.000000,4.000000,4.000000,4.000000,4.000000,4.000000,4.000000,4.000000,4.000000,4.000000,4.000000,4.000000,4.000000,4.000000,,,,,,,,,,,,
1703407769.501266,1703407769.501554,88.000000,0.000000,4214.743652,4171.153809,4292.179688,4250.000000,4168.333496,4169.615234,4133.205078,4146.538574,4151.794922,4169.358887,4606.922852,4460.000000,4384.615234,4495.897461,6604.000000,4.000000,75.000000,,,,0.000000,4.000000,4.000000,4.000000,4.000000,4.000000,4.000000,4.000000,4.000000,4.000000,4.000000,4.000000,4.000000,4.000000,4.000000,100.000000,,,,,,,,,,,,,,,,,22.000000,0.000000,0.726213,-0.155640,-0.662842,-0.095032,1.013307,-0.108900,0.077646,-14.833711,-42.010319,65.509575
1703407769.509074,1703407769.509362,89.000000,0.000000,4218.333496,4170.000000,4288.077148,4247.179688,4171.025879,4170.384766,4137.179688,4147.563965,4150.897461,4169.102539,4615.769043,4460.000000,4384.102539,4500.512695,7182.000000,4.000000,75.000000,,,,0.000000,4.000000,4.000000,4.000000,4.000000,4.000000,4.000000,4.000000,4.000000,4.000000,4.000000,4.000000,4.000000,4.000000,4.000000,100.000000,,,,,,,,,,,,,,,,,,,,,,,,,,,,
1703407769.516882,1703407769.517270,90.000000,0.000000,4223.461426,4174.358887,4289.487305,4248.077148,4170.384766,4172.179688,4139.487305,4154.358887,4163.205078,4172.307617,4619.487305,4462.436035,4383.205078,4496.153809,5911.000000,4.000000,75.000000,,,,0.000000,4.000000,4.000000,4.000000,4.000000,4.000000,4.000000,4.000000,4.000000,4.000000,4.000000,4.000000,4.000000,4.000000,4.000000,100.000000,,,,,,,,,,,,,,,,,,,,,,,,,,,,
1703407769.524691,1703407769.525079,91.000000,0.000000,4216.410156,4181.282227,4293.205078,4245.641113,4170.128418,4171.153809,4141.794922,4150.641113,4166.153809,4172.436035,4611.410156,4458.205078,4379.358887,4484.615234,6097.000000,4.000000,75.000000,,,,0.000000,4.000000,4.000000,4.000000,4.000000,4.000000,4.000000,4.000000,4.000000,4.000000,4.000000,4.000000,4.000000,4.000000,4.000000,100.000000,,,,,,,,,,,,,,,,,,,,,,,,,,,,
1703407769.532498,1703407769.532986,92.000000,0.000000,4215.000000,4177.820313,4290.769043,4242.051270,4174.487305,4171.025879,4145.641113,4148.717773,4155.641113,4161.410156,4602.307617,4449.615234,4374.102539,4478.333496,6604.000000,4.000000,75.000000,,,,0.000000,4.000000,4.000000,4.000000,4.000000,4.000000,4.000000,4.000000,4.000000,4.000000,4.000000,4.000000,4.000000,4.000000,4.000000,100.000000,,,,,,,,,,,,,,,,,23.000000,0.000000,0.726216,-0.155518,-0.662842,-0.095215,0.972287,-0.087413,0.080576,-14.800340,-41.925957,65.475288
1703407769.540306,1703407769.540794,93.000000,0.000000,4219.102539,4172.051270,4287.179688,4244.743652,4176.410156,4173.205078,4145.897461,4153.589844,4152.051270,4154.487305,4600.897461,4447.179688,4372.436035,4474.358887,7182.000000,4.000000,75.000000,,,,0.000000,4.000000,4.000000,4.000000,4.000000,4.000000,4.000000,4.000000,4.000000,4.000000,4.000000,4.000000,4.000000,4.000000,4.000000,100.000000,,,,,,,,,,,,,,,,,,,,,,,,,,,,
1703407769.548115,1703407769.548702,94.000000,0.000000,4212.563965,4171.666504,4282.051270,4246.922852,4169.615234,4170.256348,4140.897461,4153.077148,4155.897461,4157.436035,4598.846191,4447.436035,4372.307617,4471.922852,5911.000000,4.000000,75.000000,,,,0.000000,4.000000,4.000000,4.000000,4.000000,4.000000,4.000000,4.000000,4.000000,4.000000,4.000000,4.000000,4.000000,4.000000,4.000000,100.000000,,,,,,,,,,,,,,,,,,,,,,,,,,,,
1703407769.555923,1703407769.556510,95.000000,0.000000,4208.333496,4172.307617,4277.820313,4245.128418,4168.461426,4166.282227,4139.102539,4152.051270,4158.333496,4163.461426,4596.410156,4444.487305,4371.410156,4476.410156,6097.000000,4.000000,75.000000,,,,0.000000,4.000000,4.000000,4.000000,4.000000,4.000000,4.000000,4.000000,4.000000,4.000000,4.000000,4.000000,4.000000,4.000000,4.000000,100.000000,,,,,,,,,,,,,,,,,,,,,,,,,,,,
1703407769.563731,1703407769.564218,96.000000,0.000000,4215.641113,4174.743652,4279.871582,4246.410156,4177.307617,4166.538574,4146.025879,4163.461426,4165.897461,4171.538574,4605.769043,4449.615234,4377.307617,4490.769043,6604.000000,4.000000,75.000000,,,,0.000000,4.000000,4.000000,4.000000,4.000000,4.000000,4.000000,4.000000,4.000000,4.000000,4.000000,4.000000,4.000000,4.000000,4.000000,100.000000,,,,,,,,,,,,,,,,,24.000000,0.000000,0.726113,-0.155212,-0.662964,-0.095642,0.973263,-0.091320,0.083018,-14.770306,-41.850025,65.394424
1703407769.571539,1703407769.572026,97.000000,0.000000,4217.563965,4177.179688,4282.820313,4248.846191,4174.230957,4167.820313,4148.846191,4169.358887,4174.230957,4175.000000,4613.846191,4456.538574,4385.384766,4497.051270,7182.000000,4.000000,75.000000,,,,0.000000,4.000000,4.000000,4.000000,4.000000,4.000000,4.000000,4.000000,4.000000,4.000000,4.000000,4.000000,4.000000,4.000000,4.000000,100.000000,,,,,,,,,,,,,,,,,,,,,,,,,,,,
1703407769.579347,1703407769.579734,98.000000,0.000000,4209.615234,4173.717773,4281.794922,4247.051270,4171.153809,4167.820313,4145.128418,4157.948730,4172.051270,4171.025879,4607.051270,4449.743652,4383.589844,4476.282227,5911.000000,4.000000,75.000000,,,,0.000000,4.000000,4.000000,4.000000,4.000000,4.000000,4.000000,4.000000,4.000000,4.000000,4.000000,4.000000,4.000000,4.000000,4.000000,100.000000,,,,,,,,,,,,,,,,,,,,,,,,,,,,
1703407769.587155,1703407769.587542,99.000000,0.000000,4197.948730,4171.282227,4277.820313,4243.333496,4182.948730,4168.461426,4146.794922,4150.128418,4162.692383,4169.102539,4602.820313,4440.512695,4376.153809,4454.871582,6097.000000,4.000000,75.000000,,,,0.000000,4.000000,4.000000,4.000000,4.000000,4.000000,4.000000,4.000000,4.000000,4.000000,4.000000,4.000000,4.000000,4.000000,4.000000,100.000000,,,,,,,,,,,,,,,,,,,,,,,,,,,,
1703407769.594963,1703407769.595250,100.000000,0.000000,4190.512695,4172.051270,4272.563965,4243.461426,4189.871582,4170.512695,4155.128418,4152.820313,4156.410156,4171.282227,4603.974121,4442.692383,4373.846191,4452.820313,6604.000000,4.000000,75.000000,,,,0.000000,4.000000,4.000000,4.000000,4.000000,4.000000,4.000000,4.000000,4.000000,4.000000,4.000000,4.000000,4.000000,4.000000,4.000000,100.000000,,,,,,,,,,,,,,,,,25.000000,0.000000,0.726219,-0.154602,-0.662903,-0.096252,0.984495,-0.089855,0.081065,-14.576609,-41.781689,65.404984
1703407769.602771,1703407769.603058,101.000000,0.000000,4196.538574,4169.871582,4270.769043,4245.128418,4183.974121,4170.512695,4153.717773,4152.820313,4157.820313,4168.333496,4601.794922,4445.641113,4375.512695,4460.512695,7182.000000,4.000000,75.000000,,,,0.000000,4.000000,4.000000,4.000000,4.000000,4.000000,4.000000,4.000000,4.000000,4.000000,4.000000,4.000000,4.000000,4.000000,4.000000,100.000000,,,,,,,,,,,,,,,,,,,,,,,,,,,,
1703407769.610579,1703407769.610766,102.000000,0.000000,4200.128418,4167.307617,4271.922852,4240.512695,4179.743652,4164.615234,4150.000000,4151.922852,4162.179688,4164.358887,4600.512695,4441.538574,4373.077148,4456.794922,5911.000000,4.000000,75.000000,,,,0.000000,4.000000,4.000000,4.000000,4.000000,4.000000,4.000000,4.000000,4.000000,4.000000,4.000000,4.000000,4.000000,4.000000,4.000000,100.000000,,,,,,,,,,,,,,,,,,,,,,,,,,,,
1703407769.618387,1703407769.618675,103.000000,0.000000,4186.282227,4167.436035,4269.615234,4234.358887,4176.794922,4157.692383,4155.256348,4152.563965,4158.461426,4165.000000,4600.000000,4439.871582,4369.358887,4439.230957,6097.000000,4.000000,75.000000,,,,0.000000,4.000000,4.000000,4.000000,4.000000,4.000000,4.000000,4.000000,4.000000,4.000000,4.000000,4.000000,4.000000,4.000000,4.000000,100.000000,,,,,,,,,,,,,,,,,,,,,,,,,,,,
1703407769.626195,1703407769.626483,104.000000,0.000000,4186.282227,4166.153809,4268.846191,4232.948730,4166.794922,4159.358887,4158.333496,4147.436035,4152.179688,4163.974121,4595.769043,4440.512695,4368.974121,4439.743652,6604.000000,4.000000,75.000000,,,,0.000000,4.000000,4.000000,4.000000,4.000000,4.000000,4.000000,4.000000,4.000000,4.000000,4.000000,4.000000,4.000000,4.000000,4.000000,100.000000,,,,,,,,,,,,,,,,,26.000000,0.000000,0.726238,-0.154358,-0.662903,-0.096497,0.979123,-0.100110,0.074228,-14.468947,-41.786854,65.364487
1703407769.634003,1703407769.634391,105.000000,0.000000,4203.461426,4167.692383,4278.205078,4234.743652,4168.077148,4167.563965,4160.897461,4147.820313,4156.794922,4162.692383,4597.948730,4444.358887,4373.077148,4468.589844,7182.000000,4.000000,75.000000,,,,0.000000,4.000000,4.000000,4.000000,4.000000,4.000000,4.000000,4.000000,4.000000,4.000000,4.000000,4.000000,4.000000,4.000000,4.000000,100.000000,,,,,,,,,,,,,,,,,,,,,,,,,,,,
1703407769.641811,1703407769.642199,106.000000,0.000000,4208.205078,4178.333496,4289.102539,4240.512695,4183.461426,4169.487305,4165.512695,4154.230957,4165.000000,4167.307617,4608.205078,4453.077148,4383.333496,4491.666504,5911.000000,4.000000,75.000000,,,,0.000000,4.000000,4.000000,4.000000,4.000000,4.000000,4.000000,4.000000,4.000000,4.000000,4.000000,4.000000,4.000000,4.000000,4.000000,100.000000,,,,,,,,,,,,,,,,,,,,,,,,,,,,
1703407769.649619,1703407769.650107,107.000000,0.000000,4213.205078,4184.743652,4287.436035,4249.102539,4182.307617,4167.051270,4168.077148,4153.589844,4167.436035,4171.538574,4611.922852,4460.256348,4390.128418,4486.794922,6097.000000,4.000000,75.000000,,,,0.000000,4.000000,4.000000,4.000000,4.000000,4.000000,4.000000,4.000000,4.000000,4.000000,4.000000,4.000000,4.000000,4.000000,4.000000,100.000000,,,,,,,,,,,,,,,,,,,,,,,,,,,,
1703407769.657427,1703407769.657915,108.000000,0.000000,4221.922852,4181.025879,4284.743652,4251.153809,4168.846191,4167.436035,4166.794922,4155.512695,4167.948730,4169.615234,4607.692383,4462.436035,4385.641113,4475.769043,6604.000000,4.000000,75.000000,,,,0.000000,4.000000,4.000000,4.000000,4.000000,4.000000,4.000000,4.000000,4.000000,4.000000,4.000000,4.000000,4.000000,4.000000,4.000000,100.000000,,,,,,,,,,,,,,,,,27.000000,0.000000,0.726161,-0.154419,-0.662964,-0.096558,0.996704,-0.088390,0.072763,-14.322053,-41.674835,65.561371
1703407769.665235,1703407769.665824,109.000000,0.000000,4212.948730,4177.820313,4291.153809,4246.025879,4176.794922,4168.717773,4166.666504,4163.717773,4168.717773,4169.102539,4605.000000,4457.948730,4380.384766,4474.487305,7182.000000,4.000000,75.000000,,,,0.000000,4.000000,4.000000,4.000000,4.000000,4.000000,4.000000,4.000000,4.000000,4.000000,4.000000,4.000000,4.000000,4.000000,4.000000,100.000000,,,,,,,,,,,,,,,,,,,,,,,,,,,,
1703407769.673043,1703407769.673632,110.000000,0.000000,4200.641113,4177.179688,4291.282227,4245.897461,4191.922852,4167.948730,4168.846191,4162.179688,4170.000000,4172.436035,4602.563965,4450.128418,4382.436035,4470.000000,5911.000000,4.000000,75.000000,,,,0.000000,4.000000,4.000000,4.000000,4.000000,4.000000,4.000000,4.000000,4.000000,4.000000,4.000000,4.000000,4.000000,4.000000,4.000000,100.000000,,,,,,,,,,,,,,,,,,,,,,,,,,,,
1703407769.680852,1703407769.681540,111.000000,0.000000,4201.538574,4173.205078,4283.846191,4247.692383,4187.051270,4166.282227,4168.461426,4152.948730,4166.025879,4171.410156,4597.692383,4444.230957,4380.000000,4458.077148,6097.000000,4.000000,75.000000,,,,0.000000,4.000000,4.000000,4.000000,4.000000,4.000000,4.000000,4.000000,4.000000,4.000000,4.000000,4.000000,4.000000,4.000000,4.000000,100.000000,,,,,,,,,,,,,,,,,,,,,,,,,,,,
1703407769.688660,1703407769.689348,112.000000,0.000000,4205.128418,4168.717773,4281.666504,4241.153809,4177.436035,4168.717773,4167.948730,4154.743652,4159.230957,4167.179688,4597.436035,4447.051270,4374.743652,4461.410156,6604.000000,4.000000,75.000000,,,,0.000000,4.000000,4.000000,4.000000,4.000000,4.000000,4.000000,4.000000,4.000000,4.000000,4.000000,4.000000,4.000000,4.000000,4.000000,100.000000,,,,,,,,,,,,,,,,,28.000000,0.000000,0.726222,-0.154358,-0.662903,-0.096619,0.972775,-0.078135,0.077646,-14.456514,-41.740685,65.621902
1703407769.696468,1703407769.697256,113.000000,0.000000,4202.692383,4169.102539,4283.846191,4235.256348,4174.615234,4167.692383,4169.487305,4159.102539,4158.205078,4166.410156,4600.769043,4450.641113,4377.820313,4474.230957,7182.000000,4.000000,75.000000,,,,0.000000,4.000000,4.000000,4.000000,4.000000,4.000000,4.000000,4.000000,4.000000,4.000000,4.000000,4.000000,4.000000,4.000000,4.000000,100.000000,,,,,,,,,,,,,,,,,,,,,,,,,,,,
1703407769.704276,1703407769.705064,114.000000,0.000000,4192.179688,4170.512695,4283.717773,4237.820313,4171.153809,4157.948730,4170.256348,4157.948730,4164.358887,4169.230957,4600.384766,4445.512695,4377.820313,4460.512695,5911.000000,4.000000,75.000000,,,,0.000000,4.000000,4.000000,4.000000,4.000000,4.000000,4.000000,4.000000,4.000000,4.000000,4.000000,4.000000,4.000000,4.000000,4.000000,100.000000,,,,,,,,,,,,,,,,,,,,,,,,,,,,
1703407769.712084,1703407769.712972,115.000000,0.000000,4188.333496,4172.051270,4284.358887,4243.461426,4174.102539,4157.948730,4169.102539,4159.615234,4168.589844,4171.025879,4601.410156,4443.846191,4372.563965,4438.974121,6097.000000,4.000000,75.000000,,,,0.000000,4.000000,4.000000,4.000000,4.000000,4.000000,4.000000,4.000000,4.000000,4.000000,4.000000,4.000000,4.000000,4.000000,4.000000,100.000000,,,,,,,,,,,,,,,,,,,,,,,,,,,,
1703407769.719892,1703407769.720780,116.000000,0.000000,4201.025879,4171.410156,4285.769043,4245.128418,4172.307617,4168.077148,4169.743652,4159.358887,4166.666504,4168.205078,4601.153809,4450.384766,4375.512695,4443.589844,6604.000000,4.000000,75.000000,,,,0.000000,4.000000,4.000000,4.000000,4.000000,4.000000,4.000000,4.000000,4.000000,4.000000,4.000000,4.000000,4.000000,4.000000,4.000000,100.000000,,,,,,,,,,,,,,,,,29.000000,0.000000,0.726325,-0.154175,-0.662842,-0.096558,0.997680,-0.097668,0.078135,-14.577529,-41.916618,65.643044
1703407769.727700,1703407769.728688,117.000000,0.000000,4212.820313,4170.256348,4286.538574,4241.410156,4167.563965,4169.615234,4174.102539,4158.461426,4167.948730,4167.820313,4599.358887,4454.871582,4380.384766,4460.512695,7182.000000,4.000000,75.000000,,,,0.000000,4.000000,4.000000,4.000000,4.000000,4.000000,4.000000,4.000000,4.000000,4.000000,4.000000,4.000000,4.000000,4.000000,4.000000,100.000000,,,,,,,,,,,,,,,,,,,,,,,,,,,,
1703407769.735508,1703407769.736496,118.000000,0.000000,4212.948730,4174.871582,4293.205078,4238.333496,4181.153809,4167.692383,4180.897461,4167.051270,4178.461426,4174.871582,4611.410156,4462.820313,4385.000000,4470.769043,5911.000000,4.000000,75.000000,,,,0.000000,4.000000,4.000000,4.000000,4.000000,4.000000,4.000000,4.000000,4.000000,4.000000,4.000000,4.000000,4.000000,4.000000,4.000000,100.000000,,,,,,,,,,,,,,,,,,,,,,,,,,,,
1703407769.743316,1703407769.744204,119.000000,0.000000,4217.692383,4182.307617,4297.436035,4244.487305,4185.000000,4171.794922,4186.282227,4175.128418,4187.307617,4185.384766,4625.897461,4476.538574,4393.077148,4470.512695,6097.000000,4.000000,75.000000,,,,0.000000,4.000000,4.000000,4.000000,4.000000,4.000000,4.000000,4.000000,4.000000,4.000000,4.000000,4.000000,4.000000,4.000000,4.000000,100.000000,,,,,,,,,,,,,,,,,,,,,,,,,,,,
1703407769.751124,1703407769.752012,120.000000,0.000000,4224.230957,4184.102539,4295.128418,4252.179688,4173.205078,4171.153809,4182.051270,4175.128418,4187.051270,4190.641113,4624.102539,4479.615234,4397.948730,4472.179688,6604.000000,4.000000,75.000000,,,,0.000000,4.000000,4.000000,4.000000,4.000000,4.000000,4.000000,4.000000,4.000000,4.000000,4.000000,4.000000,4.000000,4.000000,4.000000,100.000000,,,,,,,,,,,,,,,,,30.000000,0.000000,0.726423,-0.154236,-0.662720,-0.096558,0.976682,-0.093761,0.079111,-14.669777,-41.891621,65.595406
1703407769.758932,1703407769.759720,121.000000,0.000000,4210.769043,4179.615234,4288.974121,4245.897461,4178.717773,4165.769043,4175.641113,4176.282227,4184.102539,4182.820313,4617.692383,4470.641113,4392.692383,4481.025879,7182.000000,4.000000,75.000000,,,,0.000000,4.000000,4.000000,4.000000,4.000000,4.000000,4.000000,4.000000,4.000000,4.000000,4.000000,4.000000,4.000000,4.000000,4.000000,100.000000,,,,,,,,,,,,,,,,,,,,,,,,,,,,
1703407769.766740,1703407769.767528,122.000000,0.000000,4193.077148,4175.897461,4279.487305,4233.846191,4186.282227,4167.563965,4181.282227,4177.563965,4179.743652,4171.794922,4614.487305,4461.153809,4382.307617,4474.358887,5911.000000,4.000000,75.000000,,,,0.000000,4.000000,4.000000,4.000000,4.000000,4.000000,4.000000,4.000000,4.000000,4.000000,4.000000,4.000000,4.000000,4.000000,4.000000,100.000000,,,,,,,,,,,,,,,,,,,,,,,,,,,,
1703407769.774548,1703407769.775236,123.000000,0.000000,4197.307617,4172.436035,4276.153809,4233.589844,4177.692383,4171.153809,4183.333496,4173.333496,4171.922852,4167.948730,4606.025879,4451.666504,4373.205078,4453.077148,6097.000000,4.000000,75.000000,,,,0.000000,4.000000,4.000000,4.000000,4.000000,4.000000,4.000000,4.000000,4.000000,4.000000,4.000000,4.000000,4.000000,4.000000,4.000000,100.000000,,,,,,,,,,,,,,,,,,,,,,,,,,,,
1703407769.782356,1703407769.783044,124.000000,0.000000,4205.128418,4168.077148,4280.897461,4236.410156,4171.922852,4165.512695,4174.871582,4165.641113,4169.487305,4169.615234,4597.563965,4444.487305,4368.077148,4441.666504,6604.000000,4.000000,75.000000,,,,0.000000,4.000000,4.000000,4.000000,4.000000,4.000000,4.000000,4.000000,4.000000,4.000000,4.000000,4.000000,4.000000,4.000000,4.000000,100.000000,,,,,,,,,,,,,,,,,31.000000,0.000000,0.726466,-0.154297,-0.662659,-0.096558,0.999145,-0.085460,0.065926,-14.652799,-41.952461,65.719200
1703407769.790164,1703407769.790752,125.000000,0.000000,4194.230957,4169.230957,4282.820313,4234.871582,4172.436035,4156.922852,4170.897461,4157.179688,4170.641113,4169.102539,4596.025879,4446.538574,4364.615234,4437.179688,7182.000000,4.000000,75.000000,,,,0.000000,4.000000,4.000000,4.000000,4.000000,4.000000,4.000000,4.000000,4.000000,4.000000,4.000000,4.000000,4.000000,4.000000,4.000000,100.000000,,,,,,,,,,,,,,,,,,,,,,,,,,,,
1703407769.797972,1703407769.798560,126.000000,0.000000,4189.230957,4173.461426,4281.025879,4239.871582,4174.358887,4157.692383,4175.384766,4157.436035,4166.794922,4166.538574,4599.871582,4452.692383,4365.256348,4432.436035,5911.000000,4.000000,75.000000,,,,0.000000,4.000000,4.000000,4.000000,4.000000,4.000000,4.000000,4.000000,4.000000,4.000000,4.000000,4.000000,4.000000,4.000000,4.000000,100.000000,,,,,,,,,,,,,,,,,,,,,,,,,,,,
1703407769.805780,1703407769.806268,127.000000,0.000000,4200.769043,4175.128418,4287.179688,4242.948730,4180.000000,4160.897461,4180.128418,4167.051270,4166.666504,4169.487305,4608.717773,4461.282227,4373.589844,4439.358887,75.000000,4.000000,75.000000,,,,0.000000,4.000000,4.000000,4.000000,4.000000,4.000000,4.000000,4.000000,4.000000,4.000000,4.000000,4.000000,4.000000,4.000000,4.000000,100.000000,,,,,,,,,,,,,,,,,,,,,,,,,,,,
1703407769.813588,1703407769.814076,0.000000,0.000000,4204.615234,4174.102539,4292.436035,4235.128418,4178.846191,4156.922852,4181.025879,4172.179688,4171.922852,4172.820313,4610.641113,4463.461426,4375.384766,4445.769043,4886.000000,4.000000,75.000000,,,,0.000000,4.000000,4.000000,4.000000,4.000000,4.000000,4.000000,4.000000,4.000000,4.000000,4.000000,4.000000,4.000000,4.000000,4.000000,100.000000,,,,,,,,,,,,,,,,,0.000000,0.000000,0.726453,-0.154358,-0.662659,-0.096558,0.984007,-0.076670,0.073251,-14.704185,-41.940548,65.730614
1703407769.821396,1703407769.821784,1.000000,0.000000,4200.000000,4172.179688,4281.025879,4236.794922,4174.743652,4154.615234,4180.000000,4166.025879,4167.307617,4167.948730,4595.128418,4450.384766,4362.820313,4441.794922,5427.000000,4.000000,75.000000,,,,0.000000,4.000000,4.000000,4.000000,4.000000,4.000000,4.000000,4.000000,4.000000,4.000000,4.000000,4.000000,4.000000,4.000000,4.000000,100.000000,,,,,,,,,,,,,,,,,,,,,,,,,,,,
1703407769.829204,1703407769.829592,2.000000,0.000000,4200.000000,4171.794922,4270.000000,4248.589844,4173.333496,4157.051270,4181.794922,4157.948730,4157.179688,4156.410156,4584.871582,4441.410156,4355.384766,4441.025879,5225.000000,4.000000,75.000000,,,,0.000000,4.000000,4.000000,4.000000,4.000000,4.000000,4.000000,4.000000,4.000000,4.000000,4.000000,4.000000,4.000000,4.000000,4.000000,100.000000,,,,,,,,,,,,,,,,,,,,,,,,,,,,
1703407769.837012,1703407769.837300,3.000000,0.000000,4201.025879,4172.563965,4275.769043,4247.948730,4170.769043,4155.641113,4186.538574,4159.102539,4160.256348,4155.769043,4592.563965,4449.871582,4360.641113,4449.743652,5297.000000,4.000000,75.000000,,,,0.000000,4.000000,4.000000,4.000000,4.000000,4.000000,4.000000,4.000000,4.000000,4.000000,4.000000,4.000000,4.000000,4.000000,4.000000,100.000000,,,,,,,,,,,,,,,,,,,,,,,,,,,,
1703407769.844821,1703407769.845108,4.000000,0.000000,4199.871582,4170.769043,4285.769043,4237.820313,4173.077148,4154.743652,4185.897461,4166.794922,4168.077148,4165.384766,4600.641113,4460.384766,4364.615234,4458.974121,5083.000000,4.000000,75.000000,,,,0.000000,4.000000,4.000000,4.000000,4.000000,4.000000,4.000000,4.000000,4.000000,4.000000,4.000000,4.000000,4.000000,4.000000,4.000000,100.000000,,,,,,,,,,,,,,,,,1.000000,0.000000,0.726463,-0.154236,-0.662659,-0.096680,0.982542,-0.083506,0.069833,-14.650434,-41.829826,65.790886
1703407769.852629,1703407769.852816,5.000000,0.000000,4199.487305,4169.358887,4290.769043,4232.948730,4176.538574,4161.538574,4183.974121,4169.743652,4167.563965,4168.077148,4599.871582,4461.666504,4363.461426,4464.615234,4545.000000,4.000000,75.000000,,,,0.000000,4.000000,4.000000,4.000000,4.000000,4.000000,4.000000,4.000000,4.000000,4.000000,4.000000,4.000000,4.000000,4.000000,4.000000,100.000000,,,,,,,,,,,,,,,,,,,,,,,,,,,,
1703407769.860437,1703407769.860724,6.000000,0.000000,4201.538574,4174.230957,4297.436035,4237.692383,4176.922852,4170.256348,4188.974121,4168.077148,4167.948730,4166.025879,4601.410156,4462.436035,4366.410156,4462.692383,3121.000000,4.000000,75.000000,,,,0.000000,4.000000,4.000000,4.000000,4.000000,4.000000,4.000000,4.000000,4.000000,4.000000,4.000000,4.000000,4.000000,4.000000,4.000000,100.000000,,,,,,,,,,,,,,,,,,,,,,,,,,,,
1703407769.868245,1703407769.868533,7.000000,0.000000,4201.794922,4177.179688,4296.410156,4241.282227,4182.563965,4167.436035,4191.410156,4167.051270,4164.358887,4163.205078,4602.692383,4462.948730,4369.743652,4448.846191,5048.000000,4.000000,75.000000,,,,0.000000,4.000000,4.000000,4.000000,4.000000,4.000000,4.000000,4.000000,4.000000,4.000000,4.000000,4.000000,4.000000,4.000000,4.000000,100.000000,,,,,,,,,,,,,,,,,,,,,,,,,,,,
1703407769.876053,1703407769.876441,8.000000,0.000000,4193.077148,4171.410156,4277.307617,4236.025879,4187.179688,4160.512695,4187.307617,4167.051270,4161.025879,4164.871582,4601.153809,4460.384766,4370.512695,4445.000000,4829.000000,4.000000,75.000000,,,,0.000000,4.000000,4.000000,4.000000,4.000000,4.000000,4.000000,4.000000,4.000000,4.000000,4.000000,4.000000,4.000000,4.000000,4.000000,100.000000,,,,,,,,,,,,,,,,,2.000000,0.000000,0.726441,-0.154114,-0.662720,-0.096619,0.981565,-0.084483,0.078135,-14.668724,-41.796844,65.828461
1703407769.883861,1703407769.884249,9.000000,0.000000,4192.051270,4168.974121,4266.025879,4236.922852,4182.179688,4165.000000,4188.077148,4169.871582,4170.897461,4172.820313,4608.205078,4462.307617,4376.025879,4461.538574,5110.000000,4.000000,75.000000,,,,0.000000,4.000000,4.000000,4.000000,4.000000,4.000000,4.000000,4.000000,4.000000,4.000000,4.000000,4.000000,4.000000,4.000000,4.000000,100.000000,,,,,,,,,,,,,,,,,,,,,,,,,,,,
1703407769.891669,1703407769.892157,10.000000,0.000000,4200.128418,4173.589844,4272.051270,4242.820313,4175.769043,4170.641113,4193.205078,4172.820313,4179.102539,4176.922852,4617.692383,4465.897461,4378.205078,4463.205078,5911.000000,4.000000,75.000000,,,,0.000000,4.000000,4.000000,4.000000,4.000000,4.000000,4.000000,4.000000,4.000000,4.000000,4.000000,4.000000,4.000000,4.000000,4.000000,100.000000,,,,,,,,,,,,,,,,,,,,,,,,,,,,
1703407769.899477,1703407769.899965,11.000000,0.000000,4195.641113,4172.436035,4273.846191,4237.692383,4169.743652,4162.820313,4190.000000,4173.589844,4172.307617,4172.692383,4612.692383,4457.436035,4369.743652,4440.512695,6093.000000,4.000000,75.000000,,,,0.000000,4.000000,4.000000,4.000000,4.000000,4.000000,4.000000,4.000000,4.000000,4.000000,4.000000,4.000000,4.000000,4.000000,4.000000,100.000000,,,,,,,,,,,,,,,,,,,,,,,,,,,,
1703407769.907285,1703407769.907873,12.000000,0.000000,4184.743652,4163.461426,4267.179688,4231.794922,4166.794922,4153.846191,4185.256348,4168.205078,4165.384766,4164.743652,4602.051270,4445.512695,4362.051270,4426.153809,6604.000000,4.000000,75.000000,,,,0.000000,4.000000,4.000000,4.000000,4.000000,4.000000,4.000000,4.000000,4.000000,4.000000,4.000000,4.000000,4.000000,4.000000,4.000000,100.000000,,,,,,,,,,,,,,,,,3.000000,0.000000,0.726472,-0.153931,-0.662720,-0.096680,0.993285,-0.088878,0.077158,-14.901852,-41.683826,65.778946
1703407769.915093,1703407769.915681,13.000000,0.000000,4185.000000,4160.641113,4267.563965,4234.487305,4173.077148,4155.512695,4186.922852,4161.025879,4166.538574,4162.307617,4602.948730,4448.461426,4358.974121,4432.948730,7175.000000,4.000000,75.000000,,,,0.000000,4.000000,4.000000,4.000000,4.000000,4.000000,4.000000,4.000000,4.000000,4.000000,4.000000,4.000000,4.000000,4.000000,4.000000,100.000000,,,,,,,,,,,,,,,,,,,,,,,,,,,,
1703407769.922901,1703407769.923589,14.000000,0.000000,4191.282227,4165.512695,4274.743652,4235.512695,4171.794922,4158.333496,4189.871582,4161.922852,4168.461426,4164.871582,4608.846191,4456.666504,4359.102539,4444.230957,5911.000000,4.000000,75.000000,,,,0.000000,4.000000,4.000000,4.000000,4.000000,4.000000,4.000000,4.000000,4.000000,4.000000,4.000000,4.000000,4.000000,4.000000,4.000000,100.000000,,,,,,,,,,,,,,,,,,,,,,,,,,,,
1703407769.930709,1703407769.931397,15.000000,0.000000,4197.820313,4168.974121,4280.128418,4233.333496,4157.820313,4157.563965,4189.487305,4165.000000,4169.230957,4166.922852,4606.666504,4457.820313,4364.743652,4444.615234,6093.000000,4.000000,75.000000,,,,0.000000,4.000000,4.000000,4.000000,4.000000,4.000000,4.000000,4.000000,4.000000,4.000000,4.000000,4.000000,4.000000,4.000000,4.000000,100.000000,,,,,,,,,,,,,,,,,,,,,,,,,,,,
1703407769.938517,1703407769.939105,16.000000,0.000000,4203.461426,4170.128418,4281.666504,4233.589844,4160.641113,4157.820313,4190.512695,4162.692383,4167.820313,4165.256348,4602.948730,4459.487305,4369.487305,4443.846191,0.000000,4.000000,75.000000,,,,0.000000,4.000000,4.000000,4.000000,4.000000,4.000000,4.000000,4.000000,4.000000,4.000000,4.000000,4.000000,4.000000,4.000000,4.000000,100.000000,,,,,,,,,,,,,,,,,4.000000,0.000000,0.726445,-0.153870,-0.662781,-0.096558,0.992797,-0.089366,0.067391,-14.928333,-41.615444,65.817719
1703407769.946325,1703407769.946913,17.000000,0.000000,4198.717773,4170.512695,4281.922852,4233.333496,4178.589844,4158.333496,4194.615234,4163.974121,4168.333496,4165.256348,4600.641113,4458.846191,4367.179688,4456.538574,0.000000,4.000000,75.000000,,,,0.000000,4.000000,4.000000,4.000000,4.000000,4.000000,4.000000,4.000000,4.000000,4.000000,4.000000,4.000000,4.000000,4.000000,4.000000,100.000000,,,,,,,,,,,,,,,,,,,,,,,,,,,,
1703407769.954133,1703407769.954621,18.000000,0.000000,4196.282227,4172.051270,4279.102539,4234.743652,4180.256348,4156.538574,4193.333496,4169.615234,4169.743652,4169.871582,4602.307617,4455.000000,4368.589844,4468.333496,0.000000,4.000000,75.000000,,,,0.000000,4.000000,4.000000,4.000000,4.000000,4.000000,4.000000,4.000000,4.000000,4.000000,4.000000,4.000000,4.000000,4.000000,4.000000,100.000000,,,,,,,,,,,,,,,,,,,,,,,,,,,,
1703407769.961941,1703407769.962429,19.000000,0.000000,4204.487305,4175.897461,4273.846191,4241.025879,4175.256348,4154.615234,4189.230957,4171.282227,4170.128418,4170.256348,4612.179688,4458.589844,4377.820313,4463.461426,0.000000,4.000000,75.000000,,,,0.000000,4.000000,4.000000,4.000000,4.000000,4.000000,4.000000,4.000000,4.000000,4.000000,4.000000,4.000000,4.000000,4.000000,4.000000,100.000000,,,,,,,,,,,,,,,,,,,,,,,,,,,,
1703407769.969749,1703407769.970137,20.000000,0.000000,4201.666504,4176.153809,4270.384766,4244.871582,4168.846191,4154.487305,4188.589844,4170.128418,4173.589844,4167.948730,4615.000000,4460.256348,4378.205078,4447.307617,0.000000,4.000000,75.000000,,,,0.000000,4.000000,4.000000,4.000000,4.000000,4.000000,4.000000,4.000000,4.000000,4.000000,4.000000,4.000000,4.000000,4.000000,4.000000,100.000000,,,,,,,,,,,,,,,,,5.000000,0.000000,0.726496,-0.153931,-0.662720,-0.096497,0.993285,-0.083506,0.076670,-14.885500,-41.703899,65.835945
1703407769.977558,1703407769.977945,21.000000,0.000000,4185.641113,4168.974121,4271.538574,4238.461426,4155.641113,4153.717773,4187.948730,4168.974121,4172.563965,4168.077148,4609.487305,4457.692383,4367.436035,4436.538574,0.000000,4.000000,75.000000,,,,0.000000,4.000000,4.000000,4.000000,4.000000,4.000000,4.000000,4.000000,4.000000,4.000000,4.000000,4.000000,4.000000,4.000000,4.000000,100.000000,,,,,,,,,,,,,,,,,,,,,,,,,,,,
1703407769.985366,1703407769.985653,22.000000,0.000000,4181.538574,4166.025879,4274.230957,4233.461426,4167.051270,4153.461426,4189.102539,4170.128418,4168.205078,4171.410156,4609.615234,4459.487305,4363.205078,4436.922852,0.000000,4.000000,75.000000,,,,0.000000,4.000000,4.000000,4.000000,4.000000,4.000000,4.000000,4.000000,4.000000,4.000000,4.000000,4.000000,4.000000,4.000000,4.000000,100.000000,,,,,,,,,,,,,,,,,,,,,,,,,,,,
1703407769.993173,1703407769.993461,23.000000,0.000000,4183.333496,4171.410156,4273.461426,4237.179688,4189.358887,4153.077148,4191.794922,4168.589844,4166.025879,4168.333496,4605.897461,4449.487305,4364.743652,4434.358887,0.000000,4.000000,75.000000,,,,0.000000,4.000000,4.000000,4.000000,4.000000,4.000000,4.000000,4.000000,4.000000,4.000000,4.000000,4.000000,4.000000,4.000000,4.000000,100.000000,1.000000,91.666664,4.000000,4.000000,4.000000,4.000000,4.000000,4.000000,3.000000,4.000000,4.000000,4.000000,4.000000,4.000000,4.000000,4.000000,,,,,,,,,,,,
1703407770.000982,1703407770.001169,24.000000,0.000000,4173.589844,4167.051270,4264.487305,4235.000000,4178.589844,4150.897461,4192.179688,4160.641113,4163.461426,4157.820313,4590.384766,4428.461426,4356.282227,4410.641113,0.000000,4.000000,75.000000,,,,0.000000,4.000000,4.000000,4.000000,4.000000,4.000000,4.000000,4.000000,4.000000,4.000000,4.000000,4.000000,4.000000,4.000000,4.000000,100.000000,,,,,,,,,,,,,,,,,6.000000,0.000000,0.726471,-0.153748,-0.662781,-0.096558,0.991332,-0.087901,0.067879,-14.896950,-41.650177,65.885689
1703407770.008790,1703407770.008977,25.000000,0.000000,4171.025879,4154.358887,4257.051270,4229.615234,4167.307617,4153.717773,4190.384766,4157.820313,4159.871582,4153.589844,4583.974121,4431.282227,4346.282227,4400.000000,0.000000,4.000000,75.000000,,,,0.000000,4.000000,4.000000,4.000000,4.000000,4.000000,4.000000,4.000000,4.000000,4.000000,4.000000,4.000000,4.000000,4.000000,4.000000,100.000000,,,,,,,,,,,,,,,,,,,,,,,,,,,,
1703407770.016598,1703407770.016685,26.000000,0.000000,4184.871582,4156.282227,4260.512695,4231.153809,4174.615234,4153.461426,4190.128418,4157.051270,4156.282227,4153.717773,4589.102539,4445.769043,4347.307617,4427.948730,0.000000,4.000000,75.000000,,,,0.000000,4.000000,4.000000,4.000000,4.000000,4.000000,4.000000,4.000000,4.000000,4.000000,4.000000,4.000000,4.000000,4.000000,4.000000,100.000000,,,,,,,,,,,,,,,,,,,,,,,,,,,,
1703407770.024406,1703407770.024593,27.000000,0.000000,4187.948730,4165.128418,4271.794922,4230.000000,4167.436035,4144.230957,4190.641113,4156.410156,4152.436035,4152.436035,4591.922852,4446.282227,4350.769043,4450.128418,0.000000,4.000000,75.000000,,,,0.000000,4.000000,4.000000,4.000000,4.000000,4.000000,4.000000,4.000000,4.000000,4.000000,4.000000,4.000000,4.000000,4.000000,4.000000,100.000000,,,,,,,,,,,,,,,,,,,,,,,,,,,,
1703407770.032214,1703407770.032402,28.000000,0.000000,4182.820313,4168.974121,4285.897461,4235.256348,4164.871582,4143.205078,4196.794922,4161.794922,4157.307617,4155.512695,4598.974121,4453.974121,4356.025879,4448.974121,0.000000,4.000000,75.000000,,,,0.000000,4.000000,4.000000,4.000000,4.000000,4.000000,4.000000,4.000000,4.000000,4.000000,4.000000,4.000000,4.000000,4.000000,4.000000,100.000000,,,,,,,,,,,,,,,,,7.000000,0.000000,0.726402,-0.153809,-0.662842,-0.096558,0.974240,-0.091808,0.089366,-14.840588,-41.551826,65.913788
1703407770.040022,1703407770.040310,29.000000,0.000000,4196.282227,4177.436035,4295.000000,4249.102539,4175.384766,4151.025879,4202.563965,4162.436035,4164.358887,4159.230957,4603.974121,4465.000000,4360.897461,4449.871582,0.000000,4.000000,75.000000,,,,0.000000,4.000000,4.000000,4.000000,4.000000,4.000000,4.000000,4.000000,4.000000,4.000000,4.000000,4.000000,4.000000,4.000000,4.000000,100.000000,,,,,,,,,,,,,,,,,,,,,,,,,,,,
1703407770.047830,1703407770.048118,30.000000,0.000000,4218.846191,4186.922852,4290.641113,4253.461426,4174.358887,4151.025879,4198.846191,4153.461426,4157.051270,4155.128418,4598.333496,4456.922852,4360.256348,4453.974121,0.000000,4.000000,75.000000,,,,0.000000,4.000000,4.000000,4.000000,4.000000,4.000000,4.000000,4.000000,4.000000,4.000000,4.000000,4.000000,4.000000,4.000000,4.000000,100.000000,,,,,,,,,,,,,,,,,,,,,,,,,,,,
1703407770.055638,1703407770.056026,31.000000,0.000000,4220.384766,4187.179688,4284.487305,4256.794922,4175.000000,4148.974121,4200.128418,4153.205078,4154.102539,4157.436035,4597.563965,4452.307617,4361.282227,4446.282227,0.000000,4.000000,75.000000,,,,0.000000,4.000000,4.000000,4.000000,4.000000,4.000000,4.000000,4.000000,4.000000,4.000000,4.000000,4.000000,4.000000,4.000000,4.000000,100.000000,,,,,,,,,,,,,,,,,,,,,,,,,,,,
1703407770.063446,1703407770.063834,32.000000,0.000000,4204.230957,4188.846191,4285.384766,4262.051270,4177.436035,4154.487305,4205.128418,4158.846191,4166.794922,4170.512695,4605.769043,4462.948730,4366.282227,4440.128418,0.000000,4.000000,75.000000,,,,0.000000,4.000000,4.000000,4.000000,4.000000,4.000000,4.000000,4.000000,4.000000,4.000000,4.000000,4.000000,4.000000,4.000000,4.000000,100.000000,,,,,,,,,,,,,,,,,8.000000,0.000000,0.726517,-0.153870,-0.662720,-0.096436,0.987425,-0.103528,0.080576,-14.773196,-41.679974,65.755737
1703407770.071254,1703407770.071742,33.000000,0.000000,4197.563965,4187.307617,4281.922852,4253.205078,4170.641113,4156.282227,4203.205078,4160.769043,4170.897461,4169.230957,4606.922852,4461.153809,4363.846191,4441.922852,0.000000,4.000000,75.000000,,,,0.000000,4.000000,4.000000,4.000000,4.000000,4.000000,4.000000,4.000000,4.000000,4.000000,4.000000,4.000000,4.000000,4.000000,4.000000,100.000000,,,,,,,,,,,,,,,,,,,,,,,,,,,,
1703407770.079062,1703407770.079551,34.000000,0.000000,4203.589844,4175.256348,4272.051270,4244.358887,4175.128418,4152.436035,4201.410156,4167.179688,4167.307617,4160.641113,4600.384766,4453.717773,4358.589844,4443.461426,0.000000,4.000000,75.000000,,,,0.000000,4.000000,4.000000,4.000000,4.000000,4.000000,4.000000,4.000000,4.000000,4.000000,4.000000,4.000000,4.000000,4.000000,4.000000,100.000000,,,,,,,,,,,,,,,,,,,,,,,,,,,,
1703407770.086870,1703407770.087458,35.000000,0.000000,4203.846191,4170.128418,4271.025879,4247.820313,4184.487305,4151.153809,4201.282227,4168.846191,4171.153809,4165.000000,4602.051270,4456.666504,4361.794922,4445.384766,0.000000,4.000000,75.000000,,,,0.000000,4.000000,4.000000,4.000000,4.000000,4.000000,4.000000,4.000000,4.000000,4.000000,4.000000,4.000000,4.000000,4.000000,4.000000,100.000000,,,,,,,,,,,,,,,,,,,,,,,,,,,,
1703407770.094678,1703407770.095266,36.000000,0.000000,4196.153809,4169.102539,4273.846191,4243.077148,4177.436035,4155.000000,4202.307617,4159.230957,4167.436035,4165.128418,4604.743652,4453.077148,4359.871582,4440.384766,0.000000,4.000000,75.000000,,,,0.000000,4.000000,4.000000,4.000000,4.000000,4.000000,4.000000,4.000000,4.000000,4.000000,4.000000,4.000000,4.000000,4.000000,4.000000,100.000000,,,,,,,,,,,,,,,,,9.000000,0.000000,0.726489,-0.154114,-0.662720,-0.096252,0.970333,-0.084483,0.073739,-14.812543,-41.661980,65.796829
1703407770.102486,1703407770.103174,37.000000,0.000000,4190.769043,4157.307617,4267.179688,4230.641113,4170.512695,4159.102539,4203.205078,4151.410156,4153.205078,4152.179688,4592.692383,4439.871582,4347.563965,4431.666504,0.000000,4.000000,75.000000,,,,0.000000,4.000000,4.000000,4.000000,4.000000,4.000000,4.000000,4.000000,4.000000,4.000000,4.000000,4.000000,4.000000,4.000000,4.000000,100.000000,,,,,,,,,,,,,,,,,,,,,,,,,,,,
1703407770.110294,1703407770.110982,38.000000,0.000000,4194.102539,4151.794922,4267.051270,4233.205078,4168.846191,4157.051270,4201.922852,4151.282227,4151.153809,4150.128418,4582.820313,4437.563965,4344.230957,4439.102539,0.000000,4.000000,75.000000,,,,0.000000,4.000000,4.000000,4.000000,4.000000,4.000000,4.000000,4.000000,4.000000,4.000000,4.000000,4.000000,4.000000,4.000000,4.000000,100.000000,,,,,,,,,,,,,,,,,,,,,,,,,,,,
1703407770.118102,1703407770.118790,39.000000,0.000000,4208.461426,4162.948730,4280.000000,4243.205078,4165.897461,4160.256348,4202.051270,4152.692383,4157.692383,4155.384766,4591.794922,4449.743652,4356.538574,4465.641113,0.000000,4.000000,75.000000,,,,0.000000,4.000000,4.000000,4.000000,4.000000,4.000000,4.000000,4.000000,4.000000,4.000000,4.000000,4.000000,4.000000,4.000000,4.000000,100.000000,,,,,,,,,,,,,,,,,,,,,,,,,,,,
1703407770.125910,1703407770.126598,40.000000,0.000000,4222.563965,4171.794922,4284.230957,4246.666504,4173.461426,4167.692383,4208.846191,4154.230957,4156.410156,4153.077148,4604.102539,4460.128418,4365.641113,4481.538574,0.000000,4.000000,75.000000,,,,0.000000,4.000000,4.000000,4.000000,4.000000,4.000000,4.000000,4.000000,4.000000,4.000000,4.000000,4.000000,4.000000,4.000000,4.000000,100.000000,,,,,,,,,,,,,,,,,10.000000,0.000000,0.726472,-0.154236,-0.662720,-0.096191,0.981077,-0.096691,0.073251,-14.614622,-41.779114,65.683815
1703407770.133718,1703407770.134306,41.000000,0.000000,4219.358887,4171.794922,4281.410156,4247.051270,4178.717773,4170.384766,4214.358887,4156.410156,4153.846191,4155.769043,4604.358887,4459.743652,4363.461426,4476.922852,0.000000,4.000000,75.000000,,,,0.000000,4.000000,4.000000,4.000000,4.000000,4.000000,4.000000,4.000000,4.000000,4.000000,4.000000,4.000000,4.000000,4.000000,4.000000,100.000000,,,,,,,,,,,,,,,,,,,,,,,,,,,,
1703407770.141527,1703407770.142114,42.000000,0.000000,4213.461426,4171.153809,4288.205078,4248.717773,4167.307617,4174.358887,4212.692383,4154.487305,4157.692383,4165.512695,4602.179688,4458.846191,4362.692383,4478.589844,0.000000,4.000000,75.000000,,,,0.000000,4.000000,4.000000,4.000000,4.000000,4.000000,4.000000,4.000000,4.000000,4.000000,4.000000,4.000000,4.000000,4.000000,4.000000,100.000000,,,,,,,,,,,,,,,,,,,,,,,,,,,,
1703407770.149335,1703407770.149822,43.000000,0.000000,4226.666504,4174.358887,4299.230957,4246.666504,4167.820313,4177.820313,4214.102539,4154.743652,4164.102539,4170.897461,4611.410156,4471.794922,4371.794922,4492.692383,0.000000,4.000000,75.000000,,,,0.000000,4.000000,4.000000,4.000000,4.000000,4.000000,4.000000,4.000000,4.000000,4.000000,4.000000,4.000000,4.000000,4.000000,4.000000,100.000000,,,,,,,,,,,,,,,,,,,,,,,,,,,,
1703407770.157143,1703407770.157630,44.000000,0.000000,4236.922852,4181.666504,4303.077148,4247.307617,4187.948730,4179.487305,4219.487305,4166.025879,4168.589844,4173.205078,4623.077148,4478.589844,4381.410156,4500.128418,0.000000,4.000000,75.000000,,,,0.000000,4.000000,4.000000,4.000000,4.000000,4.000000,4.000000,4.000000,4.000000,4.000000,4.000000,4.000000,4.000000,4.000000,4.000000,100.000000,,,,,,,,,,,,,,,,,11.000000,0.000000,0.726444,-0.153992,-0.662842,-0.095947,0.969845,-0.090831,0.069833,-14.636493,-41.667870,65.615433
1703407770.164951,1703407770.165338,45.000000,0.000000,4226.153809,4182.307617,4297.948730,4254.487305,4188.077148,4179.871582,4220.769043,4169.102539,4168.717773,4173.333496,4616.666504,4459.743652,4375.000000,4485.512695,0.000000,4.000000,75.000000,,,,0.000000,4.000000,4.000000,4.000000,4.000000,4.000000,4.000000,4.000000,4.000000,4.000000,4.000000,4.000000,4.000000,4.000000,4.000000,100.000000,,,,,,,,,,,,,,,,,,,,,,,,,,,,
1703407770.172759,1703407770.173146,46.000000,0.000000,4210.128418,4172.051270,4291.025879,4253.461426,4171.538574,4176.922852,4217.051270,4159.358887,4165.641113,4170.128418,4601.538574,4443.077148,4358.461426,4461.794922,0.000000,4.000000,75.000000,,,,0.000000,4.000000,4.000000,4.000000,4.000000,4.000000,4.000000,4.000000,4.000000,4.000000,4.000000,4.000000,4.000000,4.000000,4.000000,100.000000,,,,,,,,,,,,,,,,,,,,,,,,,,,,
1703407770.180567,1703407770.180854,47.000000,0.000000,4205.128418,4166.153809,4287.179688,4246.025879,4175.769043,4175.128418,4218.974121,4157.051270,4164.230957,4168.333496,4601.794922,4447.436035,4356.666504,4453.589844,0.000000,4.000000,75.000000,,,,0.000000,4.000000,4.000000,4.000000,4.000000,4.000000,4.000000,4.000000,4.000000,4.000000,4.000000,4.000000,4.000000,4.000000,4.000000,100.000000,,,,,,,,,,,,,,,,,,,,,,,,,,,,
1703407770.188375,1703407770.188662,48.000000,0.000000,4209.871582,4171.025879,4281.025879,4246.922852,4185.128418,4182.179688,4223.846191,4161.666504,4166.538574,4164.871582,4606.538574,4451.922852,4365.000000,4459.358887,0.000000,4.000000,75.000000,,,,0.000000,4.000000,4.000000,4.000000,4.000000,4.000000,4.000000,4.000000,4.000000,4.000000,4.000000,4.000000,4.000000,4.000000,4.000000,100.000000,,,,,,,,,,,,,,,,,12.000000,0.000000,0.726490,-0.153931,-0.662842,-0.095703,0.987914,-0.100598,0.077158,-14.722844,-41.667747,65.520561
1703407770.196183,1703407770.196370,49.000000,0.000000,4207.179688,4172.179688,4276.538574,4247.948730,4182.051270,4183.461426,4222.179688,4162.948730,4169.487305,4160.769043,4601.538574,4448.461426,4360.897461,4452.051270,0.000000,4.000000,75.000000,,,,0.000000,4.000000,4.000000,4.000000,4.000000,4.000000,4.000000,4.000000,4.000000,4.000000,4.000000,4.000000,4.000000,4.000000,4.000000,100.000000,,,,,,,,,,,,,,,,,,,,,,,,,,,,
1703407770.203991,1703407770.204279,50.000000,0.000000,4197.307617,4169.230957,4285.384766,4245.384766,4177.820313,4175.769043,4223.205078,4168.974121,4172.436035,4163.846191,4604.615234,4455.512695,4357.436035,4445.256348,0.000000,4.000000,75.000000,,,,0.000000,4.000000,4.000000,4.000000,4.000000,4.000000,4.000000,4.000000,4.000000,4.000000,4.000000,4.000000,4.000000,4.000000,4.000000,100.000000,,,,,,,,,,,,,,,,,,,,,,,,,,,,
1703407770.211799,1703407770.212087,51.000000,0.000000,4201.025879,4169.102539,4294.102539,4244.358887,4175.256348,4174.358887,4228.974121,4169.230957,4167.820313,4162.179688,4612.948730,4463.974121,4366.153809,4463.846191,0.000000,4.000000,75.000000,,,,0.000000,4.000000,4.000000,4.000000,4.000000,4.000000,4.000000,4.000000,4.000000,4.000000,4.000000,4.000000,4.000000,4.000000,4.000000,100.000000,,,,,,,,,,,,,,,,,,,,,,,,,,,,
1703407770.219607,1703407770.219995,52.000000,0.000000,4215.128418,4172.436035,4295.897461,4244.230957,4177.948730,4175.128418,4228.077148,4158.205078,4162.179688,4155.384766,4613.461426,4462.179688,4371.153809,4480.769043,0.000000,4.000000,75.000000,,,,0.000000,4.000000,4.000000,4.000000,4.000000,4.000000,4.000000,4.000000,4.000000,4.000000,4.000000,4.000000,4.000000,4.000000,4.000000,100.000000,,,,,,,,,,,,,,,,,13.000000,0.000000,0.726411,-0.154114,-0.662903,-0.095581,0.987914,-0.100598,0.073739,-14.600559,-41.817642,65.668503
1703407770.227415,1703407770.227803,53.000000,0.000000,4219.230957,4181.538574,4303.333496,4247.179688,4187.692383,4172.820313,4226.410156,4155.384766,4162.436035,4158.077148,4616.410156,4463.333496,4370.769043,4480.769043,0.000000,4.000000,75.000000,,,,0.000000,4.000000,4.000000,4.000000,4.000000,4.000000,4.000000,4.000000,4.000000,4.000000,4.000000,4.000000,4.000000,4.000000,4.000000,100.000000,,,,,,,,,,,,,,,,,,,,,,,,,,,,
1703407770.235223,1703407770.235711,54.000000,0.000000,4219.615234,4188.846191,4309.743652,4251.025879,4189.102539,4170.256348,4226.666504,4158.333496,4165.512695,4168.461426,4621.922852,4468.974121,4373.974121,4479.487305,0.000000,4.000000,75.000000,,,,0.000000,4.000000,4.000000,4.000000,4.000000,4.000000,4.000000,4.000000,4.000000,4.000000,4.000000,4.000000,4.000000,4.000000,4.000000,100.000000,,,,,,,,,,,,,,,,,,,,,,,,,,,,
1703407770.243031,1703407770.243519,55.000000,0.000000,4215.384766,4187.692383,4303.461426,4250.000000,4183.974121,4168.461426,4225.000000,4154.230957,4163.333496,4166.410156,4615.384766,4466.282227,4370.769043,4475.769043,0.000000,4.000000,75.000000,,,,0.000000,4.000000,4.000000,4.000000,4.000000,4.000000,4.000000,4.000000,4.000000,4.000000,4.000000,4.000000,4.000000,4.000000,4.000000,100.000000,,,,,,,,,,,,,,,,,,,,,,,,,,,,
1703407770.250839,1703407770.251427,56.000000,0.000000,4202.436035,4185.256348,4294.230957,4249.615234,4185.641113,4166.282227,4221.538574,4150.641113,4158.333496,4158.717773,4603.717773,4456.282227,4359.743652,4457.948730,0.000000,4.000000,75.000000,,,,0.000000,4.000000,4.000000,4.000000,4.000000,4.000000,4.000000,4.000000,4.000000,4.000000,4.000000,4.000000,4.000000,4.000000,4.000000,100.000000,,,,,,,,,,,,,,,,,14.000000,0.000000,0.726408,-0.154053,-0.662903,-0.095703,0.986449,-0.101575,0.070809,-14.623837,-41.869209,65.718315
1703407770.258647,1703407770.259236,57.000000,0.000000,4196.025879,4185.384766,4290.512695,4249.871582,4184.102539,4164.743652,4222.307617,4152.436035,4161.153809,4161.410156,4600.000000,4451.922852,4356.153809,4438.589844,0.000000,4.000000,75.000000,,,,0.000000,4.000000,4.000000,4.000000,4.000000,4.000000,4.000000,4.000000,4.000000,4.000000,4.000000,4.000000,4.000000,4.000000,4.000000,100.000000,,,,,,,,,,,,,,,,,,,,,,,,,,,,
1703407770.266455,1703407770.267144,58.000000,0.000000,4193.461426,4179.871582,4288.077148,4246.666504,4182.820313,4168.461426,4225.897461,4154.487305,4165.897461,4164.102539,4600.769043,4448.589844,4354.615234,4441.666504,0.000000,4.000000,75.000000,,,,0.000000,4.000000,4.000000,4.000000,4.000000,4.000000,4.000000,4.000000,4.000000,4.000000,4.000000,4.000000,4.000000,4.000000,4.000000,100.000000,,,,,,,,,,,,,,,,,,,,,,,,,,,,
1703407770.274264,1703407770.274952,59.000000,0.000000,4192.948730,4174.871582,4284.358887,4244.743652,4185.641113,4170.769043,4230.128418,4155.128418,4165.128418,4164.615234,4600.641113,4443.717773,4351.794922,4456.410156,0.000000,4.000000,75.000000,,,,0.000000,4.000000,4.000000,4.000000,4.000000,4.000000,4.000000,4.000000,4.000000,4.000000,4.000000,4.000000,4.000000,4.000000,4.000000,100.000000,,,,,,,,,,,,,,,,,,,,,,,,,,,,
1703407770.282071,1703407770.282860,60.000000,0.000000,4200.128418,4175.641113,4281.410156,4247.307617,4180.512695,4164.230957,4230.384766,4160.897461,4166.410156,4164.487305,4600.384766,4448.974121,4357.436035,4456.922852,0.000000,4.000000,75.000000,,,,0.000000,4.000000,4.000000,4.000000,4.000000,4.000000,4.000000,4.000000,4.000000,4.000000,4.000000,4.000000,4.000000,4.000000,4.000000,100.000000,,,,,,,,,,,,,,,,,15.000000,0.000000,0.726339,-0.153625,-0.663025,-0.096069,0.991332,-0.088878,0.064461,-14.611453,-41.848957,65.696487
1703407770.289879,1703407770.290668,61.000000,0.000000,4203.333496,4178.333496,4283.461426,4247.436035,4176.666504,4157.948730,4228.205078,4165.000000,4169.871582,4160.128418,4601.538574,4459.102539,4362.948730,4455.897461,0.000000,4.000000,75.000000,,,,0.000000,4.000000,4.000000,4.000000,4.000000,4.000000,4.000000,4.000000,4.000000,4.000000,4.000000,4.000000,4.000000,4.000000,4.000000,100.000000,,,,,,,,,,,,,,,,,,,,,,,,,,,,
1703407770.297688,1703407770.298576,62.000000,0.000000,4205.769043,4181.410156,4292.563965,4247.563965,4183.846191,4159.871582,4231.025879,4164.615234,4168.974121,4162.563965,4608.846191,4462.436035,4364.230957,4470.000000,0.000000,4.000000,75.000000,,,,0.000000,4.000000,4.000000,4.000000,4.000000,4.000000,4.000000,4.000000,4.000000,4.000000,4.000000,4.000000,4.000000,4.000000,4.000000,100.000000,,,,,,,,,,,,,,,,,,,,,,,,,,,,
1703407770.305496,1703407770.306384,63.000000,0.000000,4222.436035,4185.512695,4303.333496,4249.743652,4189.743652,4164.743652,4232.307617,4166.922852,4174.615234,4175.641113,4620.641113,4470.256348,4375.000000,4479.358887,0.000000,4.000000,75.000000,,,,0.000000,4.000000,4.000000,4.000000,4.000000,4.000000,4.000000,4.000000,4.000000,4.000000,4.000000,4.000000,4.000000,4.000000,4.000000,100.000000,,,,,,,,,,,,,,,,,,,,,,,,,,,,
1703407770.313304,1703407770.314092,64.000000,0.000000,4237.307617,4192.179688,4311.153809,4252.051270,4185.769043,4166.538574,4232.307617,4173.846191,4187.563965,4179.230957,4623.974121,4486.794922,4387.179688,4484.743652,4884.000000,4.000000,75.000000,,,,0.000000,4.000000,4.000000,4.000000,4.000000,4.000000,4.000000,4.000000,4.000000,4.000000,4.000000,4.000000,4.000000,4.000000,4.000000,100.000000,,,,,,,,,,,,,,,,,16.000000,0.000000,0.726393,-0.153442,-0.662964,-0.096375,0.985472,-0.092296,0.068856,-14.666974,-41.847393,65.710175
1703407770.321112,1703407770.321900,65.000000,0.000000,4236.538574,4194.358887,4315.897461,4257.692383,4183.461426,4165.769043,4233.205078,4176.282227,4184.230957,4169.743652,4618.717773,4487.948730,4381.794922,4504.743652,5424.000000,4.000000,75.000000,,,,0.000000,4.000000,4.000000,4.000000,4.000000,4.000000,4.000000,4.000000,4.000000,4.000000,4.000000,4.000000,4.000000,4.000000,4.000000,100.000000,,,,,,,,,,,,,,,,,,,,,,,,,,,,
1703407770.328920,1703407770.329608,66.000000,0.000000,4230.256348,4191.025879,4316.153809,4258.461426,4182.051270,4163.333496,4231.922852,4170.128418,4172.179688,4164.102539,4615.769043,4474.871582,4373.589844,4511.538574,5225.000000,4.000000,75.000000,,,,0.000000,4.000000,4.000000,4.000000,4.000000,4.000000,4.000000,4.000000,4.000000,4.000000,4.000000,4.000000,4.000000,4.000000,4.000000,100.000000,,,,,,,,,,,,,,,,,,,,,,,,,,,,
1703407770.336728,1703407770.337516,67.000000,0.000000,4220.512695,4185.512695,4315.769043,4246.538574,4173.077148,4158.333496,4232.307617,4160.897461,4166.794922,4157.179688,4610.128418,4475.256348,4372.563965,4493.717773,5285.000000,4.000000,75.000000,,,,0.000000,4.000000,4.000000,4.000000,4.000000,4.000000,4.000000,4.000000,4.000000,4.000000,4.000000,4.000000,4.000000,4.000000,4.000000,100.000000,,,,,,,,,,,,,,,,,,,,,,,,,,,,
1703407770.344536,1703407770.345324,68.000000,0.000000,4214.871582,4178.846191,4311.282227,4239.615234,4168.077148,4157.948730,4233.333496,4154.358887,4167.820313,4151.153809,4601.410156,4478.077148,4366.410156,4482.051270,5073.000000,4.000000,75.000000,,,,0.000000,4.000000,4.000000,4.000000,4.000000,4.000000,4.000000,4.000000,4.000000,4.000000,4.000000,4.000000,4.000000,4.000000,4.000000,100.000000,,,,,,,,,,,,,,,,,17.000000,0.000000,0.726406,-0.153381,-0.662964,-0.096375,0.990844,-0.090831,0.077646,-14.766944,-41.762653,65.872490
1703407770.352344,1703407770.353132,69.000000,0.000000,4212.820313,4176.794922,4298.589844,4245.384766,4172.563965,4165.256348,4233.077148,4160.256348,4176.282227,4153.333496,4598.077148,4466.538574,4357.436035,4479.615234,4535.000000,4.000000,75.000000,,,,0.000000,4.000000,4.000000,4.000000,4.000000,4.000000,4.000000,4.000000,4.000000,4.000000,4.000000,4.000000,4.000000,4.000000,4.000000,100.000000,,,,,,,,,,,,,,,,,,,,,,,,,,,,
1703407770.360152,1703407770.360840,70.000000,0.000000,4209.102539,4181.794922,4291.666504,4248.077148,4176.666504,4171.025879,4235.512695,4168.717773,4186.666504,4161.538574,4602.563965,4460.897461,4358.461426,4473.333496,3107.000000,4.000000,75.000000,,,,0.000000,4.000000,4.000000,4.000000,4.000000,4.000000,4.000000,4.000000,4.000000,4.000000,4.000000,4.000000,4.000000,4.000000,4.000000,100.000000,,,,,,,,,,,,,,,,,,,,,,,,,,,,
1703407770.367960,1703407770.368648,71.000000,0.000000,4210.641113,4183.461426,4300.512695,4245.128418,4179.358887,4170.384766,4239.230957,4167.948730,4187.563965,4168.589844,4611.794922,4472.563965,4366.794922,4468.205078,5048.000000,4.000000,75.000000,,,,0.000000,4.000000,4.000000,4.000000,4.000000,4.000000,4.000000,4.000000,4.000000,4.000000,4.000000,4.000000,4.000000,4.000000,4.000000,100.000000,,,,,,,,,,,,,,,,,,,,,,,,,,,,
1703407770.375768,1703407770.376356,72.000000,0.000000,4218.974121,4179.102539,4311.922852,4250.512695,4186.922852,4168.974121,4237.436035,4168.846191,4193.461426,4173.589844,4621.153809,4480.128418,4371.922852,4469.743652,4824.000000,4.000000,75.000000,,,,0.000000,4.000000,4.000000,4.000000,4.000000,4.000000,4.000000,4.000000,4.000000,4.000000,4.000000,4.000000,4.000000,4.000000,4.000000,100.000000,,,,,,,,,,,,,,,,,18.000000,0.000000,0.726359,-0.153564,-0.662964,-0.096436,0.978147,-0.088878,0.081553,-14.773582,-41.819721,65.985237
1703407770.383576,1703407770.384164,73.000000,0.000000,4215.000000,4182.692383,4311.410156,4255.897461,4183.205078,4165.256348,4233.461426,4170.641113,4203.077148,4170.512695,4618.077148,4476.153809,4368.333496,4472.563965,5101.000000,4.000000,75.000000,,,,0.000000,4.000000,4.000000,4.000000,4.000000,4.000000,4.000000,4.000000,4.000000,4.000000,4.000000,4.000000,4.000000,4.000000,4.000000,100.000000,,,,,,,,,,,,,,,,,,,,,,,,,,,,
