title:ملاح اختر, start timestamp:1703495783.069879, stop timestamp:1703495793.884020, headset type:EPOCX, headset serial:E50206EF, headset firmware:720, channels:67, sampling rate:eeg_128;mot_32, samples:1386      , version:2.2, 
Timestamp,OriginalTimestamp,EEG.Counter,EEG.Interpolated,EEG.AF3,EEG.F7,EEG.F3,EEG.FC5,EEG.T7,EEG.P7,EEG.O1,EEG.O2,EEG.P8,EEG.T8,EEG.FC6,EEG.F4,EEG.F8,EEG.AF4,EEG.RawCq,EEG.Battery,EEG.BatteryPercent,MarkerIndex,MarkerType,MarkerValueInt,EEG.MarkerHardware,CQ.AF3,CQ.F7,CQ.F3,CQ.FC5,CQ.T7,CQ.P7,CQ.O1,CQ.O2,CQ.P8,CQ.T8,CQ.FC6,CQ.F4,CQ.F8,CQ.AF4,CQ.Overall,EQ.SampleRateQuality,EQ.OVERALL,EQ.AF3,EQ.F7,EQ.F3,EQ.FC5,EQ.T7,EQ.P7,EQ.O1,EQ.O2,EQ.P8,EQ.T8,EQ.FC6,EQ.F4,EQ.F8,EQ.AF4,MOT.CounterMems,MOT.InterpolatedMems,MOT.Q0,MOT.Q1,MOT.Q2,MOT.Q3,MOT.AccX,MOT.AccY,MOT.AccZ,MOT.MagX,MOT.MagY,MOT.MagZ
1703495783.069879,1703495783.070097,67.000000,0.000000,4241.410156,4253.333496,4287.820313,4278.589844,4260.384766,4253.333496,4282.820313,4233.717773,4231.666504,4227.179688,4592.179688,4398.205078,4423.205078,4475.128418,5512.000000,4.000000,76.000000,,,,0.000000,4.000000,4.000000,4.000000,4.000000,4.000000,4.000000,4.000000,4.000000,4.000000,4.000000,4.000000,4.000000,4.000000,4.000000,100.000000,,,,,,,,,,,,,,,,,,,,,,,,,,,,
1703495783.077687,1703495783.077805,68.000000,0.000000,4228.717773,4246.410156,4289.487305,4271.153809,4242.179688,4250.128418,4275.641113,4233.077148,4228.205078,4222.692383,4582.820313,4391.153809,4411.410156,4473.461426,5369.000000,4.000000,76.000000,,,,0.000000,4.000000,4.000000,4.000000,4.000000,4.000000,4.000000,4.000000,4.000000,4.000000,4.000000,4.000000,4.000000,4.000000,4.000000,100.000000,,,,,,,,,,,,,,,,,17.000000,0.000000,0.665710,0.244690,-0.677002,0.196533,0.990844,0.062996,-0.028324,-16.946226,-38.103432,62.848644
1703495783.085495,1703495783.085613,69.000000,0.000000,4234.358887,4243.461426,4294.487305,4273.589844,4233.717773,4239.487305,4269.871582,4233.333496,4221.410156,4218.205078,4582.948730,4393.333496,4394.102539,4475.897461,4968.000000,4.000000,76.000000,,,,0.000000,4.000000,4.000000,4.000000,4.000000,4.000000,4.000000,4.000000,4.000000,4.000000,4.000000,4.000000,4.000000,4.000000,4.000000,100.000000,,,,,,,,,,,,,,,,,,,,,,,,,,,,
1703495783.093303,1703495783.093321,70.000000,0.000000,4248.333496,4255.384766,4301.153809,4282.436035,4234.743652,4233.717773,4267.563965,4234.358887,4218.846191,4220.128418,4596.025879,4405.384766,4391.794922,4490.897461,3438.000000,4.000000,76.000000,,,,0.000000,4.000000,4.000000,4.000000,4.000000,4.000000,4.000000,4.000000,4.000000,4.000000,4.000000,4.000000,4.000000,4.000000,4.000000,100.000000,,,,,,,,,,,,,,,,,,,,,,,,,,,,
1703495783.101112,1703495783.101129,71.000000,0.000000,4255.641113,4258.589844,4304.615234,4277.051270,4226.153809,4229.615234,4264.615234,4232.179688,4216.794922,4219.615234,4598.974121,4415.384766,4392.436035,4505.897461,3613.000000,4.000000,76.000000,,,,0.000000,4.000000,4.000000,4.000000,4.000000,4.000000,4.000000,4.000000,4.000000,4.000000,4.000000,4.000000,4.000000,4.000000,4.000000,100.000000,,,,,,,,,,,,,,,,,,,,,,,,,,,,
1703495783.108920,1703495783.108837,72.000000,0.000000,4263.717773,4262.948730,4308.846191,4278.205078,4241.794922,4228.717773,4273.077148,4230.000000,4214.615234,4225.256348,4605.256348,4423.333496,4393.717773,4510.512695,3279.000000,4.000000,76.000000,,,,0.000000,4.000000,4.000000,4.000000,4.000000,4.000000,4.000000,4.000000,4.000000,4.000000,4.000000,4.000000,4.000000,4.000000,4.000000,100.000000,,,,,,,,,,,,,,,,,18.000000,0.000000,0.665829,0.244873,-0.676819,0.196533,0.996215,0.063973,-0.042974,-16.868271,-38.176422,62.730446
1703495783.116727,1703495783.116645,73.000000,0.000000,4269.871582,4275.769043,4309.743652,4296.282227,4267.820313,4231.538574,4284.230957,4234.871582,4215.641113,4237.948730,4618.717773,4422.307617,4397.051270,4508.846191,5764.000000,4.000000,76.000000,,,,0.000000,4.000000,4.000000,4.000000,4.000000,4.000000,4.000000,4.000000,4.000000,4.000000,4.000000,4.000000,4.000000,4.000000,4.000000,100.000000,,,,,,,,,,,,,,,,,,,,,,,,,,,,
1703495783.124536,1703495783.124353,74.000000,0.000000,4266.153809,4275.384766,4304.487305,4297.436035,4249.230957,4230.000000,4276.922852,4241.153809,4224.615234,4237.179688,4612.051270,4415.000000,4393.077148,4501.922852,5993.000000,4.000000,76.000000,,,,0.000000,4.000000,4.000000,4.000000,4.000000,4.000000,4.000000,4.000000,4.000000,4.000000,4.000000,4.000000,4.000000,4.000000,4.000000,100.000000,,,,,,,,,,,,,,,,,,,,,,,,,,,,
1703495783.132344,1703495783.132261,75.000000,0.000000,4258.333496,4262.051270,4300.384766,4283.333496,4224.615234,4230.512695,4269.102539,4238.589844,4234.615234,4230.128418,4597.307617,4411.025879,4387.563965,4491.282227,6235.000000,4.000000,76.000000,,,,0.000000,4.000000,4.000000,4.000000,4.000000,4.000000,4.000000,4.000000,4.000000,4.000000,4.000000,4.000000,4.000000,4.000000,4.000000,100.000000,,,,,,,,,,,,,,,,,,,,,,,,,,,,
1703495783.140152,1703495783.140069,76.000000,0.000000,4250.897461,4253.205078,4295.512695,4275.512695,4236.666504,4234.743652,4273.717773,4234.358887,4235.897461,4229.615234,4589.615234,4403.846191,4382.179688,4488.717773,6648.000000,4.000000,76.000000,,,,0.000000,4.000000,4.000000,4.000000,4.000000,4.000000,4.000000,4.000000,4.000000,4.000000,4.000000,4.000000,4.000000,4.000000,4.000000,100.000000,,,,,,,,,,,,,,,,,19.000000,0.000000,0.665947,0.245178,-0.676575,0.196594,0.985960,0.068368,-0.019045,-16.798111,-38.292114,62.790737
1703495783.147960,1703495783.147977,77.000000,0.000000,4245.000000,4249.358887,4289.230957,4266.666504,4234.102539,4235.769043,4270.512695,4235.000000,4234.102539,4223.077148,4588.333496,4394.102539,4372.436035,4483.077148,6078.000000,4.000000,76.000000,,,,0.000000,4.000000,4.000000,4.000000,4.000000,4.000000,4.000000,4.000000,4.000000,4.000000,4.000000,4.000000,4.000000,4.000000,4.000000,100.000000,,,,,,,,,,,,,,,,,,,,,,,,,,,,
1703495783.155768,1703495783.155785,78.000000,0.000000,4241.282227,4246.538574,4288.846191,4265.512695,4213.077148,4233.461426,4264.487305,4232.692383,4235.128418,4214.102539,4587.051270,4393.205078,4371.282227,4468.717773,5993.000000,4.000000,76.000000,,,,0.000000,4.000000,4.000000,4.000000,4.000000,4.000000,4.000000,4.000000,4.000000,4.000000,4.000000,4.000000,4.000000,4.000000,4.000000,100.000000,,,,,,,,,,,,,,,,,,,,,,,,,,,,
1703495783.163576,1703495783.163693,79.000000,0.000000,4242.051270,4248.077148,4294.102539,4273.333496,4226.666504,4233.717773,4270.128418,4231.153809,4228.461426,4208.077148,4578.205078,4397.051270,4378.717773,4474.487305,6235.000000,4.000000,76.000000,,,,0.000000,4.000000,4.000000,4.000000,4.000000,4.000000,4.000000,4.000000,4.000000,4.000000,4.000000,4.000000,4.000000,4.000000,4.000000,100.000000,,,,,,,,,,,,,,,,,,,,,,,,,,,,
1703495783.171384,1703495783.171501,80.000000,0.000000,4245.000000,4249.102539,4295.512695,4267.563965,4236.153809,4228.205078,4270.512695,4233.974121,4214.743652,4203.205078,4577.692383,4398.205078,4379.358887,4494.615234,6648.000000,4.000000,76.000000,,,,0.000000,4.000000,4.000000,4.000000,4.000000,4.000000,4.000000,4.000000,4.000000,4.000000,4.000000,4.000000,4.000000,4.000000,4.000000,100.000000,,,,,,,,,,,,,,,,,20.000000,0.000000,0.665912,0.245056,-0.676636,0.196655,0.993285,0.062996,-0.043951,-16.751633,-38.379570,62.611660
1703495783.179192,1703495783.179409,81.000000,0.000000,4250.000000,4253.205078,4298.077148,4265.641113,4215.897461,4216.538574,4262.692383,4230.128418,4209.743652,4206.282227,4595.384766,4403.589844,4378.717773,4500.128418,6078.000000,4.000000,76.000000,,,,0.000000,4.000000,4.000000,4.000000,4.000000,4.000000,4.000000,4.000000,4.000000,4.000000,4.000000,4.000000,4.000000,4.000000,4.000000,100.000000,,,,,,,,,,,,,,,,,,,,,,,,,,,,
1703495783.187000,1703495783.187217,82.000000,0.000000,4258.717773,4264.230957,4307.051270,4280.256348,4217.179688,4212.563965,4263.846191,4219.102539,4214.358887,4204.358887,4603.077148,4411.666504,4386.025879,4500.512695,5993.000000,4.000000,76.000000,,,,0.000000,4.000000,4.000000,4.000000,4.000000,4.000000,4.000000,4.000000,4.000000,4.000000,4.000000,4.000000,4.000000,4.000000,4.000000,100.000000,,,,,,,,,,,,,,,,,,,,,,,,,,,,
1703495783.194808,1703495783.195124,83.000000,0.000000,4266.025879,4264.871582,4304.102539,4283.717773,4237.436035,4215.384766,4268.846191,4215.384766,4217.692383,4202.436035,4599.230957,4411.794922,4393.974121,4507.692383,6235.000000,4.000000,76.000000,,,,0.000000,4.000000,4.000000,4.000000,4.000000,4.000000,4.000000,4.000000,4.000000,4.000000,4.000000,4.000000,4.000000,4.000000,4.000000,100.000000,,,,,,,,,,,,,,,,,,,,,,,,,,,,
1703495783.202616,1703495783.202932,84.000000,0.000000,4265.256348,4256.538574,4294.615234,4273.589844,4232.692383,4215.512695,4265.641113,4217.692383,4217.051270,4214.230957,4602.051270,4410.897461,4394.615234,4511.922852,6648.000000,4.000000,76.000000,,,,0.000000,4.000000,4.000000,4.000000,4.000000,4.000000,4.000000,4.000000,4.000000,4.000000,4.000000,4.000000,4.000000,4.000000,4.000000,100.000000,,,,,,,,,,,,,,,,,21.000000,0.000000,0.665855,0.244873,-0.676758,0.196655,0.977170,0.062019,-0.031254,-16.626469,-38.491611,62.617161
1703495783.210424,1703495783.210840,85.000000,0.000000,4258.461426,4253.461426,4292.948730,4266.666504,4220.769043,4218.974121,4263.846191,4216.025879,4215.641113,4223.846191,4603.846191,4411.153809,4393.333496,4513.205078,6078.000000,4.000000,76.000000,,,,0.000000,4.000000,4.000000,4.000000,4.000000,4.000000,4.000000,4.000000,4.000000,4.000000,4.000000,4.000000,4.000000,4.000000,4.000000,100.000000,,,,,,,,,,,,,,,,,,,,,,,,,,,,
1703495783.218232,1703495783.218648,86.000000,0.000000,4255.384766,4254.615234,4295.384766,4265.897461,4233.461426,4231.410156,4270.769043,4221.410156,4216.538574,4223.974121,4597.436035,4406.794922,4396.794922,4516.666504,5993.000000,4.000000,76.000000,,,,0.000000,4.000000,4.000000,4.000000,4.000000,4.000000,4.000000,4.000000,4.000000,4.000000,4.000000,4.000000,4.000000,4.000000,4.000000,100.000000,,,,,,,,,,,,,,,,,,,,,,,,,,,,
1703495783.226040,1703495783.226356,87.000000,0.000000,4247.563965,4245.769043,4288.333496,4266.666504,4236.410156,4241.922852,4274.743652,4229.487305,4221.538574,4222.563965,4584.358887,4398.205078,4388.205078,4504.743652,6235.000000,4.000000,76.000000,,,,0.000000,4.000000,4.000000,4.000000,4.000000,4.000000,4.000000,4.000000,4.000000,4.000000,4.000000,4.000000,4.000000,4.000000,4.000000,100.000000,,,,,,,,,,,,,,,,,,,,,,,,,,,,
1703495783.233848,1703495783.234164,88.000000,0.000000,4234.230957,4233.717773,4273.589844,4260.384766,4217.307617,4245.897461,4266.794922,4224.743652,4228.589844,4213.333496,4567.051270,4384.230957,4362.179688,4472.051270,6648.000000,4.000000,76.000000,,,,0.000000,4.000000,4.000000,4.000000,4.000000,4.000000,4.000000,4.000000,4.000000,4.000000,4.000000,4.000000,4.000000,4.000000,4.000000,100.000000,,,,,,,,,,,,,,,,,22.000000,0.000000,0.665745,0.244568,-0.676941,0.196777,0.984007,0.052252,-0.030277,-16.597157,-38.425785,62.705444
1703495783.241656,1703495783.241872,89.000000,0.000000,4230.000000,4230.897461,4272.051270,4253.205078,4221.025879,4248.717773,4264.487305,4222.179688,4230.897461,4201.922852,4561.410156,4380.256348,4349.230957,4459.230957,6078.000000,4.000000,76.000000,,,,0.000000,4.000000,4.000000,4.000000,4.000000,4.000000,4.000000,4.000000,4.000000,4.000000,4.000000,4.000000,4.000000,4.000000,4.000000,100.000000,,,,,,,,,,,,,,,,,,,,,,,,,,,,
1703495783.249464,1703495783.249680,90.000000,0.000000,4231.922852,4231.538574,4282.307617,4257.179688,4229.358887,4249.230957,4267.307617,4232.563965,4227.307617,4201.410156,4572.051270,4388.333496,4358.846191,4481.282227,5993.000000,4.000000,76.000000,,,,0.000000,4.000000,4.000000,4.000000,4.000000,4.000000,4.000000,4.000000,4.000000,4.000000,4.000000,4.000000,4.000000,4.000000,4.000000,100.000000,,,,,,,,,,,,,,,,,,,,,,,,,,,,
1703495783.257272,1703495783.257388,91.000000,0.000000,4236.025879,4235.128418,4287.307617,4269.358887,4216.922852,4244.871582,4263.461426,4238.846191,4229.743652,4207.563965,4581.794922,4391.922852,4367.563965,4497.820313,6235.000000,4.000000,76.000000,,,,0.000000,4.000000,4.000000,4.000000,4.000000,4.000000,4.000000,4.000000,4.000000,4.000000,4.000000,4.000000,4.000000,4.000000,4.000000,100.000000,,,,,,,,,,,,,,,,,,,,,,,,,,,,
1703495783.265080,1703495783.265196,92.000000,0.000000,4249.358887,4245.641113,4291.538574,4278.077148,4215.769043,4236.282227,4262.307617,4233.333496,4230.384766,4215.641113,4582.179688,4398.077148,4368.717773,4491.538574,6648.000000,4.000000,76.000000,,,,0.000000,4.000000,4.000000,4.000000,4.000000,4.000000,4.000000,4.000000,4.000000,4.000000,4.000000,4.000000,4.000000,4.000000,4.000000,100.000000,,,,,,,,,,,,,,,,,23.000000,0.000000,0.665793,0.244507,-0.676880,0.196899,0.979123,0.056648,-0.034672,-16.554108,-38.383205,62.684902
1703495783.272889,1703495783.272904,93.000000,0.000000,4265.512695,4257.692383,4298.205078,4280.000000,4235.256348,4231.282227,4267.692383,4229.871582,4221.153809,4228.461426,4587.051270,4409.743652,4382.820313,4496.282227,6078.000000,4.000000,76.000000,,,,0.000000,4.000000,4.000000,4.000000,4.000000,4.000000,4.000000,4.000000,4.000000,4.000000,4.000000,4.000000,4.000000,4.000000,4.000000,100.000000,,,,,,,,,,,,,,,,,,,,,,,,,,,,
1703495783.280697,1703495783.280813,94.000000,0.000000,4267.820313,4260.128418,4302.948730,4283.461426,4237.692383,4230.384766,4271.153809,4231.538574,4217.820313,4231.794922,4599.743652,4411.666504,4397.948730,4509.871582,5993.000000,4.000000,76.000000,,,,0.000000,4.000000,4.000000,4.000000,4.000000,4.000000,4.000000,4.000000,4.000000,4.000000,4.000000,4.000000,4.000000,4.000000,4.000000,100.000000,,,,,,,,,,,,,,,,,,,,,,,,,,,,
1703495783.288504,1703495783.288621,95.000000,0.000000,4265.769043,4252.820313,4307.051270,4289.358887,4222.436035,4223.077148,4267.051270,4234.615234,4217.051270,4229.230957,4607.948730,4410.384766,4397.436035,4511.153809,6235.000000,4.000000,76.000000,,,,0.000000,4.000000,4.000000,4.000000,4.000000,4.000000,4.000000,4.000000,4.000000,4.000000,4.000000,4.000000,4.000000,4.000000,4.000000,100.000000,,,,,,,,,,,,,,,,,,,,,,,,,,,,
1703495783.296313,1703495783.296529,96.000000,0.000000,4272.563965,4251.794922,4306.153809,4285.384766,4214.871582,4212.820313,4259.358887,4229.615234,4208.205078,4226.025879,4603.974121,4416.794922,4396.153809,4511.410156,6648.000000,4.000000,76.000000,,,,0.000000,4.000000,4.000000,4.000000,4.000000,4.000000,4.000000,4.000000,4.000000,4.000000,4.000000,4.000000,4.000000,4.000000,4.000000,100.000000,,,,,,,,,,,,,,,,,24.000000,0.000000,0.665784,0.244751,-0.676819,0.196838,1.005005,0.060066,-0.049811,-16.598696,-38.394886,62.666412
1703495783.304121,1703495783.304337,97.000000,0.000000,4279.102539,4259.230957,4308.333496,4279.102539,4218.717773,4212.948730,4259.743652,4220.384766,4204.358887,4214.102539,4603.717773,4426.282227,4402.563965,4520.256348,6078.000000,4.000000,76.000000,,,,0.000000,4.000000,4.000000,4.000000,4.000000,4.000000,4.000000,4.000000,4.000000,4.000000,4.000000,4.000000,4.000000,4.000000,4.000000,100.000000,,,,,,,,,,,,,,,,,,,,,,,,,,,,
1703495783.311929,1703495783.312245,98.000000,0.000000,4282.820313,4267.436035,4312.563965,4292.179688,4226.025879,4216.666504,4265.384766,4222.307617,4207.692383,4205.384766,4615.128418,4426.922852,4407.563965,4531.282227,5993.000000,4.000000,76.000000,,,,0.000000,4.000000,4.000000,4.000000,4.000000,4.000000,4.000000,4.000000,4.000000,4.000000,4.000000,4.000000,4.000000,4.000000,4.000000,100.000000,,,,,,,,,,,,,,,,,,,,,,,,,,,,
1703495783.319737,1703495783.320053,99.000000,0.000000,4282.948730,4263.205078,4303.974121,4298.461426,4225.897461,4215.256348,4264.743652,4230.000000,4203.077148,4208.461426,4625.000000,4419.615234,4409.615234,4533.333496,6235.000000,4.000000,76.000000,,,,0.000000,4.000000,4.000000,4.000000,4.000000,4.000000,4.000000,4.000000,4.000000,4.000000,4.000000,4.000000,4.000000,4.000000,4.000000,100.000000,,,,,,,,,,,,,,,,,,,,,,,,,,,,
1703495783.327545,1703495783.327861,100.000000,0.000000,4276.153809,4251.538574,4296.410156,4281.538574,4229.743652,4222.051270,4264.487305,4241.538574,4205.256348,4217.436035,4624.615234,4421.410156,4413.205078,4528.846191,6648.000000,4.000000,76.000000,,,,0.000000,4.000000,4.000000,4.000000,4.000000,4.000000,4.000000,4.000000,4.000000,4.000000,4.000000,4.000000,4.000000,4.000000,4.000000,100.000000,,,,,,,,,,,,,,,,,25.000000,0.000000,0.665672,0.244934,-0.676880,0.196777,0.996215,0.047857,-0.038579,-16.738827,-38.338730,62.533104
1703495783.335353,1703495783.335569,101.000000,0.000000,4263.461426,4249.358887,4294.743652,4275.256348,4232.051270,4234.743652,4265.897461,4248.589844,4219.487305,4218.077148,4611.153809,4420.512695,4402.051270,4517.692383,6078.000000,4.000000,76.000000,,,,0.000000,4.000000,4.000000,4.000000,4.000000,4.000000,4.000000,4.000000,4.000000,4.000000,4.000000,4.000000,4.000000,4.000000,4.000000,100.000000,,,,,,,,,,,,,,,,,,,,,,,,,,,,
1703495783.343161,1703495783.343477,102.000000,0.000000,4249.358887,4244.743652,4285.512695,4277.051270,4210.769043,4233.846191,4261.666504,4239.871582,4221.282227,4202.820313,4589.487305,4397.692383,4377.820313,4489.230957,5993.000000,4.000000,76.000000,,,,0.000000,4.000000,4.000000,4.000000,4.000000,4.000000,4.000000,4.000000,4.000000,4.000000,4.000000,4.000000,4.000000,4.000000,4.000000,100.000000,,,,,,,,,,,,,,,,,,,,,,,,,,,,
1703495783.350969,1703495783.351285,103.000000,0.000000,4235.128418,4232.436035,4273.077148,4267.051270,4201.666504,4232.179688,4261.922852,4229.230957,4221.282227,4191.410156,4577.179688,4376.153809,4369.230957,4468.589844,6235.000000,4.000000,76.000000,,,,0.000000,4.000000,4.000000,4.000000,4.000000,4.000000,4.000000,4.000000,4.000000,4.000000,4.000000,4.000000,4.000000,4.000000,4.000000,100.000000,,,,,,,,,,,,,,,,,,,,,,,,,,,,
1703495783.358777,1703495783.359192,104.000000,0.000000,4227.563965,4233.205078,4272.051270,4257.820313,4220.256348,4239.615234,4265.897461,4231.410156,4227.436035,4198.974121,4572.692383,4375.769043,4373.461426,4469.743652,6648.000000,4.000000,76.000000,,,,0.000000,4.000000,4.000000,4.000000,4.000000,4.000000,4.000000,4.000000,4.000000,4.000000,4.000000,4.000000,4.000000,4.000000,4.000000,100.000000,,,,,,,,,,,,,,,,,26.000000,0.000000,0.665775,0.245117,-0.676819,0.196411,1.002075,0.060066,-0.035161,-16.831612,-38.204857,62.579792
1703495783.366585,1703495783.367000,105.000000,0.000000,4234.487305,4248.077148,4280.256348,4262.820313,4230.897461,4239.230957,4266.153809,4235.384766,4226.153809,4213.846191,4565.000000,4388.205078,4374.102539,4455.641113,6078.000000,4.000000,76.000000,,,,0.000000,4.000000,4.000000,4.000000,4.000000,4.000000,4.000000,4.000000,4.000000,4.000000,4.000000,4.000000,4.000000,4.000000,4.000000,100.000000,,,,,,,,,,,,,,,,,,,,,,,,,,,,
1703495783.374393,1703495783.374908,106.000000,0.000000,4247.051270,4251.538574,4285.256348,4272.051270,4225.897461,4232.307617,4264.230957,4232.179688,4220.128418,4227.179688,4575.897461,4398.717773,4382.436035,4450.384766,5993.000000,4.000000,76.000000,,,,0.000000,4.000000,4.000000,4.000000,4.000000,4.000000,4.000000,4.000000,4.000000,4.000000,4.000000,4.000000,4.000000,4.000000,4.000000,100.000000,1.000000,100.000000,4.000000,4.000000,4.000000,4.000000,4.000000,4.000000,4.000000,4.000000,4.000000,4.000000,4.000000,4.000000,4.000000,4.000000,,,,,,,,,,,,
1703495783.382201,1703495783.382716,107.000000,0.000000,4254.743652,4244.230957,4289.871582,4275.897461,4224.358887,4230.769043,4264.230957,4232.692383,4218.846191,4234.743652,4603.589844,4404.230957,4400.769043,4492.820313,6235.000000,4.000000,76.000000,,,,0.000000,4.000000,4.000000,4.000000,4.000000,4.000000,4.000000,4.000000,4.000000,4.000000,4.000000,4.000000,4.000000,4.000000,4.000000,100.000000,,,,,,,,,,,,,,,,,,,,,,,,,,,,
1703495783.390009,1703495783.390624,108.000000,0.000000,4263.077148,4251.282227,4300.128418,4281.538574,4224.743652,4229.743652,4265.000000,4232.051270,4218.333496,4221.538574,4607.820313,4410.000000,4406.922852,4522.179688,6648.000000,4.000000,76.000000,,,,0.000000,4.000000,4.000000,4.000000,4.000000,4.000000,4.000000,4.000000,4.000000,4.000000,4.000000,4.000000,4.000000,4.000000,4.000000,100.000000,,,,,,,,,,,,,,,,,27.000000,0.000000,0.665908,0.245239,-0.676697,0.196228,0.989867,0.075693,-0.025394,-16.665115,-38.234371,62.571815
1703495783.397817,1703495783.398432,109.000000,0.000000,4274.743652,4262.563965,4304.743652,4284.487305,4215.512695,4225.512695,4261.153809,4230.897461,4214.230957,4217.436035,4603.717773,4416.538574,4408.333496,4513.717773,6078.000000,4.000000,76.000000,,,,0.000000,4.000000,4.000000,4.000000,4.000000,4.000000,4.000000,4.000000,4.000000,4.000000,4.000000,4.000000,4.000000,4.000000,4.000000,100.000000,,,,,,,,,,,,,,,,,,,,,,,,,,,,
1703495783.405625,1703495783.406240,110.000000,0.000000,4283.974121,4269.487305,4304.871582,4286.282227,4217.820313,4231.282227,4264.102539,4241.538574,4217.051270,4237.820313,4621.922852,4426.794922,4423.846191,4518.589844,5993.000000,4.000000,76.000000,,,,0.000000,4.000000,4.000000,4.000000,4.000000,4.000000,4.000000,4.000000,4.000000,4.000000,4.000000,4.000000,4.000000,4.000000,4.000000,100.000000,,,,,,,,,,,,,,,,,,,,,,,,,,,,
1703495783.413433,1703495783.414048,111.000000,0.000000,4284.871582,4273.589844,4305.897461,4290.769043,4240.128418,4242.820313,4276.410156,4248.589844,4224.230957,4239.871582,4636.410156,4430.128418,4437.692383,4532.307617,6235.000000,4.000000,76.000000,,,,0.000000,4.000000,4.000000,4.000000,4.000000,4.000000,4.000000,4.000000,4.000000,4.000000,4.000000,4.000000,4.000000,4.000000,4.000000,100.000000,,,,,,,,,,,,,,,,,,,,,,,,,,,,
1703495783.421241,1703495783.421756,112.000000,0.000000,4271.666504,4267.179688,4297.820313,4282.692383,4243.333496,4240.512695,4276.410156,4241.282227,4221.153809,4218.589844,4619.871582,4415.384766,4425.000000,4515.000000,6648.000000,4.000000,76.000000,,,,0.000000,4.000000,4.000000,4.000000,4.000000,4.000000,4.000000,4.000000,4.000000,4.000000,4.000000,4.000000,4.000000,4.000000,4.000000,100.000000,,,,,,,,,,,,,,,,,28.000000,0.000000,0.665961,0.245361,-0.676636,0.196106,0.985472,0.052741,-0.028324,-16.798605,-38.110935,62.531300
1703495783.429049,1703495783.429664,113.000000,0.000000,4248.461426,4249.743652,4282.051270,4265.000000,4219.102539,4231.410156,4262.436035,4228.974121,4215.000000,4204.743652,4592.948730,4397.563965,4399.358887,4487.563965,6078.000000,4.000000,76.000000,,,,0.000000,4.000000,4.000000,4.000000,4.000000,4.000000,4.000000,4.000000,4.000000,4.000000,4.000000,4.000000,4.000000,4.000000,4.000000,100.000000,,,,,,,,,,,,,,,,,,,,,,,,,,,,
1703495783.436857,1703495783.437472,114.000000,0.000000,4230.897461,4235.897461,4269.743652,4260.128418,4211.794922,4232.307617,4261.025879,4218.974121,4214.230957,4197.820313,4581.282227,4389.102539,4390.384766,4475.641113,5993.000000,4.000000,76.000000,,,,0.000000,4.000000,4.000000,4.000000,4.000000,4.000000,4.000000,4.000000,4.000000,4.000000,4.000000,4.000000,4.000000,4.000000,4.000000,100.000000,,,,,,,,,,,,,,,,,,,,,,,,,,,,
1703495783.444665,1703495783.445281,115.000000,0.000000,4228.717773,4232.307617,4270.000000,4266.153809,4222.179688,4235.256348,4266.282227,4212.051270,4208.717773,4187.436035,4572.436035,4382.436035,4382.692383,4462.307617,6235.000000,4.000000,76.000000,,,,0.000000,4.000000,4.000000,4.000000,4.000000,4.000000,4.000000,4.000000,4.000000,4.000000,4.000000,4.000000,4.000000,4.000000,4.000000,100.000000,,,,,,,,,,,,,,,,,,,,,,,,,,,,
1703495783.452474,1703495783.452989,116.000000,0.000000,4230.641113,4228.589844,4278.717773,4259.871582,4215.769043,4228.333496,4259.102539,4210.897461,4202.692383,4180.256348,4561.282227,4376.538574,4369.358887,4453.846191,6648.000000,4.000000,76.000000,,,,0.000000,4.000000,4.000000,4.000000,4.000000,4.000000,4.000000,4.000000,4.000000,4.000000,4.000000,4.000000,4.000000,4.000000,4.000000,100.000000,,,,,,,,,,,,,,,,,29.000000,0.000000,0.665913,0.245422,-0.676697,0.195984,0.989867,0.067879,-0.034184,-16.702078,-38.049839,62.544834
1703495783.460281,1703495783.460797,117.000000,0.000000,4230.641113,4234.230957,4285.256348,4255.000000,4210.512695,4227.307617,4255.641113,4215.512695,4211.794922,4178.974121,4559.230957,4383.589844,4371.410156,4462.563965,6078.000000,4.000000,76.000000,,,,0.000000,4.000000,4.000000,4.000000,4.000000,4.000000,4.000000,4.000000,4.000000,4.000000,4.000000,4.000000,4.000000,4.000000,4.000000,100.000000,,,,,,,,,,,,,,,,,,,,,,,,,,,,
1703495783.468089,1703495783.468505,118.000000,0.000000,4238.333496,4249.743652,4285.897461,4272.307617,4218.461426,4231.922852,4262.948730,4221.410156,4221.410156,4183.589844,4566.538574,4391.282227,4382.179688,4466.794922,5993.000000,4.000000,76.000000,,,,0.000000,4.000000,4.000000,4.000000,4.000000,4.000000,4.000000,4.000000,4.000000,4.000000,4.000000,4.000000,4.000000,4.000000,4.000000,100.000000,,,,,,,,,,,,,,,,,,,,,,,,,,,,
1703495783.475898,1703495783.476313,119.000000,0.000000,4246.666504,4253.205078,4284.615234,4279.871582,4221.153809,4224.358887,4265.256348,4228.333496,4213.589844,4193.461426,4573.846191,4384.871582,4387.692383,4460.769043,6235.000000,4.000000,76.000000,,,,0.000000,4.000000,4.000000,4.000000,4.000000,4.000000,4.000000,4.000000,4.000000,4.000000,4.000000,4.000000,4.000000,4.000000,4.000000,100.000000,,,,,,,,,,,,,,,,,,,,,,,,,,,,
1703495783.483706,1703495783.484021,120.000000,0.000000,4247.179688,4248.077148,4291.153809,4267.436035,4216.153809,4210.641113,4257.179688,4228.717773,4200.897461,4199.358887,4577.948730,4386.922852,4392.948730,4476.538574,6648.000000,4.000000,76.000000,,,,0.000000,4.000000,4.000000,4.000000,4.000000,4.000000,4.000000,4.000000,4.000000,4.000000,4.000000,4.000000,4.000000,4.000000,4.000000,100.000000,,,,,,,,,,,,,,,,,30.000000,0.000000,0.665851,0.245422,-0.676758,0.195984,1.005494,0.059089,-0.032230,-16.681870,-38.044857,62.573685
1703495783.491514,1703495783.491828,121.000000,0.000000,4253.717773,4253.205078,4297.436035,4266.666504,4210.000000,4207.563965,4251.794922,4228.589844,4206.025879,4205.512695,4590.769043,4408.333496,4409.102539,4502.179688,6078.000000,4.000000,76.000000,,,,0.000000,4.000000,4.000000,4.000000,4.000000,4.000000,4.000000,4.000000,4.000000,4.000000,4.000000,4.000000,4.000000,4.000000,4.000000,100.000000,,,,,,,,,,,,,,,,,,,,,,,,,,,,
1703495783.499322,1703495783.499536,122.000000,0.000000,4266.410156,4264.358887,4295.512695,4275.384766,4214.871582,4215.641113,4258.333496,4239.871582,4225.256348,4221.538574,4605.769043,4418.974121,4425.897461,4496.153809,5993.000000,4.000000,76.000000,,,,0.000000,4.000000,4.000000,4.000000,4.000000,4.000000,4.000000,4.000000,4.000000,4.000000,4.000000,4.000000,4.000000,4.000000,4.000000,100.000000,,,,,,,,,,,,,,,,,,,,,,,,,,,,
1703495783.507130,1703495783.507444,123.000000,0.000000,4264.615234,4266.025879,4297.051270,4272.948730,4228.589844,4222.692383,4265.512695,4252.436035,4237.820313,4236.153809,4607.948730,4413.461426,4427.051270,4485.769043,6235.000000,4.000000,76.000000,,,,0.000000,4.000000,4.000000,4.000000,4.000000,4.000000,4.000000,4.000000,4.000000,4.000000,4.000000,4.000000,4.000000,4.000000,4.000000,100.000000,,,,,,,,,,,,,,,,,,,,,,,,,,,,
1703495783.514938,1703495783.515252,124.000000,0.000000,4257.436035,4262.051270,4297.051270,4273.846191,4234.230957,4228.846191,4263.846191,4249.230957,4240.641113,4235.000000,4606.025879,4414.102539,4426.025879,4506.538574,6648.000000,4.000000,76.000000,,,,0.000000,4.000000,4.000000,4.000000,4.000000,4.000000,4.000000,4.000000,4.000000,4.000000,4.000000,4.000000,4.000000,4.000000,4.000000,100.000000,,,,,,,,,,,,,,,,,31.000000,0.000000,0.665851,0.245422,-0.676758,0.195984,0.999145,0.073739,-0.031254,-16.697016,-38.107037,62.616318
1703495783.522746,1703495783.523160,125.000000,0.000000,4260.512695,4261.025879,4292.179688,4281.153809,4230.128418,4233.589844,4261.794922,4236.282227,4239.487305,4222.692383,4611.153809,4422.948730,4431.922852,4517.948730,6078.000000,4.000000,76.000000,,,,0.000000,4.000000,4.000000,4.000000,4.000000,4.000000,4.000000,4.000000,4.000000,4.000000,4.000000,4.000000,4.000000,4.000000,4.000000,100.000000,,,,,,,,,,,,,,,,,,,,,,,,,,,,
1703495783.530554,1703495783.531068,126.000000,0.000000,4266.410156,4265.000000,4292.051270,4277.563965,4232.563965,4235.512695,4265.384766,4233.205078,4233.717773,4221.025879,4612.820313,4422.948730,4431.282227,4498.205078,5993.000000,4.000000,76.000000,,,,0.000000,4.000000,4.000000,4.000000,4.000000,4.000000,4.000000,4.000000,4.000000,4.000000,4.000000,4.000000,4.000000,4.000000,4.000000,100.000000,,,,,,,,,,,,,,,,,,,,,,,,,,,,
1703495783.538362,1703495783.538876,127.000000,0.000000,4262.436035,4264.358887,4293.589844,4276.922852,4233.205078,4235.512695,4266.153809,4230.384766,4228.205078,4218.333496,4601.666504,4411.282227,4421.282227,4487.307617,76.000000,4.000000,76.000000,,,,0.000000,4.000000,4.000000,4.000000,4.000000,4.000000,4.000000,4.000000,4.000000,4.000000,4.000000,4.000000,4.000000,4.000000,4.000000,100.000000,,,,,,,,,,,,,,,,,,,,,,,,,,,,
1703495783.546170,1703495783.546684,0.000000,0.000000,4252.179688,4253.589844,4292.820313,4276.922852,4224.102539,4223.333496,4261.025879,4216.153809,4218.205078,4192.563965,4583.333496,4406.025879,4410.512695,4492.051270,4519.000000,4.000000,76.000000,,,,0.000000,4.000000,4.000000,4.000000,4.000000,4.000000,4.000000,4.000000,4.000000,4.000000,4.000000,4.000000,4.000000,4.000000,4.000000,100.000000,,,,,,,,,,,,,,,,,0.000000,0.000000,0.665942,0.245483,-0.676575,0.196228,0.989379,0.068368,-0.037114,-16.610647,-38.163002,62.704685
1703495783.553978,1703495783.554592,1.000000,0.000000,4248.461426,4246.538574,4294.743652,4271.666504,4218.461426,4204.230957,4252.820313,4209.615234,4205.512695,4181.666504,4573.717773,4406.538574,4404.487305,4488.205078,5696.000000,4.000000,76.000000,,,,0.000000,4.000000,4.000000,4.000000,4.000000,4.000000,4.000000,4.000000,4.000000,4.000000,4.000000,4.000000,4.000000,4.000000,4.000000,100.000000,,,,,,,,,,,,,,,,,,,,,,,,,,,,
1703495783.561786,1703495783.562400,2.000000,0.000000,4251.282227,4250.897461,4299.743652,4278.077148,4219.230957,4204.102539,4249.102539,4217.820313,4200.641113,4199.615234,4580.641113,4406.282227,4409.230957,4484.871582,5519.000000,4.000000,76.000000,,,,0.000000,4.000000,4.000000,4.000000,4.000000,4.000000,4.000000,4.000000,4.000000,4.000000,4.000000,4.000000,4.000000,4.000000,4.000000,100.000000,,,,,,,,,,,,,,,,,,,,,,,,,,,,
1703495783.569594,1703495783.570308,3.000000,0.000000,4249.743652,4251.410156,4303.846191,4284.743652,4224.102539,4217.948730,4250.128418,4220.128418,4198.589844,4193.974121,4590.512695,4411.153809,4414.230957,4496.153809,5517.000000,4.000000,76.000000,,,,0.000000,4.000000,4.000000,4.000000,4.000000,4.000000,4.000000,4.000000,4.000000,4.000000,4.000000,4.000000,4.000000,4.000000,4.000000,100.000000,,,,,,,,,,,,,,,,,,,,,,,,,,,,
1703495783.577402,1703495783.578116,4.000000,0.000000,4245.641113,4244.871582,4302.179688,4278.461426,4231.410156,4219.487305,4251.794922,4214.487305,4200.769043,4179.743652,4592.179688,4415.384766,4410.897461,4505.256348,5365.000000,4.000000,76.000000,,,,0.000000,4.000000,4.000000,4.000000,4.000000,4.000000,4.000000,4.000000,4.000000,4.000000,4.000000,4.000000,4.000000,4.000000,4.000000,100.000000,,,,,,,,,,,,,,,,,1.000000,0.000000,0.666031,0.245361,-0.676514,0.196289,0.999145,0.058113,-0.030765,-16.566250,-38.030033,62.767551
1703495783.585210,1703495783.585824,5.000000,0.000000,4246.666504,4242.948730,4297.179688,4272.307617,4230.769043,4216.153809,4252.563965,4220.128418,4212.436035,4205.256348,4592.436035,4410.512695,4411.794922,4498.974121,4969.000000,4.000000,76.000000,,,,0.000000,4.000000,4.000000,4.000000,4.000000,4.000000,4.000000,4.000000,4.000000,4.000000,4.000000,4.000000,4.000000,4.000000,4.000000,100.000000,,,,,,,,,,,,,,,,,,,,,,,,,,,,
1703495783.593018,1703495783.593632,6.000000,0.000000,4246.282227,4241.666504,4293.077148,4273.333496,4228.589844,4225.000000,4251.666504,4232.051270,4224.615234,4222.179688,4595.384766,4411.282227,4420.512695,4494.102539,3435.000000,4.000000,76.000000,,,,0.000000,4.000000,4.000000,4.000000,4.000000,4.000000,4.000000,4.000000,4.000000,4.000000,4.000000,4.000000,4.000000,4.000000,4.000000,100.000000,,,,,,,,,,,,,,,,,,,,,,,,,,,,
1703495783.600826,1703495783.601340,7.000000,0.000000,4237.563965,4236.794922,4289.615234,4265.512695,4238.077148,4235.641113,4253.461426,4243.717773,4238.461426,4214.102539,4604.743652,4423.717773,4425.769043,4496.922852,3605.000000,4.000000,76.000000,,,,0.000000,4.000000,4.000000,4.000000,4.000000,4.000000,4.000000,4.000000,4.000000,4.000000,4.000000,4.000000,4.000000,4.000000,4.000000,100.000000,,,,,,,,,,,,,,,,,,,,,,,,,,,,
1703495783.608634,1703495783.609148,8.000000,0.000000,4222.051270,4231.282227,4287.436035,4248.846191,4231.794922,4234.358887,4251.410156,4249.230957,4250.512695,4226.666504,4603.461426,4419.487305,4417.692383,4491.282227,3296.000000,4.000000,76.000000,,,,0.000000,4.000000,4.000000,4.000000,4.000000,4.000000,4.000000,4.000000,4.000000,4.000000,4.000000,4.000000,4.000000,4.000000,4.000000,100.000000,,,,,,,,,,,,,,,,,2.000000,0.000000,0.666157,0.245117,-0.676514,0.196167,0.985960,0.057136,-0.028812,-16.776291,-38.193699,62.824127
1703495783.616442,1703495783.616856,9.000000,0.000000,4212.179688,4227.692383,4284.615234,4248.461426,4211.410156,4231.153809,4246.922852,4247.307617,4247.820313,4240.128418,4589.487305,4401.282227,4409.230957,4476.538574,5724.000000,4.000000,76.000000,,,,0.000000,4.000000,4.000000,4.000000,4.000000,4.000000,4.000000,4.000000,4.000000,4.000000,4.000000,4.000000,4.000000,4.000000,4.000000,100.000000,,,,,,,,,,,,,,,,,,,,,,,,,,,,
1703495783.624251,1703495783.624664,10.000000,0.000000,4220.512695,4231.922852,4289.102539,4264.615234,4221.922852,4234.230957,4252.436035,4244.230957,4236.025879,4222.307617,4583.589844,4402.820313,4406.153809,4462.692383,5965.000000,4.000000,76.000000,,,,0.000000,4.000000,4.000000,4.000000,4.000000,4.000000,4.000000,4.000000,4.000000,4.000000,4.000000,4.000000,4.000000,4.000000,4.000000,100.000000,,,,,,,,,,,,,,,,,,,,,,,,,,,,
1703495783.632059,1703495783.632372,11.000000,0.000000,4233.717773,4242.820313,4297.820313,4270.128418,4238.717773,4237.948730,4257.563965,4242.051270,4231.538574,4209.358887,4587.820313,4417.307617,4403.077148,4469.615234,6227.000000,4.000000,76.000000,,,,0.000000,4.000000,4.000000,4.000000,4.000000,4.000000,4.000000,4.000000,4.000000,4.000000,4.000000,4.000000,4.000000,4.000000,4.000000,100.000000,,,,,,,,,,,,,,,,,,,,,,,,,,,,
1703495783.639866,1703495783.640180,12.000000,0.000000,4232.692383,4247.051270,4295.000000,4260.512695,4222.436035,4232.563965,4249.230957,4238.205078,4230.000000,4217.436035,4585.641113,4414.615234,4400.641113,4493.717773,6648.000000,4.000000,76.000000,,,,0.000000,4.000000,4.000000,4.000000,4.000000,4.000000,4.000000,4.000000,4.000000,4.000000,4.000000,4.000000,4.000000,4.000000,4.000000,100.000000,,,,,,,,,,,,,,,,,3.000000,0.000000,0.666132,0.244995,-0.676636,0.195984,0.985472,0.064461,-0.041509,-16.848661,-38.174328,62.875050
1703495783.647674,1703495783.647888,13.000000,0.000000,4231.282227,4243.461426,4295.000000,4263.461426,4210.384766,4221.025879,4245.128418,4229.487305,4221.666504,4205.897461,4575.000000,4408.717773,4400.256348,4492.948730,6080.000000,4.000000,76.000000,,,,0.000000,4.000000,4.000000,4.000000,4.000000,4.000000,4.000000,4.000000,4.000000,4.000000,4.000000,4.000000,4.000000,4.000000,4.000000,100.000000,,,,,,,,,,,,,,,,,,,,,,,,,,,,
1703495783.655483,1703495783.655696,14.000000,0.000000,4249.230957,4246.794922,4303.205078,4277.948730,4226.666504,4215.769043,4249.743652,4220.384766,4214.615234,4183.846191,4571.410156,4412.051270,4399.487305,4476.666504,5965.000000,4.000000,76.000000,,,,0.000000,4.000000,4.000000,4.000000,4.000000,4.000000,4.000000,4.000000,4.000000,4.000000,4.000000,4.000000,4.000000,4.000000,4.000000,100.000000,,,,,,,,,,,,,,,,,,,,,,,,,,,,
1703495783.663291,1703495783.663404,15.000000,0.000000,4265.000000,4254.230957,4307.563965,4285.512695,4235.769043,4218.333496,4249.871582,4215.256348,4210.512695,4177.692383,4577.051270,4410.000000,4399.871582,4488.461426,6227.000000,4.000000,76.000000,,,,0.000000,4.000000,4.000000,4.000000,4.000000,4.000000,4.000000,4.000000,4.000000,4.000000,4.000000,4.000000,4.000000,4.000000,4.000000,100.000000,,,,,,,,,,,,,,,,,,,,,,,,,,,,
1703495783.671099,1703495783.671212,16.000000,0.000000,4257.436035,4251.666504,4304.102539,4283.205078,4229.487305,4218.974121,4247.307617,4210.256348,4201.794922,4175.384766,4572.820313,4401.282227,4398.205078,4500.512695,0.000000,4.000000,76.000000,,,,0.000000,4.000000,4.000000,4.000000,4.000000,4.000000,4.000000,4.000000,4.000000,4.000000,4.000000,4.000000,4.000000,4.000000,4.000000,100.000000,,,,,,,,,,,,,,,,,4.000000,0.000000,0.666003,0.245056,-0.676758,0.195923,0.992797,0.058601,-0.031742,-16.747129,-38.140228,63.054211
1703495783.678907,1703495783.678920,17.000000,0.000000,4243.846191,4246.153809,4293.717773,4274.102539,4226.794922,4220.512695,4246.410156,4205.128418,4201.282227,4178.589844,4562.051270,4394.230957,4394.615234,4488.846191,0.000000,4.000000,76.000000,,,,0.000000,4.000000,4.000000,4.000000,4.000000,4.000000,4.000000,4.000000,4.000000,4.000000,4.000000,4.000000,4.000000,4.000000,4.000000,100.000000,,,,,,,,,,,,,,,,,,,,,,,,,,,,
1703495783.686715,1703495783.686728,18.000000,0.000000,4243.974121,4243.846191,4290.384766,4271.794922,4234.743652,4227.948730,4250.641113,4210.897461,4217.307617,4183.974121,4564.871582,4399.358887,4394.230957,4476.538574,0.000000,4.000000,76.000000,,,,0.000000,4.000000,4.000000,4.000000,4.000000,4.000000,4.000000,4.000000,4.000000,4.000000,4.000000,4.000000,4.000000,4.000000,4.000000,100.000000,,,,,,,,,,,,,,,,,,,,,,,,,,,,
1703495783.694523,1703495783.694436,19.000000,0.000000,4245.769043,4238.077148,4294.487305,4274.358887,4248.333496,4235.769043,4254.743652,4223.974121,4232.692383,4182.948730,4581.282227,4412.692383,4401.153809,4473.846191,0.000000,4.000000,76.000000,,,,0.000000,4.000000,4.000000,4.000000,4.000000,4.000000,4.000000,4.000000,4.000000,4.000000,4.000000,4.000000,4.000000,4.000000,4.000000,100.000000,,,,,,,,,,,,,,,,,,,,,,,,,,,,
1703495783.702331,1703495783.702344,20.000000,0.000000,4236.922852,4231.410156,4291.922852,4266.410156,4249.743652,4237.692383,4252.307617,4233.974121,4240.512695,4202.948730,4590.256348,4418.589844,4410.256348,4485.384766,0.000000,4.000000,76.000000,,,,0.000000,4.000000,4.000000,4.000000,4.000000,4.000000,4.000000,4.000000,4.000000,4.000000,4.000000,4.000000,4.000000,4.000000,4.000000,100.000000,,,,,,,,,,,,,,,,,5.000000,0.000000,0.666101,0.245178,-0.676636,0.195862,0.987914,0.053229,-0.040532,-16.872416,-38.076206,62.965458
1703495783.710139,1703495783.710151,21.000000,0.000000,4228.717773,4229.102539,4291.025879,4258.589844,4236.538574,4233.589844,4248.461426,4243.205078,4247.051270,4238.461426,4584.743652,4422.179688,4415.256348,4493.461426,0.000000,4.000000,76.000000,,,,0.000000,4.000000,4.000000,4.000000,4.000000,4.000000,4.000000,4.000000,4.000000,4.000000,4.000000,4.000000,4.000000,4.000000,4.000000,100.000000,,,,,,,,,,,,,,,,,,,,,,,,,,,,
1703495783.717947,1703495783.718059,22.000000,0.000000,4233.589844,4232.051270,4298.077148,4269.487305,4228.077148,4232.051270,4247.051270,4247.692383,4250.256348,4247.692383,4594.102539,4428.974121,4420.256348,4485.256348,0.000000,4.000000,76.000000,,,,0.000000,4.000000,4.000000,4.000000,4.000000,4.000000,4.000000,4.000000,4.000000,4.000000,4.000000,4.000000,4.000000,4.000000,4.000000,100.000000,,,,,,,,,,,,,,,,,,,,,,,,,,,,
1703495783.725755,1703495783.725867,23.000000,0.000000,4246.410156,4240.512695,4302.051270,4282.051270,4233.846191,4232.307617,4248.077148,4248.717773,4246.153809,4245.641113,4620.897461,4438.974121,4432.051270,4496.666504,0.000000,4.000000,76.000000,,,,0.000000,4.000000,4.000000,4.000000,4.000000,4.000000,4.000000,4.000000,4.000000,4.000000,4.000000,4.000000,4.000000,4.000000,4.000000,100.000000,,,,,,,,,,,,,,,,,,,,,,,,,,,,
1703495783.733563,1703495783.733775,24.000000,0.000000,4252.692383,4247.563965,4302.563965,4279.487305,4240.384766,4224.487305,4248.589844,4246.922852,4239.487305,4249.487305,4621.282227,4440.000000,4438.205078,4523.205078,0.000000,4.000000,76.000000,,,,0.000000,4.000000,4.000000,4.000000,4.000000,4.000000,4.000000,4.000000,4.000000,4.000000,4.000000,4.000000,4.000000,4.000000,4.000000,100.000000,,,,,,,,,,,,,,,,,6.000000,0.000000,0.666046,0.245300,-0.676575,0.196106,1.001587,0.053717,-0.025394,-16.868507,-38.018585,62.968910
1703495783.741371,1703495783.741583,25.000000,0.000000,4256.666504,4248.974121,4307.051270,4281.025879,4238.333496,4214.487305,4247.563965,4239.102539,4232.179688,4238.333496,4598.333496,4429.615234,4428.333496,4520.000000,0.000000,4.000000,76.000000,,,,0.000000,4.000000,4.000000,4.000000,4.000000,4.000000,4.000000,4.000000,4.000000,4.000000,4.000000,4.000000,4.000000,4.000000,4.000000,100.000000,,,,,,,,,,,,,,,,,,,,,,,,,,,,
1703495783.749179,1703495783.749491,26.000000,0.000000,4269.743652,4257.051270,4315.641113,4298.077148,4239.102539,4214.487305,4246.794922,4229.230957,4223.333496,4215.384766,4590.641113,4426.922852,4416.794922,4508.333496,0.000000,4.000000,76.000000,,,,0.000000,4.000000,4.000000,4.000000,4.000000,4.000000,4.000000,4.000000,4.000000,4.000000,4.000000,4.000000,4.000000,4.000000,4.000000,100.000000,,,,,,,,,,,,,,,,,,,,,,,,,,,,
1703495783.756987,1703495783.757299,27.000000,0.000000,4282.179688,4268.589844,4318.974121,4313.077148,4249.358887,4215.641113,4251.153809,4220.769043,4215.128418,4204.615234,4591.794922,4426.794922,4416.153809,4519.358887,0.000000,4.000000,76.000000,,,,0.000000,4.000000,4.000000,4.000000,4.000000,4.000000,4.000000,4.000000,4.000000,4.000000,4.000000,4.000000,4.000000,4.000000,4.000000,100.000000,,,,,,,,,,,,,,,,,,,,,,,,,,,,
1703495783.764795,1703495783.765207,28.000000,0.000000,4278.077148,4262.051270,4315.384766,4305.000000,4242.179688,4204.230957,4250.384766,4215.128418,4215.256348,4199.487305,4574.102539,4416.282227,4411.666504,4519.358887,0.000000,4.000000,76.000000,,,,0.000000,4.000000,4.000000,4.000000,4.000000,4.000000,4.000000,4.000000,4.000000,4.000000,4.000000,4.000000,4.000000,4.000000,4.000000,100.000000,,,,,,,,,,,,,,,,,7.000000,0.000000,0.666032,0.245239,-0.676575,0.196228,0.981565,0.062019,-0.030277,-16.948324,-38.050060,63.022018
1703495783.772603,1703495783.773015,29.000000,0.000000,4268.205078,4249.743652,4313.589844,4282.948730,4222.692383,4197.307617,4242.948730,4210.000000,4215.769043,4189.487305,4558.333496,4405.256348,4398.461426,4498.077148,0.000000,4.000000,76.000000,,,,0.000000,4.000000,4.000000,4.000000,4.000000,4.000000,4.000000,4.000000,4.000000,4.000000,4.000000,4.000000,4.000000,4.000000,4.000000,100.000000,,,,,,,,,,,,,,,,,,,,,,,,,,,,
1703495783.780411,1703495783.780923,30.000000,0.000000,4261.666504,4243.205078,4305.128418,4278.333496,4222.563965,4211.025879,4242.820313,4201.666504,4204.358887,4176.666504,4561.410156,4396.282227,4390.000000,4486.410156,0.000000,4.000000,76.000000,,,,0.000000,4.000000,4.000000,4.000000,4.000000,4.000000,4.000000,4.000000,4.000000,4.000000,4.000000,4.000000,4.000000,4.000000,4.000000,100.000000,,,,,,,,,,,,,,,,,,,,,,,,,,,,
1703495783.788219,1703495783.788731,31.000000,0.000000,4253.333496,4235.128418,4295.128418,4284.230957,4236.282227,4229.615234,4249.230957,4204.743652,4200.000000,4177.820313,4563.589844,4395.641113,4388.717773,4485.256348,0.000000,4.000000,76.000000,,,,0.000000,4.000000,4.000000,4.000000,4.000000,4.000000,4.000000,4.000000,4.000000,4.000000,4.000000,4.000000,4.000000,4.000000,4.000000,100.000000,,,,,,,,,,,,,,,,,,,,,,,,,,,,
1703495783.796027,1703495783.796439,32.000000,0.000000,4245.256348,4227.820313,4292.820313,4272.820313,4231.794922,4233.333496,4247.948730,4223.589844,4212.179688,4195.769043,4555.512695,4402.820313,4384.358887,4472.436035,0.000000,4.000000,76.000000,,,,0.000000,4.000000,4.000000,4.000000,4.000000,4.000000,4.000000,4.000000,4.000000,4.000000,4.000000,4.000000,4.000000,4.000000,4.000000,100.000000,,,,,,,,,,,,,,,,,8.000000,0.000000,0.666006,0.245239,-0.676636,0.196106,0.980100,0.059578,-0.031742,-17.153492,-38.028385,62.936485
1703495783.803836,1703495783.804247,33.000000,0.000000,4244.487305,4226.153809,4291.410156,4257.436035,4209.743652,4229.615234,4240.769043,4234.230957,4221.666504,4201.282227,4556.282227,4408.717773,4383.589844,4469.230957,0.000000,4.000000,76.000000,,,,0.000000,4.000000,4.000000,4.000000,4.000000,4.000000,4.000000,4.000000,4.000000,4.000000,4.000000,4.000000,4.000000,4.000000,4.000000,100.000000,,,,,,,,,,,,,,,,,,,,,,,,,,,,
1703495783.811643,1703495783.811955,34.000000,0.000000,4245.897461,4227.820313,4289.358887,4261.666504,4215.512695,4233.333496,4244.615234,4237.307617,4224.615234,4204.358887,4582.051270,4418.846191,4395.897461,4492.436035,0.000000,4.000000,76.000000,,,,0.000000,4.000000,4.000000,4.000000,4.000000,4.000000,4.000000,4.000000,4.000000,4.000000,4.000000,4.000000,4.000000,4.000000,4.000000,100.000000,,,,,,,,,,,,,,,,,,,,,,,,,,,,
1703495783.819451,1703495783.819763,35.000000,0.000000,4246.794922,4230.000000,4288.974121,4272.692383,4241.794922,4235.769043,4251.025879,4247.563965,4232.563965,4227.948730,4604.615234,4431.538574,4412.948730,4511.025879,0.000000,4.000000,76.000000,,,,0.000000,4.000000,4.000000,4.000000,4.000000,4.000000,4.000000,4.000000,4.000000,4.000000,4.000000,4.000000,4.000000,4.000000,4.000000,100.000000,,,,,,,,,,,,,,,,,,,,,,,,,,,,
1703495783.827260,1703495783.827471,36.000000,0.000000,4255.384766,4236.922852,4293.846191,4275.897461,4236.794922,4228.846191,4248.461426,4255.512695,4240.128418,4244.102539,4607.563965,4436.794922,4424.358887,4515.897461,0.000000,4.000000,76.000000,,,,0.000000,4.000000,4.000000,4.000000,4.000000,4.000000,4.000000,4.000000,4.000000,4.000000,4.000000,4.000000,4.000000,4.000000,4.000000,100.000000,,,,,,,,,,,,,,,,,9.000000,0.000000,0.666055,0.245422,-0.676575,0.195923,0.984495,0.064461,-0.041997,-17.154810,-38.175549,62.942837
1703495783.835068,1703495783.835279,37.000000,0.000000,4264.487305,4243.077148,4298.846191,4279.230957,4221.410156,4220.769043,4245.256348,4249.487305,4234.871582,4237.051270,4607.948730,4438.846191,4427.948730,4525.000000,0.000000,4.000000,76.000000,,,,0.000000,4.000000,4.000000,4.000000,4.000000,4.000000,4.000000,4.000000,4.000000,4.000000,4.000000,4.000000,4.000000,4.000000,4.000000,100.000000,,,,,,,,,,,,,,,,,,,,,,,,,,,,
1703495783.842876,1703495783.842987,38.000000,0.000000,4267.948730,4247.563965,4303.333496,4288.333496,4239.615234,4219.615234,4251.153809,4236.410156,4222.692383,4228.077148,4609.871582,4442.436035,4427.051270,4523.974121,0.000000,4.000000,76.000000,,,,0.000000,4.000000,4.000000,4.000000,4.000000,4.000000,4.000000,4.000000,4.000000,4.000000,4.000000,4.000000,4.000000,4.000000,4.000000,100.000000,,,,,,,,,,,,,,,,,,,,,,,,,,,,
1703495783.850684,1703495783.850895,39.000000,0.000000,4273.205078,4254.230957,4311.922852,4298.077148,4257.051270,4219.230957,4257.436035,4231.153809,4214.743652,4225.897461,4606.153809,4440.256348,4427.692383,4515.384766,0.000000,4.000000,76.000000,,,,0.000000,4.000000,4.000000,4.000000,4.000000,4.000000,4.000000,4.000000,4.000000,4.000000,4.000000,4.000000,4.000000,4.000000,4.000000,100.000000,,,,,,,,,,,,,,,,,,,,,,,,,,,,
1703495783.858492,1703495783.858703,40.000000,0.000000,4279.871582,4259.102539,4315.641113,4301.025879,4246.153809,4217.563965,4254.487305,4232.051270,4215.256348,4218.205078,4601.538574,4433.717773,4425.897461,4528.205078,0.000000,4.000000,76.000000,,,,0.000000,4.000000,4.000000,4.000000,4.000000,4.000000,4.000000,4.000000,4.000000,4.000000,4.000000,4.000000,4.000000,4.000000,4.000000,100.000000,,,,,,,,,,,,,,,,,10.000000,0.000000,0.666023,0.245605,-0.676575,0.195801,0.974240,0.062996,-0.029789,-16.989328,-38.191326,62.831886
1703495783.866300,1703495783.866611,41.000000,0.000000,4290.128418,4265.769043,4319.102539,4300.000000,4234.230957,4215.000000,4250.769043,4231.922852,4215.641113,4209.743652,4596.538574,4434.230957,4420.641113,4533.205078,0.000000,4.000000,76.000000,,,,0.000000,4.000000,4.000000,4.000000,4.000000,4.000000,4.000000,4.000000,4.000000,4.000000,4.000000,4.000000,4.000000,4.000000,4.000000,100.000000,,,,,,,,,,,,,,,,,,,,,,,,,,,,
1703495783.874108,1703495783.874419,42.000000,0.000000,4304.487305,4279.230957,4327.820313,4309.230957,4229.358887,4205.512695,4249.102539,4238.717773,4213.717773,4225.256348,4599.487305,4444.487305,4432.307617,4527.436035,0.000000,4.000000,76.000000,,,,0.000000,4.000000,4.000000,4.000000,4.000000,4.000000,4.000000,4.000000,4.000000,4.000000,4.000000,4.000000,4.000000,4.000000,4.000000,100.000000,1.000000,83.333336,4.000000,3.000000,3.000000,4.000000,4.000000,4.000000,4.000000,4.000000,4.000000,4.000000,4.000000,4.000000,4.000000,4.000000,,,,,,,,,,,,
1703495783.881916,1703495783.882227,43.000000,0.000000,4304.230957,4276.794922,4322.692383,4311.922852,4229.615234,4197.051270,4247.692383,4251.025879,4215.897461,4244.358887,4606.794922,4449.230957,4448.717773,4542.692383,0.000000,4.000000,76.000000,,,,0.000000,4.000000,4.000000,4.000000,4.000000,4.000000,4.000000,4.000000,4.000000,4.000000,4.000000,4.000000,4.000000,4.000000,4.000000,100.000000,,,,,,,,,,,,,,,,,,,,,,,,,,,,
1703495783.889724,1703495783.889935,44.000000,0.000000,4286.794922,4256.153809,4311.025879,4298.333496,4235.128418,4197.692383,4246.025879,4245.512695,4218.846191,4230.000000,4598.205078,4442.436035,4434.487305,4548.333496,0.000000,4.000000,76.000000,,,,0.000000,4.000000,4.000000,4.000000,4.000000,4.000000,4.000000,4.000000,4.000000,4.000000,4.000000,4.000000,4.000000,4.000000,4.000000,100.000000,,,,,,,,,,,,,,,,,11.000000,0.000000,0.666040,0.245728,-0.676514,0.195801,0.990844,0.070321,-0.036626,-16.773729,-38.255527,62.798698
1703495783.897532,1703495783.897743,45.000000,0.000000,4277.563965,4249.743652,4308.717773,4289.487305,4232.307617,4198.717773,4240.384766,4236.025879,4217.692383,4213.205078,4594.487305,4436.538574,4418.205078,4530.256348,0.000000,4.000000,76.000000,,,,0.000000,4.000000,4.000000,4.000000,4.000000,4.000000,4.000000,4.000000,4.000000,4.000000,4.000000,4.000000,4.000000,4.000000,4.000000,100.000000,,,,,,,,,,,,,,,,,,,,,,,,,,,,
1703495783.905340,1703495783.905450,46.000000,0.000000,4270.641113,4246.410156,4302.692383,4285.128418,4220.641113,4195.256348,4234.358887,4241.025879,4215.000000,4218.333496,4602.948730,4434.230957,4420.384766,4511.153809,0.000000,4.000000,76.000000,,,,0.000000,4.000000,4.000000,4.000000,4.000000,4.000000,4.000000,4.000000,4.000000,4.000000,4.000000,4.000000,4.000000,4.000000,4.000000,100.000000,,,,,,,,,,,,,,,,,,,,,,,,,,,,
1703495783.913148,1703495783.913358,47.000000,0.000000,4255.000000,4230.897461,4291.922852,4277.051270,4217.563965,4193.205078,4231.794922,4241.282227,4216.666504,4209.358887,4588.461426,4427.179688,4405.256348,4493.846191,0.000000,4.000000,76.000000,,,,0.000000,4.000000,4.000000,4.000000,4.000000,4.000000,4.000000,4.000000,4.000000,4.000000,4.000000,4.000000,4.000000,4.000000,4.000000,100.000000,,,,,,,,,,,,,,,,,,,,,,,,,,,,
1703495783.920956,1703495783.921166,48.000000,0.000000,4250.000000,4229.230957,4287.820313,4273.589844,4228.077148,4198.461426,4237.436035,4226.282227,4219.230957,4191.666504,4562.563965,4415.384766,4382.948730,4485.769043,0.000000,4.000000,76.000000,,,,0.000000,4.000000,4.000000,4.000000,4.000000,4.000000,4.000000,4.000000,4.000000,4.000000,4.000000,4.000000,4.000000,4.000000,4.000000,100.000000,,,,,,,,,,,,,,,,,12.000000,0.000000,0.666110,0.245728,-0.676392,0.195984,0.995239,0.064461,-0.030277,-16.596355,-38.096642,62.868828
1703495783.928764,1703495783.929074,49.000000,0.000000,4248.205078,4235.512695,4290.256348,4273.205078,4229.487305,4210.769043,4243.333496,4215.512695,4221.666504,4196.666504,4556.922852,4411.538574,4386.538574,4490.769043,0.000000,4.000000,76.000000,,,,0.000000,4.000000,4.000000,4.000000,4.000000,4.000000,4.000000,4.000000,4.000000,4.000000,4.000000,4.000000,4.000000,4.000000,4.000000,100.000000,,,,,,,,,,,,,,,,,,,,,,,,,,,,
1703495783.936572,1703495783.936882,50.000000,0.000000,4234.615234,4224.871582,4284.487305,4266.538574,4215.256348,4217.948730,4237.563965,4215.769043,4220.128418,4205.128418,4557.436035,4409.871582,4396.153809,4482.436035,0.000000,4.000000,76.000000,,,,0.000000,4.000000,4.000000,4.000000,4.000000,4.000000,4.000000,4.000000,4.000000,4.000000,4.000000,4.000000,4.000000,4.000000,4.000000,100.000000,,,,,,,,,,,,,,,,,,,,,,,,,,,,
1703495783.944380,1703495783.944790,51.000000,0.000000,4226.794922,4214.743652,4274.743652,4258.205078,4216.025879,4213.717773,4234.487305,4217.820313,4210.769043,4198.589844,4551.538574,4403.333496,4390.897461,4461.538574,0.000000,4.000000,76.000000,,,,0.000000,4.000000,4.000000,4.000000,4.000000,4.000000,4.000000,4.000000,4.000000,4.000000,4.000000,4.000000,4.000000,4.000000,4.000000,100.000000,,,,,,,,,,,,,,,,,,,,,,,,,,,,
1703495783.952188,1703495783.952598,52.000000,0.000000,4236.666504,4216.282227,4281.666504,4255.256348,4222.051270,4213.333496,4239.358887,4211.666504,4209.358887,4188.846191,4545.512695,4401.666504,4387.051270,4460.769043,0.000000,4.000000,76.000000,,,,0.000000,4.000000,4.000000,4.000000,4.000000,4.000000,4.000000,4.000000,4.000000,4.000000,4.000000,4.000000,4.000000,4.000000,4.000000,100.000000,,,,,,,,,,,,,,,,,13.000000,0.000000,0.665973,0.245667,-0.676514,0.196106,0.990355,0.060066,-0.032230,-16.553387,-37.920311,62.865276
1703495783.959996,1703495783.960506,53.000000,0.000000,4245.512695,4217.692383,4293.846191,4259.102539,4210.641113,4215.000000,4236.025879,4202.436035,4214.871582,4189.102539,4533.717773,4402.051270,4387.051270,4481.282227,0.000000,4.000000,76.000000,,,,0.000000,4.000000,4.000000,4.000000,4.000000,4.000000,4.000000,4.000000,4.000000,4.000000,4.000000,4.000000,4.000000,4.000000,4.000000,100.000000,,,,,,,,,,,,,,,,,,,,,,,,,,,,
1703495783.967804,1703495783.968314,54.000000,0.000000,4246.794922,4225.769043,4294.102539,4267.436035,4214.871582,4208.077148,4235.512695,4205.512695,4207.563965,4192.692383,4531.410156,4406.794922,4384.615234,4492.948730,0.000000,4.000000,76.000000,,,,0.000000,4.000000,4.000000,4.000000,4.000000,4.000000,4.000000,4.000000,4.000000,4.000000,4.000000,4.000000,4.000000,4.000000,4.000000,100.000000,,,,,,,,,,,,,,,,,,,,,,,,,,,,
1703495783.975612,1703495783.976022,55.000000,0.000000,4252.436035,4236.666504,4295.000000,4271.410156,4236.538574,4202.692383,4246.794922,4217.820313,4206.153809,4197.179688,4553.974121,4421.282227,4395.512695,4493.974121,0.000000,4.000000,76.000000,,,,0.000000,4.000000,4.000000,4.000000,4.000000,4.000000,4.000000,4.000000,4.000000,4.000000,4.000000,4.000000,4.000000,4.000000,4.000000,100.000000,,,,,,,,,,,,,,,,,,,,,,,,,,,,
1703495783.983420,1703495783.983930,56.000000,0.000000,4263.077148,4237.436035,4306.538574,4276.794922,4233.461426,4205.384766,4249.358887,4227.051270,4224.487305,4211.538574,4574.615234,4434.743652,4415.256348,4503.717773,0.000000,4.000000,76.000000,,,,0.000000,4.000000,4.000000,4.000000,4.000000,4.000000,4.000000,4.000000,4.000000,4.000000,4.000000,4.000000,4.000000,4.000000,4.000000,100.000000,,,,,,,,,,,,,,,,,14.000000,0.000000,0.665778,0.245544,-0.676697,0.196289,0.984007,0.068368,-0.031254,-16.598049,-38.011612,62.778751
1703495783.991228,1703495783.991738,57.000000,0.000000,4267.051270,4236.922852,4309.743652,4281.025879,4210.384766,4203.974121,4239.358887,4232.307617,4228.846191,4221.025879,4575.128418,4439.102539,4416.282227,4513.846191,0.000000,4.000000,76.000000,,,,0.000000,4.000000,4.000000,4.000000,4.000000,4.000000,4.000000,4.000000,4.000000,4.000000,4.000000,4.000000,4.000000,4.000000,4.000000,100.000000,,,,,,,,,,,,,,,,,,,,,,,,,,,,
1703495783.999036,1703495783.999546,58.000000,0.000000,4263.974121,4246.794922,4302.051270,4277.563965,4203.461426,4197.692383,4234.871582,4235.256348,4216.025879,4216.922852,4581.666504,4442.436035,4410.512695,4518.077148,0.000000,4.000000,76.000000,,,,0.000000,4.000000,4.000000,4.000000,4.000000,4.000000,4.000000,4.000000,4.000000,4.000000,4.000000,4.000000,4.000000,4.000000,4.000000,100.000000,,,,,,,,,,,,,,,,,,,,,,,,,,,,
1703495784.006845,1703495784.007254,59.000000,0.000000,4263.333496,4247.307617,4302.820313,4278.974121,4203.461426,4197.179688,4232.307617,4235.641113,4216.410156,4211.538574,4587.948730,4445.384766,4416.794922,4518.333496,0.000000,4.000000,76.000000,,,,0.000000,4.000000,4.000000,4.000000,4.000000,4.000000,4.000000,4.000000,4.000000,4.000000,4.000000,4.000000,4.000000,4.000000,4.000000,100.000000,,,,,,,,,,,,,,,,,,,,,,,,,,,,
1703495784.014653,1703495784.015062,60.000000,0.000000,4260.897461,4235.128418,4302.563965,4278.461426,4209.230957,4205.897461,4232.436035,4234.358887,4222.692383,4216.666504,4575.769043,4439.230957,4414.743652,4500.897461,0.000000,4.000000,76.000000,,,,0.000000,4.000000,4.000000,4.000000,4.000000,4.000000,4.000000,4.000000,4.000000,4.000000,4.000000,4.000000,4.000000,4.000000,4.000000,100.000000,,,,,,,,,,,,,,,,,15.000000,0.000000,0.665804,0.245544,-0.676636,0.196411,0.985960,0.061043,-0.035649,-16.504910,-38.143784,62.867542
1703495784.022461,1703495784.022770,61.000000,0.000000,4245.897461,4227.563965,4286.666504,4267.307617,4226.922852,4216.153809,4243.974121,4234.102539,4218.589844,4212.563965,4565.000000,4422.179688,4397.436035,4481.410156,0.000000,4.000000,76.000000,,,,0.000000,4.000000,4.000000,4.000000,4.000000,4.000000,4.000000,4.000000,4.000000,4.000000,4.000000,4.000000,4.000000,4.000000,4.000000,100.000000,,,,,,,,,,,,,,,,,,,,,,,,,,,,
1703495784.030269,1703495784.030578,62.000000,0.000000,4228.717773,4221.538574,4275.641113,4258.589844,4225.897461,4216.666504,4245.256348,4230.897461,4213.333496,4187.307617,4555.128418,4407.820313,4383.717773,4486.794922,0.000000,4.000000,76.000000,,,,0.000000,4.000000,4.000000,4.000000,4.000000,4.000000,4.000000,4.000000,4.000000,4.000000,4.000000,4.000000,4.000000,4.000000,4.000000,100.000000,,,,,,,,,,,,,,,,,,,,,,,,,,,,
1703495784.038077,1703495784.038286,63.000000,0.000000,4230.512695,4217.563965,4281.282227,4260.128418,4214.230957,4213.589844,4237.051270,4224.487305,4215.000000,4173.846191,4539.230957,4409.230957,4380.384766,4495.384766,0.000000,4.000000,76.000000,,,,0.000000,4.000000,4.000000,4.000000,4.000000,4.000000,4.000000,4.000000,4.000000,4.000000,4.000000,4.000000,4.000000,4.000000,4.000000,100.000000,,,,,,,,,,,,,,,,,,,,,,,,,,,,
1703495784.045885,1703495784.046094,64.000000,0.000000,4241.794922,4217.307617,4286.410156,4257.051270,4216.410156,4211.025879,4236.538574,4219.487305,4216.410156,4181.538574,4530.128418,4417.307617,4376.666504,4488.974121,4532.000000,4.000000,76.000000,,,,0.000000,4.000000,4.000000,4.000000,4.000000,4.000000,4.000000,4.000000,4.000000,4.000000,4.000000,4.000000,4.000000,4.000000,4.000000,100.000000,,,,,,,,,,,,,,,,,16.000000,0.000000,0.665780,0.245728,-0.676575,0.196472,0.987914,0.047857,-0.024417,-16.571085,-38.196072,62.714123
1703495784.053693,1703495784.053803,65.000000,0.000000,4244.871582,4215.641113,4290.512695,4253.461426,4214.487305,4205.641113,4236.666504,4213.589844,4214.230957,4179.743652,4528.461426,4422.692383,4376.794922,4489.487305,5714.000000,4.000000,76.000000,,,,0.000000,4.000000,4.000000,4.000000,4.000000,4.000000,4.000000,4.000000,4.000000,4.000000,4.000000,4.000000,4.000000,4.000000,4.000000,100.000000,,,,,,,,,,,,,,,,,,,,,,,,,,,,
1703495784.061501,1703495784.061611,66.000000,0.000000,4246.922852,4222.179688,4298.717773,4263.461426,4216.666504,4209.487305,4239.230957,4208.333496,4216.282227,4180.000000,4536.025879,4431.282227,4397.051270,4503.846191,5526.000000,4.000000,76.000000,,,,0.000000,4.000000,4.000000,4.000000,4.000000,4.000000,4.000000,4.000000,4.000000,4.000000,4.000000,4.000000,4.000000,4.000000,4.000000,100.000000,,,,,,,,,,,,,,,,,,,,,,,,,,,,
1703495784.069309,1703495784.069319,67.000000,0.000000,4253.846191,4231.282227,4302.820313,4270.512695,4234.487305,4215.384766,4247.820313,4216.922852,4219.615234,4203.205078,4547.820313,4435.897461,4414.615234,4510.000000,5517.000000,4.000000,76.000000,,,,0.000000,4.000000,4.000000,4.000000,4.000000,4.000000,4.000000,4.000000,4.000000,4.000000,4.000000,4.000000,4.000000,4.000000,4.000000,100.000000,,,,,,,,,,,,,,,,,,,,,,,,,,,,
1703495784.077117,1703495784.077127,68.000000,0.000000,4253.333496,4225.384766,4297.051270,4264.871582,4226.282227,4205.641113,4243.205078,4224.230957,4219.487305,4209.871582,4542.307617,4427.563965,4408.589844,4501.922852,5389.000000,4.000000,76.000000,,,,0.000000,4.000000,4.000000,4.000000,4.000000,4.000000,4.000000,4.000000,4.000000,4.000000,4.000000,4.000000,4.000000,4.000000,4.000000,100.000000,,,,,,,,,,,,,,,,,17.000000,0.000000,0.665758,0.245789,-0.676575,0.196472,0.986937,0.043462,-0.037602,-16.713978,-38.243134,62.709377
1703495784.084925,1703495784.084834,69.000000,0.000000,4240.897461,4214.358887,4288.974121,4259.615234,4199.487305,4195.000000,4228.077148,4216.410156,4215.897461,4193.077148,4522.820313,4422.436035,4396.282227,4488.717773,4984.000000,4.000000,76.000000,,,,0.000000,4.000000,4.000000,4.000000,4.000000,4.000000,4.000000,4.000000,4.000000,4.000000,4.000000,4.000000,4.000000,4.000000,4.000000,100.000000,,,,,,,,,,,,,,,,,,,,,,,,,,,,
1703495784.092733,1703495784.092742,70.000000,0.000000,4234.871582,4212.307617,4290.512695,4261.282227,4198.717773,4200.769043,4228.077148,4218.333496,4216.282227,4193.974121,4512.307617,4427.563965,4392.948730,4478.333496,3443.000000,4.000000,76.000000,,,,0.000000,4.000000,4.000000,4.000000,4.000000,4.000000,4.000000,4.000000,4.000000,4.000000,4.000000,4.000000,4.000000,4.000000,4.000000,100.000000,,,,,,,,,,,,,,,,,,,,,,,,,,,,
1703495784.100541,1703495784.100550,71.000000,0.000000,4231.153809,4206.410156,4288.846191,4258.333496,4204.871582,4210.256348,4234.230957,4233.333496,4223.461426,4205.256348,4511.282227,4420.384766,4392.179688,4474.871582,3613.000000,4.000000,76.000000,,,,0.000000,4.000000,4.000000,4.000000,4.000000,4.000000,4.000000,4.000000,4.000000,4.000000,4.000000,4.000000,4.000000,4.000000,4.000000,100.000000,,,,,,,,,,,,,,,,,,,,,,,,,,,,
1703495784.108349,1703495784.108458,72.000000,0.000000,4220.384766,4198.717773,4280.000000,4248.077148,4203.077148,4213.846191,4231.794922,4236.922852,4227.179688,4204.230957,4509.743652,4413.205078,4389.230957,4469.871582,3308.000000,4.000000,76.000000,,,,0.000000,4.000000,4.000000,4.000000,4.000000,4.000000,4.000000,4.000000,4.000000,4.000000,4.000000,4.000000,4.000000,4.000000,4.000000,100.000000,,,,,,,,,,,,,,,,,18.000000,0.000000,0.665753,0.245850,-0.676575,0.196411,0.997680,0.057136,-0.038091,-16.725912,-38.168819,62.571770
1703495784.116157,1703495784.116266,73.000000,0.000000,4220.769043,4207.051270,4280.384766,4249.230957,4216.410156,4217.051270,4235.128418,4233.974121,4225.769043,4201.282227,4509.743652,4422.179688,4390.512695,4468.717773,5741.000000,4.000000,76.000000,,,,0.000000,4.000000,4.000000,4.000000,4.000000,4.000000,4.000000,4.000000,4.000000,4.000000,4.000000,4.000000,4.000000,4.000000,4.000000,100.000000,,,,,,,,,,,,,,,,,,,,,,,,,,,,
1703495784.123965,1703495784.124174,74.000000,0.000000,4230.769043,4215.512695,4285.000000,4260.897461,4228.333496,4220.128418,4243.333496,4232.179688,4222.820313,4202.179688,4506.922852,4419.871582,4391.410156,4470.769043,5998.000000,4.000000,76.000000,,,,0.000000,4.000000,4.000000,4.000000,4.000000,4.000000,4.000000,4.000000,4.000000,4.000000,4.000000,4.000000,4.000000,4.000000,4.000000,100.000000,,,,,,,,,,,,,,,,,,,,,,,,,,,,
1703495784.131773,1703495784.131982,75.000000,0.000000,4229.615234,4206.538574,4286.025879,4261.410156,4218.717773,4217.820313,4242.179688,4223.205078,4218.974121,4193.974121,4490.897461,4407.692383,4378.717773,4461.666504,6249.000000,4.000000,76.000000,,,,0.000000,4.000000,4.000000,4.000000,4.000000,4.000000,4.000000,4.000000,4.000000,4.000000,4.000000,4.000000,4.000000,4.000000,4.000000,100.000000,,,,,,,,,,,,,,,,,,,,,,,,,,,,
1703495784.139581,1703495784.139890,76.000000,0.000000,4224.743652,4203.205078,4285.769043,4255.512695,4211.666504,4214.615234,4235.128418,4214.615234,4217.307617,4187.436035,4481.025879,4410.128418,4370.512695,4455.512695,6678.000000,4.000000,76.000000,,,,0.000000,4.000000,4.000000,4.000000,4.000000,4.000000,4.000000,4.000000,4.000000,4.000000,4.000000,4.000000,4.000000,4.000000,4.000000,100.000000,,,,,,,,,,,,,,,,,19.000000,0.000000,0.665905,0.245850,-0.676514,0.196106,0.974240,0.071786,-0.032230,-16.819988,-38.218605,62.697929
1703495784.147389,1703495784.147698,77.000000,0.000000,4234.487305,4216.025879,4290.384766,4261.794922,4217.948730,4213.205078,4237.820313,4215.128418,4219.871582,4189.743652,4491.794922,4420.897461,4383.717773,4471.666504,6092.000000,4.000000,76.000000,,,,0.000000,4.000000,4.000000,4.000000,4.000000,4.000000,4.000000,4.000000,4.000000,4.000000,4.000000,4.000000,4.000000,4.000000,4.000000,100.000000,,,,,,,,,,,,,,,,,,,,,,,,,,,,
1703495784.155198,1703495784.155606,78.000000,0.000000,4244.871582,4221.025879,4298.205078,4269.487305,4218.333496,4207.692383,4241.410156,4214.487305,4218.077148,4186.794922,4498.974121,4422.692383,4390.641113,4486.922852,5998.000000,4.000000,76.000000,,,,0.000000,4.000000,4.000000,4.000000,4.000000,4.000000,4.000000,4.000000,4.000000,4.000000,4.000000,4.000000,4.000000,4.000000,4.000000,100.000000,,,,,,,,,,,,,,,,,,,,,,,,,,,,
1703495784.163005,1703495784.163414,79.000000,0.000000,4246.922852,4222.179688,4301.153809,4265.769043,4209.487305,4201.410156,4235.384766,4210.897461,4212.563965,4180.512695,4494.102539,4421.025879,4382.436035,4489.743652,6249.000000,4.000000,76.000000,,,,0.000000,4.000000,4.000000,4.000000,4.000000,4.000000,4.000000,4.000000,4.000000,4.000000,4.000000,4.000000,4.000000,4.000000,4.000000,100.000000,,,,,,,,,,,,,,,,,,,,,,,,,,,,
1703495784.170813,1703495784.171321,80.000000,0.000000,4251.153809,4229.871582,4305.384766,4263.333496,4211.025879,4200.512695,4234.102539,4212.820313,4213.717773,4175.128418,4492.563965,4425.256348,4382.948730,4491.794922,6678.000000,4.000000,76.000000,,,,0.000000,4.000000,4.000000,4.000000,4.000000,4.000000,4.000000,4.000000,4.000000,4.000000,4.000000,4.000000,4.000000,4.000000,4.000000,100.000000,,,,,,,,,,,,,,,,,20.000000,0.000000,0.666117,0.246094,-0.676270,0.195923,1.001587,0.062508,-0.026859,-16.837990,-38.246742,62.628136
1703495784.178621,1703495784.179129,81.000000,0.000000,4251.282227,4229.615234,4303.846191,4269.358887,4228.205078,4204.743652,4241.153809,4218.589844,4215.641113,4174.743652,4490.641113,4424.615234,4389.615234,4487.692383,6092.000000,4.000000,76.000000,,,,0.000000,4.000000,4.000000,4.000000,4.000000,4.000000,4.000000,4.000000,4.000000,4.000000,4.000000,4.000000,4.000000,4.000000,4.000000,100.000000,,,,,,,,,,,,,,,,,,,,,,,,,,,,
1703495784.186430,1703495784.186837,82.000000,0.000000,4239.487305,4216.153809,4286.794922,4264.230957,4233.846191,4211.538574,4242.307617,4216.153809,4213.589844,4168.333496,4475.769043,4410.384766,4383.589844,4471.794922,5998.000000,4.000000,76.000000,,,,0.000000,4.000000,4.000000,4.000000,4.000000,4.000000,4.000000,4.000000,4.000000,4.000000,4.000000,4.000000,4.000000,4.000000,4.000000,100.000000,,,,,,,,,,,,,,,,,,,,,,,,,,,,
1703495784.194238,1703495784.194645,83.000000,0.000000,4228.333496,4206.922852,4277.692383,4252.692383,4223.461426,4216.025879,4239.102539,4211.410156,4213.333496,4158.077148,4461.025879,4405.512695,4373.461426,4471.282227,6249.000000,4.000000,76.000000,,,,0.000000,4.000000,4.000000,4.000000,4.000000,4.000000,4.000000,4.000000,4.000000,4.000000,4.000000,4.000000,4.000000,4.000000,4.000000,100.000000,,,,,,,,,,,,,,,,,,,,,,,,,,,,
1703495784.202046,1703495784.202354,84.000000,0.000000,4226.794922,4208.589844,4283.589844,4252.563965,4209.102539,4217.692383,4234.871582,4215.256348,4217.948730,4168.461426,4465.256348,4415.769043,4375.128418,4472.436035,6678.000000,4.000000,76.000000,,,,0.000000,4.000000,4.000000,4.000000,4.000000,4.000000,4.000000,4.000000,4.000000,4.000000,4.000000,4.000000,4.000000,4.000000,4.000000,100.000000,,,,,,,,,,,,,,,,,21.000000,0.000000,0.666112,0.246155,-0.676270,0.195862,0.986937,0.070809,-0.032230,-16.870857,-38.122070,62.665321
1703495784.209854,1703495784.210262,85.000000,0.000000,4220.897461,4207.307617,4282.307617,4252.051270,4205.128418,4215.512695,4232.436035,4219.487305,4217.307617,4182.179688,4476.282227,4414.615234,4378.974121,4445.512695,6092.000000,4.000000,76.000000,,,,0.000000,4.000000,4.000000,4.000000,4.000000,4.000000,4.000000,4.000000,4.000000,4.000000,4.000000,4.000000,4.000000,4.000000,4.000000,100.000000,,,,,,,,,,,,,,,,,,,,,,,,,,,,
1703495784.217662,1703495784.218070,86.000000,0.000000,4216.025879,4200.384766,4277.948730,4250.512695,4216.282227,4209.230957,4234.102539,4217.051270,4218.077148,4179.615234,4481.282227,4407.563965,4382.179688,4444.358887,5998.000000,4.000000,76.000000,,,,0.000000,4.000000,4.000000,4.000000,4.000000,4.000000,4.000000,4.000000,4.000000,4.000000,4.000000,4.000000,4.000000,4.000000,4.000000,100.000000,,,,,,,,,,,,,,,,,,,,,,,,,,,,
1703495784.225470,1703495784.225878,87.000000,0.000000,4222.563965,4198.333496,4285.641113,4258.461426,4215.897461,4202.307617,4233.077148,4218.846191,4226.794922,4180.128418,4481.666504,4415.384766,4389.102539,4479.615234,6249.000000,4.000000,76.000000,,,,0.000000,4.000000,4.000000,4.000000,4.000000,4.000000,4.000000,4.000000,4.000000,4.000000,4.000000,4.000000,4.000000,4.000000,4.000000,100.000000,,,,,,,,,,,,,,,,,,,,,,,,,,,,
1703495784.233278,1703495784.233586,88.000000,0.000000,4230.897461,4204.871582,4296.794922,4264.871582,4196.666504,4198.333496,4229.102539,4226.025879,4225.128418,4187.563965,4486.666504,4431.410156,4398.717773,4492.692383,6678.000000,4.000000,76.000000,,,,0.000000,4.000000,4.000000,4.000000,4.000000,4.000000,4.000000,4.000000,4.000000,4.000000,4.000000,4.000000,4.000000,4.000000,4.000000,100.000000,,,,,,,,,,,,,,,,,22.000000,0.000000,0.666050,0.246155,-0.676331,0.195862,0.977170,0.060066,-0.030277,-17.050438,-38.159863,62.765457
1703495784.241086,1703495784.241494,89.000000,0.000000,4243.589844,4212.051270,4301.025879,4261.410156,4201.153809,4198.461426,4231.025879,4231.410156,4216.538574,4195.512695,4499.230957,4440.000000,4405.769043,4494.743652,6092.000000,4.000000,76.000000,,,,0.000000,4.000000,4.000000,4.000000,4.000000,4.000000,4.000000,4.000000,4.000000,4.000000,4.000000,4.000000,4.000000,4.000000,4.000000,100.000000,,,,,,,,,,,,,,,,,,,,,,,,,,,,
1703495784.248894,1703495784.249302,90.000000,0.000000,4258.717773,4217.051270,4304.871582,4263.717773,4221.922852,4201.922852,4236.666504,4234.487305,4217.692383,4208.974121,4507.307617,4446.282227,4409.487305,4503.333496,5998.000000,4.000000,76.000000,,,,0.000000,4.000000,4.000000,4.000000,4.000000,4.000000,4.000000,4.000000,4.000000,4.000000,4.000000,4.000000,4.000000,4.000000,4.000000,100.000000,,,,,,,,,,,,,,,,,,,,,,,,,,,,
1703495784.256702,1703495784.257210,91.000000,0.000000,4260.512695,4223.077148,4312.436035,4273.589844,4211.025879,4198.333496,4233.077148,4232.563965,4220.256348,4208.333496,4505.897461,4453.974121,4415.128418,4503.205078,6249.000000,4.000000,76.000000,,,,0.000000,4.000000,4.000000,4.000000,4.000000,4.000000,4.000000,4.000000,4.000000,4.000000,4.000000,4.000000,4.000000,4.000000,4.000000,100.000000,,,,,,,,,,,,,,,,,,,,,,,,,,,,
1703495784.264510,1703495784.265018,92.000000,0.000000,4261.410156,4230.384766,4316.153809,4279.743652,4203.077148,4196.282227,4231.282227,4230.512695,4217.563965,4194.871582,4505.641113,4458.717773,4422.563965,4510.897461,6678.000000,4.000000,76.000000,,,,0.000000,4.000000,4.000000,4.000000,4.000000,4.000000,4.000000,4.000000,4.000000,4.000000,4.000000,4.000000,4.000000,4.000000,4.000000,100.000000,,,,,,,,,,,,,,,,,23.000000,0.000000,0.666001,0.246094,-0.676331,0.196106,0.983030,0.068856,-0.025882,-17.045395,-38.143875,62.905579
1703495784.272318,1703495784.272926,93.000000,0.000000,4269.615234,4234.871582,4313.717773,4282.820313,4225.000000,4208.333496,4243.205078,4230.641113,4216.922852,4196.153809,4505.384766,4457.563965,4421.922852,4517.692383,6092.000000,4.000000,76.000000,,,,0.000000,4.000000,4.000000,4.000000,4.000000,4.000000,4.000000,4.000000,4.000000,4.000000,4.000000,4.000000,4.000000,4.000000,4.000000,100.000000,,,,,,,,,,,,,,,,,,,,,,,,,,,,
1703495784.280126,1703495784.280734,94.000000,0.000000,4258.077148,4224.102539,4300.897461,4266.666504,4225.897461,4212.307617,4243.461426,4222.436035,4217.820313,4191.153809,4488.077148,4437.179688,4405.641113,4491.794922,5998.000000,4.000000,76.000000,,,,0.000000,4.000000,4.000000,4.000000,4.000000,4.000000,4.000000,4.000000,4.000000,4.000000,4.000000,4.000000,4.000000,4.000000,4.000000,100.000000,,,,,,,,,,,,,,,,,,,,,,,,,,,,
1703495784.287934,1703495784.288642,95.000000,0.000000,4233.974121,4210.384766,4287.051270,4248.077148,4211.538574,4207.307617,4232.307617,4213.846191,4217.051270,4175.512695,4473.846191,4418.846191,4391.282227,4477.051270,6249.000000,4.000000,76.000000,,,,0.000000,4.000000,4.000000,4.000000,4.000000,4.000000,4.000000,4.000000,4.000000,4.000000,4.000000,4.000000,4.000000,4.000000,4.000000,100.000000,,,,,,,,,,,,,,,,,,,,,,,,,,,,
1703495784.295742,1703495784.296449,96.000000,0.000000,4230.769043,4207.307617,4287.820313,4254.102539,4216.922852,4212.051270,4232.563965,4217.051270,4217.307617,4174.615234,4474.102539,4416.410156,4388.077148,4484.102539,6678.000000,4.000000,76.000000,,,,0.000000,4.000000,4.000000,4.000000,4.000000,4.000000,4.000000,4.000000,4.000000,4.000000,4.000000,4.000000,4.000000,4.000000,4.000000,100.000000,,,,,,,,,,,,,,,,,24.000000,0.000000,0.666018,0.245972,-0.676270,0.196411,1.000610,0.060066,-0.028812,-17.257521,-38.179489,62.815018
1703495784.303550,1703495784.304357,97.000000,0.000000,4229.615234,4203.589844,4285.384766,4260.897461,4208.846191,4212.563965,4234.487305,4218.205078,4217.820313,4168.717773,4465.641113,4404.615234,4379.230957,4464.230957,6092.000000,4.000000,76.000000,,,,0.000000,4.000000,4.000000,4.000000,4.000000,4.000000,4.000000,4.000000,4.000000,4.000000,4.000000,4.000000,4.000000,4.000000,4.000000,100.000000,,,,,,,,,,,,,,,,,,,,,,,,,,,,
1703495784.311358,1703495784.312165,98.000000,0.000000,4215.384766,4197.948730,4274.615234,4251.025879,4195.897461,4203.205078,4230.384766,4213.717773,4216.922852,4155.000000,4455.384766,4395.000000,4367.436035,4434.102539,5998.000000,4.000000,76.000000,,,,0.000000,4.000000,4.000000,4.000000,4.000000,4.000000,4.000000,4.000000,4.000000,4.000000,4.000000,4.000000,4.000000,4.000000,4.000000,100.000000,,,,,,,,,,,,,,,,,,,,,,,,,,,,
1703495784.319166,1703495784.320073,99.000000,0.000000,4216.153809,4200.512695,4275.256348,4250.000000,4212.307617,4200.512695,4231.282227,4218.589844,4214.358887,4165.769043,4459.358887,4408.333496,4373.077148,4440.512695,6249.000000,4.000000,76.000000,,,,0.000000,4.000000,4.000000,4.000000,4.000000,4.000000,4.000000,4.000000,4.000000,4.000000,4.000000,4.000000,4.000000,4.000000,4.000000,100.000000,,,,,,,,,,,,,,,,,,,,,,,,,,,,
1703495784.326974,1703495784.327881,100.000000,0.000000,4230.897461,4202.563965,4285.512695,4262.307617,4211.794922,4201.794922,4231.410156,4227.692383,4214.102539,4180.000000,4474.102539,4427.051270,4391.410156,4475.512695,6678.000000,4.000000,76.000000,,,,0.000000,4.000000,4.000000,4.000000,4.000000,4.000000,4.000000,4.000000,4.000000,4.000000,4.000000,4.000000,4.000000,4.000000,4.000000,100.000000,,,,,,,,,,,,,,,,,25.000000,0.000000,0.666027,0.245850,-0.676270,0.196533,0.991332,0.050787,-0.024905,-17.298435,-38.228207,62.883518
1703495784.334782,1703495784.335789,101.000000,0.000000,4237.051270,4200.256348,4295.256348,4265.128418,4203.717773,4201.025879,4230.897461,4230.512695,4217.563965,4185.256348,4488.717773,4440.384766,4401.153809,4495.256348,6092.000000,4.000000,76.000000,,,,0.000000,4.000000,4.000000,4.000000,4.000000,4.000000,4.000000,4.000000,4.000000,4.000000,4.000000,4.000000,4.000000,4.000000,4.000000,100.000000,,,,,,,,,,,,,,,,,,,,,,,,,,,,
1703495784.342590,1703495784.343597,102.000000,0.000000,4237.820313,4205.897461,4297.692383,4261.922852,4230.000000,4203.717773,4238.974121,4229.487305,4217.436035,4203.333496,4500.897461,4444.102539,4401.666504,4489.615234,5998.000000,4.000000,76.000000,,,,0.000000,4.000000,4.000000,4.000000,4.000000,4.000000,4.000000,4.000000,4.000000,4.000000,4.000000,4.000000,4.000000,4.000000,4.000000,100.000000,,,,,,,,,,,,,,,,,,,,,,,,,,,,
1703495784.350398,1703495784.351405,103.000000,0.000000,4245.384766,4218.589844,4300.000000,4266.666504,4230.128418,4202.820313,4238.461426,4228.974121,4216.025879,4208.589844,4508.717773,4443.205078,4396.922852,4485.384766,6249.000000,4.000000,76.000000,,,,0.000000,4.000000,4.000000,4.000000,4.000000,4.000000,4.000000,4.000000,4.000000,4.000000,4.000000,4.000000,4.000000,4.000000,4.000000,100.000000,,,,,,,,,,,,,,,,,,,,,,,,,,,,
1703495784.358207,1703495784.359213,104.000000,0.000000,4262.692383,4229.230957,4306.666504,4278.974121,4199.615234,4198.461426,4229.487305,4230.128418,4216.025879,4190.256348,4510.512695,4455.512695,4395.128418,4492.948730,6678.000000,4.000000,76.000000,,,,0.000000,4.000000,4.000000,4.000000,4.000000,4.000000,4.000000,4.000000,4.000000,4.000000,4.000000,4.000000,4.000000,4.000000,4.000000,100.000000,,,,,,,,,,,,,,,,,26.000000,0.000000,0.666184,0.245544,-0.676208,0.196594,0.997192,0.068368,-0.031254,-17.335258,-38.188721,62.811832
1703495784.366015,1703495784.366921,105.000000,0.000000,4280.256348,4239.230957,4313.717773,4289.358887,4219.615234,4203.205078,4238.974121,4233.077148,4218.461426,4192.179688,4515.000000,4469.615234,4406.922852,4514.230957,6092.000000,4.000000,76.000000,,,,0.000000,4.000000,4.000000,4.000000,4.000000,4.000000,4.000000,4.000000,4.000000,4.000000,4.000000,4.000000,4.000000,4.000000,4.000000,100.000000,,,,,,,,,,,,,,,,,,,,,,,,,,,,
1703495784.373823,1703495784.374729,106.000000,0.000000,4279.102539,4237.820313,4316.153809,4282.563965,4242.436035,4208.461426,4247.692383,4235.256348,4225.000000,4207.948730,4511.153809,4463.077148,4405.256348,4515.128418,5998.000000,4.000000,76.000000,,,,0.000000,4.000000,4.000000,4.000000,4.000000,4.000000,4.000000,4.000000,4.000000,4.000000,4.000000,4.000000,4.000000,4.000000,4.000000,100.000000,1.000000,75.000000,4.000000,3.000000,4.000000,4.000000,4.000000,4.000000,4.000000,4.000000,4.000000,3.000000,4.000000,4.000000,4.000000,3.000000,,,,,,,,,,,,
1703495784.381631,1703495784.382437,107.000000,0.000000,4258.846191,4220.897461,4300.897461,4267.948730,4205.128418,4203.589844,4232.307617,4234.615234,4229.487305,4204.487305,4495.512695,4443.974121,4383.589844,4480.769043,6249.000000,4.000000,76.000000,,,,0.000000,4.000000,4.000000,4.000000,4.000000,4.000000,4.000000,4.000000,4.000000,4.000000,4.000000,4.000000,4.000000,4.000000,4.000000,100.000000,,,,,,,,,,,,,,,,,,,,,,,,,,,,
1703495784.389439,1703495784.390245,108.000000,0.000000,4247.820313,4214.102539,4281.922852,4262.820313,4192.563965,4205.128418,4228.974121,4236.922852,4230.512695,4195.769043,4487.820313,4431.153809,4380.000000,4468.846191,6678.000000,4.000000,76.000000,,,,0.000000,4.000000,4.000000,4.000000,4.000000,4.000000,4.000000,4.000000,4.000000,4.000000,4.000000,4.000000,4.000000,4.000000,4.000000,100.000000,,,,,,,,,,,,,,,,,27.000000,0.000000,0.666181,0.245361,-0.676331,0.196411,0.994750,0.067879,-0.026859,-17.151733,-38.153179,62.830650
1703495784.397247,1703495784.397953,109.000000,0.000000,4243.589844,4215.512695,4275.384766,4257.051270,4224.487305,4220.000000,4242.948730,4235.384766,4228.846191,4192.436035,4482.820313,4422.436035,4384.230957,4477.051270,6092.000000,4.000000,76.000000,,,,0.000000,4.000000,4.000000,4.000000,4.000000,4.000000,4.000000,4.000000,4.000000,4.000000,4.000000,4.000000,4.000000,4.000000,4.000000,100.000000,,,,,,,,,,,,,,,,,,,,,,,,,,,,
1703495784.405055,1703495784.405761,110.000000,0.000000,4235.128418,4205.769043,4276.538574,4245.000000,4222.307617,4220.128418,4238.717773,4223.333496,4224.487305,4183.205078,4474.743652,4414.871582,4372.436035,4465.256348,5998.000000,4.000000,76.000000,,,,0.000000,4.000000,4.000000,4.000000,4.000000,4.000000,4.000000,4.000000,4.000000,4.000000,4.000000,4.000000,4.000000,4.000000,4.000000,100.000000,,,,,,,,,,,,,,,,,,,,,,,,,,,,
1703495784.412863,1703495784.413469,111.000000,0.000000,4233.717773,4195.000000,4280.897461,4242.307617,4196.538574,4200.256348,4226.666504,4218.589844,4214.230957,4173.205078,4471.282227,4421.025879,4368.333496,4454.615234,6249.000000,4.000000,76.000000,,,,0.000000,4.000000,4.000000,4.000000,4.000000,4.000000,4.000000,4.000000,4.000000,4.000000,4.000000,4.000000,4.000000,4.000000,4.000000,100.000000,,,,,,,,,,,,,,,,,,,,,,,,,,,,
1703495784.420671,1703495784.421377,112.000000,0.000000,4242.179688,4207.563965,4285.769043,4256.025879,4208.846191,4195.641113,4231.153809,4219.102539,4204.615234,4176.025879,4475.000000,4434.615234,4374.871582,4458.974121,6678.000000,4.000000,76.000000,,,,0.000000,4.000000,4.000000,4.000000,4.000000,4.000000,4.000000,4.000000,4.000000,4.000000,4.000000,4.000000,4.000000,4.000000,4.000000,100.000000,,,,,,,,,,,,,,,,,28.000000,0.000000,0.666098,0.245300,-0.676453,0.196350,0.988402,0.070809,-0.027347,-17.019894,-38.037861,62.847584
1703495784.428479,1703495784.429185,113.000000,0.000000,4247.948730,4226.922852,4290.128418,4266.025879,4231.153809,4201.025879,4237.179688,4205.897461,4199.743652,4175.769043,4478.205078,4435.000000,4368.717773,4457.948730,6092.000000,4.000000,76.000000,,,,0.000000,4.000000,4.000000,4.000000,4.000000,4.000000,4.000000,4.000000,4.000000,4.000000,4.000000,4.000000,4.000000,4.000000,4.000000,100.000000,,,,,,,,,,,,,,,,,,,,,,,,,,,,
1703495784.436287,1703495784.437094,114.000000,0.000000,4248.461426,4223.333496,4294.102539,4264.102539,4221.666504,4189.871582,4233.333496,4195.512695,4197.436035,4156.794922,4484.230957,4433.333496,4361.794922,4466.025879,5998.000000,4.000000,76.000000,,,,0.000000,4.000000,4.000000,4.000000,4.000000,4.000000,4.000000,4.000000,4.000000,4.000000,4.000000,4.000000,4.000000,4.000000,4.000000,100.000000,,,,,,,,,,,,,,,,,,,,,,,,,,,,
1703495784.444095,1703495784.444902,115.000000,0.000000,4255.641113,4218.205078,4299.230957,4269.230957,4212.179688,4181.794922,4230.000000,4208.846191,4203.333496,4151.922852,4496.538574,4448.717773,4373.974121,4479.871582,6249.000000,4.000000,76.000000,,,,0.000000,4.000000,4.000000,4.000000,4.000000,4.000000,4.000000,4.000000,4.000000,4.000000,4.000000,4.000000,4.000000,4.000000,4.000000,100.000000,,,,,,,,,,,,,,,,,,,,,,,,,,,,
1703495784.451903,1703495784.452810,116.000000,0.000000,4264.102539,4227.948730,4307.179688,4277.436035,4216.410156,4186.410156,4231.410156,4220.256348,4212.436035,4169.871582,4501.153809,4463.589844,4381.538574,4466.922852,6678.000000,4.000000,76.000000,,,,0.000000,4.000000,4.000000,4.000000,4.000000,4.000000,4.000000,4.000000,4.000000,4.000000,4.000000,4.000000,4.000000,4.000000,4.000000,100.000000,,,,,,,,,,,,,,,,,29.000000,0.000000,0.666100,0.245483,-0.676331,0.196533,0.994262,0.065926,-0.032719,-17.017904,-38.167408,62.979492
1703495784.459711,1703495784.460618,117.000000,0.000000,4267.179688,4235.769043,4309.871582,4280.512695,4221.025879,4185.641113,4232.820313,4213.974121,4211.025879,4182.051270,4503.717773,4460.512695,4379.358887,4467.307617,6092.000000,4.000000,76.000000,,,,0.000000,4.000000,4.000000,4.000000,4.000000,4.000000,4.000000,4.000000,4.000000,4.000000,4.000000,4.000000,4.000000,4.000000,4.000000,100.000000,,,,,,,,,,,,,,,,,,,,,,,,,,,,
1703495784.467519,1703495784.468426,118.000000,0.000000,4269.230957,4233.717773,4301.410156,4279.102539,4225.512695,4180.128418,4231.410156,4213.461426,4201.538574,4186.666504,4501.794922,4453.077148,4379.615234,4482.563965,5998.000000,4.000000,76.000000,,,,0.000000,4.000000,4.000000,4.000000,4.000000,4.000000,4.000000,4.000000,4.000000,4.000000,4.000000,4.000000,4.000000,4.000000,4.000000,100.000000,,,,,,,,,,,,,,,,,,,,,,,,,,,,
1703495784.475327,1703495784.476134,119.000000,0.000000,4262.692383,4229.743652,4294.358887,4270.384766,4223.846191,4181.282227,4231.410156,4220.000000,4203.205078,4183.077148,4492.692383,4446.666504,4373.589844,4465.384766,6249.000000,4.000000,76.000000,,,,0.000000,4.000000,4.000000,4.000000,4.000000,4.000000,4.000000,4.000000,4.000000,4.000000,4.000000,4.000000,4.000000,4.000000,4.000000,100.000000,,,,,,,,,,,,,,,,,,,,,,,,,,,,
1703495784.483135,1703495784.484042,120.000000,0.000000,4251.922852,4222.307617,4285.128418,4265.641113,4217.179688,4193.589844,4231.794922,4221.410156,4215.769043,4167.692383,4489.230957,4430.769043,4364.743652,4447.179688,6678.000000,4.000000,76.000000,,,,0.000000,4.000000,4.000000,4.000000,4.000000,4.000000,4.000000,4.000000,4.000000,4.000000,4.000000,4.000000,4.000000,4.000000,4.000000,100.000000,,,,,,,,,,,,,,,,,30.000000,0.000000,0.666095,0.245667,-0.676270,0.196533,0.990844,0.056648,-0.039556,-17.116114,-38.100670,63.031544
1703495784.490943,1703495784.491850,121.000000,0.000000,4243.589844,4214.743652,4271.410156,4265.641113,4214.615234,4211.153809,4232.563965,4227.563965,4222.179688,4170.897461,4479.102539,4418.205078,4359.615234,4447.820313,6092.000000,4.000000,76.000000,,,,0.000000,4.000000,4.000000,4.000000,4.000000,4.000000,4.000000,4.000000,4.000000,4.000000,4.000000,4.000000,4.000000,4.000000,4.000000,100.000000,,,,,,,,,,,,,,,,,,,,,,,,,,,,
1703495784.498751,1703495784.499758,122.000000,0.000000,4236.282227,4213.077148,4267.307617,4254.358887,4216.153809,4217.179688,4233.846191,4232.307617,4221.282227,4185.897461,4462.051270,4415.897461,4353.333496,4426.666504,5998.000000,4.000000,76.000000,,,,0.000000,4.000000,4.000000,4.000000,4.000000,4.000000,4.000000,4.000000,4.000000,4.000000,4.000000,4.000000,4.000000,4.000000,4.000000,100.000000,,,,,,,,,,,,,,,,,,,,,,,,,,,,
1703495784.506559,1703495784.507566,123.000000,0.000000,4229.230957,4212.563965,4267.692383,4249.871582,4225.384766,4210.384766,4235.256348,4223.974121,4218.589844,4180.128418,4462.948730,4414.230957,4352.051270,4406.922852,6249.000000,4.000000,76.000000,,,,0.000000,4.000000,4.000000,4.000000,4.000000,4.000000,4.000000,4.000000,4.000000,4.000000,4.000000,4.000000,4.000000,4.000000,4.000000,100.000000,,,,,,,,,,,,,,,,,,,,,,,,,,,,
1703495784.514367,1703495784.515474,124.000000,0.000000,4229.871582,4213.974121,4269.230957,4259.743652,4224.615234,4206.025879,4232.179688,4215.512695,4216.538574,4166.666504,4467.820313,4416.666504,4358.077148,4423.589844,6678.000000,4.000000,76.000000,,,,0.000000,4.000000,4.000000,4.000000,4.000000,4.000000,4.000000,4.000000,4.000000,4.000000,4.000000,4.000000,4.000000,4.000000,4.000000,100.000000,,,,,,,,,,,,,,,,,31.000000,0.000000,0.666130,0.245789,-0.676208,0.196472,0.989867,0.054206,-0.030277,-17.104502,-37.890602,62.978390
1703495784.522175,1703495784.523282,125.000000,0.000000,4238.333496,4221.282227,4275.641113,4266.153809,4203.846191,4202.692383,4226.666504,4214.743652,4216.153809,4172.563965,4465.128418,4425.128418,4362.820313,4440.897461,6092.000000,4.000000,76.000000,,,,0.000000,4.000000,4.000000,4.000000,4.000000,4.000000,4.000000,4.000000,4.000000,4.000000,4.000000,4.000000,4.000000,4.000000,4.000000,100.000000,,,,,,,,,,,,,,,,,,,,,,,,,,,,
1703495784.529983,1703495784.530990,126.000000,0.000000,4250.512695,4231.410156,4286.153809,4271.282227,4204.358887,4197.948730,4228.974121,4218.974121,4211.025879,4177.051270,4481.410156,4439.743652,4369.487305,4448.717773,5998.000000,4.000000,76.000000,,,,0.000000,4.000000,4.000000,4.000000,4.000000,4.000000,4.000000,4.000000,4.000000,4.000000,4.000000,4.000000,4.000000,4.000000,4.000000,100.000000,,,,,,,,,,,,,,,,,,,,,,,,,,,,
1703495784.537792,1703495784.538898,127.000000,0.000000,4262.179688,4237.307617,4298.717773,4278.461426,4232.307617,4195.897461,4236.153809,4224.102539,4204.487305,4163.589844,4497.563965,4454.871582,4373.589844,4461.410156,76.000000,4.000000,76.000000,,,,0.000000,4.000000,4.000000,4.000000,4.000000,4.000000,4.000000,4.000000,4.000000,4.000000,4.000000,4.000000,4.000000,4.000000,4.000000,100.000000,,,,,,,,,,,,,,,,,,,,,,,,,,,,
1703495784.545600,1703495784.546706,0.000000,0.000000,4263.846191,4234.358887,4304.871582,4277.179688,4234.358887,4189.743652,4235.384766,4222.563965,4205.512695,4164.230957,4484.615234,4458.077148,4366.538574,4468.974121,4522.000000,4.000000,76.000000,,,,0.000000,4.000000,4.000000,4.000000,4.000000,4.000000,4.000000,4.000000,4.000000,4.000000,4.000000,4.000000,4.000000,4.000000,4.000000,100.000000,,,,,,,,,,,,,,,,,0.000000,0.000000,0.666251,0.245605,-0.676208,0.196289,0.990844,0.067879,-0.032230,-17.194052,-37.884876,62.813885
1703495784.553408,1703495784.554514,1.000000,0.000000,4262.692383,4233.846191,4302.948730,4278.589844,4222.179688,4184.743652,4231.922852,4217.179688,4205.256348,4173.846191,4466.153809,4457.820313,4359.743652,4458.974121,5686.000000,4.000000,76.000000,,,,0.000000,4.000000,4.000000,4.000000,4.000000,4.000000,4.000000,4.000000,4.000000,4.000000,4.000000,4.000000,4.000000,4.000000,4.000000,100.000000,,,,,,,,,,,,,,,,,,,,,,,,,,,,
1703495784.561216,1703495784.562222,2.000000,0.000000,4266.025879,4237.307617,4296.410156,4283.846191,4233.589844,4188.333496,4235.128418,4215.256348,4201.922852,4160.000000,4469.615234,4459.743652,4358.974121,4451.410156,5504.000000,4.000000,76.000000,,,,0.000000,4.000000,4.000000,4.000000,4.000000,4.000000,4.000000,4.000000,4.000000,4.000000,4.000000,4.000000,4.000000,4.000000,4.000000,100.000000,,,,,,,,,,,,,,,,,,,,,,,,,,,,
1703495784.569024,1703495784.570130,3.000000,0.000000,4256.153809,4223.077148,4285.769043,4267.692383,4228.974121,4189.615234,4233.717773,4207.820313,4198.077148,4143.461426,4471.282227,4445.512695,4349.487305,4451.922852,5504.000000,4.000000,76.000000,,,,0.000000,4.000000,4.000000,4.000000,4.000000,4.000000,4.000000,4.000000,4.000000,4.000000,4.000000,4.000000,4.000000,4.000000,4.000000,100.000000,,,,,,,,,,,,,,,,,,,,,,,,,,,,
1703495784.576832,1703495784.577939,4.000000,0.000000,4237.307617,4205.384766,4274.615234,4250.128418,4208.846191,4192.051270,4229.487305,4197.307617,4198.205078,4150.256348,4453.717773,4426.410156,4337.179688,4439.230957,5352.000000,4.000000,76.000000,,,,0.000000,4.000000,4.000000,4.000000,4.000000,4.000000,4.000000,4.000000,4.000000,4.000000,4.000000,4.000000,4.000000,4.000000,4.000000,100.000000,,,,,,,,,,,,,,,,,1.000000,0.000000,0.666230,0.245544,-0.676270,0.196228,0.992797,0.068368,-0.033696,-16.991314,-37.946388,62.949162
1703495784.584640,1703495784.585747,5.000000,0.000000,4223.717773,4202.436035,4264.358887,4250.256348,4212.436035,4202.820313,4230.512695,4204.743652,4206.666504,4160.384766,4438.077148,4417.948730,4336.153809,4420.128418,4971.000000,4.000000,76.000000,,,,0.000000,4.000000,4.000000,4.000000,4.000000,4.000000,4.000000,4.000000,4.000000,4.000000,4.000000,4.000000,4.000000,4.000000,4.000000,100.000000,,,,,,,,,,,,,,,,,,,,,,,,,,,,
1703495784.592448,1703495784.593455,6.000000,0.000000,4217.051270,4201.922852,4257.436035,4249.358887,4218.205078,4211.153809,4233.333496,4221.153809,4216.666504,4164.102539,4441.153809,4414.487305,4343.589844,4418.717773,3428.000000,4.000000,76.000000,,,,0.000000,4.000000,4.000000,4.000000,4.000000,4.000000,4.000000,4.000000,4.000000,4.000000,4.000000,4.000000,4.000000,4.000000,4.000000,100.000000,,,,,,,,,,,,,,,,,,,,,,,,,,,,
1703495784.600256,1703495784.601363,7.000000,0.000000,4218.077148,4203.589844,4260.384766,4247.307617,4218.205078,4215.641113,4236.025879,4232.692383,4224.487305,4185.256348,4459.743652,4421.794922,4361.410156,4437.948730,3620.000000,4.000000,76.000000,,,,0.000000,4.000000,4.000000,4.000000,4.000000,4.000000,4.000000,4.000000,4.000000,4.000000,4.000000,4.000000,4.000000,4.000000,4.000000,100.000000,,,,,,,,,,,,,,,,,,,,,,,,,,,,
1703495784.608064,1703495784.609171,8.000000,0.000000,4228.846191,4214.102539,4274.358887,4253.205078,4226.025879,4215.897461,4236.153809,4244.358887,4232.051270,4207.179688,4476.666504,4443.077148,4381.153809,4444.743652,3306.000000,4.000000,76.000000,,,,0.000000,4.000000,4.000000,4.000000,4.000000,4.000000,4.000000,4.000000,4.000000,4.000000,4.000000,4.000000,4.000000,4.000000,4.000000,100.000000,,,,,,,,,,,,,,,,,2.000000,0.000000,0.666225,0.245605,-0.676270,0.196167,0.990355,0.065438,-0.033207,-17.142181,-37.901749,62.920914
1703495784.615872,1703495784.616979,9.000000,0.000000,4243.205078,4220.384766,4292.692383,4263.461426,4226.282227,4208.717773,4236.025879,4248.461426,4235.000000,4214.615234,4491.153809,4465.641113,4390.384766,4445.641113,5753.000000,4.000000,76.000000,,,,0.000000,4.000000,4.000000,4.000000,4.000000,4.000000,4.000000,4.000000,4.000000,4.000000,4.000000,4.000000,4.000000,4.000000,4.000000,100.000000,,,,,,,,,,,,,,,,,,,,,,,,,,,,
1703495784.623680,1703495784.624687,10.000000,0.000000,4247.692383,4214.743652,4298.717773,4265.128418,4210.897461,4201.538574,4233.077148,4236.666504,4226.410156,4218.974121,4497.051270,4469.358887,4393.717773,4459.487305,5980.000000,4.000000,76.000000,,,,0.000000,4.000000,4.000000,4.000000,4.000000,4.000000,4.000000,4.000000,4.000000,4.000000,4.000000,4.000000,4.000000,4.000000,4.000000,100.000000,,,,,,,,,,,,,,,,,,,,,,,,,,,,
1703495784.631488,1703495784.632596,11.000000,0.000000,4248.077148,4215.256348,4298.333496,4263.205078,4213.846191,4196.666504,4231.153809,4230.512695,4215.897461,4217.563965,4487.948730,4467.179688,4398.461426,4470.641113,6219.000000,4.000000,76.000000,,,,0.000000,4.000000,4.000000,4.000000,4.000000,4.000000,4.000000,4.000000,4.000000,4.000000,4.000000,4.000000,4.000000,4.000000,4.000000,100.000000,,,,,,,,,,,,,,,,,,,,,,,,,,,,
1703495784.639296,1703495784.640404,12.000000,0.000000,4255.897461,4224.358887,4306.794922,4270.897461,4218.974121,4189.615234,4230.000000,4233.333496,4215.641113,4203.461426,4483.461426,4478.205078,4396.538574,4471.922852,6659.000000,4.000000,76.000000,,,,0.000000,4.000000,4.000000,4.000000,4.000000,4.000000,4.000000,4.000000,4.000000,4.000000,4.000000,4.000000,4.000000,4.000000,4.000000,100.000000,,,,,,,,,,,,,,,,,3.000000,0.000000,0.666238,0.245789,-0.676208,0.196106,0.989379,0.068368,-0.036626,-17.277964,-37.811573,62.812153
1703495784.647104,1703495784.648312,13.000000,0.000000,4263.717773,4229.871582,4307.179688,4276.666504,4203.717773,4182.307617,4227.436035,4225.384766,4216.153809,4192.820313,4487.179688,4482.563965,4389.871582,4466.538574,6063.000000,4.000000,76.000000,,,,0.000000,4.000000,4.000000,4.000000,4.000000,4.000000,4.000000,4.000000,4.000000,4.000000,4.000000,4.000000,4.000000,4.000000,4.000000,100.000000,,,,,,,,,,,,,,,,,,,,,,,,,,,,
1703495784.654912,1703495784.656120,14.000000,0.000000,4268.077148,4233.077148,4302.307617,4271.282227,4210.641113,4183.333496,4230.512695,4221.153809,4207.179688,4192.307617,4485.769043,4478.077148,4401.025879,4473.077148,5980.000000,4.000000,76.000000,,,,0.000000,4.000000,4.000000,4.000000,4.000000,4.000000,4.000000,4.000000,4.000000,4.000000,4.000000,4.000000,4.000000,4.000000,4.000000,100.000000,,,,,,,,,,,,,,,,,,,,,,,,,,,,
1703495784.662720,1703495784.664028,15.000000,0.000000,4269.487305,4236.153809,4302.563965,4264.487305,4235.897461,4188.077148,4235.384766,4228.461426,4201.922852,4184.230957,4477.307617,4475.000000,4415.000000,4478.589844,6219.000000,4.000000,76.000000,,,,0.000000,4.000000,4.000000,4.000000,4.000000,4.000000,4.000000,4.000000,4.000000,4.000000,4.000000,4.000000,4.000000,4.000000,4.000000,100.000000,,,,,,,,,,,,,,,,,,,,,,,,,,,,
1703495784.670528,1703495784.671835,16.000000,0.000000,4261.794922,4232.051270,4290.897461,4264.487305,4235.512695,4192.307617,4234.358887,4230.769043,4210.128418,4183.333496,4474.102539,4462.948730,4405.000000,4470.000000,0.000000,4.000000,76.000000,,,,0.000000,4.000000,4.000000,4.000000,4.000000,4.000000,4.000000,4.000000,4.000000,4.000000,4.000000,4.000000,4.000000,4.000000,4.000000,100.000000,,,,,,,,,,,,,,,,,4.000000,0.000000,0.666330,0.245728,-0.676086,0.196289,0.995239,0.055671,-0.038091,-17.166834,-37.963749,62.814274
1703495784.678336,1703495784.679743,17.000000,0.000000,4240.897461,4221.282227,4272.692383,4266.025879,4219.743652,4197.948730,4231.538574,4232.948730,4218.333496,4189.743652,4466.153809,4440.256348,4391.282227,4458.974121,0.000000,4.000000,76.000000,,,,0.000000,4.000000,4.000000,4.000000,4.000000,4.000000,4.000000,4.000000,4.000000,4.000000,4.000000,4.000000,4.000000,4.000000,4.000000,100.000000,,,,,,,,,,,,,,,,,,,,,,,,,,,,
1703495784.686144,1703495784.687551,18.000000,0.000000,4227.436035,4215.641113,4266.666504,4261.410156,4225.897461,4201.922852,4234.743652,4236.666504,4220.897461,4176.538574,4456.282227,4424.358887,4395.256348,4451.922852,0.000000,4.000000,76.000000,,,,0.000000,4.000000,4.000000,4.000000,4.000000,4.000000,4.000000,4.000000,4.000000,4.000000,4.000000,4.000000,4.000000,4.000000,4.000000,100.000000,,,,,,,,,,,,,,,,,,,,,,,,,,,,
1703495784.693952,1703495784.695459,19.000000,0.000000,4228.589844,4216.153809,4267.948730,4254.487305,4233.974121,4202.692383,4236.922852,4233.974121,4224.230957,4168.974121,4459.487305,4423.589844,4393.589844,4443.846191,0.000000,4.000000,76.000000,,,,0.000000,4.000000,4.000000,4.000000,4.000000,4.000000,4.000000,4.000000,4.000000,4.000000,4.000000,4.000000,4.000000,4.000000,4.000000,100.000000,,,,,,,,,,,,,,,,,,,,,,,,,,,,
1703495784.701760,1703495784.703267,20.000000,0.000000,4228.846191,4215.000000,4266.282227,4252.692383,4219.358887,4201.538574,4230.769043,4231.282227,4221.666504,4191.153809,4459.615234,4428.333496,4384.358887,4432.820313,0.000000,4.000000,76.000000,,,,0.000000,4.000000,4.000000,4.000000,4.000000,4.000000,4.000000,4.000000,4.000000,4.000000,4.000000,4.000000,4.000000,4.000000,4.000000,100.000000,,,,,,,,,,,,,,,,,5.000000,0.000000,0.666321,0.245605,-0.676086,0.196472,0.997192,0.048346,-0.008790,-17.233484,-38.017376,62.782845
1703495784.709568,1703495784.711175,21.000000,0.000000,4225.512695,4212.179688,4269.358887,4257.563965,4211.025879,4196.538574,4228.846191,4236.153809,4217.051270,4206.025879,4456.025879,4437.436035,4389.358887,4435.897461,0.000000,4.000000,76.000000,,,,0.000000,4.000000,4.000000,4.000000,4.000000,4.000000,4.000000,4.000000,4.000000,4.000000,4.000000,4.000000,4.000000,4.000000,4.000000,100.000000,,,,,,,,,,,,,,,,,,,,,,,,,,,,
1703495784.717377,1703495784.718983,22.000000,0.000000,4225.641113,4211.666504,4278.461426,4259.871582,4219.615234,4189.230957,4230.256348,4233.333496,4218.333496,4191.025879,4460.512695,4448.461426,4392.436035,4447.307617,0.000000,4.000000,76.000000,,,,0.000000,4.000000,4.000000,4.000000,4.000000,4.000000,4.000000,4.000000,4.000000,4.000000,4.000000,4.000000,4.000000,4.000000,4.000000,100.000000,,,,,,,,,,,,,,,,,,,,,,,,,,,,
1703495784.725185,1703495784.726691,23.000000,0.000000,4234.230957,4215.000000,4286.025879,4262.563965,4218.077148,4188.846191,4226.794922,4220.512695,4212.563965,4181.794922,4464.358887,4449.871582,4384.871582,4454.230957,0.000000,4.000000,76.000000,,,,0.000000,4.000000,4.000000,4.000000,4.000000,4.000000,4.000000,4.000000,4.000000,4.000000,4.000000,4.000000,4.000000,4.000000,4.000000,100.000000,,,,,,,,,,,,,,,,,,,,,,,,,,,,
1703495784.732993,1703495784.734499,24.000000,0.000000,4243.717773,4214.487305,4292.051270,4263.461426,4196.538574,4184.487305,4218.846191,4213.717773,4200.256348,4183.589844,4458.717773,4453.589844,4386.282227,4462.820313,0.000000,4.000000,76.000000,,,,0.000000,4.000000,4.000000,4.000000,4.000000,4.000000,4.000000,4.000000,4.000000,4.000000,4.000000,4.000000,4.000000,4.000000,4.000000,100.000000,,,,,,,,,,,,,,,,,6.000000,0.000000,0.666242,0.245483,-0.676208,0.196472,0.984007,0.058113,-0.033696,-17.210136,-38.098972,62.671227
1703495784.740801,1703495784.742207,25.000000,0.000000,4252.563965,4212.051270,4298.717773,4261.153809,4195.384766,4176.025879,4216.666504,4215.769043,4204.487305,4184.358887,4459.487305,4469.743652,4397.179688,4469.102539,0.000000,4.000000,76.000000,,,,0.000000,4.000000,4.000000,4.000000,4.000000,4.000000,4.000000,4.000000,4.000000,4.000000,4.000000,4.000000,4.000000,4.000000,4.000000,100.000000,,,,,,,,,,,,,,,,,,,,,,,,,,,,
1703495784.748609,1703495784.750015,26.000000,0.000000,4265.897461,4225.512695,4309.358887,4275.000000,4218.589844,4178.589844,4226.410156,4218.974121,4218.205078,4191.666504,4481.922852,4480.000000,4407.436035,4478.589844,0.000000,4.000000,76.000000,,,,0.000000,4.000000,4.000000,4.000000,4.000000,4.000000,4.000000,4.000000,4.000000,4.000000,4.000000,4.000000,4.000000,4.000000,4.000000,100.000000,,,,,,,,,,,,,,,,,,,,,,,,,,,,
1703495784.756417,1703495784.757723,27.000000,0.000000,4279.615234,4245.769043,4319.615234,4294.102539,4212.051270,4178.974121,4229.230957,4224.358887,4209.487305,4192.948730,4499.615234,4481.666504,4413.589844,4498.717773,0.000000,4.000000,76.000000,,,,0.000000,4.000000,4.000000,4.000000,4.000000,4.000000,4.000000,4.000000,4.000000,4.000000,4.000000,4.000000,4.000000,4.000000,4.000000,100.000000,,,,,,,,,,,,,,,,,,,,,,,,,,,,
1703495784.764225,1703495784.765531,28.000000,0.000000,4286.538574,4251.538574,4317.051270,4299.871582,4191.922852,4175.897461,4226.282227,4232.051270,4197.692383,4190.128418,4493.205078,4483.846191,4414.871582,4515.256348,0.000000,4.000000,76.000000,,,,0.000000,4.000000,4.000000,4.000000,4.000000,4.000000,4.000000,4.000000,4.000000,4.000000,4.000000,4.000000,4.000000,4.000000,4.000000,100.000000,,,,,,,,,,,,,,,,,7.000000,0.000000,0.666104,0.245544,-0.676270,0.196655,0.983518,0.065438,-0.035649,-17.122456,-38.072407,62.587437
1703495784.772033,1703495784.773239,29.000000,0.000000,4285.641113,4248.974121,4306.153809,4294.487305,4211.794922,4190.000000,4237.436035,4233.333496,4208.589844,4193.846191,4482.051270,4478.205078,4408.333496,4504.102539,0.000000,4.000000,76.000000,,,,0.000000,4.000000,4.000000,4.000000,4.000000,4.000000,4.000000,4.000000,4.000000,4.000000,4.000000,4.000000,4.000000,4.000000,4.000000,100.000000,,,,,,,,,,,,,,,,,,,,,,,,,,,,
1703495784.779841,1703495784.781047,30.000000,0.000000,4284.358887,4248.846191,4304.102539,4284.743652,4243.077148,4206.153809,4250.000000,4231.410156,4218.077148,4194.615234,4485.897461,4472.563965,4407.051270,4490.000000,0.000000,4.000000,76.000000,,,,0.000000,4.000000,4.000000,4.000000,4.000000,4.000000,4.000000,4.000000,4.000000,4.000000,4.000000,4.000000,4.000000,4.000000,4.000000,100.000000,,,,,,,,,,,,,,,,,,,,,,,,,,,,
1703495784.787649,1703495784.788755,31.000000,0.000000,4278.333496,4247.051270,4303.461426,4279.487305,4237.179688,4203.205078,4246.538574,4233.589844,4211.153809,4182.051270,4492.692383,4473.461426,4409.615234,4499.487305,0.000000,4.000000,76.000000,,,,0.000000,4.000000,4.000000,4.000000,4.000000,4.000000,4.000000,4.000000,4.000000,4.000000,4.000000,4.000000,4.000000,4.000000,4.000000,100.000000,,,,,,,,,,,,,,,,,,,,,,,,,,,,
1703495784.795457,1703495784.796563,32.000000,0.000000,4267.436035,4240.897461,4293.974121,4277.436035,4214.230957,4197.179688,4237.948730,4229.230957,4198.589844,4168.077148,4488.717773,4467.307617,4400.256348,4494.358887,0.000000,4.000000,76.000000,,,,0.000000,4.000000,4.000000,4.000000,4.000000,4.000000,4.000000,4.000000,4.000000,4.000000,4.000000,4.000000,4.000000,4.000000,4.000000,100.000000,,,,,,,,,,,,,,,,,8.000000,0.000000,0.666059,0.245667,-0.676270,0.196655,0.995239,0.058113,-0.022952,-17.160210,-38.148499,62.445362
1703495784.803265,1703495784.804271,33.000000,0.000000,4257.563965,4235.512695,4286.538574,4276.794922,4213.205078,4200.769043,4236.153809,4221.666504,4202.051270,4173.717773,4489.230957,4461.282227,4397.051270,4470.000000,0.000000,4.000000,76.000000,,,,0.000000,4.000000,4.000000,4.000000,4.000000,4.000000,4.000000,4.000000,4.000000,4.000000,4.000000,4.000000,4.000000,4.000000,4.000000,100.000000,,,,,,,,,,,,,,,,,,,,,,,,,,,,
1703495784.811073,1703495784.812079,34.000000,0.000000,4251.410156,4230.769043,4285.256348,4273.717773,4224.871582,4200.000000,4234.230957,4224.230957,4212.948730,4185.769043,4491.153809,4467.179688,4400.769043,4470.512695,0.000000,4.000000,76.000000,,,,0.000000,4.000000,4.000000,4.000000,4.000000,4.000000,4.000000,4.000000,4.000000,4.000000,4.000000,4.000000,4.000000,4.000000,4.000000,100.000000,,,,,,,,,,,,,,,,,,,,,,,,,,,,
1703495784.818881,1703495784.819787,35.000000,0.000000,4244.871582,4229.743652,4286.025879,4269.487305,4224.871582,4188.974121,4234.230957,4229.487305,4208.461426,4186.282227,4483.461426,4468.205078,4387.820313,4479.615234,0.000000,4.000000,76.000000,,,,0.000000,4.000000,4.000000,4.000000,4.000000,4.000000,4.000000,4.000000,4.000000,4.000000,4.000000,4.000000,4.000000,4.000000,4.000000,100.000000,,,,,,,,,,,,,,,,,,,,,,,,,,,,
1703495784.826689,1703495784.827695,36.000000,0.000000,4245.512695,4231.666504,4290.384766,4270.769043,4217.179688,4182.179688,4232.820313,4232.307617,4203.077148,4192.820313,4481.794922,4464.487305,4381.922852,4471.666504,0.000000,4.000000,76.000000,,,,0.000000,4.000000,4.000000,4.000000,4.000000,4.000000,4.000000,4.000000,4.000000,4.000000,4.000000,4.000000,4.000000,4.000000,4.000000,100.000000,,,,,,,,,,,,,,,,,9.000000,0.000000,0.666076,0.245789,-0.676208,0.196655,0.990355,0.060066,-0.041997,-17.277523,-38.133648,62.450825
1703495784.834497,1703495784.835503,37.000000,0.000000,4256.666504,4232.692383,4303.846191,4279.615234,4213.461426,4183.717773,4228.205078,4232.307617,4210.769043,4204.487305,4491.153809,4477.820313,4397.179688,4475.384766,0.000000,4.000000,76.000000,,,,0.000000,4.000000,4.000000,4.000000,4.000000,4.000000,4.000000,4.000000,4.000000,4.000000,4.000000,4.000000,4.000000,4.000000,4.000000,100.000000,,,,,,,,,,,,,,,,,,,,,,,,,,,,
1703495784.842305,1703495784.843411,38.000000,0.000000,4265.256348,4238.589844,4311.410156,4284.102539,4214.615234,4184.102539,4230.256348,4223.077148,4214.102539,4198.717773,4504.358887,4490.000000,4407.179688,4497.179688,0.000000,4.000000,76.000000,,,,0.000000,4.000000,4.000000,4.000000,4.000000,4.000000,4.000000,4.000000,4.000000,4.000000,4.000000,4.000000,4.000000,4.000000,4.000000,100.000000,,,,,,,,,,,,,,,,,,,,,,,,,,,,
1703495784.850113,1703495784.851219,39.000000,0.000000,4266.666504,4242.436035,4303.846191,4280.641113,4216.153809,4187.692383,4232.563965,4216.153809,4209.487305,4190.000000,4510.128418,4476.794922,4404.487305,4500.128418,0.000000,4.000000,76.000000,,,,0.000000,4.000000,4.000000,4.000000,4.000000,4.000000,4.000000,4.000000,4.000000,4.000000,4.000000,4.000000,4.000000,4.000000,4.000000,100.000000,,,,,,,,,,,,,,,,,,,,,,,,,,,,
1703495784.857921,1703495784.859127,40.000000,0.000000,4258.974121,4236.922852,4297.820313,4277.692383,4218.589844,4196.794922,4232.436035,4224.871582,4213.461426,4199.743652,4497.307617,4461.666504,4398.974121,4481.153809,0.000000,4.000000,76.000000,,,,0.000000,4.000000,4.000000,4.000000,4.000000,4.000000,4.000000,4.000000,4.000000,4.000000,4.000000,4.000000,4.000000,4.000000,4.000000,100.000000,,,,,,,,,,,,,,,,,10.000000,0.000000,0.666192,0.245789,-0.676147,0.196472,0.994262,0.063484,-0.030277,-17.516438,-38.253616,62.405743
1703495784.865729,1703495784.866935,41.000000,0.000000,4250.128418,4228.589844,4292.179688,4268.717773,4217.563965,4204.102539,4233.461426,4231.922852,4223.077148,4210.000000,4483.077148,4459.743652,4392.820313,4463.333496,0.000000,4.000000,76.000000,,,,0.000000,4.000000,4.000000,4.000000,4.000000,4.000000,4.000000,4.000000,4.000000,4.000000,4.000000,4.000000,4.000000,4.000000,4.000000,100.000000,,,,,,,,,,,,,,,,,,,,,,,,,,,,
1703495784.873537,1703495784.874843,42.000000,0.000000,4254.102539,4232.051270,4288.846191,4261.538574,4215.256348,4207.436035,4233.589844,4231.153809,4226.025879,4205.641113,4493.589844,4465.769043,4393.333496,4465.512695,0.000000,4.000000,76.000000,,,,0.000000,4.000000,4.000000,4.000000,4.000000,4.000000,4.000000,4.000000,4.000000,4.000000,4.000000,4.000000,4.000000,4.000000,4.000000,100.000000,1.000000,91.666664,4.000000,4.000000,4.000000,4.000000,4.000000,4.000000,4.000000,4.000000,4.000000,3.000000,4.000000,4.000000,4.000000,4.000000,,,,,,,,,,,,
1703495784.881345,1703495784.882651,43.000000,0.000000,4270.384766,4243.589844,4296.922852,4271.410156,4213.846191,4208.077148,4232.051270,4237.948730,4221.153809,4201.922852,4516.538574,4481.410156,4405.769043,4489.230957,0.000000,4.000000,76.000000,,,,0.000000,4.000000,4.000000,4.000000,4.000000,4.000000,4.000000,4.000000,4.000000,4.000000,4.000000,4.000000,4.000000,4.000000,4.000000,100.000000,,,,,,,,,,,,,,,,,,,,,,,,,,,,
1703495784.889154,1703495784.890559,44.000000,0.000000,4282.563965,4249.743652,4304.102539,4285.256348,4221.794922,4207.563965,4240.256348,4247.820313,4216.153809,4212.307617,4525.000000,4495.769043,4423.717773,4511.025879,0.000000,4.000000,76.000000,,,,0.000000,4.000000,4.000000,4.000000,4.000000,4.000000,4.000000,4.000000,4.000000,4.000000,4.000000,4.000000,4.000000,4.000000,4.000000,100.000000,,,,,,,,,,,,,,,,,11.000000,0.000000,0.666121,0.245911,-0.676208,0.196350,0.972287,0.065438,-0.042974,-17.514793,-38.144924,62.498501
1703495784.896962,1703495784.898366,45.000000,0.000000,4282.307617,4256.410156,4305.512695,4290.128418,4237.563965,4206.025879,4247.307617,4247.179688,4218.205078,4224.487305,4523.846191,4494.358887,4434.358887,4512.436035,0.000000,4.000000,76.000000,,,,0.000000,4.000000,4.000000,4.000000,4.000000,4.000000,4.000000,4.000000,4.000000,4.000000,4.000000,4.000000,4.000000,4.000000,4.000000,100.000000,,,,,,,,,,,,,,,,,,,,,,,,,,,,
1703495784.904770,1703495784.906075,46.000000,0.000000,4283.717773,4267.307617,4303.589844,4295.256348,4232.307617,4201.025879,4238.589844,4237.051270,4218.717773,4217.820313,4528.846191,4483.205078,4430.384766,4508.846191,0.000000,4.000000,76.000000,,,,0.000000,4.000000,4.000000,4.000000,4.000000,4.000000,4.000000,4.000000,4.000000,4.000000,4.000000,4.000000,4.000000,4.000000,4.000000,100.000000,,,,,,,,,,,,,,,,,,,,,,,,,,,,
1703495784.912578,1703495784.913883,47.000000,0.000000,4289.487305,4272.307617,4302.948730,4301.282227,4224.871582,4196.538574,4240.769043,4231.794922,4216.153809,4207.436035,4535.512695,4483.846191,4430.256348,4508.589844,0.000000,4.000000,76.000000,,,,0.000000,4.000000,4.000000,4.000000,4.000000,4.000000,4.000000,4.000000,4.000000,4.000000,4.000000,4.000000,4.000000,4.000000,4.000000,100.000000,,,,,,,,,,,,,,,,,,,,,,,,,,,,
1703495784.920386,1703495784.921591,48.000000,0.000000,4282.948730,4267.051270,4301.410156,4291.153809,4233.846191,4193.077148,4248.333496,4235.384766,4214.230957,4210.384766,4529.743652,4486.794922,4432.948730,4502.948730,0.000000,4.000000,76.000000,,,,0.000000,4.000000,4.000000,4.000000,4.000000,4.000000,4.000000,4.000000,4.000000,4.000000,4.000000,4.000000,4.000000,4.000000,4.000000,100.000000,,,,,,,,,,,,,,,,,12.000000,0.000000,0.666332,0.246155,-0.675964,0.196167,0.997680,0.065438,-0.030277,-17.529980,-38.330429,62.348652
1703495784.928194,1703495784.929399,49.000000,0.000000,4267.948730,4262.436035,4293.077148,4284.487305,4234.615234,4186.922852,4240.128418,4229.358887,4209.743652,4206.922852,4519.871582,4474.743652,4421.666504,4486.666504,0.000000,4.000000,76.000000,,,,0.000000,4.000000,4.000000,4.000000,4.000000,4.000000,4.000000,4.000000,4.000000,4.000000,4.000000,4.000000,4.000000,4.000000,4.000000,100.000000,,,,,,,,,,,,,,,,,,,,,,,,,,,,
1703495784.936002,1703495784.937107,50.000000,0.000000,4261.538574,4258.846191,4288.974121,4290.256348,4225.512695,4184.743652,4235.769043,4216.282227,4204.743652,4191.410156,4512.820313,4468.077148,4407.179688,4464.487305,0.000000,4.000000,76.000000,,,,0.000000,4.000000,4.000000,4.000000,4.000000,4.000000,4.000000,4.000000,4.000000,4.000000,4.000000,4.000000,4.000000,4.000000,4.000000,100.000000,,,,,,,,,,,,,,,,,,,,,,,,,,,,
1703495784.943810,1703495784.944915,51.000000,0.000000,4251.410156,4243.974121,4288.846191,4284.230957,4224.615234,4186.025879,4238.717773,4213.974121,4201.153809,4185.384766,4500.897461,4465.897461,4398.974121,4457.692383,0.000000,4.000000,76.000000,,,,0.000000,4.000000,4.000000,4.000000,4.000000,4.000000,4.000000,4.000000,4.000000,4.000000,4.000000,4.000000,4.000000,4.000000,4.000000,100.000000,,,,,,,,,,,,,,,,,,,,,,,,,,,,
1703495784.951618,1703495784.952623,52.000000,0.000000,4232.179688,4230.641113,4282.563965,4268.974121,4224.615234,4186.282227,4233.077148,4219.487305,4200.641113,4181.794922,4486.922852,4450.000000,4386.922852,4453.846191,0.000000,4.000000,76.000000,,,,0.000000,4.000000,4.000000,4.000000,4.000000,4.000000,4.000000,4.000000,4.000000,4.000000,4.000000,4.000000,4.000000,4.000000,4.000000,100.000000,,,,,,,,,,,,,,,,,13.000000,0.000000,0.666389,0.246216,-0.675903,0.196106,0.983030,0.063484,-0.037602,-17.560316,-38.214054,62.563786
1703495784.959426,1703495784.960431,53.000000,0.000000,4223.974121,4230.641113,4280.512695,4262.692383,4216.282227,4193.589844,4231.025879,4224.615234,4208.333496,4171.410156,4488.717773,4444.487305,4378.974121,4437.820313,0.000000,4.000000,76.000000,,,,0.000000,4.000000,4.000000,4.000000,4.000000,4.000000,4.000000,4.000000,4.000000,4.000000,4.000000,4.000000,4.000000,4.000000,4.000000,100.000000,,,,,,,,,,,,,,,,,,,,,,,,,,,,
1703495784.967234,1703495784.968139,54.000000,0.000000,4228.333496,4231.794922,4284.230957,4261.794922,4215.897461,4204.358887,4235.769043,4226.410156,4222.051270,4179.102539,4501.794922,4458.846191,4389.487305,4437.820313,0.000000,4.000000,76.000000,,,,0.000000,4.000000,4.000000,4.000000,4.000000,4.000000,4.000000,4.000000,4.000000,4.000000,4.000000,4.000000,4.000000,4.000000,4.000000,100.000000,,,,,,,,,,,,,,,,,,,,,,,,,,,,
1703495784.975042,1703495784.976047,55.000000,0.000000,4238.974121,4232.051270,4289.743652,4265.641113,4220.128418,4205.128418,4235.128418,4233.333496,4230.641113,4203.077148,4511.025879,4469.230957,4404.743652,4456.794922,0.000000,4.000000,76.000000,,,,0.000000,4.000000,4.000000,4.000000,4.000000,4.000000,4.000000,4.000000,4.000000,4.000000,4.000000,4.000000,4.000000,4.000000,4.000000,100.000000,,,,,,,,,,,,,,,,,,,,,,,,,,,,
1703495784.982850,1703495784.983855,56.000000,0.000000,4249.487305,4239.358887,4298.461426,4272.692383,4211.282227,4200.512695,4233.461426,4244.102539,4229.358887,4216.153809,4515.256348,4474.743652,4409.358887,4467.051270,0.000000,4.000000,76.000000,,,,0.000000,4.000000,4.000000,4.000000,4.000000,4.000000,4.000000,4.000000,4.000000,4.000000,4.000000,4.000000,4.000000,4.000000,4.000000,100.000000,,,,,,,,,,,,,,,,,14.000000,0.000000,0.666333,0.246033,-0.676025,0.196106,0.997680,0.066903,-0.030765,-17.604284,-38.342648,62.607407
1703495784.990658,1703495784.991763,57.000000,0.000000,4252.436035,4246.282227,4299.358887,4267.563965,4195.000000,4199.358887,4231.666504,4242.820313,4225.641113,4217.436035,4519.615234,4478.717773,4411.666504,4470.769043,0.000000,4.000000,76.000000,,,,0.000000,4.000000,4.000000,4.000000,4.000000,4.000000,4.000000,4.000000,4.000000,4.000000,4.000000,4.000000,4.000000,4.000000,4.000000,100.000000,,,,,,,,,,,,,,,,,,,,,,,,,,,,
1703495784.998466,1703495784.999571,58.000000,0.000000,4254.230957,4241.794922,4296.410156,4262.307617,4196.538574,4197.563965,4229.230957,4231.282227,4222.692383,4206.794922,4531.410156,4479.743652,4420.000000,4475.641113,0.000000,4.000000,76.000000,,,,0.000000,4.000000,4.000000,4.000000,4.000000,4.000000,4.000000,4.000000,4.000000,4.000000,4.000000,4.000000,4.000000,4.000000,4.000000,100.000000,,,,,,,,,,,,,,,,,,,,,,,,,,,,
1703495785.006274,1703495785.007479,59.000000,0.000000,4265.128418,4243.205078,4300.512695,4271.410156,4221.794922,4195.128418,4235.384766,4230.384766,4218.974121,4193.974121,4544.358887,4483.846191,4428.717773,4480.256348,0.000000,4.000000,76.000000,,,,0.000000,4.000000,4.000000,4.000000,4.000000,4.000000,4.000000,4.000000,4.000000,4.000000,4.000000,4.000000,4.000000,4.000000,4.000000,100.000000,,,,,,,,,,,,,,,,,,,,,,,,,,,,
1703495785.014082,1703495785.015288,60.000000,0.000000,4277.436035,4257.179688,4305.384766,4279.871582,4234.615234,4198.717773,4243.461426,4241.538574,4220.000000,4207.051270,4548.333496,4491.922852,4437.179688,4493.589844,0.000000,4.000000,76.000000,,,,0.000000,4.000000,4.000000,4.000000,4.000000,4.000000,4.000000,4.000000,4.000000,4.000000,4.000000,4.000000,4.000000,4.000000,4.000000,100.000000,,,,,,,,,,,,,,,,,15.000000,0.000000,0.666338,0.245972,-0.676025,0.196167,0.985960,0.072274,-0.038091,-17.560522,-38.458385,62.730000
1703495785.021890,1703495785.023196,61.000000,0.000000,4277.820313,4262.051270,4301.282227,4280.256348,4222.436035,4200.512695,4240.128418,4238.846191,4214.487305,4222.692383,4540.128418,4489.230957,4431.153809,4497.820313,0.000000,4.000000,76.000000,,,,0.000000,4.000000,4.000000,4.000000,4.000000,4.000000,4.000000,4.000000,4.000000,4.000000,4.000000,4.000000,4.000000,4.000000,4.000000,100.000000,,,,,,,,,,,,,,,,,,,,,,,,,,,,
1703495785.029698,1703495785.031004,62.000000,0.000000,4267.051270,4257.307617,4292.948730,4277.820313,4211.538574,4186.410156,4230.897461,4222.307617,4199.358887,4201.666504,4523.333496,4474.743652,4408.846191,4480.897461,0.000000,4.000000,76.000000,,,,0.000000,4.000000,4.000000,4.000000,4.000000,4.000000,4.000000,4.000000,4.000000,4.000000,4.000000,4.000000,4.000000,4.000000,4.000000,100.000000,,,,,,,,,,,,,,,,,,,,,,,,,,,,
1703495785.037506,1703495785.038911,63.000000,0.000000,4263.077148,4261.410156,4294.487305,4278.589844,4215.769043,4171.153809,4230.128418,4216.794922,4197.051270,4179.615234,4518.205078,4475.000000,4404.102539,4472.692383,0.000000,4.000000,76.000000,,,,0.000000,4.000000,4.000000,4.000000,4.000000,4.000000,4.000000,4.000000,4.000000,4.000000,4.000000,4.000000,4.000000,4.000000,4.000000,100.000000,,,,,,,,,,,,,,,,,,,,,,,,,,,,
1703495785.045314,1703495785.046719,64.000000,0.000000,4266.794922,4264.230957,4303.461426,4281.282227,4217.820313,4171.282227,4233.333496,4220.256348,4204.358887,4183.974121,4529.487305,4483.077148,4416.153809,4482.692383,4525.000000,4.000000,76.000000,,,,0.000000,4.000000,4.000000,4.000000,4.000000,4.000000,4.000000,4.000000,4.000000,4.000000,4.000000,4.000000,4.000000,4.000000,4.000000,100.000000,,,,,,,,,,,,,,,,,16.000000,0.000000,0.666252,0.245911,-0.676025,0.196533,0.981565,0.060066,-0.033207,-17.354469,-38.395878,62.723667
1703495785.053122,1703495785.054627,65.000000,0.000000,4257.820313,4252.051270,4301.794922,4277.692383,4206.666504,4172.692383,4229.102539,4215.128418,4201.025879,4178.717773,4530.512695,4474.615234,4407.948730,4473.333496,5699.000000,4.000000,76.000000,,,,0.000000,4.000000,4.000000,4.000000,4.000000,4.000000,4.000000,4.000000,4.000000,4.000000,4.000000,4.000000,4.000000,4.000000,4.000000,100.000000,,,,,,,,,,,,,,,,,,,,,,,,,,,,
1703495785.060930,1703495785.062435,66.000000,0.000000,4246.153809,4242.436035,4291.025879,4272.692383,4208.974121,4173.846191,4228.205078,4209.230957,4200.256348,4164.871582,4518.461426,4468.846191,4392.563965,4452.820313,5509.000000,4.000000,76.000000,,,,0.000000,4.000000,4.000000,4.000000,4.000000,4.000000,4.000000,4.000000,4.000000,4.000000,4.000000,4.000000,4.000000,4.000000,4.000000,100.000000,,,,,,,,,,,,,,,,,,,,,,,,,,,,
1703495785.068739,1703495785.070343,67.000000,0.000000,4244.487305,4242.563965,4287.051270,4272.051270,4219.487305,4184.743652,4235.000000,4216.666504,4213.461426,4178.205078,4520.512695,4475.512695,4399.871582,4456.794922,5512.000000,4.000000,76.000000,,,,0.000000,4.000000,4.000000,4.000000,4.000000,4.000000,4.000000,4.000000,4.000000,4.000000,4.000000,4.000000,4.000000,4.000000,4.000000,100.000000,,,,,,,,,,,,,,,,,,,,,,,,,,,,
1703495785.076547,1703495785.078151,68.000000,0.000000,4236.410156,4234.871582,4287.948730,4267.051270,4204.871582,4188.589844,4229.102539,4219.102539,4216.794922,4184.615234,4521.794922,4468.974121,4399.743652,4458.717773,5372.000000,4.000000,76.000000,,,,0.000000,4.000000,4.000000,4.000000,4.000000,4.000000,4.000000,4.000000,4.000000,4.000000,4.000000,4.000000,4.000000,4.000000,4.000000,100.000000,,,,,,,,,,,,,,,,,17.000000,0.000000,0.666310,0.245728,-0.675964,0.196777,0.993774,0.048346,-0.036626,-17.269024,-38.356293,62.951302
1703495785.084355,1703495785.086059,69.000000,0.000000,4228.717773,4229.358887,4284.358887,4260.897461,4195.128418,4180.769043,4219.871582,4215.897461,4211.922852,4171.153809,4511.025879,4456.025879,4387.820313,4447.948730,4974.000000,4.000000,76.000000,,,,0.000000,4.000000,4.000000,4.000000,4.000000,4.000000,4.000000,4.000000,4.000000,4.000000,4.000000,4.000000,4.000000,4.000000,4.000000,100.000000,,,,,,,,,,,,,,,,,,,,,,,,,,,,
1703495785.092163,1703495785.093867,70.000000,0.000000,4237.436035,4238.974121,4284.358887,4266.153809,4213.974121,4185.769043,4228.717773,4224.102539,4214.743652,4180.769043,4515.769043,4460.128418,4389.487305,4450.256348,3430.000000,4.000000,76.000000,,,,0.000000,4.000000,4.000000,4.000000,4.000000,4.000000,4.000000,4.000000,4.000000,4.000000,4.000000,4.000000,4.000000,4.000000,4.000000,100.000000,,,,,,,,,,,,,,,,,,,,,,,,,,,,
