title:ملاح لا, start timestamp:1703496000.391367, stop timestamp:1703496011.127433, headset type:EPOCX, headset serial:E50206EF, headset firmware:720, channels:67, sampling rate:eeg_128;mot_32, samples:1376      , version:2.2, 
Timestamp,OriginalTimestamp,EEG.Counter,EEG.Interpolated,EEG.AF3,EEG.F7,EEG.F3,EEG.FC5,EEG.T7,EEG.P7,EEG.O1,EEG.O2,EEG.P8,EEG.T8,EEG.FC6,EEG.F4,EEG.F8,EEG.AF4,EEG.RawCq,EEG.Battery,EEG.BatteryPercent,MarkerIndex,MarkerType,MarkerValueInt,EEG.MarkerHardware,CQ.AF3,CQ.F7,CQ.F3,CQ.FC5,CQ.T7,CQ.P7,CQ.O1,CQ.O2,CQ.P8,CQ.T8,CQ.FC6,CQ.F4,CQ.F8,CQ.AF4,CQ.Overall,EQ.SampleRateQuality,EQ.OVERALL,EQ.AF3,EQ.F7,EQ.F3,EQ.FC5,EQ.T7,EQ.P7,EQ.O1,EQ.O2,EQ.P8,EQ.T8,EQ.FC6,EQ.F4,EQ.F8,EQ.AF4,MOT.CounterMems,MOT.InterpolatedMems,MOT.Q0,MOT.Q1,MOT.Q2,MOT.Q3,MOT.AccX,MOT.AccY,MOT.AccZ,MOT.MagX,MOT.MagY,MOT.MagZ
1703496000.391367,1703496000.391495,124.000000,0.000000,4227.948730,4201.153809,4292.179688,4257.307617,4221.922852,4204.230957,4216.538574,4272.179688,4224.230957,4199.743652,4544.743652,4465.641113,4369.487305,4453.846191,6646.000000,4.000000,75.000000,,,,0.000000,4.000000,4.000000,4.000000,4.000000,4.000000,4.000000,4.000000,4.000000,4.000000,4.000000,4.000000,4.000000,4.000000,4.000000,100.000000,,,,,,,,,,,,,,,,,31.000000,0.000000,0.659082,0.247620,-0.679382,0.206726,0.987914,0.036137,-0.041021,-16.843197,-39.228413,62.969234
1703496000.399175,1703496000.399203,125.000000,0.000000,4211.538574,4195.897461,4286.025879,4264.871582,4230.128418,4203.333496,4218.974121,4265.384766,4224.871582,4200.512695,4540.897461,4456.538574,4365.128418,4452.820313,6320.000000,4.000000,75.000000,,,,0.000000,4.000000,4.000000,4.000000,4.000000,4.000000,4.000000,4.000000,4.000000,4.000000,4.000000,4.000000,4.000000,4.000000,4.000000,100.000000,,,,,,,,,,,,,,,,,,,,,,,,,,,,
1703496000.406983,1703496000.407011,126.000000,0.000000,4210.641113,4187.563965,4285.256348,4254.358887,4218.974121,4202.051270,4215.128418,4264.743652,4231.666504,4210.128418,4538.717773,4460.256348,4368.846191,4461.410156,5933.000000,4.000000,75.000000,,,,0.000000,4.000000,4.000000,4.000000,4.000000,4.000000,4.000000,4.000000,4.000000,4.000000,4.000000,4.000000,4.000000,4.000000,4.000000,100.000000,,,,,,,,,,,,,,,,,,,,,,,,,,,,
1703496000.414791,1703496000.414719,127.000000,0.000000,4202.436035,4180.512695,4286.538574,4243.205078,4201.794922,4202.948730,4211.922852,4256.025879,4232.307617,4206.538574,4538.846191,4461.153809,4365.512695,4460.384766,75.000000,4.000000,75.000000,,,,0.000000,4.000000,4.000000,4.000000,4.000000,4.000000,4.000000,4.000000,4.000000,4.000000,4.000000,4.000000,4.000000,4.000000,4.000000,100.000000,,,,,,,,,,,,,,,,,,,,,,,,,,,,
1703496000.422599,1703496000.422627,0.000000,0.000000,4201.538574,4189.871582,4291.025879,4258.717773,4203.717773,4194.358887,4213.077148,4243.077148,4228.589844,4196.025879,4539.743652,4454.102539,4361.282227,4453.974121,4706.000000,4.000000,75.000000,,,,0.000000,4.000000,4.000000,4.000000,4.000000,4.000000,4.000000,4.000000,4.000000,4.000000,4.000000,4.000000,4.000000,4.000000,4.000000,100.000000,,,,,,,,,,,,,,,,,0.000000,0.000000,0.659120,0.247620,-0.679382,0.206604,0.991820,0.044439,-0.046392,-16.675545,-39.072239,63.005642
1703496000.430407,1703496000.430435,1.000000,0.000000,4225.641113,4209.102539,4299.871582,4275.769043,4216.410156,4186.410156,4213.461426,4245.256348,4230.897461,4207.692383,4550.641113,4460.256348,4373.974121,4455.897461,5636.000000,4.000000,75.000000,,,,0.000000,4.000000,4.000000,4.000000,4.000000,4.000000,4.000000,4.000000,4.000000,4.000000,4.000000,4.000000,4.000000,4.000000,4.000000,100.000000,,,,,,,,,,,,,,,,,,,,,,,,,,,,
1703496000.438215,1703496000.438343,2.000000,0.000000,4248.333496,4220.769043,4311.282227,4277.563965,4220.000000,4188.333496,4215.000000,4255.641113,4230.641113,4221.922852,4567.948730,4481.153809,4389.230957,4472.820313,5439.000000,4.000000,75.000000,,,,0.000000,4.000000,4.000000,4.000000,4.000000,4.000000,4.000000,4.000000,4.000000,4.000000,4.000000,4.000000,4.000000,4.000000,4.000000,100.000000,,,,,,,,,,,,,,,,,,,,,,,,,,,,
1703496000.446024,1703496000.446151,3.000000,0.000000,4251.410156,4222.051270,4316.794922,4278.205078,4218.717773,4182.563965,4213.205078,4265.641113,4231.410156,4212.179688,4564.743652,4488.974121,4383.974121,4485.000000,5447.000000,4.000000,75.000000,,,,0.000000,4.000000,4.000000,4.000000,4.000000,4.000000,4.000000,4.000000,4.000000,4.000000,4.000000,4.000000,4.000000,4.000000,4.000000,100.000000,,,,,,,,,,,,,,,,,,,,,,,,,,,,
1703496000.453832,1703496000.454058,4.000000,0.000000,4247.563965,4218.589844,4311.025879,4279.102539,4215.512695,4172.179688,4208.205078,4276.794922,4239.487305,4208.461426,4553.589844,4483.077148,4377.948730,4480.256348,5333.000000,4.000000,75.000000,,,,0.000000,4.000000,4.000000,4.000000,4.000000,4.000000,4.000000,4.000000,4.000000,4.000000,4.000000,4.000000,4.000000,4.000000,4.000000,100.000000,,,,,,,,,,,,,,,,,1.000000,0.000000,0.659122,0.247498,-0.679443,0.206543,1.000610,0.043462,-0.041997,-16.691322,-39.031681,63.055080
1703496000.461640,1703496000.461866,5.000000,0.000000,4246.794922,4220.512695,4308.205078,4280.384766,4215.128418,4185.769043,4211.666504,4275.512695,4237.820313,4222.948730,4554.358887,4483.589844,4386.282227,4476.794922,5008.000000,4.000000,75.000000,,,,0.000000,4.000000,4.000000,4.000000,4.000000,4.000000,4.000000,4.000000,4.000000,4.000000,4.000000,4.000000,4.000000,4.000000,4.000000,100.000000,,,,,,,,,,,,,,,,,,,,,,,,,,,,
1703496000.469448,1703496000.469774,6.000000,0.000000,4245.384766,4220.769043,4307.563965,4277.051270,4226.410156,4207.307617,4220.641113,4266.153809,4228.846191,4220.128418,4548.461426,4475.769043,4383.717773,4476.538574,3134.000000,4.000000,75.000000,,,,0.000000,4.000000,4.000000,4.000000,4.000000,4.000000,4.000000,4.000000,4.000000,4.000000,4.000000,4.000000,4.000000,4.000000,4.000000,100.000000,,,,,,,,,,,,,,,,,,,,,,,,,,,,
1703496000.477256,1703496000.477582,7.000000,0.000000,4231.666504,4207.436035,4295.512695,4266.025879,4227.436035,4204.615234,4218.846191,4263.717773,4226.922852,4197.436035,4526.794922,4458.589844,4365.641113,4462.051270,3937.000000,4.000000,75.000000,,,,0.000000,4.000000,4.000000,4.000000,4.000000,4.000000,4.000000,4.000000,4.000000,4.000000,4.000000,4.000000,4.000000,4.000000,4.000000,100.000000,,,,,,,,,,,,,,,,,,,,,,,,,,,,
1703496000.485064,1703496000.485490,8.000000,0.000000,4212.436035,4195.897461,4285.000000,4258.205078,4214.358887,4199.487305,4214.871582,4255.128418,4224.871582,4182.436035,4507.563965,4449.230957,4353.461426,4437.692383,3867.000000,4.000000,75.000000,,,,0.000000,4.000000,4.000000,4.000000,4.000000,4.000000,4.000000,4.000000,4.000000,4.000000,4.000000,4.000000,4.000000,4.000000,4.000000,100.000000,,,,,,,,,,,,,,,,,2.000000,0.000000,0.659286,0.247498,-0.679321,0.206421,0.986937,0.047857,-0.041997,-16.572191,-39.078514,62.966236
1703496000.492872,1703496000.493298,9.000000,0.000000,4208.205078,4198.205078,4282.820313,4258.974121,4217.820313,4201.666504,4216.538574,4233.717773,4217.948730,4182.820313,4500.128418,4442.179688,4349.743652,4428.589844,5632.000000,4.000000,75.000000,,,,0.000000,4.000000,4.000000,4.000000,4.000000,4.000000,4.000000,4.000000,4.000000,4.000000,4.000000,4.000000,4.000000,4.000000,4.000000,100.000000,,,,,,,,,,,,,,,,,,,,,,,,,,,,
1703496000.500680,1703496000.501106,10.000000,0.000000,4214.487305,4199.743652,4284.230957,4260.256348,4219.487305,4190.897461,4214.743652,4221.153809,4214.615234,4184.230957,4497.820313,4437.307617,4344.102539,4429.358887,5943.000000,4.000000,75.000000,,,,0.000000,4.000000,4.000000,4.000000,4.000000,4.000000,4.000000,4.000000,4.000000,4.000000,4.000000,4.000000,4.000000,4.000000,4.000000,100.000000,,,,,,,,,,,,,,,,,,,,,,,,,,,,
1703496000.508488,1703496000.508914,11.000000,0.000000,4214.743652,4199.230957,4290.256348,4261.282227,4210.128418,4186.922852,4213.333496,4226.922852,4218.846191,4186.666504,4500.256348,4439.615234,4342.179688,4428.205078,6194.000000,4.000000,75.000000,,,,0.000000,4.000000,4.000000,4.000000,4.000000,4.000000,4.000000,4.000000,4.000000,4.000000,4.000000,4.000000,4.000000,4.000000,4.000000,100.000000,,,,,,,,,,,,,,,,,,,,,,,,,,,,
1703496000.516296,1703496000.516622,12.000000,0.000000,4221.153809,4208.717773,4295.769043,4267.820313,4214.615234,4198.589844,4215.641113,4238.589844,4229.230957,4198.974121,4516.153809,4451.282227,4357.563965,4444.487305,6649.000000,4.000000,75.000000,,,,0.000000,4.000000,4.000000,4.000000,4.000000,4.000000,4.000000,4.000000,4.000000,4.000000,4.000000,4.000000,4.000000,4.000000,4.000000,100.000000,,,,,,,,,,,,,,,,,3.000000,0.000000,0.659294,0.247681,-0.679321,0.206177,0.986449,0.043462,-0.061043,-16.431639,-39.103996,62.919613
1703496000.524104,1703496000.524430,13.000000,0.000000,4245.128418,4219.743652,4305.641113,4277.436035,4222.179688,4198.589844,4216.153809,4247.820313,4237.307617,4221.153809,4544.871582,4473.846191,4386.410156,4483.205078,6334.000000,4.000000,75.000000,,,,0.000000,4.000000,4.000000,4.000000,4.000000,4.000000,4.000000,4.000000,4.000000,4.000000,4.000000,4.000000,4.000000,4.000000,4.000000,100.000000,,,,,,,,,,,,,,,,,,,,,,,,,,,,
1703496000.531912,1703496000.532138,14.000000,0.000000,4258.077148,4218.589844,4316.025879,4280.512695,4218.333496,4184.871582,4215.641113,4253.077148,4234.102539,4235.512695,4559.871582,4489.230957,4401.025879,4498.846191,5943.000000,4.000000,75.000000,,,,0.000000,4.000000,4.000000,4.000000,4.000000,4.000000,4.000000,4.000000,4.000000,4.000000,4.000000,4.000000,4.000000,4.000000,4.000000,100.000000,,,,,,,,,,,,,,,,,,,,,,,,,,,,
1703496000.539720,1703496000.539946,15.000000,0.000000,4248.461426,4216.794922,4311.538574,4276.794922,4208.717773,4171.922852,4210.256348,4248.205078,4227.051270,4221.282227,4541.025879,4475.897461,4384.615234,4471.538574,6194.000000,4.000000,75.000000,,,,0.000000,4.000000,4.000000,4.000000,4.000000,4.000000,4.000000,4.000000,4.000000,4.000000,4.000000,4.000000,4.000000,4.000000,4.000000,100.000000,,,,,,,,,,,,,,,,,,,,,,,,,,,,
1703496000.547528,1703496000.547654,16.000000,0.000000,4247.179688,4223.974121,4303.974121,4278.589844,4199.871582,4164.615234,4201.666504,4237.307617,4219.487305,4201.282227,4522.436035,4458.717773,4366.794922,4455.897461,0.000000,4.000000,75.000000,,,,0.000000,4.000000,4.000000,4.000000,4.000000,4.000000,4.000000,4.000000,4.000000,4.000000,4.000000,4.000000,4.000000,4.000000,4.000000,100.000000,,,,,,,,,,,,,,,,,4.000000,0.000000,0.659349,0.247803,-0.679260,0.206055,0.992797,0.053717,-0.045904,-16.271809,-38.960262,62.994320
1703496000.555336,1703496000.555562,17.000000,0.000000,4252.692383,4225.641113,4307.051270,4282.563965,4206.153809,4170.769043,4204.743652,4238.333496,4216.153809,4201.922852,4521.025879,4459.230957,4365.512695,4462.692383,0.000000,4.000000,75.000000,,,,0.000000,4.000000,4.000000,4.000000,4.000000,4.000000,4.000000,4.000000,4.000000,4.000000,4.000000,4.000000,4.000000,4.000000,4.000000,100.000000,,,,,,,,,,,,,,,,,,,,,,,,,,,,
1703496000.563144,1703496000.563370,18.000000,0.000000,4243.077148,4217.563965,4308.205078,4279.615234,4221.025879,4185.256348,4217.051270,4246.794922,4224.358887,4208.205078,4514.871582,4461.282227,4360.256348,4449.615234,0.000000,4.000000,75.000000,,,,0.000000,4.000000,4.000000,4.000000,4.000000,4.000000,4.000000,4.000000,4.000000,4.000000,4.000000,4.000000,4.000000,4.000000,4.000000,100.000000,,,,,,,,,,,,,,,,,,,,,,,,,,,,
1703496000.570952,1703496000.571278,19.000000,0.000000,4230.000000,4211.794922,4298.589844,4274.358887,4220.000000,4194.743652,4219.230957,4250.128418,4233.846191,4204.230957,4510.769043,4455.000000,4353.717773,4434.102539,0.000000,4.000000,75.000000,,,,0.000000,4.000000,4.000000,4.000000,4.000000,4.000000,4.000000,4.000000,4.000000,4.000000,4.000000,4.000000,4.000000,4.000000,4.000000,100.000000,,,,,,,,,,,,,,,,,,,,,,,,,,,,
1703496000.578760,1703496000.579086,20.000000,0.000000,4227.563965,4211.282227,4295.256348,4267.436035,4215.641113,4203.717773,4217.307617,4245.384766,4231.538574,4194.230957,4515.128418,4452.948730,4355.128418,4443.461426,0.000000,4.000000,75.000000,,,,0.000000,4.000000,4.000000,4.000000,4.000000,4.000000,4.000000,4.000000,4.000000,4.000000,4.000000,4.000000,4.000000,4.000000,4.000000,100.000000,,,,,,,,,,,,,,,,,5.000000,0.000000,0.659326,0.247864,-0.679260,0.206055,0.992309,0.041997,-0.040044,-16.261293,-38.947571,63.061554
1703496000.586568,1703496000.586994,21.000000,0.000000,4229.871582,4215.256348,4300.000000,4265.256348,4217.307617,4209.871582,4219.487305,4229.871582,4222.948730,4184.871582,4512.436035,4452.820313,4355.256348,4443.461426,0.000000,4.000000,75.000000,,,,0.000000,4.000000,4.000000,4.000000,4.000000,4.000000,4.000000,4.000000,4.000000,4.000000,4.000000,4.000000,4.000000,4.000000,4.000000,100.000000,,,,,,,,,,,,,,,,,,,,,,,,,,,,
1703496000.594376,1703496000.594802,22.000000,0.000000,4228.974121,4216.153809,4299.102539,4268.589844,4212.179688,4203.974121,4218.205078,4217.948730,4215.897461,4185.641113,4504.615234,4453.333496,4352.692383,4430.256348,0.000000,4.000000,75.000000,,,,0.000000,4.000000,4.000000,4.000000,4.000000,4.000000,4.000000,4.000000,4.000000,4.000000,4.000000,4.000000,4.000000,4.000000,4.000000,100.000000,,,,,,,,,,,,,,,,,,,,,,,,,,,,
1703496000.602184,1703496000.602610,23.000000,0.000000,4234.487305,4218.205078,4300.897461,4273.589844,4209.871582,4192.820313,4216.410156,4234.230957,4215.128418,4194.102539,4509.487305,4464.615234,4357.948730,4445.641113,0.000000,4.000000,75.000000,,,,0.000000,4.000000,4.000000,4.000000,4.000000,4.000000,4.000000,4.000000,4.000000,4.000000,4.000000,4.000000,4.000000,4.000000,4.000000,100.000000,,,,,,,,,,,,,,,,,,,,,,,,,,,,
1703496000.609993,1703496000.610318,24.000000,0.000000,4253.205078,4229.743652,4307.692383,4287.051270,4214.230957,4187.948730,4216.922852,4253.717773,4219.487305,4186.538574,4517.563965,4471.922852,4364.871582,4469.871582,0.000000,4.000000,75.000000,,,,0.000000,4.000000,4.000000,4.000000,4.000000,4.000000,4.000000,4.000000,4.000000,4.000000,4.000000,4.000000,4.000000,4.000000,4.000000,100.000000,,,,,,,,,,,,,,,,,6.000000,0.000000,0.659408,0.247864,-0.679199,0.205994,0.986937,0.046392,-0.048834,-16.485165,-39.086147,63.105400
1703496000.617801,1703496000.618226,25.000000,0.000000,4263.974121,4238.461426,4310.128418,4296.666504,4216.410156,4187.820313,4217.051270,4246.282227,4218.846191,4178.461426,4517.563965,4467.563965,4361.922852,4460.897461,0.000000,4.000000,75.000000,,,,0.000000,4.000000,4.000000,4.000000,4.000000,4.000000,4.000000,4.000000,4.000000,4.000000,4.000000,4.000000,4.000000,4.000000,4.000000,100.000000,,,,,,,,,,,,,,,,,,,,,,,,,,,,
1703496000.625609,1703496000.626034,26.000000,0.000000,4260.512695,4234.230957,4311.025879,4285.256348,4215.769043,4184.487305,4214.102539,4240.512695,4213.333496,4200.769043,4527.692383,4472.051270,4365.897461,4455.384766,0.000000,4.000000,75.000000,,,,0.000000,4.000000,4.000000,4.000000,4.000000,4.000000,4.000000,4.000000,4.000000,4.000000,4.000000,4.000000,4.000000,4.000000,4.000000,100.000000,,,,,,,,,,,,,,,,,,,,,,,,,,,,
1703496000.633417,1703496000.633941,27.000000,0.000000,4260.641113,4232.307617,4315.512695,4280.512695,4214.487305,4179.487305,4210.384766,4253.717773,4212.692383,4220.769043,4545.641113,4484.487305,4389.615234,4481.410156,0.000000,4.000000,75.000000,,,,0.000000,4.000000,4.000000,4.000000,4.000000,4.000000,4.000000,4.000000,4.000000,4.000000,4.000000,4.000000,4.000000,4.000000,4.000000,100.000000,,,,,,,,,,,,,,,,,,,,,,,,,,,,
1703496000.641225,1703496000.641749,28.000000,0.000000,4267.179688,4236.922852,4319.871582,4292.692383,4215.641113,4174.871582,4213.077148,4262.436035,4218.077148,4205.256348,4549.358887,4485.769043,4398.333496,4497.307617,0.000000,4.000000,75.000000,,,,0.000000,4.000000,4.000000,4.000000,4.000000,4.000000,4.000000,4.000000,4.000000,4.000000,4.000000,4.000000,4.000000,4.000000,4.000000,100.000000,,,,,,,,,,,,,,,,,7.000000,0.000000,0.659482,0.247986,-0.679138,0.205811,0.978147,0.049322,-0.052252,-16.469982,-39.127533,63.094860
1703496000.649033,1703496000.649657,29.000000,0.000000,4258.846191,4230.641113,4316.153809,4285.769043,4220.384766,4173.974121,4216.666504,4262.948730,4218.461426,4196.922852,4539.871582,4483.333496,4382.948730,4481.025879,0.000000,4.000000,75.000000,,,,0.000000,4.000000,4.000000,4.000000,4.000000,4.000000,4.000000,4.000000,4.000000,4.000000,4.000000,4.000000,4.000000,4.000000,4.000000,100.000000,,,,,,,,,,,,,,,,,,,,,,,,,,,,
1703496000.656841,1703496000.657465,30.000000,0.000000,4242.179688,4218.461426,4306.666504,4274.102539,4221.282227,4183.205078,4215.897461,4273.589844,4217.179688,4217.307617,4532.563965,4479.230957,4373.846191,4457.307617,0.000000,4.000000,75.000000,,,,0.000000,4.000000,4.000000,4.000000,4.000000,4.000000,4.000000,4.000000,4.000000,4.000000,4.000000,4.000000,4.000000,4.000000,4.000000,100.000000,,,,,,,,,,,,,,,,,,,,,,,,,,,,
1703496000.664649,1703496000.665373,31.000000,0.000000,4229.487305,4214.743652,4296.538574,4280.000000,4205.769043,4192.436035,4214.230957,4285.769043,4223.846191,4212.179688,4518.205078,4461.410156,4362.563965,4439.487305,0.000000,4.000000,75.000000,,,,0.000000,4.000000,4.000000,4.000000,4.000000,4.000000,4.000000,4.000000,4.000000,4.000000,4.000000,4.000000,4.000000,4.000000,4.000000,100.000000,,,,,,,,,,,,,,,,,,,,,,,,,,,,
1703496000.672457,1703496000.673181,32.000000,0.000000,4223.205078,4215.000000,4285.641113,4272.692383,4196.282227,4191.025879,4214.102539,4281.666504,4235.256348,4180.897461,4499.487305,4444.358887,4346.410156,4433.333496,0.000000,4.000000,75.000000,,,,0.000000,4.000000,4.000000,4.000000,4.000000,4.000000,4.000000,4.000000,4.000000,4.000000,4.000000,4.000000,4.000000,4.000000,4.000000,100.000000,,,,,,,,,,,,,,,,,8.000000,0.000000,0.659612,0.247742,-0.679138,0.205688,0.993774,0.056648,-0.048346,-16.406317,-39.048111,63.135372
1703496000.680265,1703496000.680989,33.000000,0.000000,4233.717773,4215.128418,4284.615234,4262.436035,4212.948730,4190.384766,4216.794922,4273.974121,4235.897461,4179.487305,4501.282227,4449.615234,4349.487305,4440.769043,0.000000,4.000000,75.000000,,,,0.000000,4.000000,4.000000,4.000000,4.000000,4.000000,4.000000,4.000000,4.000000,4.000000,4.000000,4.000000,4.000000,4.000000,4.000000,100.000000,,,,,,,,,,,,,,,,,,,,,,,,,,,,
1703496000.688073,1703496000.688797,34.000000,0.000000,4241.538574,4211.410156,4294.102539,4267.692383,4217.820313,4191.922852,4217.307617,4266.794922,4221.410156,4192.820313,4508.974121,4459.230957,4356.666504,4439.102539,0.000000,4.000000,75.000000,,,,0.000000,4.000000,4.000000,4.000000,4.000000,4.000000,4.000000,4.000000,4.000000,4.000000,4.000000,4.000000,4.000000,4.000000,4.000000,100.000000,,,,,,,,,,,,,,,,,,,,,,,,,,,,
1703496000.695881,1703496000.696505,35.000000,0.000000,4228.846191,4208.077148,4297.436035,4267.820313,4200.128418,4187.051270,4213.205078,4250.769043,4211.538574,4178.589844,4498.717773,4448.205078,4345.384766,4427.307617,0.000000,4.000000,75.000000,,,,0.000000,4.000000,4.000000,4.000000,4.000000,4.000000,4.000000,4.000000,4.000000,4.000000,4.000000,4.000000,4.000000,4.000000,4.000000,100.000000,,,,,,,,,,,,,,,,,,,,,,,,,,,,
1703496000.703689,1703496000.704313,36.000000,0.000000,4235.128418,4218.717773,4302.820313,4271.282227,4204.615234,4184.487305,4215.000000,4240.128418,4214.230957,4173.333496,4489.487305,4445.000000,4335.512695,4430.769043,0.000000,4.000000,75.000000,,,,0.000000,4.000000,4.000000,4.000000,4.000000,4.000000,4.000000,4.000000,4.000000,4.000000,4.000000,4.000000,4.000000,4.000000,4.000000,100.000000,,,,,,,,,,,,,,,,,9.000000,0.000000,0.659739,0.247620,-0.679077,0.205627,0.987914,0.051276,-0.035649,-16.315685,-39.093300,63.255169
1703496000.711497,1703496000.712021,37.000000,0.000000,4262.563965,4237.051270,4314.230957,4293.333496,4221.922852,4185.769043,4220.256348,4243.974121,4217.051270,4194.102539,4507.436035,4463.077148,4348.461426,4444.230957,0.000000,4.000000,75.000000,,,,0.000000,4.000000,4.000000,4.000000,4.000000,4.000000,4.000000,4.000000,4.000000,4.000000,4.000000,4.000000,4.000000,4.000000,4.000000,100.000000,,,,,,,,,,,,,,,,,,,,,,,,,,,,
1703496000.719305,1703496000.719829,38.000000,0.000000,4256.922852,4237.307617,4314.871582,4300.256348,4216.794922,4184.743652,4218.589844,4247.436035,4217.179688,4204.871582,4532.820313,4473.461426,4365.769043,4457.051270,0.000000,4.000000,75.000000,,,,0.000000,4.000000,4.000000,4.000000,4.000000,4.000000,4.000000,4.000000,4.000000,4.000000,4.000000,4.000000,4.000000,4.000000,4.000000,100.000000,,,,,,,,,,,,,,,,,,,,,,,,,,,,
1703496000.727113,1703496000.727537,39.000000,0.000000,4249.487305,4231.538574,4310.897461,4288.333496,4222.436035,4181.666504,4215.128418,4247.051270,4220.384766,4208.846191,4539.487305,4471.794922,4376.025879,4475.769043,0.000000,4.000000,75.000000,,,,0.000000,4.000000,4.000000,4.000000,4.000000,4.000000,4.000000,4.000000,4.000000,4.000000,4.000000,4.000000,4.000000,4.000000,4.000000,100.000000,,,,,,,,,,,,,,,,,,,,,,,,,,,,
1703496000.734921,1703496000.735345,40.000000,0.000000,4277.692383,4246.025879,4316.025879,4299.102539,4240.512695,4185.512695,4220.128418,4253.589844,4220.641113,4218.974121,4547.692383,4479.230957,4391.538574,4501.538574,0.000000,4.000000,75.000000,,,,0.000000,4.000000,4.000000,4.000000,4.000000,4.000000,4.000000,4.000000,4.000000,4.000000,4.000000,4.000000,4.000000,4.000000,4.000000,100.000000,,,,,,,,,,,,,,,,,10.000000,0.000000,0.659781,0.247559,-0.679077,0.205566,1.001587,0.044927,-0.036626,-16.400784,-39.133968,63.312984
1703496000.742729,1703496000.743053,41.000000,0.000000,4287.051270,4259.102539,4324.871582,4318.717773,4230.256348,4194.230957,4226.153809,4263.461426,4213.333496,4214.615234,4561.282227,4492.307617,4402.563965,4511.666504,0.000000,4.000000,75.000000,,,,0.000000,4.000000,4.000000,4.000000,4.000000,4.000000,4.000000,4.000000,4.000000,4.000000,4.000000,4.000000,4.000000,4.000000,4.000000,100.000000,,,,,,,,,,,,,,,,,,,,,,,,,,,,
1703496000.750538,1703496000.750861,42.000000,0.000000,4262.563965,4245.641113,4312.692383,4306.410156,4218.077148,4201.922852,4221.025879,4264.358887,4211.153809,4203.077148,4550.897461,4482.692383,4390.000000,4494.487305,0.000000,4.000000,75.000000,,,,0.000000,4.000000,4.000000,4.000000,4.000000,4.000000,4.000000,4.000000,4.000000,4.000000,4.000000,4.000000,4.000000,4.000000,4.000000,100.000000,1.000000,75.000000,3.000000,4.000000,3.000000,4.000000,4.000000,4.000000,4.000000,4.000000,4.000000,4.000000,4.000000,4.000000,4.000000,3.000000,,,,,,,,,,,,
1703496000.758345,1703496000.758569,43.000000,0.000000,4244.230957,4222.307617,4285.384766,4273.717773,4226.025879,4207.179688,4218.077148,4264.743652,4215.641113,4203.333496,4522.820313,4460.256348,4369.487305,4467.051270,0.000000,4.000000,75.000000,,,,0.000000,4.000000,4.000000,4.000000,4.000000,4.000000,4.000000,4.000000,4.000000,4.000000,4.000000,4.000000,4.000000,4.000000,4.000000,100.000000,,,,,,,,,,,,,,,,,,,,,,,,,,,,
1703496000.766153,1703496000.766377,44.000000,0.000000,4233.846191,4212.692383,4277.692383,4267.563965,4232.179688,4212.948730,4221.922852,4266.025879,4220.000000,4194.615234,4508.846191,4452.051270,4361.666504,4450.897461,0.000000,4.000000,75.000000,,,,0.000000,4.000000,4.000000,4.000000,4.000000,4.000000,4.000000,4.000000,4.000000,4.000000,4.000000,4.000000,4.000000,4.000000,4.000000,100.000000,,,,,,,,,,,,,,,,,11.000000,0.000000,0.659848,0.247498,-0.679016,0.205627,0.992797,0.054694,-0.038091,-16.377371,-39.287239,63.181686
1703496000.773961,1703496000.774085,45.000000,0.000000,4222.307617,4213.589844,4284.102539,4277.820313,4225.769043,4221.794922,4222.307617,4256.794922,4221.922852,4181.922852,4509.871582,4448.077148,4361.282227,4447.948730,0.000000,4.000000,75.000000,,,,0.000000,4.000000,4.000000,4.000000,4.000000,4.000000,4.000000,4.000000,4.000000,4.000000,4.000000,4.000000,4.000000,4.000000,4.000000,100.000000,,,,,,,,,,,,,,,,,,,,,,,,,,,,
1703496000.781770,1703496000.781893,46.000000,0.000000,4221.794922,4211.922852,4282.820313,4267.820313,4220.256348,4223.205078,4221.538574,4253.205078,4228.333496,4181.922852,4501.282227,4444.615234,4354.871582,4443.717773,0.000000,4.000000,75.000000,,,,0.000000,4.000000,4.000000,4.000000,4.000000,4.000000,4.000000,4.000000,4.000000,4.000000,4.000000,4.000000,4.000000,4.000000,4.000000,100.000000,,,,,,,,,,,,,,,,,,,,,,,,,,,,
1703496000.789578,1703496000.789601,47.000000,0.000000,4222.307617,4209.102539,4284.102539,4264.615234,4215.384766,4214.871582,4220.128418,4258.205078,4232.436035,4186.922852,4491.666504,4451.538574,4348.974121,4439.871582,0.000000,4.000000,75.000000,,,,0.000000,4.000000,4.000000,4.000000,4.000000,4.000000,4.000000,4.000000,4.000000,4.000000,4.000000,4.000000,4.000000,4.000000,4.000000,100.000000,,,,,,,,,,,,,,,,,,,,,,,,,,,,
1703496000.797386,1703496000.797509,48.000000,0.000000,4224.230957,4213.974121,4294.743652,4280.000000,4216.282227,4210.769043,4218.717773,4252.948730,4221.025879,4200.769043,4508.589844,4465.641113,4366.538574,4455.256348,0.000000,4.000000,75.000000,,,,0.000000,4.000000,4.000000,4.000000,4.000000,4.000000,4.000000,4.000000,4.000000,4.000000,4.000000,4.000000,4.000000,4.000000,4.000000,100.000000,,,,,,,,,,,,,,,,,12.000000,0.000000,0.659894,0.247375,-0.679016,0.205627,0.997680,0.051276,-0.039067,-16.456301,-39.108517,63.130184
1703496000.805194,1703496000.805317,49.000000,0.000000,4236.794922,4226.025879,4305.000000,4284.358887,4228.461426,4211.794922,4222.179688,4247.179688,4214.487305,4218.461426,4537.307617,4481.153809,4397.948730,4481.922852,0.000000,4.000000,75.000000,,,,0.000000,4.000000,4.000000,4.000000,4.000000,4.000000,4.000000,4.000000,4.000000,4.000000,4.000000,4.000000,4.000000,4.000000,4.000000,100.000000,,,,,,,,,,,,,,,,,,,,,,,,,,,,
1703496000.813002,1703496000.813225,50.000000,0.000000,4235.384766,4231.153809,4311.922852,4287.948730,4233.333496,4206.025879,4223.717773,4248.461426,4225.769043,4226.922852,4544.743652,4488.717773,4407.436035,4484.487305,0.000000,4.000000,75.000000,,,,0.000000,4.000000,4.000000,4.000000,4.000000,4.000000,4.000000,4.000000,4.000000,4.000000,4.000000,4.000000,4.000000,4.000000,4.000000,100.000000,,,,,,,,,,,,,,,,,,,,,,,,,,,,
1703496000.820810,1703496000.821033,51.000000,0.000000,4226.794922,4231.666504,4320.769043,4305.769043,4228.461426,4198.205078,4217.179688,4243.717773,4225.641113,4230.769043,4543.205078,4489.358887,4406.282227,4479.871582,0.000000,4.000000,75.000000,,,,0.000000,4.000000,4.000000,4.000000,4.000000,4.000000,4.000000,4.000000,4.000000,4.000000,4.000000,4.000000,4.000000,4.000000,4.000000,100.000000,,,,,,,,,,,,,,,,,,,,,,,,,,,,
1703496000.828618,1703496000.828941,52.000000,0.000000,4259.871582,4244.487305,4325.769043,4317.051270,4228.846191,4203.846191,4218.589844,4245.512695,4216.794922,4236.666504,4560.897461,4496.025879,4419.871582,4518.077148,0.000000,4.000000,75.000000,,,,0.000000,4.000000,4.000000,4.000000,4.000000,4.000000,4.000000,4.000000,4.000000,4.000000,4.000000,4.000000,4.000000,4.000000,4.000000,100.000000,,,,,,,,,,,,,,,,,13.000000,0.000000,0.660019,0.247375,-0.678894,0.205627,0.989867,0.048834,-0.041997,-16.394005,-39.197666,63.033833
1703496000.836426,1703496000.836749,53.000000,0.000000,4307.179688,4256.666504,4322.179688,4308.205078,4234.871582,4212.820313,4227.051270,4264.102539,4225.897461,4243.846191,4578.205078,4504.615234,4432.692383,4552.179688,0.000000,4.000000,75.000000,,,,0.000000,4.000000,4.000000,4.000000,4.000000,4.000000,4.000000,4.000000,4.000000,4.000000,4.000000,4.000000,4.000000,4.000000,4.000000,100.000000,,,,,,,,,,,,,,,,,,,,,,,,,,,,
1703496000.844234,1703496000.844657,54.000000,0.000000,4296.922852,4247.179688,4317.051270,4298.333496,4231.282227,4214.358887,4228.077148,4276.666504,4236.025879,4249.743652,4575.769043,4506.025879,4432.948730,4536.025879,0.000000,4.000000,75.000000,,,,0.000000,4.000000,4.000000,4.000000,4.000000,4.000000,4.000000,4.000000,4.000000,4.000000,4.000000,4.000000,4.000000,4.000000,4.000000,100.000000,,,,,,,,,,,,,,,,,,,,,,,,,,,,
1703496000.852042,1703496000.852465,55.000000,0.000000,4258.589844,4233.077148,4309.615234,4295.000000,4226.282227,4215.641113,4231.153809,4281.153809,4233.589844,4246.025879,4567.692383,4502.051270,4427.948730,4521.538574,0.000000,4.000000,75.000000,,,,0.000000,4.000000,4.000000,4.000000,4.000000,4.000000,4.000000,4.000000,4.000000,4.000000,4.000000,4.000000,4.000000,4.000000,4.000000,100.000000,,,,,,,,,,,,,,,,,,,,,,,,,,,,
1703496000.859850,1703496000.860373,56.000000,0.000000,4240.897461,4224.102539,4300.128418,4287.051270,4215.384766,4217.179688,4228.846191,4284.230957,4231.922852,4232.948730,4554.487305,4496.025879,4413.333496,4510.256348,0.000000,4.000000,75.000000,,,,0.000000,4.000000,4.000000,4.000000,4.000000,4.000000,4.000000,4.000000,4.000000,4.000000,4.000000,4.000000,4.000000,4.000000,4.000000,100.000000,,,,,,,,,,,,,,,,,14.000000,0.000000,0.659936,0.247314,-0.679016,0.205566,0.981565,0.042974,-0.038579,-16.454603,-39.294563,63.013783
1703496000.867658,1703496000.868181,57.000000,0.000000,4221.666504,4212.692383,4297.179688,4273.461426,4201.153809,4212.436035,4217.307617,4270.769043,4223.589844,4217.692383,4531.410156,4485.384766,4394.102539,4475.769043,0.000000,4.000000,75.000000,,,,0.000000,4.000000,4.000000,4.000000,4.000000,4.000000,4.000000,4.000000,4.000000,4.000000,4.000000,4.000000,4.000000,4.000000,4.000000,100.000000,,,,,,,,,,,,,,,,,,,,,,,,,,,,
1703496000.875466,1703496000.875889,58.000000,0.000000,4209.358887,4210.128418,4299.102539,4273.974121,4215.897461,4214.358887,4219.615234,4257.692383,4214.743652,4211.794922,4521.410156,4479.358887,4390.512695,4474.743652,0.000000,4.000000,75.000000,,,,0.000000,4.000000,4.000000,4.000000,4.000000,4.000000,4.000000,4.000000,4.000000,4.000000,4.000000,4.000000,4.000000,4.000000,4.000000,100.000000,,,,,,,,,,,,,,,,,,,,,,,,,,,,
1703496000.883274,1703496000.883697,59.000000,0.000000,4224.358887,4215.000000,4302.563965,4286.922852,4234.230957,4224.230957,4233.461426,4261.538574,4224.487305,4215.128418,4527.179688,4483.717773,4394.743652,4507.179688,0.000000,4.000000,75.000000,,,,0.000000,4.000000,4.000000,4.000000,4.000000,4.000000,4.000000,4.000000,4.000000,4.000000,4.000000,4.000000,4.000000,4.000000,4.000000,100.000000,,,,,,,,,,,,,,,,,,,,,,,,,,,,
1703496000.891082,1703496000.891505,60.000000,0.000000,4235.000000,4217.179688,4306.025879,4284.615234,4225.641113,4225.769043,4231.922852,4257.692383,4230.256348,4216.538574,4523.846191,4482.692383,4391.025879,4503.333496,0.000000,4.000000,75.000000,,,,0.000000,4.000000,4.000000,4.000000,4.000000,4.000000,4.000000,4.000000,4.000000,4.000000,4.000000,4.000000,4.000000,4.000000,4.000000,100.000000,,,,,,,,,,,,,,,,,15.000000,0.000000,0.659953,0.247253,-0.679077,0.205383,0.995239,0.050299,-0.034184,-16.375811,-39.165108,62.995739
1703496000.898890,1703496000.899313,61.000000,0.000000,4226.794922,4219.230957,4306.153809,4277.051270,4213.846191,4218.077148,4222.436035,4244.743652,4220.641113,4219.871582,4520.256348,4478.205078,4394.102539,4489.358887,0.000000,4.000000,75.000000,,,,0.000000,4.000000,4.000000,4.000000,4.000000,4.000000,4.000000,4.000000,4.000000,4.000000,4.000000,4.000000,4.000000,4.000000,4.000000,100.000000,,,,,,,,,,,,,,,,,,,,,,,,,,,,
1703496000.906698,1703496000.907021,62.000000,0.000000,4228.974121,4227.563965,4310.128418,4285.897461,4217.563965,4214.230957,4226.025879,4245.256348,4215.256348,4218.077148,4524.487305,4484.230957,4399.615234,4500.641113,0.000000,4.000000,75.000000,,,,0.000000,4.000000,4.000000,4.000000,4.000000,4.000000,4.000000,4.000000,4.000000,4.000000,4.000000,4.000000,4.000000,4.000000,4.000000,100.000000,,,,,,,,,,,,,,,,,,,,,,,,,,,,
1703496000.914506,1703496000.914829,63.000000,0.000000,4246.666504,4240.897461,4316.410156,4297.436035,4228.077148,4221.282227,4231.153809,4249.230957,4218.846191,4211.666504,4523.077148,4488.077148,4396.666504,4507.307617,0.000000,4.000000,75.000000,,,,0.000000,4.000000,4.000000,4.000000,4.000000,4.000000,4.000000,4.000000,4.000000,4.000000,4.000000,4.000000,4.000000,4.000000,4.000000,100.000000,,,,,,,,,,,,,,,,,,,,,,,,,,,,
1703496000.922315,1703496000.922537,64.000000,0.000000,4249.230957,4249.358887,4315.512695,4299.487305,4233.846191,4231.922852,4231.410156,4245.641113,4225.000000,4219.743652,4522.563965,4479.487305,4398.846191,4502.948730,4704.000000,4.000000,75.000000,,,,0.000000,4.000000,4.000000,4.000000,4.000000,4.000000,4.000000,4.000000,4.000000,4.000000,4.000000,4.000000,4.000000,4.000000,4.000000,100.000000,,,,,,,,,,,,,,,,,16.000000,0.000000,0.659991,0.247253,-0.679077,0.205261,0.986937,0.062508,-0.037602,-16.254896,-39.048595,62.946163
1703496000.930123,1703496000.930345,65.000000,0.000000,4233.205078,4240.769043,4309.358887,4292.307617,4223.717773,4232.051270,4231.282227,4245.897461,4227.692383,4232.820313,4525.128418,4474.743652,4407.820313,4496.666504,5622.000000,4.000000,75.000000,,,,0.000000,4.000000,4.000000,4.000000,4.000000,4.000000,4.000000,4.000000,4.000000,4.000000,4.000000,4.000000,4.000000,4.000000,4.000000,100.000000,,,,,,,,,,,,,,,,,,,,,,,,,,,,
1703496000.937930,1703496000.938053,66.000000,0.000000,4226.666504,4220.512695,4301.538574,4283.333496,4217.307617,4226.282227,4230.384766,4256.922852,4232.051270,4233.461426,4523.589844,4481.538574,4410.000000,4487.563965,5430.000000,4.000000,75.000000,,,,0.000000,4.000000,4.000000,4.000000,4.000000,4.000000,4.000000,4.000000,4.000000,4.000000,4.000000,4.000000,4.000000,4.000000,4.000000,100.000000,,,,,,,,,,,,,,,,,,,,,,,,,,,,
1703496000.945739,1703496000.945861,67.000000,0.000000,4231.666504,4214.743652,4298.846191,4278.846191,4237.051270,4234.615234,4234.743652,4275.641113,4242.307617,4236.282227,4526.666504,4488.461426,4405.384766,4487.820313,5439.000000,4.000000,75.000000,,,,0.000000,4.000000,4.000000,4.000000,4.000000,4.000000,4.000000,4.000000,4.000000,4.000000,4.000000,4.000000,4.000000,4.000000,4.000000,100.000000,,,,,,,,,,,,,,,,,,,,,,,,,,,,
1703496000.953547,1703496000.953569,68.000000,0.000000,4230.128418,4226.794922,4298.461426,4282.051270,4230.512695,4237.179688,4234.487305,4282.179688,4242.051270,4237.436035,4529.871582,4485.512695,4401.538574,4491.282227,5308.000000,4.000000,75.000000,,,,0.000000,4.000000,4.000000,4.000000,4.000000,4.000000,4.000000,4.000000,4.000000,4.000000,4.000000,4.000000,4.000000,4.000000,4.000000,100.000000,,,,,,,,,,,,,,,,,17.000000,0.000000,0.659964,0.247375,-0.679077,0.205200,0.984495,0.055183,-0.047369,-16.346073,-39.093739,62.951550
1703496000.961355,1703496000.961377,69.000000,0.000000,4230.641113,4234.615234,4296.410156,4292.820313,4201.282227,4221.666504,4228.974121,4268.077148,4227.436035,4221.666504,4526.666504,4476.666504,4400.769043,4486.794922,5003.000000,4.000000,75.000000,,,,0.000000,4.000000,4.000000,4.000000,4.000000,4.000000,4.000000,4.000000,4.000000,4.000000,4.000000,4.000000,4.000000,4.000000,4.000000,100.000000,,,,,,,,,,,,,,,,,,,,,,,,,,,,
1703496000.969163,1703496000.969085,70.000000,0.000000,4234.487305,4227.179688,4298.077148,4296.922852,4212.436035,4221.794922,4229.871582,4255.512695,4221.153809,4214.230957,4520.384766,4475.000000,4402.051270,4488.717773,3132.000000,4.000000,75.000000,,,,0.000000,4.000000,4.000000,4.000000,4.000000,4.000000,4.000000,4.000000,4.000000,4.000000,4.000000,4.000000,4.000000,4.000000,4.000000,100.000000,,,,,,,,,,,,,,,,,,,,,,,,,,,,
1703496000.976971,1703496000.976993,71.000000,0.000000,4223.461426,4216.794922,4299.615234,4286.410156,4238.077148,4230.000000,4235.384766,4252.436035,4222.051270,4213.717773,4513.846191,4472.820313,4396.410156,4495.256348,3937.000000,4.000000,75.000000,,,,0.000000,4.000000,4.000000,4.000000,4.000000,4.000000,4.000000,4.000000,4.000000,4.000000,4.000000,4.000000,4.000000,4.000000,4.000000,100.000000,,,,,,,,,,,,,,,,,,,,,,,,,,,,
1703496000.984779,1703496000.984801,72.000000,0.000000,4214.487305,4216.666504,4299.615234,4278.205078,4228.205078,4217.692383,4233.077148,4250.000000,4212.948730,4200.384766,4506.922852,4469.615234,4382.948730,4489.230957,3864.000000,4.000000,75.000000,,,,0.000000,4.000000,4.000000,4.000000,4.000000,4.000000,4.000000,4.000000,4.000000,4.000000,4.000000,4.000000,4.000000,4.000000,4.000000,100.000000,,,,,,,,,,,,,,,,,18.000000,0.000000,0.660080,0.247620,-0.678894,0.205139,0.982053,0.058601,-0.046392,-16.461466,-39.251030,62.939728
1703496000.992587,1703496000.992708,73.000000,0.000000,4222.051270,4217.307617,4301.538574,4287.436035,4202.051270,4200.384766,4222.051270,4244.487305,4206.410156,4189.743652,4503.461426,4472.307617,4379.487305,4476.922852,5624.000000,4.000000,75.000000,,,,0.000000,4.000000,4.000000,4.000000,4.000000,4.000000,4.000000,4.000000,4.000000,4.000000,4.000000,4.000000,4.000000,4.000000,4.000000,100.000000,,,,,,,,,,,,,,,,,,,,,,,,,,,,
1703496001.000395,1703496001.000516,74.000000,0.000000,4231.025879,4217.307617,4306.666504,4294.615234,4205.256348,4200.897461,4222.179688,4244.102539,4209.743652,4193.717773,4508.846191,4477.307617,4388.077148,4477.692383,5936.000000,4.000000,75.000000,,,,0.000000,4.000000,4.000000,4.000000,4.000000,4.000000,4.000000,4.000000,4.000000,4.000000,4.000000,4.000000,4.000000,4.000000,4.000000,100.000000,,,,,,,,,,,,,,,,,,,,,,,,,,,,
1703496001.008203,1703496001.008424,75.000000,0.000000,4228.846191,4225.384766,4312.436035,4293.461426,4226.410156,4205.384766,4229.743652,4256.666504,4216.153809,4209.743652,4520.000000,4485.384766,4399.487305,4491.538574,6187.000000,4.000000,75.000000,,,,0.000000,4.000000,4.000000,4.000000,4.000000,4.000000,4.000000,4.000000,4.000000,4.000000,4.000000,4.000000,4.000000,4.000000,4.000000,100.000000,,,,,,,,,,,,,,,,,,,,,,,,,,,,
1703496001.016011,1703496001.016232,76.000000,0.000000,4216.538574,4229.358887,4307.692383,4296.922852,4227.948730,4210.769043,4230.512695,4270.897461,4222.948730,4219.871582,4525.256348,4485.256348,4400.641113,4491.538574,6644.000000,4.000000,75.000000,,,,0.000000,4.000000,4.000000,4.000000,4.000000,4.000000,4.000000,4.000000,4.000000,4.000000,4.000000,4.000000,4.000000,4.000000,4.000000,100.000000,,,,,,,,,,,,,,,,,19.000000,0.000000,0.660093,0.247803,-0.678833,0.205078,1.003052,0.052741,-0.040044,-16.381985,-39.342594,63.095753
1703496001.023819,1703496001.024140,77.000000,0.000000,4211.410156,4221.794922,4296.538574,4292.051270,4222.820313,4226.666504,4232.692383,4276.794922,4231.153809,4213.077148,4518.589844,4475.000000,4386.282227,4467.948730,6320.000000,4.000000,75.000000,,,,0.000000,4.000000,4.000000,4.000000,4.000000,4.000000,4.000000,4.000000,4.000000,4.000000,4.000000,4.000000,4.000000,4.000000,4.000000,100.000000,,,,,,,,,,,,,,,,,,,,,,,,,,,,
1703496001.031627,1703496001.031948,78.000000,0.000000,4206.922852,4210.256348,4291.025879,4276.025879,4231.025879,4236.153809,4237.948730,4289.743652,4243.205078,4218.461426,4514.487305,4466.025879,4369.615234,4453.333496,5936.000000,4.000000,75.000000,,,,0.000000,4.000000,4.000000,4.000000,4.000000,4.000000,4.000000,4.000000,4.000000,4.000000,4.000000,4.000000,4.000000,4.000000,4.000000,100.000000,,,,,,,,,,,,,,,,,,,,,,,,,,,,
1703496001.039435,1703496001.039856,79.000000,0.000000,4188.717773,4203.205078,4286.538574,4271.922852,4226.410156,4237.436035,4234.743652,4307.692383,4254.102539,4237.563965,4512.307617,4468.333496,4364.230957,4456.282227,6187.000000,4.000000,75.000000,,,,0.000000,4.000000,4.000000,4.000000,4.000000,4.000000,4.000000,4.000000,4.000000,4.000000,4.000000,4.000000,4.000000,4.000000,4.000000,100.000000,,,,,,,,,,,,,,,,,,,,,,,,,,,,
1703496001.047243,1703496001.047664,80.000000,0.000000,4190.769043,4207.436035,4286.794922,4281.410156,4207.307617,4240.641113,4230.256348,4305.128418,4250.512695,4230.000000,4519.230957,4478.717773,4371.410156,4458.589844,6644.000000,4.000000,75.000000,,,,0.000000,4.000000,4.000000,4.000000,4.000000,4.000000,4.000000,4.000000,4.000000,4.000000,4.000000,4.000000,4.000000,4.000000,4.000000,100.000000,,,,,,,,,,,,,,,,,20.000000,0.000000,0.660072,0.247742,-0.678894,0.205017,0.986449,0.051764,-0.036626,-16.427120,-39.275002,63.052845
1703496001.055051,1703496001.055572,81.000000,0.000000,4210.256348,4208.846191,4290.769043,4279.743652,4220.769043,4243.589844,4234.871582,4293.461426,4240.128418,4212.179688,4537.179688,4483.589844,4373.333496,4461.538574,6320.000000,4.000000,75.000000,,,,0.000000,4.000000,4.000000,4.000000,4.000000,4.000000,4.000000,4.000000,4.000000,4.000000,4.000000,4.000000,4.000000,4.000000,4.000000,100.000000,,,,,,,,,,,,,,,,,,,,,,,,,,,,
1703496001.062859,1703496001.063380,82.000000,0.000000,4210.000000,4205.512695,4294.615234,4273.461426,4241.025879,4232.948730,4235.897461,4293.205078,4232.436035,4219.615234,4530.000000,4483.717773,4360.641113,4473.461426,5936.000000,4.000000,75.000000,,,,0.000000,4.000000,4.000000,4.000000,4.000000,4.000000,4.000000,4.000000,4.000000,4.000000,4.000000,4.000000,4.000000,4.000000,4.000000,100.000000,,,,,,,,,,,,,,,,,,,,,,,,,,,,
1703496001.070667,1703496001.071088,83.000000,0.000000,4215.641113,4220.512695,4302.436035,4288.333496,4227.692383,4216.666504,4231.282227,4290.897461,4222.692383,4219.615234,4515.897461,4486.538574,4357.436035,4491.153809,6187.000000,4.000000,75.000000,,,,0.000000,4.000000,4.000000,4.000000,4.000000,4.000000,4.000000,4.000000,4.000000,4.000000,4.000000,4.000000,4.000000,4.000000,4.000000,100.000000,,,,,,,,,,,,,,,,,,,,,,,,,,,,
1703496001.078475,1703496001.078896,84.000000,0.000000,4232.051270,4240.384766,4307.307617,4295.000000,4213.589844,4213.846191,4229.615234,4277.692383,4216.666504,4204.871582,4527.820313,4485.512695,4366.666504,4498.333496,6644.000000,4.000000,75.000000,,,,0.000000,4.000000,4.000000,4.000000,4.000000,4.000000,4.000000,4.000000,4.000000,4.000000,4.000000,4.000000,4.000000,4.000000,4.000000,100.000000,,,,,,,,,,,,,,,,,21.000000,0.000000,0.660178,0.247559,-0.678894,0.204895,0.990355,0.039556,-0.038579,-16.534409,-39.230835,62.864227
1703496001.086284,1703496001.086604,85.000000,0.000000,4224.230957,4236.282227,4305.769043,4270.641113,4215.256348,4212.436035,4231.282227,4261.410156,4216.410156,4201.538574,4529.871582,4478.077148,4355.769043,4485.512695,6320.000000,4.000000,75.000000,,,,0.000000,4.000000,4.000000,4.000000,4.000000,4.000000,4.000000,4.000000,4.000000,4.000000,4.000000,4.000000,4.000000,4.000000,4.000000,100.000000,,,,,,,,,,,,,,,,,,,,,,,,,,,,
1703496001.094092,1703496001.094412,86.000000,0.000000,4221.153809,4230.128418,4304.102539,4254.487305,4214.743652,4203.077148,4230.000000,4248.846191,4210.256348,4198.333496,4507.179688,4473.333496,4338.589844,4472.948730,5936.000000,4.000000,75.000000,,,,0.000000,4.000000,4.000000,4.000000,4.000000,4.000000,4.000000,4.000000,4.000000,4.000000,4.000000,4.000000,4.000000,4.000000,4.000000,100.000000,,,,,,,,,,,,,,,,,,,,,,,,,,,,
1703496001.101900,1703496001.102120,87.000000,0.000000,4235.256348,4241.153809,4304.230957,4265.641113,4213.461426,4192.820313,4229.230957,4243.461426,4199.358887,4179.615234,4500.641113,4468.461426,4339.743652,4475.256348,6187.000000,4.000000,75.000000,,,,0.000000,4.000000,4.000000,4.000000,4.000000,4.000000,4.000000,4.000000,4.000000,4.000000,4.000000,4.000000,4.000000,4.000000,4.000000,100.000000,,,,,,,,,,,,,,,,,,,,,,,,,,,,
1703496001.109708,1703496001.109928,88.000000,0.000000,4221.410156,4238.461426,4299.230957,4260.384766,4218.461426,4194.487305,4230.384766,4244.615234,4199.743652,4173.589844,4509.871582,4460.256348,4336.153809,4466.922852,6644.000000,4.000000,75.000000,,,,0.000000,4.000000,4.000000,4.000000,4.000000,4.000000,4.000000,4.000000,4.000000,4.000000,4.000000,4.000000,4.000000,4.000000,4.000000,100.000000,,,,,,,,,,,,,,,,,22.000000,0.000000,0.660203,0.247559,-0.678833,0.205017,0.985472,0.053229,-0.049811,-16.497635,-39.074417,63.111137
1703496001.117516,1703496001.117636,89.000000,0.000000,4194.102539,4220.256348,4285.897461,4233.589844,4208.333496,4205.256348,4226.666504,4251.410156,4210.641113,4194.358887,4503.205078,4451.794922,4325.128418,4436.922852,6320.000000,4.000000,75.000000,,,,0.000000,4.000000,4.000000,4.000000,4.000000,4.000000,4.000000,4.000000,4.000000,4.000000,4.000000,4.000000,4.000000,4.000000,4.000000,100.000000,,,,,,,,,,,,,,,,,,,,,,,,,,,,
1703496001.125324,1703496001.125544,90.000000,0.000000,4187.563965,4210.256348,4274.871582,4227.948730,4193.589844,4216.282227,4226.666504,4260.897461,4215.512695,4195.512695,4484.230957,4442.692383,4321.922852,4418.717773,5936.000000,4.000000,75.000000,,,,0.000000,4.000000,4.000000,4.000000,4.000000,4.000000,4.000000,4.000000,4.000000,4.000000,4.000000,4.000000,4.000000,4.000000,4.000000,100.000000,,,,,,,,,,,,,,,,,,,,,,,,,,,,
1703496001.133132,1703496001.133352,91.000000,0.000000,4183.974121,4203.717773,4268.205078,4228.846191,4203.589844,4226.153809,4233.717773,4268.589844,4225.000000,4171.282227,4477.307617,4437.051270,4318.717773,4428.333496,6187.000000,4.000000,75.000000,,,,0.000000,4.000000,4.000000,4.000000,4.000000,4.000000,4.000000,4.000000,4.000000,4.000000,4.000000,4.000000,4.000000,4.000000,4.000000,100.000000,,,,,,,,,,,,,,,,,,,,,,,,,,,,
1703496001.140940,1703496001.141260,92.000000,0.000000,4175.897461,4194.743652,4266.538574,4214.615234,4211.538574,4226.794922,4233.974121,4274.615234,4238.974121,4181.153809,4492.692383,4443.461426,4317.948730,4439.871582,6644.000000,4.000000,75.000000,,,,0.000000,4.000000,4.000000,4.000000,4.000000,4.000000,4.000000,4.000000,4.000000,4.000000,4.000000,4.000000,4.000000,4.000000,4.000000,100.000000,,,,,,,,,,,,,,,,,23.000000,0.000000,0.660302,0.247681,-0.678711,0.204956,0.992309,0.047369,-0.043951,-16.614538,-39.083641,63.150024
1703496001.148748,1703496001.149068,93.000000,0.000000,4180.641113,4199.743652,4269.102539,4212.692383,4203.589844,4225.512695,4230.641113,4281.794922,4241.922852,4214.871582,4506.282227,4453.717773,4328.717773,4435.769043,6320.000000,4.000000,75.000000,,,,0.000000,4.000000,4.000000,4.000000,4.000000,4.000000,4.000000,4.000000,4.000000,4.000000,4.000000,4.000000,4.000000,4.000000,4.000000,100.000000,,,,,,,,,,,,,,,,,,,,,,,,,,,,
1703496001.156556,1703496001.156976,94.000000,0.000000,4192.307617,4217.436035,4270.128418,4228.846191,4207.563965,4227.051270,4232.307617,4281.794922,4236.538574,4213.205078,4504.102539,4453.205078,4332.820313,4433.589844,5936.000000,4.000000,75.000000,,,,0.000000,4.000000,4.000000,4.000000,4.000000,4.000000,4.000000,4.000000,4.000000,4.000000,4.000000,4.000000,4.000000,4.000000,4.000000,100.000000,,,,,,,,,,,,,,,,,,,,,,,,,,,,
1703496001.164364,1703496001.164784,95.000000,0.000000,4200.384766,4225.512695,4277.563965,4234.487305,4220.769043,4222.692383,4234.487305,4276.666504,4232.307617,4192.692383,4500.256348,4455.384766,4325.769043,4447.820313,6187.000000,4.000000,75.000000,,,,0.000000,4.000000,4.000000,4.000000,4.000000,4.000000,4.000000,4.000000,4.000000,4.000000,4.000000,4.000000,4.000000,4.000000,4.000000,100.000000,,,,,,,,,,,,,,,,,,,,,,,,,,,,
1703496001.172172,1703496001.172692,96.000000,0.000000,4218.333496,4232.948730,4295.384766,4237.307617,4217.179688,4215.512695,4235.384766,4279.743652,4229.230957,4204.615234,4510.128418,4473.974121,4338.589844,4466.666504,6644.000000,4.000000,75.000000,,,,0.000000,4.000000,4.000000,4.000000,4.000000,4.000000,4.000000,4.000000,4.000000,4.000000,4.000000,4.000000,4.000000,4.000000,4.000000,100.000000,,,,,,,,,,,,,,,,,24.000000,0.000000,0.660331,0.247437,-0.678772,0.204956,0.981565,0.044927,-0.038579,-16.569750,-39.108612,63.118355
1703496001.179980,1703496001.180500,97.000000,0.000000,4237.820313,4247.692383,4304.102539,4253.717773,4212.563965,4211.794922,4235.384766,4283.077148,4227.179688,4220.256348,4528.077148,4488.205078,4361.410156,4477.820313,6320.000000,4.000000,75.000000,,,,0.000000,4.000000,4.000000,4.000000,4.000000,4.000000,4.000000,4.000000,4.000000,4.000000,4.000000,4.000000,4.000000,4.000000,4.000000,100.000000,,,,,,,,,,,,,,,,,,,,,,,,,,,,
1703496001.187788,1703496001.188408,98.000000,0.000000,4235.128418,4252.692383,4303.205078,4264.871582,4218.589844,4207.820313,4233.205078,4278.461426,4222.563965,4203.077148,4533.589844,4487.692383,4363.717773,4483.717773,5936.000000,4.000000,75.000000,,,,0.000000,4.000000,4.000000,4.000000,4.000000,4.000000,4.000000,4.000000,4.000000,4.000000,4.000000,4.000000,4.000000,4.000000,4.000000,100.000000,,,,,,,,,,,,,,,,,,,,,,,,,,,,
1703496001.195596,1703496001.196216,99.000000,0.000000,4227.307617,4245.384766,4303.077148,4259.743652,4211.922852,4197.307617,4230.897461,4273.333496,4203.589844,4187.436035,4524.358887,4481.538574,4351.666504,4478.717773,6187.000000,4.000000,75.000000,,,,0.000000,4.000000,4.000000,4.000000,4.000000,4.000000,4.000000,4.000000,4.000000,4.000000,4.000000,4.000000,4.000000,4.000000,4.000000,100.000000,,,,,,,,,,,,,,,,,,,,,,,,,,,,
1703496001.203404,1703496001.204124,100.000000,0.000000,4227.692383,4239.102539,4301.282227,4251.922852,4207.179688,4188.461426,4230.769043,4283.717773,4190.000000,4197.692383,4520.641113,4478.333496,4350.769043,4468.461426,6644.000000,4.000000,75.000000,,,,0.000000,4.000000,4.000000,4.000000,4.000000,4.000000,4.000000,4.000000,4.000000,4.000000,4.000000,4.000000,4.000000,4.000000,4.000000,100.000000,,,,,,,,,,,,,,,,,25.000000,0.000000,0.660331,0.247253,-0.678894,0.204773,0.983518,0.051764,-0.037602,-16.562775,-39.081085,63.056519
1703496001.211212,1703496001.211932,101.000000,0.000000,4227.563965,4236.922852,4297.051270,4250.769043,4214.487305,4183.974121,4230.000000,4297.051270,4204.230957,4196.794922,4528.846191,4477.820313,4357.307617,4474.358887,6320.000000,4.000000,75.000000,,,,0.000000,4.000000,4.000000,4.000000,4.000000,4.000000,4.000000,4.000000,4.000000,4.000000,4.000000,4.000000,4.000000,4.000000,4.000000,100.000000,,,,,,,,,,,,,,,,,,,,,,,,,,,,
1703496001.219020,1703496001.219839,102.000000,0.000000,4218.205078,4231.922852,4288.461426,4244.615234,4209.230957,4188.717773,4227.948730,4298.461426,4223.846191,4180.128418,4526.282227,4470.256348,4345.128418,4459.230957,5936.000000,4.000000,75.000000,,,,0.000000,4.000000,4.000000,4.000000,4.000000,4.000000,4.000000,4.000000,4.000000,4.000000,4.000000,4.000000,4.000000,4.000000,4.000000,100.000000,,,,,,,,,,,,,,,,,,,,,,,,,,,,
1703496001.226828,1703496001.227647,103.000000,0.000000,4192.307617,4222.436035,4276.153809,4232.563965,4196.922852,4198.846191,4229.230957,4303.846191,4221.410156,4179.743652,4502.692383,4458.205078,4319.487305,4407.948730,6187.000000,4.000000,75.000000,,,,0.000000,4.000000,4.000000,4.000000,4.000000,4.000000,4.000000,4.000000,4.000000,4.000000,4.000000,4.000000,4.000000,4.000000,4.000000,100.000000,,,,,,,,,,,,,,,,,,,,,,,,,,,,
1703496001.234636,1703496001.235555,104.000000,0.000000,4175.769043,4210.512695,4267.436035,4226.922852,4200.128418,4204.871582,4231.538574,4314.102539,4217.179688,4188.717773,4484.487305,4448.205078,4310.512695,4401.922852,6644.000000,4.000000,75.000000,,,,0.000000,4.000000,4.000000,4.000000,4.000000,4.000000,4.000000,4.000000,4.000000,4.000000,4.000000,4.000000,4.000000,4.000000,4.000000,100.000000,,,,,,,,,,,,,,,,,26.000000,0.000000,0.660412,0.247253,-0.678833,0.204712,0.997192,0.046392,-0.031254,-16.556498,-39.056309,63.000866
1703496001.242444,1703496001.243363,105.000000,0.000000,4181.153809,4196.410156,4263.717773,4220.000000,4198.205078,4207.563965,4230.641113,4316.282227,4228.205078,4188.974121,4491.410156,4445.769043,4318.846191,4442.051270,6320.000000,4.000000,75.000000,,,,0.000000,4.000000,4.000000,4.000000,4.000000,4.000000,4.000000,4.000000,4.000000,4.000000,4.000000,4.000000,4.000000,4.000000,4.000000,100.000000,,,,,,,,,,,,,,,,,,,,,,,,,,,,
1703496001.250252,1703496001.251271,106.000000,0.000000,4182.179688,4196.282227,4266.410156,4214.615234,4187.948730,4205.641113,4228.205078,4310.128418,4228.589844,4178.846191,4497.948730,4451.153809,4314.487305,4438.589844,5936.000000,4.000000,75.000000,,,,0.000000,4.000000,4.000000,4.000000,4.000000,4.000000,4.000000,4.000000,4.000000,4.000000,4.000000,4.000000,4.000000,4.000000,4.000000,100.000000,1.000000,83.333336,4.000000,4.000000,3.000000,4.000000,4.000000,4.000000,4.000000,4.000000,4.000000,4.000000,4.000000,4.000000,4.000000,3.000000,,,,,,,,,,,,
1703496001.258061,1703496001.259179,107.000000,0.000000,4190.000000,4216.538574,4275.384766,4228.333496,4196.282227,4202.051270,4229.871582,4304.871582,4215.897461,4171.922852,4494.102539,4456.025879,4311.025879,4419.871582,6187.000000,4.000000,75.000000,,,,0.000000,4.000000,4.000000,4.000000,4.000000,4.000000,4.000000,4.000000,4.000000,4.000000,4.000000,4.000000,4.000000,4.000000,4.000000,100.000000,,,,,,,,,,,,,,,,,,,,,,,,,,,,
1703496001.265869,1703496001.266987,108.000000,0.000000,4215.769043,4232.948730,4287.563965,4246.538574,4210.384766,4203.461426,4235.641113,4305.384766,4216.282227,4180.000000,4508.974121,4471.410156,4330.897461,4447.692383,6644.000000,4.000000,75.000000,,,,0.000000,4.000000,4.000000,4.000000,4.000000,4.000000,4.000000,4.000000,4.000000,4.000000,4.000000,4.000000,4.000000,4.000000,4.000000,100.000000,,,,,,,,,,,,,,,,,27.000000,0.000000,0.660346,0.247314,-0.678894,0.204651,0.990844,0.056648,-0.047369,-16.584181,-38.984013,62.884113
1703496001.273677,1703496001.274796,109.000000,0.000000,4224.871582,4236.922852,4298.461426,4253.589844,4213.461426,4206.025879,4236.794922,4310.000000,4221.410156,4190.897461,4527.948730,4486.666504,4346.025879,4467.051270,6320.000000,4.000000,75.000000,,,,0.000000,4.000000,4.000000,4.000000,4.000000,4.000000,4.000000,4.000000,4.000000,4.000000,4.000000,4.000000,4.000000,4.000000,4.000000,100.000000,,,,,,,,,,,,,,,,,,,,,,,,,,,,
1703496001.281485,1703496001.282504,110.000000,0.000000,4223.333496,4244.102539,4303.333496,4258.974121,4218.461426,4203.717773,4235.000000,4309.487305,4211.794922,4189.871582,4526.025879,4488.717773,4344.871582,4456.410156,5936.000000,4.000000,75.000000,,,,0.000000,4.000000,4.000000,4.000000,4.000000,4.000000,4.000000,4.000000,4.000000,4.000000,4.000000,4.000000,4.000000,4.000000,4.000000,100.000000,,,,,,,,,,,,,,,,,,,,,,,,,,,,
1703496001.289293,1703496001.290312,111.000000,0.000000,4236.282227,4251.666504,4305.256348,4264.871582,4221.025879,4199.615234,4234.230957,4306.410156,4202.307617,4186.666504,4525.384766,4493.846191,4352.820313,4466.794922,6187.000000,4.000000,75.000000,,,,0.000000,4.000000,4.000000,4.000000,4.000000,4.000000,4.000000,4.000000,4.000000,4.000000,4.000000,4.000000,4.000000,4.000000,4.000000,100.000000,,,,,,,,,,,,,,,,,,,,,,,,,,,,
1703496001.297101,1703496001.298020,112.000000,0.000000,4242.948730,4250.000000,4305.769043,4266.153809,4216.410156,4199.102539,4234.871582,4307.179688,4200.512695,4197.179688,4539.615234,4503.717773,4372.563965,4496.410156,6644.000000,4.000000,75.000000,,,,0.000000,4.000000,4.000000,4.000000,4.000000,4.000000,4.000000,4.000000,4.000000,4.000000,4.000000,4.000000,4.000000,4.000000,4.000000,100.000000,,,,,,,,,,,,,,,,,28.000000,0.000000,0.660342,0.247559,-0.678772,0.204773,0.981565,0.046881,-0.035649,-16.642429,-38.918945,62.945702
1703496001.304909,1703496001.305828,113.000000,0.000000,4234.230957,4244.102539,4301.282227,4262.563965,4217.179688,4201.666504,4237.820313,4312.179688,4200.000000,4204.102539,4547.692383,4500.256348,4377.948730,4503.717773,6320.000000,4.000000,75.000000,,,,0.000000,4.000000,4.000000,4.000000,4.000000,4.000000,4.000000,4.000000,4.000000,4.000000,4.000000,4.000000,4.000000,4.000000,4.000000,100.000000,,,,,,,,,,,,,,,,,,,,,,,,,,,,
1703496001.312717,1703496001.313536,114.000000,0.000000,4220.128418,4231.794922,4286.922852,4246.922852,4218.077148,4206.025879,4237.179688,4317.307617,4206.794922,4188.974121,4533.077148,4480.641113,4355.769043,4469.487305,5936.000000,4.000000,75.000000,,,,0.000000,4.000000,4.000000,4.000000,4.000000,4.000000,4.000000,4.000000,4.000000,4.000000,4.000000,4.000000,4.000000,4.000000,4.000000,100.000000,,,,,,,,,,,,,,,,,,,,,,,,,,,,
1703496001.320525,1703496001.321344,115.000000,0.000000,4198.077148,4218.077148,4266.282227,4233.333496,4206.922852,4207.820313,4231.538574,4313.461426,4213.589844,4167.307617,4506.666504,4452.051270,4327.692383,4432.179688,6187.000000,4.000000,75.000000,,,,0.000000,4.000000,4.000000,4.000000,4.000000,4.000000,4.000000,4.000000,4.000000,4.000000,4.000000,4.000000,4.000000,4.000000,4.000000,100.000000,,,,,,,,,,,,,,,,,,,,,,,,,,,,
1703496001.328333,1703496001.329052,116.000000,0.000000,4183.846191,4215.256348,4259.102539,4238.077148,4197.051270,4208.461426,4229.743652,4308.077148,4214.743652,4162.307617,4487.436035,4437.051270,4321.025879,4425.384766,6644.000000,4.000000,75.000000,,,,0.000000,4.000000,4.000000,4.000000,4.000000,4.000000,4.000000,4.000000,4.000000,4.000000,4.000000,4.000000,4.000000,4.000000,4.000000,100.000000,,,,,,,,,,,,,,,,,29.000000,0.000000,0.660422,0.247681,-0.678650,0.204773,0.984984,0.053229,-0.036626,-16.744854,-38.977051,63.001133
1703496001.336141,1703496001.336860,117.000000,0.000000,4188.974121,4215.128418,4266.666504,4239.615234,4208.461426,4214.102539,4233.974121,4316.025879,4216.794922,4174.871582,4494.358887,4451.025879,4331.538574,4425.512695,6320.000000,4.000000,75.000000,,,,0.000000,4.000000,4.000000,4.000000,4.000000,4.000000,4.000000,4.000000,4.000000,4.000000,4.000000,4.000000,4.000000,4.000000,4.000000,100.000000,,,,,,,,,,,,,,,,,,,,,,,,,,,,
1703496001.343949,1703496001.344568,118.000000,0.000000,4194.615234,4207.948730,4273.205078,4229.871582,4220.256348,4217.179688,4235.256348,4328.846191,4219.487305,4183.461426,4515.128418,4467.051270,4334.358887,4423.333496,5936.000000,4.000000,75.000000,,,,0.000000,4.000000,4.000000,4.000000,4.000000,4.000000,4.000000,4.000000,4.000000,4.000000,4.000000,4.000000,4.000000,4.000000,4.000000,100.000000,,,,,,,,,,,,,,,,,,,,,,,,,,,,
1703496001.351757,1703496001.352476,119.000000,0.000000,4203.077148,4211.794922,4277.307617,4235.641113,4206.794922,4209.230957,4230.512695,4331.153809,4215.897461,4187.692383,4525.512695,4471.025879,4331.282227,4440.512695,6187.000000,4.000000,75.000000,,,,0.000000,4.000000,4.000000,4.000000,4.000000,4.000000,4.000000,4.000000,4.000000,4.000000,4.000000,4.000000,4.000000,4.000000,4.000000,100.000000,,,,,,,,,,,,,,,,,,,,,,,,,,,,
1703496001.359565,1703496001.360284,120.000000,0.000000,4220.384766,4229.230957,4280.384766,4256.922852,4197.948730,4201.538574,4227.692383,4321.282227,4212.820313,4189.230957,4531.666504,4476.922852,4337.436035,4472.436035,6644.000000,4.000000,75.000000,,,,0.000000,4.000000,4.000000,4.000000,4.000000,4.000000,4.000000,4.000000,4.000000,4.000000,4.000000,4.000000,4.000000,4.000000,4.000000,100.000000,,,,,,,,,,,,,,,,,30.000000,0.000000,0.660441,0.247681,-0.678650,0.204712,0.995727,0.042974,-0.039556,-16.770369,-38.962677,63.034351
1703496001.367373,1703496001.368192,121.000000,0.000000,4216.922852,4235.000000,4291.794922,4266.025879,4210.641113,4199.102539,4229.615234,4311.666504,4218.205078,4185.897461,4540.384766,4482.820313,4341.538574,4478.974121,6320.000000,4.000000,75.000000,,,,0.000000,4.000000,4.000000,4.000000,4.000000,4.000000,4.000000,4.000000,4.000000,4.000000,4.000000,4.000000,4.000000,4.000000,4.000000,100.000000,,,,,,,,,,,,,,,,,,,,,,,,,,,,
1703496001.375181,1703496001.375999,122.000000,0.000000,4218.846191,4241.410156,4306.922852,4270.769043,4218.461426,4197.563965,4230.384766,4310.384766,4217.948730,4195.769043,4548.589844,4490.897461,4349.743652,4470.641113,5936.000000,4.000000,75.000000,,,,0.000000,4.000000,4.000000,4.000000,4.000000,4.000000,4.000000,4.000000,4.000000,4.000000,4.000000,4.000000,4.000000,4.000000,4.000000,100.000000,,,,,,,,,,,,,,,,,,,,,,,,,,,,
1703496001.382989,1703496001.383907,123.000000,0.000000,4263.589844,4260.384766,4312.948730,4280.897461,4216.025879,4195.769043,4232.179688,4312.948730,4207.692383,4212.051270,4559.615234,4506.922852,4365.128418,4483.461426,6187.000000,4.000000,75.000000,,,,0.000000,4.000000,4.000000,4.000000,4.000000,4.000000,4.000000,4.000000,4.000000,4.000000,4.000000,4.000000,4.000000,4.000000,4.000000,100.000000,,,,,,,,,,,,,,,,,,,,,,,,,,,,
1703496001.390797,1703496001.391715,124.000000,0.000000,4281.282227,4258.589844,4308.717773,4278.846191,4215.128418,4190.512695,4230.897461,4311.282227,4208.333496,4211.153809,4559.230957,4509.487305,4359.487305,4487.692383,6644.000000,4.000000,75.000000,,,,0.000000,4.000000,4.000000,4.000000,4.000000,4.000000,4.000000,4.000000,4.000000,4.000000,4.000000,4.000000,4.000000,4.000000,4.000000,100.000000,,,,,,,,,,,,,,,,,31.000000,0.000000,0.660604,0.247681,-0.678528,0.204590,0.985960,0.049322,-0.046392,-16.793331,-38.949741,62.980919
1703496001.398605,1703496001.399623,125.000000,0.000000,4235.384766,4236.410156,4293.333496,4261.538574,4205.384766,4186.410156,4222.307617,4308.461426,4218.461426,4197.820313,4536.282227,4482.179688,4336.410156,4468.205078,6320.000000,4.000000,75.000000,,,,0.000000,4.000000,4.000000,4.000000,4.000000,4.000000,4.000000,4.000000,4.000000,4.000000,4.000000,4.000000,4.000000,4.000000,4.000000,100.000000,,,,,,,,,,,,,,,,,,,,,,,,,,,,
1703496001.406413,1703496001.407431,126.000000,0.000000,4209.102539,4228.846191,4279.871582,4247.051270,4195.256348,4194.615234,4222.692383,4309.102539,4215.641113,4189.615234,4519.230957,4456.666504,4326.922852,4450.769043,5936.000000,4.000000,75.000000,,,,0.000000,4.000000,4.000000,4.000000,4.000000,4.000000,4.000000,4.000000,4.000000,4.000000,4.000000,4.000000,4.000000,4.000000,4.000000,100.000000,,,,,,,,,,,,,,,,,,,,,,,,,,,,
1703496001.414221,1703496001.415339,127.000000,0.000000,4218.589844,4230.256348,4278.717773,4246.282227,4205.128418,4203.205078,4233.461426,4303.846191,4209.358887,4184.871582,4521.538574,4455.769043,4327.692383,4442.563965,75.000000,4.000000,75.000000,,,,0.000000,4.000000,4.000000,4.000000,4.000000,4.000000,4.000000,4.000000,4.000000,4.000000,4.000000,4.000000,4.000000,4.000000,4.000000,100.000000,,,,,,,,,,,,,,,,,,,,,,,,,,,,
1703496001.422030,1703496001.423147,0.000000,0.000000,4213.846191,4225.256348,4279.615234,4247.948730,4215.000000,4205.897461,4234.743652,4295.384766,4218.846191,4181.794922,4525.128418,4464.871582,4330.769043,4445.641113,4704.000000,4.000000,75.000000,,,,0.000000,4.000000,4.000000,4.000000,4.000000,4.000000,4.000000,4.000000,4.000000,4.000000,4.000000,4.000000,4.000000,4.000000,4.000000,100.000000,,,,,,,,,,,,,,,,,0.000000,0.000000,0.660600,0.247742,-0.678528,0.204529,0.994750,0.051276,-0.044439,-16.747332,-38.921436,62.866158
1703496001.429838,1703496001.431055,1.000000,0.000000,4208.717773,4227.436035,4281.538574,4244.743652,4215.128418,4210.641113,4232.692383,4293.333496,4220.128418,4185.897461,4525.769043,4468.717773,4339.743652,4461.282227,5637.000000,4.000000,75.000000,,,,0.000000,4.000000,4.000000,4.000000,4.000000,4.000000,4.000000,4.000000,4.000000,4.000000,4.000000,4.000000,4.000000,4.000000,4.000000,100.000000,,,,,,,,,,,,,,,,,,,,,,,,,,,,
1703496001.437646,1703496001.438863,2.000000,0.000000,4216.794922,4231.538574,4286.153809,4245.384766,4215.897461,4211.153809,4236.025879,4289.102539,4205.256348,4187.692383,4530.769043,4466.410156,4344.358887,4465.641113,5432.000000,4.000000,75.000000,,,,0.000000,4.000000,4.000000,4.000000,4.000000,4.000000,4.000000,4.000000,4.000000,4.000000,4.000000,4.000000,4.000000,4.000000,4.000000,100.000000,,,,,,,,,,,,,,,,,,,,,,,,,,,,
1703496001.445454,1703496001.446571,3.000000,0.000000,4216.282227,4226.410156,4287.051270,4254.615234,4208.205078,4203.077148,4234.230957,4278.974121,4198.205078,4180.000000,4534.358887,4465.256348,4337.948730,4454.743652,5439.000000,4.000000,75.000000,,,,0.000000,4.000000,4.000000,4.000000,4.000000,4.000000,4.000000,4.000000,4.000000,4.000000,4.000000,4.000000,4.000000,4.000000,4.000000,100.000000,,,,,,,,,,,,,,,,,,,,,,,,,,,,
1703496001.453262,1703496001.454379,4.000000,0.000000,4212.179688,4231.538574,4289.871582,4266.410156,4203.846191,4196.538574,4230.897461,4279.230957,4199.743652,4174.615234,4536.025879,4470.384766,4335.512695,4459.358887,5295.000000,4.000000,75.000000,,,,0.000000,4.000000,4.000000,4.000000,4.000000,4.000000,4.000000,4.000000,4.000000,4.000000,4.000000,4.000000,4.000000,4.000000,4.000000,100.000000,,,,,,,,,,,,,,,,,1.000000,0.000000,0.660621,0.247803,-0.678467,0.204590,0.992797,0.047369,-0.033696,-16.905931,-38.795959,62.746208
1703496001.461070,1703496001.462087,5.000000,0.000000,4227.948730,4249.358887,4303.846191,4269.358887,4217.051270,4199.102539,4234.487305,4281.666504,4200.641113,4183.717773,4548.974121,4482.820313,4351.282227,4464.487305,4998.000000,4.000000,75.000000,,,,0.000000,4.000000,4.000000,4.000000,4.000000,4.000000,4.000000,4.000000,4.000000,4.000000,4.000000,4.000000,4.000000,4.000000,4.000000,100.000000,,,,,,,,,,,,,,,,,,,,,,,,,,,,
1703496001.468878,1703496001.469895,6.000000,0.000000,4244.871582,4252.948730,4315.256348,4267.563965,4223.461426,4196.922852,4235.000000,4262.692383,4201.922852,4201.922852,4558.974121,4490.128418,4366.666504,4458.461426,3131.000000,4.000000,75.000000,,,,0.000000,4.000000,4.000000,4.000000,4.000000,4.000000,4.000000,4.000000,4.000000,4.000000,4.000000,4.000000,4.000000,4.000000,4.000000,100.000000,,,,,,,,,,,,,,,,,,,,,,,,,,,,
1703496001.476686,1703496001.477603,7.000000,0.000000,4242.820313,4247.307617,4308.846191,4273.974121,4214.871582,4186.538574,4230.641113,4246.410156,4209.358887,4212.948730,4561.410156,4482.307617,4371.666504,4480.000000,3931.000000,4.000000,75.000000,,,,0.000000,4.000000,4.000000,4.000000,4.000000,4.000000,4.000000,4.000000,4.000000,4.000000,4.000000,4.000000,4.000000,4.000000,4.000000,100.000000,,,,,,,,,,,,,,,,,,,,,,,,,,,,
1703496001.484494,1703496001.485411,8.000000,0.000000,4238.077148,4251.666504,4303.461426,4279.358887,4216.282227,4186.794922,4233.205078,4257.436035,4215.256348,4219.358887,4567.563965,4481.666504,4381.153809,4508.077148,3846.000000,4.000000,75.000000,,,,0.000000,4.000000,4.000000,4.000000,4.000000,4.000000,4.000000,4.000000,4.000000,4.000000,4.000000,4.000000,4.000000,4.000000,4.000000,100.000000,,,,,,,,,,,,,,,,,2.000000,0.000000,0.660623,0.247864,-0.678406,0.204712,0.985960,0.052741,-0.040532,-17.015339,-38.949696,62.821590
1703496001.492302,1703496001.493119,9.000000,0.000000,4236.794922,4248.974121,4307.307617,4262.692383,4224.102539,4201.025879,4236.666504,4274.102539,4219.615234,4225.000000,4567.307617,4487.692383,4383.974121,4497.436035,5626.000000,4.000000,75.000000,,,,0.000000,4.000000,4.000000,4.000000,4.000000,4.000000,4.000000,4.000000,4.000000,4.000000,4.000000,4.000000,4.000000,4.000000,4.000000,100.000000,,,,,,,,,,,,,,,,,,,,,,,,,,,,
1703496001.500110,1703496001.500927,10.000000,0.000000,4227.948730,4230.897461,4296.282227,4247.948730,4214.743652,4211.922852,4235.897461,4277.307617,4228.717773,4220.000000,4550.128418,4474.743652,4364.743652,4464.102539,5938.000000,4.000000,75.000000,,,,0.000000,4.000000,4.000000,4.000000,4.000000,4.000000,4.000000,4.000000,4.000000,4.000000,4.000000,4.000000,4.000000,4.000000,4.000000,100.000000,,,,,,,,,,,,,,,,,,,,,,,,,,,,
1703496001.507918,1703496001.508635,11.000000,0.000000,4219.230957,4219.102539,4279.358887,4251.025879,4203.333496,4216.025879,4237.820313,4278.333496,4226.282227,4199.743652,4529.871582,4459.871582,4341.922852,4446.153809,6190.000000,4.000000,75.000000,,,,0.000000,4.000000,4.000000,4.000000,4.000000,4.000000,4.000000,4.000000,4.000000,4.000000,4.000000,4.000000,4.000000,4.000000,4.000000,100.000000,,,,,,,,,,,,,,,,,,,,,,,,,,,,
1703496001.515726,1703496001.516443,12.000000,0.000000,4211.282227,4215.512695,4280.128418,4248.333496,4206.025879,4221.794922,4237.820313,4279.615234,4214.358887,4180.256348,4521.153809,4458.333496,4335.256348,4447.436035,6656.000000,4.000000,75.000000,,,,0.000000,4.000000,4.000000,4.000000,4.000000,4.000000,4.000000,4.000000,4.000000,4.000000,4.000000,4.000000,4.000000,4.000000,4.000000,100.000000,,,,,,,,,,,,,,,,,3.000000,0.000000,0.660560,0.247864,-0.678467,0.204712,0.986449,0.045416,-0.041509,-17.213804,-38.971394,62.889431
1703496001.523534,1703496001.524151,13.000000,0.000000,4200.384766,4215.512695,4282.692383,4244.615234,4207.692383,4223.717773,4240.000000,4270.384766,4216.410156,4181.153809,4519.230957,4451.666504,4335.128418,4447.436035,6324.000000,4.000000,75.000000,,,,0.000000,4.000000,4.000000,4.000000,4.000000,4.000000,4.000000,4.000000,4.000000,4.000000,4.000000,4.000000,4.000000,4.000000,4.000000,100.000000,,,,,,,,,,,,,,,,,,,,,,,,,,,,
1703496001.531342,1703496001.531959,14.000000,0.000000,4206.025879,4225.256348,4284.743652,4256.666504,4204.871582,4218.077148,4243.333496,4260.000000,4224.487305,4187.820313,4518.205078,4449.358887,4335.769043,4440.769043,5938.000000,4.000000,75.000000,,,,0.000000,4.000000,4.000000,4.000000,4.000000,4.000000,4.000000,4.000000,4.000000,4.000000,4.000000,4.000000,4.000000,4.000000,4.000000,100.000000,,,,,,,,,,,,,,,,,,,,,,,,,,,,
1703496001.539150,1703496001.539667,15.000000,0.000000,4218.077148,4230.256348,4294.102539,4264.102539,4211.410156,4212.436035,4239.358887,4260.128418,4214.487305,4184.230957,4514.615234,4460.128418,4340.641113,4441.025879,6190.000000,4.000000,75.000000,,,,0.000000,4.000000,4.000000,4.000000,4.000000,4.000000,4.000000,4.000000,4.000000,4.000000,4.000000,4.000000,4.000000,4.000000,4.000000,100.000000,,,,,,,,,,,,,,,,,,,,,,,,,,,,
1703496001.546958,1703496001.547575,16.000000,0.000000,4219.358887,4228.461426,4301.410156,4261.282227,4216.538574,4210.897461,4237.179688,4264.358887,4200.641113,4181.794922,4518.589844,4468.461426,4346.666504,4444.871582,0.000000,4.000000,75.000000,,,,0.000000,4.000000,4.000000,4.000000,4.000000,4.000000,4.000000,4.000000,4.000000,4.000000,4.000000,4.000000,4.000000,4.000000,4.000000,100.000000,,,,,,,,,,,,,,,,,4.000000,0.000000,0.660650,0.248108,-0.678345,0.204529,0.995727,0.051764,-0.044439,-17.209091,-38.990921,62.900486
1703496001.554766,1703496001.555383,17.000000,0.000000,4224.615234,4235.512695,4303.717773,4265.128418,4212.563965,4207.948730,4243.717773,4264.102539,4200.256348,4184.487305,4534.487305,4473.589844,4351.153809,4442.948730,0.000000,4.000000,75.000000,,,,0.000000,4.000000,4.000000,4.000000,4.000000,4.000000,4.000000,4.000000,4.000000,4.000000,4.000000,4.000000,4.000000,4.000000,4.000000,100.000000,,,,,,,,,,,,,,,,,,,,,,,,,,,,
1703496001.562574,1703496001.563291,18.000000,0.000000,4237.051270,4245.641113,4305.128418,4268.461426,4221.538574,4203.077148,4249.615234,4260.512695,4201.794922,4187.307617,4542.692383,4479.615234,4358.461426,4460.384766,0.000000,4.000000,75.000000,,,,0.000000,4.000000,4.000000,4.000000,4.000000,4.000000,4.000000,4.000000,4.000000,4.000000,4.000000,4.000000,4.000000,4.000000,4.000000,100.000000,,,,,,,,,,,,,,,,,,,,,,,,,,,,
1703496001.570382,1703496001.571099,19.000000,0.000000,4233.717773,4247.948730,4303.974121,4263.333496,4221.538574,4196.922852,4242.820313,4258.846191,4198.717773,4184.871582,4540.256348,4481.922852,4367.179688,4483.205078,0.000000,4.000000,75.000000,,,,0.000000,4.000000,4.000000,4.000000,4.000000,4.000000,4.000000,4.000000,4.000000,4.000000,4.000000,4.000000,4.000000,4.000000,4.000000,100.000000,,,,,,,,,,,,,,,,,,,,,,,,,,,,
1703496001.578190,1703496001.579007,20.000000,0.000000,4218.846191,4242.436035,4297.051270,4261.794922,4195.128418,4186.025879,4232.563965,4263.974121,4200.256348,4182.051270,4543.974121,4477.436035,4373.333496,4467.436035,0.000000,4.000000,75.000000,,,,0.000000,4.000000,4.000000,4.000000,4.000000,4.000000,4.000000,4.000000,4.000000,4.000000,4.000000,4.000000,4.000000,4.000000,4.000000,100.000000,,,,,,,,,,,,,,,,,5.000000,0.000000,0.660858,0.248474,-0.678101,0.204224,1.003541,0.043462,-0.047369,-17.071516,-39.125160,62.993771
1703496001.585998,1703496001.586815,21.000000,0.000000,4222.436035,4237.820313,4291.025879,4266.794922,4198.461426,4188.461426,4238.589844,4273.333496,4211.025879,4193.589844,4553.974121,4472.692383,4377.179688,4451.153809,0.000000,4.000000,75.000000,,,,0.000000,4.000000,4.000000,4.000000,4.000000,4.000000,4.000000,4.000000,4.000000,4.000000,4.000000,4.000000,4.000000,4.000000,4.000000,100.000000,,,,,,,,,,,,,,,,,,,,,,,,,,,,
1703496001.593807,1703496001.594723,22.000000,0.000000,4214.615234,4232.692383,4288.974121,4261.922852,4228.974121,4209.871582,4251.410156,4282.436035,4220.256348,4212.948730,4557.563965,4469.487305,4381.153809,4463.846191,0.000000,4.000000,75.000000,,,,0.000000,4.000000,4.000000,4.000000,4.000000,4.000000,4.000000,4.000000,4.000000,4.000000,4.000000,4.000000,4.000000,4.000000,4.000000,100.000000,,,,,,,,,,,,,,,,,,,,,,,,,,,,
1703496001.601615,1703496001.602531,23.000000,0.000000,4179.743652,4215.641113,4278.974121,4238.589844,4223.846191,4216.410156,4248.333496,4290.897461,4219.358887,4214.358887,4548.205078,4460.128418,4379.102539,4456.410156,0.000000,4.000000,75.000000,,,,0.000000,4.000000,4.000000,4.000000,4.000000,4.000000,4.000000,4.000000,4.000000,4.000000,4.000000,4.000000,4.000000,4.000000,4.000000,100.000000,,,,,,,,,,,,,,,,,,,,,,,,,,,,
1703496001.609423,1703496001.610438,24.000000,0.000000,4177.051270,4199.743652,4268.077148,4225.769043,4198.589844,4202.820313,4241.410156,4296.922852,4218.461426,4201.025879,4541.153809,4454.615234,4373.205078,4428.333496,0.000000,4.000000,75.000000,,,,0.000000,4.000000,4.000000,4.000000,4.000000,4.000000,4.000000,4.000000,4.000000,4.000000,4.000000,4.000000,4.000000,4.000000,4.000000,100.000000,,,,,,,,,,,,,,,,,6.000000,0.000000,0.661042,0.248901,-0.677856,0.203918,0.991820,0.040044,-0.034184,-16.997698,-38.962646,62.994396
1703496001.617231,1703496001.618246,25.000000,0.000000,4212.051270,4206.410156,4273.461426,4241.410156,4201.025879,4201.282227,4240.897461,4304.487305,4227.307617,4205.641113,4553.205078,4460.897461,4379.615234,4438.461426,0.000000,4.000000,75.000000,,,,0.000000,4.000000,4.000000,4.000000,4.000000,4.000000,4.000000,4.000000,4.000000,4.000000,4.000000,4.000000,4.000000,4.000000,4.000000,100.000000,,,,,,,,,,,,,,,,,,,,,,,,,,,,
1703496001.625039,1703496001.626154,26.000000,0.000000,4223.717773,4221.538574,4287.179688,4254.871582,4207.307617,4210.256348,4241.922852,4312.051270,4231.153809,4217.820313,4570.256348,4467.436035,4397.179688,4472.179688,0.000000,4.000000,75.000000,,,,0.000000,4.000000,4.000000,4.000000,4.000000,4.000000,4.000000,4.000000,4.000000,4.000000,4.000000,4.000000,4.000000,4.000000,4.000000,100.000000,,,,,,,,,,,,,,,,,,,,,,,,,,,,
1703496001.632847,1703496001.633962,27.000000,0.000000,4213.589844,4218.846191,4295.000000,4246.922852,4201.153809,4214.487305,4242.563965,4305.384766,4220.128418,4209.230957,4568.333496,4471.794922,4401.282227,4468.974121,0.000000,4.000000,75.000000,,,,0.000000,4.000000,4.000000,4.000000,4.000000,4.000000,4.000000,4.000000,4.000000,4.000000,4.000000,4.000000,4.000000,4.000000,4.000000,100.000000,,,,,,,,,,,,,,,,,,,,,,,,,,,,
1703496001.640655,1703496001.641670,28.000000,0.000000,4217.436035,4215.128418,4295.769043,4246.794922,4203.974121,4213.077148,4241.282227,4295.256348,4213.461426,4202.692383,4561.922852,4476.794922,4394.743652,4457.051270,0.000000,4.000000,75.000000,,,,0.000000,4.000000,4.000000,4.000000,4.000000,4.000000,4.000000,4.000000,4.000000,4.000000,4.000000,4.000000,4.000000,4.000000,4.000000,100.000000,,,,,,,,,,,,,,,,,7.000000,0.000000,0.661231,0.249146,-0.677673,0.203613,0.987425,0.048346,-0.039067,-16.931261,-38.899715,62.828289
1703496001.648463,1703496001.649478,29.000000,0.000000,4228.333496,4226.538574,4297.563965,4267.051270,4202.820313,4204.615234,4239.487305,4299.102539,4215.256348,4208.589844,4563.974121,4481.025879,4400.641113,4480.512695,0.000000,4.000000,75.000000,,,,0.000000,4.000000,4.000000,4.000000,4.000000,4.000000,4.000000,4.000000,4.000000,4.000000,4.000000,4.000000,4.000000,4.000000,4.000000,100.000000,,,,,,,,,,,,,,,,,,,,,,,,,,,,
1703496001.656271,1703496001.657186,30.000000,0.000000,4242.563965,4237.692383,4306.794922,4278.333496,4195.769043,4198.717773,4241.538574,4303.717773,4215.512695,4211.025879,4567.692383,4490.128418,4415.000000,4502.563965,0.000000,4.000000,75.000000,,,,0.000000,4.000000,4.000000,4.000000,4.000000,4.000000,4.000000,4.000000,4.000000,4.000000,4.000000,4.000000,4.000000,4.000000,4.000000,100.000000,,,,,,,,,,,,,,,,,,,,,,,,,,,,
1703496001.664079,1703496001.664994,31.000000,0.000000,4243.077148,4236.538574,4312.179688,4270.897461,4203.717773,4207.179688,4243.974121,4303.205078,4221.794922,4220.256348,4574.358887,4503.077148,4426.666504,4497.692383,0.000000,4.000000,75.000000,,,,0.000000,4.000000,4.000000,4.000000,4.000000,4.000000,4.000000,4.000000,4.000000,4.000000,4.000000,4.000000,4.000000,4.000000,4.000000,100.000000,,,,,,,,,,,,,,,,,,,,,,,,,,,,
1703496001.671887,1703496001.672702,32.000000,0.000000,4222.563965,4233.461426,4306.794922,4263.846191,4222.820313,4216.153809,4248.333496,4302.948730,4233.589844,4226.282227,4573.461426,4503.974121,4427.820313,4491.410156,0.000000,4.000000,75.000000,,,,0.000000,4.000000,4.000000,4.000000,4.000000,4.000000,4.000000,4.000000,4.000000,4.000000,4.000000,4.000000,4.000000,4.000000,4.000000,100.000000,,,,,,,,,,,,,,,,,8.000000,0.000000,0.661277,0.249023,-0.677673,0.203613,0.976682,0.049811,-0.037602,-16.938135,-38.809742,62.878792
1703496001.679695,1703496001.680510,33.000000,0.000000,4215.897461,4231.666504,4299.743652,4266.025879,4221.666504,4216.025879,4251.794922,4296.153809,4234.743652,4204.358887,4561.666504,4490.769043,4411.025879,4479.743652,0.000000,4.000000,75.000000,,,,0.000000,4.000000,4.000000,4.000000,4.000000,4.000000,4.000000,4.000000,4.000000,4.000000,4.000000,4.000000,4.000000,4.000000,4.000000,100.000000,,,,,,,,,,,,,,,,,,,,,,,,,,,,
1703496001.687503,1703496001.688218,34.000000,0.000000,4220.256348,4214.358887,4297.179688,4265.256348,4200.512695,4220.512695,4246.794922,4282.179688,4223.717773,4183.974121,4553.974121,4481.666504,4394.871582,4453.333496,0.000000,4.000000,75.000000,,,,0.000000,4.000000,4.000000,4.000000,4.000000,4.000000,4.000000,4.000000,4.000000,4.000000,4.000000,4.000000,4.000000,4.000000,4.000000,100.000000,,,,,,,,,,,,,,,,,,,,,,,,,,,,
1703496001.695311,1703496001.696126,35.000000,0.000000,4213.077148,4206.922852,4293.461426,4261.666504,4201.410156,4230.000000,4245.512695,4265.512695,4213.205078,4187.307617,4547.051270,4474.487305,4392.436035,4445.769043,0.000000,4.000000,75.000000,,,,0.000000,4.000000,4.000000,4.000000,4.000000,4.000000,4.000000,4.000000,4.000000,4.000000,4.000000,4.000000,4.000000,4.000000,4.000000,100.000000,,,,,,,,,,,,,,,,,,,,,,,,,,,,
1703496001.703119,1703496001.703934,36.000000,0.000000,4208.589844,4224.102539,4285.384766,4263.589844,4221.153809,4233.333496,4253.461426,4249.615234,4211.794922,4183.589844,4533.077148,4460.384766,4390.000000,4460.769043,0.000000,4.000000,75.000000,,,,0.000000,4.000000,4.000000,4.000000,4.000000,4.000000,4.000000,4.000000,4.000000,4.000000,4.000000,4.000000,4.000000,4.000000,4.000000,100.000000,,,,,,,,,,,,,,,,,9.000000,0.000000,0.661332,0.248779,-0.677673,0.203735,0.988890,0.052741,-0.038579,-17.010988,-38.928768,62.890915
1703496001.710927,1703496001.711842,37.000000,0.000000,4213.589844,4227.051270,4284.487305,4264.615234,4222.563965,4229.487305,4257.948730,4241.410156,4213.205078,4178.077148,4523.461426,4458.461426,4383.589844,4461.153809,0.000000,4.000000,75.000000,,,,0.000000,4.000000,4.000000,4.000000,4.000000,4.000000,4.000000,4.000000,4.000000,4.000000,4.000000,4.000000,4.000000,4.000000,4.000000,100.000000,,,,,,,,,,,,,,,,,,,,,,,,,,,,
1703496001.718735,1703496001.719650,38.000000,0.000000,4215.769043,4220.384766,4286.025879,4263.974121,4211.922852,4223.077148,4254.230957,4233.974121,4211.410156,4183.846191,4523.205078,4462.179688,4385.512695,4447.179688,0.000000,4.000000,75.000000,,,,0.000000,4.000000,4.000000,4.000000,4.000000,4.000000,4.000000,4.000000,4.000000,4.000000,4.000000,4.000000,4.000000,4.000000,4.000000,100.000000,,,,,,,,,,,,,,,,,,,,,,,,,,,,
1703496001.726543,1703496001.727558,39.000000,0.000000,4215.512695,4227.820313,4282.051270,4262.948730,4211.666504,4217.692383,4251.153809,4224.358887,4210.256348,4181.922852,4528.974121,4454.102539,4392.179688,4447.436035,0.000000,4.000000,75.000000,,,,0.000000,4.000000,4.000000,4.000000,4.000000,4.000000,4.000000,4.000000,4.000000,4.000000,4.000000,4.000000,4.000000,4.000000,4.000000,100.000000,,,,,,,,,,,,,,,,,,,,,,,,,,,,
1703496001.734352,1703496001.735366,40.000000,0.000000,4216.666504,4231.666504,4282.820313,4263.077148,4216.794922,4217.436035,4256.666504,4231.410156,4217.179688,4192.563965,4541.538574,4454.743652,4400.128418,4460.641113,0.000000,4.000000,75.000000,,,,0.000000,4.000000,4.000000,4.000000,4.000000,4.000000,4.000000,4.000000,4.000000,4.000000,4.000000,4.000000,4.000000,4.000000,4.000000,100.000000,,,,,,,,,,,,,,,,,10.000000,0.000000,0.661294,0.248779,-0.677673,0.203857,0.993774,0.046392,-0.046392,-16.959888,-38.752560,62.885155
1703496001.742159,1703496001.743174,41.000000,0.000000,4223.077148,4233.077148,4294.102539,4271.153809,4218.846191,4217.563965,4259.615234,4239.871582,4226.410156,4220.897461,4551.538574,4469.743652,4408.717773,4469.230957,0.000000,4.000000,75.000000,,,,0.000000,4.000000,4.000000,4.000000,4.000000,4.000000,4.000000,4.000000,4.000000,4.000000,4.000000,4.000000,4.000000,4.000000,4.000000,100.000000,,,,,,,,,,,,,,,,,,,,,,,,,,,,
1703496001.749967,1703496001.750882,42.000000,0.000000,4237.307617,4244.358887,4309.230957,4283.589844,4221.538574,4216.538574,4259.102539,4226.410156,4234.102539,4228.717773,4552.179688,4475.641113,4416.922852,4476.410156,0.000000,4.000000,75.000000,,,,0.000000,4.000000,4.000000,4.000000,4.000000,4.000000,4.000000,4.000000,4.000000,4.000000,4.000000,4.000000,4.000000,4.000000,4.000000,100.000000,1.000000,75.000000,4.000000,3.000000,3.000000,4.000000,4.000000,4.000000,4.000000,4.000000,4.000000,4.000000,4.000000,4.000000,4.000000,3.000000,,,,,,,,,,,,
1703496001.757776,1703496001.758690,43.000000,0.000000,4245.128418,4244.102539,4309.615234,4285.769043,4217.948730,4222.820313,4260.384766,4210.384766,4242.563965,4219.615234,4554.615234,4471.794922,4423.205078,4482.820313,0.000000,4.000000,75.000000,,,,0.000000,4.000000,4.000000,4.000000,4.000000,4.000000,4.000000,4.000000,4.000000,4.000000,4.000000,4.000000,4.000000,4.000000,4.000000,100.000000,,,,,,,,,,,,,,,,,,,,,,,,,,,,
1703496001.765584,1703496001.766398,44.000000,0.000000,4245.256348,4232.692383,4300.641113,4281.282227,4215.256348,4233.077148,4261.666504,4209.615234,4245.641113,4231.666504,4568.717773,4472.307617,4428.974121,4481.794922,0.000000,4.000000,75.000000,,,,0.000000,4.000000,4.000000,4.000000,4.000000,4.000000,4.000000,4.000000,4.000000,4.000000,4.000000,4.000000,4.000000,4.000000,4.000000,100.000000,,,,,,,,,,,,,,,,,11.000000,0.000000,0.661317,0.248718,-0.677673,0.203857,0.995239,0.062508,-0.036626,-16.913900,-38.727303,62.963306
1703496001.773392,1703496001.774306,45.000000,0.000000,4249.487305,4235.897461,4303.589844,4281.282227,4221.410156,4237.948730,4263.846191,4209.871582,4237.179688,4244.743652,4573.717773,4472.179688,4430.897461,4476.666504,0.000000,4.000000,75.000000,,,,0.000000,4.000000,4.000000,4.000000,4.000000,4.000000,4.000000,4.000000,4.000000,4.000000,4.000000,4.000000,4.000000,4.000000,4.000000,100.000000,,,,,,,,,,,,,,,,,,,,,,,,,,,,
1703496001.781200,1703496001.782114,46.000000,0.000000,4246.410156,4235.897461,4303.846191,4278.461426,4218.077148,4235.769043,4264.743652,4201.410156,4231.794922,4227.948730,4556.922852,4463.846191,4426.922852,4477.051270,0.000000,4.000000,75.000000,,,,0.000000,4.000000,4.000000,4.000000,4.000000,4.000000,4.000000,4.000000,4.000000,4.000000,4.000000,4.000000,4.000000,4.000000,4.000000,100.000000,,,,,,,,,,,,,,,,,,,,,,,,,,,,
1703496001.789008,1703496001.790022,47.000000,0.000000,4234.871582,4220.384766,4295.512695,4274.487305,4211.410156,4233.589844,4263.333496,4200.128418,4242.051270,4213.333496,4552.051270,4461.025879,4422.948730,4473.461426,0.000000,4.000000,75.000000,,,,0.000000,4.000000,4.000000,4.000000,4.000000,4.000000,4.000000,4.000000,4.000000,4.000000,4.000000,4.000000,4.000000,4.000000,4.000000,100.000000,,,,,,,,,,,,,,,,,,,,,,,,,,,,
1703496001.796816,1703496001.797830,48.000000,0.000000,4231.538574,4211.282227,4292.948730,4278.974121,4219.230957,4241.282227,4265.384766,4206.282227,4246.794922,4219.871582,4560.256348,4463.333496,4418.461426,4460.769043,0.000000,4.000000,75.000000,,,,0.000000,4.000000,4.000000,4.000000,4.000000,4.000000,4.000000,4.000000,4.000000,4.000000,4.000000,4.000000,4.000000,4.000000,4.000000,100.000000,,,,,,,,,,,,,,,,,12.000000,0.000000,0.661457,0.248779,-0.677551,0.203735,0.998657,0.047857,-0.032230,-16.839176,-38.737907,62.950310
1703496001.804624,1703496001.805738,49.000000,0.000000,4232.179688,4215.769043,4291.538574,4281.282227,4221.410156,4246.282227,4266.794922,4200.128418,4235.769043,4222.179688,4549.102539,4451.410156,4411.410156,4454.358887,0.000000,4.000000,75.000000,,,,0.000000,4.000000,4.000000,4.000000,4.000000,4.000000,4.000000,4.000000,4.000000,4.000000,4.000000,4.000000,4.000000,4.000000,4.000000,100.000000,,,,,,,,,,,,,,,,,,,,,,,,,,,,
1703496001.812432,1703496001.813546,50.000000,0.000000,4229.487305,4222.051270,4286.538574,4279.230957,4214.871582,4236.922852,4263.461426,4187.563965,4229.487305,4203.461426,4532.051270,4439.871582,4406.794922,4457.051270,0.000000,4.000000,75.000000,,,,0.000000,4.000000,4.000000,4.000000,4.000000,4.000000,4.000000,4.000000,4.000000,4.000000,4.000000,4.000000,4.000000,4.000000,4.000000,100.000000,,,,,,,,,,,,,,,,,,,,,,,,,,,,
1703496001.820240,1703496001.821254,51.000000,0.000000,4230.128418,4226.666504,4285.000000,4287.436035,4223.333496,4229.358887,4262.307617,4185.384766,4232.436035,4193.717773,4535.256348,4443.333496,4408.205078,4455.000000,0.000000,4.000000,75.000000,,,,0.000000,4.000000,4.000000,4.000000,4.000000,4.000000,4.000000,4.000000,4.000000,4.000000,4.000000,4.000000,4.000000,4.000000,4.000000,100.000000,,,,,,,,,,,,,,,,,,,,,,,,,,,,
1703496001.828048,1703496001.829162,52.000000,0.000000,4239.230957,4230.641113,4291.153809,4298.461426,4234.615234,4230.000000,4269.871582,4187.307617,4227.436035,4207.051270,4541.922852,4451.538574,4411.282227,4458.205078,0.000000,4.000000,75.000000,,,,0.000000,4.000000,4.000000,4.000000,4.000000,4.000000,4.000000,4.000000,4.000000,4.000000,4.000000,4.000000,4.000000,4.000000,4.000000,100.000000,,,,,,,,,,,,,,,,,13.000000,0.000000,0.661446,0.249023,-0.677490,0.203674,1.002564,0.056159,-0.030765,-16.871925,-38.780781,62.955276
1703496001.835856,1703496001.836970,53.000000,0.000000,4250.128418,4237.179688,4301.153809,4299.615234,4239.358887,4227.820313,4273.461426,4184.871582,4221.025879,4208.205078,4543.461426,4455.000000,4418.077148,4477.051270,0.000000,4.000000,75.000000,,,,0.000000,4.000000,4.000000,4.000000,4.000000,4.000000,4.000000,4.000000,4.000000,4.000000,4.000000,4.000000,4.000000,4.000000,4.000000,100.000000,,,,,,,,,,,,,,,,,,,,,,,,,,,,
1703496001.843664,1703496001.844778,54.000000,0.000000,4251.922852,4243.589844,4305.384766,4301.025879,4243.461426,4226.410156,4271.153809,4176.666504,4223.589844,4202.820313,4539.102539,4452.692383,4426.025879,4473.205078,0.000000,4.000000,75.000000,,,,0.000000,4.000000,4.000000,4.000000,4.000000,4.000000,4.000000,4.000000,4.000000,4.000000,4.000000,4.000000,4.000000,4.000000,4.000000,100.000000,,,,,,,,,,,,,,,,,,,,,,,,,,,,
1703496001.851472,1703496001.852486,55.000000,0.000000,4247.820313,4247.436035,4307.179688,4308.077148,4238.974121,4228.974121,4271.538574,4162.051270,4222.179688,4215.000000,4536.282227,4452.563965,4427.307617,4458.461426,0.000000,4.000000,75.000000,,,,0.000000,4.000000,4.000000,4.000000,4.000000,4.000000,4.000000,4.000000,4.000000,4.000000,4.000000,4.000000,4.000000,4.000000,4.000000,100.000000,,,,,,,,,,,,,,,,,,,,,,,,,,,,
1703496001.859280,1703496001.860294,56.000000,0.000000,4255.256348,4247.179688,4309.230957,4310.384766,4241.025879,4232.692383,4272.563965,4154.102539,4222.820313,4227.820313,4547.820313,4455.384766,4430.256348,4475.897461,0.000000,4.000000,75.000000,,,,0.000000,4.000000,4.000000,4.000000,4.000000,4.000000,4.000000,4.000000,4.000000,4.000000,4.000000,4.000000,4.000000,4.000000,4.000000,100.000000,,,,,,,,,,,,,,,,,14.000000,0.000000,0.661587,0.249512,-0.677246,0.203430,0.981565,0.052252,-0.030277,-16.868067,-38.686035,62.926418
1703496001.867088,1703496001.868002,57.000000,0.000000,4251.282227,4241.282227,4307.563965,4302.179688,4242.436035,4234.102539,4271.153809,4153.717773,4229.487305,4214.102539,4549.615234,4455.000000,4427.051270,4484.230957,0.000000,4.000000,75.000000,,,,0.000000,4.000000,4.000000,4.000000,4.000000,4.000000,4.000000,4.000000,4.000000,4.000000,4.000000,4.000000,4.000000,4.000000,4.000000,100.000000,,,,,,,,,,,,,,,,,,,,,,,,,,,,
1703496001.874896,1703496001.875810,58.000000,0.000000,4219.615234,4231.025879,4303.077148,4294.743652,4218.461426,4232.179688,4264.102539,4152.563965,4231.025879,4202.436035,4524.743652,4448.077148,4413.846191,4464.487305,0.000000,4.000000,75.000000,,,,0.000000,4.000000,4.000000,4.000000,4.000000,4.000000,4.000000,4.000000,4.000000,4.000000,4.000000,4.000000,4.000000,4.000000,4.000000,100.000000,,,,,,,,,,,,,,,,,,,,,,,,,,,,
1703496001.882704,1703496001.883518,59.000000,0.000000,4221.922852,4227.692383,4299.487305,4288.077148,4214.615234,4238.846191,4266.282227,4158.974121,4235.256348,4224.615234,4514.871582,4448.846191,4421.282227,4463.717773,0.000000,4.000000,75.000000,,,,0.000000,4.000000,4.000000,4.000000,4.000000,4.000000,4.000000,4.000000,4.000000,4.000000,4.000000,4.000000,4.000000,4.000000,4.000000,100.000000,,,,,,,,,,,,,,,,,,,,,,,,,,,,
1703496001.890512,1703496001.891326,60.000000,0.000000,4256.153809,4231.538574,4300.769043,4284.358887,4236.410156,4249.102539,4276.666504,4167.563965,4245.641113,4237.948730,4528.717773,4458.974121,4442.051270,4477.820313,0.000000,4.000000,75.000000,,,,0.000000,4.000000,4.000000,4.000000,4.000000,4.000000,4.000000,4.000000,4.000000,4.000000,4.000000,4.000000,4.000000,4.000000,4.000000,100.000000,,,,,,,,,,,,,,,,,15.000000,0.000000,0.661674,0.249878,-0.677063,0.203308,0.987914,0.059089,-0.041021,-16.964594,-38.667435,62.917110
1703496001.898320,1703496001.899034,61.000000,0.000000,4255.769043,4230.897461,4305.128418,4289.615234,4230.000000,4245.512695,4271.538574,4165.641113,4246.538574,4224.615234,4534.358887,4463.974121,4443.589844,4484.358887,0.000000,4.000000,75.000000,,,,0.000000,4.000000,4.000000,4.000000,4.000000,4.000000,4.000000,4.000000,4.000000,4.000000,4.000000,4.000000,4.000000,4.000000,4.000000,100.000000,,,,,,,,,,,,,,,,,,,,,,,,,,,,
1703496001.906129,1703496001.906842,62.000000,0.000000,4243.589844,4229.743652,4306.153809,4291.410156,4220.897461,4239.102539,4263.589844,4170.641113,4243.205078,4227.179688,4535.384766,4466.153809,4443.589844,4496.538574,0.000000,4.000000,75.000000,,,,0.000000,4.000000,4.000000,4.000000,4.000000,4.000000,4.000000,4.000000,4.000000,4.000000,4.000000,4.000000,4.000000,4.000000,4.000000,100.000000,,,,,,,,,,,,,,,,,,,,,,,,,,,,
1703496001.913937,1703496001.914550,63.000000,0.000000,4257.051270,4230.641113,4309.358887,4286.410156,4238.077148,4245.256348,4271.410156,4175.641113,4245.897461,4239.743652,4536.666504,4469.871582,4450.897461,4497.051270,0.000000,4.000000,75.000000,,,,0.000000,4.000000,4.000000,4.000000,4.000000,4.000000,4.000000,4.000000,4.000000,4.000000,4.000000,4.000000,4.000000,4.000000,4.000000,100.000000,,,,,,,,,,,,,,,,,,,,,,,,,,,,
1703496001.921744,1703496001.922458,64.000000,0.000000,4260.384766,4231.666504,4311.410156,4289.230957,4236.666504,4247.307617,4273.205078,4160.512695,4239.358887,4229.230957,4528.205078,4464.743652,4446.282227,4483.846191,4704.000000,4.000000,75.000000,,,,0.000000,4.000000,4.000000,4.000000,4.000000,4.000000,4.000000,4.000000,4.000000,4.000000,4.000000,4.000000,4.000000,4.000000,4.000000,100.000000,,,,,,,,,,,,,,,,,16.000000,0.000000,0.661716,0.249817,-0.677063,0.203247,0.992309,0.063484,-0.041021,-17.068134,-38.584023,62.842064
1703496001.929553,1703496001.930266,65.000000,0.000000,4254.487305,4243.461426,4310.897461,4305.512695,4226.538574,4238.205078,4264.358887,4154.487305,4227.948730,4213.717773,4521.153809,4459.743652,4440.897461,4492.563965,5634.000000,4.000000,75.000000,,,,0.000000,4.000000,4.000000,4.000000,4.000000,4.000000,4.000000,4.000000,4.000000,4.000000,4.000000,4.000000,4.000000,4.000000,4.000000,100.000000,,,,,,,,,,,,,,,,,,,,,,,,,,,,
1703496001.937361,1703496001.938174,66.000000,0.000000,4268.077148,4259.487305,4316.538574,4312.692383,4242.179688,4230.000000,4266.538574,4165.384766,4229.871582,4214.102539,4524.487305,4468.333496,4446.025879,4499.487305,5440.000000,4.000000,75.000000,,,,0.000000,4.000000,4.000000,4.000000,4.000000,4.000000,4.000000,4.000000,4.000000,4.000000,4.000000,4.000000,4.000000,4.000000,4.000000,100.000000,,,,,,,,,,,,,,,,,,,,,,,,,,,,
1703496001.945169,1703496001.945982,67.000000,0.000000,4271.538574,4265.897461,4321.922852,4311.153809,4249.871582,4230.256348,4268.333496,4161.410156,4229.743652,4223.205078,4527.051270,4471.410156,4449.102539,4492.179688,5439.000000,4.000000,75.000000,,,,0.000000,4.000000,4.000000,4.000000,4.000000,4.000000,4.000000,4.000000,4.000000,4.000000,4.000000,4.000000,4.000000,4.000000,4.000000,100.000000,,,,,,,,,,,,,,,,,,,,,,,,,,,,
1703496001.952977,1703496001.953890,68.000000,0.000000,4262.948730,4266.025879,4321.538574,4318.205078,4241.410156,4236.025879,4266.666504,4151.538574,4220.256348,4231.666504,4527.051270,4465.512695,4448.717773,4493.589844,5322.000000,4.000000,75.000000,,,,0.000000,4.000000,4.000000,4.000000,4.000000,4.000000,4.000000,4.000000,4.000000,4.000000,4.000000,4.000000,4.000000,4.000000,4.000000,100.000000,,,,,,,,,,,,,,,,,17.000000,0.000000,0.661658,0.249756,-0.677124,0.203308,0.991820,0.070321,-0.038579,-17.044653,-38.642288,62.774525
1703496001.960785,1703496001.961698,69.000000,0.000000,4267.436035,4260.256348,4312.179688,4320.384766,4228.974121,4227.820313,4262.563965,4151.794922,4217.307617,4223.717773,4525.000000,4459.230957,4444.487305,4480.641113,4998.000000,4.000000,75.000000,,,,0.000000,4.000000,4.000000,4.000000,4.000000,4.000000,4.000000,4.000000,4.000000,4.000000,4.000000,4.000000,4.000000,4.000000,4.000000,100.000000,,,,,,,,,,,,,,,,,,,,,,,,,,,,
1703496001.968593,1703496001.969606,70.000000,0.000000,4255.000000,4236.153809,4300.128418,4304.358887,4217.179688,4212.820313,4254.102539,4156.666504,4223.589844,4202.436035,4508.077148,4453.205078,4428.974121,4453.974121,3127.000000,4.000000,75.000000,,,,0.000000,4.000000,4.000000,4.000000,4.000000,4.000000,4.000000,4.000000,4.000000,4.000000,4.000000,4.000000,4.000000,4.000000,4.000000,100.000000,,,,,,,,,,,,,,,,,,,,,,,,,,,,
1703496001.976401,1703496001.977414,71.000000,0.000000,4218.846191,4211.538574,4300.512695,4287.948730,4226.282227,4223.717773,4256.922852,4170.512695,4227.948730,4198.461426,4496.410156,4453.461426,4415.897461,4464.102539,3937.000000,4.000000,75.000000,,,,0.000000,4.000000,4.000000,4.000000,4.000000,4.000000,4.000000,4.000000,4.000000,4.000000,4.000000,4.000000,4.000000,4.000000,4.000000,100.000000,,,,,,,,,,,,,,,,,,,,,,,,,,,,
1703496001.984209,1703496001.985322,72.000000,0.000000,4214.358887,4216.538574,4300.384766,4288.717773,4244.230957,4247.307617,4266.282227,4180.641113,4227.948730,4203.077148,4499.615234,4444.615234,4412.948730,4480.512695,3867.000000,4.000000,75.000000,,,,0.000000,4.000000,4.000000,4.000000,4.000000,4.000000,4.000000,4.000000,4.000000,4.000000,4.000000,4.000000,4.000000,4.000000,4.000000,100.000000,,,,,,,,,,,,,,,,,18.000000,0.000000,0.661525,0.249512,-0.677307,0.203430,0.991820,0.057136,-0.047369,-16.890188,-38.694725,62.797073
1703496001.992017,1703496001.993130,73.000000,0.000000,4247.307617,4233.974121,4293.717773,4285.897461,4241.922852,4253.461426,4267.820313,4172.436035,4235.897461,4202.563965,4497.436035,4434.230957,4412.436035,4462.948730,5607.000000,4.000000,75.000000,,,,0.000000,4.000000,4.000000,4.000000,4.000000,4.000000,4.000000,4.000000,4.000000,4.000000,4.000000,4.000000,4.000000,4.000000,4.000000,100.000000,,,,,,,,,,,,,,,,,,,,,,,,,,,,
1703496001.999825,1703496002.000838,74.000000,0.000000,4259.743652,4232.436035,4290.384766,4279.487305,4227.051270,4243.077148,4262.948730,4167.051270,4241.538574,4207.692383,4491.666504,4441.025879,4410.897461,4460.000000,5931.000000,4.000000,75.000000,,,,0.000000,4.000000,4.000000,4.000000,4.000000,4.000000,4.000000,4.000000,4.000000,4.000000,4.000000,4.000000,4.000000,4.000000,4.000000,100.000000,,,,,,,,,,,,,,,,,,,,,,,,,,,,
1703496002.007633,1703496002.008646,75.000000,0.000000,4234.102539,4226.410156,4290.128418,4286.410156,4220.641113,4233.846191,4260.641113,4176.282227,4234.230957,4207.948730,4495.641113,4451.153809,4410.000000,4468.589844,6194.000000,4.000000,75.000000,,,,0.000000,4.000000,4.000000,4.000000,4.000000,4.000000,4.000000,4.000000,4.000000,4.000000,4.000000,4.000000,4.000000,4.000000,4.000000,100.000000,,,,,,,,,,,,,,,,,,,,,,,,,,,,
1703496002.015441,1703496002.016354,76.000000,0.000000,4231.282227,4238.077148,4298.717773,4297.563965,4218.205078,4231.153809,4259.487305,4184.487305,4232.692383,4201.025879,4507.820313,4461.794922,4418.589844,4467.436035,6661.000000,4.000000,75.000000,,,,0.000000,4.000000,4.000000,4.000000,4.000000,4.000000,4.000000,4.000000,4.000000,4.000000,4.000000,4.000000,4.000000,4.000000,4.000000,100.000000,,,,,,,,,,,,,,,,,19.000000,0.000000,0.661556,0.249329,-0.677307,0.203552,0.984495,0.052252,-0.038091,-17.001169,-38.575253,62.784031
1703496002.023249,1703496002.024162,77.000000,0.000000,4268.846191,4251.025879,4313.205078,4301.794922,4215.384766,4225.256348,4255.128418,4186.282227,4232.179688,4206.410156,4519.102539,4476.025879,4432.051270,4484.743652,6329.000000,4.000000,75.000000,,,,0.000000,4.000000,4.000000,4.000000,4.000000,4.000000,4.000000,4.000000,4.000000,4.000000,4.000000,4.000000,4.000000,4.000000,4.000000,100.000000,,,,,,,,,,,,,,,,,,,,,,,,,,,,
1703496002.031057,1703496002.031870,78.000000,0.000000,4285.000000,4250.256348,4318.461426,4303.077148,4217.692383,4216.153809,4254.743652,4186.794922,4220.128418,4225.512695,4524.358887,4481.153809,4436.410156,4498.333496,5931.000000,4.000000,75.000000,,,,0.000000,4.000000,4.000000,4.000000,4.000000,4.000000,4.000000,4.000000,4.000000,4.000000,4.000000,4.000000,4.000000,4.000000,4.000000,100.000000,,,,,,,,,,,,,,,,,,,,,,,,,,,,
1703496002.038865,1703496002.039678,79.000000,0.000000,4265.641113,4247.820313,4317.563965,4309.230957,4227.820313,4218.717773,4262.307617,4184.230957,4221.794922,4233.333496,4526.538574,4479.358887,4438.077148,4494.230957,6194.000000,4.000000,75.000000,,,,0.000000,4.000000,4.000000,4.000000,4.000000,4.000000,4.000000,4.000000,4.000000,4.000000,4.000000,4.000000,4.000000,4.000000,4.000000,100.000000,,,,,,,,,,,,,,,,,,,,,,,,,,,,
1703496002.046673,1703496002.047386,80.000000,0.000000,4262.436035,4249.358887,4316.538574,4311.922852,4234.871582,4231.410156,4265.641113,4183.205078,4242.563965,4229.230957,4538.974121,4478.717773,4445.641113,4513.461426,6661.000000,4.000000,75.000000,,,,0.000000,4.000000,4.000000,4.000000,4.000000,4.000000,4.000000,4.000000,4.000000,4.000000,4.000000,4.000000,4.000000,4.000000,4.000000,100.000000,,,,,,,,,,,,,,,,,20.000000,0.000000,0.661561,0.249268,-0.677307,0.203613,0.975705,0.049811,-0.040044,-16.934385,-38.717728,62.772297
1703496002.054481,1703496002.055194,81.000000,0.000000,4271.153809,4250.128418,4315.769043,4305.897461,4231.282227,4232.436035,4262.948730,4186.282227,4248.077148,4225.384766,4544.743652,4477.436035,4443.077148,4529.102539,6329.000000,4.000000,75.000000,,,,0.000000,4.000000,4.000000,4.000000,4.000000,4.000000,4.000000,4.000000,4.000000,4.000000,4.000000,4.000000,4.000000,4.000000,4.000000,100.000000,,,,,,,,,,,,,,,,,,,,,,,,,,,,
1703496002.062289,1703496002.062902,82.000000,0.000000,4255.769043,4245.000000,4316.025879,4299.487305,4238.077148,4227.948730,4265.256348,4185.769043,4242.820313,4223.205078,4529.487305,4471.922852,4432.563965,4496.922852,5931.000000,4.000000,75.000000,,,,0.000000,4.000000,4.000000,4.000000,4.000000,4.000000,4.000000,4.000000,4.000000,4.000000,4.000000,4.000000,4.000000,4.000000,4.000000,100.000000,,,,,,,,,,,,,,,,,,,,,,,,,,,,
1703496002.070098,1703496002.070710,83.000000,0.000000,4247.179688,4239.487305,4310.384766,4298.717773,4233.205078,4230.512695,4264.743652,4182.436035,4240.512695,4218.461426,4515.641113,4463.333496,4421.153809,4470.641113,6194.000000,4.000000,75.000000,,,,0.000000,4.000000,4.000000,4.000000,4.000000,4.000000,4.000000,4.000000,4.000000,4.000000,4.000000,4.000000,4.000000,4.000000,4.000000,100.000000,,,,,,,,,,,,,,,,,,,,,,,,,,,,
1703496002.077906,1703496002.078418,84.000000,0.000000,4247.692383,4233.205078,4302.563965,4292.436035,4211.410156,4231.922852,4260.512695,4184.230957,4232.692383,4208.461426,4506.025879,4453.205078,4407.307617,4471.666504,6661.000000,4.000000,75.000000,,,,0.000000,4.000000,4.000000,4.000000,4.000000,4.000000,4.000000,4.000000,4.000000,4.000000,4.000000,4.000000,4.000000,4.000000,4.000000,100.000000,,,,,,,,,,,,,,,,,21.000000,0.000000,0.661585,0.249268,-0.677246,0.203735,0.990355,0.045904,-0.036137,-16.924280,-38.679287,62.878399
1703496002.085714,1703496002.086226,85.000000,0.000000,4229.871582,4222.436035,4298.333496,4278.333496,4222.051270,4237.307617,4263.461426,4184.487305,4231.666504,4204.230957,4500.000000,4445.384766,4404.102539,4463.974121,6329.000000,4.000000,75.000000,,,,0.000000,4.000000,4.000000,4.000000,4.000000,4.000000,4.000000,4.000000,4.000000,4.000000,4.000000,4.000000,4.000000,4.000000,4.000000,100.000000,,,,,,,,,,,,,,,,,,,,,,,,,,,,
1703496002.093522,1703496002.093934,86.000000,0.000000,4225.641113,4219.358887,4292.948730,4275.256348,4235.000000,4246.666504,4266.410156,4171.794922,4234.230957,4201.410156,4492.051270,4437.307617,4400.512695,4444.102539,5931.000000,4.000000,75.000000,,,,0.000000,4.000000,4.000000,4.000000,4.000000,4.000000,4.000000,4.000000,4.000000,4.000000,4.000000,4.000000,4.000000,4.000000,4.000000,100.000000,,,,,,,,,,,,,,,,,,,,,,,,,,,,
1703496002.101330,1703496002.101742,87.000000,0.000000,4241.282227,4227.436035,4287.820313,4284.487305,4221.282227,4243.717773,4265.128418,4158.077148,4230.769043,4200.128418,4476.922852,4427.692383,4387.051270,4439.230957,6194.000000,4.000000,75.000000,,,,0.000000,4.000000,4.000000,4.000000,4.000000,4.000000,4.000000,4.000000,4.000000,4.000000,4.000000,4.000000,4.000000,4.000000,4.000000,100.000000,,,,,,,,,,,,,,,,,,,,,,,,,,,,
1703496002.109138,1703496002.109450,88.000000,0.000000,4242.436035,4232.692383,4292.051270,4287.051270,4216.666504,4233.974121,4264.615234,4157.436035,4226.153809,4196.922852,4476.153809,4431.922852,4387.051270,4462.307617,6661.000000,4.000000,75.000000,,,,0.000000,4.000000,4.000000,4.000000,4.000000,4.000000,4.000000,4.000000,4.000000,4.000000,4.000000,4.000000,4.000000,4.000000,4.000000,100.000000,,,,,,,,,,,,,,,,,22.000000,0.000000,0.661733,0.249573,-0.677063,0.203491,0.998169,0.046392,-0.041997,-16.798519,-38.611359,62.840561
1703496002.116946,1703496002.117258,89.000000,0.000000,4240.897461,4230.000000,4300.641113,4277.820313,4225.641113,4234.230957,4263.717773,4159.615234,4222.563965,4186.282227,4497.820313,4447.692383,4402.692383,4475.128418,6329.000000,4.000000,75.000000,,,,0.000000,4.000000,4.000000,4.000000,4.000000,4.000000,4.000000,4.000000,4.000000,4.000000,4.000000,4.000000,4.000000,4.000000,4.000000,100.000000,,,,,,,,,,,,,,,,,,,,,,,,,,,,
1703496002.124754,1703496002.124966,90.000000,0.000000,4256.282227,4231.153809,4299.615234,4276.025879,4222.948730,4230.128418,4260.000000,4154.487305,4224.102539,4189.230957,4509.358887,4451.153809,4409.743652,4469.487305,5931.000000,4.000000,75.000000,,,,0.000000,4.000000,4.000000,4.000000,4.000000,4.000000,4.000000,4.000000,4.000000,4.000000,4.000000,4.000000,4.000000,4.000000,4.000000,100.000000,,,,,,,,,,,,,,,,,,,,,,,,,,,,
1703496002.132562,1703496002.132874,91.000000,0.000000,4261.922852,4240.000000,4299.871582,4284.743652,4218.589844,4216.410156,4259.743652,4150.897461,4224.743652,4205.641113,4503.333496,4448.846191,4412.179688,4477.692383,6194.000000,4.000000,75.000000,,,,0.000000,4.000000,4.000000,4.000000,4.000000,4.000000,4.000000,4.000000,4.000000,4.000000,4.000000,4.000000,4.000000,4.000000,4.000000,100.000000,,,,,,,,,,,,,,,,,,,,,,,,,,,,
1703496002.140370,1703496002.140682,92.000000,0.000000,4263.077148,4248.974121,4310.769043,4293.974121,4223.077148,4219.358887,4262.307617,4153.077148,4217.563965,4205.769043,4511.666504,4459.615234,4419.487305,4493.846191,6661.000000,4.000000,75.000000,,,,0.000000,4.000000,4.000000,4.000000,4.000000,4.000000,4.000000,4.000000,4.000000,4.000000,4.000000,4.000000,4.000000,4.000000,4.000000,100.000000,,,,,,,,,,,,,,,,,23.000000,0.000000,0.661803,0.249817,-0.676941,0.203369,1.001099,0.059089,-0.030277,-16.768667,-38.516891,63.056503
1703496002.148178,1703496002.148590,93.000000,0.000000,4273.974121,4253.846191,4320.256348,4300.512695,4230.641113,4231.922852,4265.641113,4152.179688,4215.384766,4198.589844,4522.179688,4467.692383,4417.307617,4495.256348,6329.000000,4.000000,75.000000,,,,0.000000,4.000000,4.000000,4.000000,4.000000,4.000000,4.000000,4.000000,4.000000,4.000000,4.000000,4.000000,4.000000,4.000000,4.000000,100.000000,,,,,,,,,,,,,,,,,,,,,,,,,,,,
1703496002.155986,1703496002.156398,94.000000,0.000000,4273.589844,4253.205078,4317.820313,4301.922852,4244.487305,4232.179688,4269.487305,4150.769043,4221.922852,4200.641113,4513.589844,4459.487305,4410.512695,4488.461426,5931.000000,4.000000,75.000000,,,,0.000000,4.000000,4.000000,4.000000,4.000000,4.000000,4.000000,4.000000,4.000000,4.000000,4.000000,4.000000,4.000000,4.000000,4.000000,100.000000,,,,,,,,,,,,,,,,,,,,,,,,,,,,
1703496002.163794,1703496002.164305,95.000000,0.000000,4260.897461,4248.205078,4304.615234,4293.846191,4238.205078,4228.717773,4266.153809,4158.589844,4225.384766,4196.538574,4504.743652,4448.974121,4407.820313,4479.102539,6194.000000,4.000000,75.000000,,,,0.000000,4.000000,4.000000,4.000000,4.000000,4.000000,4.000000,4.000000,4.000000,4.000000,4.000000,4.000000,4.000000,4.000000,4.000000,100.000000,,,,,,,,,,,,,,,,,,,,,,,,,,,,
1703496002.171602,1703496002.172113,96.000000,0.000000,4250.512695,4238.333496,4297.563965,4284.102539,4210.128418,4228.333496,4260.384766,4168.077148,4226.025879,4195.256348,4502.307617,4448.846191,4399.102539,4455.256348,6661.000000,4.000000,75.000000,,,,0.000000,4.000000,4.000000,4.000000,4.000000,4.000000,4.000000,4.000000,4.000000,4.000000,4.000000,4.000000,4.000000,4.000000,4.000000,100.000000,,,,,,,,,,,,,,,,,24.000000,0.000000,0.661843,0.249878,-0.676880,0.203369,0.998169,0.062019,-0.040532,-16.725134,-38.531868,63.017521
1703496002.179410,1703496002.180021,97.000000,0.000000,4237.692383,4228.974121,4300.128418,4277.820313,4202.436035,4226.794922,4255.897461,4174.487305,4233.974121,4197.307617,4491.538574,4449.615234,4386.538574,4444.487305,6329.000000,4.000000,75.000000,,,,0.000000,4.000000,4.000000,4.000000,4.000000,4.000000,4.000000,4.000000,4.000000,4.000000,4.000000,4.000000,4.000000,4.000000,4.000000,100.000000,,,,,,,,,,,,,,,,,,,,,,,,,,,,
1703496002.187218,1703496002.187829,98.000000,0.000000,4222.820313,4220.641113,4297.563965,4267.563965,4217.307617,4229.743652,4256.538574,4182.307617,4238.717773,4184.743652,4490.256348,4445.512695,4388.717773,4465.769043,5931.000000,4.000000,75.000000,,,,0.000000,4.000000,4.000000,4.000000,4.000000,4.000000,4.000000,4.000000,4.000000,4.000000,4.000000,4.000000,4.000000,4.000000,4.000000,100.000000,,,,,,,,,,,,,,,,,,,,,,,,,,,,
1703496002.195026,1703496002.195637,99.000000,0.000000,4229.230957,4217.051270,4292.820313,4262.307617,4220.769043,4234.487305,4258.461426,4187.307617,4239.102539,4186.025879,4508.846191,4448.589844,4402.051270,4473.077148,6194.000000,4.000000,75.000000,,,,0.000000,4.000000,4.000000,4.000000,4.000000,4.000000,4.000000,4.000000,4.000000,4.000000,4.000000,4.000000,4.000000,4.000000,4.000000,100.000000,,,,,,,,,,,,,,,,,,,,,,,,,,,,
1703496002.202834,1703496002.203445,100.000000,0.000000,4248.077148,4222.820313,4294.871582,4271.153809,4211.666504,4231.282227,4254.871582,4188.461426,4242.051270,4211.794922,4520.641113,4457.948730,4411.538574,4462.948730,6661.000000,4.000000,75.000000,,,,0.000000,4.000000,4.000000,4.000000,4.000000,4.000000,4.000000,4.000000,4.000000,4.000000,4.000000,4.000000,4.000000,4.000000,4.000000,100.000000,,,,,,,,,,,,,,,,,25.000000,0.000000,0.661661,0.249878,-0.677002,0.203552,0.985472,0.053717,-0.040532,-16.819286,-38.462013,63.015766
1703496002.210642,1703496002.211153,101.000000,0.000000,4246.538574,4231.410156,4300.256348,4281.794922,4213.461426,4227.563965,4253.846191,4191.666504,4242.436035,4223.077148,4525.256348,4466.025879,4418.717773,4470.256348,6329.000000,4.000000,75.000000,,,,0.000000,4.000000,4.000000,4.000000,4.000000,4.000000,4.000000,4.000000,4.000000,4.000000,4.000000,4.000000,4.000000,4.000000,4.000000,100.000000,,,,,,,,,,,,,,,,,,,,,,,,,,,,
1703496002.218450,1703496002.218961,102.000000,0.000000,4245.128418,4239.230957,4306.922852,4285.769043,4216.538574,4228.846191,4256.794922,4183.333496,4231.025879,4213.333496,4527.436035,4468.205078,4421.410156,4472.307617,5931.000000,4.000000,75.000000,,,,0.000000,4.000000,4.000000,4.000000,4.000000,4.000000,4.000000,4.000000,4.000000,4.000000,4.000000,4.000000,4.000000,4.000000,4.000000,100.000000,,,,,,,,,,,,,,,,,,,,,,,,,,,,
1703496002.226258,1703496002.226669,103.000000,0.000000,4269.230957,4249.358887,4315.256348,4292.051270,4226.282227,4231.025879,4260.000000,4162.948730,4225.256348,4216.153809,4524.615234,4470.000000,4425.512695,4456.922852,6194.000000,4.000000,75.000000,,,,0.000000,4.000000,4.000000,4.000000,4.000000,4.000000,4.000000,4.000000,4.000000,4.000000,4.000000,4.000000,4.000000,4.000000,4.000000,100.000000,,,,,,,,,,,,,,,,,,,,,,,,,,,,
1703496002.234066,1703496002.234477,104.000000,0.000000,4287.820313,4258.974121,4324.871582,4307.307617,4239.230957,4230.769043,4262.692383,4155.512695,4229.743652,4221.922852,4531.666504,4477.692383,4433.205078,4472.692383,6661.000000,4.000000,75.000000,,,,0.000000,4.000000,4.000000,4.000000,4.000000,4.000000,4.000000,4.000000,4.000000,4.000000,4.000000,4.000000,4.000000,4.000000,4.000000,100.000000,,,,,,,,,,,,,,,,,26.000000,0.000000,0.661518,0.249878,-0.677124,0.203613,0.988890,0.056159,-0.035649,-16.887358,-38.549145,63.214191
1703496002.241875,1703496002.242185,105.000000,0.000000,4281.922852,4264.871582,4327.948730,4316.282227,4237.820313,4227.948730,4263.589844,4154.358887,4226.410156,4214.615234,4546.025879,4476.922852,4434.102539,4512.307617,6329.000000,4.000000,75.000000,,,,0.000000,4.000000,4.000000,4.000000,4.000000,4.000000,4.000000,4.000000,4.000000,4.000000,4.000000,4.000000,4.000000,4.000000,4.000000,100.000000,,,,,,,,,,,,,,,,,,,,,,,,,,,,
1703496002.249683,1703496002.249993,106.000000,0.000000,4276.794922,4265.641113,4323.333496,4311.153809,4241.153809,4230.384766,4265.512695,4146.794922,4228.717773,4218.461426,4542.563965,4468.589844,4431.153809,4510.384766,5931.000000,4.000000,75.000000,,,,0.000000,4.000000,4.000000,4.000000,4.000000,4.000000,4.000000,4.000000,4.000000,4.000000,4.000000,4.000000,4.000000,4.000000,4.000000,100.000000,1.000000,58.333332,4.000000,1.000000,3.000000,4.000000,4.000000,4.000000,4.000000,4.000000,4.000000,4.000000,4.000000,4.000000,4.000000,3.000000,,,,,,,,,,,,
1703496002.257491,1703496002.257701,107.000000,0.000000,4273.461426,4257.179688,4318.974121,4306.666504,4245.897461,4242.179688,4270.256348,4148.589844,4231.666504,4217.436035,4526.410156,4464.743652,4423.461426,4468.974121,6194.000000,4.000000,75.000000,,,,0.000000,4.000000,4.000000,4.000000,4.000000,4.000000,4.000000,4.000000,4.000000,4.000000,4.000000,4.000000,4.000000,4.000000,4.000000,100.000000,,,,,,,,,,,,,,,,,,,,,,,,,,,,
1703496002.265299,1703496002.265509,108.000000,0.000000,4254.871582,4244.358887,4307.820313,4303.205078,4224.358887,4247.179688,4268.461426,4161.153809,4219.358887,4194.615234,4515.897461,4455.641113,4406.538574,4448.589844,6661.000000,4.000000,75.000000,,,,0.000000,4.000000,4.000000,4.000000,4.000000,4.000000,4.000000,4.000000,4.000000,4.000000,4.000000,4.000000,4.000000,4.000000,4.000000,100.000000,,,,,,,,,,,,,,,,,27.000000,0.000000,0.661453,0.250000,-0.677124,0.203674,0.986937,0.043951,-0.045416,-16.715290,-38.494232,63.226105
1703496002.273107,1703496002.273217,109.000000,0.000000,4234.615234,4231.153809,4291.922852,4287.179688,4209.358887,4237.436035,4260.641113,4172.051270,4217.436035,4176.153809,4501.025879,4440.256348,4388.846191,4455.769043,6329.000000,4.000000,75.000000,,,,0.000000,4.000000,4.000000,4.000000,4.000000,4.000000,4.000000,4.000000,4.000000,4.000000,4.000000,4.000000,4.000000,4.000000,4.000000,100.000000,,,,,,,,,,,,,,,,,,,,,,,,,,,,
1703496002.280915,1703496002.281125,110.000000,0.000000,4226.282227,4216.794922,4286.666504,4272.307617,4228.846191,4231.025879,4263.717773,4178.333496,4231.538574,4175.256348,4490.897461,4434.871582,4378.974121,4450.897461,5931.000000,4.000000,75.000000,,,,0.000000,4.000000,4.000000,4.000000,4.000000,4.000000,4.000000,4.000000,4.000000,4.000000,4.000000,4.000000,4.000000,4.000000,4.000000,100.000000,,,,,,,,,,,,,,,,,,,,,,,,,,,,
1703496002.288723,1703496002.288933,111.000000,0.000000,4224.358887,4214.358887,4289.358887,4273.974121,4227.820313,4233.077148,4264.871582,4179.102539,4233.589844,4182.179688,4501.153809,4438.846191,4375.256348,4437.948730,6194.000000,4.000000,75.000000,,,,0.000000,4.000000,4.000000,4.000000,4.000000,4.000000,4.000000,4.000000,4.000000,4.000000,4.000000,4.000000,4.000000,4.000000,4.000000,100.000000,,,,,,,,,,,,,,,,,,,,,,,,,,,,
1703496002.296531,1703496002.296841,112.000000,0.000000,4229.487305,4223.846191,4292.563965,4275.512695,4210.384766,4231.282227,4259.743652,4175.384766,4228.846191,4197.179688,4516.153809,4443.589844,4383.205078,4443.077148,6661.000000,4.000000,75.000000,,,,0.000000,4.000000,4.000000,4.000000,4.000000,4.000000,4.000000,4.000000,4.000000,4.000000,4.000000,4.000000,4.000000,4.000000,4.000000,100.000000,,,,,,,,,,,,,,,,,28.000000,0.000000,0.661511,0.250061,-0.677063,0.203613,0.992797,0.062019,-0.047857,-16.610428,-38.578140,63.153496
1703496002.304339,1703496002.304649,113.000000,0.000000,4239.358887,4229.743652,4296.025879,4273.974121,4220.256348,4228.077148,4260.641113,4170.769043,4234.743652,4210.256348,4525.512695,4448.205078,4396.538574,4440.769043,6329.000000,4.000000,75.000000,,,,0.000000,4.000000,4.000000,4.000000,4.000000,4.000000,4.000000,4.000000,4.000000,4.000000,4.000000,4.000000,4.000000,4.000000,4.000000,100.000000,,,,,,,,,,,,,,,,,,,,,,,,,,,,
1703496002.312147,1703496002.312457,114.000000,0.000000,4249.615234,4236.410156,4304.871582,4286.025879,4221.410156,4227.436035,4262.179688,4168.846191,4235.512695,4211.410156,4532.563965,4455.512695,4403.717773,4441.666504,5931.000000,4.000000,75.000000,,,,0.000000,4.000000,4.000000,4.000000,4.000000,4.000000,4.000000,4.000000,4.000000,4.000000,4.000000,4.000000,4.000000,4.000000,4.000000,100.000000,,,,,,,,,,,,,,,,,,,,,,,,,,,,
1703496002.319955,1703496002.320165,115.000000,0.000000,4263.846191,4256.282227,4316.794922,4303.333496,4216.153809,4227.051270,4261.538574,4170.897461,4235.512695,4222.820313,4545.897461,4470.897461,4416.538574,4477.179688,6194.000000,4.000000,75.000000,,,,0.000000,4.000000,4.000000,4.000000,4.000000,4.000000,4.000000,4.000000,4.000000,4.000000,4.000000,4.000000,4.000000,4.000000,4.000000,100.000000,,,,,,,,,,,,,,,,,,,,,,,,,,,,
1703496002.327763,1703496002.328073,116.000000,0.000000,4276.794922,4267.436035,4318.717773,4310.256348,4239.743652,4227.692383,4266.153809,4171.666504,4246.922852,4234.230957,4565.256348,4479.871582,4431.410156,4503.974121,6661.000000,4.000000,75.000000,,,,0.000000,4.000000,4.000000,4.000000,4.000000,4.000000,4.000000,4.000000,4.000000,4.000000,4.000000,4.000000,4.000000,4.000000,4.000000,100.000000,,,,,,,,,,,,,,,,,29.000000,0.000000,0.661507,0.250122,-0.677063,0.203552,0.984984,0.058601,-0.034672,-16.749384,-38.553661,63.104813
1703496002.335571,1703496002.335881,117.000000,0.000000,4280.769043,4263.717773,4318.589844,4311.025879,4255.256348,4229.615234,4273.077148,4175.128418,4246.922852,4238.333496,4572.692383,4482.179688,4436.025879,4496.922852,6329.000000,4.000000,75.000000,,,,0.000000,4.000000,4.000000,4.000000,4.000000,4.000000,4.000000,4.000000,4.000000,4.000000,4.000000,4.000000,4.000000,4.000000,4.000000,100.000000,,,,,,,,,,,,,,,,,,,,,,,,,,,,
1703496002.343379,1703496002.343789,118.000000,0.000000,4277.436035,4263.205078,4322.563965,4310.897461,4240.384766,4232.692383,4269.358887,4185.769043,4234.358887,4249.230957,4570.897461,4488.461426,4436.922852,4486.410156,5931.000000,4.000000,75.000000,,,,0.000000,4.000000,4.000000,4.000000,4.000000,4.000000,4.000000,4.000000,4.000000,4.000000,4.000000,4.000000,4.000000,4.000000,4.000000,100.000000,,,,,,,,,,,,,,,,,,,,,,,,,,,,
1703496002.351187,1703496002.351597,119.000000,0.000000,4273.205078,4257.692383,4320.256348,4302.307617,4235.128418,4233.846191,4263.846191,4192.436035,4236.538574,4244.871582,4571.410156,4486.538574,4426.282227,4484.230957,6194.000000,4.000000,75.000000,,,,0.000000,4.000000,4.000000,4.000000,4.000000,4.000000,4.000000,4.000000,4.000000,4.000000,4.000000,4.000000,4.000000,4.000000,4.000000,100.000000,,,,,,,,,,,,,,,,,,,,,,,,,,,,
1703496002.358995,1703496002.359505,120.000000,0.000000,4265.769043,4247.051270,4317.820313,4292.307617,4230.384766,4232.307617,4264.871582,4189.615234,4239.102539,4215.897461,4563.333496,4474.358887,4399.871582,4477.307617,6661.000000,4.000000,75.000000,,,,0.000000,4.000000,4.000000,4.000000,4.000000,4.000000,4.000000,4.000000,4.000000,4.000000,4.000000,4.000000,4.000000,4.000000,4.000000,100.000000,,,,,,,,,,,,,,,,,30.000000,0.000000,0.661440,0.250183,-0.677124,0.203491,0.994750,0.051764,-0.039067,-16.907780,-38.548294,62.994331
1703496002.366803,1703496002.367313,121.000000,0.000000,4251.794922,4244.230957,4315.897461,4296.153809,4215.897461,4227.436035,4263.205078,4186.282227,4221.025879,4195.641113,4546.666504,4467.051270,4377.948730,4463.589844,6329.000000,4.000000,75.000000,,,,0.000000,4.000000,4.000000,4.000000,4.000000,4.000000,4.000000,4.000000,4.000000,4.000000,4.000000,4.000000,4.000000,4.000000,4.000000,100.000000,,,,,,,,,,,,,,,,,,,,,,,,,,,,
1703496002.374611,1703496002.375221,122.000000,0.000000,4245.384766,4237.179688,4309.358887,4292.948730,4218.974121,4219.230957,4259.871582,4183.333496,4211.282227,4194.230957,4536.410156,4463.205078,4369.871582,4453.461426,5931.000000,4.000000,75.000000,,,,0.000000,4.000000,4.000000,4.000000,4.000000,4.000000,4.000000,4.000000,4.000000,4.000000,4.000000,4.000000,4.000000,4.000000,4.000000,100.000000,,,,,,,,,,,,,,,,,,,,,,,,,,,,
1703496002.382419,1703496002.383029,123.000000,0.000000,4251.666504,4228.589844,4305.769043,4279.743652,4229.102539,4220.641113,4261.153809,4182.307617,4224.358887,4201.153809,4540.641113,4460.769043,4378.205078,4458.077148,6194.000000,4.000000,75.000000,,,,0.000000,4.000000,4.000000,4.000000,4.000000,4.000000,4.000000,4.000000,4.000000,4.000000,4.000000,4.000000,4.000000,4.000000,4.000000,100.000000,,,,,,,,,,,,,,,,,,,,,,,,,,,,
1703496002.390227,1703496002.390837,124.000000,0.000000,4255.512695,4237.948730,4306.666504,4281.922852,4231.922852,4230.769043,4266.153809,4187.820313,4234.743652,4212.051270,4554.743652,4465.512695,4391.410156,4465.897461,6661.000000,4.000000,75.000000,,,,0.000000,4.000000,4.000000,4.000000,4.000000,4.000000,4.000000,4.000000,4.000000,4.000000,4.000000,4.000000,4.000000,4.000000,4.000000,100.000000,,,,,,,,,,,,,,,,,31.000000,0.000000,0.661475,0.250305,-0.677063,0.203430,0.993774,0.055183,-0.050787,-16.867001,-38.543465,63.028233
1703496002.398035,1703496002.398644,125.000000,0.000000,4256.282227,4249.743652,4308.717773,4294.358887,4232.563965,4228.333496,4268.461426,4187.820313,4233.077148,4205.897461,4553.717773,4467.563965,4382.051270,4459.358887,6329.000000,4.000000,75.000000,,,,0.000000,4.000000,4.000000,4.000000,4.000000,4.000000,4.000000,4.000000,4.000000,4.000000,4.000000,4.000000,4.000000,4.000000,4.000000,100.000000,,,,,,,,,,,,,,,,,,,,,,,,,,,,
1703496002.405844,1703496002.406353,126.000000,0.000000,4261.794922,4247.436035,4308.589844,4296.153809,4225.769043,4216.410156,4265.000000,4181.282227,4233.589844,4196.025879,4542.051270,4457.179688,4371.153809,4456.410156,5931.000000,4.000000,75.000000,,,,0.000000,4.000000,4.000000,4.000000,4.000000,4.000000,4.000000,4.000000,4.000000,4.000000,4.000000,4.000000,4.000000,4.000000,4.000000,100.000000,,,,,,,,,,,,,,,,,,,,,,,,,,,,
1703496002.413652,1703496002.414161,127.000000,0.000000,4267.948730,4247.692383,4313.333496,4295.256348,4224.230957,4217.563965,4263.333496,4191.794922,4239.358887,4217.563965,4555.384766,4463.589844,4388.974121,4462.436035,75.000000,4.000000,75.000000,,,,0.000000,4.000000,4.000000,4.000000,4.000000,4.000000,4.000000,4.000000,4.000000,4.000000,4.000000,4.000000,4.000000,4.000000,4.000000,100.000000,,,,,,,,,,,,,,,,,,,,,,,,,,,,
