title:حلاق لا, start timestamp:1703153626.018354, stop timestamp:1703153636.754417, headset type:EPOCX, headset serial:E50206EF, headset firmware:720, channels:67, sampling rate:eeg_128;mot_32, samples:1376      , version:2.2, 
Timestamp,OriginalTimestamp,EEG.Counter,EEG.Interpolated,EEG.AF3,EEG.F7,EEG.F3,EEG.FC5,EEG.T7,EEG.P7,EEG.O1,EEG.O2,EEG.P8,EEG.T8,EEG.FC6,EEG.F4,EEG.F8,EEG.AF4,EEG.RawCq,EEG.Battery,EEG.BatteryPercent,MarkerIndex,MarkerType,MarkerValueInt,EEG.MarkerHardware,CQ.AF3,CQ.F7,CQ.F3,CQ.FC5,CQ.T7,CQ.P7,CQ.O1,CQ.O2,CQ.P8,CQ.T8,CQ.FC6,CQ.F4,CQ.F8,CQ.AF4,CQ.Overall,EQ.SampleRateQuality,EQ.OVERALL,EQ.AF3,EQ.F7,EQ.F3,EQ.FC5,EQ.T7,EQ.P7,EQ.O1,EQ.O2,EQ.P8,EQ.T8,EQ.FC6,EQ.F4,EQ.F8,EQ.AF4,MOT.CounterMems,MOT.InterpolatedMems,MOT.Q0,MOT.Q1,MOT.Q2,MOT.Q3,MOT.AccX,MOT.AccY,MOT.AccZ,MOT.MagX,MOT.MagY,MOT.MagZ
1703153626.018354,1703153626.019218,47.000000,0.000000,4232.563965,4214.615234,4279.871582,4260.769043,4205.000000,4206.153809,4314.230957,4201.538574,4196.666504,4192.436035,4547.692383,4458.205078,4331.153809,4440.512695,0.000000,4.000000,87.000000,,,,0.000000,4.000000,4.000000,4.000000,4.000000,4.000000,4.000000,0.000000,4.000000,4.000000,4.000000,4.000000,4.000000,4.000000,4.000000,66.666664,,,,,,,,,,,,,,,,,,,,,,,,,,,,
1703153626.026162,1703153626.026926,48.000000,0.000000,4221.025879,4202.820313,4272.820313,4247.820313,4201.666504,4202.051270,4315.000000,4202.436035,4197.307617,4190.128418,4546.025879,4458.974121,4324.358887,4420.128418,0.000000,4.000000,87.000000,,,,0.000000,4.000000,4.000000,4.000000,4.000000,4.000000,4.000000,0.000000,4.000000,4.000000,4.000000,4.000000,4.000000,4.000000,4.000000,66.666664,,,,,,,,,,,,,,,,,12.000000,0.000000,0.665837,0.381409,-0.548584,0.332031,0.984984,0.158222,0.097180,-17.227810,-28.960611,65.198463
1703153626.033970,1703153626.034834,49.000000,0.000000,4218.333496,4206.153809,4275.384766,4253.589844,4204.871582,4198.846191,4315.641113,4203.717773,4192.307617,4186.410156,4540.128418,4461.153809,4318.846191,4416.794922,0.000000,4.000000,87.000000,,,,0.000000,4.000000,4.000000,4.000000,4.000000,4.000000,4.000000,0.000000,4.000000,4.000000,4.000000,4.000000,4.000000,4.000000,4.000000,66.666664,,,,,,,,,,,,,,,,,,,,,,,,,,,,
1703153626.041778,1703153626.042642,50.000000,0.000000,4220.128418,4215.897461,4283.717773,4266.282227,4203.333496,4199.487305,4312.563965,4201.538574,4198.333496,4192.563965,4542.692383,4466.153809,4322.820313,4442.948730,0.000000,4.000000,87.000000,,,,0.000000,4.000000,4.000000,4.000000,4.000000,4.000000,4.000000,0.000000,4.000000,4.000000,4.000000,4.000000,4.000000,4.000000,4.000000,66.666664,,,,,,,,,,,,,,,,,,,,,,,,,,,,
1703153626.049586,1703153626.050551,51.000000,0.000000,4219.230957,4217.179688,4290.384766,4264.743652,4207.820313,4204.615234,4315.000000,4202.692383,4203.205078,4195.641113,4546.538574,4468.205078,4321.153809,4442.820313,0.000000,4.000000,87.000000,,,,0.000000,4.000000,4.000000,4.000000,4.000000,4.000000,4.000000,0.000000,4.000000,4.000000,4.000000,4.000000,4.000000,4.000000,4.000000,66.666664,,,,,,,,,,,,,,,,,,,,,,,,,,,,
1703153626.057394,1703153626.058359,52.000000,0.000000,4212.179688,4213.077148,4284.487305,4260.128418,4218.974121,4206.666504,4314.615234,4203.846191,4191.538574,4187.948730,4540.256348,4460.000000,4318.205078,4419.871582,0.000000,4.000000,87.000000,,,,0.000000,4.000000,4.000000,4.000000,4.000000,4.000000,4.000000,0.000000,4.000000,4.000000,4.000000,4.000000,4.000000,4.000000,4.000000,66.666664,,,,,,,,,,,,,,,,,13.000000,0.000000,0.665806,0.381287,-0.548706,0.332031,0.979612,0.150897,0.100598,-16.938362,-29.031216,65.211952
1703153626.065202,1703153626.066167,53.000000,0.000000,4201.666504,4206.153809,4278.461426,4261.282227,4211.922852,4199.102539,4313.461426,4197.179688,4180.384766,4179.358887,4529.743652,4454.871582,4317.820313,4415.384766,0.000000,4.000000,87.000000,,,,0.000000,4.000000,4.000000,4.000000,4.000000,4.000000,4.000000,0.000000,4.000000,4.000000,4.000000,4.000000,4.000000,4.000000,4.000000,66.666664,,,,,,,,,,,,,,,,,,,,,,,,,,,,
1703153626.073010,1703153626.073875,54.000000,0.000000,4195.769043,4206.666504,4284.743652,4262.563965,4202.307617,4193.846191,4315.512695,4191.538574,4182.563965,4177.692383,4522.051270,4457.436035,4314.487305,4427.820313,0.000000,4.000000,87.000000,,,,0.000000,4.000000,4.000000,4.000000,4.000000,4.000000,4.000000,0.000000,4.000000,4.000000,4.000000,4.000000,4.000000,4.000000,4.000000,66.666664,,,,,,,,,,,,,,,,,,,,,,,,,,,,
1703153626.080818,1703153626.081683,55.000000,0.000000,4200.512695,4214.871582,4288.589844,4263.333496,4212.820313,4203.461426,4313.846191,4199.487305,4191.025879,4184.743652,4526.666504,4465.897461,4317.436035,4427.563965,0.000000,4.000000,87.000000,,,,0.000000,4.000000,4.000000,4.000000,4.000000,4.000000,4.000000,0.000000,4.000000,4.000000,4.000000,4.000000,4.000000,4.000000,4.000000,66.666664,,,,,,,,,,,,,,,,,,,,,,,,,,,,
1703153626.088626,1703153626.089391,56.000000,0.000000,4204.871582,4215.000000,4286.282227,4263.461426,4219.487305,4213.589844,4315.641113,4203.974121,4192.179688,4185.128418,4529.102539,4468.589844,4318.846191,4413.333496,0.000000,4.000000,87.000000,,,,0.000000,4.000000,4.000000,4.000000,4.000000,4.000000,4.000000,0.000000,4.000000,4.000000,4.000000,4.000000,4.000000,4.000000,4.000000,66.666664,,,,,,,,,,,,,,,,,14.000000,0.000000,0.665727,0.380859,-0.548950,0.332275,0.978635,0.149921,0.104017,-16.877859,-29.194761,65.240753
1703153626.096434,1703153626.097199,57.000000,0.000000,4200.128418,4211.794922,4285.000000,4261.282227,4213.461426,4208.461426,4317.307617,4199.358887,4185.512695,4177.820313,4524.230957,4461.666504,4314.102539,4413.461426,0.000000,4.000000,87.000000,,,,0.000000,4.000000,4.000000,4.000000,4.000000,4.000000,4.000000,0.000000,4.000000,4.000000,4.000000,4.000000,4.000000,4.000000,4.000000,66.666664,,,,,,,,,,,,,,,,,,,,,,,,,,,,
1703153626.104242,1703153626.104907,58.000000,0.000000,4201.538574,4214.871582,4284.230957,4260.256348,4214.743652,4201.282227,4315.128418,4199.871582,4185.256348,4180.000000,4531.922852,4465.769043,4321.410156,4436.025879,0.000000,4.000000,87.000000,,,,0.000000,4.000000,4.000000,4.000000,4.000000,4.000000,4.000000,0.000000,4.000000,4.000000,4.000000,4.000000,4.000000,4.000000,4.000000,66.666664,,,,,,,,,,,,,,,,,,,,,,,,,,,,
1703153626.112050,1703153626.112815,59.000000,0.000000,4214.358887,4217.820313,4292.051270,4263.846191,4223.205078,4208.461426,4314.230957,4203.974121,4194.102539,4189.871582,4543.846191,4479.487305,4335.641113,4442.436035,0.000000,4.000000,87.000000,,,,0.000000,4.000000,4.000000,4.000000,4.000000,4.000000,4.000000,0.000000,4.000000,4.000000,4.000000,4.000000,4.000000,4.000000,4.000000,66.666664,,,,,,,,,,,,,,,,,,,,,,,,,,,,
1703153626.119858,1703153626.120623,60.000000,0.000000,4215.512695,4217.436035,4297.307617,4266.025879,4221.922852,4218.461426,4313.077148,4210.897461,4209.358887,4197.307617,4545.897461,4482.307617,4341.025879,4432.051270,0.000000,4.000000,87.000000,,,,0.000000,4.000000,4.000000,4.000000,4.000000,4.000000,4.000000,0.000000,4.000000,4.000000,4.000000,4.000000,4.000000,4.000000,4.000000,66.666664,,,,,,,,,,,,,,,,,15.000000,0.000000,0.665633,0.380493,-0.549133,0.332581,0.989867,0.146502,0.101575,-17.090073,-29.175285,65.316681
1703153626.127666,1703153626.128531,61.000000,0.000000,4208.333496,4217.692383,4292.436035,4263.205078,4216.666504,4219.743652,4314.615234,4214.102539,4214.487305,4201.538574,4547.051270,4476.282227,4340.128418,4440.384766,0.000000,4.000000,87.000000,,,,0.000000,4.000000,4.000000,4.000000,4.000000,4.000000,4.000000,0.000000,4.000000,4.000000,4.000000,4.000000,4.000000,4.000000,4.000000,66.666664,,,,,,,,,,,,,,,,,,,,,,,,,,,,
1703153626.135474,1703153626.136339,62.000000,0.000000,4213.077148,4216.794922,4287.820313,4263.846191,4223.717773,4220.384766,4316.410156,4206.922852,4201.025879,4202.307617,4549.102539,4472.436035,4334.615234,4443.846191,0.000000,4.000000,87.000000,,,,0.000000,4.000000,4.000000,4.000000,4.000000,4.000000,4.000000,0.000000,4.000000,4.000000,4.000000,4.000000,4.000000,4.000000,4.000000,66.666664,,,,,,,,,,,,,,,,,,,,,,,,,,,,
1703153626.143282,1703153626.144247,63.000000,0.000000,4209.358887,4215.512695,4281.922852,4267.051270,4229.358887,4220.769043,4315.384766,4203.077148,4195.641113,4200.128418,4548.589844,4471.538574,4334.102539,4426.538574,0.000000,4.000000,87.000000,,,,0.000000,4.000000,4.000000,4.000000,4.000000,4.000000,4.000000,0.000000,4.000000,4.000000,4.000000,4.000000,4.000000,4.000000,4.000000,66.666664,,,,,,,,,,,,,,,,,,,,,,,,,,,,
1703153626.151090,1703153626.152055,64.000000,0.000000,4192.948730,4215.512695,4278.077148,4266.666504,4220.128418,4217.179688,4316.025879,4205.128418,4197.051270,4192.948730,4542.307617,4465.897461,4333.717773,4413.333496,5312.000000,4.000000,87.000000,,,,0.000000,4.000000,4.000000,4.000000,4.000000,4.000000,4.000000,0.000000,4.000000,4.000000,4.000000,4.000000,4.000000,4.000000,4.000000,66.666664,,,,,,,,,,,,,,,,,16.000000,0.000000,0.665642,0.380371,-0.549133,0.332703,0.984007,0.137224,0.107923,-17.081066,-29.107756,65.368347
1703153626.158898,1703153626.159962,65.000000,0.000000,4197.307617,4216.666504,4281.153809,4266.666504,4214.487305,4215.384766,4314.487305,4206.025879,4193.205078,4192.179688,4536.538574,4459.230957,4327.051270,4427.820313,5576.000000,4.000000,87.000000,,,,0.000000,4.000000,4.000000,4.000000,4.000000,4.000000,4.000000,0.000000,4.000000,4.000000,4.000000,4.000000,4.000000,4.000000,4.000000,66.666664,,,,,,,,,,,,,,,,,,,,,,,,,,,,
1703153626.166706,1703153626.167770,66.000000,0.000000,4209.871582,4216.794922,4281.410156,4265.641113,4221.538574,4217.051270,4313.974121,4212.307617,4202.436035,4201.153809,4542.692383,4465.897461,4329.230957,4447.051270,5385.000000,4.000000,87.000000,,,,0.000000,4.000000,4.000000,4.000000,4.000000,4.000000,4.000000,0.000000,4.000000,4.000000,4.000000,4.000000,4.000000,4.000000,4.000000,66.666664,,,,,,,,,,,,,,,,,,,,,,,,,,,,
1703153626.174514,1703153626.175479,67.000000,0.000000,4203.589844,4217.692383,4278.205078,4266.410156,4222.563965,4217.051270,4315.512695,4217.436035,4214.102539,4203.333496,4545.128418,4470.384766,4333.974121,4423.717773,5404.000000,4.000000,87.000000,,,,0.000000,4.000000,4.000000,4.000000,4.000000,4.000000,4.000000,0.000000,4.000000,4.000000,4.000000,4.000000,4.000000,4.000000,4.000000,66.666664,,,,,,,,,,,,,,,,,,,,,,,,,,,,
1703153626.182322,1703153626.183286,68.000000,0.000000,4201.153809,4219.358887,4278.205078,4273.333496,4218.333496,4217.436035,4314.230957,4215.897461,4213.333496,4204.358887,4545.384766,4467.820313,4335.256348,4400.769043,5228.000000,4.000000,87.000000,,,,0.000000,4.000000,4.000000,4.000000,4.000000,4.000000,4.000000,0.000000,4.000000,4.000000,4.000000,4.000000,4.000000,4.000000,4.000000,66.666664,,,,,,,,,,,,,,,,,17.000000,0.000000,0.665668,0.380432,-0.549133,0.332581,0.987425,0.147967,0.101087,-17.022959,-29.163647,65.614845
1703153626.190131,1703153626.190995,69.000000,0.000000,4213.974121,4218.974121,4284.743652,4275.384766,4226.666504,4218.077148,4314.615234,4215.128418,4209.487305,4205.641113,4548.461426,4468.461426,4333.077148,4421.410156,5273.000000,4.000000,87.000000,,,,0.000000,4.000000,4.000000,4.000000,4.000000,4.000000,4.000000,0.000000,4.000000,4.000000,4.000000,4.000000,4.000000,4.000000,4.000000,66.666664,,,,,,,,,,,,,,,,,,,,,,,,,,,,
1703153626.197939,1703153626.198803,70.000000,0.000000,4215.000000,4218.461426,4285.384766,4267.820313,4236.282227,4215.256348,4314.743652,4215.512695,4207.307617,4197.820313,4545.769043,4464.615234,4327.563965,4442.436035,0.000000,4.000000,87.000000,,,,0.000000,4.000000,4.000000,4.000000,4.000000,4.000000,4.000000,0.000000,4.000000,4.000000,4.000000,4.000000,4.000000,4.000000,4.000000,66.666664,,,,,,,,,,,,,,,,,,,,,,,,,,,,
1703153626.205747,1703153626.206511,71.000000,0.000000,4202.563965,4217.820313,4282.179688,4262.436035,4226.794922,4212.563965,4313.333496,4215.769043,4205.128418,4195.897461,4540.512695,4460.769043,4326.282227,4442.307617,5161.000000,4.000000,87.000000,,,,0.000000,4.000000,4.000000,4.000000,4.000000,4.000000,4.000000,0.000000,4.000000,4.000000,4.000000,4.000000,4.000000,4.000000,4.000000,66.666664,,,,,,,,,,,,,,,,,,,,,,,,,,,,
1703153626.213555,1703153626.214319,72.000000,0.000000,4204.871582,4217.307617,4285.641113,4268.333496,4212.563965,4213.205078,4315.128418,4212.820313,4205.384766,4199.871582,4538.717773,4464.230957,4314.871582,4438.077148,5384.000000,4.000000,87.000000,,,,0.000000,4.000000,4.000000,4.000000,4.000000,4.000000,4.000000,0.000000,4.000000,4.000000,4.000000,4.000000,4.000000,4.000000,4.000000,66.666664,,,,,,,,,,,,,,,,,18.000000,0.000000,0.665690,0.380554,-0.549133,0.332397,0.970333,0.158711,0.103528,-17.020662,-29.047283,65.586693
1703153626.221363,1703153626.222027,73.000000,0.000000,4219.230957,4220.897461,4288.461426,4274.358887,4216.922852,4216.153809,4314.358887,4210.384766,4211.922852,4202.948730,4546.538574,4470.256348,4297.179688,4441.922852,5322.000000,4.000000,87.000000,,,,0.000000,4.000000,4.000000,4.000000,4.000000,4.000000,4.000000,0.000000,4.000000,4.000000,4.000000,4.000000,4.000000,4.000000,4.000000,66.666664,,,,,,,,,,,,,,,,,,,,,,,,,,,,
1703153626.229171,1703153626.229835,74.000000,0.000000,4221.282227,4221.922852,4287.436035,4269.358887,4223.717773,4218.589844,4312.692383,4210.769043,4215.512695,4202.307617,4548.846191,4472.307617,4287.820313,4439.358887,5965.000000,4.000000,87.000000,,,,0.000000,4.000000,4.000000,4.000000,4.000000,4.000000,4.000000,0.000000,4.000000,4.000000,4.000000,4.000000,4.000000,4.000000,4.000000,66.666664,,,,,,,,,,,,,,,,,,,,,,,,,,,,
1703153626.236979,1703153626.237543,75.000000,0.000000,4210.897461,4216.538574,4284.487305,4262.307617,4216.922852,4210.384766,4316.153809,4204.358887,4206.666504,4192.948730,4533.333496,4465.128418,4273.333496,4414.743652,6364.000000,4.000000,87.000000,,,,0.000000,4.000000,4.000000,4.000000,4.000000,4.000000,4.000000,0.000000,4.000000,4.000000,4.000000,4.000000,4.000000,4.000000,4.000000,66.666664,,,,,,,,,,,,,,,,,,,,,,,,,,,,
1703153626.244787,1703153626.245351,76.000000,0.000000,4206.666504,4214.743652,4278.846191,4263.333496,4213.077148,4202.307617,4318.205078,4198.461426,4197.307617,4192.692383,4527.436035,4458.846191,4265.128418,4407.692383,6785.000000,4.000000,87.000000,,,,0.000000,4.000000,4.000000,4.000000,4.000000,4.000000,4.000000,0.000000,4.000000,4.000000,4.000000,4.000000,4.000000,4.000000,4.000000,66.666664,,,,,,,,,,,,,,,,,19.000000,0.000000,0.665797,0.380737,-0.548950,0.332275,0.973263,0.152851,0.107923,-16.901930,-29.292555,65.378021
1703153626.252595,1703153626.253059,77.000000,0.000000,4207.692383,4217.051270,4278.717773,4267.051270,4214.871582,4206.794922,4317.179688,4202.436035,4199.615234,4199.102539,4538.333496,4454.102539,4275.256348,4436.538574,7201.000000,4.000000,87.000000,,,,0.000000,4.000000,4.000000,4.000000,4.000000,4.000000,4.000000,0.000000,4.000000,4.000000,4.000000,4.000000,4.000000,4.000000,4.000000,66.666664,,,,,,,,,,,,,,,,,,,,,,,,,,,,
1703153626.260403,1703153626.260867,78.000000,0.000000,4203.589844,4214.230957,4275.128418,4263.846191,4214.358887,4207.436035,4313.974121,4205.128418,4202.051270,4188.205078,4531.922852,4442.563965,4271.794922,4442.563965,5965.000000,4.000000,87.000000,,,,0.000000,4.000000,4.000000,4.000000,4.000000,4.000000,4.000000,0.000000,4.000000,4.000000,4.000000,4.000000,4.000000,4.000000,4.000000,66.666664,,,,,,,,,,,,,,,,,,,,,,,,,,,,
1703153626.268211,1703153626.268575,79.000000,0.000000,4205.641113,4211.922852,4266.282227,4259.871582,4213.974121,4201.922852,4315.384766,4200.256348,4203.077148,4178.717773,4520.256348,4440.512695,4258.846191,4414.743652,6364.000000,4.000000,87.000000,,,,0.000000,4.000000,4.000000,4.000000,4.000000,4.000000,4.000000,0.000000,4.000000,4.000000,4.000000,4.000000,4.000000,4.000000,4.000000,66.666664,,,,,,,,,,,,,,,,,,,,,,,,,,,,
1703153626.276019,1703153626.276383,80.000000,0.000000,4214.487305,4215.000000,4271.153809,4260.256348,4216.922852,4203.461426,4319.102539,4200.769043,4207.179688,4193.461426,4530.000000,4452.307617,4267.692383,4406.025879,6785.000000,4.000000,87.000000,,,,0.000000,4.000000,4.000000,4.000000,4.000000,4.000000,4.000000,0.000000,4.000000,4.000000,4.000000,4.000000,4.000000,4.000000,4.000000,66.666664,,,,,,,,,,,,,,,,,20.000000,0.000000,0.665918,0.380737,-0.548767,0.332336,0.973752,0.148944,0.095715,-16.728403,-29.413300,65.340225
1703153626.283827,1703153626.284091,81.000000,0.000000,4217.436035,4216.666504,4279.615234,4264.615234,4219.102539,4204.615234,4315.897461,4208.717773,4209.358887,4204.487305,4539.487305,4457.436035,4280.128418,4424.743652,7201.000000,4.000000,87.000000,,,,0.000000,4.000000,4.000000,4.000000,4.000000,4.000000,4.000000,0.000000,4.000000,4.000000,4.000000,4.000000,4.000000,4.000000,4.000000,66.666664,,,,,,,,,,,,,,,,,,,,,,,,,,,,
1703153626.291635,1703153626.291999,82.000000,0.000000,4222.692383,4219.358887,4281.666504,4269.615234,4219.230957,4206.538574,4319.102539,4209.871582,4208.974121,4195.641113,4537.948730,4459.230957,4279.358887,4438.333496,5965.000000,4.000000,87.000000,,,,0.000000,4.000000,4.000000,4.000000,4.000000,4.000000,4.000000,0.000000,4.000000,4.000000,4.000000,4.000000,4.000000,4.000000,4.000000,66.666664,,,,,,,,,,,,,,,,,,,,,,,,,,,,
1703153626.299443,1703153626.299807,83.000000,0.000000,4226.538574,4226.153809,4281.410156,4266.922852,4220.769043,4213.589844,4322.051270,4203.846191,4205.000000,4191.538574,4537.436035,4459.358887,4280.897461,4433.846191,6364.000000,4.000000,87.000000,,,,0.000000,4.000000,4.000000,4.000000,4.000000,4.000000,4.000000,0.000000,4.000000,4.000000,4.000000,4.000000,4.000000,4.000000,4.000000,66.666664,,,,,,,,,,,,,,,,,,,,,,,,,,,,
1703153626.307251,1703153626.307715,84.000000,0.000000,4225.769043,4229.871582,4280.256348,4263.333496,4219.743652,4209.358887,4315.128418,4206.025879,4208.461426,4200.641113,4546.666504,4463.205078,4292.051270,4434.871582,6785.000000,4.000000,87.000000,,,,0.000000,4.000000,4.000000,4.000000,4.000000,4.000000,4.000000,0.000000,4.000000,4.000000,4.000000,4.000000,4.000000,4.000000,4.000000,66.666664,,,,,,,,,,,,,,,,,21.000000,0.000000,0.666003,0.380676,-0.548706,0.332336,0.978147,0.140154,0.103528,-16.688896,-29.421968,65.239532
1703153626.315059,1703153626.315522,85.000000,0.000000,4235.512695,4231.153809,4287.179688,4272.051270,4217.563965,4199.358887,4314.615234,4209.230957,4217.051270,4203.333496,4549.871582,4471.410156,4300.769043,4447.948730,7201.000000,4.000000,87.000000,,,,0.000000,4.000000,4.000000,4.000000,4.000000,4.000000,4.000000,0.000000,4.000000,4.000000,4.000000,4.000000,4.000000,4.000000,4.000000,66.666664,,,,,,,,,,,,,,,,,,,,,,,,,,,,
1703153626.322867,1703153626.323430,86.000000,0.000000,4243.333496,4232.820313,4290.384766,4279.487305,4224.102539,4206.410156,4315.384766,4204.743652,4213.461426,4201.410156,4542.307617,4468.077148,4298.205078,4443.589844,5965.000000,4.000000,87.000000,,,,0.000000,4.000000,4.000000,4.000000,4.000000,4.000000,4.000000,0.000000,4.000000,4.000000,4.000000,4.000000,4.000000,4.000000,4.000000,66.666664,,,,,,,,,,,,,,,,,,,,,,,,,,,,
1703153626.330675,1703153626.331238,87.000000,0.000000,4233.846191,4228.205078,4284.230957,4268.846191,4227.948730,4216.410156,4313.461426,4197.692383,4203.461426,4200.128418,4538.589844,4462.179688,4292.436035,4425.384766,6364.000000,4.000000,87.000000,,,,0.000000,4.000000,4.000000,4.000000,4.000000,4.000000,4.000000,0.000000,4.000000,4.000000,4.000000,4.000000,4.000000,4.000000,4.000000,66.666664,,,,,,,,,,,,,,,,,,,,,,,,,,,,
1703153626.338483,1703153626.339146,88.000000,0.000000,4226.666504,4223.974121,4283.846191,4261.922852,4221.922852,4215.384766,4316.282227,4188.974121,4197.051270,4188.974121,4536.282227,4460.256348,4292.563965,4422.948730,6785.000000,4.000000,87.000000,,,,0.000000,4.000000,4.000000,4.000000,4.000000,4.000000,4.000000,0.000000,4.000000,4.000000,4.000000,4.000000,4.000000,4.000000,4.000000,66.666664,,,,,,,,,,,,,,,,,22.000000,0.000000,0.666002,0.380554,-0.548828,0.332275,0.996704,0.157246,0.093273,-16.870007,-29.263105,65.265579
1703153626.346291,1703153626.346954,89.000000,0.000000,4234.487305,4229.615234,4291.282227,4271.410156,4217.820313,4215.384766,4318.333496,4189.358887,4195.641113,4189.615234,4542.307617,4460.384766,4305.769043,4443.846191,7201.000000,4.000000,87.000000,,,,0.000000,4.000000,4.000000,4.000000,4.000000,4.000000,4.000000,0.000000,4.000000,4.000000,4.000000,4.000000,4.000000,4.000000,4.000000,66.666664,,,,,,,,,,,,,,,,,,,,,,,,,,,,
1703153626.354099,1703153626.354662,90.000000,0.000000,4243.333496,4234.743652,4300.769043,4278.589844,4224.871582,4214.743652,4317.820313,4198.461426,4195.000000,4200.128418,4553.846191,4465.641113,4315.256348,4463.589844,5965.000000,4.000000,87.000000,,,,0.000000,4.000000,4.000000,4.000000,4.000000,4.000000,4.000000,0.000000,4.000000,4.000000,4.000000,4.000000,4.000000,4.000000,4.000000,66.666664,,,,,,,,,,,,,,,,,,,,,,,,,,,,
1703153626.361908,1703153626.362470,91.000000,0.000000,4244.358887,4231.538574,4300.897461,4278.077148,4234.487305,4213.333496,4315.641113,4197.563965,4193.077148,4195.128418,4556.794922,4470.000000,4309.615234,4461.410156,6364.000000,4.000000,87.000000,,,,0.000000,4.000000,4.000000,4.000000,4.000000,4.000000,4.000000,0.000000,4.000000,4.000000,4.000000,4.000000,4.000000,4.000000,4.000000,66.666664,,,,,,,,,,,,,,,,,,,,,,,,,,,,
1703153626.369716,1703153626.370178,92.000000,0.000000,4243.589844,4229.615234,4292.051270,4277.820313,4235.256348,4216.025879,4315.000000,4198.717773,4203.077148,4195.769043,4557.563965,4474.102539,4311.410156,4455.897461,6785.000000,4.000000,87.000000,,,,0.000000,4.000000,4.000000,4.000000,4.000000,4.000000,4.000000,0.000000,4.000000,4.000000,4.000000,4.000000,4.000000,4.000000,4.000000,66.666664,,,,,,,,,,,,,,,,,23.000000,0.000000,0.665862,0.380554,-0.549072,0.332153,0.976193,0.161641,0.106458,-16.816339,-29.320127,65.372353
1703153626.377524,1703153626.377986,93.000000,0.000000,4248.589844,4233.333496,4293.717773,4279.102539,4231.153809,4217.948730,4319.230957,4213.077148,4217.948730,4206.153809,4558.974121,4478.717773,4319.230957,4455.641113,7201.000000,4.000000,87.000000,,,,0.000000,4.000000,4.000000,4.000000,4.000000,4.000000,4.000000,0.000000,4.000000,4.000000,4.000000,4.000000,4.000000,4.000000,4.000000,66.666664,,,,,,,,,,,,,,,,,,,,,,,,,,,,
1703153626.385332,1703153626.385694,94.000000,0.000000,4249.615234,4231.025879,4299.487305,4278.333496,4232.436035,4219.487305,4318.974121,4219.615234,4220.769043,4205.384766,4556.538574,4480.000000,4319.358887,4454.487305,5965.000000,4.000000,87.000000,,,,0.000000,4.000000,4.000000,4.000000,4.000000,4.000000,4.000000,0.000000,4.000000,4.000000,4.000000,4.000000,4.000000,4.000000,4.000000,66.666664,,,,,,,,,,,,,,,,,,,,,,,,,,,,
1703153626.393140,1703153626.393502,95.000000,0.000000,4245.512695,4224.230957,4297.436035,4274.487305,4235.128418,4226.153809,4316.025879,4214.358887,4216.282227,4198.333496,4552.948730,4477.051270,4312.820313,4453.333496,6364.000000,4.000000,87.000000,,,,0.000000,4.000000,4.000000,4.000000,4.000000,4.000000,4.000000,0.000000,4.000000,4.000000,4.000000,4.000000,4.000000,4.000000,4.000000,66.666664,,,,,,,,,,,,,,,,,,,,,,,,,,,,
1703153626.400948,1703153626.401210,96.000000,0.000000,4247.436035,4226.025879,4295.000000,4272.692383,4229.615234,4232.179688,4315.641113,4217.179688,4216.794922,4201.794922,4554.358887,4477.563965,4313.717773,4454.230957,6785.000000,4.000000,87.000000,,,,0.000000,4.000000,4.000000,4.000000,4.000000,4.000000,4.000000,0.000000,4.000000,4.000000,4.000000,4.000000,4.000000,4.000000,4.000000,66.666664,,,,,,,,,,,,,,,,,24.000000,0.000000,0.665700,0.380554,-0.549194,0.332275,0.966915,0.160664,0.099133,-16.768040,-29.504782,65.301788
1703153626.408756,1703153626.409018,97.000000,0.000000,4243.333496,4231.282227,4292.820313,4276.538574,4230.000000,4226.666504,4314.487305,4228.077148,4222.436035,4212.051270,4561.025879,4484.871582,4326.794922,4461.025879,7201.000000,4.000000,87.000000,,,,0.000000,4.000000,4.000000,4.000000,4.000000,4.000000,4.000000,0.000000,4.000000,4.000000,4.000000,4.000000,4.000000,4.000000,4.000000,66.666664,,,,,,,,,,,,,,,,,,,,,,,,,,,,
1703153626.416564,1703153626.416726,98.000000,0.000000,4242.692383,4230.384766,4301.666504,4278.974121,4235.256348,4217.820313,4316.410156,4229.487305,4221.666504,4209.871582,4560.641113,4488.077148,4328.717773,4469.871582,5965.000000,4.000000,87.000000,,,,0.000000,4.000000,4.000000,4.000000,4.000000,4.000000,4.000000,0.000000,4.000000,4.000000,4.000000,4.000000,4.000000,4.000000,4.000000,66.666664,,,,,,,,,,,,,,,,,,,,,,,,,,,,
1703153626.424372,1703153626.424534,99.000000,0.000000,4258.846191,4230.128418,4312.436035,4278.717773,4235.769043,4218.461426,4317.307617,4220.769043,4217.820313,4203.205078,4556.666504,4486.282227,4323.846191,4472.948730,6364.000000,4.000000,87.000000,,,,0.000000,4.000000,4.000000,4.000000,4.000000,4.000000,4.000000,0.000000,4.000000,4.000000,4.000000,4.000000,4.000000,4.000000,4.000000,66.666664,,,,,,,,,,,,,,,,,,,,,,,,,,,,
1703153626.432180,1703153626.432242,100.000000,0.000000,4264.871582,4234.743652,4304.743652,4280.641113,4238.717773,4220.897461,4315.000000,4217.692383,4216.666504,4203.333496,4556.153809,4484.230957,4326.410156,4460.897461,6785.000000,4.000000,87.000000,,,,0.000000,4.000000,4.000000,4.000000,4.000000,4.000000,4.000000,0.000000,4.000000,4.000000,4.000000,4.000000,4.000000,4.000000,4.000000,66.666664,,,,,,,,,,,,,,,,,25.000000,0.000000,0.665504,0.380615,-0.549316,0.332397,0.984984,0.152851,0.092785,-16.657902,-29.487637,65.354942
1703153626.439988,1703153626.440050,101.000000,0.000000,4254.615234,4235.384766,4295.128418,4280.384766,4239.358887,4217.436035,4315.512695,4215.769043,4211.025879,4194.615234,4547.179688,4477.307617,4317.563965,4445.512695,7201.000000,4.000000,87.000000,,,,0.000000,4.000000,4.000000,4.000000,4.000000,4.000000,4.000000,0.000000,4.000000,4.000000,4.000000,4.000000,4.000000,4.000000,4.000000,66.666664,,,,,,,,,,,,,,,,,,,,,,,,,,,,
1703153626.447796,1703153626.447758,102.000000,0.000000,4248.589844,4232.179688,4295.512695,4276.538574,4230.000000,4220.384766,4315.512695,4212.692383,4208.846191,4188.333496,4542.948730,4475.512695,4312.307617,4451.794922,5965.000000,4.000000,87.000000,,,,0.000000,4.000000,4.000000,4.000000,4.000000,4.000000,4.000000,0.000000,4.000000,4.000000,4.000000,4.000000,4.000000,4.000000,4.000000,66.666664,1.000000,66.666664,4.000000,4.000000,4.000000,4.000000,4.000000,4.000000,0.000000,4.000000,4.000000,4.000000,4.000000,4.000000,4.000000,4.000000,,,,,,,,,,,,
1703153626.455604,1703153626.455666,103.000000,0.000000,4251.025879,4230.000000,4298.077148,4276.922852,4231.153809,4231.410156,4317.051270,4215.512695,4217.307617,4201.282227,4553.461426,4487.051270,4326.538574,4458.333496,6364.000000,4.000000,87.000000,,,,0.000000,4.000000,4.000000,4.000000,4.000000,4.000000,4.000000,0.000000,4.000000,4.000000,4.000000,4.000000,4.000000,4.000000,4.000000,66.666664,,,,,,,,,,,,,,,,,,,,,,,,,,,,
1703153626.463412,1703153626.463474,104.000000,0.000000,4250.256348,4229.871582,4297.179688,4280.641113,4240.256348,4234.871582,4318.205078,4219.487305,4223.333496,4211.538574,4558.461426,4491.282227,4332.179688,4449.230957,6785.000000,4.000000,87.000000,,,,0.000000,4.000000,4.000000,4.000000,4.000000,4.000000,4.000000,0.000000,4.000000,4.000000,4.000000,4.000000,4.000000,4.000000,4.000000,66.666664,,,,,,,,,,,,,,,,,26.000000,0.000000,0.665489,0.380676,-0.549255,0.332458,0.985472,0.139177,0.094738,-16.692112,-29.505541,65.402779
1703153626.471220,1703153626.471382,105.000000,0.000000,4249.871582,4230.000000,4298.333496,4276.666504,4236.538574,4225.897461,4316.410156,4222.563965,4225.641113,4212.436035,4562.051270,4490.512695,4330.641113,4460.128418,7201.000000,4.000000,87.000000,,,,0.000000,4.000000,4.000000,4.000000,4.000000,4.000000,4.000000,0.000000,4.000000,4.000000,4.000000,4.000000,4.000000,4.000000,4.000000,66.666664,,,,,,,,,,,,,,,,,,,,,,,,,,,,
1703153626.479028,1703153626.479190,106.000000,0.000000,4257.563965,4231.282227,4302.820313,4274.358887,4238.846191,4220.641113,4316.922852,4226.538574,4230.897461,4213.205078,4570.128418,4494.230957,4336.794922,4480.769043,5965.000000,4.000000,87.000000,,,,0.000000,4.000000,4.000000,4.000000,4.000000,4.000000,4.000000,0.000000,4.000000,4.000000,4.000000,4.000000,4.000000,4.000000,4.000000,66.666664,,,,,,,,,,,,,,,,,,,,,,,,,,,,
1703153626.486836,1703153626.487098,107.000000,0.000000,4263.461426,4234.615234,4301.410156,4283.077148,4247.436035,4225.384766,4317.820313,4231.538574,4232.307617,4215.512695,4570.256348,4491.794922,4342.051270,4476.538574,6364.000000,4.000000,87.000000,,,,0.000000,4.000000,4.000000,4.000000,4.000000,4.000000,4.000000,0.000000,4.000000,4.000000,4.000000,4.000000,4.000000,4.000000,4.000000,66.666664,,,,,,,,,,,,,,,,,,,,,,,,,,,,
1703153626.494644,1703153626.494906,108.000000,0.000000,4266.025879,4236.153809,4302.948730,4288.461426,4237.820313,4227.692383,4317.563965,4229.615234,4231.538574,4222.179688,4567.948730,4492.179688,4343.077148,4474.102539,6785.000000,4.000000,87.000000,,,,0.000000,4.000000,4.000000,4.000000,4.000000,4.000000,4.000000,0.000000,4.000000,4.000000,4.000000,4.000000,4.000000,4.000000,4.000000,66.666664,,,,,,,,,,,,,,,,,27.000000,0.000000,0.665478,0.380554,-0.549316,0.332520,0.982053,0.144549,0.101087,-16.789568,-29.371653,65.412498
1703153626.502452,1703153626.502814,109.000000,0.000000,4263.589844,4235.128418,4309.487305,4283.846191,4231.410156,4226.410156,4315.641113,4221.153809,4232.692383,4219.615234,4568.077148,4492.820313,4341.922852,4480.512695,7201.000000,4.000000,87.000000,,,,0.000000,4.000000,4.000000,4.000000,4.000000,4.000000,4.000000,0.000000,4.000000,4.000000,4.000000,4.000000,4.000000,4.000000,4.000000,66.666664,,,,,,,,,,,,,,,,,,,,,,,,,,,,
1703153626.510260,1703153626.510622,110.000000,0.000000,4251.922852,4234.230957,4302.307617,4279.615234,4244.358887,4229.871582,4313.333496,4220.256348,4229.487305,4209.358887,4568.205078,4487.563965,4341.922852,4474.230957,5965.000000,4.000000,87.000000,,,,0.000000,4.000000,4.000000,4.000000,4.000000,4.000000,4.000000,0.000000,4.000000,4.000000,4.000000,4.000000,4.000000,4.000000,4.000000,66.666664,,,,,,,,,,,,,,,,,,,,,,,,,,,,
1703153626.518068,1703153626.518530,111.000000,0.000000,4249.743652,4234.230957,4291.282227,4278.461426,4245.897461,4234.358887,4317.179688,4223.717773,4221.538574,4211.794922,4566.410156,4485.384766,4341.666504,4457.179688,6364.000000,4.000000,87.000000,,,,0.000000,4.000000,4.000000,4.000000,4.000000,4.000000,4.000000,0.000000,4.000000,4.000000,4.000000,4.000000,4.000000,4.000000,4.000000,66.666664,,,,,,,,,,,,,,,,,,,,,,,,,,,,
1703153626.525876,1703153626.526338,112.000000,0.000000,4260.256348,4237.436035,4292.307617,4277.948730,4237.820313,4230.256348,4317.563965,4224.230957,4224.487305,4218.589844,4566.410156,4484.615234,4338.333496,4453.589844,6785.000000,4.000000,87.000000,,,,0.000000,4.000000,4.000000,4.000000,4.000000,4.000000,4.000000,0.000000,4.000000,4.000000,4.000000,4.000000,4.000000,4.000000,4.000000,66.666664,,,,,,,,,,,,,,,,,28.000000,0.000000,0.665473,0.380493,-0.549438,0.332397,0.974728,0.139665,0.103528,-16.793943,-29.251154,65.387917
1703153626.533685,1703153626.534246,113.000000,0.000000,4261.922852,4244.615234,4298.077148,4280.000000,4243.974121,4228.461426,4314.615234,4226.153809,4231.538574,4218.974121,4574.615234,4484.487305,4343.461426,4477.307617,7201.000000,4.000000,87.000000,,,,0.000000,4.000000,4.000000,4.000000,4.000000,4.000000,4.000000,0.000000,4.000000,4.000000,4.000000,4.000000,4.000000,4.000000,4.000000,66.666664,,,,,,,,,,,,,,,,,,,,,,,,,,,,
1703153626.541493,1703153626.542054,114.000000,0.000000,4259.487305,4248.846191,4302.179688,4282.436035,4243.974121,4233.461426,4316.922852,4231.410156,4225.000000,4220.897461,4578.974121,4488.333496,4349.102539,4488.461426,5965.000000,4.000000,87.000000,,,,0.000000,4.000000,4.000000,4.000000,4.000000,4.000000,4.000000,0.000000,4.000000,4.000000,4.000000,4.000000,4.000000,4.000000,4.000000,66.666664,,,,,,,,,,,,,,,,,,,,,,,,,,,,
1703153626.549301,1703153626.549961,115.000000,0.000000,4262.179688,4241.282227,4299.487305,4281.282227,4235.128418,4232.436035,4317.948730,4231.794922,4220.384766,4222.307617,4571.538574,4492.820313,4342.692383,4463.333496,6364.000000,4.000000,87.000000,,,,0.000000,4.000000,4.000000,4.000000,4.000000,4.000000,4.000000,0.000000,4.000000,4.000000,4.000000,4.000000,4.000000,4.000000,4.000000,66.666664,,,,,,,,,,,,,,,,,,,,,,,,,,,,
1703153626.557109,1703153626.557769,116.000000,0.000000,4260.128418,4233.589844,4296.282227,4279.871582,4232.436035,4229.358887,4317.563965,4226.794922,4225.128418,4212.051270,4567.051270,4490.897461,4337.307617,4450.641113,6785.000000,4.000000,87.000000,,,,0.000000,4.000000,4.000000,4.000000,4.000000,4.000000,4.000000,0.000000,4.000000,4.000000,4.000000,4.000000,4.000000,4.000000,4.000000,66.666664,,,,,,,,,,,,,,,,,29.000000,0.000000,0.665464,0.380493,-0.549561,0.332214,0.973263,0.151874,0.103528,-16.964550,-29.192705,65.482460
1703153626.564917,1703153626.565477,117.000000,0.000000,4260.769043,4233.974121,4300.128418,4280.641113,4235.769043,4231.282227,4315.897461,4225.641113,4226.410156,4205.384766,4571.025879,4480.512695,4339.487305,4470.256348,7201.000000,4.000000,87.000000,,,,0.000000,4.000000,4.000000,4.000000,4.000000,4.000000,4.000000,0.000000,4.000000,4.000000,4.000000,4.000000,4.000000,4.000000,4.000000,66.666664,,,,,,,,,,,,,,,,,,,,,,,,,,,,
1703153626.572725,1703153626.573285,118.000000,0.000000,4267.436035,4236.282227,4301.282227,4280.512695,4238.974121,4234.358887,4314.102539,4230.128418,4227.307617,4214.358887,4576.153809,4477.563965,4345.000000,4481.794922,5965.000000,4.000000,87.000000,,,,0.000000,4.000000,4.000000,4.000000,4.000000,4.000000,4.000000,0.000000,4.000000,4.000000,4.000000,4.000000,4.000000,4.000000,4.000000,66.666664,,,,,,,,,,,,,,,,,,,,,,,,,,,,
1703153626.580533,1703153626.580993,119.000000,0.000000,4267.179688,4238.974121,4305.256348,4280.384766,4238.846191,4232.436035,4316.922852,4226.922852,4225.641113,4213.589844,4572.051270,4485.256348,4344.871582,4475.897461,6364.000000,4.000000,87.000000,,,,0.000000,4.000000,4.000000,4.000000,4.000000,4.000000,4.000000,0.000000,4.000000,4.000000,4.000000,4.000000,4.000000,4.000000,4.000000,66.666664,,,,,,,,,,,,,,,,,,,,,,,,,,,,
1703153626.588341,1703153626.588801,120.000000,0.000000,4262.436035,4244.487305,4308.461426,4282.307617,4234.102539,4229.487305,4317.436035,4216.922852,4220.128418,4206.794922,4568.717773,4491.794922,4343.974121,4474.230957,6785.000000,4.000000,87.000000,,,,0.000000,4.000000,4.000000,4.000000,4.000000,4.000000,4.000000,0.000000,4.000000,4.000000,4.000000,4.000000,4.000000,4.000000,4.000000,66.666664,,,,,,,,,,,,,,,,,30.000000,0.000000,0.665343,0.380615,-0.549622,0.332214,0.963497,0.147479,0.106458,-17.184761,-29.123434,65.584213
1703153626.596149,1703153626.596510,121.000000,0.000000,4264.871582,4243.333496,4305.384766,4281.666504,4231.538574,4228.846191,4316.282227,4222.436035,4225.641113,4212.179688,4575.000000,4497.820313,4352.820313,4478.333496,7201.000000,4.000000,87.000000,,,,0.000000,4.000000,4.000000,4.000000,4.000000,4.000000,4.000000,0.000000,4.000000,4.000000,4.000000,4.000000,4.000000,4.000000,4.000000,66.666664,,,,,,,,,,,,,,,,,,,,,,,,,,,,
1703153626.603957,1703153626.604418,122.000000,0.000000,4265.641113,4234.871582,4301.410156,4280.256348,4237.563965,4229.102539,4316.794922,4231.025879,4230.256348,4211.025879,4573.589844,4493.461426,4352.563965,4474.230957,5965.000000,4.000000,87.000000,,,,0.000000,4.000000,4.000000,4.000000,4.000000,4.000000,4.000000,0.000000,4.000000,4.000000,4.000000,4.000000,4.000000,4.000000,4.000000,66.666664,,,,,,,,,,,,,,,,,,,,,,,,,,,,
1703153626.611765,1703153626.612226,123.000000,0.000000,4261.410156,4237.563965,4299.487305,4285.512695,4244.743652,4231.538574,4314.358887,4233.205078,4229.230957,4206.538574,4572.820313,4485.000000,4349.487305,4479.358887,6364.000000,4.000000,87.000000,,,,0.000000,4.000000,4.000000,4.000000,4.000000,4.000000,4.000000,0.000000,4.000000,4.000000,4.000000,4.000000,4.000000,4.000000,4.000000,66.666664,,,,,,,,,,,,,,,,,,,,,,,,,,,,
1703153626.619573,1703153626.620034,124.000000,0.000000,4272.563965,4249.230957,4304.487305,4295.256348,4246.153809,4234.743652,4316.153809,4238.717773,4240.641113,4217.948730,4587.820313,4496.922852,4362.692383,4499.487305,6785.000000,4.000000,87.000000,,,,0.000000,4.000000,4.000000,4.000000,4.000000,4.000000,4.000000,0.000000,4.000000,4.000000,4.000000,4.000000,4.000000,4.000000,4.000000,66.666664,,,,,,,,,,,,,,,,,31.000000,0.000000,0.665414,0.380615,-0.549500,0.332275,0.982053,0.142596,0.095715,-17.449617,-29.077759,65.625793
1703153626.627381,1703153626.627742,125.000000,0.000000,4289.743652,4250.641113,4308.589844,4293.077148,4246.794922,4235.769043,4316.794922,4241.025879,4251.538574,4227.563965,4594.871582,4511.410156,4369.102539,4504.615234,7201.000000,4.000000,87.000000,,,,0.000000,4.000000,4.000000,4.000000,4.000000,4.000000,4.000000,0.000000,4.000000,4.000000,4.000000,4.000000,4.000000,4.000000,4.000000,66.666664,,,,,,,,,,,,,,,,,,,,,,,,,,,,
1703153626.635189,1703153626.635550,126.000000,0.000000,4286.025879,4247.436035,4297.436035,4282.051270,4246.538574,4233.589844,4311.922852,4237.820313,4246.922852,4225.128418,4586.153809,4505.384766,4357.307617,4486.282227,5965.000000,4.000000,87.000000,,,,0.000000,4.000000,4.000000,4.000000,4.000000,4.000000,4.000000,0.000000,4.000000,4.000000,4.000000,4.000000,4.000000,4.000000,4.000000,66.666664,,,,,,,,,,,,,,,,,,,,,,,,,,,,
1703153626.642997,1703153626.643258,127.000000,0.000000,4278.077148,4247.948730,4289.230957,4278.717773,4238.974121,4227.051270,4314.615234,4234.358887,4235.769043,4217.436035,4576.666504,4491.538574,4347.307617,4464.743652,87.000000,4.000000,87.000000,,,,0.000000,4.000000,4.000000,4.000000,4.000000,4.000000,4.000000,0.000000,4.000000,4.000000,4.000000,4.000000,4.000000,4.000000,4.000000,66.666664,,,,,,,,,,,,,,,,,,,,,,,,,,,,
1703153626.650805,1703153626.651066,0.000000,0.000000,4279.487305,4242.307617,4291.922852,4279.615234,4226.282227,4220.641113,4317.307617,4231.282227,4226.153809,4206.410156,4569.358887,4485.000000,4343.589844,4463.333496,5312.000000,4.000000,87.000000,,,,0.000000,4.000000,4.000000,4.000000,4.000000,4.000000,4.000000,0.000000,4.000000,4.000000,4.000000,4.000000,4.000000,4.000000,4.000000,66.666664,,,,,,,,,,,,,,,,,0.000000,0.000000,0.665313,0.380737,-0.549500,0.332336,0.981565,0.140642,0.106458,-17.354656,-29.136648,65.646545
1703153626.658613,1703153626.658774,1.000000,0.000000,4277.051270,4231.538574,4291.538574,4275.128418,4225.641113,4218.461426,4316.153809,4227.179688,4219.871582,4201.153809,4562.051270,4483.717773,4338.717773,4473.846191,5576.000000,4.000000,87.000000,,,,0.000000,4.000000,4.000000,4.000000,4.000000,4.000000,4.000000,0.000000,4.000000,4.000000,4.000000,4.000000,4.000000,4.000000,4.000000,66.666664,,,,,,,,,,,,,,,,,,,,,,,,,,,,
1703153626.666421,1703153626.666582,2.000000,0.000000,4275.384766,4230.769043,4293.846191,4273.461426,4232.307617,4216.410156,4317.051270,4222.820313,4217.436035,4202.692383,4561.538574,4482.563965,4335.000000,4478.589844,5385.000000,4.000000,87.000000,,,,0.000000,4.000000,4.000000,4.000000,4.000000,4.000000,4.000000,0.000000,4.000000,4.000000,4.000000,4.000000,4.000000,4.000000,4.000000,66.666664,,,,,,,,,,,,,,,,,,,,,,,,,,,,
1703153626.674229,1703153626.674290,3.000000,0.000000,4277.051270,4236.282227,4297.436035,4278.717773,4227.820313,4213.846191,4316.794922,4220.512695,4215.128418,4198.589844,4566.025879,4482.307617,4337.563965,4483.205078,5405.000000,4.000000,87.000000,,,,0.000000,4.000000,4.000000,4.000000,4.000000,4.000000,4.000000,0.000000,4.000000,4.000000,4.000000,4.000000,4.000000,4.000000,4.000000,66.666664,,,,,,,,,,,,,,,,,,,,,,,,,,,,
1703153626.682037,1703153626.682198,4.000000,0.000000,4268.333496,4235.641113,4290.512695,4280.641113,4223.077148,4219.487305,4317.051270,4213.846191,4199.487305,4182.692383,4555.641113,4473.846191,4330.256348,4470.641113,5223.000000,4.000000,87.000000,,,,0.000000,4.000000,4.000000,4.000000,4.000000,4.000000,4.000000,0.000000,4.000000,4.000000,4.000000,4.000000,4.000000,4.000000,4.000000,66.666664,,,,,,,,,,,,,,,,,1.000000,0.000000,0.665283,0.380737,-0.549500,0.332397,0.984984,0.148944,0.094738,-17.302525,-29.172983,65.681892
1703153626.689845,1703153626.690006,5.000000,0.000000,4255.000000,4220.256348,4280.384766,4269.615234,4230.512695,4230.256348,4315.641113,4204.102539,4185.641113,4167.948730,4532.436035,4461.666504,4310.897461,4441.410156,5273.000000,4.000000,87.000000,,,,0.000000,4.000000,4.000000,4.000000,4.000000,4.000000,4.000000,0.000000,4.000000,4.000000,4.000000,4.000000,4.000000,4.000000,4.000000,66.666664,,,,,,,,,,,,,,,,,,,,,,,,,,,,
1703153626.697653,1703153626.697914,6.000000,0.000000,4260.512695,4215.897461,4287.051270,4263.333496,4237.179688,4233.333496,4313.974121,4211.666504,4200.512695,4182.563965,4537.948730,4472.179688,4313.589844,4449.358887,0.000000,4.000000,87.000000,,,,0.000000,4.000000,4.000000,4.000000,4.000000,4.000000,4.000000,0.000000,4.000000,4.000000,4.000000,4.000000,4.000000,4.000000,4.000000,66.666664,,,,,,,,,,,,,,,,,,,,,,,,,,,,
1703153626.705462,1703153626.705722,7.000000,0.000000,4277.948730,4228.974121,4300.256348,4272.820313,4234.743652,4230.512695,4314.487305,4230.769043,4223.077148,4202.692383,4567.436035,4488.846191,4337.820313,4480.641113,5161.000000,4.000000,87.000000,,,,0.000000,4.000000,4.000000,4.000000,4.000000,4.000000,4.000000,0.000000,4.000000,4.000000,4.000000,4.000000,4.000000,4.000000,4.000000,66.666664,,,,,,,,,,,,,,,,,,,,,,,,,,,,
1703153626.713270,1703153626.713630,8.000000,0.000000,4273.077148,4222.820313,4291.153809,4277.692383,4227.563965,4229.358887,4313.205078,4233.077148,4226.666504,4205.128418,4574.743652,4485.384766,4346.282227,4481.282227,5387.000000,4.000000,87.000000,,,,0.000000,4.000000,4.000000,4.000000,4.000000,4.000000,4.000000,0.000000,4.000000,4.000000,4.000000,4.000000,4.000000,4.000000,4.000000,66.666664,,,,,,,,,,,,,,,,,2.000000,0.000000,0.665267,0.380676,-0.549561,0.332397,0.973263,0.152362,0.101575,-17.438938,-29.139019,65.530373
1703153626.721078,1703153626.721438,9.000000,0.000000,4262.307617,4216.922852,4286.153809,4273.846191,4228.461426,4232.307617,4314.230957,4226.666504,4226.025879,4208.846191,4565.897461,4485.256348,4341.282227,4471.922852,5315.000000,4.000000,87.000000,,,,0.000000,4.000000,4.000000,4.000000,4.000000,4.000000,4.000000,0.000000,4.000000,4.000000,4.000000,4.000000,4.000000,4.000000,4.000000,66.666664,,,,,,,,,,,,,,,,,,,,,,,,,,,,
1703153626.728886,1703153626.729346,10.000000,0.000000,4270.512695,4230.128418,4296.025879,4276.410156,4230.256348,4230.128418,4316.538574,4229.487305,4232.948730,4212.307617,4566.922852,4491.922852,4344.871582,4477.692383,5966.000000,4.000000,87.000000,,,,0.000000,4.000000,4.000000,4.000000,4.000000,4.000000,4.000000,0.000000,4.000000,4.000000,4.000000,4.000000,4.000000,4.000000,4.000000,66.666664,,,,,,,,,,,,,,,,,,,,,,,,,,,,
1703153626.736694,1703153626.737154,11.000000,0.000000,4277.307617,4227.179688,4293.205078,4278.717773,4223.461426,4220.384766,4314.358887,4235.384766,4233.461426,4205.512695,4568.333496,4485.000000,4349.615234,4487.820313,6362.000000,4.000000,87.000000,,,,0.000000,4.000000,4.000000,4.000000,4.000000,4.000000,4.000000,0.000000,4.000000,4.000000,4.000000,4.000000,4.000000,4.000000,4.000000,66.666664,,,,,,,,,,,,,,,,,,,,,,,,,,,,
1703153626.744502,1703153626.744862,12.000000,0.000000,4271.794922,4218.205078,4286.794922,4278.589844,4223.077148,4216.025879,4313.077148,4230.000000,4222.563965,4196.794922,4557.820313,4473.846191,4341.666504,4488.333496,6785.000000,4.000000,87.000000,,,,0.000000,4.000000,4.000000,4.000000,4.000000,4.000000,4.000000,0.000000,4.000000,4.000000,4.000000,4.000000,4.000000,4.000000,4.000000,66.666664,,,,,,,,,,,,,,,,,3.000000,0.000000,0.665298,0.380676,-0.549561,0.332336,0.979612,0.150897,0.095715,-17.395044,-29.275118,65.477333
1703153626.752310,1703153626.752670,13.000000,0.000000,4266.538574,4225.897461,4283.333496,4277.179688,4227.692383,4218.717773,4313.205078,4218.077148,4214.615234,4190.512695,4549.615234,4471.282227,4335.256348,4478.717773,7204.000000,4.000000,87.000000,,,,0.000000,4.000000,4.000000,4.000000,4.000000,4.000000,4.000000,0.000000,4.000000,4.000000,4.000000,4.000000,4.000000,4.000000,4.000000,66.666664,,,,,,,,,,,,,,,,,,,,,,,,,,,,
1703153626.760118,1703153626.760378,14.000000,0.000000,4263.333496,4223.717773,4276.794922,4271.025879,4222.948730,4217.948730,4314.615234,4213.717773,4209.743652,4185.641113,4547.820313,4472.692383,4336.025879,4470.128418,5966.000000,4.000000,87.000000,,,,0.000000,4.000000,4.000000,4.000000,4.000000,4.000000,4.000000,0.000000,4.000000,4.000000,4.000000,4.000000,4.000000,4.000000,4.000000,66.666664,,,,,,,,,,,,,,,,,,,,,,,,,,,,
1703153626.767926,1703153626.768186,15.000000,0.000000,4263.333496,4216.025879,4279.871582,4272.051270,4225.000000,4217.179688,4317.436035,4216.025879,4202.051270,4185.384766,4540.769043,4470.769043,4331.922852,4473.333496,6362.000000,4.000000,87.000000,,,,0.000000,4.000000,4.000000,4.000000,4.000000,4.000000,4.000000,0.000000,4.000000,4.000000,4.000000,4.000000,4.000000,4.000000,4.000000,66.666664,,,,,,,,,,,,,,,,,,,,,,,,,,,,
1703153626.775734,1703153626.775894,16.000000,0.000000,4263.333496,4220.384766,4285.000000,4276.153809,4234.230957,4218.077148,4316.410156,4212.307617,4199.487305,4187.051270,4535.897461,4469.230957,4327.692383,4480.641113,0.000000,4.000000,87.000000,,,,0.000000,4.000000,4.000000,4.000000,4.000000,4.000000,4.000000,0.000000,4.000000,4.000000,4.000000,4.000000,4.000000,4.000000,4.000000,66.666664,,,,,,,,,,,,,,,,,4.000000,0.000000,0.665460,0.380676,-0.549438,0.332214,0.978635,0.146014,0.092785,-17.238873,-29.297606,65.562935
1703153626.783542,1703153626.783702,17.000000,0.000000,4259.358887,4217.820313,4282.051270,4267.692383,4222.820313,4219.615234,4315.384766,4203.461426,4199.871582,4182.692383,4536.153809,4470.641113,4327.948730,4473.846191,0.000000,4.000000,87.000000,,,,0.000000,4.000000,4.000000,4.000000,4.000000,4.000000,4.000000,0.000000,4.000000,4.000000,4.000000,4.000000,4.000000,4.000000,4.000000,66.666664,,,,,,,,,,,,,,,,,,,,,,,,,,,,
1703153626.791350,1703153626.791410,18.000000,0.000000,4261.922852,4215.641113,4280.769043,4262.692383,4212.436035,4223.333496,4314.487305,4203.205078,4201.153809,4182.948730,4540.641113,4466.282227,4330.128418,4466.922852,0.000000,4.000000,87.000000,,,,0.000000,4.000000,4.000000,4.000000,4.000000,4.000000,4.000000,0.000000,4.000000,4.000000,4.000000,4.000000,4.000000,4.000000,4.000000,66.666664,,,,,,,,,,,,,,,,,,,,,,,,,,,,
1703153626.799158,1703153626.799218,19.000000,0.000000,4264.871582,4218.717773,4282.179688,4265.256348,4223.205078,4221.922852,4313.717773,4212.307617,4212.051270,4190.769043,4551.282227,4468.077148,4338.589844,4470.000000,0.000000,4.000000,87.000000,,,,0.000000,4.000000,4.000000,4.000000,4.000000,4.000000,4.000000,0.000000,4.000000,4.000000,4.000000,4.000000,4.000000,4.000000,4.000000,66.666664,,,,,,,,,,,,,,,,,,,,,,,,,,,,
1703153626.806966,1703153626.806926,20.000000,0.000000,4261.410156,4216.538574,4284.871582,4264.358887,4224.615234,4216.538574,4314.102539,4222.563965,4221.666504,4191.666504,4558.333496,4482.051270,4344.615234,4467.179688,0.000000,4.000000,87.000000,,,,0.000000,4.000000,4.000000,4.000000,4.000000,4.000000,4.000000,0.000000,4.000000,4.000000,4.000000,4.000000,4.000000,4.000000,4.000000,66.666664,,,,,,,,,,,,,,,,,5.000000,0.000000,0.665602,0.380798,-0.549255,0.332092,0.989867,0.132340,0.104017,-17.214987,-29.467844,65.256638
1703153626.814774,1703153626.814734,21.000000,0.000000,4262.051270,4217.051270,4288.589844,4266.666504,4215.769043,4219.102539,4312.563965,4231.410156,4224.871582,4192.307617,4565.641113,4492.051270,4351.538574,4465.769043,0.000000,4.000000,87.000000,,,,0.000000,4.000000,4.000000,4.000000,4.000000,4.000000,4.000000,0.000000,4.000000,4.000000,4.000000,4.000000,4.000000,4.000000,4.000000,66.666664,,,,,,,,,,,,,,,,,,,,,,,,,,,,
1703153626.822582,1703153626.822442,22.000000,0.000000,4263.974121,4219.487305,4287.948730,4269.487305,4216.794922,4221.153809,4314.871582,4235.641113,4230.256348,4203.077148,4571.410156,4494.743652,4357.820313,4467.948730,0.000000,4.000000,87.000000,,,,0.000000,4.000000,4.000000,4.000000,4.000000,4.000000,4.000000,0.000000,4.000000,4.000000,4.000000,4.000000,4.000000,4.000000,4.000000,66.666664,,,,,,,,,,,,,,,,,,,,,,,,,,,,
1703153626.830390,1703153626.830250,23.000000,0.000000,4261.922852,4222.692383,4281.153809,4263.846191,4225.256348,4218.717773,4316.410156,4234.230957,4231.922852,4205.769043,4562.436035,4490.256348,4349.230957,4463.077148,0.000000,4.000000,87.000000,,,,0.000000,4.000000,4.000000,4.000000,4.000000,4.000000,4.000000,0.000000,4.000000,4.000000,4.000000,4.000000,4.000000,4.000000,4.000000,66.666664,,,,,,,,,,,,,,,,,,,,,,,,,,,,
1703153626.838198,1703153626.837958,24.000000,0.000000,4260.897461,4228.589844,4277.307617,4260.512695,4230.641113,4220.897461,4313.589844,4234.358887,4232.436035,4200.512695,4560.256348,4486.666504,4350.641113,4469.615234,0.000000,4.000000,87.000000,,,,0.000000,4.000000,4.000000,4.000000,4.000000,4.000000,4.000000,0.000000,4.000000,4.000000,4.000000,4.000000,4.000000,4.000000,4.000000,66.666664,,,,,,,,,,,,,,,,,6.000000,0.000000,0.665787,0.380615,-0.549194,0.332031,0.975217,0.143572,0.102552,-17.243488,-29.454393,65.180977
1703153626.846006,1703153626.845766,25.000000,0.000000,4262.948730,4230.000000,4283.717773,4263.846191,4231.794922,4224.102539,4316.025879,4235.384766,4232.692383,4202.436035,4571.025879,4486.025879,4364.487305,4484.743652,0.000000,4.000000,87.000000,,,,0.000000,4.000000,4.000000,4.000000,4.000000,4.000000,4.000000,0.000000,4.000000,4.000000,4.000000,4.000000,4.000000,4.000000,4.000000,66.666664,,,,,,,,,,,,,,,,,,,,,,,,,,,,
1703153626.853814,1703153626.853474,26.000000,0.000000,4262.051270,4228.333496,4286.922852,4268.333496,4228.589844,4220.256348,4315.641113,4232.820313,4229.615234,4204.615234,4569.615234,4484.230957,4362.948730,4479.743652,0.000000,4.000000,87.000000,,,,0.000000,4.000000,4.000000,4.000000,4.000000,4.000000,4.000000,0.000000,4.000000,4.000000,4.000000,4.000000,4.000000,4.000000,4.000000,66.666664,,,,,,,,,,,,,,,,,,,,,,,,,,,,
1703153626.861622,1703153626.861382,27.000000,0.000000,4262.051270,4230.256348,4285.641113,4272.948730,4221.025879,4217.436035,4313.333496,4233.974121,4226.794922,4202.563965,4564.871582,4484.230957,4358.974121,4473.717773,0.000000,4.000000,87.000000,,,,0.000000,4.000000,4.000000,4.000000,4.000000,4.000000,4.000000,0.000000,4.000000,4.000000,4.000000,4.000000,4.000000,4.000000,4.000000,66.666664,,,,,,,,,,,,,,,,,,,,,,,,,,,,
1703153626.869430,1703153626.869190,28.000000,0.000000,4261.538574,4232.563965,4294.487305,4278.717773,4221.410156,4225.000000,4316.666504,4231.153809,4221.666504,4201.538574,4570.000000,4482.948730,4360.128418,4480.256348,0.000000,4.000000,87.000000,,,,0.000000,4.000000,4.000000,4.000000,4.000000,4.000000,4.000000,0.000000,4.000000,4.000000,4.000000,4.000000,4.000000,4.000000,4.000000,66.666664,,,,,,,,,,,,,,,,,7.000000,0.000000,0.665822,0.380554,-0.549194,0.332031,0.981077,0.142596,0.092296,-17.502472,-29.325621,65.346214
1703153626.877239,1703153626.877098,29.000000,0.000000,4251.538574,4231.538574,4297.692383,4280.769043,4228.974121,4235.384766,4315.000000,4222.820313,4215.769043,4203.589844,4571.410156,4479.487305,4359.358887,4478.077148,0.000000,4.000000,87.000000,,,,0.000000,4.000000,4.000000,4.000000,4.000000,4.000000,4.000000,0.000000,4.000000,4.000000,4.000000,4.000000,4.000000,4.000000,4.000000,66.666664,,,,,,,,,,,,,,,,,,,,,,,,,,,,
1703153626.885047,1703153626.884906,30.000000,0.000000,4245.128418,4229.615234,4291.410156,4278.077148,4231.282227,4234.102539,4313.205078,4216.153809,4208.846191,4202.692383,4560.000000,4477.820313,4358.205078,4464.743652,0.000000,4.000000,87.000000,,,,0.000000,4.000000,4.000000,4.000000,4.000000,4.000000,4.000000,0.000000,4.000000,4.000000,4.000000,4.000000,4.000000,4.000000,4.000000,66.666664,,,,,,,,,,,,,,,,,,,,,,,,,,,,
1703153626.892855,1703153626.892813,31.000000,0.000000,4243.974121,4225.769043,4292.307617,4275.897461,4230.128418,4228.846191,4316.025879,4213.077148,4202.307617,4194.743652,4550.000000,4478.333496,4353.077148,4444.871582,0.000000,4.000000,87.000000,,,,0.000000,4.000000,4.000000,4.000000,4.000000,4.000000,4.000000,0.000000,4.000000,4.000000,4.000000,4.000000,4.000000,4.000000,4.000000,66.666664,,,,,,,,,,,,,,,,,,,,,,,,,,,,
1703153626.900663,1703153626.900621,32.000000,0.000000,4234.102539,4220.769043,4294.358887,4275.128418,4229.230957,4231.410156,4315.897461,4215.641113,4207.179688,4196.025879,4555.384766,4480.384766,4351.794922,4448.846191,0.000000,4.000000,87.000000,,,,0.000000,4.000000,4.000000,4.000000,4.000000,4.000000,4.000000,0.000000,4.000000,4.000000,4.000000,4.000000,4.000000,4.000000,4.000000,66.666664,,,,,,,,,,,,,,,,,8.000000,0.000000,0.665660,0.380432,-0.549438,0.332092,0.978635,0.137224,0.104505,-17.602224,-29.343060,65.278259
1703153626.908471,1703153626.908529,33.000000,0.000000,4229.358887,4218.974121,4294.743652,4274.487305,4227.051270,4232.948730,4315.384766,4220.512695,4212.436035,4204.743652,4559.615234,4480.897461,4358.717773,4476.153809,0.000000,4.000000,87.000000,,,,0.000000,4.000000,4.000000,4.000000,4.000000,4.000000,4.000000,0.000000,4.000000,4.000000,4.000000,4.000000,4.000000,4.000000,4.000000,66.666664,,,,,,,,,,,,,,,,,,,,,,,,,,,,
1703153626.916279,1703153626.916337,34.000000,0.000000,4232.307617,4218.846191,4293.461426,4276.282227,4228.717773,4227.692383,4315.641113,4219.743652,4209.102539,4203.461426,4552.563965,4475.769043,4355.512695,4480.512695,0.000000,4.000000,87.000000,,,,0.000000,4.000000,4.000000,4.000000,4.000000,4.000000,4.000000,0.000000,4.000000,4.000000,4.000000,4.000000,4.000000,4.000000,4.000000,66.666664,,,,,,,,,,,,,,,,,,,,,,,,,,,,
1703153626.924087,1703153626.924245,35.000000,0.000000,4229.102539,4216.794922,4292.948730,4279.102539,4232.692383,4227.948730,4316.666504,4217.948730,4213.589844,4197.436035,4550.897461,4477.820313,4351.025879,4470.384766,0.000000,4.000000,87.000000,,,,0.000000,4.000000,4.000000,4.000000,4.000000,4.000000,4.000000,0.000000,4.000000,4.000000,4.000000,4.000000,4.000000,4.000000,4.000000,66.666664,,,,,,,,,,,,,,,,,,,,,,,,,,,,
1703153626.931895,1703153626.932053,36.000000,0.000000,4229.102539,4215.769043,4292.436035,4277.820313,4231.153809,4232.436035,4314.871582,4218.205078,4219.487305,4199.743652,4555.512695,4481.153809,4356.922852,4471.794922,0.000000,4.000000,87.000000,,,,0.000000,4.000000,4.000000,4.000000,4.000000,4.000000,4.000000,0.000000,4.000000,4.000000,4.000000,4.000000,4.000000,4.000000,4.000000,66.666664,,,,,,,,,,,,,,,,,9.000000,0.000000,0.665624,0.380371,-0.549377,0.332336,0.977170,0.141131,0.103040,-17.758669,-29.375420,65.367096
1703153626.939703,1703153626.939761,37.000000,0.000000,4231.282227,4214.743652,4284.487305,4275.384766,4231.282227,4233.589844,4311.153809,4218.589844,4215.897461,4207.820313,4560.641113,4474.871582,4363.077148,4477.692383,0.000000,4.000000,87.000000,,,,0.000000,4.000000,4.000000,4.000000,4.000000,4.000000,4.000000,0.000000,4.000000,4.000000,4.000000,4.000000,4.000000,4.000000,4.000000,66.666664,,,,,,,,,,,,,,,,,,,,,,,,,,,,
1703153626.947511,1703153626.947569,38.000000,0.000000,4231.666504,4217.820313,4286.153809,4277.948730,4236.538574,4233.333496,4313.589844,4217.820313,4215.384766,4208.717773,4563.461426,4473.846191,4361.922852,4475.256348,0.000000,4.000000,87.000000,,,,0.000000,4.000000,4.000000,4.000000,4.000000,4.000000,4.000000,0.000000,4.000000,4.000000,4.000000,4.000000,4.000000,4.000000,4.000000,66.666664,1.000000,66.666664,4.000000,4.000000,4.000000,4.000000,4.000000,4.000000,0.000000,4.000000,4.000000,4.000000,4.000000,4.000000,4.000000,4.000000,,,,,,,,,,,,
1703153626.955319,1703153626.955277,39.000000,0.000000,4234.358887,4225.384766,4292.051270,4280.641113,4235.769043,4234.487305,4314.743652,4215.384766,4216.282227,4202.307617,4563.077148,4478.205078,4362.436035,4470.256348,0.000000,4.000000,87.000000,,,,0.000000,4.000000,4.000000,4.000000,4.000000,4.000000,4.000000,0.000000,4.000000,4.000000,4.000000,4.000000,4.000000,4.000000,4.000000,66.666664,,,,,,,,,,,,,,,,,,,,,,,,,,,,
1703153626.963127,1703153626.963085,40.000000,0.000000,4233.205078,4225.384766,4288.846191,4279.230957,4231.666504,4233.461426,4313.717773,4214.487305,4215.256348,4204.871582,4566.666504,4480.897461,4370.512695,4476.538574,0.000000,4.000000,87.000000,,,,0.000000,4.000000,4.000000,4.000000,4.000000,4.000000,4.000000,0.000000,4.000000,4.000000,4.000000,4.000000,4.000000,4.000000,4.000000,66.666664,,,,,,,,,,,,,,,,,10.000000,0.000000,0.665613,0.380371,-0.549316,0.332458,0.980588,0.146502,0.104505,-17.982801,-29.321211,65.197052
1703153626.970935,1703153626.970793,41.000000,0.000000,4239.487305,4226.282227,4294.102539,4279.487305,4234.230957,4230.000000,4315.384766,4220.641113,4218.205078,4216.666504,4573.589844,4486.153809,4376.666504,4491.794922,0.000000,4.000000,87.000000,,,,0.000000,4.000000,4.000000,4.000000,4.000000,4.000000,4.000000,0.000000,4.000000,4.000000,4.000000,4.000000,4.000000,4.000000,4.000000,66.666664,,,,,,,,,,,,,,,,,,,,,,,,,,,,
1703153626.978743,1703153626.978601,42.000000,0.000000,4248.333496,4230.128418,4300.769043,4279.487305,4237.436035,4229.743652,4313.077148,4225.641113,4220.000000,4220.384766,4574.743652,4491.410156,4378.717773,4491.538574,0.000000,4.000000,87.000000,,,,0.000000,4.000000,4.000000,4.000000,4.000000,4.000000,4.000000,0.000000,4.000000,4.000000,4.000000,4.000000,4.000000,4.000000,4.000000,66.666664,,,,,,,,,,,,,,,,,,,,,,,,,,,,
1703153626.986551,1703153626.986309,43.000000,0.000000,4240.256348,4223.589844,4294.358887,4275.641113,4233.846191,4230.769043,4313.461426,4221.410156,4216.666504,4210.769043,4570.897461,4486.538574,4374.871582,4474.615234,0.000000,4.000000,87.000000,,,,0.000000,4.000000,4.000000,4.000000,4.000000,4.000000,4.000000,0.000000,4.000000,4.000000,4.000000,4.000000,4.000000,4.000000,4.000000,66.666664,,,,,,,,,,,,,,,,,,,,,,,,,,,,
1703153626.994359,1703153626.994117,44.000000,0.000000,4232.692383,4215.384766,4289.230957,4273.717773,4229.743652,4224.871582,4315.769043,4217.051270,4215.384766,4207.051270,4568.077148,4476.922852,4365.128418,4461.282227,0.000000,4.000000,87.000000,,,,0.000000,4.000000,4.000000,4.000000,4.000000,4.000000,4.000000,0.000000,4.000000,4.000000,4.000000,4.000000,4.000000,4.000000,4.000000,66.666664,,,,,,,,,,,,,,,,,11.000000,0.000000,0.665548,0.380432,-0.549316,0.332520,0.984495,0.142596,0.091808,-17.984522,-29.255756,65.277351
1703153627.002167,1703153627.001825,45.000000,0.000000,4234.230957,4216.666504,4292.307617,4273.333496,4232.307617,4217.436035,4314.615234,4218.205078,4218.461426,4213.333496,4568.333496,4477.948730,4361.410156,4458.333496,0.000000,4.000000,87.000000,,,,0.000000,4.000000,4.000000,4.000000,4.000000,4.000000,4.000000,0.000000,4.000000,4.000000,4.000000,4.000000,4.000000,4.000000,4.000000,66.666664,,,,,,,,,,,,,,,,,,,,,,,,,,,,
1703153627.009975,1703153627.009733,46.000000,0.000000,4233.717773,4219.487305,4296.538574,4274.102539,4231.794922,4217.307617,4315.897461,4215.384766,4212.051270,4209.615234,4565.000000,4478.717773,4363.717773,4463.589844,0.000000,4.000000,87.000000,,,,0.000000,4.000000,4.000000,4.000000,4.000000,4.000000,4.000000,0.000000,4.000000,4.000000,4.000000,4.000000,4.000000,4.000000,4.000000,66.666664,,,,,,,,,,,,,,,,,,,,,,,,,,,,
1703153627.017783,1703153627.017541,47.000000,0.000000,4237.051270,4218.333496,4296.282227,4273.589844,4225.256348,4217.051270,4314.871582,4213.205078,4207.948730,4199.487305,4559.743652,4468.589844,4360.512695,4474.358887,0.000000,4.000000,87.000000,,,,0.000000,4.000000,4.000000,4.000000,4.000000,4.000000,4.000000,0.000000,4.000000,4.000000,4.000000,4.000000,4.000000,4.000000,4.000000,66.666664,,,,,,,,,,,,,,,,,,,,,,,,,,,,
1703153627.025591,1703153627.025449,48.000000,0.000000,4241.025879,4218.333496,4293.333496,4270.000000,4226.410156,4215.897461,4312.307617,4212.179688,4211.794922,4201.153809,4558.461426,4462.948730,4357.179688,4480.128418,0.000000,4.000000,87.000000,,,,0.000000,4.000000,4.000000,4.000000,4.000000,4.000000,4.000000,0.000000,4.000000,4.000000,4.000000,4.000000,4.000000,4.000000,4.000000,66.666664,,,,,,,,,,,,,,,,,12.000000,0.000000,0.665620,0.380554,-0.549255,0.332336,0.977658,0.148456,0.101575,-17.886070,-29.180182,65.366280
1703153627.033399,1703153627.033257,49.000000,0.000000,4227.948730,4213.846191,4290.384766,4269.743652,4232.948730,4226.666504,4314.230957,4204.743652,4207.692383,4202.051270,4553.846191,4465.897461,4354.743652,4461.025879,0.000000,4.000000,87.000000,,,,0.000000,4.000000,4.000000,4.000000,4.000000,4.000000,4.000000,0.000000,4.000000,4.000000,4.000000,4.000000,4.000000,4.000000,4.000000,66.666664,,,,,,,,,,,,,,,,,,,,,,,,,,,,
1703153627.041207,1703153627.041165,50.000000,0.000000,4222.051270,4212.820313,4287.820313,4275.641113,4231.794922,4233.974121,4313.333496,4205.641113,4202.563965,4202.179688,4555.512695,4470.128418,4355.384766,4444.487305,0.000000,4.000000,87.000000,,,,0.000000,4.000000,4.000000,4.000000,4.000000,4.000000,4.000000,0.000000,4.000000,4.000000,4.000000,4.000000,4.000000,4.000000,4.000000,66.666664,,,,,,,,,,,,,,,,,,,,,,,,,,,,
1703153627.049016,1703153627.048973,51.000000,0.000000,4232.436035,4218.974121,4292.179688,4277.436035,4228.205078,4229.743652,4312.051270,4212.820313,4206.282227,4205.384766,4564.358887,4476.153809,4364.615234,4455.769043,0.000000,4.000000,87.000000,,,,0.000000,4.000000,4.000000,4.000000,4.000000,4.000000,4.000000,0.000000,4.000000,4.000000,4.000000,4.000000,4.000000,4.000000,4.000000,66.666664,,,,,,,,,,,,,,,,,,,,,,,,,,,,
1703153627.056824,1703153627.056881,52.000000,0.000000,4234.871582,4210.512695,4295.512695,4272.948730,4232.820313,4229.871582,4312.179688,4208.205078,4205.128418,4194.871582,4560.000000,4476.922852,4360.641113,4465.000000,0.000000,4.000000,87.000000,,,,0.000000,4.000000,4.000000,4.000000,4.000000,4.000000,4.000000,0.000000,4.000000,4.000000,4.000000,4.000000,4.000000,4.000000,4.000000,66.666664,,,,,,,,,,,,,,,,,13.000000,0.000000,0.665552,0.380798,-0.549316,0.332092,0.979612,0.148944,0.098157,-17.947462,-29.295496,65.346321
1703153627.064632,1703153627.064689,53.000000,0.000000,4235.384766,4197.948730,4289.871582,4274.102539,4231.794922,4226.922852,4312.307617,4204.871582,4196.410156,4185.256348,4550.641113,4474.487305,4348.205078,4466.282227,0.000000,4.000000,87.000000,,,,0.000000,4.000000,4.000000,4.000000,4.000000,4.000000,4.000000,0.000000,4.000000,4.000000,4.000000,4.000000,4.000000,4.000000,4.000000,66.666664,,,,,,,,,,,,,,,,,,,,,,,,,,,,
1703153627.072440,1703153627.072597,54.000000,0.000000,4247.179688,4206.538574,4288.846191,4279.615234,4219.487305,4216.282227,4314.230957,4213.333496,4201.153809,4195.256348,4554.358887,4476.410156,4355.000000,4468.846191,0.000000,4.000000,87.000000,,,,0.000000,4.000000,4.000000,4.000000,4.000000,4.000000,4.000000,0.000000,4.000000,4.000000,4.000000,4.000000,4.000000,4.000000,4.000000,66.666664,,,,,,,,,,,,,,,,,,,,,,,,,,,,
1703153627.080248,1703153627.080405,55.000000,0.000000,4254.230957,4220.897461,4291.153809,4281.153809,4218.333496,4213.205078,4313.589844,4216.794922,4215.000000,4203.333496,4566.922852,4478.846191,4370.128418,4473.333496,0.000000,4.000000,87.000000,,,,0.000000,4.000000,4.000000,4.000000,4.000000,4.000000,4.000000,0.000000,4.000000,4.000000,4.000000,4.000000,4.000000,4.000000,4.000000,66.666664,,,,,,,,,,,,,,,,,,,,,,,,,,,,
1703153627.088056,1703153627.088312,56.000000,0.000000,4247.563965,4216.922852,4288.077148,4276.666504,4228.461426,4217.179688,4313.589844,4213.846191,4214.871582,4197.948730,4564.615234,4477.179688,4365.384766,4473.205078,0.000000,4.000000,87.000000,,,,0.000000,4.000000,4.000000,4.000000,4.000000,4.000000,4.000000,0.000000,4.000000,4.000000,4.000000,4.000000,4.000000,4.000000,4.000000,66.666664,,,,,,,,,,,,,,,,,14.000000,0.000000,0.665639,0.380981,-0.549194,0.331909,0.974240,0.145526,0.107923,-17.869383,-29.182613,65.245018
1703153627.095864,1703153627.096120,57.000000,0.000000,4246.922852,4211.410156,4291.410156,4275.897461,4233.333496,4220.641113,4315.897461,4214.743652,4207.948730,4195.384766,4551.922852,4473.205078,4357.692383,4476.153809,0.000000,4.000000,87.000000,,,,0.000000,4.000000,4.000000,4.000000,4.000000,4.000000,4.000000,0.000000,4.000000,4.000000,4.000000,4.000000,4.000000,4.000000,4.000000,66.666664,,,,,,,,,,,,,,,,,,,,,,,,,,,,
1703153627.103672,1703153627.104028,58.000000,0.000000,4253.589844,4219.615234,4297.820313,4280.769043,4230.769043,4227.179688,4314.102539,4219.615234,4219.102539,4208.077148,4564.615234,4481.794922,4375.384766,4480.512695,0.000000,4.000000,87.000000,,,,0.000000,4.000000,4.000000,4.000000,4.000000,4.000000,4.000000,0.000000,4.000000,4.000000,4.000000,4.000000,4.000000,4.000000,4.000000,66.666664,,,,,,,,,,,,,,,,,,,,,,,,,,,,
1703153627.111480,1703153627.111836,59.000000,0.000000,4251.922852,4220.256348,4296.538574,4278.205078,4225.000000,4231.922852,4313.589844,4219.230957,4226.538574,4212.820313,4578.461426,4488.205078,4381.794922,4475.384766,0.000000,4.000000,87.000000,,,,0.000000,4.000000,4.000000,4.000000,4.000000,4.000000,4.000000,0.000000,4.000000,4.000000,4.000000,4.000000,4.000000,4.000000,4.000000,66.666664,,,,,,,,,,,,,,,,,,,,,,,,,,,,
1703153627.119288,1703153627.119744,60.000000,0.000000,4248.846191,4210.384766,4292.307617,4272.307617,4217.563965,4234.871582,4312.692383,4215.769043,4216.025879,4206.794922,4568.205078,4478.974121,4367.692383,4480.000000,0.000000,4.000000,87.000000,,,,0.000000,4.000000,4.000000,4.000000,4.000000,4.000000,4.000000,0.000000,4.000000,4.000000,4.000000,4.000000,4.000000,4.000000,4.000000,66.666664,,,,,,,,,,,,,,,,,15.000000,0.000000,0.665774,0.380920,-0.549072,0.331909,0.980588,0.155781,0.105970,-17.515778,-29.281019,65.220520
1703153627.127096,1703153627.127552,61.000000,0.000000,4252.563965,4209.487305,4291.922852,4274.102539,4216.666504,4232.179688,4312.563965,4223.846191,4219.230957,4210.769043,4572.051270,4480.384766,4375.128418,4491.794922,0.000000,4.000000,87.000000,,,,0.000000,4.000000,4.000000,4.000000,4.000000,4.000000,4.000000,0.000000,4.000000,4.000000,4.000000,4.000000,4.000000,4.000000,4.000000,66.666664,,,,,,,,,,,,,,,,,,,,,,,,,,,,
1703153627.134904,1703153627.135260,62.000000,0.000000,4249.358887,4217.179688,4292.051270,4279.743652,4226.025879,4220.512695,4314.487305,4227.307617,4223.333496,4215.256348,4580.769043,4488.077148,4387.820313,4485.000000,0.000000,4.000000,87.000000,,,,0.000000,4.000000,4.000000,4.000000,4.000000,4.000000,4.000000,0.000000,4.000000,4.000000,4.000000,4.000000,4.000000,4.000000,4.000000,66.666664,,,,,,,,,,,,,,,,,,,,,,,,,,,,
1703153627.142712,1703153627.143068,63.000000,0.000000,4238.077148,4217.948730,4285.641113,4281.794922,4233.974121,4222.179688,4310.384766,4217.692383,4214.102539,4211.666504,4571.666504,4486.666504,4378.205078,4467.820313,0.000000,4.000000,87.000000,,,,0.000000,4.000000,4.000000,4.000000,4.000000,4.000000,4.000000,0.000000,4.000000,4.000000,4.000000,4.000000,4.000000,4.000000,4.000000,66.666664,,,,,,,,,,,,,,,,,,,,,,,,,,,,
1703153627.150520,1703153627.150776,64.000000,0.000000,4241.922852,4214.615234,4285.641113,4281.538574,4230.000000,4230.256348,4312.307617,4213.333496,4212.692383,4212.051270,4571.794922,4485.128418,4374.871582,4467.820313,5313.000000,4.000000,87.000000,,,,0.000000,4.000000,4.000000,4.000000,4.000000,4.000000,4.000000,0.000000,4.000000,4.000000,4.000000,4.000000,4.000000,4.000000,4.000000,66.666664,,,,,,,,,,,,,,,,,16.000000,0.000000,0.665599,0.381104,-0.549194,0.331848,0.982542,0.151386,0.102063,-17.597534,-29.286249,65.281799
1703153627.158328,1703153627.158684,65.000000,0.000000,4252.179688,4217.051270,4294.230957,4280.641113,4219.102539,4221.410156,4317.307617,4215.384766,4214.487305,4215.128418,4578.717773,4484.230957,4385.256348,4477.436035,5576.000000,4.000000,87.000000,,,,0.000000,4.000000,4.000000,4.000000,4.000000,4.000000,4.000000,0.000000,4.000000,4.000000,4.000000,4.000000,4.000000,4.000000,4.000000,66.666664,,,,,,,,,,,,,,,,,,,,,,,,,,,,
1703153627.166136,1703153627.166493,66.000000,0.000000,4247.307617,4215.769043,4293.846191,4277.948730,4222.820313,4214.615234,4313.461426,4215.128418,4214.615234,4212.436035,4573.077148,4488.205078,4385.641113,4475.769043,5385.000000,4.000000,87.000000,,,,0.000000,4.000000,4.000000,4.000000,4.000000,4.000000,4.000000,0.000000,4.000000,4.000000,4.000000,4.000000,4.000000,4.000000,4.000000,66.666664,,,,,,,,,,,,,,,,,,,,,,,,,,,,
1703153627.173944,1703153627.174401,67.000000,0.000000,4246.794922,4214.358887,4294.102539,4277.563965,4234.487305,4227.563965,4312.948730,4211.410156,4213.974121,4208.461426,4571.922852,4495.256348,4379.102539,4466.538574,5405.000000,4.000000,87.000000,,,,0.000000,4.000000,4.000000,4.000000,4.000000,4.000000,4.000000,0.000000,4.000000,4.000000,4.000000,4.000000,4.000000,4.000000,4.000000,66.666664,,,,,,,,,,,,,,,,,,,,,,,,,,,,
1703153627.181752,1703153627.182209,68.000000,0.000000,4247.820313,4215.384766,4297.051270,4280.128418,4223.974121,4235.641113,4315.512695,4211.794922,4208.717773,4203.205078,4573.461426,4486.410156,4375.897461,4468.589844,5222.000000,4.000000,87.000000,,,,0.000000,4.000000,4.000000,4.000000,4.000000,4.000000,4.000000,0.000000,4.000000,4.000000,4.000000,4.000000,4.000000,4.000000,4.000000,66.666664,,,,,,,,,,,,,,,,,17.000000,0.000000,0.665610,0.381104,-0.549255,0.331726,0.982542,0.145037,0.103040,-17.354446,-29.324291,65.336952
1703153627.189560,1703153627.190017,69.000000,0.000000,4233.077148,4207.436035,4291.538574,4277.436035,4211.282227,4224.615234,4315.000000,4211.025879,4203.077148,4199.230957,4557.948730,4469.102539,4365.897461,4477.051270,5272.000000,4.000000,87.000000,,,,0.000000,4.000000,4.000000,4.000000,4.000000,4.000000,4.000000,0.000000,4.000000,4.000000,4.000000,4.000000,4.000000,4.000000,4.000000,66.666664,,,,,,,,,,,,,,,,,,,,,,,,,,,,
1703153627.197369,1703153627.197725,70.000000,0.000000,4232.436035,4202.820313,4291.282227,4272.948730,4224.230957,4221.282227,4314.102539,4207.948730,4203.205078,4198.846191,4548.205078,4469.102539,4355.128418,4466.666504,0.000000,4.000000,87.000000,,,,0.000000,4.000000,4.000000,4.000000,4.000000,4.000000,4.000000,0.000000,4.000000,4.000000,4.000000,4.000000,4.000000,4.000000,4.000000,66.666664,,,,,,,,,,,,,,,,,,,,,,,,,,,,
1703153627.205176,1703153627.205633,71.000000,0.000000,4250.000000,4208.717773,4296.538574,4275.897461,4228.333496,4229.230957,4313.333496,4212.436035,4207.307617,4199.487305,4562.179688,4481.153809,4359.230957,4461.282227,5165.000000,4.000000,87.000000,,,,0.000000,4.000000,4.000000,4.000000,4.000000,4.000000,4.000000,0.000000,4.000000,4.000000,4.000000,4.000000,4.000000,4.000000,4.000000,66.666664,,,,,,,,,,,,,,,,,,,,,,,,,,,,
1703153627.212984,1703153627.213441,72.000000,0.000000,4253.205078,4214.615234,4297.179688,4280.641113,4215.769043,4227.948730,4315.256348,4219.102539,4206.410156,4197.051270,4565.000000,4483.077148,4365.897461,4472.307617,5384.000000,4.000000,87.000000,,,,0.000000,4.000000,4.000000,4.000000,4.000000,4.000000,4.000000,0.000000,4.000000,4.000000,4.000000,4.000000,4.000000,4.000000,4.000000,66.666664,,,,,,,,,,,,,,,,,18.000000,0.000000,0.665424,0.381165,-0.549438,0.331726,0.979123,0.143572,0.095715,-17.469002,-29.291862,65.269928
1703153627.220793,1703153627.221349,73.000000,0.000000,4251.794922,4214.871582,4295.897461,4282.051270,4224.102539,4217.051270,4314.358887,4215.256348,4200.641113,4196.410156,4556.794922,4475.512695,4369.102539,4474.358887,5295.000000,4.000000,87.000000,,,,0.000000,4.000000,4.000000,4.000000,4.000000,4.000000,4.000000,0.000000,4.000000,4.000000,4.000000,4.000000,4.000000,4.000000,4.000000,66.666664,,,,,,,,,,,,,,,,,,,,,,,,,,,,
1703153627.228601,1703153627.229157,74.000000,0.000000,4261.666504,4214.615234,4298.589844,4285.641113,4240.000000,4215.384766,4311.794922,4213.077148,4206.153809,4209.102539,4569.487305,4483.077148,4380.000000,4478.461426,5948.000000,4.000000,87.000000,,,,0.000000,4.000000,4.000000,4.000000,4.000000,4.000000,4.000000,0.000000,4.000000,4.000000,4.000000,4.000000,4.000000,4.000000,4.000000,66.666664,,,,,,,,,,,,,,,,,,,,,,,,,,,,
1703153627.236409,1703153627.237065,75.000000,0.000000,4265.000000,4223.333496,4304.743652,4292.179688,4234.871582,4225.256348,4314.743652,4218.974121,4216.666504,4215.128418,4582.179688,4495.897461,4387.692383,4478.974121,6361.000000,4.000000,87.000000,,,,0.000000,4.000000,4.000000,4.000000,4.000000,4.000000,4.000000,0.000000,4.000000,4.000000,4.000000,4.000000,4.000000,4.000000,4.000000,66.666664,,,,,,,,,,,,,,,,,,,,,,,,,,,,
1703153627.244217,1703153627.244873,76.000000,0.000000,4258.846191,4228.589844,4303.846191,4294.230957,4227.692383,4230.897461,4314.615234,4219.230957,4216.282227,4210.000000,4576.025879,4490.384766,4382.563965,4463.077148,6778.000000,4.000000,87.000000,,,,0.000000,4.000000,4.000000,4.000000,4.000000,4.000000,4.000000,0.000000,4.000000,4.000000,4.000000,4.000000,4.000000,4.000000,4.000000,66.666664,,,,,,,,,,,,,,,,,19.000000,0.000000,0.665262,0.381287,-0.549438,0.331909,0.976682,0.148944,0.094738,-17.472101,-29.329344,65.159599
1703153627.252025,1703153627.252780,77.000000,0.000000,4260.256348,4222.948730,4305.000000,4294.743652,4234.102539,4229.871582,4313.205078,4214.871582,4215.128418,4212.051270,4572.436035,4489.102539,4380.897461,4461.794922,7204.000000,4.000000,87.000000,,,,0.000000,4.000000,4.000000,4.000000,4.000000,4.000000,4.000000,0.000000,4.000000,4.000000,4.000000,4.000000,4.000000,4.000000,4.000000,66.666664,,,,,,,,,,,,,,,,,,,,,,,,,,,,
1703153627.259833,1703153627.260588,78.000000,0.000000,4265.641113,4223.589844,4308.333496,4295.897461,4236.025879,4230.000000,4315.256348,4215.769043,4217.820313,4209.102539,4573.974121,4496.410156,4382.948730,4478.589844,5948.000000,4.000000,87.000000,,,,0.000000,4.000000,4.000000,4.000000,4.000000,4.000000,4.000000,0.000000,4.000000,4.000000,4.000000,4.000000,4.000000,4.000000,4.000000,66.666664,,,,,,,,,,,,,,,,,,,,,,,,,,,,
1703153627.267641,1703153627.268496,79.000000,0.000000,4261.282227,4230.384766,4301.922852,4294.871582,4233.846191,4231.666504,4313.589844,4221.794922,4213.846191,4203.205078,4571.922852,4491.410156,4382.563965,4485.769043,6361.000000,4.000000,87.000000,,,,0.000000,4.000000,4.000000,4.000000,4.000000,4.000000,4.000000,0.000000,4.000000,4.000000,4.000000,4.000000,4.000000,4.000000,4.000000,66.666664,,,,,,,,,,,,,,,,,,,,,,,,,,,,
1703153627.275449,1703153627.276304,80.000000,0.000000,4261.666504,4230.000000,4302.307617,4293.717773,4233.333496,4230.256348,4314.230957,4226.153809,4211.922852,4208.333496,4573.333496,4487.563965,4382.436035,4483.205078,6778.000000,4.000000,87.000000,,,,0.000000,4.000000,4.000000,4.000000,4.000000,4.000000,4.000000,0.000000,4.000000,4.000000,4.000000,4.000000,4.000000,4.000000,4.000000,66.666664,,,,,,,,,,,,,,,,,20.000000,0.000000,0.665232,0.381409,-0.549316,0.332031,0.964962,0.141619,0.095715,-17.558226,-29.246408,65.143639
1703153627.283257,1703153627.284212,81.000000,0.000000,4276.922852,4230.769043,4310.769043,4294.487305,4229.743652,4233.589844,4316.410156,4228.077148,4222.820313,4217.692383,4581.794922,4497.692383,4387.179688,4488.205078,7204.000000,4.000000,87.000000,,,,0.000000,4.000000,4.000000,4.000000,4.000000,4.000000,4.000000,0.000000,4.000000,4.000000,4.000000,4.000000,4.000000,4.000000,4.000000,66.666664,,,,,,,,,,,,,,,,,,,,,,,,,,,,
1703153627.291065,1703153627.292020,82.000000,0.000000,4287.051270,4233.461426,4311.794922,4296.922852,4232.948730,4240.641113,4316.410156,4232.307617,4230.897461,4224.230957,4590.000000,4506.794922,4393.205078,4493.077148,5948.000000,4.000000,87.000000,,,,0.000000,4.000000,4.000000,4.000000,4.000000,4.000000,4.000000,0.000000,4.000000,4.000000,4.000000,4.000000,4.000000,4.000000,4.000000,66.666664,,,,,,,,,,,,,,,,,,,,,,,,,,,,
1703153627.298873,1703153627.299928,83.000000,0.000000,4276.666504,4228.205078,4305.000000,4293.846191,4241.666504,4236.922852,4317.307617,4231.666504,4228.589844,4223.205078,4585.512695,4499.102539,4388.717773,4481.538574,6361.000000,4.000000,87.000000,,,,0.000000,4.000000,4.000000,4.000000,4.000000,4.000000,4.000000,0.000000,4.000000,4.000000,4.000000,4.000000,4.000000,4.000000,4.000000,66.666664,,,,,,,,,,,,,,,,,,,,,,,,,,,,
1703153627.306681,1703153627.307736,84.000000,0.000000,4264.743652,4226.538574,4296.922852,4287.051270,4241.922852,4230.641113,4316.410156,4226.794922,4225.000000,4213.077148,4580.897461,4487.692383,4389.102539,4476.922852,6778.000000,4.000000,87.000000,,,,0.000000,4.000000,4.000000,4.000000,4.000000,4.000000,4.000000,0.000000,4.000000,4.000000,4.000000,4.000000,4.000000,4.000000,4.000000,66.666664,,,,,,,,,,,,,,,,,21.000000,0.000000,0.665278,0.381348,-0.549377,0.331909,0.981565,0.144061,0.100598,-17.552402,-29.255100,65.162605
1703153627.314489,1703153627.315444,85.000000,0.000000,4273.589844,4230.641113,4299.871582,4289.871582,4236.025879,4233.333496,4316.282227,4228.461426,4220.769043,4211.538574,4587.692383,4495.256348,4395.000000,4497.563965,7204.000000,4.000000,87.000000,,,,0.000000,4.000000,4.000000,4.000000,4.000000,4.000000,4.000000,0.000000,4.000000,4.000000,4.000000,4.000000,4.000000,4.000000,4.000000,66.666664,,,,,,,,,,,,,,,,,,,,,,,,,,,,
1703153627.322297,1703153627.323252,86.000000,0.000000,4283.333496,4232.436035,4309.358887,4296.794922,4233.077148,4236.025879,4314.487305,4231.153809,4220.769043,4218.589844,4588.205078,4506.666504,4388.717773,4503.205078,5948.000000,4.000000,87.000000,,,,0.000000,4.000000,4.000000,4.000000,4.000000,4.000000,4.000000,0.000000,4.000000,4.000000,4.000000,4.000000,4.000000,4.000000,4.000000,66.666664,,,,,,,,,,,,,,,,,,,,,,,,,,,,
1703153627.330105,1703153627.330960,87.000000,0.000000,4275.128418,4234.358887,4310.512695,4296.538574,4231.282227,4232.179688,4312.436035,4229.871582,4229.230957,4215.641113,4590.256348,4506.282227,4390.256348,4486.282227,6361.000000,4.000000,87.000000,,,,0.000000,4.000000,4.000000,4.000000,4.000000,4.000000,4.000000,0.000000,4.000000,4.000000,4.000000,4.000000,4.000000,4.000000,4.000000,66.666664,,,,,,,,,,,,,,,,,,,,,,,,,,,,
1703153627.337913,1703153627.338768,88.000000,0.000000,4268.717773,4234.615234,4307.820313,4294.102539,4236.538574,4228.589844,4316.538574,4230.256348,4230.769043,4206.153809,4593.589844,4499.230957,4398.461426,4485.000000,6778.000000,4.000000,87.000000,,,,0.000000,4.000000,4.000000,4.000000,4.000000,4.000000,4.000000,0.000000,4.000000,4.000000,4.000000,4.000000,4.000000,4.000000,4.000000,66.666664,,,,,,,,,,,,,,,,,22.000000,0.000000,0.665393,0.381165,-0.549438,0.331787,0.986937,0.162129,0.103040,-17.697163,-29.146257,65.196350
1703153627.345721,1703153627.346476,89.000000,0.000000,4271.282227,4231.666504,4304.102539,4293.077148,4243.205078,4230.256348,4317.307617,4232.179688,4227.307617,4206.922852,4589.358887,4492.948730,4394.358887,4494.743652,7204.000000,4.000000,87.000000,,,,0.000000,4.000000,4.000000,4.000000,4.000000,4.000000,4.000000,0.000000,4.000000,4.000000,4.000000,4.000000,4.000000,4.000000,4.000000,66.666664,,,,,,,,,,,,,,,,,,,,,,,,,,,,
1703153627.353529,1703153627.354284,90.000000,0.000000,4272.820313,4231.538574,4301.025879,4290.897461,4238.077148,4232.563965,4314.871582,4228.846191,4227.051270,4211.153809,4589.102539,4494.358887,4392.179688,4491.282227,5948.000000,4.000000,87.000000,,,,0.000000,4.000000,4.000000,4.000000,4.000000,4.000000,4.000000,0.000000,4.000000,4.000000,4.000000,4.000000,4.000000,4.000000,4.000000,66.666664,,,,,,,,,,,,,,,,,,,,,,,,,,,,
1703153627.361337,1703153627.361992,91.000000,0.000000,4271.153809,4230.769043,4304.102539,4288.717773,4225.769043,4226.538574,4316.410156,4220.256348,4222.820313,4207.307617,4586.922852,4492.948730,4393.461426,4480.512695,6361.000000,4.000000,87.000000,,,,0.000000,4.000000,4.000000,4.000000,4.000000,4.000000,4.000000,0.000000,4.000000,4.000000,4.000000,4.000000,4.000000,4.000000,4.000000,66.666664,,,,,,,,,,,,,,,,,,,,,,,,,,,,
1703153627.369146,1703153627.369800,92.000000,0.000000,4266.794922,4222.948730,4299.615234,4284.743652,4217.179688,4224.871582,4317.563965,4220.256348,4222.307617,4205.512695,4581.794922,4483.846191,4388.461426,4477.820313,6778.000000,4.000000,87.000000,,,,0.000000,4.000000,4.000000,4.000000,4.000000,4.000000,4.000000,0.000000,4.000000,4.000000,4.000000,4.000000,4.000000,4.000000,4.000000,66.666664,,,,,,,,,,,,,,,,,23.000000,0.000000,0.665399,0.381226,-0.549500,0.331604,0.981077,0.162129,0.105970,-17.444113,-29.081633,65.043381
1703153627.376953,1703153627.377508,93.000000,0.000000,4257.307617,4215.641113,4291.153809,4278.974121,4218.589844,4230.769043,4317.179688,4220.256348,4221.922852,4203.974121,4576.153809,4475.641113,4380.128418,4473.717773,7204.000000,4.000000,87.000000,,,,0.000000,4.000000,4.000000,4.000000,4.000000,4.000000,4.000000,0.000000,4.000000,4.000000,4.000000,4.000000,4.000000,4.000000,4.000000,66.666664,,,,,,,,,,,,,,,,,,,,,,,,,,,,
1703153627.384761,1703153627.385316,94.000000,0.000000,4250.000000,4215.128418,4292.692383,4278.333496,4226.025879,4225.641113,4311.666504,4213.461426,4213.974121,4201.025879,4569.743652,4473.333496,4377.948730,4469.871582,5948.000000,4.000000,87.000000,,,,0.000000,4.000000,4.000000,4.000000,4.000000,4.000000,4.000000,0.000000,4.000000,4.000000,4.000000,4.000000,4.000000,4.000000,4.000000,66.666664,,,,,,,,,,,,,,,,,,,,,,,,,,,,
1703153627.392570,1703153627.393024,95.000000,0.000000,4253.974121,4219.871582,4293.717773,4280.000000,4229.102539,4221.410156,4309.487305,4218.589844,4219.743652,4205.897461,4576.025879,4482.179688,4387.179688,4478.589844,6361.000000,4.000000,87.000000,,,,0.000000,4.000000,4.000000,4.000000,4.000000,4.000000,4.000000,0.000000,4.000000,4.000000,4.000000,4.000000,4.000000,4.000000,4.000000,66.666664,,,,,,,,,,,,,,,,,,,,,,,,,,,,
1703153627.400378,1703153627.400832,96.000000,0.000000,4266.025879,4224.230957,4293.205078,4280.256348,4226.794922,4225.000000,4315.641113,4228.333496,4225.512695,4208.717773,4587.436035,4489.615234,4394.230957,4482.820313,6778.000000,4.000000,87.000000,,,,0.000000,4.000000,4.000000,4.000000,4.000000,4.000000,4.000000,0.000000,4.000000,4.000000,4.000000,4.000000,4.000000,4.000000,4.000000,66.666664,,,,,,,,,,,,,,,,,24.000000,0.000000,0.665379,0.381226,-0.549561,0.331543,0.975217,0.151874,0.101575,-17.533035,-29.023468,65.155708
1703153627.408186,1703153627.408540,97.000000,0.000000,4271.410156,4221.025879,4294.743652,4280.512695,4222.820313,4222.179688,4315.384766,4227.820313,4222.692383,4208.717773,4588.205078,4487.307617,4395.512695,4482.948730,7204.000000,4.000000,87.000000,,,,0.000000,4.000000,4.000000,4.000000,4.000000,4.000000,4.000000,0.000000,4.000000,4.000000,4.000000,4.000000,4.000000,4.000000,4.000000,66.666664,,,,,,,,,,,,,,,,,,,,,,,,,,,,
1703153627.415994,1703153627.416348,98.000000,0.000000,4267.051270,4216.282227,4299.871582,4280.641113,4215.641113,4218.077148,4314.487305,4231.282227,4231.282227,4213.717773,4588.461426,4491.410156,4397.692383,4488.077148,5948.000000,4.000000,87.000000,,,,0.000000,4.000000,4.000000,4.000000,4.000000,4.000000,4.000000,0.000000,4.000000,4.000000,4.000000,4.000000,4.000000,4.000000,4.000000,66.666664,,,,,,,,,,,,,,,,,,,,,,,,,,,,
1703153627.423802,1703153627.424056,99.000000,0.000000,4265.512695,4218.589844,4304.230957,4280.384766,4215.512695,4223.333496,4317.563965,4233.974121,4231.410156,4207.948730,4587.692383,4494.487305,4391.282227,4486.794922,6361.000000,4.000000,87.000000,,,,0.000000,4.000000,4.000000,4.000000,4.000000,4.000000,4.000000,0.000000,4.000000,4.000000,4.000000,4.000000,4.000000,4.000000,4.000000,66.666664,,,,,,,,,,,,,,,,,,,,,,,,,,,,
1703153627.431610,1703153627.431964,100.000000,0.000000,4263.333496,4215.000000,4297.948730,4278.589844,4223.205078,4226.538574,4316.282227,4221.666504,4214.743652,4197.436035,4581.794922,4483.461426,4384.230957,4487.307617,6778.000000,4.000000,87.000000,,,,0.000000,4.000000,4.000000,4.000000,4.000000,4.000000,4.000000,0.000000,4.000000,4.000000,4.000000,4.000000,4.000000,4.000000,4.000000,66.666664,,,,,,,,,,,,,,,,,25.000000,0.000000,0.665294,0.381409,-0.549500,0.331604,0.981565,0.137712,0.101087,-17.479731,-29.004456,65.140137
1703153627.439418,1703153627.439772,101.000000,0.000000,4262.820313,4205.897461,4293.461426,4276.410156,4222.948730,4229.871582,4315.384766,4214.743652,4212.692383,4198.974121,4577.051270,4474.487305,4387.179688,4492.307617,7204.000000,4.000000,87.000000,,,,0.000000,4.000000,4.000000,4.000000,4.000000,4.000000,4.000000,0.000000,4.000000,4.000000,4.000000,4.000000,4.000000,4.000000,4.000000,66.666664,,,,,,,,,,,,,,,,,,,,,,,,,,,,
1703153627.447226,1703153627.447680,102.000000,0.000000,4263.974121,4210.256348,4295.000000,4276.153809,4217.436035,4232.051270,4313.846191,4218.717773,4220.384766,4201.666504,4572.307617,4475.769043,4385.384766,4484.615234,5948.000000,4.000000,87.000000,,,,0.000000,4.000000,4.000000,4.000000,4.000000,4.000000,4.000000,0.000000,4.000000,4.000000,4.000000,4.000000,4.000000,4.000000,4.000000,66.666664,1.000000,66.666664,4.000000,4.000000,4.000000,4.000000,4.000000,4.000000,0.000000,4.000000,4.000000,4.000000,4.000000,4.000000,4.000000,4.000000,,,,,,,,,,,,
1703153627.455034,1703153627.455488,103.000000,0.000000,4255.256348,4219.358887,4293.589844,4276.153809,4213.205078,4222.051270,4312.436035,4217.436035,4214.230957,4198.717773,4566.538574,4475.897461,4376.410156,4475.769043,6361.000000,4.000000,87.000000,,,,0.000000,4.000000,4.000000,4.000000,4.000000,4.000000,4.000000,0.000000,4.000000,4.000000,4.000000,4.000000,4.000000,4.000000,4.000000,66.666664,,,,,,,,,,,,,,,,,,,,,,,,,,,,
1703153627.462842,1703153627.463396,104.000000,0.000000,4246.538574,4213.974121,4290.512695,4272.307617,4212.307617,4214.230957,4314.743652,4213.974121,4204.615234,4193.846191,4560.512695,4467.692383,4370.512695,4465.769043,6778.000000,4.000000,87.000000,,,,0.000000,4.000000,4.000000,4.000000,4.000000,4.000000,4.000000,0.000000,4.000000,4.000000,4.000000,4.000000,4.000000,4.000000,4.000000,66.666664,,,,,,,,,,,,,,,,,26.000000,0.000000,0.665284,0.381409,-0.549438,0.331726,0.991820,0.141131,0.095715,-17.415092,-28.970676,65.226120
1703153627.470650,1703153627.471204,105.000000,0.000000,4247.692383,4202.436035,4284.871582,4265.512695,4214.743652,4216.666504,4315.128418,4215.641113,4204.230957,4187.948730,4557.692383,4460.769043,4367.436035,4452.820313,7204.000000,4.000000,87.000000,,,,0.000000,4.000000,4.000000,4.000000,4.000000,4.000000,4.000000,0.000000,4.000000,4.000000,4.000000,4.000000,4.000000,4.000000,4.000000,66.666664,,,,,,,,,,,,,,,,,,,,,,,,,,,,
1703153627.478458,1703153627.479112,106.000000,0.000000,4248.205078,4200.769043,4278.717773,4264.358887,4218.846191,4218.205078,4316.282227,4211.794922,4196.922852,4176.153809,4548.589844,4457.436035,4356.025879,4452.051270,5948.000000,4.000000,87.000000,,,,0.000000,4.000000,4.000000,4.000000,4.000000,4.000000,4.000000,0.000000,4.000000,4.000000,4.000000,4.000000,4.000000,4.000000,4.000000,66.666664,,,,,,,,,,,,,,,,,,,,,,,,,,,,
1703153627.486266,1703153627.486920,107.000000,0.000000,4240.897461,4202.948730,4275.384766,4265.128418,4220.128418,4219.102539,4315.769043,4206.794922,4189.871582,4169.487305,4537.307617,4450.897461,4343.974121,4458.974121,6361.000000,4.000000,87.000000,,,,0.000000,4.000000,4.000000,4.000000,4.000000,4.000000,4.000000,0.000000,4.000000,4.000000,4.000000,4.000000,4.000000,4.000000,4.000000,66.666664,,,,,,,,,,,,,,,,,,,,,,,,,,,,
1703153627.494074,1703153627.494628,108.000000,0.000000,4239.487305,4202.179688,4276.922852,4263.846191,4213.589844,4221.282227,4313.205078,4215.384766,4208.077148,4184.358887,4550.641113,4455.384766,4357.820313,4470.769043,6778.000000,4.000000,87.000000,,,,0.000000,4.000000,4.000000,4.000000,4.000000,4.000000,4.000000,0.000000,4.000000,4.000000,4.000000,4.000000,4.000000,4.000000,4.000000,66.666664,,,,,,,,,,,,,,,,,27.000000,0.000000,0.665218,0.381348,-0.549561,0.331726,0.970822,0.150897,0.105482,-17.223583,-29.023609,65.336845
1703153627.501882,1703153627.502436,109.000000,0.000000,4247.563965,4207.563965,4284.743652,4269.102539,4210.897461,4218.974121,4315.897461,4217.820313,4216.922852,4195.641113,4564.358887,4465.769043,4372.051270,4468.846191,7204.000000,4.000000,87.000000,,,,0.000000,4.000000,4.000000,4.000000,4.000000,4.000000,4.000000,0.000000,4.000000,4.000000,4.000000,4.000000,4.000000,4.000000,4.000000,66.666664,,,,,,,,,,,,,,,,,,,,,,,,,,,,
1703153627.509690,1703153627.510144,110.000000,0.000000,4250.128418,4212.051270,4284.230957,4272.948730,4214.615234,4211.410156,4315.641113,4212.179688,4203.717773,4190.256348,4555.769043,4462.051270,4368.717773,4461.538574,5948.000000,4.000000,87.000000,,,,0.000000,4.000000,4.000000,4.000000,4.000000,4.000000,4.000000,0.000000,4.000000,4.000000,4.000000,4.000000,4.000000,4.000000,4.000000,66.666664,,,,,,,,,,,,,,,,,,,,,,,,,,,,
1703153627.517498,1703153627.517952,111.000000,0.000000,4246.282227,4205.641113,4278.333496,4268.461426,4213.717773,4207.692383,4314.871582,4211.666504,4204.487305,4195.384766,4558.333496,4461.025879,4374.871582,4471.794922,6361.000000,4.000000,87.000000,,,,0.000000,4.000000,4.000000,4.000000,4.000000,4.000000,4.000000,0.000000,4.000000,4.000000,4.000000,4.000000,4.000000,4.000000,4.000000,66.666664,,,,,,,,,,,,,,,,,,,,,,,,,,,,
1703153627.525306,1703153627.525660,112.000000,0.000000,4249.230957,4200.512695,4282.692383,4267.948730,4205.128418,4210.641113,4316.153809,4210.000000,4211.153809,4207.563965,4572.692383,4473.333496,4383.461426,4472.563965,6778.000000,4.000000,87.000000,,,,0.000000,4.000000,4.000000,4.000000,4.000000,4.000000,4.000000,0.000000,4.000000,4.000000,4.000000,4.000000,4.000000,4.000000,4.000000,66.666664,,,,,,,,,,,,,,,,,28.000000,0.000000,0.665298,0.381226,-0.549622,0.331604,0.978147,0.162129,0.086925,-17.151224,-28.921247,65.453163
1703153627.533114,1703153627.533468,113.000000,0.000000,4252.179688,4203.846191,4284.358887,4269.615234,4201.538574,4213.846191,4312.692383,4210.384766,4209.487305,4204.102539,4572.179688,4480.512695,4380.128418,4462.948730,7204.000000,4.000000,87.000000,,,,0.000000,4.000000,4.000000,4.000000,4.000000,4.000000,4.000000,0.000000,4.000000,4.000000,4.000000,4.000000,4.000000,4.000000,4.000000,66.666664,,,,,,,,,,,,,,,,,,,,,,,,,,,,
1703153627.540923,1703153627.541176,114.000000,0.000000,4246.410156,4208.077148,4279.871582,4266.922852,4208.589844,4215.000000,4315.128418,4217.436035,4214.743652,4202.179688,4566.794922,4473.974121,4378.974121,4470.512695,5948.000000,4.000000,87.000000,,,,0.000000,4.000000,4.000000,4.000000,4.000000,4.000000,4.000000,0.000000,4.000000,4.000000,4.000000,4.000000,4.000000,4.000000,4.000000,66.666664,,,,,,,,,,,,,,,,,,,,,,,,,,,,
1703153627.548730,1703153627.548984,115.000000,0.000000,4245.897461,4210.769043,4281.922852,4267.563965,4216.410156,4215.641113,4318.974121,4215.641113,4218.205078,4204.487305,4566.922852,4469.102539,4379.487305,4481.794922,6361.000000,4.000000,87.000000,,,,0.000000,4.000000,4.000000,4.000000,4.000000,4.000000,4.000000,0.000000,4.000000,4.000000,4.000000,4.000000,4.000000,4.000000,4.000000,66.666664,,,,,,,,,,,,,,,,,,,,,,,,,,,,
1703153627.556538,1703153627.556692,116.000000,0.000000,4248.333496,4213.077148,4282.436035,4273.974121,4215.128418,4213.717773,4315.384766,4210.128418,4209.487305,4196.538574,4563.974121,4472.820313,4375.512695,4478.846191,6778.000000,4.000000,87.000000,,,,0.000000,4.000000,4.000000,4.000000,4.000000,4.000000,4.000000,0.000000,4.000000,4.000000,4.000000,4.000000,4.000000,4.000000,4.000000,66.666664,,,,,,,,,,,,,,,,,29.000000,0.000000,0.665238,0.381226,-0.549805,0.331421,0.982542,0.149432,0.093273,-17.286102,-28.812456,65.341179
1703153627.564347,1703153627.564500,117.000000,0.000000,4250.128418,4215.641113,4279.102539,4277.820313,4212.948730,4213.974121,4314.615234,4213.461426,4203.461426,4187.436035,4557.051270,4468.461426,4372.948730,4471.153809,7204.000000,4.000000,87.000000,,,,0.000000,4.000000,4.000000,4.000000,4.000000,4.000000,4.000000,0.000000,4.000000,4.000000,4.000000,4.000000,4.000000,4.000000,4.000000,66.666664,,,,,,,,,,,,,,,,,,,,,,,,,,,,
1703153627.572155,1703153627.572208,118.000000,0.000000,4252.436035,4217.436035,4279.230957,4279.358887,4218.333496,4217.563965,4316.410156,4216.794922,4202.948730,4187.307617,4554.871582,4460.384766,4372.307617,4467.307617,5948.000000,4.000000,87.000000,,,,0.000000,4.000000,4.000000,4.000000,4.000000,4.000000,4.000000,0.000000,4.000000,4.000000,4.000000,4.000000,4.000000,4.000000,4.000000,66.666664,,,,,,,,,,,,,,,,,,,,,,,,,,,,
1703153627.579963,1703153627.580016,119.000000,0.000000,4250.641113,4218.461426,4281.538574,4280.384766,4214.358887,4212.820313,4315.256348,4214.230957,4201.538574,4183.077148,4553.333496,4463.205078,4368.333496,4460.769043,6361.000000,4.000000,87.000000,,,,0.000000,4.000000,4.000000,4.000000,4.000000,4.000000,4.000000,0.000000,4.000000,4.000000,4.000000,4.000000,4.000000,4.000000,4.000000,66.666664,,,,,,,,,,,,,,,,,,,,,,,,,,,,
1703153627.587771,1703153627.587724,120.000000,0.000000,4246.922852,4215.128418,4277.436035,4276.282227,4206.153809,4208.974121,4315.000000,4207.436035,4201.025879,4176.410156,4547.179688,4465.897461,4363.974121,4446.922852,6778.000000,4.000000,87.000000,,,,0.000000,4.000000,4.000000,4.000000,4.000000,4.000000,4.000000,0.000000,4.000000,4.000000,4.000000,4.000000,4.000000,4.000000,4.000000,66.666664,,,,,,,,,,,,,,,,,30.000000,0.000000,0.665204,0.381409,-0.549683,0.331482,0.973263,0.143572,0.105970,-17.207491,-28.781210,65.340393
1703153627.595579,1703153627.595532,121.000000,0.000000,4246.153809,4208.589844,4271.538574,4269.230957,4213.589844,4214.230957,4315.256348,4201.666504,4200.384766,4181.538574,4542.692383,4461.025879,4362.563965,4449.102539,7204.000000,4.000000,87.000000,,,,0.000000,4.000000,4.000000,4.000000,4.000000,4.000000,4.000000,0.000000,4.000000,4.000000,4.000000,4.000000,4.000000,4.000000,4.000000,66.666664,,,,,,,,,,,,,,,,,,,,,,,,,,,,
1703153627.603387,1703153627.603240,122.000000,0.000000,4245.769043,4205.897461,4270.384766,4263.974121,4222.436035,4217.179688,4314.743652,4200.641113,4192.692383,4182.051270,4535.128418,4450.641113,4361.410156,4458.589844,5948.000000,4.000000,87.000000,,,,0.000000,4.000000,4.000000,4.000000,4.000000,4.000000,4.000000,0.000000,4.000000,4.000000,4.000000,4.000000,4.000000,4.000000,4.000000,66.666664,,,,,,,,,,,,,,,,,,,,,,,,,,,,
1703153627.611195,1703153627.611148,123.000000,0.000000,4239.487305,4205.897461,4265.897461,4263.333496,4213.205078,4214.743652,4311.666504,4199.487305,4185.897461,4176.538574,4531.025879,4441.794922,4358.846191,4451.538574,6361.000000,4.000000,87.000000,,,,0.000000,4.000000,4.000000,4.000000,4.000000,4.000000,4.000000,0.000000,4.000000,4.000000,4.000000,4.000000,4.000000,4.000000,4.000000,66.666664,,,,,,,,,,,,,,,,,,,,,,,,,,,,
1703153627.619003,1703153627.618956,124.000000,0.000000,4231.410156,4200.897461,4267.436035,4263.205078,4202.563965,4210.897461,4313.333496,4201.282227,4193.717773,4179.487305,4539.743652,4448.205078,4361.282227,4457.307617,6778.000000,4.000000,87.000000,,,,0.000000,4.000000,4.000000,4.000000,4.000000,4.000000,4.000000,0.000000,4.000000,4.000000,4.000000,4.000000,4.000000,4.000000,4.000000,66.666664,,,,,,,,,,,,,,,,,31.000000,0.000000,0.665259,0.381470,-0.549500,0.331604,0.994262,0.154316,0.102552,-17.270075,-28.786423,65.389687
1703153627.626811,1703153627.626864,125.000000,0.000000,4232.051270,4198.974121,4276.153809,4264.102539,4201.666504,4212.051270,4318.205078,4209.230957,4202.051270,4181.922852,4547.179688,4460.384766,4366.153809,4472.051270,7204.000000,4.000000,87.000000,,,,0.000000,4.000000,4.000000,4.000000,4.000000,4.000000,4.000000,0.000000,4.000000,4.000000,4.000000,4.000000,4.000000,4.000000,4.000000,66.666664,,,,,,,,,,,,,,,,,,,,,,,,,,,,
1703153627.634619,1703153627.634672,126.000000,0.000000,4237.692383,4202.948730,4271.922852,4267.179688,4202.948730,4213.846191,4314.615234,4218.077148,4203.333496,4182.051270,4549.358887,4467.051270,4370.769043,4464.102539,5948.000000,4.000000,87.000000,,,,0.000000,4.000000,4.000000,4.000000,4.000000,4.000000,4.000000,0.000000,4.000000,4.000000,4.000000,4.000000,4.000000,4.000000,4.000000,66.666664,,,,,,,,,,,,,,,,,,,,,,,,,,,,
1703153627.642427,1703153627.642580,127.000000,0.000000,4236.666504,4201.922852,4269.615234,4267.307617,4208.077148,4212.307617,4313.205078,4217.436035,4202.948730,4187.179688,4548.333496,4469.487305,4367.948730,4458.846191,87.000000,4.000000,87.000000,,,,0.000000,4.000000,4.000000,4.000000,4.000000,4.000000,4.000000,0.000000,4.000000,4.000000,4.000000,4.000000,4.000000,4.000000,4.000000,66.666664,,,,,,,,,,,,,,,,,,,,,,,,,,,,
1703153627.650235,1703153627.650388,0.000000,0.000000,4229.615234,4199.871582,4277.179688,4265.769043,4208.717773,4210.128418,4315.000000,4212.436035,4197.563965,4186.538574,4546.153809,4466.153809,4362.179688,4465.256348,5313.000000,4.000000,87.000000,,,,0.000000,4.000000,4.000000,4.000000,4.000000,4.000000,4.000000,0.000000,4.000000,4.000000,4.000000,4.000000,4.000000,4.000000,4.000000,66.666664,,,,,,,,,,,,,,,,,0.000000,0.000000,0.665275,0.381531,-0.549438,0.331604,0.978635,0.148456,0.096203,-17.326401,-28.791115,65.634048
1703153627.658043,1703153627.658295,1.000000,0.000000,4231.025879,4202.563965,4279.743652,4267.179688,4198.205078,4208.333496,4313.717773,4213.974121,4191.282227,4182.692383,4549.871582,4467.563965,4369.102539,4464.358887,5576.000000,4.000000,87.000000,,,,0.000000,4.000000,4.000000,4.000000,4.000000,4.000000,4.000000,0.000000,4.000000,4.000000,4.000000,4.000000,4.000000,4.000000,4.000000,66.666664,,,,,,,,,,,,,,,,,,,,,,,,,,,,
1703153627.665851,1703153627.666103,2.000000,0.000000,4233.205078,4203.846191,4282.307617,4273.589844,4196.922852,4205.128418,4315.512695,4210.769043,4189.487305,4183.333496,4549.230957,4468.461426,4370.512695,4458.589844,5400.000000,4.000000,87.000000,,,,0.000000,4.000000,4.000000,4.000000,4.000000,4.000000,4.000000,0.000000,4.000000,4.000000,4.000000,4.000000,4.000000,4.000000,4.000000,66.666664,,,,,,,,,,,,,,,,,,,,,,,,,,,,
1703153627.673659,1703153627.674011,3.000000,0.000000,4215.769043,4201.794922,4278.974121,4275.256348,4208.717773,4200.512695,4314.487305,4201.025879,4188.205078,4184.743652,4538.205078,4451.410156,4360.384766,4453.846191,5407.000000,4.000000,87.000000,,,,0.000000,4.000000,4.000000,4.000000,4.000000,4.000000,4.000000,0.000000,4.000000,4.000000,4.000000,4.000000,4.000000,4.000000,4.000000,66.666664,,,,,,,,,,,,,,,,,,,,,,,,,,,,
1703153627.681467,1703153627.681819,4.000000,0.000000,4200.641113,4197.820313,4272.563965,4267.820313,4209.743652,4202.820313,4313.589844,4197.948730,4187.563965,4185.128418,4532.820313,4440.897461,4361.538574,4449.615234,5227.000000,4.000000,87.000000,,,,0.000000,4.000000,4.000000,4.000000,4.000000,4.000000,4.000000,0.000000,4.000000,4.000000,4.000000,4.000000,4.000000,4.000000,4.000000,66.666664,,,,,,,,,,,,,,,,,1.000000,0.000000,0.665294,0.381287,-0.549622,0.331543,0.981565,0.145526,0.105482,-17.493761,-28.945335,65.920647
1703153627.689275,1703153627.689727,5.000000,0.000000,4200.769043,4197.563965,4274.743652,4263.974121,4201.666504,4207.692383,4316.153809,4194.230957,4184.743652,4176.794922,4525.897461,4441.922852,4360.897461,4446.153809,5267.000000,4.000000,87.000000,,,,0.000000,4.000000,4.000000,4.000000,4.000000,4.000000,4.000000,0.000000,4.000000,4.000000,4.000000,4.000000,4.000000,4.000000,4.000000,66.666664,,,,,,,,,,,,,,,,,,,,,,,,,,,,
1703153627.697083,1703153627.697535,6.000000,0.000000,4193.333496,4199.358887,4271.410156,4264.102539,4202.948730,4204.487305,4315.897461,4191.794922,4187.051270,4174.743652,4522.820313,4439.743652,4356.025879,4443.589844,0.000000,4.000000,87.000000,,,,0.000000,4.000000,4.000000,4.000000,4.000000,4.000000,4.000000,0.000000,4.000000,4.000000,4.000000,4.000000,4.000000,4.000000,4.000000,66.666664,,,,,,,,,,,,,,,,,,,,,,,,,,,,
1703153627.704891,1703153627.705243,7.000000,0.000000,4190.000000,4201.666504,4271.538574,4264.615234,4205.641113,4201.922852,4315.384766,4199.615234,4193.974121,4185.512695,4535.769043,4449.102539,4361.410156,4444.358887,5165.000000,4.000000,87.000000,,,,0.000000,4.000000,4.000000,4.000000,4.000000,4.000000,4.000000,0.000000,4.000000,4.000000,4.000000,4.000000,4.000000,4.000000,4.000000,66.666664,,,,,,,,,,,,,,,,,,,,,,,,,,,,
1703153627.712700,1703153627.713051,8.000000,0.000000,4193.205078,4197.436035,4276.922852,4264.743652,4199.615234,4207.051270,4315.000000,4203.974121,4198.333496,4188.461426,4540.512695,4457.307617,4366.282227,4446.794922,5387.000000,4.000000,87.000000,,,,0.000000,4.000000,4.000000,4.000000,4.000000,4.000000,4.000000,0.000000,4.000000,4.000000,4.000000,4.000000,4.000000,4.000000,4.000000,66.666664,,,,,,,,,,,,,,,,,2.000000,0.000000,0.665216,0.380981,-0.549927,0.331543,0.986937,0.135759,0.094250,-17.744385,-29.150803,65.945251
1703153627.720508,1703153627.720759,9.000000,0.000000,4190.256348,4189.615234,4271.794922,4261.282227,4198.717773,4208.974121,4314.358887,4200.641113,4198.717773,4183.333496,4533.589844,4447.436035,4366.153809,4452.948730,5305.000000,4.000000,87.000000,,,,0.000000,4.000000,4.000000,4.000000,4.000000,4.000000,4.000000,0.000000,4.000000,4.000000,4.000000,4.000000,4.000000,4.000000,4.000000,66.666664,,,,,,,,,,,,,,,,,,,,,,,,,,,,
1703153627.728315,1703153627.728667,10.000000,0.000000,4189.487305,4192.820313,4270.384766,4265.512695,4208.846191,4205.384766,4316.282227,4200.256348,4194.871582,4183.717773,4532.307617,4441.666504,4367.820313,4461.666504,5958.000000,4.000000,87.000000,,,,0.000000,4.000000,4.000000,4.000000,4.000000,4.000000,4.000000,0.000000,4.000000,4.000000,4.000000,4.000000,4.000000,4.000000,4.000000,66.666664,,,,,,,,,,,,,,,,,,,,,,,,,,,,
1703153627.736124,1703153627.736476,11.000000,0.000000,4190.641113,4200.128418,4275.897461,4272.179688,4209.358887,4212.436035,4316.410156,4202.307617,4190.000000,4186.666504,4537.307617,4447.436035,4371.025879,4465.000000,6359.000000,4.000000,87.000000,,,,0.000000,4.000000,4.000000,4.000000,4.000000,4.000000,4.000000,0.000000,4.000000,4.000000,4.000000,4.000000,4.000000,4.000000,4.000000,66.666664,,,,,,,,,,,,,,,,,,,,,,,,,,,,
1703153627.743932,1703153627.744384,12.000000,0.000000,4191.025879,4197.436035,4273.589844,4266.794922,4200.000000,4218.333496,4315.128418,4197.820313,4187.820313,4176.025879,4533.205078,4447.436035,4366.666504,4458.077148,6785.000000,4.000000,87.000000,,,,0.000000,4.000000,4.000000,4.000000,4.000000,4.000000,4.000000,0.000000,4.000000,4.000000,4.000000,4.000000,4.000000,4.000000,4.000000,66.666664,,,,,,,,,,,,,,,,,3.000000,0.000000,0.665199,0.380676,-0.550049,0.331726,0.981565,0.147479,0.105970,-17.903280,-29.185722,65.867393
1703153627.751740,1703153627.752192,13.000000,0.000000,4199.871582,4194.743652,4272.436035,4263.846191,4198.077148,4209.230957,4313.589844,4191.410156,4186.794922,4168.589844,4525.384766,4444.358887,4359.487305,4451.922852,7219.000000,4.000000,87.000000,,,,0.000000,4.000000,4.000000,4.000000,4.000000,4.000000,4.000000,0.000000,4.000000,4.000000,4.000000,4.000000,4.000000,4.000000,4.000000,66.666664,,,,,,,,,,,,,,,,,,,,,,,,,,,,
1703153627.759548,1703153627.760100,14.000000,0.000000,4202.948730,4198.717773,4277.948730,4271.922852,4201.153809,4200.000000,4314.230957,4190.641113,4185.128418,4177.436035,4530.384766,4451.025879,4364.615234,4457.692383,5958.000000,4.000000,87.000000,,,,0.000000,4.000000,4.000000,4.000000,4.000000,4.000000,4.000000,0.000000,4.000000,4.000000,4.000000,4.000000,4.000000,4.000000,4.000000,66.666664,,,,,,,,,,,,,,,,,,,,,,,,,,,,
1703153627.767356,1703153627.767908,15.000000,0.000000,4197.820313,4201.282227,4279.871582,4275.897461,4200.256348,4196.538574,4318.461426,4187.692383,4181.922852,4180.256348,4530.128418,4451.538574,4368.717773,4457.307617,6359.000000,4.000000,87.000000,,,,0.000000,4.000000,4.000000,4.000000,4.000000,4.000000,4.000000,0.000000,4.000000,4.000000,4.000000,4.000000,4.000000,4.000000,4.000000,66.666664,,,,,,,,,,,,,,,,,,,,,,,,,,,,
1703153627.775164,1703153627.775716,16.000000,0.000000,4203.461426,4201.794922,4276.153809,4275.000000,4201.025879,4197.692383,4314.358887,4185.897461,4187.307617,4175.256348,4525.641113,4447.179688,4363.589844,4451.282227,0.000000,4.000000,87.000000,,,,0.000000,4.000000,4.000000,4.000000,4.000000,4.000000,4.000000,0.000000,4.000000,4.000000,4.000000,4.000000,4.000000,4.000000,4.000000,66.666664,,,,,,,,,,,,,,,,,4.000000,0.000000,0.665249,0.380676,-0.549988,0.331726,0.988890,0.147479,0.093273,-17.946285,-29.233816,65.697319
1703153627.782972,1703153627.783424,17.000000,0.000000,4200.641113,4200.512695,4276.025879,4275.512695,4203.461426,4202.436035,4312.563965,4192.307617,4196.538574,4181.666504,4531.153809,4452.436035,4364.102539,4453.974121,0.000000,4.000000,87.000000,,,,0.000000,4.000000,4.000000,4.000000,4.000000,4.000000,4.000000,0.000000,4.000000,4.000000,4.000000,4.000000,4.000000,4.000000,4.000000,66.666664,,,,,,,,,,,,,,,,,,,,,,,,,,,,
1703153627.790780,1703153627.791332,18.000000,0.000000,4186.025879,4199.743652,4276.025879,4272.436035,4201.794922,4203.333496,4319.358887,4197.051270,4193.846191,4187.307617,4531.282227,4451.794922,4368.205078,4447.307617,0.000000,4.000000,87.000000,,,,0.000000,4.000000,4.000000,4.000000,4.000000,4.000000,4.000000,0.000000,4.000000,4.000000,4.000000,4.000000,4.000000,4.000000,4.000000,66.666664,,,,,,,,,,,,,,,,,,,,,,,,,,,,
1703153627.798588,1703153627.799140,19.000000,0.000000,4183.461426,4198.077148,4267.307617,4268.589844,4200.897461,4200.128418,4317.820313,4197.563965,4194.230957,4184.358887,4528.717773,4444.615234,4366.922852,4440.000000,0.000000,4.000000,87.000000,,,,0.000000,4.000000,4.000000,4.000000,4.000000,4.000000,4.000000,0.000000,4.000000,4.000000,4.000000,4.000000,4.000000,4.000000,4.000000,66.666664,,,,,,,,,,,,,,,,,,,,,,,,,,,,
1703153627.806396,1703153627.807047,20.000000,0.000000,4185.897461,4195.384766,4266.922852,4267.563965,4203.717773,4205.641113,4313.333496,4200.512695,4201.794922,4186.282227,4533.589844,4445.641113,4362.692383,4452.820313,0.000000,4.000000,87.000000,,,,0.000000,4.000000,4.000000,4.000000,4.000000,4.000000,4.000000,0.000000,4.000000,4.000000,4.000000,4.000000,4.000000,4.000000,4.000000,66.666664,,,,,,,,,,,,,,,,,5.000000,0.000000,0.665160,0.380920,-0.549927,0.331726,0.985960,0.138200,0.105482,-18.001657,-29.343769,65.677589
1703153627.814204,1703153627.814855,21.000000,0.000000,4185.769043,4195.641113,4275.000000,4265.769043,4206.153809,4214.102539,4313.846191,4203.205078,4196.794922,4187.820313,4537.436035,4449.358887,4367.436035,4464.487305,0.000000,4.000000,87.000000,,,,0.000000,4.000000,4.000000,4.000000,4.000000,4.000000,4.000000,0.000000,4.000000,4.000000,4.000000,4.000000,4.000000,4.000000,4.000000,66.666664,,,,,,,,,,,,,,,,,,,,,,,,,,,,
1703153627.822012,1703153627.822763,22.000000,0.000000,4183.846191,4197.179688,4272.436035,4266.025879,4204.102539,4207.948730,4315.641113,4201.153809,4190.897461,4185.641113,4536.666504,4450.000000,4379.743652,4459.102539,0.000000,4.000000,87.000000,,,,0.000000,4.000000,4.000000,4.000000,4.000000,4.000000,4.000000,0.000000,4.000000,4.000000,4.000000,4.000000,4.000000,4.000000,4.000000,66.666664,,,,,,,,,,,,,,,,,,,,,,,,,,,,
1703153627.829820,1703153627.830571,23.000000,0.000000,4184.615234,4198.077148,4269.102539,4266.666504,4201.794922,4197.179688,4316.538574,4192.820313,4188.846191,4183.589844,4531.153809,4445.256348,4376.794922,4449.358887,0.000000,4.000000,87.000000,,,,0.000000,4.000000,4.000000,4.000000,4.000000,4.000000,4.000000,0.000000,4.000000,4.000000,4.000000,4.000000,4.000000,4.000000,4.000000,66.666664,,,,,,,,,,,,,,,,,,,,,,,,,,,,
1703153627.837628,1703153627.838479,24.000000,0.000000,4188.717773,4198.333496,4270.641113,4266.538574,4202.820313,4199.871582,4312.179688,4185.000000,4182.436035,4183.205078,4529.743652,4441.794922,4372.179688,4449.615234,0.000000,4.000000,87.000000,,,,0.000000,4.000000,4.000000,4.000000,4.000000,4.000000,4.000000,0.000000,4.000000,4.000000,4.000000,4.000000,4.000000,4.000000,4.000000,66.666664,,,,,,,,,,,,,,,,,6.000000,0.000000,0.665232,0.381042,-0.549866,0.331543,0.978635,0.143084,0.102063,-18.001492,-29.192724,65.793159
1703153627.845436,1703153627.846287,25.000000,0.000000,4197.307617,4203.205078,4273.717773,4269.487305,4202.692383,4206.153809,4311.794922,4187.692383,4183.589844,4187.692383,4541.538574,4453.333496,4386.794922,4460.512695,0.000000,4.000000,87.000000,,,,0.000000,4.000000,4.000000,4.000000,4.000000,4.000000,4.000000,0.000000,4.000000,4.000000,4.000000,4.000000,4.000000,4.000000,4.000000,66.666664,,,,,,,,,,,,,,,,,,,,,,,,,,,,
1703153627.853244,1703153627.854195,26.000000,0.000000,4209.743652,4208.717773,4282.436035,4275.384766,4202.179688,4200.256348,4315.641113,4187.436035,4185.256348,4187.820313,4542.820313,4463.717773,4389.871582,4463.333496,0.000000,4.000000,87.000000,,,,0.000000,4.000000,4.000000,4.000000,4.000000,4.000000,4.000000,0.000000,4.000000,4.000000,4.000000,4.000000,4.000000,4.000000,4.000000,66.666664,,,,,,,,,,,,,,,,,,,,,,,,,,,,
1703153627.861052,1703153627.862103,27.000000,0.000000,4214.743652,4207.307617,4284.871582,4278.333496,4206.538574,4199.102539,4314.615234,4182.051270,4180.128418,4183.974121,4534.358887,4461.538574,4379.230957,4464.230957,0.000000,4.000000,87.000000,,,,0.000000,4.000000,4.000000,4.000000,4.000000,4.000000,4.000000,0.000000,4.000000,4.000000,4.000000,4.000000,4.000000,4.000000,4.000000,66.666664,,,,,,,,,,,,,,,,,,,,,,,,,,,,
1703153627.868860,1703153627.869911,28.000000,0.000000,4215.256348,4202.820313,4281.153809,4272.563965,4208.205078,4208.589844,4315.512695,4187.692383,4182.436035,4181.538574,4539.743652,4462.436035,4385.000000,4473.717773,0.000000,4.000000,87.000000,,,,0.000000,4.000000,4.000000,4.000000,4.000000,4.000000,4.000000,0.000000,4.000000,4.000000,4.000000,4.000000,4.000000,4.000000,4.000000,66.666664,,,,,,,,,,,,,,,,,7.000000,0.000000,0.665288,0.381104,-0.549866,0.331360,0.984984,0.145526,0.099622,-18.101341,-29.140120,65.647179
1703153627.876668,1703153627.877719,29.000000,0.000000,4214.871582,4202.051270,4278.461426,4265.769043,4199.487305,4208.589844,4316.025879,4197.692383,4193.077148,4183.333496,4543.077148,4465.128418,4390.384766,4466.538574,0.000000,4.000000,87.000000,,,,0.000000,4.000000,4.000000,4.000000,4.000000,4.000000,4.000000,0.000000,4.000000,4.000000,4.000000,4.000000,4.000000,4.000000,4.000000,66.666664,,,,,,,,,,,,,,,,,,,,,,,,,,,,
1703153627.884477,1703153627.885428,30.000000,0.000000,4206.153809,4202.692383,4273.846191,4263.717773,4195.512695,4200.128418,4313.205078,4201.025879,4202.820313,4188.333496,4536.282227,4462.179688,4383.077148,4454.487305,0.000000,4.000000,87.000000,,,,0.000000,4.000000,4.000000,4.000000,4.000000,4.000000,4.000000,0.000000,4.000000,4.000000,4.000000,4.000000,4.000000,4.000000,4.000000,66.666664,,,,,,,,,,,,,,,,,,,,,,,,,,,,
1703153627.892285,1703153627.893235,31.000000,0.000000,4197.948730,4201.025879,4271.153809,4260.256348,4206.025879,4199.871582,4314.871582,4200.641113,4200.641113,4183.205078,4527.948730,4453.205078,4375.641113,4461.153809,0.000000,4.000000,87.000000,,,,0.000000,4.000000,4.000000,4.000000,4.000000,4.000000,4.000000,0.000000,4.000000,4.000000,4.000000,4.000000,4.000000,4.000000,4.000000,66.666664,,,,,,,,,,,,,,,,,,,,,,,,,,,,
1703153627.900092,1703153627.900944,32.000000,0.000000,4199.615234,4196.538574,4267.820313,4252.179688,4207.948730,4203.333496,4314.871582,4200.256348,4192.820313,4176.410156,4522.051270,4443.333496,4369.358887,4461.538574,0.000000,4.000000,87.000000,,,,0.000000,4.000000,4.000000,4.000000,4.000000,4.000000,4.000000,0.000000,4.000000,4.000000,4.000000,4.000000,4.000000,4.000000,4.000000,66.666664,,,,,,,,,,,,,,,,,8.000000,0.000000,0.665420,0.381104,-0.549744,0.331299,0.970822,0.143084,0.100110,-18.057875,-29.009439,65.632462
1703153627.907901,1703153627.908752,33.000000,0.000000,4203.205078,4188.205078,4257.948730,4246.410156,4195.769043,4200.641113,4314.358887,4200.512695,4188.461426,4175.384766,4520.000000,4440.384766,4361.794922,4446.025879,0.000000,4.000000,87.000000,,,,0.000000,4.000000,4.000000,4.000000,4.000000,4.000000,4.000000,0.000000,4.000000,4.000000,4.000000,4.000000,4.000000,4.000000,4.000000,66.666664,,,,,,,,,,,,,,,,,,,,,,,,,,,,
1703153627.915709,1703153627.916460,34.000000,0.000000,4200.897461,4184.487305,4250.897461,4245.384766,4196.538574,4204.230957,4313.846191,4200.256348,4185.897461,4175.000000,4518.717773,4440.769043,4360.128418,4437.563965,0.000000,4.000000,87.000000,,,,0.000000,4.000000,4.000000,4.000000,4.000000,4.000000,4.000000,0.000000,4.000000,4.000000,4.000000,4.000000,4.000000,4.000000,4.000000,66.666664,,,,,,,,,,,,,,,,,,,,,,,,,,,,
1703153627.923517,1703153627.924268,35.000000,0.000000,4201.794922,4187.179688,4253.461426,4245.512695,4202.563965,4210.000000,4312.436035,4202.820313,4192.051270,4180.000000,4525.641113,4444.358887,4369.871582,4448.205078,0.000000,4.000000,87.000000,,,,0.000000,4.000000,4.000000,4.000000,4.000000,4.000000,4.000000,0.000000,4.000000,4.000000,4.000000,4.000000,4.000000,4.000000,4.000000,66.666664,,,,,,,,,,,,,,,,,,,,,,,,,,,,
1703153627.931325,1703153627.931976,36.000000,0.000000,4209.615234,4192.436035,4261.282227,4253.205078,4198.333496,4205.512695,4314.743652,4205.512695,4201.538574,4183.717773,4534.487305,4449.102539,4377.948730,4461.538574,0.000000,4.000000,87.000000,,,,0.000000,4.000000,4.000000,4.000000,4.000000,4.000000,4.000000,0.000000,4.000000,4.000000,4.000000,4.000000,4.000000,4.000000,4.000000,66.666664,,,,,,,,,,,,,,,,,9.000000,0.000000,0.665575,0.380920,-0.549683,0.331299,0.974728,0.149921,0.100598,-17.952087,-28.958496,65.652550
1703153627.939133,1703153627.939784,37.000000,0.000000,4216.922852,4199.102539,4265.769043,4263.205078,4202.948730,4200.128418,4314.743652,4202.307617,4200.897461,4181.666504,4536.025879,4449.743652,4377.820313,4462.179688,0.000000,4.000000,87.000000,,,,0.000000,4.000000,4.000000,4.000000,4.000000,4.000000,4.000000,0.000000,4.000000,4.000000,4.000000,4.000000,4.000000,4.000000,4.000000,66.666664,,,,,,,,,,,,,,,,,,,,,,,,,,,,
1703153627.946941,1703153627.947492,38.000000,0.000000,4217.948730,4204.230957,4270.384766,4264.615234,4212.563965,4203.077148,4313.974121,4198.333496,4196.666504,4178.589844,4534.743652,4450.897461,4376.410156,4458.589844,0.000000,4.000000,87.000000,,,,0.000000,4.000000,4.000000,4.000000,4.000000,4.000000,4.000000,0.000000,4.000000,4.000000,4.000000,4.000000,4.000000,4.000000,4.000000,66.666664,1.000000,66.666664,4.000000,4.000000,4.000000,4.000000,4.000000,4.000000,0.000000,4.000000,4.000000,4.000000,4.000000,4.000000,4.000000,4.000000,,,,,,,,,,,,
1703153627.954749,1703153627.955300,39.000000,0.000000,4216.153809,4205.128418,4277.436035,4262.307617,4205.641113,4205.769043,4314.743652,4197.820313,4194.615234,4176.666504,4532.948730,4450.256348,4372.563965,4460.641113,0.000000,4.000000,87.000000,,,,0.000000,4.000000,4.000000,4.000000,4.000000,4.000000,4.000000,0.000000,4.000000,4.000000,4.000000,4.000000,4.000000,4.000000,4.000000,66.666664,,,,,,,,,,,,,,,,,,,,,,,,,,,,
1703153627.962557,1703153627.963008,40.000000,0.000000,4212.948730,4202.307617,4276.794922,4261.153809,4195.897461,4201.794922,4312.692383,4197.692383,4186.666504,4173.717773,4533.717773,4448.461426,4373.333496,4464.102539,0.000000,4.000000,87.000000,,,,0.000000,4.000000,4.000000,4.000000,4.000000,4.000000,4.000000,0.000000,4.000000,4.000000,4.000000,4.000000,4.000000,4.000000,4.000000,66.666664,,,,,,,,,,,,,,,,,10.000000,0.000000,0.665520,0.380981,-0.549744,0.331238,0.983030,0.159687,0.099622,-18.156878,-28.995979,65.820625
1703153627.970365,1703153627.970816,41.000000,0.000000,4217.051270,4206.922852,4276.025879,4261.794922,4199.102539,4199.615234,4313.461426,4197.692383,4180.000000,4172.563965,4537.820313,4454.230957,4381.410156,4458.846191,0.000000,4.000000,87.000000,,,,0.000000,4.000000,4.000000,4.000000,4.000000,4.000000,4.000000,0.000000,4.000000,4.000000,4.000000,4.000000,4.000000,4.000000,4.000000,66.666664,,,,,,,,,,,,,,,,,,,,,,,,,,,,
1703153627.978173,1703153627.978524,42.000000,0.000000,4227.307617,4217.820313,4281.922852,4264.743652,4205.256348,4201.025879,4313.974121,4198.077148,4188.077148,4178.717773,4539.743652,4458.205078,4384.102539,4459.358887,0.000000,4.000000,87.000000,,,,0.000000,4.000000,4.000000,4.000000,4.000000,4.000000,4.000000,0.000000,4.000000,4.000000,4.000000,4.000000,4.000000,4.000000,4.000000,66.666664,,,,,,,,,,,,,,,,,,,,,,,,,,,,
1703153627.985981,1703153627.986432,43.000000,0.000000,4225.384766,4216.282227,4280.897461,4266.282227,4209.230957,4200.256348,4311.153809,4196.410156,4194.230957,4183.717773,4539.358887,4457.820313,4380.897461,4467.179688,0.000000,4.000000,87.000000,,,,0.000000,4.000000,4.000000,4.000000,4.000000,4.000000,4.000000,0.000000,4.000000,4.000000,4.000000,4.000000,4.000000,4.000000,4.000000,66.666664,,,,,,,,,,,,,,,,,,,,,,,,,,,,
1703153627.993789,1703153627.994240,44.000000,0.000000,4213.589844,4208.461426,4277.820313,4263.461426,4209.487305,4200.512695,4313.717773,4193.974121,4187.820313,4177.692383,4533.205078,4456.025879,4375.128418,4462.436035,0.000000,4.000000,87.000000,,,,0.000000,4.000000,4.000000,4.000000,4.000000,4.000000,4.000000,0.000000,4.000000,4.000000,4.000000,4.000000,4.000000,4.000000,4.000000,66.666664,,,,,,,,,,,,,,,,,11.000000,0.000000,0.665438,0.380859,-0.549927,0.331238,0.973752,0.137712,0.096691,-17.891190,-28.996382,65.871895
1703153628.001597,1703153628.002147,45.000000,0.000000,4216.410156,4212.436035,4278.717773,4263.589844,4203.846191,4202.051270,4315.256348,4197.820313,4190.769043,4178.333496,4533.846191,4456.025879,4374.615234,4463.717773,0.000000,4.000000,87.000000,,,,0.000000,4.000000,4.000000,4.000000,4.000000,4.000000,4.000000,0.000000,4.000000,4.000000,4.000000,4.000000,4.000000,4.000000,4.000000,66.666664,,,,,,,,,,,,,,,,,,,,,,,,,,,,
1703153628.009405,1703153628.009955,46.000000,0.000000,4228.333496,4219.358887,4281.282227,4270.512695,4207.179688,4203.974121,4314.230957,4202.820313,4206.410156,4190.128418,4543.077148,4460.256348,4380.641113,4475.000000,0.000000,4.000000,87.000000,,,,0.000000,4.000000,4.000000,4.000000,4.000000,4.000000,4.000000,0.000000,4.000000,4.000000,4.000000,4.000000,4.000000,4.000000,4.000000,66.666664,,,,,,,,,,,,,,,,,,,,,,,,,,,,
1703153628.017213,1703153628.017863,47.000000,0.000000,4229.487305,4218.846191,4282.436035,4274.102539,4216.153809,4207.692383,4313.974121,4202.179688,4205.384766,4185.128418,4543.205078,4461.025879,4378.461426,4475.512695,0.000000,4.000000,87.000000,,,,0.000000,4.000000,4.000000,4.000000,4.000000,4.000000,4.000000,0.000000,4.000000,4.000000,4.000000,4.000000,4.000000,4.000000,4.000000,66.666664,,,,,,,,,,,,,,,,,,,,,,,,,,,,
1703153628.025021,1703153628.025671,48.000000,0.000000,4226.794922,4217.563965,4281.153809,4269.743652,4215.384766,4210.128418,4311.922852,4203.461426,4198.333496,4179.358887,4545.384766,4463.974121,4378.846191,4475.769043,0.000000,4.000000,87.000000,,,,0.000000,4.000000,4.000000,4.000000,4.000000,4.000000,4.000000,0.000000,4.000000,4.000000,4.000000,4.000000,4.000000,4.000000,4.000000,66.666664,,,,,,,,,,,,,,,,,12.000000,0.000000,0.665236,0.380859,-0.549988,0.331543,0.969357,0.143084,0.105970,-18.002071,-28.913410,65.918037
1703153628.032829,1703153628.033579,49.000000,0.000000,4229.871582,4217.051270,4281.025879,4265.000000,4212.692383,4206.282227,4313.461426,4201.153809,4203.333496,4187.692383,4548.589844,4465.769043,4382.307617,4472.820313,0.000000,4.000000,87.000000,,,,0.000000,4.000000,4.000000,4.000000,4.000000,4.000000,4.000000,0.000000,4.000000,4.000000,4.000000,4.000000,4.000000,4.000000,4.000000,66.666664,,,,,,,,,,,,,,,,,,,,,,,,,,,,
1703153628.040637,1703153628.041387,50.000000,0.000000,4228.846191,4214.743652,4275.256348,4262.692383,4211.794922,4204.615234,4313.589844,4194.743652,4199.615234,4188.077148,4538.974121,4456.794922,4379.102539,4467.436035,0.000000,4.000000,87.000000,,,,0.000000,4.000000,4.000000,4.000000,4.000000,4.000000,4.000000,0.000000,4.000000,4.000000,4.000000,4.000000,4.000000,4.000000,4.000000,66.666664,,,,,,,,,,,,,,,,,,,,,,,,,,,,
1703153628.048445,1703153628.049295,51.000000,0.000000,4218.333496,4211.410156,4271.282227,4262.307617,4210.256348,4209.358887,4312.948730,4193.589844,4188.717773,4179.871582,4534.487305,4455.000000,4378.589844,4474.743652,0.000000,4.000000,87.000000,,,,0.000000,4.000000,4.000000,4.000000,4.000000,4.000000,4.000000,0.000000,4.000000,4.000000,4.000000,4.000000,4.000000,4.000000,4.000000,66.666664,,,,,,,,,,,,,,,,,,,,,,,,,,,,
