title:عمار لا, start timestamp:1703503533.704101, stop timestamp:1703503544.424559, headset type:EPOCX, headset serial:E50206EF, headset firmware:720, channels:67, sampling rate:eeg_128;mot_32, samples:1374      , version:2.2, 
Timestamp,OriginalTimestamp,EEG.Counter,EEG.Interpolated,EEG.AF3,EEG.F7,EEG.F3,EEG.FC5,EEG.T7,EEG.P7,EEG.O1,EEG.O2,EEG.P8,EEG.T8,EEG.FC6,EEG.F4,EEG.F8,EEG.AF4,EEG.RawCq,EEG.Battery,EEG.BatteryPercent,MarkerIndex,MarkerType,MarkerValueInt,EEG.MarkerHardware,CQ.AF3,CQ.F7,CQ.F3,CQ.FC5,CQ.T7,CQ.P7,CQ.O1,CQ.O2,CQ.P8,CQ.T8,CQ.FC6,CQ.F4,CQ.F8,CQ.AF4,CQ.Overall,EQ.SampleRateQuality,EQ.OVERALL,EQ.AF3,EQ.F7,EQ.F3,EQ.FC5,EQ.T7,EQ.P7,EQ.O1,EQ.O2,EQ.P8,EQ.T8,EQ.FC6,EQ.F4,EQ.F8,EQ.AF4,MOT.CounterMems,MOT.InterpolatedMems,MOT.Q0,MOT.Q1,MOT.Q2,MOT.Q3,MOT.AccX,MOT.AccY,MOT.AccZ,MOT.MagX,MOT.MagY,MOT.MagZ
1703503533.704101,1703503533.704569,49.000000,0.000000,4247.948730,4220.769043,4248.846191,4302.563965,4258.717773,4239.487305,4248.846191,4252.179688,4226.922852,4207.436035,4421.922852,4420.128418,4134.487305,4380.128418,0.000000,3.000000,62.000000,,,,0.000000,4.000000,4.000000,4.000000,4.000000,4.000000,4.000000,4.000000,4.000000,4.000000,4.000000,4.000000,4.000000,4.000000,4.000000,100.000000,,,,,,,,,,,,,,,,,,,,,,,,,,,,
1703503533.711909,1703503533.712277,50.000000,0.000000,4260.000000,4230.897461,4250.384766,4310.000000,4276.025879,4248.589844,4251.666504,4255.128418,4237.051270,4235.641113,4436.794922,4426.538574,4157.692383,4393.461426,0.000000,3.000000,62.000000,,,,0.000000,4.000000,4.000000,4.000000,4.000000,4.000000,4.000000,4.000000,4.000000,4.000000,4.000000,4.000000,4.000000,4.000000,4.000000,100.000000,,,,,,,,,,,,,,,,,,,,,,,,,,,,
1703503533.719717,1703503533.720085,51.000000,0.000000,4284.487305,4245.384766,4267.563965,4321.794922,4282.820313,4247.436035,4253.846191,4261.666504,4244.871582,4250.000000,4458.333496,4449.102539,4184.358887,4421.922852,0.000000,3.000000,62.000000,,,,0.000000,4.000000,4.000000,4.000000,4.000000,4.000000,4.000000,4.000000,4.000000,4.000000,4.000000,4.000000,4.000000,4.000000,4.000000,100.000000,,,,,,,,,,,,,,,,,,,,,,,,,,,,
1703503533.727525,1703503533.727793,52.000000,0.000000,4292.948730,4252.436035,4283.461426,4327.948730,4279.615234,4239.102539,4251.922852,4250.384766,4238.205078,4236.794922,4454.487305,4458.077148,4181.666504,4420.256348,0.000000,3.000000,62.000000,,,,0.000000,4.000000,4.000000,4.000000,4.000000,4.000000,4.000000,4.000000,4.000000,4.000000,4.000000,4.000000,4.000000,4.000000,4.000000,100.000000,,,,,,,,,,,,,,,,,13.000000,0.000000,0.434096,0.521484,-0.451477,0.579468,0.986449,-0.065438,0.045904,-14.382621,-39.861336,61.821106
1703503533.735334,1703503533.735601,53.000000,0.000000,4280.512695,4245.897461,4275.384766,4325.641113,4272.820313,4232.692383,4248.717773,4232.307617,4226.538574,4224.615234,4437.948730,4440.769043,4171.410156,4400.512695,0.000000,3.000000,62.000000,,,,0.000000,4.000000,4.000000,4.000000,4.000000,4.000000,4.000000,4.000000,4.000000,4.000000,4.000000,4.000000,4.000000,4.000000,4.000000,100.000000,,,,,,,,,,,,,,,,,,,,,,,,,,,,
1703503533.743142,1703503533.743309,54.000000,0.000000,4275.769043,4243.205078,4261.922852,4325.512695,4270.769043,4237.563965,4251.922852,4227.563965,4223.205078,4230.256348,4433.589844,4430.384766,4180.384766,4403.589844,0.000000,3.000000,62.000000,,,,0.000000,4.000000,4.000000,4.000000,4.000000,4.000000,4.000000,4.000000,4.000000,4.000000,4.000000,4.000000,4.000000,4.000000,4.000000,100.000000,,,,,,,,,,,,,,,,,,,,,,,,,,,,
1703503533.750950,1703503533.751117,55.000000,0.000000,4289.743652,4254.230957,4265.384766,4328.205078,4280.512695,4248.333496,4257.692383,4232.563965,4226.794922,4232.692383,4440.384766,4443.461426,4196.025879,4420.512695,0.000000,3.000000,62.000000,,,,0.000000,4.000000,4.000000,4.000000,4.000000,4.000000,4.000000,4.000000,4.000000,4.000000,4.000000,4.000000,4.000000,4.000000,4.000000,100.000000,,,,,,,,,,,,,,,,,,,,,,,,,,,,
1703503533.758758,1703503533.758825,56.000000,0.000000,4292.692383,4252.307617,4269.615234,4319.230957,4284.102539,4251.153809,4261.666504,4238.974121,4231.153809,4232.179688,4445.769043,4451.666504,4202.436035,4418.077148,0.000000,3.000000,62.000000,,,,0.000000,4.000000,4.000000,4.000000,4.000000,4.000000,4.000000,4.000000,4.000000,4.000000,4.000000,4.000000,4.000000,4.000000,4.000000,100.000000,,,,,,,,,,,,,,,,,14.000000,0.000000,0.434333,0.521423,-0.451477,0.579346,0.984495,-0.071298,0.044927,-14.294359,-39.808537,61.972328
1703503533.766566,1703503533.766733,57.000000,0.000000,4271.538574,4230.128418,4251.538574,4301.922852,4267.307617,4246.410156,4260.128418,4248.205078,4234.230957,4233.205078,4434.487305,4430.897461,4193.077148,4388.846191,0.000000,3.000000,62.000000,,,,0.000000,4.000000,4.000000,4.000000,4.000000,4.000000,4.000000,4.000000,4.000000,4.000000,4.000000,4.000000,4.000000,4.000000,4.000000,100.000000,,,,,,,,,,,,,,,,,,,,,,,,,,,,
1703503533.774374,1703503533.774541,58.000000,0.000000,4254.230957,4222.948730,4228.974121,4291.538574,4258.589844,4245.128418,4258.205078,4257.692383,4240.897461,4231.538574,4412.179688,4407.307617,4178.589844,4367.051270,0.000000,3.000000,62.000000,,,,0.000000,4.000000,4.000000,4.000000,4.000000,4.000000,4.000000,4.000000,4.000000,4.000000,4.000000,4.000000,4.000000,4.000000,4.000000,100.000000,,,,,,,,,,,,,,,,,,,,,,,,,,,,
1703503533.782182,1703503533.782449,59.000000,0.000000,4261.922852,4230.256348,4235.512695,4297.820313,4266.794922,4245.128418,4259.615234,4266.282227,4247.820313,4230.128418,4416.025879,4422.051270,4186.666504,4385.512695,0.000000,3.000000,62.000000,,,,0.000000,4.000000,4.000000,4.000000,4.000000,4.000000,4.000000,4.000000,4.000000,4.000000,4.000000,4.000000,4.000000,4.000000,4.000000,100.000000,,,,,,,,,,,,,,,,,,,,,,,,,,,,
1703503533.789990,1703503533.790257,60.000000,0.000000,4284.615234,4232.948730,4261.025879,4309.358887,4268.589844,4243.077148,4254.358887,4267.436035,4248.333496,4233.333496,4446.666504,4452.820313,4213.717773,4419.615234,0.000000,3.000000,62.000000,,,,0.000000,4.000000,4.000000,4.000000,4.000000,4.000000,4.000000,4.000000,4.000000,4.000000,4.000000,4.000000,4.000000,4.000000,4.000000,100.000000,,,,,,,,,,,,,,,,,15.000000,0.000000,0.434341,0.521484,-0.451477,0.579285,0.992309,-0.070809,0.042486,-14.314923,-39.777683,61.958427
1703503533.797798,1703503533.798165,61.000000,0.000000,4292.179688,4238.077148,4273.974121,4311.153809,4269.487305,4244.102539,4247.563965,4257.307617,4244.230957,4235.128418,4447.563965,4454.743652,4225.128418,4420.897461,0.000000,3.000000,62.000000,,,,0.000000,4.000000,4.000000,4.000000,4.000000,4.000000,4.000000,4.000000,4.000000,4.000000,4.000000,4.000000,4.000000,4.000000,4.000000,100.000000,,,,,,,,,,,,,,,,,,,,,,,,,,,,
1703503533.805606,1703503533.805973,62.000000,0.000000,4281.282227,4246.410156,4268.205078,4309.743652,4278.717773,4248.333496,4250.512695,4245.512695,4237.436035,4226.282227,4415.384766,4427.820313,4212.820313,4395.128418,0.000000,3.000000,62.000000,,,,0.000000,4.000000,4.000000,4.000000,4.000000,4.000000,4.000000,4.000000,4.000000,4.000000,4.000000,4.000000,4.000000,4.000000,4.000000,100.000000,,,,,,,,,,,,,,,,,,,,,,,,,,,,
1703503533.813414,1703503533.813880,63.000000,0.000000,4274.615234,4242.948730,4255.769043,4311.538574,4279.230957,4245.512695,4250.897461,4234.615234,4229.230957,4217.436035,4404.358887,4412.051270,4205.256348,4384.102539,0.000000,3.000000,62.000000,,,,0.000000,4.000000,4.000000,4.000000,4.000000,4.000000,4.000000,4.000000,4.000000,4.000000,4.000000,4.000000,4.000000,4.000000,4.000000,100.000000,,,,,,,,,,,,,,,,,,,,,,,,,,,,
1703503533.821222,1703503533.821688,64.000000,0.000000,4280.897461,4237.948730,4253.205078,4310.000000,4267.307617,4236.666504,4245.256348,4219.743652,4214.743652,4207.820313,4408.974121,4428.205078,4208.589844,4392.948730,5288.000000,3.000000,62.000000,,,,0.000000,4.000000,4.000000,4.000000,4.000000,4.000000,4.000000,4.000000,4.000000,4.000000,4.000000,4.000000,4.000000,4.000000,4.000000,100.000000,,,,,,,,,,,,,,,,,16.000000,0.000000,0.434224,0.521423,-0.451660,0.579285,0.990844,-0.072274,0.050787,-14.333431,-39.833248,61.895920
1703503533.829030,1703503533.829596,65.000000,0.000000,4293.589844,4245.769043,4265.769043,4310.256348,4259.871582,4229.743652,4240.512695,4212.820313,4205.128418,4203.846191,4404.615234,4449.871582,4221.282227,4406.922852,5531.000000,3.000000,62.000000,,,,0.000000,4.000000,4.000000,4.000000,4.000000,4.000000,4.000000,4.000000,4.000000,4.000000,4.000000,4.000000,4.000000,4.000000,4.000000,100.000000,,,,,,,,,,,,,,,,,,,,,,,,,,,,
1703503533.836838,1703503533.837404,66.000000,0.000000,4296.538574,4248.205078,4273.077148,4312.820313,4264.102539,4230.384766,4240.769043,4218.589844,4218.205078,4211.666504,4413.205078,4444.102539,4239.230957,4411.538574,5414.000000,3.000000,62.000000,,,,0.000000,4.000000,4.000000,4.000000,4.000000,4.000000,4.000000,4.000000,4.000000,4.000000,4.000000,4.000000,4.000000,4.000000,4.000000,100.000000,,,,,,,,,,,,,,,,,,,,,,,,,,,,
1703503533.844646,1703503533.845312,67.000000,0.000000,4277.820313,4235.897461,4263.205078,4305.000000,4268.077148,4237.948730,4247.563965,4220.897461,4229.230957,4216.153809,4415.256348,4412.179688,4234.871582,4388.461426,5395.000000,3.000000,62.000000,,,,0.000000,4.000000,4.000000,4.000000,4.000000,4.000000,4.000000,4.000000,4.000000,4.000000,4.000000,4.000000,4.000000,4.000000,4.000000,100.000000,,,,,,,,,,,,,,,,,,,,,,,,,,,,
1703503533.852454,1703503533.853120,68.000000,0.000000,4258.461426,4228.846191,4247.051270,4288.589844,4267.179688,4246.282227,4252.820313,4215.384766,4221.410156,4216.025879,4397.051270,4392.563965,4212.820313,4360.769043,5298.000000,3.000000,62.000000,,,,0.000000,4.000000,4.000000,4.000000,4.000000,4.000000,4.000000,4.000000,4.000000,4.000000,4.000000,4.000000,4.000000,4.000000,4.000000,100.000000,,,,,,,,,,,,,,,,,17.000000,0.000000,0.434088,0.521362,-0.451782,0.579346,0.989867,-0.080576,0.055183,-14.383421,-39.816589,62.072994
1703503533.860262,1703503533.861028,69.000000,0.000000,4263.205078,4231.794922,4242.436035,4272.692383,4263.717773,4247.179688,4251.794922,4213.589844,4214.230957,4211.282227,4398.589844,4408.846191,4210.128418,4373.461426,4921.000000,3.000000,62.000000,,,,0.000000,4.000000,4.000000,4.000000,4.000000,4.000000,4.000000,4.000000,4.000000,4.000000,4.000000,4.000000,4.000000,4.000000,4.000000,100.000000,,,,,,,,,,,,,,,,,,,,,,,,,,,,
1703503533.868070,1703503533.868836,70.000000,0.000000,4277.436035,4233.205078,4251.538574,4263.974121,4260.000000,4241.922852,4253.461426,4218.717773,4213.333496,4204.230957,4413.717773,4433.974121,4225.256348,4402.436035,4046.000000,3.000000,62.000000,,,,0.000000,4.000000,4.000000,4.000000,4.000000,4.000000,4.000000,4.000000,4.000000,4.000000,4.000000,4.000000,4.000000,4.000000,4.000000,100.000000,,,,,,,,,,,,,,,,,,,,,,,,,,,,
1703503533.875878,1703503533.876744,71.000000,0.000000,4279.230957,4225.769043,4255.769043,4256.282227,4259.102539,4245.769043,4260.769043,4235.256348,4224.615234,4215.512695,4420.641113,4438.077148,4237.692383,4403.461426,5031.000000,3.000000,62.000000,,,,0.000000,4.000000,4.000000,4.000000,4.000000,4.000000,4.000000,4.000000,4.000000,4.000000,4.000000,4.000000,4.000000,4.000000,4.000000,100.000000,,,,,,,,,,,,,,,,,,,,,,,,,,,,
1703503533.883687,1703503533.884552,72.000000,0.000000,4272.051270,4218.077148,4247.436035,4247.436035,4255.384766,4247.179688,4260.641113,4255.897461,4243.589844,4234.230957,4423.717773,4429.102539,4243.974121,4388.589844,4993.000000,3.000000,62.000000,,,,0.000000,4.000000,4.000000,4.000000,4.000000,4.000000,4.000000,4.000000,4.000000,4.000000,4.000000,4.000000,4.000000,4.000000,4.000000,100.000000,,,,,,,,,,,,,,,,,18.000000,0.000000,0.433961,0.521362,-0.451904,0.579346,0.983030,-0.086436,0.046392,-14.528412,-39.868263,62.082359
1703503533.891495,1703503533.892260,73.000000,0.000000,4271.025879,4224.615234,4244.102539,4249.102539,4248.205078,4236.538574,4253.461426,4258.077148,4245.769043,4232.179688,4421.538574,4423.846191,4246.922852,4382.179688,5522.000000,3.000000,62.000000,,,,0.000000,4.000000,4.000000,4.000000,4.000000,4.000000,4.000000,4.000000,4.000000,4.000000,4.000000,4.000000,4.000000,4.000000,4.000000,100.000000,,,,,,,,,,,,,,,,,,,,,,,,,,,,
1703503533.899303,1703503533.900168,74.000000,0.000000,4280.641113,4233.846191,4254.871582,4257.307617,4244.102539,4231.025879,4247.692383,4238.461426,4231.153809,4220.256348,4412.436035,4422.436035,4247.179688,4382.692383,6107.000000,3.000000,62.000000,,,,0.000000,4.000000,4.000000,4.000000,4.000000,4.000000,4.000000,4.000000,4.000000,4.000000,4.000000,4.000000,4.000000,4.000000,4.000000,100.000000,,,,,,,,,,,,,,,,,,,,,,,,,,,,
1703503533.907111,1703503533.907976,75.000000,0.000000,4295.256348,4234.102539,4273.717773,4265.641113,4247.948730,4234.615234,4245.769043,4214.615234,4216.922852,4208.205078,4405.000000,4426.538574,4246.538574,4389.615234,6337.000000,3.000000,62.000000,,,,0.000000,4.000000,4.000000,4.000000,4.000000,4.000000,4.000000,4.000000,4.000000,4.000000,4.000000,4.000000,4.000000,4.000000,4.000000,100.000000,,,,,,,,,,,,,,,,,,,,,,,,,,,,
1703503533.914919,1703503533.915884,76.000000,0.000000,4308.974121,4238.205078,4287.051270,4276.025879,4259.743652,4234.358887,4246.025879,4208.974121,4211.922852,4202.436035,4411.538574,4440.769043,4259.487305,4407.820313,6880.000000,3.000000,62.000000,,,,0.000000,4.000000,4.000000,4.000000,4.000000,4.000000,4.000000,4.000000,4.000000,4.000000,4.000000,4.000000,4.000000,4.000000,4.000000,100.000000,,,,,,,,,,,,,,,,,19.000000,0.000000,0.433816,0.521362,-0.451965,0.579407,0.990844,-0.087901,0.056648,-14.908904,-39.848103,62.040791
1703503533.922727,1703503533.923693,77.000000,0.000000,4314.102539,4248.461426,4287.820313,4282.307617,4265.897461,4232.948730,4247.563965,4214.102539,4217.307617,4213.974121,4424.102539,4450.384766,4276.282227,4420.256348,7242.000000,3.000000,62.000000,,,,0.000000,4.000000,4.000000,4.000000,4.000000,4.000000,4.000000,4.000000,4.000000,4.000000,4.000000,4.000000,4.000000,4.000000,4.000000,100.000000,,,,,,,,,,,,,,,,,,,,,,,,,,,,
1703503533.930535,1703503533.931501,78.000000,0.000000,4309.358887,4255.512695,4278.717773,4284.871582,4268.589844,4240.769043,4248.846191,4206.153809,4220.000000,4222.820313,4421.666504,4440.000000,4274.871582,4412.051270,6107.000000,3.000000,62.000000,,,,0.000000,4.000000,4.000000,4.000000,4.000000,4.000000,4.000000,4.000000,4.000000,4.000000,4.000000,4.000000,4.000000,4.000000,4.000000,100.000000,,,,,,,,,,,,,,,,,,,,,,,,,,,,
1703503533.938343,1703503533.939209,79.000000,0.000000,4302.820313,4258.846191,4268.077148,4288.846191,4273.974121,4245.641113,4246.410156,4197.563965,4215.769043,4217.820313,4409.487305,4428.974121,4266.538574,4399.230957,6337.000000,3.000000,62.000000,,,,0.000000,4.000000,4.000000,4.000000,4.000000,4.000000,4.000000,4.000000,4.000000,4.000000,4.000000,4.000000,4.000000,4.000000,4.000000,100.000000,,,,,,,,,,,,,,,,,,,,,,,,,,,,
1703503533.946151,1703503533.947017,80.000000,0.000000,4295.384766,4250.128418,4260.897461,4281.538574,4274.102539,4247.820313,4250.512695,4205.897461,4212.307617,4213.333496,4405.641113,4432.307617,4267.820313,4392.307617,6880.000000,3.000000,62.000000,,,,0.000000,4.000000,4.000000,4.000000,4.000000,4.000000,4.000000,4.000000,4.000000,4.000000,4.000000,4.000000,4.000000,4.000000,4.000000,100.000000,,,,,,,,,,,,,,,,,20.000000,0.000000,0.433687,0.521484,-0.452026,0.579346,0.989867,-0.074716,0.041997,-14.868014,-39.813293,62.136711
1703503533.953959,1703503533.954725,81.000000,0.000000,4284.615234,4233.717773,4254.102539,4268.461426,4269.358887,4257.179688,4262.436035,4217.051270,4215.641113,4215.384766,4408.333496,4435.512695,4278.846191,4387.436035,7242.000000,3.000000,62.000000,,,,0.000000,4.000000,4.000000,4.000000,4.000000,4.000000,4.000000,4.000000,4.000000,4.000000,4.000000,4.000000,4.000000,4.000000,4.000000,100.000000,,,,,,,,,,,,,,,,,,,,,,,,,,,,
1703503533.961767,1703503533.962533,82.000000,0.000000,4277.179688,4228.077148,4247.436035,4270.897461,4265.512695,4264.743652,4267.820313,4223.205078,4224.102539,4217.051270,4404.358887,4424.358887,4283.333496,4381.410156,6107.000000,3.000000,62.000000,,,,0.000000,4.000000,4.000000,4.000000,4.000000,4.000000,4.000000,4.000000,4.000000,4.000000,4.000000,4.000000,4.000000,4.000000,4.000000,100.000000,,,,,,,,,,,,,,,,,,,,,,,,,,,,
1703503533.969575,1703503533.970241,83.000000,0.000000,4282.948730,4231.922852,4248.077148,4277.179688,4265.897461,4264.487305,4264.615234,4230.000000,4231.794922,4217.179688,4399.743652,4411.282227,4279.871582,4373.333496,6337.000000,3.000000,62.000000,,,,0.000000,4.000000,4.000000,4.000000,4.000000,4.000000,4.000000,4.000000,4.000000,4.000000,4.000000,4.000000,4.000000,4.000000,4.000000,100.000000,,,,,,,,,,,,,,,,,,,,,,,,,,,,
1703503533.977383,1703503533.978049,84.000000,0.000000,4292.948730,4233.589844,4258.589844,4277.179688,4268.846191,4259.615234,4262.307617,4233.846191,4239.615234,4227.820313,4409.615234,4419.615234,4289.615234,4375.769043,6880.000000,3.000000,62.000000,,,,0.000000,4.000000,4.000000,4.000000,4.000000,4.000000,4.000000,4.000000,4.000000,4.000000,4.000000,4.000000,4.000000,4.000000,4.000000,100.000000,,,,,,,,,,,,,,,,,21.000000,0.000000,0.433576,0.521606,-0.452148,0.579224,0.987425,-0.091808,0.042974,-14.964546,-39.915298,62.106373
1703503533.985191,1703503533.985757,85.000000,0.000000,4294.871582,4235.000000,4274.102539,4278.077148,4267.051270,4253.077148,4265.512695,4236.794922,4250.384766,4248.717773,4429.743652,4443.333496,4316.025879,4398.461426,7242.000000,3.000000,62.000000,,,,0.000000,4.000000,4.000000,4.000000,4.000000,4.000000,4.000000,4.000000,4.000000,4.000000,4.000000,4.000000,4.000000,4.000000,4.000000,100.000000,,,,,,,,,,,,,,,,,,,,,,,,,,,,
1703503533.992999,1703503533.993665,86.000000,0.000000,4297.307617,4238.333496,4281.282227,4280.384766,4264.743652,4248.077148,4260.897461,4236.153809,4255.769043,4260.128418,4440.769043,4453.461426,4334.871582,4415.769043,6107.000000,3.000000,62.000000,,,,0.000000,4.000000,4.000000,4.000000,4.000000,4.000000,4.000000,4.000000,4.000000,4.000000,4.000000,4.000000,4.000000,4.000000,4.000000,100.000000,,,,,,,,,,,,,,,,,,,,,,,,,,,,
1703503534.000807,1703503534.001473,87.000000,0.000000,4305.897461,4245.256348,4278.717773,4286.538574,4263.846191,4243.846191,4251.025879,4221.794922,4245.128418,4247.051270,4434.743652,4446.922852,4333.589844,4410.897461,6337.000000,3.000000,62.000000,,,,0.000000,4.000000,4.000000,4.000000,4.000000,4.000000,4.000000,4.000000,4.000000,4.000000,4.000000,4.000000,4.000000,4.000000,4.000000,100.000000,,,,,,,,,,,,,,,,,,,,,,,,,,,,
1703503534.008615,1703503534.009381,88.000000,0.000000,4313.974121,4246.922852,4284.487305,4298.205078,4255.769043,4235.256348,4246.025879,4197.436035,4221.153809,4218.589844,4412.051270,4439.615234,4314.871582,4399.743652,6880.000000,3.000000,62.000000,,,,0.000000,4.000000,4.000000,4.000000,4.000000,4.000000,4.000000,4.000000,4.000000,4.000000,4.000000,4.000000,4.000000,4.000000,4.000000,100.000000,,,,,,,,,,,,,,,,,22.000000,0.000000,0.433511,0.521729,-0.452148,0.579163,0.996215,-0.078623,0.041509,-14.968091,-39.873768,62.195736
1703503534.016423,1703503534.017189,89.000000,0.000000,4316.025879,4238.077148,4293.717773,4299.230957,4252.051270,4230.512695,4241.538574,4184.358887,4208.846191,4208.846191,4396.922852,4439.871582,4300.000000,4397.436035,7242.000000,3.000000,62.000000,,,,0.000000,4.000000,4.000000,4.000000,4.000000,4.000000,4.000000,4.000000,4.000000,4.000000,4.000000,4.000000,4.000000,4.000000,4.000000,100.000000,,,,,,,,,,,,,,,,,,,,,,,,,,,,
1703503534.024232,1703503534.025096,90.000000,0.000000,4306.666504,4229.230957,4284.743652,4287.692383,4259.871582,4231.794922,4238.589844,4191.153809,4220.128418,4224.743652,4407.820313,4443.205078,4312.948730,4400.000000,6107.000000,3.000000,62.000000,,,,0.000000,4.000000,4.000000,4.000000,4.000000,4.000000,4.000000,4.000000,4.000000,4.000000,4.000000,4.000000,4.000000,4.000000,4.000000,100.000000,,,,,,,,,,,,,,,,,,,,,,,,,,,,
1703503534.032040,1703503534.033005,91.000000,0.000000,4297.179688,4228.461426,4268.846191,4285.000000,4262.051270,4231.922852,4241.410156,4201.025879,4232.820313,4235.897461,4417.563965,4438.333496,4333.974121,4399.615234,6337.000000,3.000000,62.000000,,,,0.000000,4.000000,4.000000,4.000000,4.000000,4.000000,4.000000,4.000000,4.000000,4.000000,4.000000,4.000000,4.000000,4.000000,4.000000,100.000000,,,,,,,,,,,,,,,,,,,,,,,,,,,,
1703503534.039848,1703503534.040813,92.000000,0.000000,4295.769043,4231.794922,4260.897461,4291.025879,4261.538574,4239.743652,4246.794922,4201.025879,4232.563965,4233.846191,4413.589844,4425.769043,4338.077148,4399.487305,6880.000000,3.000000,62.000000,,,,0.000000,4.000000,4.000000,4.000000,4.000000,4.000000,4.000000,4.000000,4.000000,4.000000,4.000000,4.000000,4.000000,4.000000,4.000000,100.000000,,,,,,,,,,,,,,,,,23.000000,0.000000,0.433493,0.521729,-0.452087,0.579224,0.985472,-0.085948,0.041997,-14.871283,-39.819725,62.226162
1703503534.047656,1703503534.048621,93.000000,0.000000,4296.025879,4237.051270,4262.436035,4292.692383,4263.461426,4256.922852,4253.717773,4197.436035,4228.846191,4228.333496,4410.512695,4421.794922,4328.846191,4396.282227,7242.000000,3.000000,62.000000,,,,0.000000,4.000000,4.000000,4.000000,4.000000,4.000000,4.000000,4.000000,4.000000,4.000000,4.000000,4.000000,4.000000,4.000000,4.000000,100.000000,,,,,,,,,,,,,,,,,,,,,,,,,,,,
1703503534.055464,1703503534.056429,94.000000,0.000000,4298.589844,4243.333496,4269.871582,4293.974121,4265.897461,4266.153809,4263.846191,4210.128418,4234.871582,4232.436035,4420.000000,4433.589844,4333.205078,4401.538574,6107.000000,3.000000,62.000000,,,,0.000000,4.000000,4.000000,4.000000,4.000000,4.000000,4.000000,4.000000,4.000000,4.000000,4.000000,4.000000,4.000000,4.000000,4.000000,100.000000,,,,,,,,,,,,,,,,,,,,,,,,,,,,
1703503534.063272,1703503534.064237,95.000000,0.000000,4299.615234,4245.512695,4271.153809,4292.051270,4270.897461,4263.846191,4266.666504,4230.000000,4250.641113,4245.641113,4431.410156,4446.538574,4348.974121,4414.358887,6337.000000,3.000000,62.000000,,,,0.000000,4.000000,4.000000,4.000000,4.000000,4.000000,4.000000,4.000000,4.000000,4.000000,4.000000,4.000000,4.000000,4.000000,4.000000,100.000000,,,,,,,,,,,,,,,,,,,,,,,,,,,,
1703503534.071080,1703503534.071945,96.000000,0.000000,4291.153809,4245.128418,4258.205078,4283.077148,4270.256348,4261.538574,4261.666504,4226.538574,4252.051270,4242.948730,4423.333496,4435.512695,4343.205078,4403.333496,6880.000000,3.000000,62.000000,,,,0.000000,4.000000,4.000000,4.000000,4.000000,4.000000,4.000000,4.000000,4.000000,4.000000,4.000000,4.000000,4.000000,4.000000,4.000000,100.000000,,,,,,,,,,,,,,,,,24.000000,0.000000,0.433539,0.521729,-0.451965,0.579285,0.985472,-0.066414,0.044439,-14.750820,-39.921085,62.353546
1703503534.078888,1703503534.079753,97.000000,0.000000,4283.974121,4247.307617,4245.897461,4280.897461,4261.538574,4261.666504,4261.025879,4215.769043,4240.256348,4227.820313,4413.333496,4417.051270,4333.974121,4384.615234,7242.000000,3.000000,62.000000,,,,0.000000,4.000000,4.000000,4.000000,4.000000,4.000000,4.000000,4.000000,4.000000,4.000000,4.000000,4.000000,4.000000,4.000000,4.000000,100.000000,1.000000,91.666664,4.000000,4.000000,4.000000,4.000000,4.000000,4.000000,4.000000,4.000000,4.000000,4.000000,4.000000,4.000000,3.000000,4.000000,,,,,,,,,,,,
1703503534.086696,1703503534.087461,98.000000,0.000000,4289.743652,4249.743652,4256.410156,4290.512695,4262.692383,4261.282227,4263.974121,4222.436035,4240.897461,4227.307617,4420.897461,4429.102539,4344.358887,4393.974121,6107.000000,3.000000,62.000000,,,,0.000000,4.000000,4.000000,4.000000,4.000000,4.000000,4.000000,4.000000,4.000000,4.000000,4.000000,4.000000,4.000000,4.000000,4.000000,100.000000,,,,,,,,,,,,,,,,,,,,,,,,,,,,
1703503534.094504,1703503534.095269,99.000000,0.000000,4302.307617,4259.358887,4283.333496,4301.538574,4274.743652,4262.692383,4267.179688,4228.077148,4250.897461,4245.641113,4437.051270,4458.205078,4360.512695,4418.333496,6337.000000,3.000000,62.000000,,,,0.000000,4.000000,4.000000,4.000000,4.000000,4.000000,4.000000,4.000000,4.000000,4.000000,4.000000,4.000000,4.000000,4.000000,4.000000,100.000000,,,,,,,,,,,,,,,,,,,,,,,,,,,,
1703503534.102312,1703503534.102977,100.000000,0.000000,4316.794922,4275.512695,4301.153809,4310.256348,4281.794922,4264.871582,4267.179688,4219.487305,4248.846191,4260.512695,4448.077148,4471.538574,4371.666504,4430.384766,6880.000000,3.000000,62.000000,,,,0.000000,4.000000,4.000000,4.000000,4.000000,4.000000,4.000000,4.000000,4.000000,4.000000,4.000000,4.000000,4.000000,4.000000,4.000000,100.000000,,,,,,,,,,,,,,,,,25.000000,0.000000,0.433620,0.521729,-0.451965,0.579224,0.987914,-0.082530,0.051764,-14.725739,-40.045643,62.051525
1703503534.110120,1703503534.110785,101.000000,0.000000,4326.666504,4282.820313,4307.692383,4312.820313,4279.615234,4262.820313,4264.358887,4209.102539,4235.897461,4251.410156,4443.461426,4466.794922,4370.641113,4425.000000,7242.000000,3.000000,62.000000,,,,0.000000,4.000000,4.000000,4.000000,4.000000,4.000000,4.000000,4.000000,4.000000,4.000000,4.000000,4.000000,4.000000,4.000000,4.000000,100.000000,,,,,,,,,,,,,,,,,,,,,,,,,,,,
1703503534.117928,1703503534.118493,102.000000,0.000000,4323.077148,4283.461426,4313.589844,4313.205078,4278.333496,4260.128418,4263.077148,4202.179688,4228.974121,4233.333496,4429.102539,4453.333496,4358.077148,4413.717773,6107.000000,3.000000,62.000000,,,,0.000000,4.000000,4.000000,4.000000,4.000000,4.000000,4.000000,4.000000,4.000000,4.000000,4.000000,4.000000,4.000000,4.000000,4.000000,100.000000,,,,,,,,,,,,,,,,,,,,,,,,,,,,
1703503534.125736,1703503534.126301,103.000000,0.000000,4315.897461,4282.692383,4313.205078,4312.307617,4279.230957,4261.025879,4265.000000,4199.487305,4227.820313,4226.153809,4422.820313,4445.641113,4353.077148,4410.512695,6337.000000,3.000000,62.000000,,,,0.000000,4.000000,4.000000,4.000000,4.000000,4.000000,4.000000,4.000000,4.000000,4.000000,4.000000,4.000000,4.000000,4.000000,4.000000,100.000000,,,,,,,,,,,,,,,,,,,,,,,,,,,,
1703503534.133544,1703503534.134009,104.000000,0.000000,4309.743652,4273.461426,4300.769043,4299.615234,4275.256348,4260.000000,4265.641113,4200.897461,4219.358887,4222.179688,4420.256348,4443.974121,4354.102539,4408.589844,6880.000000,3.000000,62.000000,,,,0.000000,4.000000,4.000000,4.000000,4.000000,4.000000,4.000000,4.000000,4.000000,4.000000,4.000000,4.000000,4.000000,4.000000,4.000000,100.000000,,,,,,,,,,,,,,,,,26.000000,0.000000,0.433630,0.521667,-0.452026,0.579224,0.986937,-0.070809,0.048346,-14.536498,-40.124413,62.029705
1703503534.141352,1703503534.141817,105.000000,0.000000,4299.358887,4261.794922,4290.256348,4283.205078,4270.897461,4258.846191,4263.077148,4206.410156,4212.692383,4219.871582,4419.230957,4442.948730,4352.563965,4404.871582,7242.000000,3.000000,62.000000,,,,0.000000,4.000000,4.000000,4.000000,4.000000,4.000000,4.000000,4.000000,4.000000,4.000000,4.000000,4.000000,4.000000,4.000000,4.000000,100.000000,,,,,,,,,,,,,,,,,,,,,,,,,,,,
1703503534.149160,1703503534.149525,106.000000,0.000000,4293.461426,4261.153809,4291.410156,4278.846191,4269.487305,4262.179688,4265.256348,4219.743652,4223.205078,4227.179688,4426.922852,4452.179688,4357.948730,4407.948730,6107.000000,3.000000,62.000000,,,,0.000000,4.000000,4.000000,4.000000,4.000000,4.000000,4.000000,4.000000,4.000000,4.000000,4.000000,4.000000,4.000000,4.000000,4.000000,100.000000,,,,,,,,,,,,,,,,,,,,,,,,,,,,
1703503534.156968,1703503534.157433,107.000000,0.000000,4293.974121,4263.589844,4288.333496,4279.743652,4265.256348,4259.102539,4268.717773,4235.641113,4241.538574,4238.974121,4433.974121,4464.358887,4369.358887,4411.153809,6337.000000,3.000000,62.000000,,,,0.000000,4.000000,4.000000,4.000000,4.000000,4.000000,4.000000,4.000000,4.000000,4.000000,4.000000,4.000000,4.000000,4.000000,4.000000,100.000000,,,,,,,,,,,,,,,,,,,,,,,,,,,,
1703503534.164776,1703503534.165241,108.000000,0.000000,4289.230957,4260.769043,4278.461426,4278.717773,4261.922852,4252.563965,4267.051270,4245.256348,4255.769043,4254.615234,4440.384766,4461.025879,4378.589844,4409.743652,6880.000000,3.000000,62.000000,,,,0.000000,4.000000,4.000000,4.000000,4.000000,4.000000,4.000000,4.000000,4.000000,4.000000,4.000000,4.000000,4.000000,4.000000,4.000000,100.000000,,,,,,,,,,,,,,,,,27.000000,0.000000,0.433795,0.521545,-0.452087,0.579163,0.996704,-0.083018,0.045904,-14.699515,-40.211971,61.993401
1703503534.172585,1703503534.173149,109.000000,0.000000,4290.384766,4264.230957,4283.077148,4280.000000,4264.615234,4253.717773,4262.563965,4247.307617,4266.025879,4268.461426,4448.589844,4456.025879,4389.871582,4410.128418,7242.000000,3.000000,62.000000,,,,0.000000,4.000000,4.000000,4.000000,4.000000,4.000000,4.000000,4.000000,4.000000,4.000000,4.000000,4.000000,4.000000,4.000000,4.000000,100.000000,,,,,,,,,,,,,,,,,,,,,,,,,,,,
1703503534.180393,1703503534.180957,110.000000,0.000000,4303.974121,4275.256348,4295.256348,4284.358887,4267.820313,4255.256348,4263.077148,4242.948730,4266.410156,4269.102539,4450.769043,4466.666504,4402.307617,4418.589844,6107.000000,3.000000,62.000000,,,,0.000000,4.000000,4.000000,4.000000,4.000000,4.000000,4.000000,4.000000,4.000000,4.000000,4.000000,4.000000,4.000000,4.000000,4.000000,100.000000,,,,,,,,,,,,,,,,,,,,,,,,,,,,
1703503534.188201,1703503534.188865,111.000000,0.000000,4308.974121,4279.487305,4300.512695,4289.615234,4263.974121,4248.974121,4262.563965,4233.333496,4251.922852,4256.153809,4440.769043,4473.717773,4400.769043,4423.846191,6337.000000,3.000000,62.000000,,,,0.000000,4.000000,4.000000,4.000000,4.000000,4.000000,4.000000,4.000000,4.000000,4.000000,4.000000,4.000000,4.000000,4.000000,4.000000,100.000000,,,,,,,,,,,,,,,,,,,,,,,,,,,,
1703503534.196009,1703503534.196673,112.000000,0.000000,4303.846191,4278.461426,4304.487305,4293.717773,4260.769043,4245.384766,4253.461426,4217.820313,4236.282227,4237.820313,4421.282227,4461.922852,4387.563965,4416.153809,6880.000000,3.000000,62.000000,,,,0.000000,4.000000,4.000000,4.000000,4.000000,4.000000,4.000000,4.000000,4.000000,4.000000,4.000000,4.000000,4.000000,4.000000,4.000000,100.000000,,,,,,,,,,,,,,,,,28.000000,0.000000,0.433950,0.521484,-0.452087,0.579102,0.990355,-0.066414,0.044439,-14.562897,-40.224106,62.010727
1703503534.203817,1703503534.204581,113.000000,0.000000,4308.205078,4283.846191,4308.717773,4294.358887,4263.846191,4248.333496,4248.461426,4202.563965,4229.230957,4230.128418,4408.461426,4454.230957,4384.615234,4411.282227,7242.000000,3.000000,62.000000,,,,0.000000,4.000000,4.000000,4.000000,4.000000,4.000000,4.000000,4.000000,4.000000,4.000000,4.000000,4.000000,4.000000,4.000000,4.000000,100.000000,,,,,,,,,,,,,,,,,,,,,,,,,,,,
1703503534.211625,1703503534.212389,114.000000,0.000000,4312.563965,4289.358887,4308.333496,4296.025879,4267.692383,4248.589844,4255.384766,4201.666504,4223.205078,4232.436035,4406.666504,4458.077148,4384.230957,4415.384766,6107.000000,3.000000,62.000000,,,,0.000000,4.000000,4.000000,4.000000,4.000000,4.000000,4.000000,4.000000,4.000000,4.000000,4.000000,4.000000,4.000000,4.000000,4.000000,100.000000,,,,,,,,,,,,,,,,,,,,,,,,,,,,
1703503534.219433,1703503534.220296,115.000000,0.000000,4304.358887,4283.589844,4302.563965,4294.487305,4268.333496,4249.230957,4262.948730,4212.051270,4222.948730,4230.512695,4403.717773,4455.384766,4378.846191,4415.128418,6337.000000,3.000000,62.000000,,,,0.000000,4.000000,4.000000,4.000000,4.000000,4.000000,4.000000,4.000000,4.000000,4.000000,4.000000,4.000000,4.000000,4.000000,4.000000,100.000000,,,,,,,,,,,,,,,,,,,,,,,,,,,,
1703503534.227241,1703503534.228104,116.000000,0.000000,4291.282227,4275.256348,4291.922852,4282.563965,4267.436035,4255.128418,4263.333496,4216.794922,4226.794922,4226.666504,4398.077148,4437.563965,4377.436035,4405.128418,6880.000000,3.000000,62.000000,,,,0.000000,4.000000,4.000000,4.000000,4.000000,4.000000,4.000000,4.000000,4.000000,4.000000,4.000000,4.000000,4.000000,4.000000,4.000000,100.000000,,,,,,,,,,,,,,,,,29.000000,0.000000,0.434004,0.521545,-0.451965,0.579102,0.980100,-0.071786,0.051764,-14.556607,-40.235031,61.942989
1703503534.235049,1703503534.235812,117.000000,0.000000,4289.871582,4273.717773,4285.000000,4277.948730,4264.230957,4261.153809,4265.256348,4217.051270,4227.179688,4228.205078,4394.487305,4428.589844,4374.358887,4396.025879,7242.000000,3.000000,62.000000,,,,0.000000,4.000000,4.000000,4.000000,4.000000,4.000000,4.000000,4.000000,4.000000,4.000000,4.000000,4.000000,4.000000,4.000000,4.000000,100.000000,,,,,,,,,,,,,,,,,,,,,,,,,,,,
1703503534.242857,1703503534.243620,118.000000,0.000000,4302.692383,4279.230957,4291.922852,4283.974121,4262.820313,4263.205078,4273.205078,4224.230957,4233.974121,4237.820313,4403.333496,4452.179688,4380.256348,4408.589844,6107.000000,3.000000,62.000000,,,,0.000000,4.000000,4.000000,4.000000,4.000000,4.000000,4.000000,4.000000,4.000000,4.000000,4.000000,4.000000,4.000000,4.000000,4.000000,100.000000,,,,,,,,,,,,,,,,,,,,,,,,,,,,
1703503534.250665,1703503534.251329,119.000000,0.000000,4312.179688,4287.820313,4304.358887,4283.846191,4268.205078,4262.692383,4276.025879,4234.102539,4247.436035,4249.230957,4423.077148,4481.538574,4403.461426,4430.769043,6337.000000,3.000000,62.000000,,,,0.000000,4.000000,4.000000,4.000000,4.000000,4.000000,4.000000,4.000000,4.000000,4.000000,4.000000,4.000000,4.000000,4.000000,4.000000,100.000000,,,,,,,,,,,,,,,,,,,,,,,,,,,,
1703503534.258473,1703503534.259136,120.000000,0.000000,4311.538574,4293.461426,4308.846191,4285.000000,4275.000000,4262.948730,4273.461426,4238.589844,4258.717773,4257.820313,4433.205078,4482.948730,4417.563965,4434.487305,6880.000000,3.000000,62.000000,,,,0.000000,4.000000,4.000000,4.000000,4.000000,4.000000,4.000000,4.000000,4.000000,4.000000,4.000000,4.000000,4.000000,4.000000,4.000000,100.000000,,,,,,,,,,,,,,,,,30.000000,0.000000,0.434113,0.521545,-0.451782,0.579163,0.981077,-0.079600,0.044927,-14.717613,-40.228195,61.998692
1703503534.266281,1703503534.266845,121.000000,0.000000,4313.333496,4293.717773,4310.897461,4294.487305,4276.922852,4262.948730,4273.461426,4242.692383,4261.922852,4262.692383,4429.743652,4474.487305,4416.666504,4428.461426,7242.000000,3.000000,62.000000,,,,0.000000,4.000000,4.000000,4.000000,4.000000,4.000000,4.000000,4.000000,4.000000,4.000000,4.000000,4.000000,4.000000,4.000000,4.000000,100.000000,,,,,,,,,,,,,,,,,,,,,,,,,,,,
1703503534.274089,1703503534.274653,122.000000,0.000000,4319.615234,4296.410156,4320.256348,4297.563965,4276.025879,4263.461426,4273.205078,4247.436035,4256.666504,4260.384766,4421.153809,4482.307617,4416.922852,4434.487305,6107.000000,3.000000,62.000000,,,,0.000000,4.000000,4.000000,4.000000,4.000000,4.000000,4.000000,4.000000,4.000000,4.000000,4.000000,4.000000,4.000000,4.000000,4.000000,100.000000,,,,,,,,,,,,,,,,,,,,,,,,,,,,
1703503534.281897,1703503534.282361,123.000000,0.000000,4317.051270,4295.000000,4323.589844,4293.077148,4278.077148,4261.538574,4266.153809,4247.692383,4255.641113,4260.512695,4418.717773,4497.307617,4419.743652,4444.487305,6337.000000,3.000000,62.000000,,,,0.000000,4.000000,4.000000,4.000000,4.000000,4.000000,4.000000,4.000000,4.000000,4.000000,4.000000,4.000000,4.000000,4.000000,4.000000,100.000000,,,,,,,,,,,,,,,,,,,,,,,,,,,,
1703503534.289705,1703503534.290169,124.000000,0.000000,4307.820313,4286.025879,4313.205078,4292.307617,4278.205078,4258.589844,4262.692383,4240.897461,4256.538574,4258.717773,4419.615234,4492.692383,4417.051270,4438.077148,6880.000000,3.000000,62.000000,,,,0.000000,4.000000,4.000000,4.000000,4.000000,4.000000,4.000000,4.000000,4.000000,4.000000,4.000000,4.000000,4.000000,4.000000,4.000000,100.000000,,,,,,,,,,,,,,,,,31.000000,0.000000,0.434342,0.521362,-0.451538,0.579346,0.985472,-0.071786,0.054694,-14.762518,-40.172039,61.965488
1703503534.297513,1703503534.297877,125.000000,0.000000,4307.307617,4285.384766,4309.871582,4293.717773,4279.743652,4261.153809,4268.846191,4231.794922,4249.743652,4251.666504,4412.051270,4470.384766,4411.282227,4424.743652,7242.000000,3.000000,62.000000,,,,0.000000,4.000000,4.000000,4.000000,4.000000,4.000000,4.000000,4.000000,4.000000,4.000000,4.000000,4.000000,4.000000,4.000000,4.000000,100.000000,,,,,,,,,,,,,,,,,,,,,,,,,,,,
1703503534.305321,1703503534.305685,126.000000,0.000000,4304.743652,4286.794922,4311.410156,4291.153809,4286.794922,4266.538574,4274.358887,4231.410156,4252.820313,4257.307617,4402.436035,4461.410156,4410.641113,4420.641113,6107.000000,3.000000,62.000000,,,,0.000000,4.000000,4.000000,4.000000,4.000000,4.000000,4.000000,4.000000,4.000000,4.000000,4.000000,4.000000,4.000000,4.000000,4.000000,100.000000,,,,,,,,,,,,,,,,,,,,,,,,,,,,
1703503534.313130,1703503534.313393,127.000000,0.000000,4295.641113,4282.179688,4300.897461,4288.717773,4286.666504,4267.563965,4278.974121,4233.205078,4261.538574,4264.487305,4397.051270,4462.948730,4409.871582,4417.436035,62.000000,3.000000,62.000000,,,,0.000000,4.000000,4.000000,4.000000,4.000000,4.000000,4.000000,4.000000,4.000000,4.000000,4.000000,4.000000,4.000000,4.000000,4.000000,100.000000,,,,,,,,,,,,,,,,,,,,,,,,,,,,
1703503534.320938,1703503534.321201,0.000000,0.000000,4292.692383,4286.538574,4290.000000,4287.692383,4282.563965,4266.666504,4276.922852,4234.358887,4260.769043,4267.051270,4399.102539,4452.563965,4413.589844,4413.717773,5288.000000,3.000000,62.000000,,,,0.000000,4.000000,4.000000,4.000000,4.000000,4.000000,4.000000,4.000000,4.000000,4.000000,4.000000,4.000000,4.000000,4.000000,4.000000,100.000000,,,,,,,,,,,,,,,,,0.000000,0.000000,0.434284,0.520996,-0.451782,0.579529,0.990355,-0.079111,0.045416,-14.702933,-40.154839,61.952274
1703503534.328746,1703503534.328909,1.000000,0.000000,4296.025879,4295.769043,4291.410156,4284.358887,4284.487305,4265.384766,4268.077148,4242.179688,4268.333496,4276.794922,4404.743652,4446.025879,4424.358887,4414.358887,5531.000000,3.000000,62.000000,,,,0.000000,4.000000,4.000000,4.000000,4.000000,4.000000,4.000000,4.000000,4.000000,4.000000,4.000000,4.000000,4.000000,4.000000,4.000000,100.000000,,,,,,,,,,,,,,,,,,,,,,,,,,,,
1703503534.336554,1703503534.336817,2.000000,0.000000,4300.256348,4296.282227,4294.230957,4279.743652,4285.641113,4264.102539,4265.000000,4240.384766,4269.487305,4275.512695,4404.871582,4447.563965,4422.820313,4411.922852,5417.000000,3.000000,62.000000,,,,0.000000,4.000000,4.000000,4.000000,4.000000,4.000000,4.000000,4.000000,4.000000,4.000000,4.000000,4.000000,4.000000,4.000000,4.000000,100.000000,,,,,,,,,,,,,,,,,,,,,,,,,,,,
1703503534.344362,1703503534.344625,3.000000,0.000000,4300.897461,4294.230957,4291.922852,4279.102539,4280.128418,4263.974121,4268.846191,4232.692383,4251.282227,4259.487305,4395.641113,4445.769043,4412.179688,4408.077148,5397.000000,3.000000,62.000000,,,,0.000000,4.000000,4.000000,4.000000,4.000000,4.000000,4.000000,4.000000,4.000000,4.000000,4.000000,4.000000,4.000000,4.000000,4.000000,100.000000,,,,,,,,,,,,,,,,,,,,,,,,,,,,
1703503534.352170,1703503534.352532,4.000000,0.000000,4300.000000,4296.025879,4291.794922,4280.769043,4277.820313,4264.358887,4270.512695,4238.077148,4245.769043,4253.205078,4388.077148,4446.282227,4411.282227,4410.897461,5298.000000,3.000000,62.000000,,,,0.000000,4.000000,4.000000,4.000000,4.000000,4.000000,4.000000,4.000000,4.000000,4.000000,4.000000,4.000000,4.000000,4.000000,4.000000,100.000000,,,,,,,,,,,,,,,,,1.000000,0.000000,0.434198,0.520508,-0.452271,0.579651,0.984984,-0.078623,0.032719,-14.732640,-40.056019,61.807045
1703503534.359978,1703503534.360340,5.000000,0.000000,4302.820313,4300.641113,4292.820313,4280.769043,4285.256348,4266.153809,4267.948730,4241.538574,4251.410156,4251.666504,4390.641113,4446.794922,4415.256348,4413.077148,4923.000000,3.000000,62.000000,,,,0.000000,4.000000,4.000000,4.000000,4.000000,4.000000,4.000000,4.000000,4.000000,4.000000,4.000000,4.000000,4.000000,4.000000,4.000000,100.000000,,,,,,,,,,,,,,,,,,,,,,,,,,,,
1703503534.367786,1703503534.368248,6.000000,0.000000,4307.820313,4302.820313,4295.000000,4281.410156,4286.922852,4263.333496,4266.666504,4232.692383,4240.512695,4245.769043,4393.333496,4447.051270,4415.512695,4413.974121,4046.000000,3.000000,62.000000,,,,0.000000,4.000000,4.000000,4.000000,4.000000,4.000000,4.000000,4.000000,4.000000,4.000000,4.000000,4.000000,4.000000,4.000000,4.000000,100.000000,,,,,,,,,,,,,,,,,,,,,,,,,,,,
1703503534.375594,1703503534.376056,7.000000,0.000000,4311.153809,4298.461426,4303.846191,4281.410156,4280.128418,4253.461426,4263.077148,4229.871582,4229.743652,4245.897461,4394.358887,4457.307617,4414.615234,4420.512695,5040.000000,3.000000,62.000000,,,,0.000000,4.000000,4.000000,4.000000,4.000000,4.000000,4.000000,4.000000,4.000000,4.000000,4.000000,4.000000,4.000000,4.000000,4.000000,100.000000,,,,,,,,,,,,,,,,,,,,,,,,,,,,
1703503534.383402,1703503534.383964,8.000000,0.000000,4305.897461,4292.820313,4304.615234,4279.743652,4275.641113,4246.282227,4253.077148,4235.128418,4240.512695,4255.256348,4398.333496,4470.641113,4416.153809,4426.153809,4991.000000,3.000000,62.000000,,,,0.000000,4.000000,4.000000,4.000000,4.000000,4.000000,4.000000,4.000000,4.000000,4.000000,4.000000,4.000000,4.000000,4.000000,4.000000,100.000000,,,,,,,,,,,,,,,,,2.000000,0.000000,0.434110,0.520142,-0.452698,0.579712,0.985472,-0.077158,0.055183,-14.592710,-40.050419,61.893009
1703503534.391210,1703503534.391772,9.000000,0.000000,4298.077148,4287.051270,4300.384766,4278.077148,4272.051270,4244.871582,4245.512695,4234.743652,4250.512695,4261.410156,4400.512695,4471.922852,4417.051270,4426.538574,5522.000000,3.000000,62.000000,,,,0.000000,4.000000,4.000000,4.000000,4.000000,4.000000,4.000000,4.000000,4.000000,4.000000,4.000000,4.000000,4.000000,4.000000,4.000000,100.000000,,,,,,,,,,,,,,,,,,,,,,,,,,,,
1703503534.399018,1703503534.399680,10.000000,0.000000,4298.333496,4283.077148,4303.717773,4277.692383,4267.436035,4244.102539,4242.436035,4231.666504,4244.487305,4253.205078,4393.717773,4463.205078,4412.051270,4418.461426,6095.000000,3.000000,62.000000,,,,0.000000,4.000000,4.000000,4.000000,4.000000,4.000000,4.000000,4.000000,4.000000,4.000000,4.000000,4.000000,4.000000,4.000000,4.000000,100.000000,,,,,,,,,,,,,,,,,,,,,,,,,,,,
1703503534.406826,1703503534.407488,11.000000,0.000000,4298.974121,4280.384766,4306.025879,4274.487305,4266.922852,4241.794922,4243.717773,4231.794922,4240.897461,4242.948730,4387.179688,4461.538574,4404.230957,4413.205078,6352.000000,3.000000,62.000000,,,,0.000000,4.000000,4.000000,4.000000,4.000000,4.000000,4.000000,4.000000,4.000000,4.000000,4.000000,4.000000,4.000000,4.000000,4.000000,100.000000,,,,,,,,,,,,,,,,,,,,,,,,,,,,
1703503534.414634,1703503534.415396,12.000000,0.000000,4286.153809,4271.410156,4291.922852,4265.384766,4265.512695,4245.000000,4247.692383,4234.102539,4243.205078,4238.717773,4379.871582,4458.333496,4393.077148,4407.563965,6908.000000,3.000000,62.000000,,,,0.000000,4.000000,4.000000,4.000000,4.000000,4.000000,4.000000,4.000000,4.000000,4.000000,4.000000,4.000000,4.000000,4.000000,4.000000,100.000000,,,,,,,,,,,,,,,,,3.000000,0.000000,0.434193,0.520020,-0.452759,0.579712,0.983030,-0.081065,0.046392,-14.533439,-40.112041,61.903706
1703503534.422442,1703503534.423204,13.000000,0.000000,4273.974121,4261.538574,4276.282227,4257.307617,4264.230957,4256.153809,4252.692383,4238.717773,4243.461426,4234.743652,4369.102539,4444.358887,4384.358887,4394.487305,7249.000000,3.000000,62.000000,,,,0.000000,4.000000,4.000000,4.000000,4.000000,4.000000,4.000000,4.000000,4.000000,4.000000,4.000000,4.000000,4.000000,4.000000,4.000000,100.000000,,,,,,,,,,,,,,,,,,,,,,,,,,,,
1703503534.430250,1703503534.430912,14.000000,0.000000,4278.717773,4263.333496,4279.358887,4256.666504,4268.846191,4265.128418,4258.846191,4243.974121,4242.563965,4234.743652,4371.410156,4443.589844,4388.077148,4396.410156,6095.000000,3.000000,62.000000,,,,0.000000,4.000000,4.000000,4.000000,4.000000,4.000000,4.000000,4.000000,4.000000,4.000000,4.000000,4.000000,4.000000,4.000000,4.000000,100.000000,,,,,,,,,,,,,,,,,,,,,,,,,,,,
1703503534.438058,1703503534.438720,15.000000,0.000000,4290.256348,4273.205078,4292.436035,4267.051270,4273.717773,4265.512695,4263.974121,4248.974121,4246.666504,4239.102539,4381.794922,4460.128418,4396.922852,4410.512695,6352.000000,3.000000,62.000000,,,,0.000000,4.000000,4.000000,4.000000,4.000000,4.000000,4.000000,4.000000,4.000000,4.000000,4.000000,4.000000,4.000000,4.000000,4.000000,100.000000,,,,,,,,,,,,,,,,,,,,,,,,,,,,
1703503534.445866,1703503534.446428,16.000000,0.000000,4300.384766,4280.897461,4302.948730,4282.307617,4281.025879,4267.692383,4266.794922,4250.128418,4248.461426,4242.179688,4390.769043,4468.077148,4403.846191,4420.641113,0.000000,3.000000,62.000000,,,,0.000000,4.000000,4.000000,4.000000,4.000000,4.000000,4.000000,4.000000,4.000000,4.000000,4.000000,4.000000,4.000000,4.000000,4.000000,100.000000,,,,,,,,,,,,,,,,,4.000000,0.000000,0.434110,0.520142,-0.452698,0.579712,0.991820,-0.083506,0.043462,-14.430095,-40.117504,61.963337
1703503534.453674,1703503534.454236,17.000000,0.000000,4304.230957,4281.153809,4306.794922,4286.794922,4280.384766,4266.410156,4266.922852,4240.897461,4238.974121,4240.000000,4389.615234,4462.563965,4402.563965,4419.358887,0.000000,3.000000,62.000000,,,,0.000000,4.000000,4.000000,4.000000,4.000000,4.000000,4.000000,4.000000,4.000000,4.000000,4.000000,4.000000,4.000000,4.000000,4.000000,100.000000,,,,,,,,,,,,,,,,,,,,,,,,,,,,
1703503534.461483,1703503534.461944,18.000000,0.000000,4306.922852,4281.922852,4310.641113,4285.641113,4267.179688,4253.461426,4260.641113,4230.641113,4229.615234,4234.615234,4381.922852,4462.179688,4395.769043,4416.794922,0.000000,3.000000,62.000000,,,,0.000000,4.000000,4.000000,4.000000,4.000000,4.000000,4.000000,4.000000,4.000000,4.000000,4.000000,4.000000,4.000000,4.000000,4.000000,100.000000,,,,,,,,,,,,,,,,,,,,,,,,,,,,
1703503534.469291,1703503534.469752,19.000000,0.000000,4309.871582,4287.051270,4314.871582,4284.743652,4263.717773,4247.051270,4251.153809,4229.230957,4227.436035,4229.102539,4387.051270,4468.461426,4397.179688,4424.230957,0.000000,3.000000,62.000000,,,,0.000000,4.000000,4.000000,4.000000,4.000000,4.000000,4.000000,4.000000,4.000000,4.000000,4.000000,4.000000,4.000000,4.000000,4.000000,100.000000,,,,,,,,,,,,,,,,,,,,,,,,,,,,
1703503534.477099,1703503534.477460,20.000000,0.000000,4302.820313,4281.410156,4308.077148,4258.589844,4263.589844,4243.717773,4248.077148,4225.128418,4220.769043,4222.436035,4383.974121,4462.051270,4392.820313,4417.820313,0.000000,3.000000,62.000000,,,,0.000000,4.000000,4.000000,4.000000,4.000000,4.000000,4.000000,4.000000,4.000000,4.000000,4.000000,4.000000,4.000000,4.000000,4.000000,100.000000,,,,,,,,,,,,,,,,,5.000000,0.000000,0.433946,0.520264,-0.452637,0.579773,0.984495,-0.080576,0.053229,-14.403751,-40.189087,61.783669
1703503534.484907,1703503534.485368,21.000000,0.000000,4291.153809,4272.179688,4290.512695,4196.538574,4250.897461,4234.871582,4247.820313,4214.615234,4210.512695,4216.153809,4361.922852,4440.384766,4375.897461,4391.025879,0.000000,3.000000,62.000000,,,,0.000000,4.000000,4.000000,4.000000,4.000000,4.000000,4.000000,4.000000,4.000000,4.000000,4.000000,4.000000,4.000000,4.000000,4.000000,100.000000,,,,,,,,,,,,,,,,,,,,,,,,,,,,
1703503534.492715,1703503534.493176,22.000000,0.000000,4288.077148,4274.487305,4278.846191,4142.436035,4236.153809,4236.025879,4246.153809,4208.077148,4206.666504,4211.794922,4351.410156,4420.256348,4366.153809,4372.820313,0.000000,3.000000,62.000000,,,,0.000000,4.000000,4.000000,4.000000,4.000000,4.000000,4.000000,4.000000,4.000000,4.000000,4.000000,4.000000,4.000000,4.000000,4.000000,100.000000,,,,,,,,,,,,,,,,,,,,,,,,,,,,
1703503534.500523,1703503534.500984,23.000000,0.000000,4293.589844,4279.102539,4279.487305,4132.051270,4232.307617,4247.051270,4246.410156,4207.179688,4204.871582,4202.948730,4355.512695,4415.641113,4362.948730,4374.743652,0.000000,3.000000,62.000000,,,,0.000000,4.000000,4.000000,4.000000,4.000000,4.000000,4.000000,4.000000,4.000000,4.000000,4.000000,4.000000,4.000000,4.000000,4.000000,100.000000,,,,,,,,,,,,,,,,,,,,,,,,,,,,
1703503534.508331,1703503534.508692,24.000000,0.000000,4292.820313,4275.769043,4277.820313,4142.436035,4238.846191,4247.436035,4247.436035,4217.307617,4211.153809,4201.666504,4356.922852,4421.282227,4359.615234,4376.025879,0.000000,3.000000,62.000000,,,,0.000000,4.000000,4.000000,4.000000,4.000000,4.000000,4.000000,4.000000,4.000000,4.000000,4.000000,4.000000,4.000000,4.000000,4.000000,100.000000,,,,,,,,,,,,,,,,,6.000000,0.000000,0.434006,0.520630,-0.452393,0.579590,0.984984,-0.080088,0.043462,-14.413377,-40.203514,61.905304
1703503534.516139,1703503534.516500,25.000000,0.000000,4293.333496,4274.102539,4282.820313,4156.153809,4246.538574,4245.128418,4253.333496,4231.153809,4225.512695,4213.717773,4359.487305,4430.000000,4367.948730,4376.794922,0.000000,3.000000,62.000000,,,,0.000000,4.000000,4.000000,4.000000,4.000000,4.000000,4.000000,4.000000,4.000000,4.000000,4.000000,4.000000,4.000000,4.000000,4.000000,100.000000,,,,,,,,,,,,,,,,,,,,,,,,,,,,
1703503534.523947,1703503534.524208,26.000000,0.000000,4304.743652,4284.871582,4296.922852,4181.538574,4252.563965,4255.128418,4261.794922,4235.769043,4230.384766,4221.025879,4371.282227,4435.769043,4379.615234,4386.153809,0.000000,3.000000,62.000000,,,,0.000000,4.000000,4.000000,4.000000,4.000000,4.000000,4.000000,4.000000,4.000000,4.000000,4.000000,4.000000,4.000000,4.000000,4.000000,100.000000,,,,,,,,,,,,,,,,,,,,,,,,,,,,
1703503534.531755,1703503534.532116,27.000000,0.000000,4311.410156,4296.025879,4301.794922,4206.410156,4258.974121,4256.153809,4262.436035,4238.589844,4229.487305,4220.641113,4380.128418,4438.461426,4381.794922,4393.717773,0.000000,3.000000,62.000000,,,,0.000000,4.000000,4.000000,4.000000,4.000000,4.000000,4.000000,4.000000,4.000000,4.000000,4.000000,4.000000,4.000000,4.000000,4.000000,100.000000,,,,,,,,,,,,,,,,,,,,,,,,,,,,
1703503534.539563,1703503534.539924,28.000000,0.000000,4314.230957,4297.692383,4305.512695,4223.846191,4264.358887,4249.102539,4261.410156,4239.487305,4230.512695,4220.641113,4381.794922,4450.000000,4383.717773,4401.922852,0.000000,3.000000,62.000000,,,,0.000000,4.000000,4.000000,4.000000,4.000000,4.000000,4.000000,4.000000,4.000000,4.000000,4.000000,4.000000,4.000000,4.000000,4.000000,100.000000,,,,,,,,,,,,,,,,,7.000000,0.000000,0.434122,0.520813,-0.452148,0.579529,0.994262,-0.084483,0.049322,-14.422039,-40.133160,61.981438
1703503534.547371,1703503534.547732,29.000000,0.000000,4318.077148,4296.410156,4318.589844,4240.769043,4262.307617,4254.358887,4265.641113,4233.333496,4230.384766,4226.282227,4389.230957,4464.230957,4394.102539,4413.974121,0.000000,3.000000,62.000000,,,,0.000000,4.000000,4.000000,4.000000,4.000000,4.000000,4.000000,4.000000,4.000000,4.000000,4.000000,4.000000,4.000000,4.000000,4.000000,100.000000,,,,,,,,,,,,,,,,,,,,,,,,,,,,
1703503534.555179,1703503534.555440,30.000000,0.000000,4316.410156,4295.384766,4321.282227,4252.820313,4265.000000,4262.563965,4267.563965,4229.743652,4228.846191,4233.461426,4398.333496,4465.128418,4400.769043,4418.461426,0.000000,3.000000,62.000000,,,,0.000000,4.000000,4.000000,4.000000,4.000000,4.000000,4.000000,4.000000,4.000000,4.000000,4.000000,4.000000,4.000000,4.000000,4.000000,100.000000,,,,,,,,,,,,,,,,,,,,,,,,,,,,
1703503534.562987,1703503534.563348,31.000000,0.000000,4314.871582,4300.897461,4312.436035,4258.205078,4278.205078,4262.820313,4265.897461,4230.641113,4228.589844,4236.153809,4400.512695,4459.102539,4403.077148,4417.563965,0.000000,3.000000,62.000000,,,,0.000000,4.000000,4.000000,4.000000,4.000000,4.000000,4.000000,4.000000,4.000000,4.000000,4.000000,4.000000,4.000000,4.000000,4.000000,100.000000,,,,,,,,,,,,,,,,,,,,,,,,,,,,
1703503534.570795,1703503534.571156,32.000000,0.000000,4321.025879,4309.615234,4316.282227,4265.256348,4278.205078,4260.769043,4265.256348,4228.974121,4230.769043,4238.717773,4405.641113,4467.051270,4411.922852,4426.666504,0.000000,3.000000,62.000000,,,,0.000000,4.000000,4.000000,4.000000,4.000000,4.000000,4.000000,4.000000,4.000000,4.000000,4.000000,4.000000,4.000000,4.000000,4.000000,100.000000,,,,,,,,,,,,,,,,,8.000000,0.000000,0.434301,0.520935,-0.452148,0.579285,0.981077,-0.082041,0.052741,-14.246502,-40.136513,61.866627
1703503534.578603,1703503534.579063,33.000000,0.000000,4321.025879,4306.410156,4326.666504,4269.871582,4267.179688,4258.589844,4263.974121,4230.897461,4234.487305,4246.153809,4415.512695,4480.512695,4425.769043,4436.025879,0.000000,3.000000,62.000000,,,,0.000000,4.000000,4.000000,4.000000,4.000000,4.000000,4.000000,4.000000,4.000000,4.000000,4.000000,4.000000,4.000000,4.000000,4.000000,100.000000,1.000000,66.666664,4.000000,4.000000,4.000000,3.000000,4.000000,4.000000,4.000000,4.000000,4.000000,4.000000,4.000000,4.000000,1.000000,4.000000,,,,,,,,,,,,
1703503534.586411,1703503534.586871,34.000000,0.000000,4310.769043,4294.871582,4319.230957,4266.538574,4272.051270,4257.948730,4263.205078,4240.128418,4245.384766,4256.922852,4420.897461,4477.307617,4430.769043,4432.051270,0.000000,3.000000,62.000000,,,,0.000000,4.000000,4.000000,4.000000,4.000000,4.000000,4.000000,4.000000,4.000000,4.000000,4.000000,4.000000,4.000000,4.000000,4.000000,100.000000,,,,,,,,,,,,,,,,,,,,,,,,,,,,
1703503534.594219,1703503534.594779,35.000000,0.000000,4305.000000,4291.282227,4303.589844,4263.974121,4278.974121,4263.846191,4266.538574,4253.461426,4256.538574,4261.922852,4422.948730,4470.897461,4429.871582,4425.256348,0.000000,3.000000,62.000000,,,,0.000000,4.000000,4.000000,4.000000,4.000000,4.000000,4.000000,4.000000,4.000000,4.000000,4.000000,4.000000,4.000000,4.000000,4.000000,100.000000,,,,,,,,,,,,,,,,,,,,,,,,,,,,
1703503534.602028,1703503534.602587,36.000000,0.000000,4310.641113,4292.948730,4309.615234,4268.717773,4270.384766,4265.897461,4267.051270,4268.333496,4262.307617,4262.820313,4425.256348,4480.128418,4435.128418,4431.153809,0.000000,3.000000,62.000000,,,,0.000000,4.000000,4.000000,4.000000,4.000000,4.000000,4.000000,4.000000,4.000000,4.000000,4.000000,4.000000,4.000000,4.000000,4.000000,100.000000,,,,,,,,,,,,,,,,,9.000000,0.000000,0.434464,0.520935,-0.452148,0.579163,0.989379,-0.073251,0.043951,-14.305184,-40.089527,61.929966
1703503534.609836,1703503534.610495,37.000000,0.000000,4319.358887,4290.512695,4325.897461,4278.333496,4266.025879,4262.051270,4267.436035,4278.205078,4270.512695,4267.820313,4432.307617,4504.102539,4443.717773,4448.589844,0.000000,3.000000,62.000000,,,,0.000000,4.000000,4.000000,4.000000,4.000000,4.000000,4.000000,4.000000,4.000000,4.000000,4.000000,4.000000,4.000000,4.000000,4.000000,100.000000,,,,,,,,,,,,,,,,,,,,,,,,,,,,
1703503534.617644,1703503534.618403,38.000000,0.000000,4320.000000,4286.922852,4328.461426,4281.410156,4270.769043,4262.563965,4272.563965,4282.436035,4278.717773,4274.102539,4444.743652,4516.025879,4448.974121,4454.487305,0.000000,3.000000,62.000000,,,,0.000000,4.000000,4.000000,4.000000,4.000000,4.000000,4.000000,4.000000,4.000000,4.000000,4.000000,4.000000,4.000000,4.000000,4.000000,100.000000,,,,,,,,,,,,,,,,,,,,,,,,,,,,
1703503534.625452,1703503534.626211,39.000000,0.000000,4317.563965,4289.487305,4324.358887,4278.205078,4274.358887,4264.487305,4271.922852,4285.128418,4282.820313,4279.743652,4445.512695,4504.230957,4451.666504,4445.128418,0.000000,3.000000,62.000000,,,,0.000000,4.000000,4.000000,4.000000,4.000000,4.000000,4.000000,4.000000,4.000000,4.000000,4.000000,4.000000,4.000000,4.000000,4.000000,100.000000,,,,,,,,,,,,,,,,,,,,,,,,,,,,
1703503534.633260,1703503534.634020,40.000000,0.000000,4316.282227,4294.487305,4325.000000,4281.666504,4279.487305,4264.743652,4268.077148,4280.897461,4280.256348,4281.666504,4430.897461,4491.282227,4447.563965,4441.922852,0.000000,3.000000,62.000000,,,,0.000000,4.000000,4.000000,4.000000,4.000000,4.000000,4.000000,4.000000,4.000000,4.000000,4.000000,4.000000,4.000000,4.000000,4.000000,100.000000,,,,,,,,,,,,,,,,,10.000000,0.000000,0.434256,0.520935,-0.452271,0.579224,0.986937,-0.073251,0.052252,-14.424666,-40.247242,61.953636
1703503534.641068,1703503534.641728,41.000000,0.000000,4312.179688,4295.512695,4321.666504,4290.512695,4280.897461,4263.717773,4268.333496,4257.436035,4257.948730,4261.410156,4416.538574,4482.563965,4434.743652,4437.307617,0.000000,3.000000,62.000000,,,,0.000000,4.000000,4.000000,4.000000,4.000000,4.000000,4.000000,4.000000,4.000000,4.000000,4.000000,4.000000,4.000000,4.000000,4.000000,100.000000,,,,,,,,,,,,,,,,,,,,,,,,,,,,
1703503534.648876,1703503534.649536,42.000000,0.000000,4309.487305,4297.948730,4309.615234,4294.615234,4278.077148,4261.538574,4267.436035,4231.538574,4232.179688,4232.436035,4408.077148,4467.563965,4425.000000,4422.948730,0.000000,3.000000,62.000000,,,,0.000000,4.000000,4.000000,4.000000,4.000000,4.000000,4.000000,4.000000,4.000000,4.000000,4.000000,4.000000,4.000000,4.000000,4.000000,100.000000,,,,,,,,,,,,,,,,,,,,,,,,,,,,
1703503534.656684,1703503534.657244,43.000000,0.000000,4310.128418,4304.615234,4308.077148,4296.794922,4280.641113,4261.282227,4265.000000,4228.333496,4228.589844,4231.794922,4401.538574,4455.769043,4423.333496,4414.358887,0.000000,3.000000,62.000000,,,,0.000000,4.000000,4.000000,4.000000,4.000000,4.000000,4.000000,4.000000,4.000000,4.000000,4.000000,4.000000,4.000000,4.000000,4.000000,100.000000,,,,,,,,,,,,,,,,,,,,,,,,,,,,
1703503534.664492,1703503534.665052,44.000000,0.000000,4310.897461,4310.256348,4317.051270,4302.820313,4282.948730,4263.205078,4266.922852,4232.436035,4231.282227,4235.897461,4400.128418,4457.563965,4422.179688,4418.717773,0.000000,3.000000,62.000000,,,,0.000000,4.000000,4.000000,4.000000,4.000000,4.000000,4.000000,4.000000,4.000000,4.000000,4.000000,4.000000,4.000000,4.000000,4.000000,100.000000,,,,,,,,,,,,,,,,,11.000000,0.000000,0.434120,0.520874,-0.452393,0.579285,0.983518,-0.070321,0.045416,-14.565533,-40.172516,61.941605
1703503534.672300,1703503534.672760,45.000000,0.000000,4310.000000,4311.153809,4316.922852,4307.563965,4280.384766,4262.307617,4270.641113,4231.025879,4230.512695,4225.641113,4404.871582,4467.820313,4424.230957,4428.846191,0.000000,3.000000,62.000000,,,,0.000000,4.000000,4.000000,4.000000,4.000000,4.000000,4.000000,4.000000,4.000000,4.000000,4.000000,4.000000,4.000000,4.000000,4.000000,100.000000,,,,,,,,,,,,,,,,,,,,,,,,,,,,
1703503534.680108,1703503534.680568,46.000000,0.000000,4308.333496,4303.205078,4310.512695,4306.153809,4277.948730,4259.487305,4271.794922,4238.077148,4240.641113,4233.717773,4412.307617,4475.000000,4431.025879,4431.538574,0.000000,3.000000,62.000000,,,,0.000000,4.000000,4.000000,4.000000,4.000000,4.000000,4.000000,4.000000,4.000000,4.000000,4.000000,4.000000,4.000000,4.000000,4.000000,100.000000,,,,,,,,,,,,,,,,,,,,,,,,,,,,
1703503534.687916,1703503534.688276,47.000000,0.000000,4308.205078,4296.282227,4308.717773,4304.230957,4278.846191,4264.871582,4274.871582,4254.743652,4255.256348,4252.563965,4422.436035,4474.230957,4440.769043,4427.307617,0.000000,3.000000,62.000000,,,,0.000000,4.000000,4.000000,4.000000,4.000000,4.000000,4.000000,4.000000,4.000000,4.000000,4.000000,4.000000,4.000000,4.000000,4.000000,100.000000,,,,,,,,,,,,,,,,,,,,,,,,,,,,
1703503534.695724,1703503534.696084,48.000000,0.000000,4307.436035,4294.871582,4313.974121,4303.974121,4280.256348,4271.666504,4280.512695,4264.743652,4260.256348,4253.077148,4429.102539,4472.179688,4442.179688,4425.512695,0.000000,3.000000,62.000000,,,,0.000000,4.000000,4.000000,4.000000,4.000000,4.000000,4.000000,4.000000,4.000000,4.000000,4.000000,4.000000,4.000000,4.000000,4.000000,100.000000,,,,,,,,,,,,,,,,,12.000000,0.000000,0.433912,0.520874,-0.452515,0.579346,0.985960,-0.081553,0.044439,-14.558980,-40.021931,61.930779
1703503534.703532,1703503534.703792,49.000000,0.000000,4304.871582,4287.948730,4319.102539,4303.846191,4279.871582,4267.948730,4278.846191,4266.410156,4261.153809,4249.487305,4428.333496,4480.384766,4435.128418,4425.000000,0.000000,3.000000,62.000000,,,,0.000000,4.000000,4.000000,4.000000,4.000000,4.000000,4.000000,4.000000,4.000000,4.000000,4.000000,4.000000,4.000000,4.000000,4.000000,100.000000,,,,,,,,,,,,,,,,,,,,,,,,,,,,
1703503534.711340,1703503534.711600,50.000000,0.000000,4301.666504,4277.051270,4316.666504,4303.846191,4274.615234,4262.179688,4268.974121,4265.641113,4262.436035,4250.256348,4427.179688,4486.794922,4436.410156,4426.025879,0.000000,3.000000,62.000000,,,,0.000000,4.000000,4.000000,4.000000,4.000000,4.000000,4.000000,4.000000,4.000000,4.000000,4.000000,4.000000,4.000000,4.000000,4.000000,100.000000,,,,,,,,,,,,,,,,,,,,,,,,,,,,
1703503534.719148,1703503534.719308,51.000000,0.000000,4301.538574,4279.102539,4314.871582,4304.230957,4266.666504,4261.410156,4268.461426,4264.358887,4262.820313,4250.769043,4429.358887,4480.000000,4442.948730,4425.512695,0.000000,3.000000,62.000000,,,,0.000000,4.000000,4.000000,4.000000,4.000000,4.000000,4.000000,4.000000,4.000000,4.000000,4.000000,4.000000,4.000000,4.000000,4.000000,100.000000,,,,,,,,,,,,,,,,,,,,,,,,,,,,
1703503534.726956,1703503534.727216,52.000000,0.000000,4306.538574,4289.743652,4321.538574,4305.384766,4270.641113,4263.589844,4275.897461,4265.897461,4265.128418,4258.974121,4437.563965,4473.205078,4442.692383,4423.205078,0.000000,3.000000,62.000000,,,,0.000000,4.000000,4.000000,4.000000,4.000000,4.000000,4.000000,4.000000,4.000000,4.000000,4.000000,4.000000,4.000000,4.000000,4.000000,100.000000,,,,,,,,,,,,,,,,,13.000000,0.000000,0.433920,0.520935,-0.452515,0.579285,0.987425,-0.086925,0.043951,-14.403082,-39.953072,61.854366
1703503534.734764,1703503534.735024,53.000000,0.000000,4311.282227,4295.000000,4328.461426,4309.871582,4280.512695,4263.717773,4273.589844,4262.307617,4264.743652,4257.948730,4444.102539,4477.307617,4441.410156,4427.051270,0.000000,3.000000,62.000000,,,,0.000000,4.000000,4.000000,4.000000,4.000000,4.000000,4.000000,4.000000,4.000000,4.000000,4.000000,4.000000,4.000000,4.000000,4.000000,100.000000,,,,,,,,,,,,,,,,,,,,,,,,,,,,
1703503534.742572,1703503534.742832,54.000000,0.000000,4316.153809,4298.589844,4329.615234,4315.769043,4281.410156,4264.358887,4270.256348,4251.153809,4257.563965,4248.589844,4440.769043,4482.948730,4447.179688,4434.615234,0.000000,3.000000,62.000000,,,,0.000000,4.000000,4.000000,4.000000,4.000000,4.000000,4.000000,4.000000,4.000000,4.000000,4.000000,4.000000,4.000000,4.000000,4.000000,100.000000,,,,,,,,,,,,,,,,,,,,,,,,,,,,
1703503534.750381,1703503534.750540,55.000000,0.000000,4324.487305,4303.717773,4334.358887,4322.692383,4284.358887,4266.282227,4275.897461,4251.666504,4259.102539,4264.358887,4448.589844,4489.871582,4460.769043,4446.922852,0.000000,3.000000,62.000000,,,,0.000000,4.000000,4.000000,4.000000,4.000000,4.000000,4.000000,4.000000,4.000000,4.000000,4.000000,4.000000,4.000000,4.000000,4.000000,100.000000,,,,,,,,,,,,,,,,,,,,,,,,,,,,
1703503534.758189,1703503534.758448,56.000000,0.000000,4329.487305,4308.333496,4340.384766,4330.128418,4287.307617,4265.512695,4278.974121,4262.051270,4263.461426,4273.717773,4465.256348,4500.641113,4466.922852,4458.717773,0.000000,3.000000,62.000000,,,,0.000000,4.000000,4.000000,4.000000,4.000000,4.000000,4.000000,4.000000,4.000000,4.000000,4.000000,4.000000,4.000000,4.000000,4.000000,100.000000,,,,,,,,,,,,,,,,,14.000000,0.000000,0.433710,0.521057,-0.452576,0.579285,0.990355,-0.067879,0.050787,-14.546107,-39.991096,61.935596
1703503534.765997,1703503534.766256,57.000000,0.000000,4324.102539,4308.589844,4337.948730,4337.820313,4283.461426,4263.846191,4275.769043,4260.000000,4252.563965,4256.922852,4464.615234,4501.794922,4459.487305,4453.461426,0.000000,3.000000,62.000000,,,,0.000000,4.000000,4.000000,4.000000,4.000000,4.000000,4.000000,4.000000,4.000000,4.000000,4.000000,4.000000,4.000000,4.000000,4.000000,100.000000,,,,,,,,,,,,,,,,,,,,,,,,,,,,
1703503534.773805,1703503534.774164,58.000000,0.000000,4315.256348,4302.563965,4330.128418,4340.512695,4283.077148,4262.820313,4275.769043,4255.769043,4242.436035,4252.948730,4458.974121,4492.563965,4458.333496,4443.974121,0.000000,3.000000,62.000000,,,,0.000000,4.000000,4.000000,4.000000,4.000000,4.000000,4.000000,4.000000,4.000000,4.000000,4.000000,4.000000,4.000000,4.000000,4.000000,100.000000,,,,,,,,,,,,,,,,,,,,,,,,,,,,
1703503534.781613,1703503534.781972,59.000000,0.000000,4310.641113,4295.769043,4325.384766,4340.000000,4286.153809,4265.384766,4280.512695,4266.794922,4248.333496,4259.230957,4462.307617,4487.948730,4455.897461,4443.717773,0.000000,3.000000,62.000000,,,,0.000000,4.000000,4.000000,4.000000,4.000000,4.000000,4.000000,4.000000,4.000000,4.000000,4.000000,4.000000,4.000000,4.000000,4.000000,100.000000,,,,,,,,,,,,,,,,,,,,,,,,,,,,
1703503534.789421,1703503534.789879,60.000000,0.000000,4310.128418,4293.589844,4326.538574,4342.563965,4283.333496,4272.307617,4281.538574,4280.000000,4257.307617,4252.820313,4467.436035,4495.000000,4447.563965,4443.589844,0.000000,3.000000,62.000000,,,,0.000000,4.000000,4.000000,4.000000,4.000000,4.000000,4.000000,4.000000,4.000000,4.000000,4.000000,4.000000,4.000000,4.000000,4.000000,100.000000,,,,,,,,,,,,,,,,,15.000000,0.000000,0.433719,0.520996,-0.452637,0.579285,0.994262,-0.084483,0.030765,-14.674829,-39.825321,61.875370
1703503534.797229,1703503534.797687,61.000000,0.000000,4312.563965,4294.871582,4334.615234,4347.692383,4284.230957,4278.461426,4283.077148,4287.563965,4259.358887,4253.077148,4474.102539,4507.436035,4448.589844,4443.077148,0.000000,3.000000,62.000000,,,,0.000000,4.000000,4.000000,4.000000,4.000000,4.000000,4.000000,4.000000,4.000000,4.000000,4.000000,4.000000,4.000000,4.000000,4.000000,100.000000,,,,,,,,,,,,,,,,,,,,,,,,,,,,
1703503534.805037,1703503534.805595,62.000000,0.000000,4312.179688,4295.769043,4337.948730,4356.666504,4292.179688,4281.282227,4290.000000,4296.025879,4265.384766,4260.000000,4474.230957,4509.102539,4451.410156,4445.769043,0.000000,3.000000,62.000000,,,,0.000000,4.000000,4.000000,4.000000,4.000000,4.000000,4.000000,4.000000,4.000000,4.000000,4.000000,4.000000,4.000000,4.000000,4.000000,100.000000,,,,,,,,,,,,,,,,,,,,,,,,,,,,
1703503534.812845,1703503534.813403,63.000000,0.000000,4308.589844,4296.922852,4330.512695,4362.692383,4295.128418,4279.615234,4290.384766,4299.871582,4274.743652,4265.769043,4472.179688,4503.846191,4448.077148,4445.128418,0.000000,3.000000,62.000000,,,,0.000000,4.000000,4.000000,4.000000,4.000000,4.000000,4.000000,4.000000,4.000000,4.000000,4.000000,4.000000,4.000000,4.000000,4.000000,100.000000,,,,,,,,,,,,,,,,,,,,,,,,,,,,
1703503534.820653,1703503534.821111,64.000000,0.000000,4307.563965,4293.077148,4328.461426,4359.358887,4289.871582,4275.128418,4283.205078,4291.666504,4272.051270,4261.794922,4475.128418,4500.641113,4443.974121,4439.230957,5288.000000,3.000000,62.000000,,,,0.000000,4.000000,4.000000,4.000000,4.000000,4.000000,4.000000,4.000000,4.000000,4.000000,4.000000,4.000000,4.000000,4.000000,4.000000,100.000000,,,,,,,,,,,,,,,,,16.000000,0.000000,0.433600,0.521057,-0.452759,0.579224,0.988402,-0.086925,0.044927,-14.790680,-39.876122,61.954498
1703503534.828461,1703503534.828919,65.000000,0.000000,4307.948730,4291.794922,4331.666504,4355.000000,4287.563965,4274.102539,4277.051270,4277.692383,4262.179688,4249.230957,4472.051270,4501.666504,4446.025879,4436.666504,5532.000000,3.000000,62.000000,,,,0.000000,4.000000,4.000000,4.000000,4.000000,4.000000,4.000000,4.000000,4.000000,4.000000,4.000000,4.000000,4.000000,4.000000,4.000000,100.000000,,,,,,,,,,,,,,,,,,,,,,,,,,,,
1703503534.836269,1703503534.836627,66.000000,0.000000,4308.077148,4297.948730,4330.128418,4359.230957,4293.717773,4275.256348,4276.282227,4272.179688,4261.153809,4253.846191,4471.153809,4501.538574,4450.000000,4440.000000,5417.000000,3.000000,62.000000,,,,0.000000,4.000000,4.000000,4.000000,4.000000,4.000000,4.000000,4.000000,4.000000,4.000000,4.000000,4.000000,4.000000,4.000000,4.000000,100.000000,,,,,,,,,,,,,,,,,,,,,,,,,,,,
1703503534.844077,1703503534.844435,67.000000,0.000000,4314.102539,4300.512695,4334.230957,4366.410156,4293.846191,4270.256348,4277.820313,4275.256348,4264.743652,4266.922852,4480.641113,4497.051270,4448.717773,4445.000000,5397.000000,3.000000,62.000000,,,,0.000000,4.000000,4.000000,4.000000,4.000000,4.000000,4.000000,4.000000,4.000000,4.000000,4.000000,4.000000,4.000000,4.000000,4.000000,100.000000,,,,,,,,,,,,,,,,,,,,,,,,,,,,
1703503534.851885,1703503534.852143,68.000000,0.000000,4318.205078,4300.000000,4339.615234,4367.563965,4289.743652,4264.102539,4276.282227,4278.974121,4263.077148,4265.512695,4489.871582,4495.769043,4450.128418,4446.922852,5305.000000,3.000000,62.000000,,,,0.000000,4.000000,4.000000,4.000000,4.000000,4.000000,4.000000,4.000000,4.000000,4.000000,4.000000,4.000000,4.000000,4.000000,4.000000,100.000000,,,,,,,,,,,,,,,,,17.000000,0.000000,0.433600,0.521057,-0.452759,0.579224,0.990355,-0.076670,0.045904,-14.811612,-39.888512,62.025715
1703503534.859693,1703503534.859951,69.000000,0.000000,4313.589844,4299.358887,4336.282227,4367.692383,4292.436035,4265.256348,4274.743652,4276.794922,4255.128418,4261.153809,4492.307617,4504.102539,4458.717773,4446.282227,4929.000000,3.000000,62.000000,,,,0.000000,4.000000,4.000000,4.000000,4.000000,4.000000,4.000000,4.000000,4.000000,4.000000,4.000000,4.000000,4.000000,4.000000,4.000000,100.000000,,,,,,,,,,,,,,,,,,,,,,,,,,,,
1703503534.867501,1703503534.867659,70.000000,0.000000,4313.205078,4297.436035,4335.769043,4368.589844,4294.743652,4266.794922,4274.487305,4270.000000,4248.846191,4259.230957,4490.897461,4506.922852,4462.179688,4450.384766,4046.000000,3.000000,62.000000,,,,0.000000,4.000000,4.000000,4.000000,4.000000,4.000000,4.000000,4.000000,4.000000,4.000000,4.000000,4.000000,4.000000,4.000000,4.000000,100.000000,,,,,,,,,,,,,,,,,,,,,,,,,,,,
1703503534.875309,1703503534.875467,71.000000,0.000000,4316.922852,4296.410156,4340.256348,4368.589844,4292.948730,4265.000000,4275.641113,4265.000000,4252.307617,4251.025879,4492.307617,4501.410156,4456.025879,4457.051270,5036.000000,3.000000,62.000000,,,,0.000000,4.000000,4.000000,4.000000,4.000000,4.000000,4.000000,4.000000,4.000000,4.000000,4.000000,4.000000,4.000000,4.000000,4.000000,100.000000,,,,,,,,,,,,,,,,,,,,,,,,,,,,
1703503534.883117,1703503534.883175,72.000000,0.000000,4312.436035,4294.871582,4341.538574,4365.769043,4291.282227,4265.769043,4277.051270,4265.128418,4253.717773,4245.897461,4487.051270,4503.333496,4447.436035,4452.820313,4988.000000,3.000000,62.000000,,,,0.000000,4.000000,4.000000,4.000000,4.000000,4.000000,4.000000,4.000000,4.000000,4.000000,4.000000,4.000000,4.000000,4.000000,4.000000,100.000000,,,,,,,,,,,,,,,,,18.000000,0.000000,0.433463,0.521118,-0.452820,0.579224,0.981077,-0.089366,0.047369,-14.730451,-39.966328,61.823147
1703503534.890926,1703503534.890983,73.000000,0.000000,4306.153809,4289.871582,4340.769043,4363.717773,4293.461426,4273.717773,4277.692383,4271.153809,4254.615234,4255.897461,4483.077148,4508.846191,4445.769043,4443.846191,5519.000000,3.000000,62.000000,,,,0.000000,4.000000,4.000000,4.000000,4.000000,4.000000,4.000000,4.000000,4.000000,4.000000,4.000000,4.000000,4.000000,4.000000,4.000000,100.000000,,,,,,,,,,,,,,,,,,,,,,,,,,,,
1703503534.898734,1703503534.898691,74.000000,0.000000,4308.333496,4287.436035,4339.102539,4362.820313,4297.051270,4281.282227,4283.205078,4283.205078,4268.846191,4265.512695,4497.820313,4508.077148,4456.025879,4446.282227,6067.000000,3.000000,62.000000,,,,0.000000,4.000000,4.000000,4.000000,4.000000,4.000000,4.000000,4.000000,4.000000,4.000000,4.000000,4.000000,4.000000,4.000000,4.000000,100.000000,,,,,,,,,,,,,,,,,,,,,,,,,,,,
1703503534.906542,1703503534.906599,75.000000,0.000000,4311.538574,4290.000000,4339.102539,4363.974121,4297.820313,4280.128418,4289.102539,4291.666504,4279.615234,4268.333496,4510.384766,4505.897461,4461.922852,4449.743652,6346.000000,3.000000,62.000000,,,,0.000000,4.000000,4.000000,4.000000,4.000000,4.000000,4.000000,4.000000,4.000000,4.000000,4.000000,4.000000,4.000000,4.000000,4.000000,100.000000,,,,,,,,,,,,,,,,,,,,,,,,,,,,
1703503534.914350,1703503534.914407,76.000000,0.000000,4312.179688,4292.692383,4338.717773,4369.743652,4293.077148,4276.282227,4285.641113,4292.563965,4278.461426,4270.384766,4504.743652,4508.589844,4457.820313,4447.051270,6883.000000,3.000000,62.000000,,,,0.000000,4.000000,4.000000,4.000000,4.000000,4.000000,4.000000,4.000000,4.000000,4.000000,4.000000,4.000000,4.000000,4.000000,4.000000,100.000000,,,,,,,,,,,,,,,,,19.000000,0.000000,0.433600,0.521057,-0.452759,0.579224,0.994262,-0.077646,0.050299,-14.824072,-40.036362,61.924164
1703503534.922158,1703503534.922315,77.000000,0.000000,4311.666504,4294.871582,4335.256348,4374.358887,4288.461426,4276.666504,4279.871582,4291.282227,4280.000000,4272.563965,4504.358887,4509.230957,4458.717773,4444.871582,7242.000000,3.000000,62.000000,,,,0.000000,4.000000,4.000000,4.000000,4.000000,4.000000,4.000000,4.000000,4.000000,4.000000,4.000000,4.000000,4.000000,4.000000,4.000000,100.000000,,,,,,,,,,,,,,,,,,,,,,,,,,,,
1703503534.929966,1703503534.930123,78.000000,0.000000,4310.256348,4295.384766,4327.436035,4373.589844,4291.538574,4277.436035,4281.410156,4294.102539,4284.871582,4276.538574,4511.538574,4499.230957,4462.820313,4441.794922,6067.000000,3.000000,62.000000,,,,0.000000,4.000000,4.000000,4.000000,4.000000,4.000000,4.000000,4.000000,4.000000,4.000000,4.000000,4.000000,4.000000,4.000000,4.000000,100.000000,,,,,,,,,,,,,,,,,,,,,,,,,,,,
1703503534.937774,1703503534.938031,79.000000,0.000000,4308.717773,4293.846191,4319.230957,4370.384766,4295.641113,4277.948730,4282.307617,4294.230957,4283.461426,4280.128418,4508.205078,4490.256348,4462.307617,4436.794922,6346.000000,3.000000,62.000000,,,,0.000000,4.000000,4.000000,4.000000,4.000000,4.000000,4.000000,4.000000,4.000000,4.000000,4.000000,4.000000,4.000000,4.000000,4.000000,100.000000,,,,,,,,,,,,,,,,,,,,,,,,,,,,
1703503534.945582,1703503534.945839,80.000000,0.000000,4310.256348,4296.282227,4320.769043,4374.615234,4298.077148,4279.743652,4280.384766,4285.256348,4275.128418,4273.846191,4503.589844,4489.743652,4458.717773,4432.692383,6883.000000,3.000000,62.000000,,,,0.000000,4.000000,4.000000,4.000000,4.000000,4.000000,4.000000,4.000000,4.000000,4.000000,4.000000,4.000000,4.000000,4.000000,4.000000,100.000000,,,,,,,,,,,,,,,,,20.000000,0.000000,0.433656,0.520996,-0.452698,0.579285,0.988402,-0.084483,0.048346,-14.741665,-39.966057,62.098415
1703503534.953390,1703503534.953747,81.000000,0.000000,4313.077148,4302.820313,4326.666504,4384.743652,4305.128418,4278.846191,4280.641113,4273.974121,4261.282227,4262.820313,4505.641113,4488.461426,4455.897461,4435.256348,7242.000000,3.000000,62.000000,,,,0.000000,4.000000,4.000000,4.000000,4.000000,4.000000,4.000000,4.000000,4.000000,4.000000,4.000000,4.000000,4.000000,4.000000,4.000000,100.000000,,,,,,,,,,,,,,,,,,,,,,,,,,,,
1703503534.961198,1703503534.961555,82.000000,0.000000,4310.384766,4307.179688,4327.436035,4389.871582,4311.410156,4276.410156,4278.589844,4268.077148,4250.000000,4255.512695,4499.358887,4484.487305,4449.615234,4438.974121,6067.000000,3.000000,62.000000,,,,0.000000,4.000000,4.000000,4.000000,4.000000,4.000000,4.000000,4.000000,4.000000,4.000000,4.000000,4.000000,4.000000,4.000000,4.000000,100.000000,,,,,,,,,,,,,,,,,,,,,,,,,,,,
1703503534.969006,1703503534.969463,83.000000,0.000000,4309.358887,4308.077148,4330.769043,4390.769043,4309.615234,4275.128418,4277.051270,4265.000000,4247.563965,4249.230957,4494.743652,4486.153809,4447.563965,4437.436035,6346.000000,3.000000,62.000000,,,,0.000000,4.000000,4.000000,4.000000,4.000000,4.000000,4.000000,4.000000,4.000000,4.000000,4.000000,4.000000,4.000000,4.000000,4.000000,100.000000,,,,,,,,,,,,,,,,,,,,,,,,,,,,
1703503534.976814,1703503534.977271,84.000000,0.000000,4310.384766,4303.717773,4338.205078,4391.794922,4306.025879,4274.615234,4279.615234,4264.487305,4246.153809,4247.307617,4504.615234,4494.102539,4454.102539,4439.871582,6883.000000,3.000000,62.000000,,,,0.000000,4.000000,4.000000,4.000000,4.000000,4.000000,4.000000,4.000000,4.000000,4.000000,4.000000,4.000000,4.000000,4.000000,4.000000,100.000000,,,,,,,,,,,,,,,,,21.000000,0.000000,0.433776,0.520813,-0.452637,0.579407,0.992309,-0.072763,0.039067,-14.634165,-40.052784,61.905239
1703503534.984622,1703503534.985179,85.000000,0.000000,4309.102539,4295.384766,4336.538574,4388.717773,4306.922852,4275.512695,4280.641113,4263.077148,4236.538574,4246.282227,4503.974121,4492.692383,4450.897461,4442.692383,7242.000000,3.000000,62.000000,,,,0.000000,4.000000,4.000000,4.000000,4.000000,4.000000,4.000000,4.000000,4.000000,4.000000,4.000000,4.000000,4.000000,4.000000,4.000000,100.000000,,,,,,,,,,,,,,,,,,,,,,,,,,,,
1703503534.992430,1703503534.992986,86.000000,0.000000,4307.820313,4294.743652,4328.717773,4384.615234,4307.820313,4277.692383,4280.641113,4260.769043,4231.794922,4242.051270,4495.512695,4490.384766,4442.307617,4440.256348,6067.000000,3.000000,62.000000,,,,0.000000,4.000000,4.000000,4.000000,4.000000,4.000000,4.000000,4.000000,4.000000,4.000000,4.000000,4.000000,4.000000,4.000000,4.000000,100.000000,,,,,,,,,,,,,,,,,,,,,,,,,,,,
1703503535.000238,1703503535.000894,87.000000,0.000000,4304.102539,4292.692383,4328.589844,4381.153809,4303.589844,4278.717773,4287.179688,4268.589844,4243.077148,4245.641113,4506.282227,4501.282227,4444.102539,4442.307617,6346.000000,3.000000,62.000000,,,,0.000000,4.000000,4.000000,4.000000,4.000000,4.000000,4.000000,4.000000,4.000000,4.000000,4.000000,4.000000,4.000000,4.000000,4.000000,100.000000,,,,,,,,,,,,,,,,,,,,,,,,,,,,
1703503535.008046,1703503535.008702,88.000000,0.000000,4301.666504,4283.205078,4333.333496,4374.230957,4296.794922,4279.102539,4292.179688,4282.948730,4256.282227,4255.769043,4521.922852,4509.358887,4450.000000,4444.615234,6883.000000,3.000000,62.000000,,,,0.000000,4.000000,4.000000,4.000000,4.000000,4.000000,4.000000,4.000000,4.000000,4.000000,4.000000,4.000000,4.000000,4.000000,4.000000,100.000000,,,,,,,,,,,,,,,,,22.000000,0.000000,0.434012,0.520752,-0.452637,0.579285,0.987425,-0.071298,0.050787,-14.687415,-39.930840,61.631382
1703503535.015854,1703503535.016410,89.000000,0.000000,4305.897461,4283.077148,4333.846191,4372.820313,4295.256348,4275.769043,4288.333496,4291.282227,4264.871582,4268.077148,4528.589844,4511.666504,4460.128418,4448.846191,7242.000000,3.000000,62.000000,,,,0.000000,4.000000,4.000000,4.000000,4.000000,4.000000,4.000000,4.000000,4.000000,4.000000,4.000000,4.000000,4.000000,4.000000,4.000000,100.000000,,,,,,,,,,,,,,,,,,,,,,,,,,,,
1703503535.023662,1703503535.024319,90.000000,0.000000,4310.512695,4292.307617,4335.128418,4378.717773,4294.230957,4265.769043,4283.205078,4294.871582,4272.692383,4280.512695,4536.538574,4517.179688,4473.461426,4458.205078,6067.000000,3.000000,62.000000,,,,0.000000,4.000000,4.000000,4.000000,4.000000,4.000000,4.000000,4.000000,4.000000,4.000000,4.000000,4.000000,4.000000,4.000000,4.000000,100.000000,,,,,,,,,,,,,,,,,,,,,,,,,,,,
1703503535.031470,1703503535.032127,91.000000,0.000000,4315.384766,4297.179688,4340.128418,4382.820313,4290.128418,4264.102539,4281.666504,4297.179688,4280.000000,4283.589844,4542.820313,4520.128418,4479.358887,4465.641113,6346.000000,3.000000,62.000000,,,,0.000000,4.000000,4.000000,4.000000,4.000000,4.000000,4.000000,4.000000,4.000000,4.000000,4.000000,4.000000,4.000000,4.000000,4.000000,100.000000,,,,,,,,,,,,,,,,,,,,,,,,,,,,
1703503535.039279,1703503535.039935,92.000000,0.000000,4322.948730,4302.563965,4343.077148,4385.897461,4291.282227,4273.461426,4283.333496,4297.820313,4280.000000,4280.384766,4540.769043,4518.077148,4477.563965,4470.512695,6883.000000,3.000000,62.000000,,,,0.000000,4.000000,4.000000,4.000000,4.000000,4.000000,4.000000,4.000000,4.000000,4.000000,4.000000,4.000000,4.000000,4.000000,4.000000,100.000000,,,,,,,,,,,,,,,,,23.000000,0.000000,0.434112,0.520752,-0.452698,0.579163,0.995727,-0.068368,0.043951,-14.768674,-40.021088,61.568245
1703503535.047087,1703503535.047643,93.000000,0.000000,4332.307617,4313.974121,4349.487305,4394.358887,4298.333496,4275.641113,4285.000000,4290.641113,4272.051270,4277.820313,4539.615234,4518.717773,4478.461426,4474.615234,7242.000000,3.000000,62.000000,,,,0.000000,4.000000,4.000000,4.000000,4.000000,4.000000,4.000000,4.000000,4.000000,4.000000,4.000000,4.000000,4.000000,4.000000,4.000000,100.000000,,,,,,,,,,,,,,,,,,,,,,,,,,,,
1703503535.054895,1703503535.055551,94.000000,0.000000,4344.102539,4326.282227,4361.153809,4407.692383,4306.794922,4274.615234,4286.922852,4283.461426,4269.615234,4280.384766,4545.769043,4524.615234,4483.846191,4484.487305,6067.000000,3.000000,62.000000,,,,0.000000,4.000000,4.000000,4.000000,4.000000,4.000000,4.000000,4.000000,4.000000,4.000000,4.000000,4.000000,4.000000,4.000000,4.000000,100.000000,,,,,,,,,,,,,,,,,,,,,,,,,,,,
1703503535.062703,1703503535.063359,95.000000,0.000000,4346.410156,4327.692383,4365.256348,4414.615234,4311.794922,4278.974121,4288.589844,4280.384766,4269.230957,4279.358887,4545.128418,4526.794922,4481.153809,4487.179688,6346.000000,3.000000,62.000000,,,,0.000000,4.000000,4.000000,4.000000,4.000000,4.000000,4.000000,4.000000,4.000000,4.000000,4.000000,4.000000,4.000000,4.000000,4.000000,100.000000,,,,,,,,,,,,,,,,,,,,,,,,,,,,
1703503535.070511,1703503535.071168,96.000000,0.000000,4330.897461,4314.358887,4356.666504,4408.333496,4310.256348,4278.461426,4283.333496,4270.384766,4260.256348,4268.589844,4526.922852,4512.436035,4465.641113,4470.256348,6883.000000,3.000000,62.000000,,,,0.000000,4.000000,4.000000,4.000000,4.000000,4.000000,4.000000,4.000000,4.000000,4.000000,4.000000,4.000000,4.000000,4.000000,4.000000,100.000000,,,,,,,,,,,,,,,,,24.000000,0.000000,0.434101,0.520935,-0.452576,0.579102,0.984984,-0.078623,0.051764,-14.791806,-40.135647,61.461418
1703503535.078319,1703503535.078876,97.000000,0.000000,4314.871582,4299.743652,4345.256348,4396.282227,4307.820313,4274.615234,4277.307617,4258.846191,4254.102539,4258.077148,4512.820313,4490.384766,4450.128418,4451.025879,7242.000000,3.000000,62.000000,,,,0.000000,4.000000,4.000000,4.000000,4.000000,4.000000,4.000000,4.000000,4.000000,4.000000,4.000000,4.000000,4.000000,4.000000,4.000000,100.000000,1.000000,66.666664,4.000000,4.000000,4.000000,3.000000,4.000000,4.000000,4.000000,4.000000,4.000000,4.000000,4.000000,4.000000,1.000000,4.000000,,,,,,,,,,,,
1703503535.086127,1703503535.086684,98.000000,0.000000,4311.410156,4296.794922,4338.589844,4394.102539,4307.948730,4277.820313,4285.641113,4268.717773,4262.051270,4259.102539,4518.846191,4485.512695,4449.102539,4446.794922,6067.000000,3.000000,62.000000,,,,0.000000,4.000000,4.000000,4.000000,4.000000,4.000000,4.000000,4.000000,4.000000,4.000000,4.000000,4.000000,4.000000,4.000000,4.000000,100.000000,,,,,,,,,,,,,,,,,,,,,,,,,,,,
1703503535.093935,1703503535.094392,99.000000,0.000000,4308.846191,4297.436035,4331.794922,4398.077148,4308.846191,4282.179688,4296.922852,4289.102539,4279.358887,4274.358887,4528.974121,4493.974121,4458.077148,4450.512695,6346.000000,3.000000,62.000000,,,,0.000000,4.000000,4.000000,4.000000,4.000000,4.000000,4.000000,4.000000,4.000000,4.000000,4.000000,4.000000,4.000000,4.000000,4.000000,100.000000,,,,,,,,,,,,,,,,,,,,,,,,,,,,
1703503535.101743,1703503535.102300,100.000000,0.000000,4305.384766,4294.230957,4326.538574,4397.436035,4309.871582,4283.846191,4295.641113,4297.307617,4295.384766,4290.769043,4532.948730,4502.051270,4465.256348,4456.538574,6883.000000,3.000000,62.000000,,,,0.000000,4.000000,4.000000,4.000000,4.000000,4.000000,4.000000,4.000000,4.000000,4.000000,4.000000,4.000000,4.000000,4.000000,4.000000,100.000000,,,,,,,,,,,,,,,,,25.000000,0.000000,0.434239,0.520813,-0.452271,0.579346,0.994750,-0.078135,0.047369,-14.795959,-40.088749,61.431946
1703503535.109551,1703503535.110107,101.000000,0.000000,4307.692383,4297.563965,4330.256348,4397.563965,4310.256348,4288.077148,4295.512695,4301.538574,4299.358887,4296.025879,4534.743652,4506.153809,4467.948730,4460.256348,7242.000000,3.000000,62.000000,,,,0.000000,4.000000,4.000000,4.000000,4.000000,4.000000,4.000000,4.000000,4.000000,4.000000,4.000000,4.000000,4.000000,4.000000,4.000000,100.000000,,,,,,,,,,,,,,,,,,,,,,,,,,,,
1703503535.117359,1703503535.118015,102.000000,0.000000,4310.769043,4303.846191,4333.461426,4404.358887,4311.794922,4289.487305,4297.307617,4306.410156,4298.077148,4295.769043,4538.846191,4506.666504,4474.871582,4457.692383,6067.000000,3.000000,62.000000,,,,0.000000,4.000000,4.000000,4.000000,4.000000,4.000000,4.000000,4.000000,4.000000,4.000000,4.000000,4.000000,4.000000,4.000000,4.000000,100.000000,,,,,,,,,,,,,,,,,,,,,,,,,,,,
1703503535.125167,1703503535.125823,103.000000,0.000000,4311.538574,4300.384766,4332.307617,4411.410156,4311.282227,4282.051270,4296.922852,4304.230957,4297.051270,4290.769043,4536.538574,4507.563965,4476.538574,4459.743652,6346.000000,3.000000,62.000000,,,,0.000000,4.000000,4.000000,4.000000,4.000000,4.000000,4.000000,4.000000,4.000000,4.000000,4.000000,4.000000,4.000000,4.000000,4.000000,100.000000,,,,,,,,,,,,,,,,,,,,,,,,,,,,
1703503535.132975,1703503535.133731,104.000000,0.000000,4312.051270,4295.897461,4337.436035,4411.282227,4308.333496,4277.307617,4296.025879,4294.487305,4287.948730,4279.871582,4525.641113,4509.615234,4464.743652,4461.282227,6883.000000,3.000000,62.000000,,,,0.000000,4.000000,4.000000,4.000000,4.000000,4.000000,4.000000,4.000000,4.000000,4.000000,4.000000,4.000000,4.000000,4.000000,4.000000,100.000000,,,,,,,,,,,,,,,,,26.000000,0.000000,0.434470,0.520508,-0.452087,0.579590,0.991332,-0.080088,0.039067,-14.833030,-40.046539,61.488750
1703503535.140783,1703503535.141539,105.000000,0.000000,4311.794922,4299.871582,4342.820313,4408.717773,4307.179688,4279.102539,4293.333496,4283.333496,4277.051270,4273.846191,4521.282227,4508.974121,4461.410156,4459.230957,7242.000000,3.000000,62.000000,,,,0.000000,4.000000,4.000000,4.000000,4.000000,4.000000,4.000000,4.000000,4.000000,4.000000,4.000000,4.000000,4.000000,4.000000,4.000000,100.000000,,,,,,,,,,,,,,,,,,,,,,,,,,,,
1703503535.148591,1703503535.149447,106.000000,0.000000,4317.692383,4307.563965,4345.641113,4412.307617,4302.051270,4273.589844,4290.384766,4277.051270,4270.000000,4277.051270,4523.846191,4506.282227,4464.871582,4463.717773,6067.000000,3.000000,62.000000,,,,0.000000,4.000000,4.000000,4.000000,4.000000,4.000000,4.000000,4.000000,4.000000,4.000000,4.000000,4.000000,4.000000,4.000000,4.000000,100.000000,,,,,,,,,,,,,,,,,,,,,,,,,,,,
1703503535.156399,1703503535.157255,107.000000,0.000000,4331.025879,4312.179688,4356.153809,4418.461426,4295.769043,4265.128418,4290.769043,4277.948730,4268.333496,4279.615234,4527.948730,4510.512695,4467.820313,4472.820313,6346.000000,3.000000,62.000000,,,,0.000000,4.000000,4.000000,4.000000,4.000000,4.000000,4.000000,4.000000,4.000000,4.000000,4.000000,4.000000,4.000000,4.000000,4.000000,100.000000,,,,,,,,,,,,,,,,,,,,,,,,,,,,
1703503535.164207,1703503535.165163,108.000000,0.000000,4336.538574,4312.948730,4362.307617,4416.794922,4294.615234,4263.589844,4287.307617,4276.538574,4263.077148,4273.333496,4530.384766,4518.846191,4470.256348,4478.205078,6883.000000,3.000000,62.000000,,,,0.000000,4.000000,4.000000,4.000000,4.000000,4.000000,4.000000,4.000000,4.000000,4.000000,4.000000,4.000000,4.000000,4.000000,4.000000,100.000000,,,,,,,,,,,,,,,,,27.000000,0.000000,0.434562,0.520325,-0.452209,0.579590,0.995239,-0.088390,0.038091,-14.966393,-40.058552,61.623207
1703503535.172015,1703503535.172971,109.000000,0.000000,4335.897461,4310.641113,4359.358887,4413.846191,4294.487305,4263.205078,4280.641113,4264.358887,4248.974121,4261.410156,4524.230957,4517.820313,4464.871582,4478.846191,7242.000000,3.000000,62.000000,,,,0.000000,4.000000,4.000000,4.000000,4.000000,4.000000,4.000000,4.000000,4.000000,4.000000,4.000000,4.000000,4.000000,4.000000,4.000000,100.000000,,,,,,,,,,,,,,,,,,,,,,,,,,,,
1703503535.179824,1703503535.180879,110.000000,0.000000,4330.897461,4309.615234,4357.692383,4410.512695,4295.128418,4262.563965,4279.487305,4260.769043,4245.512695,4257.051270,4518.589844,4510.256348,4457.179688,4475.128418,6067.000000,3.000000,62.000000,,,,0.000000,4.000000,4.000000,4.000000,4.000000,4.000000,4.000000,4.000000,4.000000,4.000000,4.000000,4.000000,4.000000,4.000000,4.000000,100.000000,,,,,,,,,,,,,,,,,,,,,,,,,,,,
1703503535.187631,1703503535.188687,111.000000,0.000000,4319.615234,4309.358887,4353.717773,4400.384766,4294.230957,4261.922852,4279.358887,4270.256348,4257.948730,4264.743652,4522.563965,4504.358887,4454.230957,4465.384766,6346.000000,3.000000,62.000000,,,,0.000000,4.000000,4.000000,4.000000,4.000000,4.000000,4.000000,4.000000,4.000000,4.000000,4.000000,4.000000,4.000000,4.000000,4.000000,100.000000,,,,,,,,,,,,,,,,,,,,,,,,,,,,
1703503535.195440,1703503535.196395,112.000000,0.000000,4312.948730,4305.769043,4343.461426,4394.487305,4296.794922,4263.333496,4279.871582,4277.436035,4270.641113,4272.692383,4526.666504,4502.692383,4456.922852,4460.000000,6883.000000,3.000000,62.000000,,,,0.000000,4.000000,4.000000,4.000000,4.000000,4.000000,4.000000,4.000000,4.000000,4.000000,4.000000,4.000000,4.000000,4.000000,4.000000,100.000000,,,,,,,,,,,,,,,,,28.000000,0.000000,0.434755,0.520020,-0.452454,0.579529,0.980588,-0.090343,0.048346,-15.103087,-39.969364,61.677555
1703503535.203248,1703503535.204203,113.000000,0.000000,4311.153809,4300.384766,4340.384766,4397.692383,4306.282227,4272.179688,4288.333496,4282.820313,4278.205078,4277.436035,4524.487305,4502.307617,4453.589844,4454.615234,7242.000000,3.000000,62.000000,,,,0.000000,4.000000,4.000000,4.000000,4.000000,4.000000,4.000000,4.000000,4.000000,4.000000,4.000000,4.000000,4.000000,4.000000,4.000000,100.000000,,,,,,,,,,,,,,,,,,,,,,,,,,,,
1703503535.211056,1703503535.211911,114.000000,0.000000,4306.794922,4295.256348,4341.666504,4393.333496,4313.589844,4281.794922,4296.538574,4292.820313,4283.717773,4280.384766,4522.436035,4497.948730,4447.307617,4443.717773,6067.000000,3.000000,62.000000,,,,0.000000,4.000000,4.000000,4.000000,4.000000,4.000000,4.000000,4.000000,4.000000,4.000000,4.000000,4.000000,4.000000,4.000000,4.000000,100.000000,,,,,,,,,,,,,,,,,,,,,,,,,,,,
1703503535.218864,1703503535.219719,115.000000,0.000000,4304.102539,4292.563965,4334.487305,4382.692383,4307.692383,4280.769043,4295.641113,4295.641113,4284.230957,4283.974121,4526.410156,4495.256348,4453.717773,4447.307617,6346.000000,3.000000,62.000000,,,,0.000000,4.000000,4.000000,4.000000,4.000000,4.000000,4.000000,4.000000,4.000000,4.000000,4.000000,4.000000,4.000000,4.000000,4.000000,100.000000,,,,,,,,,,,,,,,,,,,,,,,,,,,,
1703503535.226672,1703503535.227427,116.000000,0.000000,4309.102539,4296.153809,4330.769043,4381.282227,4299.230957,4276.794922,4292.051270,4285.641113,4277.436035,4279.358887,4529.871582,4495.769043,4458.077148,4455.897461,6883.000000,3.000000,62.000000,,,,0.000000,4.000000,4.000000,4.000000,4.000000,4.000000,4.000000,4.000000,4.000000,4.000000,4.000000,4.000000,4.000000,4.000000,4.000000,100.000000,,,,,,,,,,,,,,,,,29.000000,0.000000,0.434866,0.519714,-0.452698,0.579529,0.980588,-0.084483,0.055671,-15.009445,-40.055763,61.693130
1703503535.234480,1703503535.235235,117.000000,0.000000,4314.230957,4301.666504,4336.794922,4385.000000,4302.307617,4277.948730,4287.436035,4278.077148,4267.051270,4267.179688,4523.717773,4496.025879,4450.256348,4453.589844,7242.000000,3.000000,62.000000,,,,0.000000,4.000000,4.000000,4.000000,4.000000,4.000000,4.000000,4.000000,4.000000,4.000000,4.000000,4.000000,4.000000,4.000000,4.000000,100.000000,,,,,,,,,,,,,,,,,,,,,,,,,,,,
1703503535.242288,1703503535.242943,118.000000,0.000000,4313.461426,4302.179688,4340.641113,4384.871582,4303.333496,4274.871582,4281.922852,4274.230957,4260.128418,4265.641113,4522.051270,4500.897461,4450.512695,4457.179688,6067.000000,3.000000,62.000000,,,,0.000000,4.000000,4.000000,4.000000,4.000000,4.000000,4.000000,4.000000,4.000000,4.000000,4.000000,4.000000,4.000000,4.000000,4.000000,100.000000,,,,,,,,,,,,,,,,,,,,,,,,,,,,
1703503535.250096,1703503535.250751,119.000000,0.000000,4312.820313,4294.230957,4337.692383,4378.589844,4295.128418,4266.025879,4279.615234,4266.410156,4251.666504,4260.897461,4523.589844,4499.358887,4453.974121,4459.230957,6346.000000,3.000000,62.000000,,,,0.000000,4.000000,4.000000,4.000000,4.000000,4.000000,4.000000,4.000000,4.000000,4.000000,4.000000,4.000000,4.000000,4.000000,4.000000,100.000000,,,,,,,,,,,,,,,,,,,,,,,,,,,,
1703503535.257904,1703503535.258459,120.000000,0.000000,4311.282227,4284.230957,4332.051270,4370.769043,4286.666504,4260.256348,4277.436035,4260.384766,4242.179688,4244.871582,4515.769043,4484.487305,4444.743652,4447.563965,6883.000000,3.000000,62.000000,,,,0.000000,4.000000,4.000000,4.000000,4.000000,4.000000,4.000000,4.000000,4.000000,4.000000,4.000000,4.000000,4.000000,4.000000,4.000000,100.000000,,,,,,,,,,,,,,,,,30.000000,0.000000,0.434820,0.519714,-0.452820,0.579468,0.996215,-0.074228,0.039556,-15.058501,-40.000187,61.873817
1703503535.265712,1703503535.266267,121.000000,0.000000,4303.717773,4279.487305,4326.794922,4365.897461,4282.307617,4261.025879,4277.948730,4259.743652,4241.538574,4239.358887,4505.000000,4474.358887,4435.000000,4440.000000,7242.000000,3.000000,62.000000,,,,0.000000,4.000000,4.000000,4.000000,4.000000,4.000000,4.000000,4.000000,4.000000,4.000000,4.000000,4.000000,4.000000,4.000000,4.000000,100.000000,,,,,,,,,,,,,,,,,,,,,,,,,,,,
1703503535.273520,1703503535.273975,122.000000,0.000000,4300.384766,4281.666504,4325.769043,4364.871582,4284.615234,4262.692383,4283.077148,4263.205078,4246.794922,4247.307617,4503.333496,4473.589844,4431.922852,4441.153809,6067.000000,3.000000,62.000000,,,,0.000000,4.000000,4.000000,4.000000,4.000000,4.000000,4.000000,4.000000,4.000000,4.000000,4.000000,4.000000,4.000000,4.000000,4.000000,100.000000,,,,,,,,,,,,,,,,,,,,,,,,,,,,
1703503535.281328,1703503535.281783,123.000000,0.000000,4308.205078,4288.077148,4331.794922,4364.487305,4290.384766,4262.307617,4284.487305,4271.666504,4254.102539,4251.922852,4512.179688,4479.615234,4437.051270,4442.436035,6346.000000,3.000000,62.000000,,,,0.000000,4.000000,4.000000,4.000000,4.000000,4.000000,4.000000,4.000000,4.000000,4.000000,4.000000,4.000000,4.000000,4.000000,4.000000,100.000000,,,,,,,,,,,,,,,,,,,,,,,,,,,,
1703503535.289136,1703503535.289491,124.000000,0.000000,4313.461426,4292.307617,4338.717773,4368.846191,4294.871582,4267.563965,4285.512695,4276.538574,4261.794922,4252.820313,4519.615234,4488.205078,4445.769043,4445.769043,6883.000000,3.000000,62.000000,,,,0.000000,4.000000,4.000000,4.000000,4.000000,4.000000,4.000000,4.000000,4.000000,4.000000,4.000000,4.000000,4.000000,4.000000,4.000000,100.000000,,,,,,,,,,,,,,,,,31.000000,0.000000,0.434675,0.519714,-0.452881,0.579529,0.988890,-0.082530,0.053717,-15.102651,-40.033501,61.786438
1703503535.296944,1703503535.297299,125.000000,0.000000,4310.256348,4294.358887,4337.179688,4378.589844,4297.563965,4276.025879,4288.589844,4276.922852,4262.563965,4256.153809,4521.666504,4487.179688,4446.153809,4446.538574,7242.000000,3.000000,62.000000,,,,0.000000,4.000000,4.000000,4.000000,4.000000,4.000000,4.000000,4.000000,4.000000,4.000000,4.000000,4.000000,4.000000,4.000000,4.000000,100.000000,,,,,,,,,,,,,,,,,,,,,,,,,,,,
1703503535.304752,1703503535.305007,126.000000,0.000000,4302.179688,4290.641113,4329.487305,4377.820313,4299.230957,4278.846191,4286.153809,4276.794922,4258.974121,4253.974121,4516.282227,4477.948730,4442.179688,4441.025879,6067.000000,3.000000,62.000000,,,,0.000000,4.000000,4.000000,4.000000,4.000000,4.000000,4.000000,4.000000,4.000000,4.000000,4.000000,4.000000,4.000000,4.000000,4.000000,100.000000,,,,,,,,,,,,,,,,,,,,,,,,,,,,
1703503535.312560,1703503535.312915,127.000000,0.000000,4295.897461,4281.666504,4325.256348,4365.384766,4296.282227,4276.538574,4278.717773,4269.871582,4258.077148,4250.128418,4508.846191,4474.102539,4438.717773,4435.641113,62.000000,3.000000,62.000000,,,,0.000000,4.000000,4.000000,4.000000,4.000000,4.000000,4.000000,4.000000,4.000000,4.000000,4.000000,4.000000,4.000000,4.000000,4.000000,100.000000,,,,,,,,,,,,,,,,,,,,,,,,,,,,
1703503535.320368,1703503535.320723,0.000000,0.000000,4299.871582,4283.333496,4326.666504,4360.641113,4295.512695,4272.820313,4275.897461,4266.666504,4260.512695,4256.410156,4514.615234,4481.025879,4443.077148,4443.077148,5283.000000,3.000000,62.000000,,,,0.000000,4.000000,4.000000,4.000000,4.000000,4.000000,4.000000,4.000000,4.000000,4.000000,4.000000,4.000000,4.000000,4.000000,4.000000,100.000000,,,,,,,,,,,,,,,,,0.000000,0.000000,0.434374,0.519897,-0.452881,0.579590,0.984984,-0.078623,0.050787,-15.025719,-39.996819,61.774460
1703503535.328177,1703503535.328631,1.000000,0.000000,4309.487305,4292.179688,4332.820313,4369.230957,4296.922852,4273.846191,4284.102539,4273.974121,4265.000000,4264.615234,4524.487305,4495.641113,4452.179688,4457.307617,5519.000000,3.000000,62.000000,,,,0.000000,4.000000,4.000000,4.000000,4.000000,4.000000,4.000000,4.000000,4.000000,4.000000,4.000000,4.000000,4.000000,4.000000,4.000000,100.000000,,,,,,,,,,,,,,,,,,,,,,,,,,,,
1703503535.335985,1703503535.336439,2.000000,0.000000,4311.794922,4295.384766,4341.025879,4376.538574,4294.102539,4279.230957,4290.384766,4277.436035,4264.743652,4262.051270,4531.410156,4504.487305,4456.538574,4461.538574,5417.000000,3.000000,62.000000,,,,0.000000,4.000000,4.000000,4.000000,4.000000,4.000000,4.000000,4.000000,4.000000,4.000000,4.000000,4.000000,4.000000,4.000000,4.000000,100.000000,,,,,,,,,,,,,,,,,,,,,,,,,,,,
1703503535.343793,1703503535.344347,3.000000,0.000000,4310.256348,4293.717773,4342.820313,4374.871582,4293.461426,4275.128418,4284.102539,4276.538574,4263.333496,4262.948730,4543.974121,4504.743652,4464.102539,4463.077148,5390.000000,3.000000,62.000000,,,,0.000000,4.000000,4.000000,4.000000,4.000000,4.000000,4.000000,4.000000,4.000000,4.000000,4.000000,4.000000,4.000000,4.000000,4.000000,100.000000,,,,,,,,,,,,,,,,,,,,,,,,,,,,
1703503535.351601,1703503535.352155,4.000000,0.000000,4312.563965,4296.922852,4340.128418,4371.794922,4291.666504,4262.820313,4278.077148,4278.717773,4264.102539,4267.179688,4549.487305,4505.769043,4466.538574,4463.333496,5305.000000,3.000000,62.000000,,,,0.000000,4.000000,4.000000,4.000000,4.000000,4.000000,4.000000,4.000000,4.000000,4.000000,4.000000,4.000000,4.000000,4.000000,4.000000,100.000000,,,,,,,,,,,,,,,,,1.000000,0.000000,0.434046,0.520142,-0.452759,0.579712,0.976193,-0.084971,0.056159,-15.006480,-39.880470,61.597015
1703503535.359409,1703503535.360062,5.000000,0.000000,4320.641113,4304.102539,4342.948730,4375.512695,4290.641113,4264.743652,4284.743652,4278.589844,4259.871582,4261.538574,4544.743652,4505.897461,4463.461426,4463.974121,4929.000000,3.000000,62.000000,,,,0.000000,4.000000,4.000000,4.000000,4.000000,4.000000,4.000000,4.000000,4.000000,4.000000,4.000000,4.000000,4.000000,4.000000,4.000000,100.000000,,,,,,,,,,,,,,,,,,,,,,,,,,,,
1703503535.367217,1703503535.367870,6.000000,0.000000,4327.307617,4308.589844,4351.794922,4383.205078,4295.384766,4277.948730,4297.948730,4279.102539,4254.102539,4261.282227,4550.641113,4509.743652,4472.820313,4475.897461,4046.000000,3.000000,62.000000,,,,0.000000,4.000000,4.000000,4.000000,4.000000,4.000000,4.000000,4.000000,4.000000,4.000000,4.000000,4.000000,4.000000,4.000000,4.000000,100.000000,,,,,,,,,,,,,,,,,,,,,,,,,,,,
1703503535.375025,1703503535.375778,7.000000,0.000000,4326.666504,4309.487305,4355.000000,4384.358887,4300.128418,4281.410156,4297.820313,4279.487305,4249.358887,4263.205078,4550.897461,4511.922852,4475.769043,4476.922852,5033.000000,3.000000,62.000000,,,,0.000000,4.000000,4.000000,4.000000,4.000000,4.000000,4.000000,4.000000,4.000000,4.000000,4.000000,4.000000,4.000000,4.000000,4.000000,100.000000,,,,,,,,,,,,,,,,,,,,,,,,,,,,
1703503535.382833,1703503535.383586,8.000000,0.000000,4323.974121,4308.974121,4348.589844,4380.512695,4303.461426,4278.461426,4285.769043,4272.820313,4242.820313,4251.153809,4535.641113,4497.563965,4460.128418,4460.384766,4988.000000,3.000000,62.000000,,,,0.000000,4.000000,4.000000,4.000000,4.000000,4.000000,4.000000,4.000000,4.000000,4.000000,4.000000,4.000000,4.000000,4.000000,4.000000,100.000000,,,,,,,,,,,,,,,,,2.000000,0.000000,0.434128,0.520142,-0.452759,0.579651,0.985472,-0.079600,0.044439,-15.005833,-39.925755,61.537312
1703503535.390641,1703503535.391294,9.000000,0.000000,4322.051270,4311.025879,4342.692383,4382.692383,4307.692383,4278.461426,4284.615234,4270.897461,4241.666504,4244.358887,4534.102539,4489.871582,4455.769043,4455.641113,5524.000000,3.000000,62.000000,,,,0.000000,4.000000,4.000000,4.000000,4.000000,4.000000,4.000000,4.000000,4.000000,4.000000,4.000000,4.000000,4.000000,4.000000,4.000000,100.000000,,,,,,,,,,,,,,,,,,,,,,,,,,,,
1703503535.398449,1703503535.399102,10.000000,0.000000,4319.358887,4312.179688,4342.820313,4385.000000,4311.922852,4279.102539,4292.948730,4279.102539,4255.769043,4260.128418,4543.846191,4499.615234,4463.589844,4463.333496,6057.000000,3.000000,62.000000,,,,0.000000,4.000000,4.000000,4.000000,4.000000,4.000000,4.000000,4.000000,4.000000,4.000000,4.000000,4.000000,4.000000,4.000000,4.000000,100.000000,,,,,,,,,,,,,,,,,,,,,,,,,,,,
1703503535.406257,1703503535.406810,11.000000,0.000000,4313.205078,4303.077148,4339.743652,4375.641113,4307.692383,4278.205078,4292.820313,4282.436035,4262.948730,4268.589844,4539.743652,4498.461426,4458.461426,4457.307617,6339.000000,3.000000,62.000000,,,,0.000000,4.000000,4.000000,4.000000,4.000000,4.000000,4.000000,4.000000,4.000000,4.000000,4.000000,4.000000,4.000000,4.000000,4.000000,100.000000,,,,,,,,,,,,,,,,,,,,,,,,,,,,
1703503535.414065,1703503535.414618,12.000000,0.000000,4307.179688,4295.641113,4335.000000,4367.307617,4298.461426,4277.307617,4290.000000,4276.922852,4253.589844,4258.077148,4528.846191,4484.102539,4447.436035,4444.871582,6853.000000,3.000000,62.000000,,,,0.000000,4.000000,4.000000,4.000000,4.000000,4.000000,4.000000,4.000000,4.000000,4.000000,4.000000,4.000000,4.000000,4.000000,4.000000,100.000000,,,,,,,,,,,,,,,,,3.000000,0.000000,0.434253,0.520203,-0.452881,0.579407,0.997680,-0.079111,0.050299,-15.021915,-39.899845,61.716915
1703503535.421873,1703503535.422326,13.000000,0.000000,4309.487305,4305.000000,4336.666504,4370.512695,4295.897461,4278.077148,4293.589844,4281.282227,4256.282227,4258.717773,4535.384766,4485.256348,4453.077148,4451.025879,7244.000000,3.000000,62.000000,,,,0.000000,4.000000,4.000000,4.000000,4.000000,4.000000,4.000000,4.000000,4.000000,4.000000,4.000000,4.000000,4.000000,4.000000,4.000000,100.000000,,,,,,,,,,,,,,,,,,,,,,,,,,,,
1703503535.429681,1703503535.430134,14.000000,0.000000,4314.615234,4311.794922,4340.000000,4374.487305,4296.410156,4279.487305,4295.256348,4289.743652,4260.000000,4259.358887,4542.948730,4493.974121,4461.282227,4461.794922,6057.000000,3.000000,62.000000,,,,0.000000,4.000000,4.000000,4.000000,4.000000,4.000000,4.000000,4.000000,4.000000,4.000000,4.000000,4.000000,4.000000,4.000000,4.000000,100.000000,,,,,,,,,,,,,,,,,,,,,,,,,,,,
1703503535.437489,1703503535.437842,15.000000,0.000000,4312.820313,4309.102539,4338.205078,4373.205078,4296.153809,4280.641113,4293.974121,4283.077148,4244.487305,4243.589844,4530.769043,4485.641113,4447.307617,4456.794922,6339.000000,3.000000,62.000000,,,,0.000000,4.000000,4.000000,4.000000,4.000000,4.000000,4.000000,4.000000,4.000000,4.000000,4.000000,4.000000,4.000000,4.000000,4.000000,100.000000,,,,,,,,,,,,,,,,,,,,,,,,,,,,
1703503535.445297,1703503535.445650,16.000000,0.000000,4311.410156,4311.025879,4337.692383,4372.436035,4298.205078,4281.025879,4295.000000,4276.922852,4239.871582,4240.769043,4526.410156,4482.820313,4436.794922,4453.205078,0.000000,3.000000,62.000000,,,,0.000000,4.000000,4.000000,4.000000,4.000000,4.000000,4.000000,4.000000,4.000000,4.000000,4.000000,4.000000,4.000000,4.000000,4.000000,100.000000,,,,,,,,,,,,,,,,,4.000000,0.000000,0.434232,0.520386,-0.453003,0.579163,0.984495,-0.077158,0.046392,-15.153058,-39.776527,61.728558
1703503535.453105,1703503535.453358,17.000000,0.000000,4317.051270,4311.922852,4343.846191,4375.769043,4298.333496,4280.897461,4295.384766,4282.436035,4250.384766,4248.717773,4539.615234,4498.205078,4447.051270,4459.487305,0.000000,3.000000,62.000000,,,,0.000000,4.000000,4.000000,4.000000,4.000000,4.000000,4.000000,4.000000,4.000000,4.000000,4.000000,4.000000,4.000000,4.000000,4.000000,100.000000,,,,,,,,,,,,,,,,,,,,,,,,,,,,
1703503535.460913,1703503535.461166,18.000000,0.000000,4324.871582,4312.051270,4351.922852,4379.487305,4296.538574,4281.794922,4294.358887,4283.077148,4248.461426,4250.128418,4548.974121,4510.256348,4457.179688,4468.717773,0.000000,3.000000,62.000000,,,,0.000000,4.000000,4.000000,4.000000,4.000000,4.000000,4.000000,4.000000,4.000000,4.000000,4.000000,4.000000,4.000000,4.000000,4.000000,100.000000,,,,,,,,,,,,,,,,,,,,,,,,,,,,
1703503535.468722,1703503535.468875,19.000000,0.000000,4328.717773,4319.487305,4355.897461,4380.512695,4297.307617,4281.282227,4294.487305,4278.205078,4245.512695,4256.666504,4554.743652,4515.512695,4460.769043,4479.358887,0.000000,3.000000,62.000000,,,,0.000000,4.000000,4.000000,4.000000,4.000000,4.000000,4.000000,4.000000,4.000000,4.000000,4.000000,4.000000,4.000000,4.000000,4.000000,100.000000,,,,,,,,,,,,,,,,,,,,,,,,,,,,
1703503535.476529,1703503535.476682,20.000000,0.000000,4327.563965,4321.282227,4355.769043,4380.512695,4295.256348,4280.384766,4292.179688,4279.358887,4251.410156,4265.769043,4558.717773,4520.512695,4461.922852,4481.410156,0.000000,3.000000,62.000000,,,,0.000000,4.000000,4.000000,4.000000,4.000000,4.000000,4.000000,4.000000,4.000000,4.000000,4.000000,4.000000,4.000000,4.000000,4.000000,100.000000,,,,,,,,,,,,,,,,,5.000000,0.000000,0.434169,0.520386,-0.453064,0.579163,0.994262,-0.071298,0.057624,-15.087751,-39.748875,61.605701
1703503535.484338,1703503535.484391,21.000000,0.000000,4327.820313,4313.205078,4355.256348,4378.589844,4290.256348,4276.025879,4284.358887,4281.794922,4252.563965,4262.307617,4558.205078,4521.025879,4462.436035,4476.025879,0.000000,3.000000,62.000000,,,,0.000000,4.000000,4.000000,4.000000,4.000000,4.000000,4.000000,4.000000,4.000000,4.000000,4.000000,4.000000,4.000000,4.000000,4.000000,100.000000,,,,,,,,,,,,,,,,,,,,,,,,,,,,
1703503535.492146,1703503535.492298,22.000000,0.000000,4325.384766,4309.487305,4353.333496,4369.358887,4282.692383,4266.666504,4277.820313,4279.871582,4250.256348,4252.307617,4551.666504,4511.282227,4455.384766,4472.563965,0.000000,3.000000,62.000000,,,,0.000000,4.000000,4.000000,4.000000,4.000000,4.000000,4.000000,4.000000,4.000000,4.000000,4.000000,4.000000,4.000000,4.000000,4.000000,100.000000,,,,,,,,,,,,,,,,,,,,,,,,,,,,
1703503535.499954,1703503535.500106,23.000000,0.000000,4314.615234,4306.282227,4343.846191,4361.410156,4279.230957,4263.846191,4276.282227,4279.871582,4249.615234,4247.820313,4540.128418,4500.256348,4440.384766,4460.384766,0.000000,3.000000,62.000000,,,,0.000000,4.000000,4.000000,4.000000,4.000000,4.000000,4.000000,4.000000,4.000000,4.000000,4.000000,4.000000,4.000000,4.000000,4.000000,100.000000,,,,,,,,,,,,,,,,,,,,,,,,,,,,
1703503535.507762,1703503535.508014,24.000000,0.000000,4306.922852,4302.051270,4335.384766,4363.589844,4287.820313,4274.230957,4282.179688,4287.948730,4254.358887,4247.820313,4534.871582,4501.666504,4435.128418,4452.563965,0.000000,3.000000,62.000000,,,,0.000000,4.000000,4.000000,4.000000,4.000000,4.000000,4.000000,4.000000,4.000000,4.000000,4.000000,4.000000,4.000000,4.000000,4.000000,100.000000,,,,,,,,,,,,,,,,,6.000000,0.000000,0.433960,0.520386,-0.453186,0.579224,0.982542,-0.072763,0.051764,-14.928977,-39.740654,61.778465
1703503535.515570,1703503535.515822,25.000000,0.000000,4312.051270,4309.102539,4339.743652,4368.846191,4296.538574,4284.615234,4293.846191,4298.333496,4262.820313,4246.025879,4540.641113,4508.717773,4444.230957,4460.897461,0.000000,3.000000,62.000000,,,,0.000000,4.000000,4.000000,4.000000,4.000000,4.000000,4.000000,4.000000,4.000000,4.000000,4.000000,4.000000,4.000000,4.000000,4.000000,100.000000,,,,,,,,,,,,,,,,,,,,,,,,,,,,
1703503535.523378,1703503535.523730,26.000000,0.000000,4312.051270,4310.897461,4337.948730,4370.897461,4296.538574,4282.436035,4292.051270,4297.563965,4264.743652,4249.871582,4545.769043,4501.282227,4448.205078,4457.307617,0.000000,3.000000,62.000000,,,,0.000000,4.000000,4.000000,4.000000,4.000000,4.000000,4.000000,4.000000,4.000000,4.000000,4.000000,4.000000,4.000000,4.000000,4.000000,100.000000,,,,,,,,,,,,,,,,,,,,,,,,,,,,
1703503535.531186,1703503535.531538,27.000000,0.000000,4302.051270,4298.717773,4324.102539,4365.512695,4291.794922,4273.717773,4281.282227,4286.025879,4255.897461,4254.230957,4541.666504,4488.717773,4438.461426,4441.282227,0.000000,3.000000,62.000000,,,,0.000000,4.000000,4.000000,4.000000,4.000000,4.000000,4.000000,4.000000,4.000000,4.000000,4.000000,4.000000,4.000000,4.000000,4.000000,100.000000,,,,,,,,,,,,,,,,,,,,,,,,,,,,
1703503535.538994,1703503535.539446,28.000000,0.000000,4303.846191,4299.743652,4323.974121,4361.794922,4288.333496,4274.230957,4282.051270,4279.102539,4247.179688,4242.692383,4535.641113,4488.077148,4434.743652,4442.307617,0.000000,3.000000,62.000000,,,,0.000000,4.000000,4.000000,4.000000,4.000000,4.000000,4.000000,4.000000,4.000000,4.000000,4.000000,4.000000,4.000000,4.000000,4.000000,100.000000,,,,,,,,,,,,,,,,,7.000000,0.000000,0.433706,0.520447,-0.453125,0.579407,0.993285,-0.080576,0.039556,-14.852746,-39.716591,61.733952
1703503535.546802,1703503535.547254,29.000000,0.000000,4311.538574,4312.692383,4336.666504,4369.230957,4287.436035,4277.179688,4288.205078,4280.128418,4245.641113,4234.358887,4535.512695,4492.307617,4440.128418,4450.897461,0.000000,3.000000,62.000000,,,,0.000000,4.000000,4.000000,4.000000,4.000000,4.000000,4.000000,4.000000,4.000000,4.000000,4.000000,4.000000,4.000000,4.000000,4.000000,100.000000,,,,,,,,,,,,,,,,,,,,,,,,,,,,
1703503535.554610,1703503535.555162,30.000000,0.000000,4311.538574,4311.153809,4341.025879,4375.256348,4288.077148,4269.615234,4285.384766,4275.000000,4245.512695,4245.000000,4538.717773,4496.282227,4440.512695,4448.461426,0.000000,3.000000,62.000000,,,,0.000000,4.000000,4.000000,4.000000,4.000000,4.000000,4.000000,4.000000,4.000000,4.000000,4.000000,4.000000,4.000000,4.000000,4.000000,100.000000,,,,,,,,,,,,,,,,,,,,,,,,,,,,
1703503535.562418,1703503535.562970,31.000000,0.000000,4316.410156,4310.512695,4342.692383,4376.025879,4290.897461,4263.846191,4281.666504,4271.794922,4247.820313,4250.128418,4548.589844,4504.487305,4447.179688,4458.077148,0.000000,3.000000,62.000000,,,,0.000000,4.000000,4.000000,4.000000,4.000000,4.000000,4.000000,4.000000,4.000000,4.000000,4.000000,4.000000,4.000000,4.000000,4.000000,100.000000,,,,,,,,,,,,,,,,,,,,,,,,,,,,
1703503535.570226,1703503535.570678,32.000000,0.000000,4328.846191,4325.512695,4350.384766,4380.512695,4295.384766,4267.179688,4281.794922,4275.897461,4250.256348,4247.563965,4558.461426,4512.051270,4461.282227,4476.922852,0.000000,3.000000,62.000000,,,,0.000000,4.000000,4.000000,4.000000,4.000000,4.000000,4.000000,4.000000,4.000000,4.000000,4.000000,4.000000,4.000000,4.000000,4.000000,100.000000,,,,,,,,,,,,,,,,,8.000000,0.000000,0.433451,0.520447,-0.453369,0.579407,0.995727,-0.083018,0.044439,-14.800804,-39.761597,61.843887
1703503535.578034,1703503535.578486,33.000000,0.000000,4331.538574,4331.153809,4354.487305,4386.282227,4294.230957,4266.282227,4278.077148,4271.538574,4249.871582,4250.128418,4557.307617,4508.974121,4459.871582,4473.589844,0.000000,3.000000,62.000000,,,,0.000000,4.000000,4.000000,4.000000,4.000000,4.000000,4.000000,4.000000,4.000000,4.000000,4.000000,4.000000,4.000000,4.000000,4.000000,100.000000,1.000000,91.666664,4.000000,4.000000,4.000000,3.000000,4.000000,4.000000,4.000000,4.000000,4.000000,4.000000,4.000000,4.000000,4.000000,4.000000,,,,,,,,,,,,
1703503535.585842,1703503535.586194,34.000000,0.000000,4324.871582,4320.000000,4353.461426,4386.153809,4290.897461,4268.205078,4276.410156,4265.256348,4252.051270,4250.641113,4557.948730,4504.871582,4452.692383,4463.974121,0.000000,3.000000,62.000000,,,,0.000000,4.000000,4.000000,4.000000,4.000000,4.000000,4.000000,4.000000,4.000000,4.000000,4.000000,4.000000,4.000000,4.000000,4.000000,100.000000,,,,,,,,,,,,,,,,,,,,,,,,,,,,
1703503535.593650,1703503535.594002,35.000000,0.000000,4324.102539,4314.615234,4354.358887,4382.563965,4293.846191,4280.641113,4285.384766,4274.871582,4254.871582,4249.743652,4565.384766,4507.307617,4458.461426,4467.307617,0.000000,3.000000,62.000000,,,,0.000000,4.000000,4.000000,4.000000,4.000000,4.000000,4.000000,4.000000,4.000000,4.000000,4.000000,4.000000,4.000000,4.000000,4.000000,100.000000,,,,,,,,,,,,,,,,,,,,,,,,,,,,
1703503535.601458,1703503535.601710,36.000000,0.000000,4322.051270,4312.563965,4346.025879,4375.641113,4295.512695,4284.615234,4293.589844,4282.563965,4252.563965,4252.307617,4559.230957,4502.820313,4455.512695,4464.743652,0.000000,3.000000,62.000000,,,,0.000000,4.000000,4.000000,4.000000,4.000000,4.000000,4.000000,4.000000,4.000000,4.000000,4.000000,4.000000,4.000000,4.000000,4.000000,100.000000,,,,,,,,,,,,,,,,,9.000000,0.000000,0.433250,0.520508,-0.453491,0.579407,0.987425,-0.079600,0.049811,-15.020724,-39.935436,61.776169
1703503535.609266,1703503535.609618,37.000000,0.000000,4310.769043,4300.512695,4327.820313,4362.436035,4288.717773,4278.974121,4292.820313,4276.922852,4248.589844,4246.666504,4546.282227,4488.974121,4440.897461,4449.102539,0.000000,3.000000,62.000000,,,,0.000000,4.000000,4.000000,4.000000,4.000000,4.000000,4.000000,4.000000,4.000000,4.000000,4.000000,4.000000,4.000000,4.000000,4.000000,100.000000,,,,,,,,,,,,,,,,,,,,,,,,,,,,
1703503535.617074,1703503535.617426,38.000000,0.000000,4303.589844,4293.333496,4326.282227,4358.974121,4282.820313,4278.333496,4293.333496,4278.974121,4251.025879,4242.436035,4546.922852,4488.589844,4439.358887,4443.333496,0.000000,3.000000,62.000000,,,,0.000000,4.000000,4.000000,4.000000,4.000000,4.000000,4.000000,4.000000,4.000000,4.000000,4.000000,4.000000,4.000000,4.000000,4.000000,100.000000,,,,,,,,,,,,,,,,,,,,,,,,,,,,
1703503535.624883,1703503535.625334,39.000000,0.000000,4308.974121,4306.410156,4335.000000,4374.358887,4287.692383,4281.794922,4297.179688,4292.436035,4261.794922,4255.384766,4556.922852,4499.102539,4451.410156,4449.102539,0.000000,3.000000,62.000000,,,,0.000000,4.000000,4.000000,4.000000,4.000000,4.000000,4.000000,4.000000,4.000000,4.000000,4.000000,4.000000,4.000000,4.000000,4.000000,100.000000,,,,,,,,,,,,,,,,,,,,,,,,,,,,
1703503535.632691,1703503535.633142,40.000000,0.000000,4311.025879,4314.358887,4331.282227,4378.461426,4295.641113,4283.461426,4295.897461,4298.974121,4267.051270,4259.871582,4560.384766,4496.410156,4452.948730,4448.333496,0.000000,3.000000,62.000000,,,,0.000000,4.000000,4.000000,4.000000,4.000000,4.000000,4.000000,4.000000,4.000000,4.000000,4.000000,4.000000,4.000000,4.000000,4.000000,100.000000,,,,,,,,,,,,,,,,,10.000000,0.000000,0.433113,0.520447,-0.453613,0.579468,0.978147,-0.092785,0.041509,-15.085319,-40.008560,61.715218
1703503535.640499,1703503535.640950,41.000000,0.000000,4305.000000,4304.615234,4323.974121,4360.897461,4295.641113,4282.820313,4292.051270,4291.153809,4259.615234,4248.589844,4548.846191,4487.692383,4438.589844,4441.282227,0.000000,3.000000,62.000000,,,,0.000000,4.000000,4.000000,4.000000,4.000000,4.000000,4.000000,4.000000,4.000000,4.000000,4.000000,4.000000,4.000000,4.000000,4.000000,100.000000,,,,,,,,,,,,,,,,,,,,,,,,,,,,
1703503535.648307,1703503535.648658,42.000000,0.000000,4303.846191,4301.666504,4324.230957,4358.077148,4293.589844,4281.666504,4292.692383,4281.025879,4256.794922,4251.794922,4546.153809,4487.051270,4434.487305,4441.153809,0.000000,3.000000,62.000000,,,,0.000000,4.000000,4.000000,4.000000,4.000000,4.000000,4.000000,4.000000,4.000000,4.000000,4.000000,4.000000,4.000000,4.000000,4.000000,100.000000,,,,,,,,,,,,,,,,,,,,,,,,,,,,
1703503535.656115,1703503535.656466,43.000000,0.000000,4312.436035,4309.358887,4330.128418,4376.153809,4295.641113,4283.077148,4293.974121,4281.025879,4260.512695,4259.230957,4559.615234,4489.487305,4446.282227,4447.179688,0.000000,3.000000,62.000000,,,,0.000000,4.000000,4.000000,4.000000,4.000000,4.000000,4.000000,4.000000,4.000000,4.000000,4.000000,4.000000,4.000000,4.000000,4.000000,100.000000,,,,,,,,,,,,,,,,,,,,,,,,,,,,
1703503535.663923,1703503535.664174,44.000000,0.000000,4315.769043,4311.282227,4335.000000,4376.922852,4297.563965,4280.641113,4287.179688,4281.153809,4258.077148,4251.794922,4561.794922,4490.512695,4449.871582,4450.897461,0.000000,3.000000,62.000000,,,,0.000000,4.000000,4.000000,4.000000,4.000000,4.000000,4.000000,4.000000,4.000000,4.000000,4.000000,4.000000,4.000000,4.000000,4.000000,100.000000,,,,,,,,,,,,,,,,,11.000000,0.000000,0.433067,0.520447,-0.453735,0.579407,0.976682,-0.078623,0.040532,-15.010119,-40.157703,61.827030
1703503535.671731,1703503535.671982,45.000000,0.000000,4313.589844,4307.820313,4336.538574,4366.410156,4292.307617,4267.563965,4276.538574,4281.025879,4255.384766,4250.384766,4559.358887,4497.307617,4443.461426,4456.025879,0.000000,3.000000,62.000000,,,,0.000000,4.000000,4.000000,4.000000,4.000000,4.000000,4.000000,4.000000,4.000000,4.000000,4.000000,4.000000,4.000000,4.000000,4.000000,100.000000,,,,,,,,,,,,,,,,,,,,,,,,,,,,
1703503535.679539,1703503535.679690,46.000000,0.000000,4317.179688,4305.256348,4340.769043,4368.333496,4283.589844,4260.256348,4275.000000,4288.589844,4262.692383,4263.461426,4566.794922,4507.692383,4447.179688,4461.153809,0.000000,3.000000,62.000000,,,,0.000000,4.000000,4.000000,4.000000,4.000000,4.000000,4.000000,4.000000,4.000000,4.000000,4.000000,4.000000,4.000000,4.000000,4.000000,100.000000,,,,,,,,,,,,,,,,,,,,,,,,,,,,
1703503535.687347,1703503535.687598,47.000000,0.000000,4317.948730,4302.563965,4344.102539,4367.051270,4279.743652,4265.769043,4279.615234,4296.794922,4273.846191,4273.717773,4573.717773,4509.615234,4458.717773,4458.333496,0.000000,3.000000,62.000000,,,,0.000000,4.000000,4.000000,4.000000,4.000000,4.000000,4.000000,4.000000,4.000000,4.000000,4.000000,4.000000,4.000000,4.000000,4.000000,100.000000,,,,,,,,,,,,,,,,,,,,,,,,,,,,
1703503535.695155,1703503535.695406,48.000000,0.000000,4311.410156,4293.974121,4333.461426,4353.461426,4279.487305,4269.871582,4279.615234,4295.641113,4272.307617,4266.666504,4560.897461,4495.769043,4449.615234,4443.717773,0.000000,3.000000,62.000000,,,,0.000000,4.000000,4.000000,4.000000,4.000000,4.000000,4.000000,4.000000,4.000000,4.000000,4.000000,4.000000,4.000000,4.000000,4.000000,100.000000,,,,,,,,,,,,,,,,,12.000000,0.000000,0.433067,0.520447,-0.453735,0.579407,0.994750,-0.086925,0.040532,-14.942441,-40.075268,61.810993
1703503535.702963,1703503535.703314,49.000000,0.000000,4303.461426,4283.461426,4321.538574,4345.897461,4278.461426,4273.461426,4279.743652,4292.692383,4261.922852,4248.333496,4538.461426,4479.230957,4427.948730,4432.436035,0.000000,3.000000,62.000000,,,,0.000000,4.000000,4.000000,4.000000,4.000000,4.000000,4.000000,4.000000,4.000000,4.000000,4.000000,4.000000,4.000000,4.000000,4.000000,100.000000,,,,,,,,,,,,,,,,,,,,,,,,,,,,
1703503535.710771,1703503535.711122,50.000000,0.000000,4296.922852,4280.128418,4322.051270,4348.974121,4276.025879,4278.461426,4286.922852,4292.948730,4259.871582,4242.948730,4540.000000,4482.307617,4430.256348,4438.717773,0.000000,3.000000,62.000000,,,,0.000000,4.000000,4.000000,4.000000,4.000000,4.000000,4.000000,4.000000,4.000000,4.000000,4.000000,4.000000,4.000000,4.000000,4.000000,100.000000,,,,,,,,,,,,,,,,,,,,,,,,,,,,
1703503535.718579,1703503535.719030,51.000000,0.000000,4299.615234,4279.743652,4325.769043,4350.641113,4275.641113,4278.461426,4291.922852,4292.179688,4261.410156,4249.230957,4555.512695,4491.794922,4444.743652,4442.948730,0.000000,3.000000,62.000000,,,,0.000000,4.000000,4.000000,4.000000,4.000000,4.000000,4.000000,4.000000,4.000000,4.000000,4.000000,4.000000,4.000000,4.000000,4.000000,100.000000,,,,,,,,,,,,,,,,,,,,,,,,,,,,
1703503535.726387,1703503535.726838,52.000000,0.000000,4307.820313,4280.128418,4326.794922,4353.461426,4281.025879,4277.307617,4288.974121,4294.358887,4261.410156,4253.974121,4556.538574,4489.487305,4446.922852,4444.487305,0.000000,3.000000,62.000000,,,,0.000000,4.000000,4.000000,4.000000,4.000000,4.000000,4.000000,4.000000,4.000000,4.000000,4.000000,4.000000,4.000000,4.000000,4.000000,100.000000,,,,,,,,,,,,,,,,,13.000000,0.000000,0.433003,0.520447,-0.453796,0.579407,0.993285,-0.082041,0.050299,-14.881531,-40.167740,61.796558
